SpectraSuite Data File
++++++++++++++++++++++++++++++++++++
Date: Fri Jun 02 14:51:06 CEST 2017
User: INFO_000
Dark Spectrum Present: No
Reference Spectrum Present: No
Number of Sampled Component Spectra: 1
Spectrometers: USB4H00879
Integration Time (usec): 80000 (USB4H00879)
Spectra Averaged: 1 (USB4H00879)
Boxcar Smoothing: 0 (USB4H00879)
Correct for Electrical Dark: No (USB4H00879)
Strobe/Lamp Enabled: No (USB4H00879)
Correct for Detector Non-linearity: No (USB4H00879)
Correct for Stray Light: No (USB4H00879)
Number of Pixels in Processed Spectrum: 3648
>>>>>Begin Processed Spectral Data<<<<<
345.13	1279.98
345.34	1279.98
345.56	1279.98
345.78	1251.31
345.99	1239.02
346.21	1708.01
346.42	1656.81
346.64	1673.19
346.86	1794.02
347.07	1652.71
347.29	1732.58
347.50	1648.61
347.72	1658.85
347.94	1771.49
348.15	1591.27
348.37	1583.08
348.59	1716.20
348.80	1607.66
349.02	1708.01
349.23	1767.40
349.45	1736.68
349.67	1871.84
349.88	1732.58
350.10	1880.04
350.31	1734.63
350.53	1697.77
350.75	1910.75
350.96	1777.64
351.18	1751.01
351.39	1779.68
351.61	1720.29
351.82	1918.95
352.04	1834.98
352.26	1822.69
352.47	1722.34
352.69	1855.46
352.90	1646.57
353.12	1800.16
353.34	1736.68
353.55	1884.13
353.77	1826.79
353.98	1738.73
354.20	1755.11
354.41	1806.31
354.63	1812.45
354.85	1990.63
355.06	1828.84
355.28	1626.09
355.49	1818.60
355.71	1753.06
355.92	1779.68
356.14	1834.98
356.35	1714.15
356.57	1761.25
356.79	1871.84
357.00	1724.39
357.22	1900.52
357.43	1697.77
357.65	1871.84
357.86	1755.11
358.08	1777.64
358.29	1763.30
358.51	1834.98
358.72	1845.22
358.94	1847.27
359.16	1834.98
359.37	1779.68
359.59	1738.73
359.80	1867.75
360.02	1884.13
360.23	1867.75
360.45	1859.56
360.66	1851.36
360.88	1738.73
361.09	1841.12
361.31	1863.65
361.52	1804.26
361.74	1890.28
361.95	1957.86
362.17	1812.45
362.38	1982.43
362.60	1814.50
362.81	1789.92
363.03	1857.51
363.24	1861.60
363.46	1910.75
363.67	1841.12
363.89	1785.83
364.10	1925.09
364.32	1802.21
364.53	1859.56
364.75	1773.54
364.96	1841.12
365.18	1943.52
365.39	1886.18
365.61	1822.69
365.82	2021.35
366.04	1949.67
366.25	1718.25
366.47	1927.14
366.68	1923.04
366.90	1859.56
367.11	1920.99
367.33	1900.52
367.54	1953.76
367.76	1863.65
367.97	2019.30
368.19	1974.24
368.40	1943.52
368.62	1843.17
368.83	1765.35
369.05	1880.04
369.26	1794.02
369.48	1806.31
369.69	1869.80
369.91	1890.28
370.12	1781.73
370.33	1896.42
370.55	1720.29
370.76	1869.80
370.98	1955.81
371.19	1976.29
371.41	1818.60
371.62	1925.09
371.84	1832.93
372.05	2011.11
372.27	1925.09
372.48	1939.43
372.69	1964.00
372.91	2054.11
373.12	1972.19
373.34	1841.12
373.55	2019.30
373.77	1937.38
373.98	1910.75
374.20	2086.88
374.41	2150.37
374.62	2002.91
374.84	2058.21
375.05	1976.29
375.27	2045.92
375.48	2023.39
375.70	2041.82
375.91	2086.88
376.12	2148.32
376.34	2025.44
376.55	1923.04
376.77	2131.94
376.98	2043.87
377.19	2068.45
377.41	2054.11
377.62	2156.51
377.84	2174.94
378.05	2156.51
378.27	2127.84
378.48	2095.07
378.69	2224.09
378.91	2238.43
379.12	2170.85
379.34	2011.11
379.55	2129.89
379.76	2129.89
379.98	2197.47
380.19	2146.27
380.41	2138.08
380.62	2183.13
380.83	2121.70
381.05	2007.01
381.26	2256.86
381.47	2041.82
381.69	2136.03
381.90	2295.77
382.12	2154.46
382.33	2142.18
382.54	2183.13
382.76	2217.95
382.97	2174.94
383.19	2119.65
383.40	2295.77
383.61	2150.37
383.83	2168.80
384.04	2187.23
384.25	2230.24
384.47	2220.00
384.68	2226.14
384.89	2232.29
385.11	2267.10
385.32	2244.57
385.54	2240.48
385.75	2222.05
385.96	2355.16
386.18	2254.81
386.39	2316.25
386.60	2306.01
386.82	2387.93
387.03	2289.63
387.24	2443.23
387.46	2367.45
387.67	2445.27
387.88	2439.13
388.10	2392.03
388.31	2410.46
388.52	2478.04
388.74	2486.23
388.95	2492.38
389.16	2342.88
389.38	2412.51
389.59	2461.66
389.80	2523.10
390.02	2492.38
390.23	2535.39
390.44	2428.89
390.66	2510.81
390.87	2353.12
391.08	2521.05
391.30	2613.21
391.51	2496.47
391.72	2584.54
391.94	2512.86
392.15	2607.06
392.36	2494.43
392.58	2488.28
392.79	2574.30
393.00	2662.36
393.22	2645.98
393.43	2641.88
393.64	2650.07
393.85	2697.17
394.07	2543.58
394.28	2580.44
394.49	2717.65
394.71	2594.78
394.92	2717.65
395.13	2588.63
395.35	2639.83
395.56	2605.02
395.77	2678.74
395.98	2764.76
396.20	2783.19
396.41	2871.25
396.62	2824.15
396.84	2826.20
397.05	2752.47
397.26	2752.47
397.47	2836.44
397.69	2746.33
397.90	2897.88
398.11	2842.58
398.32	2758.61
398.54	2836.44
398.75	2908.12
398.96	2889.68
399.18	3004.37
399.39	2856.92
399.60	3006.42
399.81	2846.68
400.03	2879.44
400.24	3190.74
400.45	2930.64
400.66	3016.66
400.88	2926.55
401.09	3168.21
401.30	3028.95
401.51	3094.48
401.73	3086.29
401.94	3049.43
402.15	2957.27
402.36	3006.42
402.58	3063.76
402.79	3108.82
403.00	2994.13
403.21	3123.15
403.43	3092.43
403.64	3127.25
403.85	3059.67
404.06	3215.31
404.27	2957.27
404.49	3033.04
404.70	3010.51
404.91	3246.03
405.12	3182.54
405.34	3094.48
405.55	3436.49
405.76	3088.34
405.97	3112.91
406.19	3313.61
406.40	3145.68
406.61	3188.69
406.82	3215.31
407.03	3139.54
407.25	3278.80
407.46	3405.77
407.67	3397.58
407.88	3297.23
408.09	3272.65
408.31	3246.03
408.52	3452.88
408.73	3311.57
408.94	3282.89
409.15	3362.76
409.37	3485.64
409.58	3436.49
409.79	3456.97
410.00	3463.12
410.21	3456.97
410.43	3395.53
410.64	3248.08
410.85	3485.64
411.06	3452.88
411.27	3499.98
411.48	3442.64
411.70	3485.64
411.91	3375.05
412.12	3565.51
412.33	3512.27
412.54	3381.20
412.76	3721.16
412.97	3657.67
413.18	3487.69
413.39	3633.10
413.60	3645.38
413.81	3465.16
414.03	3561.42
414.24	3604.42
414.45	3674.06
414.66	3514.31
414.87	3680.20
415.08	3512.27
415.30	3655.62
415.51	3749.83
415.72	3690.44
415.93	3590.09
416.14	3710.92
416.35	3733.45
416.56	3719.11
416.78	3792.84
416.99	3755.97
417.20	3788.74
417.41	3856.33
417.62	3909.57
417.83	3839.94
418.04	3762.12
418.26	3854.28
418.47	3723.21
418.68	3940.29
418.89	3770.31
419.10	4005.83
419.31	3919.81
419.52	4005.83
419.73	3854.28
419.95	3940.29
420.16	3854.28
420.37	3917.76
420.58	4007.87
420.79	3868.61
421.00	3975.11
421.21	4001.73
421.42	4024.26
421.63	4202.43
421.85	3919.81
422.06	4073.41
422.27	4022.21
422.48	4114.37
422.69	4177.86
422.90	4212.67
423.11	4102.08
423.32	4169.66
423.53	4114.37
423.75	4181.95
423.96	4313.02
424.17	4413.37
424.38	4274.11
424.59	4358.08
424.80	4427.71
425.01	4298.69
425.22	4249.54
425.43	4237.25
425.64	4513.72
425.85	4444.09
426.06	4528.06
426.28	4462.52
426.49	4501.44
426.70	4431.80
426.91	4478.91
427.12	4554.68
427.33	4501.44
427.54	4466.62
427.75	4671.42
427.96	4511.68
428.17	4671.42
428.38	4677.56
428.59	4816.82
428.80	4483.00
429.01	4706.23
429.23	4609.98
429.44	4786.10
429.65	4863.93
429.86	4927.41
430.07	4722.62
430.28	4829.11
430.49	4681.66
430.70	4898.74
430.91	4915.12
431.12	4745.14
431.33	5029.81
431.54	4990.90
431.75	5046.20
431.96	4880.31
432.17	4829.11
432.38	4888.50
432.59	5197.74
432.80	5130.16
433.01	5124.02
433.22	5105.59
433.43	5076.91
433.64	5162.93
433.85	5091.25
434.06	5232.56
434.27	5087.15
434.49	5232.56
434.70	5341.10
434.91	5259.18
435.12	5306.29
435.33	5314.48
435.54	5414.83
435.75	5148.59
435.96	5304.24
436.17	5132.21
436.38	5480.36
436.59	5642.15
436.80	5322.67
437.01	5689.26
437.22	5625.77
437.43	5463.98
437.64	5353.39
437.85	5588.91
438.06	5459.88
438.27	5414.83
438.48	5488.56
438.69	5552.04
438.90	5627.82
439.11	5509.04
439.32	5738.41
439.53	5586.86
439.74	5621.67
439.95	5730.22
440.16	5699.50
440.37	5711.78
440.57	5554.09
440.78	5756.84
440.99	5992.36
441.20	5742.50
441.41	5574.57
441.62	5722.02
441.83	5654.44
442.04	5959.59
442.25	5812.14
442.46	5803.94
442.67	5988.26
442.88	6305.70
443.09	5758.89
443.30	6010.79
443.51	6002.60
443.72	6102.95
443.93	5973.92
444.14	6258.59
444.35	5842.85
444.56	6176.67
444.77	6104.99
444.98	6229.92
445.19	6295.46
445.40	6281.12
445.61	6191.01
445.81	6252.45
446.02	6379.42
446.23	6168.48
446.44	6139.81
446.65	6311.84
446.86	6342.56
447.07	6416.29
447.28	6451.10
447.49	6414.24
447.70	6469.53
447.91	6500.25
448.12	6354.85
448.33	6657.95
448.54	6625.18
448.74	6504.35
448.95	6561.69
449.16	6473.63
449.37	6752.15
449.58	6549.40
449.79	6739.87
450.00	6600.60
450.21	6717.34
450.42	6840.22
450.63	6938.52
450.84	6782.87
451.05	6586.27
451.25	6721.43
451.46	6664.09
451.67	6918.04
451.88	6883.22
452.09	6924.18
452.30	6809.50
452.51	6973.33
452.72	7053.20
452.93	7194.51
453.13	6952.85
453.34	7116.69
453.55	7075.73
453.76	7223.19
453.97	7376.78
454.18	7126.93
454.39	7354.26
454.60	7118.74
454.81	7296.91
455.01	7403.41
455.22	7260.05
455.43	7317.39
455.64	7526.29
455.85	7829.38
456.06	7722.89
456.27	7518.09
456.48	7778.19
456.68	7636.88
456.89	7735.18
457.10	7692.17
457.31	7864.20
457.52	7769.99
457.73	7745.42
457.94	8118.15
458.14	7745.42
458.35	8079.24
458.56	7980.93
458.77	7872.39
458.98	8130.44
459.19	8054.66
459.39	8216.45
459.60	8232.83
459.81	8310.66
460.02	8505.21
460.23	8126.34
460.44	8548.22
460.65	8501.12
460.85	8505.21
461.06	8589.18
461.27	8275.84
461.48	8744.83
461.69	8658.81
461.89	8185.73
462.10	8619.90
462.31	8396.67
462.52	8683.39
462.73	8839.03
462.94	8966.01
463.14	8787.83
463.35	8685.44
463.56	9283.44
463.77	9199.48
463.98	8814.46
464.18	8935.29
464.39	9215.86
464.60	9269.11
464.81	9119.60
465.02	9146.23
465.23	9629.55
465.43	9379.70
465.64	9582.45
465.85	9621.36
466.06	9551.73
466.27	9736.04
466.47	9545.58
466.68	9805.67
466.89	9523.05
467.10	9856.87
467.30	9523.05
467.51	9760.62
467.72	10110.82
467.93	9766.76
468.14	10039.14
468.34	10096.49
468.55	10100.58
468.76	10241.89
468.97	10073.96
469.17	10403.68
469.38	10430.30
469.59	10602.33
469.80	10274.66
470.01	10305.38
470.21	10522.46
470.42	10727.26
470.63	10714.97
470.84	10774.36
471.04	10919.77
471.25	10917.72
471.46	10837.85
471.67	11233.11
471.87	11212.63
472.08	11138.90
472.29	11491.15
472.50	10874.71
472.70	11241.30
472.91	11259.73
473.12	11595.60
473.33	11452.24
473.53	11513.68
473.74	11716.43
473.95	11820.88
474.16	11937.61
474.36	11736.91
474.57	12203.85
474.78	12240.71
474.99	12017.48
475.19	11978.57
475.40	12316.48
475.61	12367.68
475.81	12496.71
476.02	12683.07
476.23	12482.37
476.44	12707.65
476.64	12953.40
476.85	13098.81
477.06	12990.27
477.27	13190.97
477.47	13283.13
477.68	13078.33
477.89	13285.17
478.09	13266.74
478.30	13418.29
478.51	13352.76
478.71	13549.36
478.92	13676.34
479.13	13993.77
479.34	13797.17
479.54	13831.98
479.75	13944.62
479.96	13893.42
480.16	14073.64
480.37	14122.79
480.58	14339.88
480.78	14536.48
480.99	14487.33
481.20	14618.40
481.41	14524.19
481.61	14847.77
481.82	14868.25
482.03	14862.11
482.23	15087.39
482.44	15109.91
482.65	15359.77
482.85	15267.61
483.06	15464.21
483.27	15574.80
483.47	15376.15
483.68	15585.04
483.89	15757.07
484.09	15763.22
484.30	15709.97
484.51	16107.27
484.71	15931.15
484.92	16119.56
485.13	16373.51
485.33	16324.36
485.54	16297.74
485.75	16344.84
485.95	16688.90
486.16	16963.33
486.37	16699.14
486.57	16721.66
486.78	16842.50
486.98	16795.39
487.19	17147.64
487.40	17153.79
487.60	17450.74
487.81	17452.79
488.02	17016.57
488.22	17491.70
488.43	17516.28
488.64	17667.83
488.84	17725.17
489.05	17972.97
489.25	17833.71
489.46	18095.85
489.67	18040.56
489.87	18331.37
490.08	18194.15
490.29	18613.99
490.49	18740.96
490.70	18722.53
490.90	18710.24
491.11	18912.99
491.32	18751.20
491.52	18884.32
491.73	18869.98
491.94	19003.10
492.14	19029.73
492.35	19572.44
492.55	19607.25
492.76	19349.21
492.97	19556.05
493.17	19574.49
493.38	19883.73
493.58	19924.69
493.79	20086.48
494.00	19771.09
494.20	19953.36
494.41	20352.71
494.61	20235.98
494.82	20391.62
495.02	20207.31
495.23	20262.60
495.44	20569.80
495.64	20651.72
495.85	20717.25
496.05	20848.32
496.26	20704.96
496.47	20872.90
496.67	21141.18
496.88	21202.62
497.08	21055.17
497.29	21429.94
497.49	21046.97
497.70	21300.92
497.91	21520.06
498.11	21677.75
498.32	21706.42
498.52	22118.06
498.73	21946.03
498.93	22097.58
499.14	21905.07
499.34	22044.34
499.55	22460.07
499.76	22185.65
499.96	22269.61
500.17	22400.68
500.37	22445.74
500.58	22380.20
500.78	22554.28
500.99	22935.20
501.19	22916.77
501.40	22769.32
501.60	22642.34
501.81	22984.35
502.02	23088.80
502.22	22742.69
502.43	23291.55
502.63	23367.32
502.84	23426.71
503.04	23342.75
503.25	23142.05
503.45	23627.42
503.66	23654.04
503.86	23670.42
504.07	24026.77
504.27	23549.59
504.48	24157.84
504.68	24018.58
504.89	24329.87
505.09	23938.71
505.30	24141.46
505.50	24055.44
505.71	24157.84
505.91	24426.12
506.12	24176.27
506.32	24479.37
506.53	24419.98
506.73	24428.17
506.94	24901.25
507.14	24686.22
507.35	24800.90
507.55	25089.67
507.76	24989.31
507.96	24925.83
508.17	25009.79
508.37	24911.49
508.58	25124.48
508.78	25202.30
508.99	25472.64
509.19	25429.63
509.40	25517.69
509.60	25060.99
509.81	25910.90
510.01	25466.49
510.22	25593.47
510.42	25734.78
510.63	25706.10
510.83	25599.61
511.04	25980.53
511.24	26134.13
511.44	25800.31
511.65	26304.11
511.85	25912.95
512.06	26142.32
512.26	26259.06
512.47	26637.93
512.67	26150.51
512.88	26580.59
513.08	26177.14
513.29	26422.89
513.49	26191.47
513.69	26332.78
513.90	26668.65
514.10	26609.26
514.31	26977.89
514.51	27025.00
514.72	26658.41
514.92	26701.42
515.13	26637.93
515.33	27076.19
515.53	27217.50
515.74	27178.59
515.94	27391.58
516.15	27125.35
516.35	27090.53
516.56	27248.22
516.76	27149.92
516.96	27387.49
517.17	27164.26
517.37	27276.90
517.58	27225.70
517.78	27432.54
517.99	27508.32
518.19	27792.98
518.39	28104.28
518.60	27901.53
518.80	27881.05
519.01	27973.21
519.21	28085.84
519.41	28171.86
519.62	27760.22
519.82	28178.00
520.03	28202.58
520.23	28227.15
520.43	27938.39
520.64	29197.89
520.84	28710.47
521.05	28778.06
521.25	28585.55
521.45	28587.60
521.66	29023.81
521.86	28786.25
522.07	28614.22
522.27	28812.87
522.47	28956.23
522.68	29140.55
522.88	29148.74
523.08	29357.63
523.29	28847.69
523.49	29212.23
523.70	29277.76
523.90	29615.68
524.10	29269.57
524.31	29666.88
524.51	29138.50
524.71	30025.27
524.92	29627.96
525.12	29924.92
525.33	29875.77
525.53	29992.50
525.73	30178.87
525.94	30295.60
526.14	30209.59
526.34	30283.31
526.55	30516.78
526.75	30551.60
526.95	30955.05
527.16	30271.03
527.36	30776.87
527.56	30920.23
527.77	31319.59
527.97	31106.60
528.17	30780.97
528.38	31299.11
528.58	31049.25
528.78	31374.88
528.99	31016.49
529.19	31434.27
529.39	31036.97
529.60	31725.08
529.80	31295.01
530.00	31591.97
530.21	31544.86
530.41	31870.49
530.61	31839.77
530.82	31933.98
531.02	32022.04
531.22	32159.25
531.43	31997.46
531.63	31987.22
531.83	32491.02
532.04	33064.46
532.24	32013.85
532.44	32683.53
532.64	32642.57
532.85	32847.37
533.05	33218.05
533.25	32960.01
533.46	33093.13
533.66	33357.32
533.86	32945.67
534.07	33439.23
534.27	33203.72
534.47	33527.30
534.67	33400.32
534.88	33445.38
535.08	33826.30
535.28	33836.54
535.49	33775.10
535.69	34117.11
535.89	33889.79
536.09	34133.50
536.30	34428.40
536.50	34491.89
536.70	34426.35
536.91	34348.53
537.11	34395.64
537.31	34565.62
537.51	34747.89
537.72	35173.86
537.92	34917.87
538.12	35089.90
538.32	34600.43
538.53	35210.73
538.73	34958.83
538.93	35182.06
539.13	35100.14
539.34	35481.06
539.54	35102.18
539.74	35290.60
539.94	35057.13
540.15	35632.61
540.35	35861.98
540.55	35522.02
540.75	35630.56
540.96	35941.85
541.16	35993.05
541.36	35933.66
541.56	36181.46
541.77	36441.56
541.97	36380.12
542.17	36277.72
542.37	36644.30
542.58	36304.34
542.78	36281.81
542.98	36380.12
543.18	36529.62
543.38	36787.66
543.59	37062.09
543.79	36869.58
543.99	36957.64
544.19	36890.06
544.40	37115.34
544.60	37277.13
544.80	37213.64
545.00	37270.98
545.20	37373.38
545.41	36877.77
545.61	37416.39
545.81	37707.20
546.01	37825.98
546.21	37180.87
546.42	37152.20
546.62	37758.40
546.82	37586.37
547.02	37608.90
547.22	38139.32
547.43	37885.37
547.63	37971.39
547.83	38059.45
548.03	37877.18
548.23	38276.54
548.44	38303.16
548.64	38057.40
548.84	38428.09
549.04	38172.09
549.24	38368.69
549.45	38559.16
549.65	38464.95
549.85	38675.89
550.05	39073.20
550.25	38802.86
550.45	39120.30
550.66	38985.13
550.86	38686.13
551.06	38819.25
551.26	38882.73
551.46	39384.49
551.66	39065.00
551.87	39009.71
552.07	39105.96
552.27	39003.56
552.47	39613.86
552.67	39478.69
552.87	39228.84
553.07	39341.48
553.28	39286.18
553.48	39699.87
553.68	39429.54
553.88	40127.90
554.08	39609.76
554.28	39583.14
554.48	39617.96
554.69	39538.08
554.89	40072.60
555.09	39953.82
555.29	39992.73
555.49	40088.99
555.69	40312.22
555.89	40142.24
556.10	40248.73
556.30	40127.90
556.50	40197.53
556.70	40191.39
556.90	40533.40
557.10	40566.16
557.30	40596.88
557.50	40936.85
557.70	40908.18
557.91	40738.19
558.11	40609.17
558.31	41231.75
558.51	40852.88
558.71	41035.15
558.91	40994.19
559.11	40891.79
559.31	40545.69
559.51	40502.68
559.72	41057.68
559.92	41102.73
560.12	40781.20
560.32	41190.80
560.52	41000.33
560.72	41293.19
560.92	41655.68
561.12	41393.54
561.32	41774.47
561.52	41352.58
561.72	41753.99
561.93	41377.16
562.13	41495.94
562.33	41069.97
562.53	42671.48
562.73	41323.91
562.93	41852.29
563.13	42061.18
563.33	41686.40
563.53	41895.30
563.73	41409.93
563.93	42032.51
564.13	42476.92
564.33	42448.25
564.53	42268.03
564.74	42218.88
564.94	42259.84
565.14	42382.71
565.34	42272.12
565.54	42481.02
565.74	42478.97
565.94	42407.29
566.14	42538.36
566.34	42777.97
566.54	42755.44
566.74	42464.63
566.94	42616.18
567.14	42726.77
567.34	42636.66
567.54	43398.51
567.74	42749.30
567.94	42730.87
568.14	43040.11
568.34	43271.53
568.54	43017.58
568.74	43269.48
568.94	43281.77
569.14	43584.87
569.34	43464.04
569.54	43541.86
569.75	43218.28
569.95	43627.88
570.15	44033.38
570.35	43717.99
570.55	43670.89
570.75	43701.61
570.95	43662.69
571.15	43476.33
571.35	43679.08
571.55	43820.39
571.75	44019.04
571.95	43967.84
572.15	43865.44
572.35	44201.31
572.55	44041.57
572.75	44328.28
572.95	44004.70
573.15	44150.11
573.35	44078.43
573.55	43902.31
573.75	44262.75
573.95	44344.67
574.15	44186.97
574.35	44565.85
574.55	44424.54
574.75	44457.31
574.95	44907.86
575.15	44553.56
575.34	44496.22
575.54	44905.81
575.74	45202.77
575.94	44625.24
576.14	44844.37
576.34	45505.87
576.54	45520.20
576.74	45129.04
576.94	45096.27
577.14	45491.53
577.34	45624.65
577.54	44989.78
577.74	45561.16
577.94	45274.45
578.14	45217.10
578.34	45446.47
578.54	45077.84
578.74	45696.33
578.94	45626.70
579.14	45958.47
579.34	45417.80
579.54	45565.26
579.74	46361.92
579.94	45956.42
580.13	46093.63
580.33	45804.87
580.53	46183.74
580.73	46333.24
580.93	45837.64
581.13	46445.88
581.33	46454.08
581.53	46533.95
581.73	46650.68
581.93	46953.78
582.13	46890.29
582.33	46519.61
582.53	46372.16
582.73	46900.53
582.92	46587.19
583.12	46773.56
583.32	47023.41
583.52	46738.74
583.72	47252.78
583.92	47041.84
584.12	47134.00
584.32	47574.31
584.52	47392.04
584.72	47457.58
584.92	47539.50
585.11	47842.60
585.31	47600.94
585.51	47301.93
585.71	47650.09
585.91	48258.34
586.11	47650.09
586.31	47885.61
586.51	47756.58
586.71	47777.06
586.91	47848.74
587.10	47713.58
587.30	48037.16
587.50	47836.45
587.70	48041.25
587.90	48100.64
588.10	48014.63
588.30	48119.07
588.50	48321.82
588.69	47897.89
588.89	47793.45
589.09	48479.52
589.29	48309.53
589.49	48860.44
589.69	48325.92
589.89	48624.92
590.08	48330.01
590.28	48133.41
590.48	47994.15
590.68	48459.04
590.88	48790.81
591.08	48313.63
591.28	48045.35
591.47	48891.16
591.67	48442.65
591.87	48930.07
592.07	49026.32
592.27	48745.75
592.47	48375.07
592.67	49136.91
592.86	48792.86
593.06	49517.84
593.26	49354.00
593.46	48858.39
593.66	49181.97
593.86	49403.15
594.05	49360.14
594.25	49288.46
594.45	48923.93
594.65	49292.56
594.85	48880.92
595.05	49050.90
595.24	49360.14
595.44	49358.09
595.64	49227.02
595.84	49720.59
596.04	49659.15
596.23	49562.89
596.43	49644.81
596.63	49847.56
596.83	49542.41
597.03	49995.01
597.22	50076.93
597.42	49810.70
597.62	50109.70
597.82	49730.83
598.02	49874.18
598.21	50351.36
598.41	50099.46
598.61	50445.57
598.81	49681.67
599.01	50177.28
599.20	50208.00
599.40	50357.50
599.60	50683.13
599.80	50341.12
600.00	50304.26
600.19	50603.26
600.39	50365.70
600.59	50545.92
600.79	50699.51
600.98	50494.72
601.18	50746.62
601.38	50754.81
601.58	50724.09
601.78	50631.93
601.97	50906.36
602.17	51408.11
602.37	50726.14
602.57	51051.76
602.76	51774.70
602.96	50887.93
603.16	51244.27
603.36	51258.61
603.55	51895.53
603.75	51254.51
603.95	51297.52
604.15	51262.71
604.34	50896.12
604.54	51188.98
604.74	51678.44
604.94	51352.82
605.13	51660.01
605.33	51510.51
605.53	51197.17
605.73	51526.89
605.92	51549.42
606.12	51574.00
606.32	52083.94
606.52	51688.68
606.71	51946.73
606.91	52010.21
607.11	51756.27
607.30	52194.53
607.50	51633.39
607.70	52045.03
607.90	51614.96
608.09	51889.38
608.29	51709.16
608.49	52753.63
608.68	51754.22
608.88	52239.59
609.08	52067.56
609.28	51901.67
609.47	51823.85
609.67	52638.94
609.87	52446.43
610.06	52434.14
610.26	51985.64
610.46	52540.64
610.66	51815.66
610.85	52341.99
611.05	52294.88
611.25	52061.41
611.44	52075.75
611.64	52301.03
611.84	51786.99
612.03	52085.99
612.23	52597.98
612.43	52634.84
612.62	52591.84
612.82	52763.87
613.02	52174.05
613.21	52231.40
613.41	52016.36
613.61	52399.33
613.80	52208.87
614.00	52382.94
614.20	52444.38
614.39	52356.32
614.59	52221.16
614.79	52479.20
614.98	52624.60
615.18	52331.75
615.38	52231.40
615.57	52413.66
615.77	52405.47
615.97	52810.97
616.16	52421.86
616.36	52331.75
616.56	52344.03
616.75	52544.73
616.95	52329.70
617.15	52546.78
617.34	52350.18
617.54	52157.67
617.74	52503.77
617.93	52524.25
618.13	52204.77
618.32	52294.88
618.52	52258.02
618.72	52485.34
618.91	52395.23
619.11	52329.70
619.31	52042.98
619.50	52612.32
619.70	52116.71
619.90	52520.16
620.09	52337.89
620.29	52069.61
620.48	52118.76
620.68	52763.87
620.88	51707.12
621.07	52413.66
621.27	52624.60
621.46	52126.95
621.66	52452.58
621.86	52421.86
622.05	52698.33
622.25	52870.36
622.44	52442.34
622.64	51981.54
622.84	52460.77
623.03	52139.24
623.23	52053.22
623.42	52458.72
623.62	52147.43
623.82	52817.11
624.01	52460.77
624.21	52421.86
624.40	52090.09
624.60	52331.75
624.80	52016.36
624.99	51852.52
625.19	52290.79
625.38	52948.18
625.58	52272.35
625.77	52407.52
625.97	52425.95
626.17	51977.45
626.36	52542.69
626.56	52813.02
626.75	52184.29
626.95	52772.06
627.14	52501.73
627.34	52319.46
627.54	52417.76
627.73	52167.91
627.93	52165.86
628.12	52106.47
628.32	52192.48
628.51	52245.73
628.71	52174.05
628.90	52366.56
629.10	52153.57
629.30	52511.97
629.49	52292.83
629.69	52325.60
629.88	52495.58
630.08	52827.35
630.27	52468.96
630.47	52481.25
630.66	51934.44
630.86	52573.41
631.05	52094.18
631.25	52524.25
631.44	52407.52
631.64	52485.34
631.84	52516.06
632.03	52593.89
632.23	52620.51
632.42	52786.39
632.62	52487.39
632.81	52339.94
633.01	52411.62
633.20	52747.48
633.40	52851.93
633.59	52886.74
633.79	52718.81
633.98	52800.73
634.18	52849.88
634.37	53097.69
634.57	52589.79
634.76	52944.09
634.96	52620.51
635.15	52927.70
635.35	52673.76
635.54	52520.16
635.74	52905.18
635.93	52514.01
636.13	52817.11
636.32	53654.73
636.52	52606.17
636.71	52978.90
636.91	53066.97
637.10	53179.60
637.30	52720.86
637.49	53241.04
637.69	52718.81
637.88	53310.67
638.08	52712.67
638.27	53148.88
638.46	53077.21
638.66	52507.87
638.85	53148.88
639.05	52823.26
639.24	53322.96
639.44	52999.38
639.63	52966.62
639.83	53329.11
640.02	53437.65
640.22	52825.31
640.41	53216.47
640.61	52886.74
640.80	53017.82
640.99	53081.30
641.19	53941.45
641.38	53466.32
641.58	53132.50
641.77	53191.89
641.97	52868.31
642.16	53200.08
642.36	53425.36
642.55	53535.95
642.74	53318.87
642.94	53834.95
643.13	53181.65
643.33	53863.63
643.52	53566.67
643.72	53966.02
643.91	53343.44
644.10	54172.87
644.30	53892.30
644.49	53667.02
644.69	53828.81
644.88	54219.97
645.08	53576.91
645.27	53728.46
645.46	53552.33
645.66	54095.05
645.85	53705.93
646.05	53851.34
646.24	54088.90
646.43	54392.00
646.63	54346.95
646.82	54457.54
647.02	54078.66
647.21	54310.08
647.40	53867.72
647.60	54404.29
647.79	54301.89
647.99	54447.30
648.18	54244.55
648.37	54791.36
648.57	54435.01
648.76	54535.36
648.96	54056.14
649.15	54527.17
649.34	54781.12
649.54	54731.96
649.73	54234.31
649.92	54658.24
650.12	54557.89
650.31	54357.19
650.51	54494.40
650.70	54953.15
650.89	54496.45
651.09	55350.45
651.28	54650.05
651.47	54922.43
651.67	54869.18
651.86	54983.86
652.06	54088.90
652.25	55051.45
652.44	54932.67
652.64	54699.20
652.83	54693.05
653.02	54715.58
653.22	54955.19
653.41	54379.71
653.60	54770.88
653.80	54744.25
653.99	54871.23
654.18	55231.67
654.38	55112.89
654.57	55014.58
654.76	54903.99
654.96	54559.94
655.15	54990.01
655.34	55155.89
655.54	54408.39
655.73	55372.98
655.92	55112.89
656.12	55078.07
656.31	55350.45
656.50	55225.53
656.70	55303.35
656.89	55309.49
657.08	55348.40
657.28	55323.83
657.47	55579.82
657.66	55592.11
657.86	55149.75
658.05	55039.16
658.24	55624.88
658.43	54869.18
658.63	55452.85
658.82	55696.56
659.01	55084.22
659.21	55577.78
659.40	55641.26
659.59	55598.26
659.79	55733.42
659.98	56093.86
660.17	55893.16
660.36	55452.85
660.56	55712.94
660.75	55575.73
660.94	55467.19
661.14	55852.20
661.33	55366.84
661.52	55512.24
661.71	55649.45
661.91	55641.26
662.10	55489.71
662.29	56048.81
662.49	55792.81
662.68	55645.36
662.87	55907.50
663.06	55583.92
663.26	55424.18
663.45	56134.82
663.64	55510.19
663.83	56435.87
664.03	56415.40
664.22	56112.30
664.41	56108.20
664.60	55841.96
664.80	55547.06
664.99	56040.62
665.18	55868.59
665.37	56009.90
665.57	56327.33
665.76	56059.05
665.95	55948.46
666.14	56005.80
666.34	55729.33
666.53	55614.64
666.72	56013.99
666.91	55755.95
667.11	55516.34
667.30	55891.12
667.49	55688.37
667.68	55993.51
667.87	55921.83
668.07	56423.59
668.26	56046.76
668.45	56341.67
668.64	56104.10
668.84	56515.75
669.03	56349.86
669.22	55907.50
669.41	56310.95
669.60	55956.65
669.80	55766.19
669.99	56222.89
670.18	56339.62
670.37	56183.97
670.57	56517.79
670.76	56028.33
670.95	56171.69
671.14	56253.61
671.33	56239.27
671.53	56444.07
671.72	56210.60
671.91	55942.31
672.10	56016.04
672.29	55811.24
672.48	55917.74
672.68	56091.82
672.87	56216.74
673.06	56153.26
673.25	55964.84
673.44	55383.22
673.64	55858.35
673.83	55780.52
674.02	55809.20
674.21	56235.17
674.40	55932.07
674.59	55704.75
674.79	55852.20
674.98	56239.27
675.17	55674.03
675.36	55719.09
675.55	56063.14
675.74	55639.22
675.94	55553.20
676.13	55768.24
676.32	56032.42
676.51	56233.13
676.70	56265.89
676.89	56108.20
677.08	55993.51
677.28	55733.42
677.47	56284.33
677.66	56145.06
677.85	56030.38
678.04	55753.90
678.23	56100.01
678.42	56370.34
678.62	55751.85
678.81	56241.32
679.00	55669.93
679.19	56450.21
679.38	56046.76
679.57	55981.23
679.76	56163.50
679.96	56081.58
680.15	55927.98
680.34	55973.03
680.53	55784.62
680.72	56159.40
680.91	55866.54
681.10	56210.60
681.29	55801.00
681.48	55794.86
681.68	55768.24
681.87	55766.19
682.06	55534.77
682.25	55516.34
682.44	55508.14
682.63	55751.85
682.82	55403.70
683.01	55864.49
683.20	54985.91
683.39	55123.13
683.59	55176.37
683.78	55133.37
683.97	55141.56
684.16	55153.85
684.35	55159.99
684.54	55243.96
684.73	55420.08
684.92	55340.21
685.11	54881.47
685.30	55317.68
685.49	55696.56
685.69	55137.46
685.88	55461.04
686.07	54940.86
686.26	55399.60
686.45	54879.42
686.64	55383.22
686.83	54727.87
687.02	54971.58
687.21	55497.91
687.40	55467.19
687.59	55252.15
687.78	55143.61
687.97	55393.46
688.16	54637.76
688.35	54783.16
688.54	55110.84
688.74	54535.36
688.93	54738.11
689.12	54973.63
689.31	54871.23
689.50	54719.68
689.69	54824.12
689.88	54295.75
690.07	54285.51
690.26	54568.13
690.45	54953.15
690.64	54695.10
690.83	54535.36
691.02	54334.66
691.21	54150.34
691.40	54127.81
691.59	54404.29
691.78	54269.12
691.97	54570.18
692.16	54404.29
692.35	54531.26
692.54	55002.30
692.73	54410.43
692.92	54627.52
693.11	54158.53
693.30	54248.64
693.49	54469.82
693.68	54037.70
693.87	53851.34
694.06	53773.52
694.25	54074.57
694.44	53726.41
694.63	53736.65
694.82	53826.76
695.01	53589.20
695.20	53734.60
695.39	53820.62
695.58	54015.18
695.77	53310.67
695.96	53343.44
696.15	53523.66
696.34	53372.11
696.53	53820.62
696.72	54107.33
696.91	53138.65
697.10	53748.94
697.29	53437.65
697.48	53652.69
697.67	53253.33
697.86	52665.56
698.05	53245.14
698.24	53753.04
698.43	53077.21
698.62	53404.88
698.81	53212.37
699.00	53613.77
699.19	52966.62
699.38	53140.69
699.57	52964.57
699.76	53449.94
699.95	52970.71
700.14	52630.75
700.32	52765.91
700.51	53269.72
700.70	53173.46
700.89	53064.92
701.08	53204.18
701.27	52829.40
701.46	53642.45
701.65	52387.04
701.84	52616.41
702.03	52806.87
702.22	52530.40
702.41	52692.19
702.60	52825.31
702.79	52679.90
702.98	52493.54
703.17	52231.40
703.35	52274.40
703.54	52200.68
703.73	52370.66
703.92	52364.51
704.11	52358.37
704.30	52192.48
704.49	52395.23
704.68	51676.40
704.87	52067.56
705.06	51768.55
705.25	52006.12
705.43	51789.03
705.62	52331.75
705.81	51694.83
706.00	52069.61
706.19	51717.35
706.38	51729.64
706.57	51631.34
706.76	52038.89
706.95	51637.48
707.14	51080.44
707.32	51354.86
707.51	51137.78
707.70	51633.39
707.89	51436.78
708.08	51295.47
708.27	51541.23
708.46	51451.12
708.65	51334.38
708.84	51590.38
709.02	51442.93
709.21	51170.55
709.40	50984.18
709.59	51422.45
709.78	50775.29
709.97	51590.38
710.16	51152.12
710.34	50779.39
710.53	51047.67
710.72	50797.82
710.91	50679.03
711.10	51197.17
711.29	51223.79
711.48	50787.58
711.66	50855.16
711.85	50877.69
712.04	50224.39
712.23	50638.08
712.42	50296.06
712.61	50498.81
712.80	50146.56
712.98	50519.29
713.17	50308.35
713.36	50228.48
713.55	50707.71
713.74	50244.87
713.93	50248.96
714.11	50337.02
714.30	49906.95
714.49	49929.48
714.68	50263.30
714.87	50251.01
715.06	50210.05
715.24	49958.15
715.43	49980.68
715.62	49843.46
715.81	49663.24
716.00	50195.71
716.18	49224.98
716.37	49657.10
716.56	49298.70
716.75	49896.71
716.94	49489.16
717.12	49069.33
717.31	49335.57
717.50	49882.37
717.69	49579.28
717.88	49235.22
718.06	49329.42
718.25	49374.48
718.44	49356.05
718.63	49229.07
718.82	48971.03
719.00	48882.97
719.19	49087.76
719.38	48596.25
719.57	48354.59
719.76	48452.89
719.94	48121.12
720.13	48397.60
720.32	48334.11
720.51	48481.56
720.69	48149.79
720.88	48342.30
721.07	48407.84
721.26	47750.44
721.44	48143.65
721.63	47881.51
721.82	47975.72
722.01	47770.92
722.20	48065.83
722.38	47416.62
722.57	47547.69
722.76	47416.62
722.95	47977.76
723.13	47422.76
723.32	47525.16
723.51	46941.49
723.70	47316.27
723.88	47291.69
724.07	46822.71
724.26	47201.58
724.44	46656.82
724.63	47424.81
724.82	47330.61
725.01	46939.44
725.19	46878.00
725.38	46943.54
725.57	47248.69
725.76	47361.33
725.94	46476.60
726.13	47027.51
726.32	47191.34
726.51	46531.90
726.69	47142.19
726.88	47002.93
727.07	47168.82
727.25	46529.85
727.44	46806.33
727.63	46798.13
727.82	46638.39
728.00	46544.19
728.19	46486.84
728.38	46806.33
728.56	46007.62
728.75	46556.47
728.94	46478.65
729.12	46941.49
729.31	46658.87
729.50	46220.61
729.69	47041.84
729.87	46204.22
730.06	46232.89
730.25	46323.01
730.43	46884.15
730.62	46073.15
730.81	47021.36
730.99	46370.11
731.18	46339.39
731.37	46540.09
731.55	46452.03
731.74	46443.84
731.93	46331.20
732.11	46191.94
732.30	46277.95
732.49	46142.78
732.67	46193.98
732.86	46376.25
733.05	46499.13
733.23	45954.37
733.42	46107.97
733.61	45806.92
733.79	46564.67
733.98	46460.22
734.17	46191.94
734.35	46228.80
734.54	45903.17
734.73	46427.45
734.91	46239.04
735.10	45782.34
735.29	46658.87
735.47	45608.26
735.66	46021.95
735.84	45946.18
736.03	45913.41
736.22	46368.06
736.40	45716.81
736.59	45868.36
736.78	45768.01
736.96	46103.87
737.15	45933.89
737.33	45512.01
737.52	45692.23
737.71	45389.13
737.89	45464.91
738.08	45260.11
738.27	45528.39
738.45	45950.27
738.64	45790.53
738.82	45389.13
739.01	45694.28
739.20	45589.83
739.38	45755.72
739.57	45911.36
739.75	45626.70
739.94	45387.08
740.13	45348.17
740.31	45229.39
740.50	45704.52
740.68	45620.55
740.87	45358.41
741.06	45749.57
741.24	45532.49
741.43	44715.35
741.61	45204.81
741.80	44903.76
741.99	44979.54
742.17	44807.51
742.36	45249.87
742.54	44737.88
742.73	44784.98
742.91	45200.72
743.10	44897.62
743.29	44916.05
743.47	45413.71
743.66	45172.05
743.84	45276.49
744.03	44772.69
744.21	44645.72
744.40	45057.36
744.59	44463.45
744.77	44762.45
744.96	44846.42
745.14	44549.46
745.33	45094.22
745.51	44954.96
745.70	45016.40
745.88	44668.25
746.07	45174.09
746.26	44475.74
746.44	44426.59
746.63	44561.75
746.81	44868.95
747.00	44453.21
747.18	44449.11
747.37	44885.33
747.55	44698.97
747.74	44862.80
747.92	44268.89
748.11	44156.25
748.29	44733.78
748.48	44520.79
748.66	44012.90
748.85	44561.75
749.03	44039.52
749.22	44234.08
749.41	44000.61
749.59	44449.11
749.78	44172.64
749.96	43418.99
750.15	44195.17
750.33	44123.49
750.52	44150.11
750.70	43746.66
750.89	43885.92
751.07	43693.41
751.26	43902.31
751.44	44023.14
751.63	43631.97
751.81	43570.54
752.00	43597.16
752.18	43916.64
752.37	43935.07
752.55	43769.19
752.74	43515.24
752.92	43634.02
753.10	43607.40
753.29	43464.04
753.47	43275.63
753.66	43234.67
753.84	43400.55
754.03	43357.55
754.21	43228.52
754.40	43554.15
754.58	43515.24
754.77	43175.28
754.95	42978.67
755.14	43177.33
755.32	43122.03
755.51	42769.78
755.69	42884.47
755.88	43068.78
756.06	43521.38
756.24	42620.28
756.43	42818.93
756.61	42943.86
756.80	42911.09
756.98	42657.14
757.17	42966.38
757.35	43062.64
757.54	43050.35
757.72	42990.96
757.90	43185.52
758.09	42698.10
758.27	42853.75
758.46	42372.47
758.64	42354.04
758.83	42884.47
759.01	42943.86
759.19	42997.10
759.38	42689.91
759.56	42978.67
759.75	42997.10
759.93	42524.02
760.12	42014.08
760.30	42333.56
760.48	42847.60
760.67	42769.78
760.85	42444.15
761.04	42491.26
761.22	42392.95
761.40	42227.07
761.59	42392.95
761.77	41991.55
761.96	42347.90
762.14	42399.10
762.32	42145.15
762.51	42042.75
762.69	41938.30
762.88	42116.48
763.06	42481.02
763.24	42239.36
763.43	42020.22
763.61	41753.99
763.80	41807.23
763.98	41788.80
764.16	41852.29
764.35	41489.80
764.53	41749.89
764.72	41803.14
764.90	41788.80
765.08	41864.58
765.27	41749.89
765.45	41469.32
765.63	41192.84
765.82	41616.77
766.00	41323.91
766.18	41348.49
766.37	41915.78
766.55	41450.89
766.74	41405.83
766.92	41239.95
767.10	41438.60
767.29	41448.84
767.47	40820.11
767.65	41239.95
767.84	40951.18
768.02	41262.47
768.20	40942.99
768.39	40813.97
768.57	40754.58
768.75	40979.85
768.94	40910.22
769.12	41158.03
769.30	40746.39
769.49	40760.72
769.67	40830.35
769.85	40220.06
770.04	40547.73
770.22	40435.10
770.40	40791.44
770.59	40093.08
770.77	40322.46
770.95	40396.18
771.14	40297.88
771.32	39966.11
771.50	39984.54
771.69	40269.21
771.87	40476.05
772.05	39986.59
772.24	40007.07
772.42	40504.73
772.60	40121.76
772.78	39863.71
772.97	39595.43
773.15	40099.23
773.33	40117.66
773.52	39931.29
773.70	40019.36
773.88	39921.05
774.07	40152.48
774.25	39986.59
774.43	39959.97
774.61	39910.82
774.80	40142.24
774.98	40031.65
775.16	40029.60
775.34	39955.87
775.53	39673.25
775.71	40359.32
775.89	39808.42
776.08	40392.09
776.26	40213.91
776.44	40271.26
776.62	39888.29
776.81	40258.97
776.99	40070.56
777.17	40385.94
777.35	40164.76
777.54	40779.15
777.72	39933.34
777.90	40267.16
778.08	40431.00
778.27	40672.66
778.45	40940.94
778.63	40793.49
778.81	40394.14
779.00	40764.82
779.18	40869.26
779.36	40799.63
779.54	40465.81
779.73	40662.42
779.91	40629.65
780.09	40478.10
780.27	41080.21
780.46	40740.24
780.64	41201.04
780.82	40660.37
781.00	40525.21
781.19	41096.59
781.37	41432.46
781.55	40836.50
781.73	41352.58
781.91	41170.32
782.10	41100.68
782.28	40973.71
782.46	41147.79
782.64	41502.09
782.82	41192.84
783.01	41184.65
783.19	41459.08
783.37	41086.35
783.55	41043.34
783.74	41303.43
783.92	41063.82
784.10	41411.98
784.28	41237.90
784.46	41000.33
784.64	41155.98
784.83	41084.30
785.01	41743.75
785.19	41459.08
785.37	41289.10
785.55	41293.19
785.74	40711.57
785.92	41346.44
786.10	41303.43
786.28	40994.19
786.46	41033.10
786.64	40934.80
786.83	40887.70
787.01	40877.46
787.19	41127.31
787.37	40910.22
787.55	41000.33
787.74	40873.36
787.92	41069.97
788.10	41153.93
788.28	40723.86
788.46	40570.26
788.64	40582.55
788.82	41110.92
789.01	40740.24
789.19	40904.08
789.37	40721.81
789.55	40879.50
789.73	40205.72
789.91	40807.83
790.09	39996.83
790.28	40199.58
790.46	39943.58
790.64	40005.02
790.82	40103.32
791.00	40027.55
791.18	39851.42
791.36	40494.49
791.55	40093.08
791.73	39773.60
791.91	39615.91
792.09	39787.94
792.27	39749.03
792.45	40027.55
792.63	39415.21
792.81	39433.64
793.00	39339.43
793.18	39388.58
793.36	39341.48
793.54	39198.12
793.72	38976.94
793.90	39038.38
794.08	38983.09
794.26	39085.48
794.44	38788.53
794.62	38217.14
794.81	38616.50
794.99	38608.31
795.17	38567.35
795.35	38344.12
795.53	38475.19
795.71	38641.07
795.89	38415.80
796.07	38192.57
796.25	38325.69
796.43	37989.82
796.61	37604.80
796.80	37561.79
796.98	37635.52
797.16	37598.66
797.34	37770.69
797.52	37809.60
797.70	37963.20
797.88	37062.09
798.06	37428.68
798.24	37385.67
798.42	37307.85
798.60	37262.79
798.78	36986.32
798.96	37039.56
799.14	36879.82
799.32	36607.44
799.51	36697.55
799.69	36885.97
799.87	36857.29
800.05	36527.57
800.23	36419.03
800.41	36644.30
800.59	36046.30
800.77	36160.98
800.95	35988.95
801.13	36263.38
801.31	35915.23
801.49	35939.80
801.67	35558.88
801.85	35698.14
802.03	35780.06
802.21	35497.44
802.39	35456.48
802.57	35659.23
802.75	35401.19
802.93	35771.87
803.11	34946.54
803.29	34995.69
803.47	34725.36
803.65	35165.67
803.83	35016.17
804.01	34788.85
804.19	34506.23
804.37	34584.05
804.55	34635.25
804.73	34475.51
804.91	34731.50
805.09	34754.03
805.27	34311.67
805.45	34680.30
805.63	34430.45
805.81	34024.95
805.99	34463.22
806.17	34194.93
806.35	34528.75
806.53	33969.66
806.71	34065.91
806.89	34100.73
807.07	33820.16
807.25	34186.74
807.43	33848.83
807.61	33775.10
807.79	33678.85
807.97	33216.01
808.15	33265.16
808.33	33469.95
808.51	33295.88
808.69	33121.80
808.87	32935.43
809.05	32890.38
809.23	32955.91
809.41	32751.12
809.59	32917.00
809.77	33152.52
809.95	32544.27
810.13	33103.37
810.31	32847.37
810.49	32542.22
810.67	32067.09
810.84	32693.77
811.02	32388.63
811.20	32013.85
811.38	32079.38
811.56	31942.17
811.74	31915.54
811.92	32198.16
812.10	31852.06
812.28	32163.35
812.46	32112.15
812.64	31712.80
812.82	31802.91
813.00	31764.00
813.18	31831.58
813.36	31360.55
813.53	31374.88
813.71	31690.27
813.89	31692.32
814.07	31383.07
814.25	31737.37
814.43	31399.46
814.61	31215.14
814.79	31151.65
814.97	31376.93
815.15	31104.55
815.33	30639.66
815.50	30527.02
815.68	30768.68
815.86	31217.19
816.04	30744.11
816.22	30643.76
816.40	30494.25
816.58	30471.73
816.76	30289.46
816.94	30742.06
817.11	30178.87
817.29	30219.83
817.47	30254.64
817.65	30182.96
817.83	30168.63
818.01	29947.45
818.19	30068.28
818.37	30291.51
818.54	29756.99
818.72	29679.16
818.90	30039.61
819.08	29603.39
819.26	29742.65
819.44	29677.12
819.62	29584.96
819.80	29550.14
819.97	29328.96
820.15	29529.66
820.33	29593.15
820.51	29390.40
820.69	29376.06
820.87	29414.98
821.05	29595.20
821.22	29322.82
821.40	29234.75
821.58	28913.22
821.76	29070.92
821.94	29146.69
822.12	28962.37
822.29	28993.09
822.47	28757.58
822.65	29218.37
822.83	28841.54
823.01	28804.68
823.19	28683.85
823.36	28466.77
823.54	28786.25
823.72	28567.12
823.90	28487.25
824.08	28513.87
824.25	28689.99
824.43	28247.63
824.61	28227.15
824.79	28397.13
824.97	28194.39
825.15	28243.54
825.32	28403.28
825.50	28022.36
825.68	27946.58
825.86	28333.65
826.04	28196.43
826.21	27993.68
826.39	27891.29
826.57	27936.34
826.75	27680.35
826.93	27465.31
827.10	27854.42
827.28	27788.89
827.46	27967.06
827.64	27620.95
827.81	27139.68
827.99	27817.56
828.17	27432.54
828.35	27328.10
828.53	27399.77
828.70	27516.51
828.88	27117.15
829.06	27192.93
829.24	27563.61
829.41	27450.97
829.59	27332.19
829.77	27194.98
829.95	27125.35
830.12	27166.31
830.30	26797.67
830.48	27096.67
830.66	26859.11
830.84	26875.49
831.01	27059.81
831.19	27002.47
831.37	26941.03
831.55	26834.53
831.72	26564.20
831.90	26599.02
832.08	26639.98
832.25	26615.40
832.43	26529.39
832.61	26238.58
832.79	26218.10
832.96	26336.88
833.14	26426.99
833.32	26627.69
833.50	26279.54
833.67	26275.44
833.85	26211.95
834.03	25669.24
834.20	26111.60
834.38	26125.94
834.56	26308.21
834.74	25718.39
834.91	25951.86
835.09	26025.59
835.27	25869.94
835.44	25302.65
835.62	25433.72
835.80	25636.47
835.98	25450.11
836.15	25806.45
836.33	25763.45
836.51	25663.10
836.68	25654.90
836.86	25861.75
837.04	25585.27
837.21	25648.76
837.39	25458.30
837.57	25718.39
837.75	25489.02
837.92	25214.59
838.10	25220.74
838.28	24716.93
838.45	25247.36
838.63	25114.24
838.81	24864.39
838.98	25456.25
839.16	25028.23
839.34	24745.61
839.51	24667.78
839.69	25050.75
839.87	24653.45
840.04	24800.90
840.22	24802.95
840.40	24878.72
840.57	24479.37
840.75	24891.01
840.93	24645.26
841.10	24805.00
841.28	24829.57
841.46	24530.57
841.63	24772.23
841.81	24700.55
841.98	24338.06
842.16	24616.58
842.34	24333.96
842.51	24456.84
842.69	24493.71
842.87	24381.07
843.04	24458.89
843.22	24135.31
843.40	23965.33
843.57	23824.02
843.75	24309.39
843.92	24721.03
844.10	24127.12
844.28	24163.98
844.45	24118.93
844.63	24112.78
844.81	23979.67
844.98	24067.73
845.16	23948.95
845.33	23953.04
845.51	23819.92
845.69	23860.88
845.86	23920.28
846.04	23432.86
846.21	23471.77
846.39	23713.43
846.57	23404.19
846.74	23584.41
846.92	23424.67
847.09	23600.79
847.27	23090.85
847.45	23269.02
847.62	23555.74
847.80	23672.47
847.97	23387.80
848.15	23135.90
848.32	22918.82
848.50	23430.81
848.68	23062.18
848.85	23131.81
849.03	22728.36
849.20	23183.01
849.38	23334.56
849.56	23295.64
849.73	22703.78
849.91	22914.72
850.08	23207.58
850.26	22646.44
850.43	22832.80
850.61	23021.22
850.78	22554.28
850.96	22781.60
851.14	22415.02
851.31	22578.86
851.49	22572.71
851.66	22718.12
851.84	22634.15
852.01	22544.04
852.19	22423.21
852.36	22468.27
852.54	22423.21
852.71	22511.27
852.89	22445.74
853.07	22345.39
853.24	22814.37
853.42	22257.32
853.59	22242.99
853.77	22382.25
853.94	22183.60
854.12	22402.73
854.29	21956.27
854.47	22101.68
854.64	21958.32
854.82	21749.43
854.99	22085.30
855.17	21890.74
855.34	22165.17
855.52	22277.80
855.69	21958.32
855.87	21542.58
856.04	21630.65
856.22	21882.55
856.39	21642.93
856.57	21941.94
856.74	21624.50
856.92	21683.89
857.09	21642.93
857.27	21374.65
857.44	21655.22
857.62	21452.47
857.79	21706.42
857.97	21534.39
858.14	21567.16
858.32	21417.66
858.49	21434.04
858.67	21245.63
858.84	21419.71
859.02	21313.21
859.19	21206.72
859.37	21089.98
859.54	20772.55
859.72	21087.93
859.89	21270.20
860.06	21397.18
860.24	21139.13
860.41	21022.40
860.59	20831.94
860.76	20995.78
860.94	20733.64
861.11	20973.25
861.29	20725.44
861.46	21053.12
861.64	20723.40
861.81	20868.80
861.98	20684.48
862.16	20598.47
862.33	20463.30
862.51	20713.16
862.68	20795.07
862.86	20596.42
863.03	20618.95
863.21	20401.86
863.38	20747.97
863.55	20397.77
863.73	20567.75
863.90	20504.26
864.08	20233.93
864.25	20461.26
864.43	20451.02
864.60	20135.63
864.77	19994.32
864.95	20242.12
865.12	20129.48
865.30	20278.99
865.47	20215.50
865.64	20084.43
865.82	20041.42
865.99	20256.46
866.17	20074.19
866.34	20045.52
866.51	19697.36
866.69	20039.37
866.86	20104.91
867.04	19885.78
867.21	20143.82
867.38	19676.88
867.56	19566.29
867.73	19838.67
867.91	19574.49
868.08	19744.47
868.25	19498.71
868.43	19556.05
868.60	19465.94
868.78	19513.05
868.95	19451.61
869.12	19332.82
869.30	19377.88
869.47	19443.42
869.64	19119.84
869.82	19287.77
869.99	19158.75
870.16	19365.59
870.34	19298.01
870.51	19089.12
870.69	18890.46
870.86	19123.93
871.03	19420.89
871.21	19021.53
871.38	19052.25
871.55	18896.61
871.73	18546.40
871.90	18624.23
872.07	18947.81
872.25	18593.51
872.42	18624.23
872.59	18665.19
872.77	18743.01
872.94	18667.24
873.11	18679.52
873.29	18730.72
873.46	18476.77
873.63	18546.40
873.81	18083.56
873.98	18382.57
874.15	18271.98
874.33	18290.41
874.50	18274.03
874.67	18312.94
874.85	18145.00
875.02	18116.33
875.19	18151.15
875.37	17919.73
875.54	17938.16
875.71	18044.65
875.88	17819.38
876.06	17796.85
876.23	17968.88
876.40	17968.88
876.58	17755.89
876.75	17671.92
876.92	17757.94
877.10	17628.92
877.27	17684.21
877.44	17501.94
877.61	17501.94
877.79	17716.98
877.96	17401.59
878.13	17565.43
878.31	17452.79
878.48	17192.70
878.65	17338.10
878.82	17176.31
879.00	17215.23
879.17	17278.71
879.34	17432.31
879.51	17051.39
879.69	16975.61
879.86	17100.54
880.03	16891.65
880.21	16903.93
880.38	17012.48
880.55	17059.58
880.72	16928.51
880.90	16940.80
881.07	16844.54
881.24	16951.04
881.41	17151.74
881.59	16850.69
881.76	16842.50
881.93	16944.89
882.10	16664.32
882.28	16592.64
882.45	16703.23
882.62	16510.72
882.79	16606.98
882.96	16332.55
883.14	16660.23
883.31	16654.08
883.48	16643.84
883.65	16469.76
883.83	16617.22
884.00	16625.41
884.17	16373.51
884.34	16350.98
884.51	16381.70
884.69	16385.80
884.86	16189.19
885.03	16437.00
885.20	15937.29
885.38	16232.20
885.55	16086.79
885.72	16033.55
885.89	16060.17
886.06	16103.18
886.24	15990.54
886.41	16117.51
886.58	16195.34
886.75	16447.24
886.92	16258.82
887.10	16318.22
887.27	16041.74
887.44	16121.61
887.61	16314.12
887.78	16113.42
887.95	15986.44
888.13	15937.29
888.30	15836.94
888.47	15744.78
888.64	15984.40
888.81	15978.25
888.99	15740.69
889.16	15855.37
889.33	15511.32
889.50	15781.65
889.67	15947.53
889.84	15402.77
890.01	15496.98
890.19	15836.94
890.36	15888.14
890.53	15738.64
890.70	15306.52
890.87	15384.34
891.04	15429.40
891.22	15644.43
891.39	15202.07
891.56	15345.43
891.73	15509.27
891.90	15329.05
892.07	15204.12
892.24	15195.93
892.42	15144.73
892.59	15214.36
892.76	15064.86
892.93	15003.42
893.10	15136.54
893.27	14964.51
893.44	15023.90
893.61	15167.26
893.79	15392.53
893.96	15073.05
894.13	15138.58
894.30	15181.59
894.47	14982.94
894.64	15161.11
894.81	14892.83
894.98	15048.47
895.15	15068.95
895.33	14821.15
895.50	15197.98
895.67	15003.42
895.84	14823.20
896.01	15001.37
896.18	14882.59
896.35	15087.39
896.52	14815.01
896.69	14712.61
896.86	14913.31
897.04	14923.55
897.21	14956.32
897.38	14817.05
897.55	14964.51
897.72	14944.03
897.89	14720.80
898.06	14749.47
898.23	14776.09
898.40	14860.06
898.57	14954.27
898.74	14759.71
898.91	14845.73
899.08	15019.80
899.26	14817.05
899.43	14876.44
899.60	14630.69
899.77	14962.46
899.94	14612.26
900.11	14595.87
900.28	14612.26
900.45	14673.70
900.62	14550.82
900.79	14960.41
900.96	14712.61
901.13	14696.22
901.30	14950.17
901.47	14671.65
901.64	14634.78
901.81	14743.33
901.98	14567.20
902.15	15073.05
902.32	14528.29
902.49	14696.22
902.66	14589.73
902.83	14911.26
903.01	14710.56
903.18	14853.92
903.35	14794.53
903.52	14788.38
903.69	14806.81
903.86	14915.36
904.03	14546.72
904.20	14761.76
904.37	14821.15
904.54	14573.35
904.71	14331.69
904.88	14696.22
905.05	14804.77
905.22	14735.14
905.39	14911.26
905.56	14636.83
905.73	14518.05
905.90	14583.59
906.07	14872.35
906.24	14778.14
906.41	14411.56
906.58	14864.16
906.75	14755.61
906.92	14483.24
907.09	14604.07
907.26	14694.18
907.43	14690.08
907.60	14604.07
907.77	14864.16
907.93	14225.19
908.10	14647.07
908.27	14780.19
908.44	14243.62
908.61	14432.04
908.78	14542.63
908.95	14685.98
909.12	14663.46
909.29	14317.35
909.46	14751.52
909.63	14589.73
909.80	14595.87
909.97	14610.21
910.14	14532.39
910.31	14370.60
910.48	14536.48
910.65	14538.53
910.82	14231.33
910.99	14217.00
911.16	14303.01
911.33	14325.54
911.50	14155.56
911.66	14358.31
911.83	14354.21
912.00	14249.77
912.17	14145.32
912.34	14202.66
912.51	14116.65
912.68	14010.15
912.85	14092.07
913.02	14143.27
913.19	13956.91
913.36	14135.08
913.53	14210.86
913.70	14266.15
913.86	14116.65
914.03	13905.71
914.20	14032.68
914.37	14143.27
914.54	13989.67
914.71	13895.47
914.88	13969.19
915.05	13967.15
915.22	13879.08
915.39	13862.70
915.55	13752.11
915.72	13711.15
915.89	13786.93
916.06	13686.58
916.23	13530.93
916.40	13403.96
916.57	13420.34
916.74	13633.33
916.91	13477.68
917.07	13346.61
917.24	13334.32
917.41	13436.72
917.58	13223.73
917.75	13162.30
917.92	13094.71
918.09	13326.13
918.26	13240.12
918.42	12947.26
918.59	13309.75
918.76	13205.30
918.93	13184.82
919.10	12855.10
919.27	12826.43
919.44	13111.10
919.60	12904.25
919.77	12969.79
919.94	12961.59
920.11	12812.09
920.28	12848.96
920.45	12828.48
920.61	12941.11
920.78	12674.88
920.95	12599.10
921.12	12560.19
921.29	12500.80
921.46	12539.71
921.62	12359.49
921.79	12425.03
921.96	12451.65
922.13	12439.36
922.30	12275.52
922.47	12283.72
922.63	12107.59
922.80	12322.63
922.97	12271.43
923.14	12062.54
923.31	12339.01
923.47	11880.27
923.64	12283.72
923.81	11888.46
923.98	11919.18
924.15	11683.66
924.32	11980.62
924.48	11810.64
924.65	11861.84
924.82	11745.10
924.99	11870.03
925.15	11644.75
925.32	11810.64
925.49	11333.46
925.66	11448.15
925.83	11317.08
925.99	11124.57
926.16	11544.40
926.33	11257.68
926.50	11200.34
926.67	11290.45
926.83	11390.80
927.00	11151.19
927.17	11157.33
927.34	10983.26
927.50	11036.50
927.67	11173.72
927.84	10997.59
928.01	10932.06
928.17	10796.89
928.34	10811.23
928.51	10858.33
928.68	10710.88
928.84	10751.84
929.01	10598.24
929.18	10350.43
929.35	10379.11
929.51	10501.98
929.68	10391.39
929.85	10405.73
930.02	10336.10
930.18	10289.00
930.35	10266.47
930.52	10452.83
930.69	10245.99
930.85	10258.28
931.02	10004.33
931.19	9969.51
931.36	9967.46
931.52	10231.65
931.69	10137.45
931.86	9940.84
932.02	9930.60
932.19	9850.73
932.36	9809.77
932.53	9809.77
932.69	9615.21
932.86	9879.40
933.03	9736.04
933.19	9641.84
933.36	9484.14
933.53	9523.05
933.70	9533.29
933.86	9201.52
934.03	9437.04
934.20	9293.68
934.36	9322.35
934.53	9107.32
934.70	8970.10
934.86	8976.25
935.03	9002.87
935.20	9135.99
935.36	8761.21
935.53	8806.27
935.70	8808.31
935.86	8941.43
936.03	8646.52
936.20	8585.08
936.36	8435.58
936.53	8329.09
936.70	8490.88
936.86	8451.97
937.03	8365.95
937.20	8146.82
937.36	8243.07
937.53	7747.47
937.70	7878.54
937.86	7597.96
938.03	7692.17
938.20	7813.00
938.36	7487.37
938.53	7518.09
938.70	7493.52
938.86	7499.66
939.03	7315.34
939.20	7206.80
939.36	7131.03
939.53	7143.32
939.70	7210.90
939.86	6915.99
940.03	6686.62
940.19	6752.15
940.36	6690.71
940.53	6743.96
940.69	6631.32
940.86	6543.26
941.03	6500.25
941.19	6303.65
941.36	6225.82
941.52	6377.37
941.69	6297.50
941.86	6107.04
942.02	6107.04
942.19	6162.34
942.35	5996.45
942.52	6029.22
942.69	5820.33
942.85	5785.51
943.02	5734.31
943.18	5871.53
943.35	5646.25
943.52	5830.57
943.68	5574.57
943.85	5779.37
944.01	5480.36
944.18	5488.56
944.35	5646.25
944.51	5509.04
944.68	5394.35
944.84	5439.40
945.01	5291.95
945.17	5418.93
945.34	5486.51
945.51	5480.36
945.67	5431.21
945.84	5275.57
946.00	5250.99
946.17	5482.41
946.33	5261.23
946.50	5425.07
946.67	5240.75
946.83	5289.90
947.00	5349.29
947.16	5296.05
947.33	5189.55
947.49	5242.80
947.66	5113.78
947.82	5355.44
947.99	5146.55
948.16	5197.74
948.32	5115.83
948.49	5142.45
948.65	5308.34
948.82	5263.28
948.98	5279.66
949.15	5226.42
949.31	5261.23
949.48	5207.98
949.64	5134.26
949.81	5185.46
949.97	5095.35
950.14	5371.82
950.30	5087.15
950.47	5255.09
950.63	5152.69
950.80	5347.25
950.96	5257.14
951.13	5334.96
951.30	5169.07
951.46	5466.03
951.63	5433.26
951.79	5277.62
951.96	5406.64
952.12	5298.10
952.29	5359.53
952.45	5250.99
952.62	5351.34
952.78	5459.88
952.94	5250.99
953.11	5414.83
953.27	5195.70
953.44	5398.45
953.60	5384.11
953.77	5371.82
953.93	5271.47
954.10	5285.81
954.26	5425.07
954.43	5318.57
954.59	5504.94
954.76	5437.36
954.92	5427.12
955.09	5388.21
955.25	5375.92
955.42	5384.11
955.58	5568.43
955.75	5408.69
955.91	5349.29
956.07	5351.34
956.24	5423.02
956.40	5302.19
956.57	5416.88
956.73	5271.47
956.90	5394.35
957.06	5400.49
957.23	5384.11
957.39	5345.20
957.56	5506.99
957.72	5300.14
957.88	5246.90
958.05	5521.32
958.21	5509.04
958.38	5488.56
958.54	5482.41
958.71	5572.52
958.87	5355.44
959.03	5377.97
959.20	5476.27
959.36	5390.25
959.53	5480.36
959.69	5386.16
959.85	5330.86
960.02	5304.24
960.18	5402.54
960.35	5498.80
960.51	5461.93
960.68	5388.21
960.84	5451.69
961.00	5369.77
961.17	5308.34
961.33	5484.46
961.50	5468.08
961.66	5386.16
961.82	5470.12
961.99	5337.01
962.15	5341.10
962.31	5423.02
962.48	5349.29
962.64	5463.98
962.81	5431.21
962.97	5429.17
963.13	5500.84
963.30	5455.79
963.46	5412.78
963.62	5345.20
963.79	5386.16
963.95	5304.24
964.12	5414.83
964.28	5410.73
964.44	5345.20
964.61	5502.89
964.77	5431.21
964.93	5506.99
965.10	5480.36
965.26	5388.21
965.42	5377.97
965.59	5152.69
965.75	5318.57
965.92	5373.87
966.08	5332.91
966.24	5236.66
966.41	5134.26
966.57	5351.34
966.73	5259.18
966.90	5173.17
967.06	5187.50
967.22	5285.81
967.39	5185.46
967.55	5318.57
967.71	5224.37
967.88	5144.50
968.04	5283.76
968.20	5173.17
968.37	5058.48
968.53	5089.20
968.69	5136.31
968.85	5203.89
969.02	5074.87
969.18	5179.31
969.34	5191.60
969.51	5107.63
969.67	5156.79
969.83	5091.25
970.00	5113.78
970.16	5001.14
970.32	5058.48
970.48	5060.53
970.65	4964.28
970.81	5007.28
970.97	5076.91
971.14	5046.20
971.30	5066.67
971.46	5007.28
971.63	5031.86
971.79	5038.00
971.95	4997.04
972.11	4931.51
972.28	5040.05
972.44	4974.52
972.60	4917.17
972.76	5070.77
972.93	4949.94
973.09	4839.35
973.25	4992.95
973.42	4837.30
973.58	4941.75
973.74	4892.60
973.90	4937.65
974.07	4980.66
974.23	4949.94
974.39	4878.26
974.55	4822.97
974.72	4941.75
974.88	4759.48
975.04	4913.08
975.20	4710.33
975.37	4849.59
975.53	4792.25
975.69	4777.91
975.85	4771.77
976.01	4687.80
976.18	4646.84
976.34	4736.95
976.50	4761.53
976.66	4802.49
976.83	4566.97
976.99	4583.35
977.15	4624.31
977.31	4566.97
977.47	4652.98
977.64	4564.92
977.80	4550.59
977.96	4673.46
978.12	4628.41
978.29	4478.91
978.45	4444.09
978.61	4485.05
978.77	4560.83
978.93	4577.21
979.10	4517.82
979.26	4526.01
979.42	4536.25
979.58	4341.69
979.74	4517.82
979.91	4540.35
980.07	4431.80
980.23	4509.63
980.39	4427.71
980.55	4526.01
980.71	4472.76
980.88	4403.13
981.04	4345.79
981.20	4360.13
981.36	4493.24
981.52	4458.43
981.68	4392.89
981.85	4442.04
982.01	4431.80
982.17	4321.21
982.33	4259.78
982.49	4382.65
982.65	4374.46
982.82	4292.54
982.98	4204.48
983.14	4280.25
983.30	4390.84
983.46	4280.25
983.62	4349.89
983.79	4267.97
983.95	4294.59
984.11	4310.97
984.27	4206.53
984.43	4042.69
984.59	4224.96
984.75	4263.87
984.91	4163.52
985.08	4251.58
985.24	4239.30
985.40	4108.23
985.56	4083.65
985.72	4319.17
985.88	4175.81
986.04	4128.70
986.20	4005.83
986.37	4114.37
986.53	3979.20
986.69	4036.55
986.85	3991.49
987.01	4030.40
987.17	4061.12
987.33	3880.90
987.49	3952.58
987.65	3913.67
987.82	3958.72
987.98	3925.96
988.14	3977.16
988.30	3938.24
988.46	3862.47
988.62	3913.67
988.78	3891.14
988.94	3966.92
989.10	3846.09
989.26	3844.04
989.42	3907.52
989.59	3780.55
989.75	3825.61
989.91	3784.65
990.07	3702.73
990.23	3829.70
990.39	3784.65
990.55	3860.42
990.71	3786.69
990.87	3778.50
991.03	3874.76
991.19	3727.30
991.35	3741.64
991.51	3778.50
991.67	3827.65
991.83	3674.06
992.00	3729.35
992.16	3850.18
992.32	3788.74
992.48	3778.50
992.64	3624.90
992.80	3731.40
992.96	3610.57
993.12	3751.88
993.28	3655.62
993.44	3721.16
993.60	3590.09
993.76	3780.55
993.92	3647.43
994.08	3633.10
994.24	3596.23
994.40	3624.90
994.56	3616.71
994.72	3606.47
994.88	3522.51
995.04	3643.34
995.20	3520.46
995.36	3471.31
995.52	3559.37
995.68	3485.64
995.84	3450.83
996.00	3680.20
996.16	3512.27
996.32	3373.00
996.48	3364.81
996.64	3530.70
996.80	3516.36
996.96	3393.48
997.12	3452.88
997.28	3325.90
997.44	3323.85
997.60	3362.76
997.76	3459.02
997.92	3379.15
998.08	3438.54
998.24	3297.23
998.40	3352.52
998.56	3373.00
998.72	3338.19
998.88	3319.76
999.04	3248.08
999.20	3381.20
999.36	3227.60
999.52	3391.44
999.68	3239.89
999.84	3274.70
1000.00	3397.58
1000.16	3344.33
1000.32	3336.14
1000.48	3350.48
1000.64	3223.50
1000.80	3241.93
1000.95	3180.50
1001.11	3217.36
1001.27	3067.86
1001.43	3227.60
1001.59	3143.63
1001.75	3078.10
1001.91	3190.74
1002.07	3174.35
1002.23	3106.77
1002.39	3137.49
1002.55	3080.14
1002.71	3147.73
1002.87	3047.38
1003.03	3143.63
1003.19	2906.07
1003.34	3235.79
1003.50	3061.71
1003.66	3153.87
1003.82	3114.96
1003.98	3106.77
1004.14	3061.71
1004.30	3080.14
1004.46	3014.61
1004.62	2961.36
1004.78	3067.86
1004.94	3098.58
1005.09	2949.08
1005.25	3000.27
1005.41	3030.99
1005.57	2967.51
1005.73	2951.12
1005.89	2912.21
1006.05	3051.47
1006.21	3121.10
1006.37	2930.64
1006.52	2887.64
1006.68	2879.44
1006.84	2973.65
1007.00	2856.92
1007.16	2951.12
1007.32	2858.96
1007.48	2895.83
1007.64	2803.67
1007.79	2813.91
1007.95	2838.48
1008.11	2912.21
1008.27	2762.71
1008.43	2877.40
1008.59	2811.86
1008.75	2813.91
1008.91	2807.77
1009.06	2861.01
1009.22	2871.25
1009.38	2828.24
1009.54	2824.15
1009.70	2809.81
1009.86	2723.80
1010.01	2793.43
1010.17	2691.03
1010.33	2758.61
1010.49	2752.47
1010.65	2795.48
1010.81	2770.90
1010.96	2684.89
1011.12	2648.02
1011.28	2619.35
1011.44	2805.72
1011.60	2779.09
1011.76	2695.13
1011.91	2824.15
1012.07	2582.49
1012.23	2572.25
1012.39	2562.01
1012.55	2691.03
1012.71	2645.98
1012.86	2527.19
1013.02	2572.25
1013.18	2562.01
1013.34	2543.58
1013.50	2662.36
1013.65	2641.88
1013.81	2580.44
1013.97	2580.44
1014.13	2617.30
1014.29	2605.02
1014.44	2648.02
1014.60	2506.71
1014.76	2492.38
1014.92	2598.87
1015.07	2553.82
1015.23	2531.29
1015.39	2449.37
1015.55	2478.04
1015.71	2457.56
1015.86	2465.75
1016.02	2432.99
1016.18	2334.68
1016.34	2475.99
1016.49	2328.54
1016.65	2424.80
1016.81	2404.32
1016.97	2402.27
1017.12	2377.69
1017.28	2412.51
1017.44	2369.50
1017.60	2340.83
1017.75	2367.45
1017.91	2418.65
1018.07	2410.46
1018.23	2365.40
1018.38	2318.30
1018.54	2353.12
1018.70	2336.73
1018.86	2324.44
1019.01	2338.78
1019.17	2303.96
1019.33	2457.56
1019.49	2295.77
1019.64	2432.99
1019.80	2355.16
1019.96	2271.20
1020.12	2365.40
1020.27	2228.19
1020.43	2250.72
1020.59	2328.54
1020.74	2318.30
1020.90	2322.40
1021.06	2248.67
1021.22	2295.77
1021.37	2230.24
1021.53	2211.81
1021.69	2310.11
1021.84	2246.62
1022.00	2205.66
1022.16	2119.65
1022.31	2148.32
1022.47	2232.29
1022.63	2236.38
1022.79	2082.78
1022.94	2084.83
1023.10	2320.35
1023.26	2189.28
1023.41	2183.13
1023.57	2099.17
1023.73	2193.37
1023.88	2080.74
1024.04	2133.98
1024.20	2199.52
1024.35	2166.75
1024.51	2199.52
1024.67	2152.42
1024.82	2168.80
1024.98	1980.39
1025.14	1998.82
1025.29	2041.82
1025.45	2080.74
1025.61	1998.82
1025.76	2113.50
1025.92	2011.11
1026.08	2090.98
1026.23	2133.98
1026.39	2226.14
1026.55	2054.11
1026.70	1992.67
1026.86	2142.18
1027.02	2174.94
1027.17	2093.02
1027.33	2031.58
1027.48	1994.72
1027.64	1998.82
1027.80	2043.87
1027.95	2054.11
1028.11	1877.99
1028.27	2019.30
1028.42	2058.21
1028.58	1902.56
1028.73	1920.99
1028.89	1904.61
1029.05	1994.72
1029.20	1943.52
>>>>>End Processed Spectral Data<<<<<
