SpectraSuite Data File
++++++++++++++++++++++++++++++++++++
Date: Fri Jun 02 14:51:10 CEST 2017
User: INFO_000
Dark Spectrum Present: No
Reference Spectrum Present: No
Number of Sampled Component Spectra: 1
Spectrometers: USB4H00879
Integration Time (usec): 80000 (USB4H00879)
Spectra Averaged: 1 (USB4H00879)
Boxcar Smoothing: 0 (USB4H00879)
Correct for Electrical Dark: No (USB4H00879)
Strobe/Lamp Enabled: No (USB4H00879)
Correct for Detector Non-linearity: No (USB4H00879)
Correct for Stray Light: No (USB4H00879)
Number of Pixels in Processed Spectrum: 3648
>>>>>Begin Processed Spectral Data<<<<<
345.13	1296.36
345.34	1296.36
345.56	1296.36
345.78	1306.60
345.99	1245.16
346.21	1626.09
346.42	1652.71
346.64	1671.14
346.86	1820.64
347.07	1683.43
347.29	1736.68
347.50	1632.23
347.72	1642.47
347.94	1699.81
348.15	1472.49
348.37	1689.57
348.59	1697.77
348.80	1681.38
349.02	1791.97
349.23	1828.84
349.45	1804.26
349.67	1884.13
349.88	1773.54
350.10	1910.75
350.31	1863.65
350.53	1849.32
350.75	2064.35
350.96	1802.21
351.18	1871.84
351.39	1853.41
351.61	1804.26
351.82	1841.12
352.04	1937.38
352.26	1824.74
352.47	1845.22
352.69	1888.23
352.90	1806.31
353.12	1798.12
353.34	1810.40
353.55	1920.99
353.77	1912.80
353.98	1798.12
354.20	1857.51
354.41	1935.33
354.63	1884.13
354.85	2011.11
355.06	1908.71
355.28	1730.53
355.49	1863.65
355.71	1886.18
355.92	1841.12
356.14	1953.76
356.35	1904.61
356.57	1853.41
356.79	1859.56
357.00	1869.80
357.22	1882.08
357.43	1886.18
357.65	1945.57
357.86	1765.35
358.08	1945.57
358.29	1910.75
358.51	1959.91
358.72	1959.91
358.94	1984.48
359.16	1882.08
359.37	1931.23
359.59	1892.32
359.80	1875.94
360.02	2002.91
360.23	1945.57
360.45	1966.05
360.66	1826.79
360.88	1863.65
361.09	2000.87
361.31	1941.47
361.52	2021.35
361.74	2045.92
361.95	2088.93
362.17	1918.95
362.38	2047.97
362.60	2009.06
362.81	1961.95
363.03	1929.19
363.24	1953.76
363.46	2021.35
363.67	2019.30
363.89	1972.19
364.10	2025.44
364.32	1953.76
364.53	2082.78
364.75	1964.00
364.96	2078.69
365.18	2105.31
365.39	1990.63
365.61	1941.47
365.82	2164.70
366.04	2062.30
366.25	2000.87
366.47	2019.30
366.68	2047.97
366.90	1871.84
367.11	2039.78
367.33	2093.02
367.54	2043.87
367.76	2002.91
367.97	2064.35
368.19	2015.20
368.40	2045.92
368.62	2023.39
368.83	1941.47
369.05	2043.87
369.26	2011.11
369.48	1951.71
369.69	1990.63
369.91	2099.17
370.12	1984.48
370.33	2062.30
370.55	2000.87
370.76	2025.44
370.98	2082.78
371.19	1949.67
371.41	1986.53
371.62	2107.36
371.84	1982.43
372.05	2197.47
372.27	2090.98
372.48	2070.50
372.69	2066.40
372.91	2215.90
373.12	2095.07
373.34	2099.17
373.55	2109.41
373.77	2228.19
373.98	2166.75
374.20	2174.94
374.41	2115.55
374.62	2093.02
374.84	2142.18
375.05	2123.74
375.27	2185.18
375.48	2093.02
375.70	2103.26
375.91	2185.18
376.12	2220.00
376.34	2160.61
376.55	2168.80
376.77	2140.13
376.98	2093.02
377.19	2170.85
377.41	2195.42
377.62	2195.42
377.84	2203.61
378.05	2275.29
378.27	2148.32
378.48	2328.54
378.69	2351.07
378.91	2232.29
379.12	2248.67
379.34	2144.22
379.55	2269.15
379.76	2248.67
379.98	2195.42
380.19	2191.33
380.41	2176.99
380.62	2232.29
380.83	2142.18
381.05	2203.61
381.26	2383.84
381.47	2164.70
381.69	2291.68
381.90	2334.68
382.12	2318.30
382.33	2203.61
382.54	2236.38
382.76	2267.10
382.97	2248.67
383.19	2295.77
383.40	2351.07
383.61	2314.20
383.83	2215.90
384.04	2222.05
384.25	2363.36
384.47	2326.49
384.68	2336.73
384.89	2267.10
385.11	2271.20
385.32	2230.24
385.54	2326.49
385.75	2242.53
385.96	2426.84
386.18	2342.88
386.39	2338.78
386.60	2207.71
386.82	2398.17
387.03	2379.74
387.24	2351.07
387.46	2383.84
387.67	2383.84
387.88	2435.03
388.10	2371.55
388.31	2410.46
388.52	2514.91
388.74	2482.14
388.95	2373.60
389.16	2531.29
389.38	2418.65
389.59	2426.84
389.80	2566.10
390.02	2510.81
390.23	2545.63
390.44	2519.00
390.66	2570.20
390.87	2469.85
391.08	2566.10
391.30	2555.86
391.51	2609.11
391.72	2699.22
391.94	2598.87
392.15	2625.50
392.36	2576.34
392.58	2488.28
392.79	2584.54
393.00	2656.22
393.22	2705.37
393.43	2660.31
393.64	2777.05
393.85	2695.13
394.07	2555.86
394.28	2625.50
394.49	2686.94
394.71	2672.60
394.92	2772.95
395.13	2641.88
395.35	2697.17
395.56	2711.51
395.77	2789.33
395.98	2723.80
396.20	2811.86
396.41	2885.59
396.62	2877.40
396.84	2695.13
397.05	2772.95
397.26	2861.01
397.47	2934.74
397.69	2813.91
397.90	2928.60
398.11	2906.07
398.32	2799.57
398.54	2854.87
398.75	2789.33
398.96	2887.64
399.18	3039.19
399.39	2871.25
399.60	3018.71
399.81	2912.21
400.03	2947.03
400.24	3207.12
400.45	3010.51
400.66	2971.60
400.88	2934.74
401.09	3168.21
401.30	3030.99
401.51	3180.50
401.73	3022.80
401.94	3104.72
402.15	3139.54
402.36	3127.25
402.58	3037.14
402.79	3045.33
403.00	3117.01
403.21	3194.83
403.43	3184.59
403.64	3223.50
403.85	3147.73
404.06	3272.65
404.27	3094.48
404.49	3045.33
404.70	3022.80
404.91	3215.31
405.12	3174.35
405.34	3180.50
405.55	3434.44
405.76	3137.49
405.97	3176.40
406.19	3268.56
406.40	3205.07
406.61	3246.03
406.82	3362.76
407.03	3231.69
407.25	3203.02
407.46	3227.60
407.67	3319.76
407.88	3370.96
408.09	3239.89
408.31	3317.71
408.52	3403.72
408.73	3248.08
408.94	3264.46
409.15	3383.24
409.37	3377.10
409.58	3399.63
409.79	3381.20
410.00	3487.69
410.21	3381.20
410.43	3399.63
410.64	3403.72
410.85	3409.87
411.06	3397.58
411.27	3428.30
411.48	3393.48
411.70	3520.46
411.91	3383.24
412.12	3622.86
412.33	3444.68
412.54	3479.50
412.76	3559.37
412.97	3633.10
413.18	3461.07
413.39	3592.14
413.60	3641.29
413.81	3549.13
414.03	3471.31
414.24	3450.83
414.45	3665.86
414.66	3428.30
414.87	3571.66
415.08	3614.66
415.30	3559.37
415.51	3729.35
415.72	3651.53
415.93	3719.11
416.14	3676.10
416.35	3766.21
416.56	3684.30
416.78	3725.26
416.99	3837.89
417.20	3733.45
417.41	3721.16
417.62	3694.54
417.83	3823.56
418.04	3633.10
418.26	3784.65
418.47	3712.97
418.68	3809.22
418.89	3780.55
419.10	3948.48
419.31	3911.62
419.52	3930.05
419.73	3819.46
419.95	4030.40
420.16	3841.99
420.37	3831.75
420.58	3846.09
420.79	3733.45
421.00	3819.46
421.21	4024.26
421.42	3733.45
421.63	3952.58
421.85	3928.00
422.06	3993.54
422.27	3846.09
422.48	4026.31
422.69	4106.18
422.90	4155.33
423.11	4083.65
423.32	4071.36
423.53	4179.90
423.75	4034.50
423.96	4321.21
424.17	4126.66
424.38	4335.55
424.59	4140.99
424.80	4288.45
425.01	4280.25
425.22	4270.01
425.43	4317.12
425.64	4456.38
425.85	4489.15
426.06	4384.70
426.28	4200.38
426.49	4362.17
426.70	4278.21
426.91	4427.71
427.12	4362.17
427.33	4394.94
427.54	4536.25
427.75	4521.92
427.96	4722.62
428.17	4487.10
428.38	4663.22
428.59	4648.89
428.80	4564.92
429.01	4700.09
429.23	4618.17
429.44	4884.41
429.65	4784.06
429.86	4693.94
430.07	4659.13
430.28	4607.93
430.49	4943.80
430.70	5015.48
430.91	4837.30
431.12	4829.11
431.33	5050.29
431.54	4925.36
431.75	4868.02
431.96	4923.32
432.17	4835.25
432.38	4943.80
432.59	5148.59
432.80	5046.20
433.01	5113.78
433.22	5099.44
433.43	5087.15
433.64	5277.62
433.85	5156.79
434.06	5169.07
434.27	5072.82
434.49	5105.59
434.70	5463.98
434.91	5322.67
435.12	5339.05
435.33	5224.37
435.54	5162.93
435.75	5253.04
435.96	5240.75
436.17	5212.08
436.38	5543.85
436.59	5519.28
436.80	5322.67
437.01	5719.98
437.22	5545.90
437.43	5480.36
437.64	5310.38
437.85	5644.20
438.06	5623.72
438.27	5490.60
438.48	5578.67
438.69	5535.66
438.90	5746.60
439.11	5623.72
439.32	5799.85
439.53	5625.77
439.74	5685.16
439.95	5849.00
440.16	5775.27
440.37	5715.88
440.57	5652.39
440.78	5932.97
440.99	5803.94
441.20	5920.68
441.41	5652.39
441.62	5820.33
441.83	5808.04
442.04	5816.23
442.25	5992.36
442.46	5849.00
442.67	6107.04
442.88	6475.68
443.09	6070.18
443.30	5941.16
443.51	6043.56
443.72	6408.09
443.93	6074.28
444.14	6313.89
444.35	5922.73
444.56	6268.83
444.77	6006.69
444.98	6231.97
445.19	6178.72
445.40	6320.03
445.61	6211.49
445.81	6401.95
446.02	6348.70
446.23	6332.32
446.44	6156.19
446.65	6299.55
446.86	6459.29
447.07	6418.33
447.28	6700.95
447.49	6649.75
447.70	6375.33
447.91	6451.10
448.12	6432.67
448.33	6582.17
448.54	6729.63
448.74	6541.21
448.95	6516.64
449.16	6635.42
449.37	6918.04
449.58	6664.09
449.79	6893.46
450.00	6676.38
450.21	6686.62
450.42	6768.54
450.63	6801.30
450.84	6717.34
451.05	6950.81
451.25	6948.76
451.46	6823.83
451.67	6903.70
451.88	6944.66
452.09	7032.72
452.30	6846.36
452.51	6905.75
452.72	7165.84
452.93	7249.81
453.13	7045.01
453.34	6897.56
453.55	7200.66
453.76	6926.23
453.97	7325.58
454.18	7309.20
454.39	7350.16
454.60	7135.12
454.81	7225.23
455.01	7368.59
455.22	7153.55
455.43	7298.96
455.64	7612.30
455.85	7597.96
456.06	7542.67
456.27	7477.13
456.48	7524.24
456.68	7614.35
456.89	7511.95
457.10	7694.22
457.31	7604.11
457.52	7591.82
457.73	7776.14
457.94	7966.60
458.14	7638.92
458.35	7958.41
458.56	7784.33
458.77	7808.90
458.98	7888.78
459.19	7884.68
459.39	7991.17
459.60	7995.27
459.81	7950.21
460.02	8171.40
460.23	8132.48
460.44	8423.30
460.65	8216.45
460.85	8273.79
461.06	8474.49
461.27	8087.43
461.48	8568.70
461.69	8507.26
461.89	8212.35
462.10	8570.75
462.31	8249.22
462.52	8284.03
462.73	8548.22
462.94	8857.46
463.14	8501.12
463.35	8564.61
463.56	8841.08
463.77	8955.77
463.98	8701.82
464.18	8775.55
464.39	8824.70
464.60	9035.64
464.81	9095.03
465.02	8923.00
465.23	9258.87
465.43	9115.51
465.64	9351.03
465.85	9168.76
466.06	9146.23
466.27	9645.93
466.47	9478.00
466.68	9570.16
466.89	9445.23
467.10	9465.71
467.30	9217.91
467.51	9478.00
467.72	9871.21
467.93	9709.42
468.14	9797.48
468.34	10041.19
468.55	9965.42
468.76	9822.06
468.97	9858.92
469.17	10043.24
469.38	10237.80
469.59	10399.59
469.80	10069.86
470.01	10135.40
470.21	10370.91
470.42	10465.12
470.63	10561.37
470.84	10536.80
471.04	10743.64
471.25	10583.90
471.46	10729.31
471.67	10805.08
471.87	10708.83
472.08	10749.79
472.29	11159.38
472.50	10714.97
472.70	10919.77
472.91	10927.96
473.12	11099.99
473.33	11503.44
473.53	11411.28
473.74	11282.26
473.95	11646.80
474.16	11712.33
474.36	11632.46
474.57	11843.40
474.78	12160.84
474.99	11935.56
475.19	11534.16
475.40	12322.63
475.61	12107.59
475.81	12480.32
476.02	12791.61
476.23	12324.68
476.44	12695.36
476.64	12736.32
476.85	12797.76
477.06	12730.17
477.27	12891.96
477.47	12965.69
477.68	13123.38
477.89	13221.69
478.09	13135.67
478.30	13475.63
478.51	13201.21
478.71	13444.91
478.92	13354.80
479.13	13764.40
479.34	13709.10
479.54	13815.60
479.75	14006.06
479.96	14018.35
480.16	13946.67
480.37	14122.79
480.58	14346.02
480.78	14634.78
480.99	14446.37
481.20	14653.22
481.41	14587.68
481.61	14810.91
481.82	15150.87
482.03	15011.61
482.23	14974.75
482.44	15222.55
482.65	15570.71
482.85	15445.78
483.06	15304.47
483.27	15617.81
483.47	15585.04
483.68	15773.46
483.89	15671.06
484.09	15920.91
484.30	16144.14
484.51	16137.99
484.71	16152.33
484.92	16279.30
485.13	16457.48
485.33	16525.06
485.54	16328.45
485.75	16699.14
485.95	16660.23
486.16	16846.59
486.37	16946.94
486.57	16951.04
486.78	16846.59
486.98	17237.75
487.19	17094.40
487.40	17346.30
487.60	17297.14
487.81	17592.05
488.02	17624.82
488.22	17600.24
488.43	17991.41
488.64	17833.71
488.84	18018.03
489.05	18312.94
489.25	18042.60
489.46	18243.31
489.67	18198.25
489.87	18558.69
490.08	18595.56
490.29	18648.80
490.49	19070.68
490.70	19070.68
490.90	19019.49
491.11	19027.68
491.32	19201.76
491.52	19025.63
491.73	19431.13
491.94	19357.40
492.14	19476.18
492.35	19781.33
492.55	19715.80
492.76	19812.05
492.97	19896.02
493.17	19740.37
493.38	20070.09
493.58	20264.65
493.79	20229.84
494.00	20352.71
494.20	20403.91
494.41	20672.20
494.61	20678.34
494.82	20651.72
495.02	20592.33
495.23	20842.18
495.44	21114.56
495.64	20956.86
495.85	21237.44
496.05	21016.26
496.26	21229.24
496.47	21444.28
496.67	21278.40
496.88	21415.61
497.08	21393.08
497.29	21743.28
497.49	21712.56
497.70	21866.16
497.91	22032.05
498.11	22146.73
498.32	22087.34
498.52	21980.85
498.73	22046.38
498.93	22376.11
499.14	22322.86
499.34	22361.77
499.55	22664.87
499.76	22402.73
499.96	22511.27
500.17	22541.99
500.37	22642.34
500.58	22814.37
500.78	22967.97
500.99	23033.50
501.19	22855.33
501.40	23137.95
501.60	22957.73
501.81	23178.91
502.02	22906.53
502.22	22982.31
502.43	23404.19
502.63	23522.97
502.84	23332.51
503.04	23469.72
503.25	23563.93
503.45	23672.47
503.66	23772.82
503.86	23484.06
504.07	23944.85
504.27	23608.98
504.48	24014.48
504.68	23975.57
504.89	24166.03
505.09	24118.93
505.30	24198.80
505.50	24069.78
505.71	24415.88
505.91	24219.28
506.12	24395.40
506.32	24430.22
506.53	24413.84
506.73	24678.02
506.94	24555.15
507.14	24180.37
507.35	24721.03
507.55	24610.44
507.76	24974.98
507.96	24297.10
508.17	25079.43
508.37	25087.62
508.58	25190.02
508.78	25095.81
508.99	25017.99
509.19	25079.43
509.40	25382.52
509.60	25175.68
509.81	25333.37
510.01	25147.01
510.22	25120.38
510.42	25196.16
510.63	25267.84
510.83	25382.52
511.04	25376.38
511.24	25644.66
511.44	25503.35
511.65	25603.71
511.85	25710.20
512.06	25790.07
512.26	25966.20
512.47	25925.24
512.67	25843.32
512.88	25904.76
513.08	25771.64
513.29	25882.23
513.49	25939.57
513.69	26232.43
513.90	26080.88
514.10	26058.35
514.31	26281.58
514.51	25480.83
514.72	26138.23
514.92	26263.15
515.13	26177.14
515.33	26302.06
515.53	26500.72
515.74	26146.42
515.94	26273.39
516.15	26566.25
516.35	26297.97
516.56	26633.83
516.76	26703.46
516.96	26617.45
517.17	26891.88
517.37	26881.64
517.58	26760.81
517.78	26754.66
517.99	26902.12
518.19	26981.99
518.39	27192.93
518.60	27096.67
518.80	27020.90
519.01	26887.78
519.21	27211.36
519.41	27414.11
519.62	27266.66
519.82	27774.55
520.03	27266.66
520.23	27414.11
520.43	27590.24
520.64	27719.26
520.84	27905.62
521.05	27604.57
521.25	27723.35
521.45	27653.72
521.66	28196.43
521.86	28128.85
522.07	27891.29
522.27	27928.15
522.47	27952.73
522.68	28214.87
522.88	27993.68
523.08	28472.91
523.29	28366.42
523.49	28407.37
523.70	28388.94
523.90	28548.68
524.10	28438.09
524.31	28915.27
524.51	28763.72
524.71	29062.72
524.92	28839.50
525.12	28917.32
525.33	28976.71
525.53	29177.41
525.73	29206.08
525.94	29410.88
526.14	29384.26
526.34	29376.06
526.55	29224.51
526.75	29517.37
526.95	29636.16
527.16	29679.16
527.36	29797.95
527.56	29961.78
527.77	29900.34
527.97	30248.50
528.17	29986.36
528.38	30471.73
528.58	29955.64
528.78	30580.27
528.99	30486.06
529.19	30572.08
529.39	30316.08
529.60	31002.15
529.80	30930.47
530.00	30621.23
530.21	31120.93
530.41	30924.33
530.61	30983.72
530.82	31039.01
531.02	31039.01
531.22	31366.69
531.43	31335.97
531.63	31665.69
531.83	31850.01
532.04	31757.85
532.24	31702.56
532.44	31925.78
532.64	32032.28
532.85	32253.46
533.05	32003.61
533.25	32316.95
533.46	32443.92
533.66	32484.88
533.86	32546.32
534.07	32822.80
534.27	32646.67
534.47	32562.70
534.67	33043.98
534.88	33046.02
535.08	32896.52
535.28	33488.38
535.49	33254.92
535.69	33684.99
535.89	33545.73
536.09	33619.46
536.30	34143.74
536.50	33566.21
536.70	33867.26
536.91	33938.94
537.11	34061.82
537.31	34424.31
537.51	34201.08
537.72	34627.06
537.92	34665.97
538.12	34995.69
538.32	34422.26
538.53	35298.79
538.73	34547.18
538.93	34889.20
539.13	34868.72
539.34	34807.28
539.54	34579.95
539.74	35085.80
539.94	35272.17
540.15	34983.40
540.35	35472.87
540.55	35110.38
540.75	35689.95
540.96	35687.90
541.16	35718.62
541.36	35941.85
541.56	36031.96
541.77	36103.64
541.97	36199.90
542.17	36185.56
542.37	36294.10
542.58	36615.63
542.78	36304.34
542.98	36275.67
543.18	36427.22
543.38	36867.53
543.59	36724.18
543.79	36910.54
543.99	36861.39
544.19	36773.33
544.40	36523.47
544.60	37170.63
544.80	37363.14
545.00	37512.64
545.20	37680.58
545.41	37543.36
545.61	37526.98
545.81	37516.74
546.01	37961.15
546.21	37936.57
546.42	37819.84
546.62	37879.23
546.82	37639.62
547.02	37901.76
547.22	38147.51
547.43	37916.09
547.63	38467.00
547.83	38487.48
548.03	38434.23
548.23	38540.72
548.44	38622.64
548.64	38643.12
548.84	38786.48
549.04	38548.92
549.24	38782.38
549.45	39009.71
549.65	39036.33
549.85	38983.09
550.05	39302.57
550.25	38909.36
550.45	39493.03
550.66	38964.65
550.86	39142.83
551.06	39478.69
551.26	39472.55
551.46	39523.75
551.66	39767.46
551.87	39341.48
552.07	39718.31
552.27	40052.12
552.47	40097.18
552.67	39998.88
552.87	40007.07
553.07	40134.04
553.28	39941.53
553.48	40179.10
553.68	40615.32
553.88	40777.11
554.08	40555.93
554.28	40625.56
554.48	40125.85
554.69	40660.37
554.89	40574.36
555.09	40744.34
555.29	40498.58
555.49	40969.61
555.69	41313.67
555.89	40717.71
556.10	41235.85
556.30	40879.50
556.50	40789.39
556.70	41153.93
556.90	41201.04
557.10	41065.87
557.30	40887.70
557.50	41635.20
557.70	41383.30
557.91	41385.35
558.11	41657.73
558.31	41760.13
558.51	41495.94
558.71	41641.35
558.91	41579.91
559.11	41440.65
559.31	41606.53
559.51	41850.24
559.72	41975.17
559.92	41821.57
560.12	41653.64
560.32	42212.73
560.52	41301.39
560.72	42159.48
560.92	42300.79
561.12	42096.00
561.32	42734.96
561.52	41923.97
561.72	42280.31
561.93	42415.48
562.13	42399.10
562.33	42366.33
562.53	42792.31
562.73	42431.86
562.93	42290.55
563.13	42761.59
563.33	42710.39
563.53	42456.44
563.73	42474.87
563.93	42974.58
564.13	43355.50
564.33	42763.64
564.53	42739.06
564.74	42587.51
564.94	42866.03
565.14	43085.17
565.34	42554.74
565.54	42939.76
565.74	42972.53
565.94	43101.55
566.14	42804.59
566.34	42661.24
566.54	43390.31
566.74	43013.49
566.94	43003.25
567.14	43486.57
567.34	43003.25
567.54	43447.66
567.74	43267.44
567.94	43142.51
568.14	43650.41
568.34	43699.56
568.54	43685.22
568.74	43431.27
568.94	43343.21
569.14	43982.18
569.34	43984.22
569.54	43507.05
569.75	43298.16
569.95	43795.81
570.15	43916.64
570.35	43492.71
570.55	43830.63
570.75	43545.96
570.95	43787.62
571.15	44098.91
571.35	44170.59
571.55	44234.08
571.75	44170.59
571.95	44324.19
572.15	44066.14
572.35	44041.57
572.55	44260.70
572.75	44191.07
572.95	44219.74
573.15	44344.67
573.35	44383.58
573.55	44338.52
573.75	44293.47
573.95	44209.50
574.15	44418.39
574.35	44514.65
574.55	44250.46
574.75	44377.43
574.95	45006.16
575.15	44389.72
575.34	44703.06
575.54	44940.63
575.74	44877.14
575.94	44635.48
576.14	44971.35
576.34	45258.06
576.54	45213.01
576.74	45237.58
576.94	44924.24
577.14	45032.78
577.34	45184.33
577.54	44924.24
577.74	44825.94
577.94	44952.91
578.14	45217.10
578.34	45303.12
578.54	44993.87
578.74	44590.42
578.94	45118.80
579.14	44817.75
579.34	45167.95
579.54	45075.79
579.74	45763.91
579.94	45342.03
580.13	45471.05
580.33	45526.35
580.53	45264.21
580.73	45446.47
580.93	45495.63
581.13	45823.30
581.33	46118.21
581.53	46028.10
581.73	45622.60
581.93	45888.84
582.13	45851.97
582.33	45847.88
582.53	45894.98
582.73	46312.77
582.92	46103.87
583.12	46196.03
583.32	45542.73
583.52	45931.84
583.72	46191.94
583.92	46097.73
584.12	45954.37
584.32	46597.43
584.52	46382.40
584.72	45983.04
584.92	46607.67
585.11	46697.78
585.31	46363.96
585.51	46841.14
585.71	46282.05
585.91	47056.18
586.11	46728.50
586.31	46708.02
586.51	46595.38
586.71	46372.16
586.91	46728.50
587.10	46660.92
587.30	46912.82
587.50	46513.47
587.70	46511.42
587.90	47144.24
588.10	47451.44
588.30	46630.20
588.50	46855.48
588.69	46875.96
588.89	46785.85
589.09	47134.00
589.29	47179.06
589.49	47430.96
589.69	47189.30
589.89	47455.53
590.08	47385.90
590.28	47080.75
590.48	47152.43
590.68	47201.58
590.88	47523.11
591.08	47111.47
591.28	46896.44
591.47	47809.83
591.67	47312.17
591.87	47428.91
592.07	47490.35
592.27	47437.10
592.47	47519.02
592.67	47312.17
592.86	47349.04
593.06	47568.17
593.26	47807.78
593.46	47834.41
593.66	47736.10
593.86	47744.30
594.05	47674.66
594.25	47975.72
594.45	47715.62
594.65	47645.99
594.85	47609.13
595.05	48184.61
595.24	48643.35
595.44	47666.47
595.64	47863.08
595.84	47793.45
596.04	48151.84
596.23	48467.23
596.43	48309.53
596.63	48225.57
596.83	48309.53
597.03	48133.41
597.22	48655.64
597.42	48497.95
597.62	48338.21
597.82	48506.14
598.02	48514.33
598.21	48669.98
598.41	48641.31
598.61	48829.72
598.81	48319.77
599.01	48717.08
599.20	48758.04
599.40	48315.68
599.60	48940.31
599.80	49100.05
600.00	49194.26
600.19	49380.62
600.39	48571.67
600.59	49114.39
600.79	48827.67
600.98	49038.61
601.18	49188.11
601.38	49450.25
601.58	49356.05
601.78	49321.23
601.97	49009.94
602.17	49603.85
602.37	49407.25
602.57	49186.07
602.76	50142.47
602.96	49327.38
603.16	49616.14
603.36	49423.63
603.55	50171.14
603.75	49747.21
603.95	49878.28
604.15	49730.83
604.34	49947.91
604.54	49937.67
604.74	50201.86
604.94	50148.61
605.13	50537.72
605.33	50189.57
605.53	49816.84
605.73	50304.26
605.92	50228.48
606.12	50052.36
606.32	50001.16
606.52	50541.82
606.71	50304.26
606.91	50693.37
607.11	50390.27
607.30	50427.13
607.50	50244.87
607.70	50672.89
607.90	50330.88
608.09	50232.58
608.29	50507.01
608.49	50844.92
608.68	51041.53
608.88	50959.61
609.08	50832.63
609.28	51027.19
609.47	50814.20
609.67	51064.05
609.87	50908.41
610.06	51492.08
610.26	50980.09
610.46	51078.39
610.66	51070.20
610.85	51084.53
611.05	51074.29
611.25	51098.87
611.44	51211.51
611.64	51236.08
611.84	51207.41
612.03	50953.46
612.23	51752.17
612.43	51264.75
612.62	51324.14
612.82	51602.67
613.02	51576.04
613.21	51416.30
613.41	51467.50
613.61	51401.97
613.80	51451.12
614.00	51447.02
614.20	51946.73
614.39	51637.48
614.59	51877.10
614.79	51930.34
614.98	51473.65
615.18	51420.40
615.38	51657.96
615.57	51555.57
615.77	51539.18
615.97	52034.79
616.16	51700.97
616.36	51924.20
616.56	51731.69
616.75	51698.92
616.95	52040.93
617.15	51719.40
617.34	52026.60
617.54	51703.02
617.74	52346.08
617.93	52116.71
618.13	51913.96
618.32	52229.35
618.52	52280.55
618.72	52514.01
618.91	52102.37
619.11	51907.82
619.31	52309.22
619.50	51916.01
619.70	51723.50
619.90	52255.97
620.09	52151.52
620.29	52288.74
620.48	52475.10
620.68	52542.69
620.88	51893.48
621.07	52145.38
621.27	52401.38
621.46	51817.71
621.66	52278.50
621.86	52249.83
622.05	51711.21
622.25	52819.16
622.44	52374.75
622.64	52499.68
622.84	52624.60
623.03	51930.34
623.23	52585.69
623.42	52384.99
623.62	52919.51
623.82	52294.88
624.01	52169.96
624.21	52477.15
624.40	52597.98
624.60	52708.57
624.80	52202.72
624.99	52526.30
625.19	51977.45
625.38	52888.79
625.58	52962.52
625.77	52765.91
625.97	52438.24
626.17	52548.83
626.36	52331.75
626.56	53030.10
626.75	52362.46
626.95	53034.20
627.14	52788.44
627.34	52884.70
627.54	52391.14
627.73	53040.34
627.93	52780.25
628.12	52774.11
628.32	52907.22
628.51	52638.94
628.71	52602.08
628.90	52393.18
629.10	52892.89
629.30	53171.41
629.49	52663.52
629.69	52571.36
629.88	52700.38
630.08	52903.13
630.27	53282.00
630.47	53148.88
630.66	53107.93
630.86	53255.38
631.05	53044.44
631.25	53441.74
631.44	53245.14
631.64	53195.99
631.84	53216.47
632.03	53656.78
632.23	53437.65
632.42	53621.97
632.62	53505.23
632.81	52993.24
633.01	53269.72
633.20	53726.41
633.40	53347.54
633.59	53523.66
633.79	53200.08
633.98	53257.43
634.18	53912.78
634.37	53863.63
634.57	53368.02
634.76	53771.47
634.96	53492.94
635.15	53796.04
635.35	53472.46
635.54	53320.91
635.74	53861.58
635.93	53871.82
636.13	53859.53
636.32	54070.47
636.52	53449.94
636.71	53855.43
636.91	53972.17
637.10	53687.50
637.30	53875.91
637.49	53730.51
637.69	53753.04
637.88	54465.73
638.08	54119.62
638.27	54121.67
638.46	54217.92
638.66	53638.35
638.85	53943.50
639.05	53986.50
639.24	54113.48
639.44	54037.70
639.63	54078.66
639.83	54142.15
640.02	54609.09
640.22	54766.78
640.41	54111.43
640.61	54080.71
640.80	54303.94
640.99	54246.60
641.19	54791.36
641.38	54844.60
641.58	54314.18
641.77	54465.73
641.97	54123.72
642.16	54449.35
642.36	54803.64
642.55	54998.20
642.74	54344.90
642.94	55088.31
643.13	54326.47
643.33	54650.05
643.52	54889.66
643.72	55055.54
643.91	54756.54
644.10	54949.05
644.30	54770.88
644.49	54934.71
644.69	55295.16
644.88	54703.29
645.08	54658.24
645.27	55180.47
645.46	54494.40
645.66	55227.57
645.85	54697.15
646.05	55069.88
646.24	54826.17
646.43	55082.17
646.63	55280.82
646.82	55633.07
647.02	55684.27
647.21	55219.38
647.40	54949.05
647.60	55397.55
647.79	55237.81
647.99	55299.25
648.18	55266.48
648.37	55991.47
648.57	55407.79
648.76	55600.30
648.96	54760.64
649.15	55522.48
649.34	55688.37
649.54	55424.18
649.73	55368.88
649.92	55856.30
650.12	55420.08
650.31	55174.33
650.51	55985.32
650.70	55758.00
650.89	55465.14
651.09	56333.48
651.28	55837.87
651.47	55893.16
651.67	55911.59
651.86	55860.40
652.06	55209.14
652.25	56149.16
652.44	55852.20
652.64	55499.95
652.83	56128.68
653.02	55442.61
653.22	55719.09
653.41	55819.44
653.60	55553.20
653.80	55905.45
653.99	55864.49
654.18	55770.28
654.38	55938.22
654.57	55768.24
654.76	56003.75
654.96	56018.09
655.15	55620.78
655.34	55858.35
655.54	55393.46
655.73	55721.13
655.92	56136.87
656.12	55579.82
656.31	55809.20
656.50	55946.41
656.70	55755.95
656.89	55641.26
657.08	55981.23
657.28	55813.29
657.47	56044.71
657.66	56007.85
657.86	55295.16
658.05	56286.37
658.24	56145.06
658.43	55712.94
658.63	55923.88
658.82	56231.08
659.01	56616.10
659.21	55952.55
659.40	55805.10
659.59	55628.98
659.79	56126.63
659.98	56579.23
660.17	56251.56
660.36	56065.19
660.56	56093.86
660.75	56319.14
660.94	56063.14
661.14	56198.31
661.33	55850.16
661.52	55706.80
661.71	55803.05
661.91	55968.94
662.10	55583.92
662.29	56321.19
662.49	55604.40
662.68	56394.92
662.87	55995.56
663.06	56329.38
663.26	55776.43
663.45	56523.94
663.64	56399.01
663.83	56581.28
664.03	56124.58
664.22	55502.00
664.41	56038.57
664.60	55743.66
664.80	55731.37
664.99	56239.27
665.18	55741.61
665.37	56333.48
665.57	56454.31
665.76	55989.42
665.95	56161.45
666.14	55780.52
666.34	56011.95
666.53	56093.86
666.72	55549.10
666.91	55461.04
667.11	55919.79
667.30	56251.56
667.49	55809.20
667.68	55731.37
667.87	55903.40
668.07	56120.49
668.26	55776.43
668.45	55891.12
668.64	55590.06
668.84	56272.04
669.03	55993.51
669.22	56013.99
669.41	55755.95
669.60	55755.95
669.80	55958.70
669.99	55917.74
670.18	55735.47
670.37	55561.39
670.57	56079.53
670.76	55727.28
670.95	56304.80
671.14	55653.55
671.33	55639.22
671.53	56046.76
671.72	55999.66
671.91	55882.92
672.10	55235.77
672.29	55606.45
672.48	55147.70
672.68	55950.51
672.87	55346.36
673.06	55336.12
673.25	54844.60
673.44	55594.16
673.64	55340.21
673.83	54887.61
674.02	55010.49
674.21	55043.26
674.40	55391.41
674.59	54731.96
674.79	54777.02
674.98	55358.64
675.17	54762.68
675.36	54660.29
675.55	55295.16
675.74	55342.26
675.94	54983.86
676.13	55133.37
676.32	55522.48
676.51	55137.46
676.70	55325.88
676.89	55135.41
677.08	55119.03
677.28	54627.52
677.47	55018.68
677.66	55194.81
677.85	54817.98
678.04	55010.49
678.23	55553.20
678.42	54926.52
678.62	54801.60
678.81	55168.18
679.00	54768.83
679.19	55315.64
679.38	54951.10
679.57	54697.15
679.76	54908.09
679.96	55035.06
680.15	54938.81
680.34	55022.78
680.53	54947.00
680.72	54723.77
680.91	54850.75
681.10	54596.80
681.29	55043.26
681.48	54578.37
681.68	54584.51
681.87	54224.07
682.06	54301.89
682.25	54002.89
682.44	54789.31
682.63	54637.76
682.82	54279.36
683.01	54000.84
683.20	53888.20
683.39	53966.02
683.59	53988.55
683.78	54070.47
683.97	53701.84
684.16	53959.88
684.35	53632.21
684.54	53695.69
684.73	53863.63
684.92	54142.15
685.11	53601.49
685.30	53587.15
685.49	54244.55
685.69	54049.99
685.88	53732.56
686.07	53880.01
686.26	53499.09
686.45	53542.10
686.64	53957.83
686.83	53411.02
687.02	53800.14
687.21	53587.15
687.40	53558.48
687.59	53415.12
687.78	53609.68
687.97	53957.83
688.16	53581.01
688.35	53159.12
688.54	53470.42
688.74	53581.01
688.93	53142.74
689.12	53128.41
689.31	53216.47
689.50	53224.66
689.69	52933.85
689.88	52632.80
690.07	53370.07
690.26	53204.18
690.45	53097.69
690.64	52843.74
690.83	52813.02
691.02	52995.29
691.21	52677.85
691.40	52430.05
691.59	52751.58
691.78	53091.54
691.97	52884.70
692.16	52767.96
692.35	53142.74
692.54	52511.97
692.73	52862.17
692.92	52737.24
693.11	53066.97
693.30	52491.49
693.49	52669.66
693.68	52423.90
693.87	52770.01
694.06	52065.51
694.25	52528.35
694.44	52204.77
694.63	52487.39
694.82	52118.76
695.01	52438.24
695.20	52405.47
695.39	52045.03
695.58	52061.41
695.77	52116.71
695.96	51897.58
696.15	52073.70
696.34	51963.11
696.53	52129.00
696.72	52096.23
696.91	52458.72
697.10	51981.54
697.29	51719.40
697.48	52065.51
697.67	52014.31
697.86	51289.33
698.05	51764.46
698.24	52382.94
698.43	51322.10
698.62	51760.36
698.81	51471.60
699.00	52294.88
699.19	51500.27
699.38	51823.85
699.57	51188.98
699.76	52231.40
699.95	51483.89
700.14	51528.94
700.32	51123.44
700.51	51107.06
700.70	51406.06
700.89	51627.24
701.08	51510.51
701.27	50969.85
701.46	51315.95
701.65	50803.96
701.84	51516.65
702.03	50877.69
702.22	51031.29
702.41	50767.10
702.60	51193.07
702.79	50879.74
702.98	50408.70
703.17	50525.44
703.35	51021.05
703.54	50746.62
703.73	50793.72
703.92	50756.86
704.11	50844.92
704.30	50748.67
704.49	49937.67
704.68	50023.68
704.87	50255.11
705.06	50275.58
705.25	50394.37
705.43	50320.64
705.62	50803.96
705.81	50234.63
706.00	50564.35
706.19	49925.38
706.38	49923.33
706.57	50261.25
706.76	49976.58
706.95	50119.94
707.14	50078.98
707.32	49683.72
707.51	50070.79
707.70	49757.45
707.89	50218.24
708.08	49954.05
708.27	50117.89
708.46	50029.83
708.65	49939.72
708.84	49945.86
709.02	50353.41
709.21	50210.05
709.40	49730.83
709.59	49802.50
709.78	49597.71
709.97	49845.51
710.16	49362.19
710.34	49829.13
710.53	49536.27
710.72	49552.65
710.91	49487.12
711.10	49812.74
711.29	49374.48
711.48	49636.62
711.66	49671.43
711.85	49169.68
712.04	49184.02
712.23	49722.63
712.42	49331.47
712.61	49423.63
712.80	49280.27
712.98	49394.96
713.17	49468.69
713.36	49587.47
713.55	49513.74
713.74	49370.38
713.93	49263.89
714.11	49177.87
714.30	48790.81
714.49	48958.74
714.68	49337.62
714.87	49095.95
715.06	48985.36
715.24	48893.21
715.43	48864.53
715.62	48575.77
715.81	48586.01
716.00	48991.51
716.18	48518.43
716.37	48203.04
716.56	48493.85
716.75	49048.85
716.94	48420.13
717.12	48403.74
717.31	48690.46
717.50	48639.26
717.69	48610.59
717.88	48606.49
718.06	48405.79
718.25	49077.52
718.44	48575.77
718.63	48229.66
718.82	48444.70
719.00	48217.38
719.19	48266.53
719.38	48031.01
719.57	48065.83
719.76	47721.77
719.94	47461.68
720.13	47861.03
720.32	47881.51
720.51	47551.79
720.69	47658.28
720.88	47732.01
721.07	47707.43
721.26	47428.91
721.44	47752.49
721.63	47500.59
721.82	47076.66
722.01	47314.22
722.20	47529.26
722.38	47142.19
722.57	46597.43
722.76	46880.05
722.95	47285.55
723.13	46742.84
723.32	46875.96
723.51	46789.94
723.70	46976.31
723.88	46794.04
724.07	46490.94
724.26	47211.82
724.44	46492.99
724.63	46765.37
724.82	47004.98
725.01	46837.05
725.19	46890.29
725.38	46366.01
725.57	46716.22
725.76	46351.68
725.94	46671.16
726.13	46587.19
726.32	46247.23
726.51	46122.30
726.69	46630.20
726.88	46458.17
727.07	46472.51
727.25	46140.74
727.44	46609.72
727.63	46249.28
727.82	46615.86
728.00	46257.47
728.19	46368.06
728.38	46708.02
728.56	45958.47
728.75	46544.19
728.94	46157.12
729.12	46300.48
729.31	46277.95
729.50	46570.81
729.69	46638.39
729.87	46308.67
730.06	46511.42
730.25	46257.47
730.43	46656.82
730.62	46392.64
730.81	46492.99
730.99	46415.16
731.18	46001.47
731.37	46574.91
731.55	46701.88
731.74	46748.98
731.93	46261.57
732.11	46308.67
732.30	46226.75
732.49	46224.70
732.67	46828.85
732.86	46363.96
733.05	46177.60
733.23	45811.01
733.42	46605.62
733.61	46327.10
733.79	46468.41
733.98	46447.93
734.17	46273.85
734.35	46177.60
734.54	46378.30
734.73	46423.36
734.91	46427.45
735.10	46134.59
735.29	46746.93
735.47	46046.53
735.66	46212.41
735.84	46253.37
736.03	45972.80
736.22	46507.32
736.40	46024.00
736.59	46468.41
736.78	46503.23
736.96	46050.63
737.15	46327.10
737.33	45696.33
737.52	46466.36
737.71	45866.31
737.89	46187.84
738.08	45741.38
738.27	45661.51
738.45	46513.47
738.64	45964.61
738.82	46421.31
739.01	46155.07
739.20	45974.85
739.38	46030.15
739.57	46462.27
739.75	46081.34
739.94	45686.09
740.13	45933.89
740.31	45692.23
740.50	45794.63
740.68	45649.22
740.87	46021.95
741.06	45976.90
741.24	45768.01
741.43	45290.83
741.61	45985.09
741.80	46034.24
741.99	45901.12
742.17	45606.22
742.36	45378.89
742.54	45567.30
742.73	45638.98
742.91	45976.90
743.10	45077.84
743.29	46122.30
743.47	45698.37
743.66	46024.00
743.84	45462.86
744.03	45548.87
744.21	45092.18
744.40	45958.47
744.59	45548.87
744.77	45325.64
744.96	45641.03
745.14	45434.19
745.33	45610.31
745.51	45372.75
745.70	45794.63
745.88	45335.88
746.07	45755.72
746.26	45165.90
746.44	44860.76
746.63	45448.52
746.81	45483.34
747.00	45352.27
747.18	45448.52
747.37	45344.08
747.55	45428.04
747.74	45360.46
747.92	44946.77
748.11	44975.44
748.29	45317.45
748.48	45208.91
748.66	45380.94
748.85	45008.21
749.03	45092.18
749.22	44979.54
749.41	44707.16
749.59	45167.95
749.78	44678.49
749.96	44289.37
750.15	44883.28
750.33	45024.59
750.52	44649.81
750.70	44858.71
750.89	44633.43
751.07	44477.79
751.26	44768.60
751.44	44725.59
751.63	44666.20
751.81	44836.18
752.00	44606.81
752.18	44733.78
752.37	44336.48
752.55	44348.76
752.74	44115.29
752.92	44551.51
753.10	44481.88
753.29	44297.56
753.47	44266.84
753.66	44281.18
753.84	44488.03
754.03	44137.82
754.21	43877.73
754.40	44578.14
754.58	44350.81
754.77	44262.75
754.95	43832.68
755.14	44057.95
755.32	44721.49
755.51	43894.11
755.69	43890.02
755.88	43949.41
756.06	44088.67
756.24	44320.09
756.43	43734.37
756.61	43742.56
756.80	43744.61
756.98	43820.39
757.17	43560.30
757.35	43988.32
757.54	43816.29
757.72	43928.93
757.90	43779.43
758.09	43386.22
758.27	43457.90
758.46	43466.09
758.64	43564.39
758.83	43924.83
759.01	44029.28
759.19	43685.22
759.38	43306.35
759.56	43984.22
759.75	43443.56
759.93	43730.28
760.12	43148.65
760.30	43584.87
760.48	43566.44
760.67	43150.70
760.85	43218.28
761.04	43545.96
761.22	43502.95
761.40	43136.37
761.59	42767.73
761.77	43040.11
761.96	43337.07
762.14	43130.22
762.32	42984.82
762.51	43206.00
762.69	43009.39
762.88	42841.46
763.06	43009.39
763.24	43089.26
763.43	43119.98
763.61	42603.89
763.80	42814.83
763.98	42952.05
764.16	42982.77
764.35	42683.76
764.53	42030.46
764.72	42511.74
764.90	42403.19
765.08	42605.94
765.27	42988.91
765.45	42423.67
765.63	42134.91
765.82	42620.28
766.00	42343.80
766.18	42388.86
766.37	42481.02
766.55	41780.61
766.74	42411.38
766.92	41756.03
767.10	42003.84
767.29	41989.50
767.47	41547.14
767.65	42104.19
767.84	41401.74
768.02	41966.98
768.20	41440.65
768.39	42194.30
768.57	41913.73
768.75	41827.71
768.94	42198.40
769.12	41772.42
769.30	41917.82
769.49	41645.44
769.67	41368.97
769.85	40940.94
770.04	41547.14
770.22	41428.36
770.40	40953.23
770.59	41399.69
770.77	41362.82
770.95	41303.43
771.14	41360.78
771.32	40996.24
771.50	40807.83
771.69	41250.19
771.87	41463.18
772.05	40924.56
772.24	40619.41
772.42	40865.17
772.60	40760.72
772.78	40381.85
772.97	40641.94
773.15	40791.44
773.33	40293.79
773.52	40609.17
773.70	40904.08
773.88	40945.04
774.07	40693.14
774.25	40394.14
774.43	40832.40
774.61	40822.16
774.80	41029.01
774.98	40654.23
775.16	40662.42
775.34	41069.97
775.53	40744.34
775.71	40910.22
775.89	40945.04
776.08	40760.72
776.26	40865.17
776.44	41487.75
776.62	41065.87
776.81	40902.03
776.99	41244.04
777.17	40752.53
777.35	41479.56
777.54	41139.60
777.72	40658.32
777.90	41160.08
778.08	41174.41
778.27	40801.68
778.45	41371.02
778.63	41538.95
778.81	40951.18
779.00	41571.72
779.18	41088.40
779.36	41221.52
779.54	41416.07
779.73	41256.33
779.91	41059.73
780.09	41254.28
780.27	41665.92
780.46	41002.38
780.64	41588.10
780.82	41350.54
781.00	41282.95
781.19	41602.44
781.37	41786.75
781.55	41553.29
781.73	41893.25
781.91	41530.76
782.10	41661.83
782.28	42096.00
782.46	41493.89
782.64	41430.41
782.82	41616.77
783.01	42059.13
783.19	41772.42
783.37	41796.99
783.55	41481.61
783.74	41745.80
783.92	41416.07
784.10	42128.77
784.28	42081.66
784.46	41426.31
784.64	41555.33
784.83	41641.35
785.01	42192.25
785.19	41561.48
785.37	41909.63
785.55	41913.73
785.74	41581.96
785.92	41336.20
786.10	41489.80
786.28	41794.95
786.46	41215.37
786.64	41221.52
786.83	41645.44
787.01	41930.11
787.19	41188.75
787.37	41409.93
787.55	41510.28
787.74	41254.28
787.92	41215.37
788.10	41227.66
788.28	40863.12
788.46	41401.74
788.64	41104.78
788.82	41590.15
789.01	41229.71
789.19	41076.11
789.37	40969.61
789.55	41278.86
789.73	40699.28
789.91	40719.76
790.09	40621.46
790.28	40525.21
790.46	40422.81
790.64	40664.47
790.82	40150.43
791.00	40328.60
791.18	40138.14
791.36	40023.45
791.55	40195.48
791.73	40187.29
791.91	39638.44
792.09	39648.68
792.27	39898.53
792.45	39888.29
792.63	39777.70
792.81	39490.98
793.00	39171.50
793.18	39474.60
793.36	39396.77
793.54	39026.09
793.72	39165.35
793.90	39118.25
794.08	38876.59
794.26	39347.62
794.44	38577.59
794.62	38223.29
794.81	39034.28
794.99	38868.40
795.17	38495.67
795.35	38651.31
795.53	38706.61
795.71	38540.72
795.89	38116.79
796.07	38110.65
796.25	38096.31
796.43	38002.11
796.61	37852.61
796.80	37653.95
796.98	37799.36
797.16	37582.27
797.34	37909.95
797.52	37533.12
797.70	37684.67
797.88	37526.98
798.06	37049.80
798.24	37193.16
798.42	36922.83
798.60	36804.05
798.78	37051.85
798.96	37324.23
799.14	36715.98
799.32	36810.19
799.51	36486.61
799.69	36947.40
799.87	36615.63
800.05	36589.01
800.23	36236.76
800.41	36146.65
800.59	36224.47
800.77	36001.24
800.95	35706.34
801.13	35929.56
801.31	35788.25
801.49	35950.04
801.67	35763.68
801.85	35403.24
802.03	35425.76
802.21	34967.02
802.39	35165.67
802.57	35268.07
802.75	35313.13
802.93	34981.35
803.11	34893.29
803.29	34833.90
803.47	34790.89
803.65	34723.31
803.83	34534.90
804.01	34438.64
804.19	34287.09
804.37	34231.80
804.55	34295.28
804.73	34139.64
804.91	34313.72
805.09	34063.86
805.27	34137.59
805.45	34264.57
805.63	33785.34
805.81	33783.29
805.99	33795.58
806.17	33961.47
806.35	33793.53
806.53	33070.60
806.71	33740.29
806.89	33441.28
807.07	33283.59
807.25	33318.40
807.43	33099.27
807.61	33445.38
807.79	32947.72
807.97	32814.60
808.15	32790.03
808.33	33166.85
808.51	33168.90
808.69	32826.89
808.87	32386.58
809.05	32542.22
809.23	32595.47
809.41	32116.25
809.59	32103.96
809.77	32318.99
809.95	32296.47
810.13	32314.90
810.31	32042.52
810.49	31944.22
810.67	31983.13
810.84	32171.54
811.02	31966.74
811.20	31575.58
811.38	31643.17
811.56	31462.94
811.74	31645.21
811.92	31393.31
812.10	31501.86
812.28	31495.71
812.46	31360.55
812.64	31618.59
812.82	31139.36
813.00	31196.71
813.18	31536.67
813.36	30957.10
813.53	30864.94
813.71	30801.45
813.89	31032.87
814.07	31163.94
814.25	30957.10
814.43	30682.67
814.61	30588.46
814.79	30996.01
814.97	30733.87
815.15	30498.35
815.33	30238.26
815.50	30000.69
815.68	30271.03
815.86	29943.35
816.04	30250.55
816.22	29990.45
816.40	30119.48
816.58	29648.44
816.76	30064.18
816.94	29933.11
817.11	29781.56
817.29	29568.57
817.47	29605.44
817.65	29632.06
817.83	29666.88
818.01	29302.34
818.19	29412.93
818.37	29419.07
818.54	29126.21
818.72	28968.52
818.90	29535.81
819.08	29126.21
819.26	29216.32
819.44	29226.56
819.62	29009.48
819.80	29132.36
819.97	28962.37
820.15	28685.90
820.33	28765.77
820.51	28989.00
820.69	28477.01
820.87	28710.47
821.05	28839.50
821.22	28444.24
821.40	28427.85
821.58	28374.61
821.76	28438.09
821.94	28290.64
822.12	28206.67
822.29	28505.68
822.47	28118.61
822.65	28368.46
822.83	28311.12
823.01	28268.11
823.19	27799.13
823.36	27981.40
823.54	28153.43
823.72	27391.58
823.90	28073.56
824.08	27481.69
824.25	27760.22
824.43	27668.06
824.61	27887.19
824.79	27514.46
824.97	27192.93
825.15	27686.49
825.32	27516.51
825.50	27076.19
825.68	27237.98
825.86	27545.18
826.04	27278.94
826.21	27270.75
826.39	27354.72
826.57	27029.09
826.75	27172.45
826.93	26844.77
827.10	26738.28
827.28	27205.22
827.46	26920.55
827.64	26666.60
827.81	26699.37
827.99	26625.64
828.17	26601.07
828.35	26441.32
828.53	26355.31
828.70	26199.66
828.88	26584.68
829.06	26599.02
829.24	26920.55
829.41	26535.53
829.59	26345.07
829.77	26490.48
829.95	26185.33
830.12	26252.91
830.30	26199.66
830.48	26529.39
830.66	26277.49
830.84	26224.24
831.01	26168.94
831.19	26154.61
831.37	25980.53
831.55	25837.17
831.72	25986.68
831.90	26015.35
832.08	25962.10
832.25	25575.03
832.43	25816.69
832.61	25695.86
832.79	25458.30
832.96	25532.03
833.14	25583.23
833.32	25769.59
833.50	25435.77
833.67	25544.31
833.85	25409.15
834.03	25327.23
834.20	25443.96
834.38	25486.97
834.56	25484.92
834.74	25243.26
834.91	25271.93
835.09	25292.41
835.27	25034.37
835.44	24995.46
835.62	24837.76
835.80	25034.37
835.98	24868.48
836.15	24911.49
836.33	24979.07
836.51	24819.33
836.68	24876.68
836.86	24731.27
837.04	25267.84
837.21	24968.84
837.39	24776.33
837.57	25081.47
837.75	24600.20
837.92	24688.26
838.10	24372.88
838.28	24116.88
838.45	24360.59
838.63	24350.35
838.81	24450.70
838.98	24411.79
839.16	24182.42
839.34	24233.61
839.51	24442.51
839.69	24034.96
839.87	24088.21
840.04	24206.99
840.22	24206.99
840.40	23969.43
840.57	23948.95
840.75	23864.98
840.93	23760.53
841.10	23905.94
841.28	24022.67
841.46	23715.48
841.63	23928.47
841.81	23723.67
841.98	23856.79
842.16	23869.08
842.34	23647.90
842.51	23500.44
842.69	23830.16
842.87	23584.41
843.04	23629.46
843.22	23305.88
843.40	23381.66
843.57	23645.85
843.75	23451.29
843.92	23350.94
844.10	23432.86
844.28	23443.10
844.45	23723.67
844.63	23418.52
844.81	23060.13
844.98	23459.48
845.16	23168.67
845.33	23434.91
845.51	22974.11
845.69	23099.04
845.86	23185.05
846.04	22886.05
846.21	23029.41
846.39	22857.38
846.57	23076.51
846.74	22884.00
846.92	22884.00
847.09	22681.25
847.27	22550.18
847.45	22881.95
847.62	22961.83
847.80	22683.30
847.97	22683.30
848.15	22738.60
848.32	22468.27
848.50	22574.76
848.68	22292.14
848.85	22447.79
849.03	22474.41
849.20	22482.60
849.38	22470.31
849.56	22372.01
849.73	22294.19
849.91	22152.88
850.08	22421.16
850.26	22304.43
850.43	22363.82
850.61	22105.77
850.78	21765.81
850.96	22253.23
851.14	21946.03
851.31	22103.73
851.49	22005.42
851.66	21780.15
851.84	21698.23
852.01	21974.70
852.19	22193.84
852.36	22015.66
852.54	21837.49
852.71	21737.14
852.89	21749.43
853.07	21798.58
853.24	21866.16
853.42	21933.75
853.59	21677.75
853.77	21724.85
853.94	21800.63
854.12	22038.19
854.29	21395.13
854.47	21548.73
854.64	21812.92
854.82	21456.57
854.99	21706.42
855.17	21305.02
855.34	21243.58
855.52	21290.68
855.69	21573.30
855.87	21499.58
856.04	21427.90
856.22	21409.47
856.39	21087.93
856.57	21182.14
856.74	21112.51
856.92	21221.05
857.09	20836.03
857.27	20891.33
857.44	21339.83
857.62	21112.51
857.79	21130.94
857.97	20985.54
858.14	20956.86
858.32	20846.27
858.49	20934.34
858.67	20553.41
858.84	20889.28
859.02	20915.90
859.19	20631.24
859.37	20375.24
859.54	20399.82
859.72	20823.75
859.89	20606.66
860.06	20733.64
860.24	20571.85
860.41	20754.12
860.59	20565.70
860.76	20821.70
860.94	20395.72
861.11	20541.13
861.29	20481.74
861.46	20541.13
861.64	20158.16
861.81	20215.50
861.98	20244.17
862.16	20238.03
862.33	20115.15
862.51	20299.47
862.68	20270.79
862.86	20184.78
863.03	20436.68
863.21	20139.72
863.38	20422.34
863.55	20010.70
863.73	19889.87
863.90	19990.22
864.08	20170.44
864.25	19883.73
864.43	19996.37
864.60	19969.74
864.77	19642.07
864.95	19875.54
865.12	19537.62
865.30	19959.50
865.47	19619.54
865.64	19760.85
865.82	19842.77
865.99	19936.98
866.17	19375.83
866.34	19711.70
866.51	19328.73
866.69	19449.56
866.86	19457.75
867.04	19470.04
867.21	19173.08
867.38	19267.29
867.56	19359.45
867.73	19302.11
867.91	19033.82
868.08	19144.41
868.25	19345.11
868.43	19111.64
868.60	19185.37
868.78	18794.21
868.95	19058.40
869.12	19197.66
869.30	18929.38
869.47	19046.11
869.64	18951.90
869.82	18984.67
869.99	18949.85
870.16	19058.40
870.34	18953.95
870.51	18884.32
870.69	18732.77
870.86	18783.97
871.03	18867.94
871.21	18638.56
871.38	18849.50
871.55	18642.66
871.73	18452.20
871.90	18564.84
872.07	18304.74
872.25	18460.39
872.42	18546.40
872.59	18441.96
872.77	18310.89
872.94	18626.28
873.11	18456.29
873.29	18564.84
873.46	18267.88
873.63	18020.08
873.81	18239.21
873.98	18087.66
874.15	18239.21
874.33	17854.19
874.50	17936.11
874.67	18095.85
874.85	18077.42
875.02	17921.77
875.19	17721.07
875.37	17825.52
875.54	17872.62
875.71	17573.62
875.88	17465.08
876.06	17577.72
876.23	17794.80
876.40	17557.24
876.58	17624.82
876.75	17542.90
876.92	17428.21
877.10	17708.79
877.27	17350.39
877.44	17483.51
877.61	17188.60
877.79	17121.02
877.96	17458.93
878.13	17334.01
878.31	16891.65
878.48	17116.92
878.65	17170.17
878.82	17094.40
879.00	17291.00
879.17	17125.11
879.34	16887.55
879.51	16891.65
879.69	16697.09
879.86	17004.28
880.03	17012.48
880.21	16903.93
880.38	16832.26
880.55	16916.22
880.72	16928.51
880.90	16883.45
881.07	16889.60
881.24	16785.15
881.41	16809.73
881.59	16848.64
881.76	16772.86
881.93	16512.77
882.10	16688.90
882.28	16535.30
882.45	16709.38
882.62	16652.03
882.79	16793.34
882.96	16375.56
883.14	16365.32
883.31	16566.02
883.48	16361.22
883.65	16445.19
883.83	16660.23
884.00	16326.41
884.17	16537.35
884.34	16336.65
884.51	16137.99
884.69	16178.95
884.86	16221.96
885.03	16178.95
885.20	16281.35
885.38	16277.26
885.55	16056.08
885.72	16137.99
885.89	15933.20
886.06	16150.28
886.24	16232.20
886.41	16283.40
886.58	16289.54
886.75	16189.19
886.92	15859.47
887.10	16224.01
887.27	15838.99
887.44	16019.21
887.61	16199.43
887.78	16162.57
887.95	15759.12
888.13	15988.49
888.30	15836.94
888.47	15900.43
888.64	15867.66
888.81	15773.46
888.99	15589.14
889.16	15650.58
889.33	15587.09
889.50	15671.06
889.67	15535.89
889.84	15752.98
890.01	15587.09
890.19	15646.48
890.36	15808.27
890.53	15376.15
890.70	15421.20
890.87	15439.64
891.04	15261.46
891.22	15589.14
891.39	15525.65
891.56	15163.16
891.73	15322.90
891.90	15222.55
892.07	15240.98
892.24	15091.48
892.42	15197.98
892.59	15134.49
892.76	14978.84
892.93	15068.95
893.10	15052.57
893.27	14941.98
893.44	15089.43
893.61	15058.71
893.79	15179.54
893.96	15144.73
894.13	15167.26
894.30	14999.32
894.47	15165.21
894.64	15085.34
894.81	15114.01
894.98	14974.75
895.15	15116.06
895.33	15099.67
895.50	15128.35
895.67	14927.64
895.84	15021.85
896.01	15009.56
896.18	14860.06
896.35	15011.61
896.52	15021.85
896.69	14921.50
896.86	14962.46
897.04	15226.65
897.21	14913.31
897.38	14972.70
897.55	14821.15
897.72	14870.30
897.89	15058.71
898.06	15087.39
898.23	15048.47
898.40	14722.85
898.57	15052.57
898.74	14978.84
898.91	14718.75
899.08	14743.33
899.26	14710.56
899.43	14960.41
899.60	14872.35
899.77	14778.14
899.94	14997.28
900.11	14759.71
900.28	14634.78
900.45	14823.20
900.62	14573.35
900.79	14673.70
900.96	14982.94
901.13	14884.64
901.30	14823.20
901.47	14829.34
901.64	14724.90
901.81	14683.94
901.98	14710.56
902.15	14997.28
902.32	14788.38
902.49	14862.11
902.66	14673.70
902.83	14753.57
903.01	14698.27
903.18	14815.01
903.35	14919.45
903.52	14747.42
903.69	14784.29
903.86	14745.38
904.03	14984.99
904.20	15050.52
904.37	15114.01
904.54	14898.97
904.71	14905.12
904.88	14950.17
905.05	14765.85
905.22	14726.94
905.39	14630.69
905.56	14786.33
905.73	14708.51
905.90	14815.01
906.07	14810.91
906.24	14636.83
906.41	14698.27
906.58	14931.74
906.75	14913.31
906.92	14851.87
907.09	14812.96
907.26	14724.90
907.43	14675.74
907.60	14468.90
907.77	14878.49
907.93	14735.14
908.10	14645.02
908.27	14763.81
908.44	14649.12
908.61	14503.71
908.78	14561.06
908.95	14792.48
909.12	14870.30
909.29	14860.06
909.46	14491.43
909.63	14823.20
909.80	14561.06
909.97	14550.82
910.14	14626.59
910.31	14886.68
910.48	14620.45
910.65	14708.51
910.82	14720.80
910.99	14708.51
911.16	14264.10
911.33	14618.40
911.50	14534.43
911.66	14358.31
911.83	14389.03
912.00	14325.54
912.17	14303.01
912.34	14214.95
912.51	14462.76
912.68	14186.28
912.85	14253.86
913.02	14458.66
913.19	14335.78
913.36	14485.28
913.53	14391.08
913.70	14059.31
913.86	14270.25
914.03	14145.32
914.20	14034.73
914.37	14137.13
914.54	14122.79
914.71	14141.22
914.88	14356.26
915.05	14251.81
915.22	14010.15
915.39	13995.82
915.55	13883.18
915.72	13991.72
915.89	14020.39
916.06	13758.25
916.23	13735.73
916.40	13725.49
916.57	13920.04
916.74	13797.17
916.91	13881.13
917.07	13291.32
917.24	13586.22
917.41	13520.69
917.58	13424.44
917.75	13428.53
917.92	13246.26
918.09	13393.72
918.26	13487.92
918.42	13412.15
918.59	13279.03
918.76	13315.89
918.93	13203.25
919.10	13156.15
919.27	13027.13
919.44	13125.43
919.60	13299.51
919.77	13121.34
919.94	12945.21
920.11	12930.87
920.28	13107.00
920.45	12746.56
920.61	12943.16
920.78	13111.10
920.95	12853.05
921.12	13051.70
921.29	12904.25
921.46	12674.88
921.62	12552.00
921.79	12750.65
921.96	12533.57
922.13	12746.56
922.30	12429.12
922.47	12666.69
922.63	12365.64
922.80	12451.65
922.97	12310.34
923.14	12185.41
923.31	12322.63
923.47	12410.69
923.64	12463.94
923.81	12140.36
923.98	12121.93
924.15	12044.10
924.32	12078.92
924.48	12083.02
924.65	12224.33
924.82	11847.50
924.99	11880.27
925.15	11853.64
925.32	11943.75
925.49	11714.38
925.66	11751.24
925.83	11554.64
925.99	11575.12
926.16	11693.90
926.33	11734.86
926.50	11530.06
926.67	11521.87
926.83	11435.86
927.00	11425.62
927.17	11167.57
927.34	11167.57
927.50	11044.70
927.67	11472.72
927.84	11317.08
928.01	11065.18
928.17	11163.48
928.34	11188.05
928.51	10952.54
928.68	10958.68
928.84	10895.19
929.01	10813.28
929.18	10719.07
929.35	10776.41
929.51	10661.73
929.68	10561.37
929.85	10680.16
930.02	10489.70
930.18	10501.98
930.35	10442.59
930.52	10309.47
930.69	10473.31
930.85	10297.19
931.02	10205.03
931.19	10289.00
931.36	10332.00
931.52	10415.97
931.69	10405.73
931.86	10190.69
932.02	9965.42
932.19	9955.18
932.36	9928.55
932.53	10080.10
932.69	9762.67
932.86	9965.42
933.03	9846.63
933.19	9631.60
933.36	9807.72
933.53	9774.95
933.70	9514.86
933.86	9496.43
934.03	9633.64
934.20	9449.33
934.36	9510.77
934.53	9353.07
934.70	9064.31
934.86	9353.07
935.03	8982.39
935.20	9156.47
935.36	9056.12
935.53	8896.38
935.70	9015.16
935.86	8920.95
936.03	8718.20
936.20	8669.05
936.36	8544.13
936.53	8642.43
936.70	8429.44
936.86	8558.46
937.03	8433.54
937.20	8267.65
937.36	8394.62
937.53	7878.54
937.70	8095.62
937.86	7899.02
938.03	7862.15
938.20	7913.35
938.36	7702.41
938.53	7792.52
938.70	7479.18
938.86	7671.69
939.03	7413.65
939.20	7262.10
939.36	7247.76
939.53	7227.28
939.70	7258.00
939.86	6852.50
940.03	6924.18
940.19	6877.08
940.36	6819.74
940.53	6758.30
940.69	6725.53
940.86	6690.71
941.03	6623.13
941.19	6522.78
941.36	6420.38
941.52	6320.03
941.69	6236.06
941.86	6207.39
942.02	6199.20
942.19	6039.46
942.35	6201.25
942.52	6199.20
942.69	5894.05
942.85	5838.76
943.02	5867.43
943.18	5887.91
943.35	5754.79
943.52	5705.64
943.68	5660.59
943.85	5930.92
944.01	5685.16
944.18	5703.59
944.35	5734.31
944.51	5519.28
944.68	5511.08
944.84	5511.08
945.01	5584.81
945.17	5484.46
945.34	5474.22
945.51	5447.60
945.67	5476.27
945.84	5414.83
946.00	5300.14
946.17	5416.88
946.33	5310.38
946.50	5425.07
946.67	5566.38
946.83	5304.24
947.00	5427.12
947.16	5392.30
947.33	5363.63
947.49	5310.38
947.66	5371.82
947.82	5490.60
947.99	5326.77
948.16	5308.34
948.32	5300.14
948.49	5537.71
948.65	5377.97
948.82	5183.41
948.98	5296.05
949.15	5199.79
949.31	5449.64
949.48	5283.76
949.64	5306.29
949.81	5257.14
949.97	5136.31
950.14	5525.42
950.30	5117.87
950.47	5445.55
950.63	5318.57
950.80	5406.64
950.96	5443.50
951.13	5347.25
951.30	5351.34
951.46	5328.81
951.63	5429.17
951.79	5337.01
951.96	5500.84
952.12	5388.21
952.29	5392.30
952.45	5337.01
952.62	5590.95
952.78	5535.66
952.94	5445.55
953.11	5334.96
953.27	5291.95
953.44	5371.82
953.60	5453.74
953.77	5529.52
953.93	5310.38
954.10	5394.35
954.26	5394.35
954.43	5521.32
954.59	5369.77
954.76	5631.91
954.92	5513.13
955.09	5443.50
955.25	5304.24
955.42	5455.79
955.58	5590.95
955.75	5369.77
955.91	5443.50
956.07	5502.89
956.24	5468.08
956.40	5631.91
956.57	5519.28
956.73	5480.36
956.90	5519.28
957.06	5472.17
957.23	5545.90
957.39	5427.12
957.56	5337.01
957.72	5312.43
957.88	5476.27
958.05	5560.24
958.21	5519.28
958.38	5484.46
958.54	5416.88
958.71	5670.83
958.87	5390.25
959.03	5541.80
959.20	5459.88
959.36	5220.27
959.53	5423.02
959.69	5398.45
959.85	5437.36
960.02	5466.03
960.18	5455.79
960.35	5449.64
960.51	5578.67
960.68	5384.11
960.84	5513.13
961.00	5400.49
961.17	5496.75
961.33	5478.32
961.50	5406.64
961.66	5572.52
961.82	5443.50
961.99	5506.99
962.15	5461.93
962.31	5308.34
962.48	5488.56
962.64	5451.69
962.81	5468.08
962.97	5502.89
963.13	5470.12
963.30	5478.32
963.46	5459.88
963.62	5414.83
963.79	5386.16
963.95	5453.74
964.12	5375.92
964.28	5386.16
964.44	5197.74
964.61	5488.56
964.77	5380.01
964.93	5449.64
965.10	5402.54
965.26	5318.57
965.42	5386.16
965.59	5345.20
965.75	5416.88
965.92	5466.03
966.08	5283.76
966.24	5363.63
966.41	5261.23
966.57	5357.49
966.73	5300.14
966.90	5365.68
967.06	5203.89
967.22	5494.70
967.39	5193.65
967.55	5250.99
967.71	5242.80
967.88	5033.91
968.04	5199.79
968.20	5259.18
968.37	5115.83
968.53	5160.88
968.69	5345.20
968.85	5257.14
969.02	5294.00
969.18	5304.24
969.34	5175.22
969.51	5167.03
969.67	5275.57
969.83	5015.48
970.00	5300.14
970.16	5083.06
970.32	5087.15
970.48	5296.05
970.65	5074.87
970.81	5023.67
970.97	5074.87
971.14	4908.98
971.30	5167.03
971.46	5031.86
971.63	4964.28
971.79	5115.83
971.95	4880.31
972.11	4902.84
972.28	4980.66
972.44	4935.60
972.60	4902.84
972.76	4925.36
972.93	4939.70
973.09	4939.70
973.25	5015.48
973.42	4900.79
973.58	4992.95
973.74	4917.17
973.90	4935.60
974.07	4937.65
974.23	4841.40
974.39	4884.41
974.55	4898.74
974.72	4898.74
974.88	4802.49
975.04	4837.30
975.20	4835.25
975.37	4923.32
975.53	4806.58
975.69	4745.14
975.85	4687.80
976.01	4814.77
976.18	4763.58
976.34	4798.39
976.50	4841.40
976.66	4849.59
976.83	4773.82
976.99	4800.44
977.15	4763.58
977.31	4597.69
977.47	4669.37
977.64	4681.66
977.80	4771.77
977.96	4695.99
978.12	4698.04
978.29	4706.23
978.45	4454.33
978.61	4499.39
978.77	4589.50
978.93	4566.97
979.10	4542.39
979.26	4612.03
979.42	4595.64
979.58	4476.86
979.74	4423.61
979.91	4616.12
980.07	4358.08
980.23	4509.63
980.39	4483.00
980.55	4605.88
980.71	4460.48
980.88	4431.80
981.04	4448.19
981.20	4423.61
981.36	4591.55
981.52	4374.46
981.68	4419.52
981.85	4464.57
982.01	4409.28
982.17	4468.67
982.33	4409.28
982.49	4444.09
982.65	4349.89
982.82	4337.60
982.98	4298.69
983.14	4276.16
983.30	4261.82
983.46	4368.32
983.62	4274.11
983.79	4143.04
983.95	4325.31
984.11	4212.67
984.27	4286.40
984.43	4286.40
984.59	4138.94
984.75	4194.24
984.91	4075.46
985.08	4284.35
985.24	4157.38
985.40	4124.61
985.56	4206.53
985.72	4171.71
985.88	4192.19
986.04	4087.75
986.20	3977.16
986.37	4116.42
986.53	4143.04
986.69	4102.08
986.85	4054.98
987.01	4114.37
987.17	4081.60
987.33	3995.59
987.49	4042.69
987.65	4100.03
987.82	4054.98
987.98	3850.18
988.14	3979.20
988.30	3968.96
988.46	3882.95
988.62	3907.52
988.78	3936.20
988.94	3798.98
989.10	3813.32
989.26	3794.89
989.42	3938.24
989.59	3792.84
989.75	3882.95
989.91	3870.66
990.07	3786.69
990.23	3796.93
990.39	3852.23
990.55	3764.17
990.71	3798.98
990.87	3827.65
991.03	3868.61
991.19	3760.07
991.35	3776.45
991.51	3688.39
991.67	3815.37
991.83	3749.83
992.00	3782.60
992.16	3825.61
992.32	3751.88
992.48	3784.65
992.64	3616.71
992.80	3784.65
992.96	3622.86
993.12	3616.71
993.28	3725.26
993.44	3788.74
993.60	3727.30
993.76	3616.71
993.92	3735.50
994.08	3629.00
994.24	3616.71
994.40	3682.25
994.56	3659.72
994.72	3557.32
994.88	3428.30
995.04	3678.15
995.20	3502.03
995.36	3442.64
995.52	3528.65
995.68	3647.43
995.84	3504.07
996.00	3563.47
996.16	3434.44
996.32	3491.79
996.48	3444.68
996.64	3686.34
996.80	3471.31
996.96	3422.16
997.12	3469.26
997.28	3430.35
997.44	3393.48
997.60	3440.59
997.76	3489.74
997.92	3397.58
998.08	3348.43
998.24	3381.20
998.40	3377.10
998.56	3424.20
998.72	3295.18
998.88	3254.22
999.04	3266.51
999.20	3411.92
999.36	3303.37
999.52	3286.99
999.68	3305.42
999.84	3373.00
1000.00	3313.61
1000.16	3368.91
1000.32	3074.00
1000.48	3368.91
1000.64	3311.57
1000.80	3223.50
1000.95	3211.22
1001.11	3207.12
1001.27	3192.78
1001.43	3248.08
1001.59	3024.85
1001.75	3168.21
1001.91	3182.54
1002.07	3133.39
1002.23	3055.57
1002.39	3063.76
1002.55	3239.89
1002.71	3024.85
1002.87	3104.72
1003.03	3117.01
1003.19	3006.42
1003.34	3092.43
1003.50	3039.19
1003.66	3080.14
1003.82	3037.14
1003.98	3022.80
1004.14	3114.96
1004.30	3020.75
1004.46	3100.62
1004.62	3102.67
1004.78	2977.75
1004.94	3051.47
1005.09	3114.96
1005.25	3069.91
1005.41	3067.86
1005.57	2924.50
1005.73	2942.93
1005.89	2928.60
1006.05	2969.55
1006.21	3026.90
1006.37	2871.25
1006.52	2959.31
1006.68	2891.73
1006.84	3041.23
1007.00	2891.73
1007.16	2916.31
1007.32	2897.88
1007.48	2885.59
1007.64	2852.82
1007.79	2949.08
1007.95	2762.71
1008.11	3006.42
1008.27	2846.68
1008.43	2942.93
1008.59	2801.62
1008.75	2865.11
1008.91	2801.62
1009.06	2824.15
1009.22	2889.68
1009.38	2787.29
1009.54	2723.80
1009.70	2826.20
1009.86	2779.09
1010.01	2865.11
1010.17	2734.04
1010.33	2826.20
1010.49	2828.24
1010.65	2760.66
1010.81	2713.56
1010.96	2713.56
1011.12	2719.70
1011.28	2731.99
1011.44	2768.85
1011.60	2664.41
1011.76	2721.75
1011.91	2809.81
1012.07	2564.06
1012.23	2533.34
1012.39	2701.27
1012.55	2693.08
1012.71	2645.98
1012.86	2537.43
1013.02	2609.11
1013.18	2664.41
1013.34	2590.68
1013.50	2754.52
1013.65	2633.69
1013.81	2590.68
1013.97	2584.54
1014.13	2533.34
1014.29	2631.64
1014.44	2584.54
1014.60	2510.81
1014.76	2545.63
1014.92	2555.86
1015.07	2584.54
1015.23	2602.97
1015.39	2508.76
1015.55	2486.23
1015.71	2449.37
1015.86	2469.85
1016.02	2494.43
1016.18	2514.91
1016.34	2531.29
1016.49	2547.67
1016.65	2564.06
1016.81	2516.95
1016.97	2404.32
1017.12	2580.44
1017.28	2451.42
1017.44	2371.55
1017.60	2514.91
1017.75	2435.03
1017.91	2398.17
1018.07	2410.46
1018.23	2478.04
1018.38	2310.11
1018.54	2332.64
1018.70	2363.36
1018.86	2318.30
1019.01	2375.64
1019.17	2377.69
1019.33	2516.95
1019.49	2318.30
1019.64	2396.12
1019.80	2392.03
1019.96	2408.41
1020.12	2385.88
1020.27	2297.82
1020.43	2346.97
1020.59	2344.92
1020.74	2428.89
1020.90	2430.94
1021.06	2250.72
1021.22	2449.37
1021.37	2385.88
1021.53	2232.29
1021.69	2394.08
1021.84	2287.58
1022.00	2320.35
1022.16	2289.63
1022.31	2355.16
1022.47	2349.02
1022.63	2361.31
1022.79	2238.43
1022.94	2330.59
1023.10	2404.32
1023.26	2252.77
1023.41	2328.54
1023.57	2203.61
1023.73	2330.59
1023.88	2338.78
1024.04	2203.61
1024.20	2183.13
1024.35	2234.33
1024.51	2287.58
1024.67	2267.10
1024.82	2365.40
1024.98	2187.23
1025.14	2248.67
1025.29	2195.42
1025.45	2252.77
1025.61	2220.00
1025.76	2121.70
1025.92	2179.04
1026.08	2213.85
1026.23	2170.85
1026.39	2217.95
1026.55	2148.32
1026.70	2072.54
1026.86	2226.14
1027.02	2236.38
1027.17	2176.99
1027.33	2199.52
1027.48	2230.24
1027.64	2207.71
1027.80	2187.23
1027.95	2209.76
1028.11	2035.68
1028.27	2125.79
1028.42	2176.99
1028.58	2133.98
1028.73	2121.70
1028.89	2013.15
1029.05	2211.81
1029.20	2117.60
>>>>>End Processed Spectral Data<<<<<
