SpectraSuite Data File
++++++++++++++++++++++++++++++++++++
Date: Fri Jun 02 14:51:12 CEST 2017
User: INFO_000
Dark Spectrum Present: No
Reference Spectrum Present: No
Number of Sampled Component Spectra: 1
Spectrometers: USB4H00879
Integration Time (usec): 80000 (USB4H00879)
Spectra Averaged: 1 (USB4H00879)
Boxcar Smoothing: 0 (USB4H00879)
Correct for Electrical Dark: No (USB4H00879)
Strobe/Lamp Enabled: No (USB4H00879)
Correct for Detector Non-linearity: No (USB4H00879)
Correct for Stray Light: No (USB4H00879)
Number of Pixels in Processed Spectrum: 3648
>>>>>Begin Processed Spectral Data<<<<<
345.13	1273.84
345.34	1273.84
345.56	1273.84
345.78	1290.22
345.99	1253.36
346.21	1746.92
346.42	1677.29
346.64	1640.42
346.86	1791.97
347.07	1638.38
347.29	1787.88
347.50	1650.66
347.72	1652.71
347.94	1732.58
348.15	1570.79
348.37	1646.57
348.59	1748.97
348.80	1693.67
349.02	1742.82
349.23	1859.56
349.45	1861.60
349.67	1886.18
349.88	1751.01
350.10	2015.20
350.31	1787.88
350.53	1806.31
350.75	1947.62
350.96	1822.69
351.18	1765.35
351.39	1843.17
351.61	1808.36
351.82	1830.88
352.04	1910.75
352.26	1820.64
352.47	1859.56
352.69	1859.56
352.90	1730.53
353.12	1877.99
353.34	1871.84
353.55	1888.23
353.77	1851.36
353.98	1923.04
354.20	1863.65
354.41	1845.22
354.63	2035.68
354.85	1986.53
355.06	1976.29
355.28	1822.69
355.49	1880.04
355.71	1843.17
355.92	1802.21
356.14	1978.34
356.35	1920.99
356.57	1816.55
356.79	1998.82
357.00	1857.51
357.22	1949.67
357.43	1845.22
357.65	1877.99
357.86	1855.46
358.08	1923.04
358.29	1908.71
358.51	1976.29
358.72	1949.67
358.94	1951.71
359.16	1943.52
359.37	1970.15
359.59	1925.09
359.80	1941.47
360.02	1882.08
360.23	1986.53
360.45	1976.29
360.66	1871.84
360.88	1871.84
361.09	1961.95
361.31	1986.53
361.52	1953.76
361.74	2033.63
361.95	2072.54
362.17	1939.43
362.38	2043.87
362.60	2052.06
362.81	1974.24
363.03	1933.28
363.24	2004.96
363.46	2072.54
363.67	2039.78
363.89	1935.33
364.10	2047.97
364.32	1947.62
364.53	2029.54
364.75	1880.04
364.96	1970.15
365.18	1996.77
365.39	1990.63
365.61	1990.63
365.82	2115.55
366.04	1978.34
366.25	1943.52
366.47	2047.97
366.68	2000.87
366.90	1970.15
367.11	2019.30
367.33	2121.70
367.54	2056.16
367.76	1982.43
367.97	2058.21
368.19	1982.43
368.40	2039.78
368.62	2086.88
368.83	1959.91
369.05	1998.82
369.26	1966.05
369.48	2027.49
369.69	1947.62
369.91	1998.82
370.12	2082.78
370.33	2115.55
370.55	1988.58
370.76	2054.11
370.98	2111.46
371.19	2041.82
371.41	2027.49
371.62	2142.18
371.84	1978.34
372.05	2125.79
372.27	2080.74
372.48	2082.78
372.69	1994.72
372.91	2125.79
373.12	2174.94
373.34	2045.92
373.55	2207.71
373.77	2158.56
373.98	2129.89
374.20	2109.41
374.41	2244.57
374.62	2148.32
374.84	2160.61
375.05	2127.84
375.27	2138.08
375.48	2172.89
375.70	2207.71
375.91	2183.13
376.12	2263.01
376.34	2127.84
376.55	2260.96
376.77	2269.15
376.98	2181.09
377.19	2088.93
377.41	2117.60
377.62	2205.66
377.84	2301.92
378.05	2371.55
378.27	2203.61
378.48	2322.40
378.69	2377.69
378.91	2271.20
379.12	2207.71
379.34	2140.13
379.55	2308.06
379.76	2312.16
379.98	2228.19
380.19	2248.67
380.41	2222.05
380.62	2213.85
380.83	2330.59
381.05	2166.75
381.26	2396.12
381.47	2250.72
381.69	2265.05
381.90	2381.79
382.12	2265.05
382.33	2310.11
382.54	2256.86
382.76	2312.16
382.97	2398.17
383.19	2193.37
383.40	2375.64
383.61	2252.77
383.83	2303.96
384.04	2336.73
384.25	2377.69
384.47	2316.25
384.68	2365.40
384.89	2324.44
385.11	2326.49
385.32	2271.20
385.54	2308.06
385.75	2318.30
385.96	2387.93
386.18	2428.89
386.39	2353.12
386.60	2330.59
386.82	2500.57
387.03	2396.12
387.24	2486.23
387.46	2387.93
387.67	2504.67
387.88	2465.75
388.10	2496.47
388.31	2465.75
388.52	2480.09
388.74	2652.12
388.95	2406.36
389.16	2557.91
389.38	2506.71
389.59	2600.92
389.80	2615.26
390.02	2535.39
390.23	2684.89
390.44	2478.04
390.66	2582.49
390.87	2533.34
391.08	2607.06
391.30	2691.03
391.51	2607.06
391.72	2623.45
391.94	2645.98
392.15	2598.87
392.36	2633.69
392.58	2562.01
392.79	2641.88
393.00	2625.50
393.22	2693.08
393.43	2697.17
393.64	2793.43
393.85	2750.42
394.07	2682.84
394.28	2588.63
394.49	2707.41
394.71	2686.94
394.92	2891.73
395.13	2645.98
395.35	2764.76
395.56	2738.13
395.77	2731.99
395.98	2799.57
396.20	2805.72
396.41	2793.43
396.62	2838.48
396.84	2725.85
397.05	2754.52
397.26	2770.90
397.47	2910.16
397.69	2822.10
397.90	2965.46
398.11	2811.86
398.32	2920.40
398.54	2877.40
398.75	2787.29
398.96	2938.84
399.18	3037.14
399.39	2965.46
399.60	3074.00
399.81	2844.63
400.03	2924.50
400.24	3297.23
400.45	2957.27
400.66	2967.51
400.88	2953.17
401.09	3223.50
401.30	3114.96
401.51	3149.78
401.73	3096.53
401.94	3131.34
402.15	3063.76
402.36	3047.38
402.58	3190.74
402.79	3127.25
403.00	3149.78
403.21	3039.19
403.43	3284.94
403.64	3203.02
403.85	3129.30
404.06	3239.89
404.27	3198.93
404.49	3192.78
404.70	3125.20
404.91	3215.31
405.12	3141.58
405.34	3223.50
405.55	3446.73
405.76	3135.44
405.97	3213.26
406.19	3442.64
406.40	3237.84
406.61	3307.47
406.82	3305.42
407.03	3221.45
407.25	3325.90
407.46	3352.52
407.67	3459.02
407.88	3397.58
408.09	3266.51
408.31	3264.46
408.52	3366.86
408.73	3387.34
408.94	3301.33
409.15	3506.12
409.37	3499.98
409.58	3528.65
409.79	3444.68
410.00	3608.52
410.21	3379.15
410.43	3434.44
410.64	3360.72
410.85	3459.02
411.06	3459.02
411.27	3575.75
411.48	3512.27
411.70	3553.23
411.91	3569.61
412.12	3633.10
412.33	3495.88
412.54	3502.03
412.76	3585.99
412.97	3649.48
413.18	3493.83
413.39	3612.62
413.60	3747.78
413.81	3622.86
414.03	3610.57
414.24	3633.10
414.45	3852.23
414.66	3504.07
414.87	3635.14
415.08	3710.92
415.30	3735.50
415.51	3641.29
415.72	3772.36
415.93	3708.87
416.14	3788.74
416.35	3811.27
416.56	3745.73
416.78	3801.03
416.99	3778.50
417.20	3788.74
417.41	3903.43
417.62	3858.37
417.83	3831.75
418.04	3860.42
418.26	3844.04
418.47	3919.81
418.68	3848.13
418.89	3837.89
419.10	4124.61
419.31	3981.25
419.52	4116.42
419.73	4028.35
419.95	4014.02
420.16	3932.10
420.37	3987.40
420.58	4016.07
420.79	3911.62
421.00	4048.83
421.21	3973.06
421.42	4018.11
421.63	4102.08
421.85	4120.51
422.06	4100.03
422.27	4231.10
422.48	4095.94
422.69	4304.83
422.90	4181.95
423.11	4157.38
423.32	4300.73
423.53	4310.97
423.75	4296.64
423.96	4261.82
424.17	4396.99
424.38	4446.14
424.59	4339.65
424.80	4466.62
425.01	4431.80
425.22	4388.80
425.43	4317.12
425.64	4501.44
425.85	4614.07
426.06	4519.87
426.28	4505.53
426.49	4454.33
426.70	4413.37
426.91	4382.65
427.12	4726.71
427.33	4597.69
427.54	4528.06
427.75	4622.27
427.96	4706.23
428.17	4679.61
428.38	4677.56
428.59	4894.65
428.80	4648.89
429.01	4765.62
429.23	4798.39
429.44	4976.56
429.65	5058.48
429.86	4976.56
430.07	4675.51
430.28	4818.87
430.49	4839.35
430.70	5035.96
430.91	5169.07
431.12	4966.32
431.33	5142.45
431.54	5105.59
431.75	5058.48
431.96	4923.32
432.17	5109.68
432.38	5124.02
432.59	5164.98
432.80	5207.98
433.01	5253.04
433.22	5332.91
433.43	5285.81
433.64	5298.10
433.85	5226.42
434.06	5275.57
434.27	5197.74
434.49	5363.63
434.70	5619.63
434.91	5162.93
435.12	5482.41
435.33	5480.36
435.54	5556.14
435.75	5283.76
435.96	5494.70
436.17	5369.77
436.38	5484.46
436.59	5599.15
436.80	5615.53
437.01	5791.66
437.22	5711.78
437.43	5765.03
437.64	5478.32
437.85	5664.68
438.06	5808.04
438.27	5578.67
438.48	5642.15
438.69	5869.48
438.90	5722.02
439.11	5642.15
439.32	5822.38
439.53	5701.54
439.74	5822.38
439.95	5853.09
440.16	5711.78
440.37	5803.94
440.57	5679.02
440.78	5932.97
440.99	6006.69
441.20	5918.63
441.41	5803.94
441.62	5963.68
441.83	5853.09
442.04	6012.84
442.25	6025.12
442.46	5988.26
442.67	6178.72
442.88	6428.57
443.09	5914.53
443.30	5943.21
443.51	6182.82
443.72	6344.61
443.93	6055.84
444.14	6426.53
444.35	6152.10
444.56	6281.12
444.77	6238.11
444.98	6426.53
445.19	6227.87
445.40	6395.81
445.61	6240.16
445.81	6442.91
446.02	6580.12
446.23	6287.26
446.44	6344.61
446.65	6569.88
446.86	6324.13
447.07	6475.68
447.28	6672.28
447.49	6659.99
447.70	6475.68
447.91	6561.69
448.12	6637.47
448.33	6672.28
448.54	6629.27
448.74	6551.45
448.95	6664.09
449.16	6571.93
449.37	6983.57
449.58	6700.95
449.79	7057.30
450.00	6764.44
450.21	6899.61
450.42	7004.05
450.63	6973.33
450.84	6918.04
451.05	7002.01
451.25	6926.23
451.46	6985.62
451.67	7253.91
451.88	7192.47
452.09	6999.96
452.30	6940.57
452.51	6915.99
452.72	7219.09
452.93	7427.98
453.13	7151.51
453.34	7192.47
453.55	7161.75
453.76	7344.02
453.97	7675.79
454.18	7251.86
454.39	7421.84
454.60	7462.80
454.81	7393.17
455.01	7522.19
455.22	7331.73
455.43	7559.05
455.64	7683.98
455.85	7657.36
456.06	7966.60
456.27	7733.13
456.48	7618.44
456.68	7868.30
456.89	7751.56
457.10	8054.66
457.31	7907.21
457.52	7868.30
457.73	7948.17
457.94	8169.35
458.14	7841.67
458.35	8419.20
458.56	8075.14
458.77	8273.79
458.98	8337.28
459.19	8120.20
459.39	8318.85
459.60	8421.25
459.81	8238.98
460.02	8433.54
460.23	8365.95
460.44	8517.50
460.65	8689.53
460.85	8591.23
461.06	8710.01
461.27	8349.57
461.48	8865.66
461.69	9017.21
461.89	8474.49
462.10	8890.23
462.31	8828.79
462.52	8755.07
462.73	8904.57
462.94	9113.46
463.14	9070.45
463.35	9037.69
463.56	9400.18
463.77	9252.72
463.98	9172.85
464.18	9332.59
464.39	9322.35
464.60	9559.92
464.81	9361.27
465.02	9527.15
465.23	9750.38
465.43	9529.20
465.64	9711.47
465.85	9645.93
466.06	9678.70
466.27	9998.18
466.47	9838.44
466.68	9924.46
466.89	9871.21
467.10	10094.44
467.30	9967.46
467.51	9934.70
467.72	10512.22
467.93	10194.79
468.14	10278.76
468.34	10487.65
468.55	10440.54
468.76	10348.39
468.97	10375.01
469.17	10585.95
469.38	10637.15
469.59	10927.96
469.80	10440.54
470.01	10805.08
470.21	10784.60
470.42	11157.33
470.63	11218.77
470.84	10778.46
471.04	10919.77
471.25	11429.71
471.46	11054.94
471.67	11577.17
471.87	11376.47
472.08	11466.58
472.29	11528.02
472.50	11194.20
472.70	11626.32
472.91	11796.30
473.12	11890.51
473.33	11798.35
473.53	12031.82
473.74	12072.78
473.95	12234.57
474.16	12218.18
474.36	12216.13
474.57	12330.82
474.78	12474.18
474.99	12554.05
475.19	12371.78
475.40	12619.58
475.61	12648.26
475.81	12990.27
476.02	13121.34
476.23	12787.52
476.44	13207.35
476.64	13242.17
476.85	13410.10
477.06	13188.92
477.27	13381.43
477.47	13594.42
477.68	13647.66
477.89	13848.36
478.09	13780.78
478.30	13655.86
478.51	13909.80
478.71	14173.99
478.92	13961.00
479.13	14169.90
479.34	14278.44
479.54	14341.93
479.75	14507.81
479.96	14606.11
480.16	14714.66
480.37	14579.49
480.58	14761.76
480.78	15044.38
480.99	15044.38
481.20	15185.69
481.41	15265.56
481.61	15458.07
481.82	15456.02
482.03	15408.92
482.23	15341.33
482.44	15961.87
482.65	15949.58
482.85	15935.24
483.06	16234.25
483.27	16129.80
483.47	16109.32
483.68	16068.36
483.89	16574.21
484.09	16316.17
484.30	16314.12
484.51	16566.02
484.71	16598.79
484.92	16871.17
485.13	17145.59
485.33	17035.00
485.54	16760.58
485.75	17247.99
485.95	17262.33
486.16	17168.12
486.37	17469.17
486.57	17460.98
486.78	17540.85
486.98	17684.21
487.19	17929.97
487.40	17942.25
487.60	17835.76
487.81	18118.38
488.02	17831.66
488.22	18196.20
488.43	18128.62
488.64	18274.03
488.84	18366.18
489.05	18644.71
489.25	18437.86
489.46	18609.89
489.67	18757.35
489.87	18976.48
490.08	18867.94
490.29	19125.98
490.49	19381.98
490.70	19289.82
490.90	19381.98
491.11	19429.08
491.32	19439.32
491.52	19699.41
491.73	19775.19
491.94	19984.08
492.14	19713.75
492.35	20152.01
492.55	20147.92
492.76	20289.23
492.97	20225.74
493.17	20258.51
493.38	20397.77
493.58	20643.52
493.79	20500.17
494.00	20522.69
494.20	20766.40
494.41	21087.93
494.61	20852.42
494.82	21016.26
495.02	21036.74
495.23	21010.11
495.44	21372.60
495.64	21204.67
495.85	21354.17
496.05	21393.08
496.26	21169.85
496.47	21628.60
496.67	21638.84
496.88	21974.70
497.08	21679.80
497.29	21855.92
497.49	22308.52
497.70	22111.92
497.91	22376.11
498.11	22214.32
498.32	22517.42
498.52	22505.13
498.73	22431.40
498.93	22652.58
499.14	22683.30
499.34	22711.97
499.55	22800.04
499.76	22941.35
499.96	22824.61
500.17	22894.24
500.37	22998.69
500.58	23357.08
500.78	23207.58
500.99	23172.77
501.19	23404.19
501.40	23557.78
501.60	23563.93
501.81	23799.44
502.02	23596.70
502.22	23611.03
502.43	23721.62
502.63	23760.53
502.84	23883.41
503.04	23961.23
503.25	24053.39
503.45	24301.20
503.66	24493.71
503.86	24282.77
504.07	24442.51
504.27	24364.68
504.48	24780.42
504.68	24626.82
504.89	24901.25
505.09	24553.10
505.30	24755.85
505.50	24909.44
505.71	24827.53
505.91	25022.08
506.12	24565.39
506.32	25106.05
506.53	25169.54
506.73	25114.24
506.94	25615.99
507.14	25335.42
507.35	25251.45
507.55	25738.87
507.76	25523.83
507.96	25466.49
508.17	25294.46
508.37	25773.69
508.58	25704.06
508.78	25702.01
508.99	25792.12
509.19	25925.24
509.40	26300.01
509.60	26011.25
509.81	26168.94
510.01	26183.28
510.22	25955.96
510.42	26357.36
510.63	26422.89
510.83	26289.77
511.04	26418.80
511.24	26406.51
511.44	26418.80
511.65	26300.01
511.85	26547.82
512.06	26599.02
512.26	26588.78
512.47	26775.14
512.67	26824.29
512.88	26916.45
513.08	26543.72
513.29	27264.61
513.49	27262.56
513.69	26883.69
513.90	27199.07
514.10	27291.23
514.31	27033.19
514.51	27276.90
514.72	27205.22
514.92	27278.94
515.13	27371.10
515.33	27403.87
515.53	27659.87
515.74	27256.42
515.94	27627.10
516.15	27659.87
516.35	27584.09
516.56	27874.90
516.76	27420.25
516.96	27891.29
517.17	28264.02
517.37	28098.13
517.58	28221.01
517.78	28087.89
517.99	28018.26
518.19	28536.40
518.39	28558.92
518.60	28763.72
518.80	28339.79
519.01	28698.19
519.21	28755.53
519.41	28839.50
519.62	28804.68
519.82	28808.78
520.03	29111.88
520.23	29132.36
520.43	28816.97
520.64	29333.06
520.84	29253.19
521.05	29261.38
521.25	29625.92
521.45	29380.16
521.66	29556.28
521.86	29478.46
522.07	29584.96
522.27	29627.96
522.47	29574.72
522.68	30135.86
522.88	29611.58
523.08	29843.00
523.29	29965.88
523.49	30058.04
523.70	30453.30
523.90	30430.77
524.10	30109.24
524.31	30369.33
524.51	30307.89
524.71	30795.31
524.92	30486.06
525.12	30856.75
525.33	30768.68
525.53	30783.02
525.73	30797.35
525.94	31335.97
526.14	31219.24
526.34	31086.12
526.55	31405.60
526.75	31471.14
526.95	31618.59
527.16	31249.96
527.36	31442.46
527.56	31686.17
527.77	32011.80
527.97	32013.85
528.17	31852.06
528.38	32212.50
528.58	32245.27
528.78	32384.53
528.99	32091.67
529.19	32405.01
529.39	32247.32
529.60	32390.67
529.80	32638.48
530.00	32640.53
530.21	32675.34
530.41	33011.21
530.61	32716.30
530.82	32939.53
531.02	32978.44
531.22	33156.61
531.43	33179.14
531.63	33517.06
531.83	33650.17
532.04	34022.90
532.24	33402.37
532.44	33951.23
532.64	34074.10
532.85	34043.38
533.05	34084.34
533.25	33912.31
533.46	33947.13
533.66	34356.72
533.86	34586.10
534.07	34711.02
534.27	34659.82
534.47	34983.40
534.67	34383.35
534.88	34993.64
535.08	34930.16
535.28	34866.67
535.49	35253.73
535.69	35300.84
535.89	35280.36
536.09	35438.05
536.30	35517.92
536.50	35565.03
536.70	35648.99
536.91	35749.34
537.11	35991.00
537.31	36201.94
537.51	35980.76
537.72	36398.55
537.92	36472.28
538.12	36371.92
538.32	36187.61
538.53	36537.81
538.73	36312.53
538.93	36541.91
539.13	36758.99
539.34	36775.37
539.54	36341.21
539.74	36824.53
539.94	37062.09
540.15	37023.18
540.35	37240.26
540.55	37447.11
540.75	36912.59
540.96	37445.06
541.16	37211.59
541.36	37344.71
541.56	37543.36
541.77	38192.57
541.97	37842.37
542.17	37770.69
542.37	37825.98
542.58	37979.58
542.78	37504.45
542.98	37897.66
543.18	38065.60
543.38	38462.90
543.59	38223.29
543.79	38350.26
543.99	38251.96
544.19	38215.10
544.40	38303.16
544.60	38634.93
544.80	38739.38
545.00	38854.06
545.20	38727.09
545.41	38536.63
545.61	38905.26
545.81	39122.35
546.01	39273.90
546.21	38938.03
546.42	38985.13
546.62	39198.12
546.82	39216.55
547.02	39169.45
547.22	39880.10
547.43	39544.23
547.63	39273.90
547.83	39708.07
548.03	39388.58
548.23	39835.04
548.44	39568.80
548.64	39622.05
548.84	40340.89
549.04	39773.60
549.24	40230.30
549.45	40070.56
549.65	39828.90
549.85	40242.59
550.05	40453.53
550.25	40199.58
550.45	40801.68
550.66	40486.29
550.86	40643.99
551.06	40801.68
551.26	40846.74
551.46	40531.35
551.66	40842.64
551.87	40730.00
552.07	40764.82
552.27	40936.85
552.47	40940.94
552.67	41192.84
552.87	41278.86
553.07	41616.77
553.28	41098.64
553.48	41643.40
553.68	40992.14
553.88	41334.15
554.08	41244.04
554.28	41375.11
554.48	41104.78
554.69	41397.64
554.89	41461.13
555.09	41446.79
555.29	41588.10
555.49	41467.27
555.69	41698.69
555.89	41553.29
556.10	41737.60
556.30	41743.75
556.50	41887.10
556.70	41710.98
556.90	41928.06
557.10	41909.63
557.30	41833.86
557.50	42046.85
557.70	42247.55
557.91	42540.41
558.11	42259.84
558.31	42501.50
558.51	42022.27
558.71	42050.94
558.91	42370.43
559.11	42372.47
559.31	42210.68
559.51	42503.54
559.72	42655.09
559.92	42829.17
560.12	42694.00
560.32	42493.30
560.52	42671.48
560.72	42700.15
560.92	42927.47
561.12	43130.22
561.32	43021.68
561.52	42773.88
561.72	43353.45
561.93	43079.02
562.13	42837.36
562.33	42888.56
562.53	43545.96
562.73	43013.49
562.93	42941.81
563.13	42988.91
563.33	43246.96
563.53	43162.99
563.73	43369.83
563.93	43292.01
564.13	43853.15
564.33	43320.68
564.53	43457.90
564.74	43650.41
564.94	43242.86
565.14	43627.88
565.34	43613.54
565.54	43883.87
565.74	44168.54
565.94	44021.09
566.14	43611.49
566.34	43713.89
566.54	43904.35
566.74	43679.08
566.94	44039.52
567.14	44148.06
567.34	43588.97
567.54	44154.21
567.74	43711.84
567.94	43869.54
568.14	44029.28
568.34	44617.05
568.54	44272.99
568.74	44248.41
568.94	44283.23
569.14	44481.88
569.34	44316.00
569.54	44518.74
569.75	43914.59
569.95	44215.65
570.15	44803.41
570.35	44660.05
570.55	44741.97
570.75	44318.04
570.95	44645.72
571.15	44805.46
571.35	45006.16
571.55	44787.03
571.75	44684.63
571.95	44914.00
572.15	44748.12
572.35	44840.28
572.55	45071.70
572.75	44973.39
572.95	45167.95
573.15	45552.97
573.35	45133.14
573.55	45106.51
573.75	44758.36
573.95	45411.66
574.15	45282.64
574.35	45348.17
574.55	45778.25
574.75	45331.79
574.95	45634.89
575.15	45479.24
575.34	45546.82
575.54	45886.79
575.74	45385.04
575.94	46085.44
576.14	45948.23
576.34	45983.04
576.54	46009.67
576.74	46116.16
576.94	45741.38
577.14	46320.96
577.34	46474.55
577.54	46175.55
577.74	46325.05
577.94	46560.57
578.14	46382.40
578.34	46619.96
578.54	46165.31
578.74	46218.56
578.94	46830.90
579.14	46341.44
579.34	46368.06
579.54	46972.21
579.74	47017.27
579.94	46759.22
580.13	47050.03
580.33	47418.67
580.53	47023.41
580.73	47156.53
580.93	46818.61
581.13	47252.78
581.33	47254.83
581.53	47461.68
581.73	47387.95
581.93	47758.63
582.13	47494.44
582.33	47506.73
582.53	47629.61
582.73	47764.78
582.92	47781.16
583.12	48325.92
583.32	48178.46
583.52	47594.79
583.72	47871.27
583.92	47465.77
584.12	48422.17
584.32	48323.87
584.52	47947.04
584.72	48053.54
584.92	47879.46
585.11	48622.87
585.31	47914.28
585.51	48137.51
585.71	48178.46
585.91	48866.58
586.11	48293.15
586.31	48516.38
586.51	48493.85
586.71	48469.28
586.91	48692.50
587.10	48641.31
587.30	48610.59
587.50	49110.29
587.70	48735.51
587.90	48837.91
588.10	48739.61
588.30	49093.91
588.50	48968.98
588.69	49061.14
588.89	48780.57
589.09	49087.76
589.29	49253.65
589.49	49804.55
589.69	48643.35
589.89	49429.77
590.08	49349.90
590.28	49120.53
590.48	48952.60
590.68	49052.95
590.88	49255.70
591.08	49835.27
591.28	49550.60
591.47	49855.75
591.67	49999.11
591.87	49687.82
592.07	49900.81
592.27	49814.79
592.47	49960.20
592.67	50238.72
592.86	49726.73
593.06	50066.69
593.26	50414.85
593.46	50291.97
593.66	49909.00
593.86	49980.68
594.05	50461.95
594.25	50683.13
594.45	50076.93
594.65	49980.68
594.85	49736.97
595.05	50926.84
595.24	50636.03
595.44	50978.04
595.64	50691.32
595.84	50916.60
596.04	50562.30
596.23	50752.76
596.43	50959.61
596.63	50513.15
596.83	50830.58
597.03	50959.61
597.22	50996.47
597.42	51002.61
597.62	51324.14
597.82	50941.17
598.02	50779.39
598.21	51569.90
598.41	51328.24
598.61	51442.93
598.81	51485.93
599.01	51420.40
599.20	51487.98
599.40	51467.50
599.60	51588.33
599.80	51639.53
600.00	52141.28
600.19	51977.45
600.39	51541.23
600.59	52436.19
600.79	51832.04
600.98	52010.21
601.18	51916.01
601.38	52237.54
601.58	52186.34
601.78	52378.85
601.97	52196.58
602.17	52475.10
602.37	52634.84
602.57	52384.99
602.76	52727.00
602.96	52239.59
603.16	52593.89
603.36	52452.58
603.55	52767.96
603.75	52659.42
603.95	53097.69
604.15	52880.60
604.34	52810.97
604.54	53142.74
604.74	53087.45
604.94	52954.33
605.13	53157.08
605.33	53198.04
605.53	52643.04
605.73	53345.49
605.92	53206.23
606.12	53421.26
606.32	53695.69
606.52	53228.76
606.71	53572.81
606.91	53656.78
607.11	53634.25
607.30	53785.80
607.50	53613.77
607.70	53716.17
607.90	53691.60
608.09	53517.52
608.29	53992.65
608.49	53953.74
608.68	53974.22
608.88	53914.83
609.08	53945.54
609.28	54228.16
609.47	54123.72
609.67	54537.41
609.87	54541.50
610.06	54113.48
610.26	54340.80
610.46	54367.43
610.66	53923.02
610.85	54545.60
611.05	54158.53
611.25	54332.61
611.44	54013.13
611.64	54367.43
611.84	54318.28
612.03	54512.83
612.23	54240.45
612.43	54330.56
612.62	54273.22
612.82	54660.29
613.02	54670.53
613.21	54500.54
613.41	54580.42
613.61	54445.25
613.80	53869.77
614.00	54654.14
614.20	54523.07
614.39	54523.07
614.59	55186.61
614.79	54465.73
614.98	54326.47
615.18	54355.14
615.38	54797.50
615.57	54346.95
615.77	55028.92
615.97	54523.07
616.16	54742.20
616.36	54785.21
616.56	54834.36
616.75	54672.57
616.95	54443.20
617.15	54658.24
617.34	54383.81
617.54	54457.54
617.74	54738.11
617.93	54416.58
618.13	54400.19
618.32	54445.25
618.52	54662.33
618.72	54826.17
618.91	54729.92
619.11	54664.38
619.31	54662.33
619.50	54461.63
619.70	54111.43
619.90	55065.78
620.09	54578.37
620.29	54764.73
620.48	54600.89
620.68	55112.89
620.88	54478.02
621.07	54740.16
621.27	54863.03
621.46	54392.00
621.66	54772.92
621.86	54770.88
622.05	54105.29
622.25	55039.16
622.44	54846.65
622.64	54744.25
622.84	55209.14
623.03	54408.39
623.23	54889.66
623.42	54906.04
623.62	55125.17
623.82	55186.61
624.01	54928.57
624.21	54721.72
624.40	54285.51
624.60	54670.53
624.80	54703.29
624.99	54574.27
625.19	54578.37
625.38	55069.88
625.58	55018.68
625.77	54736.06
625.97	54881.47
626.17	54531.26
626.36	54523.07
626.56	54973.63
626.75	54396.10
626.95	54852.80
627.14	54588.61
627.34	55284.92
627.54	54334.66
627.73	54740.16
627.93	55057.59
628.12	54762.68
628.32	55055.54
628.51	54731.96
628.71	55114.94
628.90	54279.36
629.10	54834.36
629.30	54574.27
629.49	54604.99
629.69	54410.43
629.88	54797.50
630.08	55180.47
630.27	55293.11
630.47	54744.25
630.66	54766.78
630.86	54785.21
631.05	54355.14
631.25	54908.09
631.44	54654.14
631.64	54564.03
631.84	55266.48
632.03	55221.43
632.23	55334.07
632.42	55159.99
632.62	55110.84
632.81	55012.54
633.01	54932.67
633.20	55178.42
633.40	55248.05
633.59	55246.00
633.79	54918.33
633.98	55155.89
634.18	54881.47
634.37	55164.09
634.57	54310.08
634.76	55018.68
634.96	55043.26
635.15	55239.86
635.35	55186.61
635.54	55065.78
635.74	55194.81
635.93	55049.40
636.13	55301.30
636.32	55403.70
636.52	54793.40
636.71	54893.75
636.91	55395.51
637.10	55151.80
637.30	55116.98
637.49	55690.41
637.69	54738.11
637.88	55735.47
638.08	55182.52
638.27	55563.44
638.46	55069.88
638.66	55098.55
638.85	55088.31
639.05	55323.83
639.24	55100.60
639.44	55155.89
639.63	55901.36
639.83	55624.88
640.02	54936.76
640.22	55270.58
640.41	55362.74
640.61	55024.82
640.80	55145.65
640.99	55596.21
641.19	55848.11
641.38	55211.19
641.58	55555.25
641.77	55352.50
641.97	55415.99
642.16	55305.40
642.36	55692.46
642.55	55891.12
642.74	55037.11
642.94	55981.23
643.13	55491.76
643.33	56032.42
643.52	55995.56
643.72	55686.32
643.91	55366.84
644.10	55741.61
644.30	56089.77
644.49	55925.93
644.69	55846.06
644.88	55874.73
645.08	55596.21
645.27	55739.57
645.46	55493.81
645.66	55819.44
645.85	56036.52
646.05	55864.49
646.24	56267.94
646.43	55526.58
646.63	55907.50
646.82	56235.17
647.02	55860.40
647.21	56134.82
647.40	55786.67
647.60	56028.33
647.79	56536.23
647.99	56214.69
648.18	56022.19
648.37	55995.56
648.57	56034.47
648.76	56157.35
648.96	56011.95
649.15	56689.82
649.34	56308.90
649.54	56050.86
649.73	56386.72
649.92	56378.53
650.12	56341.67
650.31	56151.21
650.51	56571.04
650.70	56843.42
650.89	56472.74
651.09	56681.63
651.28	56276.13
651.47	56593.57
651.67	56288.42
651.86	56673.44
652.06	55813.29
652.25	56581.28
652.44	56599.71
652.64	56534.18
652.83	56327.33
653.02	56435.87
653.22	56636.58
653.41	56280.23
653.60	55631.02
653.80	56573.09
653.99	56595.62
654.18	56505.51
654.38	56169.64
654.57	56755.36
654.76	56315.04
654.96	56511.65
655.15	56186.02
655.34	55835.82
655.54	56296.61
655.73	56087.72
655.92	56450.21
656.12	56632.48
656.31	56773.79
656.50	56816.80
656.70	56849.56
656.89	56499.36
657.08	56571.04
657.28	56618.14
657.47	56374.44
657.66	57148.57
657.86	56554.66
658.05	56769.69
658.24	56978.59
658.43	56835.23
658.63	56900.76
658.82	56824.99
659.01	56917.15
659.21	57148.57
659.40	56390.82
659.59	56530.08
659.79	56792.22
659.98	56951.96
660.17	56992.92
660.36	56968.35
660.56	56906.91
660.75	56812.70
660.94	56999.07
661.14	56378.53
661.33	56743.07
661.52	56480.93
661.71	57005.21
661.91	56728.73
662.10	56634.53
662.29	56771.74
662.49	56911.00
662.68	56943.77
662.87	57207.96
663.06	56800.41
663.26	56376.48
663.45	56712.35
663.64	57234.58
663.83	57400.47
664.03	57029.79
664.22	56804.51
664.41	56738.97
664.60	56841.37
664.80	57017.50
664.99	56841.37
665.18	57265.30
665.37	56941.72
665.57	57236.63
665.76	57132.18
665.95	56972.44
666.14	56980.63
666.34	56945.82
666.53	56870.04
666.72	56784.03
666.91	56841.37
667.11	56964.25
667.30	57119.90
667.49	56663.20
667.68	56890.52
667.87	56437.92
668.07	56714.40
668.26	56849.56
668.45	57076.89
668.64	56618.14
668.84	57396.37
669.03	57066.65
669.22	56865.95
669.41	56759.45
669.60	57326.74
669.80	57001.11
669.99	56992.92
670.18	56994.97
670.37	56687.78
670.57	57242.77
670.76	56833.18
670.95	57128.09
671.14	57023.64
671.33	56628.38
671.53	57429.14
671.72	57334.93
671.91	56612.00
672.10	56669.34
672.29	56906.91
672.48	56728.73
672.68	57246.87
672.87	57212.06
673.06	56849.56
673.25	56589.47
673.44	56446.11
673.64	56882.33
673.83	57042.07
674.02	56399.01
674.21	56704.16
674.40	56509.60
674.59	56183.97
674.79	56640.67
674.98	56474.79
675.17	56679.58
675.36	56562.85
675.55	56796.32
675.74	56403.11
675.94	56577.18
676.13	56700.06
676.32	56538.27
676.51	57259.16
676.70	56568.99
676.89	56753.31
677.08	56794.27
677.28	56802.46
677.47	57037.98
677.66	56951.96
677.85	56616.10
678.04	56648.86
678.23	56851.61
678.42	56882.33
678.62	56534.18
678.81	57007.26
679.00	56843.42
679.19	57175.19
679.38	56970.39
679.57	56368.29
679.76	56624.29
679.96	56685.73
680.15	56702.11
680.34	56788.13
680.53	56548.51
680.72	56618.14
680.91	56698.01
681.10	55813.29
681.29	56575.14
681.48	56454.31
681.68	56349.86
681.87	56685.73
682.06	56419.49
682.25	56153.26
682.44	56081.58
682.63	56403.11
682.82	56411.30
683.01	56734.88
683.20	56100.01
683.39	56292.52
683.59	56155.30
683.78	55809.20
683.97	55663.79
684.16	56560.80
684.35	56108.20
684.54	55764.14
684.73	55579.82
684.92	56009.90
685.11	56024.23
685.30	55950.51
685.49	56458.40
685.69	56300.71
685.88	56554.66
686.07	56100.01
686.26	56165.54
686.45	56128.68
686.64	56202.41
686.83	55803.05
687.02	56095.91
687.21	56419.49
687.40	56415.40
687.59	55940.27
687.78	56147.11
687.97	56317.09
688.16	56149.16
688.35	55798.96
688.54	55858.35
688.74	55819.44
688.93	55882.92
689.12	55680.17
689.31	55770.28
689.50	55993.51
689.69	55491.76
689.88	55637.17
690.07	56120.49
690.26	55641.26
690.45	55762.09
690.64	55254.20
690.83	55372.98
691.02	55092.41
691.21	55471.28
691.40	55534.77
691.59	55305.40
691.78	55289.01
691.97	55989.42
692.16	55256.24
692.35	55780.52
692.54	55694.51
692.73	55837.87
692.92	55485.62
693.11	55588.02
693.30	55346.36
693.49	55254.20
693.68	54977.72
693.87	55184.57
694.06	54846.65
694.25	55076.02
694.44	55110.84
694.63	54838.46
694.82	55528.62
695.01	54994.10
695.20	54682.81
695.39	54897.85
695.58	54926.52
695.77	55237.81
695.96	55033.02
696.15	55383.22
696.34	55024.82
696.53	54887.61
696.72	55174.33
696.91	54813.88
697.10	55192.76
697.29	54781.12
697.48	55145.65
697.67	54629.57
697.86	54396.10
698.05	54772.92
698.24	54942.91
698.43	54336.71
698.62	54834.36
698.81	54279.36
699.00	55147.70
699.19	54404.29
699.38	55061.69
699.57	54473.92
699.76	55045.30
699.95	54330.56
700.14	54553.79
700.32	54385.86
700.51	54492.35
700.70	54598.85
700.89	54119.62
701.08	54584.51
701.27	54148.29
701.46	54344.90
701.65	53277.91
701.84	54248.64
702.03	54281.41
702.22	54150.34
702.41	54000.84
702.60	54002.89
702.79	53859.53
702.98	53904.59
703.17	53667.02
703.35	53849.29
703.54	53687.50
703.73	53918.92
703.92	53648.59
704.11	53531.86
704.30	53707.98
704.49	53605.58
704.68	53261.52
704.87	53963.98
705.06	53757.13
705.25	53462.22
705.43	53687.50
705.62	53814.47
705.81	53574.86
706.00	53392.59
706.19	53490.90
706.38	53062.87
706.57	53458.13
706.76	53214.42
706.95	53390.55
707.14	53591.25
707.32	52995.29
707.51	52849.88
707.70	53097.69
707.89	53116.12
708.08	53114.07
708.27	53214.42
708.46	53875.91
708.65	53441.74
708.84	53488.85
709.02	53239.00
709.21	53132.50
709.40	53206.23
709.59	53175.51
709.78	52788.44
709.97	53114.07
710.16	52794.59
710.34	52837.59
710.53	52440.29
710.72	52767.96
710.91	52880.60
711.10	53007.58
711.29	53279.96
711.48	52630.75
711.66	52583.65
711.85	52700.38
712.04	52628.70
712.23	52434.14
712.42	52573.41
712.61	52411.62
712.80	52323.55
712.98	52430.05
713.17	52524.25
713.36	51979.49
713.55	52298.98
713.74	52610.27
713.93	52075.75
714.11	52088.04
714.30	52120.80
714.49	52188.39
714.68	52368.61
714.87	51956.97
715.06	52514.01
715.24	51961.06
715.43	51954.92
715.62	51916.01
715.81	52053.22
716.00	51928.30
716.18	51956.97
716.37	51682.54
716.56	51553.52
716.75	52065.51
716.94	51635.44
717.12	51217.65
717.31	51838.18
717.50	51727.59
717.69	51453.17
717.88	51395.82
718.06	51594.48
718.25	51707.12
718.44	51258.61
718.63	51414.26
718.82	51406.06
719.00	51227.89
719.19	50986.23
719.38	51231.99
719.57	50898.17
719.76	50396.42
719.94	50861.30
720.13	50808.06
720.32	50902.26
720.51	50689.27
720.69	50308.35
720.88	50337.02
721.07	50904.31
721.26	50414.85
721.44	50128.13
721.63	50613.50
721.82	50369.79
722.01	50169.09
722.20	50115.84
722.38	50337.02
722.57	49370.38
722.76	49878.28
722.95	49886.47
723.13	49880.33
723.32	49704.20
723.51	49310.99
723.70	49427.73
723.88	49741.06
724.07	49759.50
724.26	49456.40
724.44	49155.35
724.63	49595.66
724.82	49423.63
725.01	49200.40
725.19	49061.14
725.38	49667.34
725.57	49222.93
725.76	49093.91
725.94	48952.60
726.13	49202.45
726.32	49354.00
726.51	48962.84
726.69	49530.12
726.88	49444.11
727.07	49186.07
727.25	48663.83
727.44	49224.98
727.63	48719.13
727.82	48870.68
728.00	49075.48
728.19	48850.20
728.38	49141.01
728.56	48592.15
728.75	48846.10
728.94	49030.42
729.12	48739.61
729.31	49188.11
729.50	48782.62
729.69	49034.52
729.87	48676.12
730.06	48755.99
730.25	49122.58
730.43	48911.64
730.62	48848.15
730.81	49104.15
730.99	48874.77
731.18	48987.41
731.37	48665.88
731.55	48954.64
731.74	49229.07
731.93	48854.29
732.11	48809.24
732.30	48942.36
732.49	48674.07
732.67	48809.24
732.86	48440.60
733.05	48905.49
733.23	48581.91
733.42	48731.42
733.61	48340.25
733.79	48489.76
733.98	48901.40
734.17	48330.01
734.35	48444.70
734.54	48694.55
734.73	48864.53
734.91	48274.72
735.10	48336.16
735.29	48882.97
735.47	48428.32
735.66	48168.22
735.84	48500.00
736.03	48579.87
736.22	48502.04
736.40	48432.41
736.59	48606.49
736.78	48225.57
736.96	48241.95
737.15	48092.45
737.33	48334.11
737.52	47940.90
737.71	47844.65
737.89	48213.28
738.08	47627.56
738.27	47938.85
738.45	48264.48
738.64	48149.79
738.82	47879.46
739.01	47797.54
739.20	47734.06
739.38	48446.75
739.57	48356.64
739.75	47936.80
739.94	47625.51
740.13	48293.15
740.31	47652.14
740.50	47957.28
740.68	47889.70
740.87	47707.43
741.06	47781.16
741.24	47267.12
741.43	47754.54
741.61	47686.95
741.80	47322.41
741.99	47312.17
742.17	47654.18
742.36	47590.70
742.54	47408.43
742.73	47430.96
742.91	48076.07
743.10	47318.32
743.29	47752.49
743.47	47451.44
743.66	47394.09
743.84	47553.83
744.03	47580.46
744.21	47183.15
744.40	47645.99
744.59	47080.75
744.77	47185.20
744.96	47246.64
745.14	47215.92
745.33	47142.19
745.51	47187.25
745.70	47125.81
745.88	46689.59
746.07	47469.87
746.26	46636.34
746.44	46802.23
746.63	46925.11
746.81	47494.44
747.00	46798.13
747.18	46880.05
747.37	46646.58
747.55	46785.85
747.74	47242.54
747.92	46738.74
748.11	46712.12
748.29	46892.34
748.48	46800.18
748.66	46232.89
748.85	46495.03
749.03	46824.76
749.22	46105.92
749.41	46310.72
749.59	46161.22
749.78	46318.91
749.96	46548.28
750.15	46402.88
750.33	46761.27
750.52	45933.89
750.70	45892.93
750.89	45829.44
751.07	45759.81
751.26	45917.51
751.44	45985.09
751.63	46069.06
751.81	45757.77
752.00	45702.47
752.18	45884.74
752.37	46034.24
752.55	45344.08
752.74	45630.79
752.92	45546.82
753.10	45495.63
753.29	45774.15
753.47	45423.95
753.66	45419.85
753.84	45698.37
754.03	45454.67
754.21	45573.45
754.40	45595.98
754.58	45536.59
754.77	45204.81
754.95	45239.63
755.14	45147.47
755.32	44799.32
755.51	44836.18
755.69	45036.88
755.88	45131.09
756.06	45163.85
756.24	44637.53
756.43	44688.73
756.61	45002.07
756.80	44924.24
756.98	44760.40
757.17	44842.32
757.35	45047.12
757.54	45051.22
757.72	45022.54
757.90	44617.05
758.09	44418.39
758.27	44805.46
758.46	44363.10
758.64	44377.43
758.83	44670.29
759.01	44563.80
759.19	44541.27
759.38	44709.21
759.56	44748.12
759.75	44328.28
759.93	44096.86
760.12	44238.17
760.30	44354.91
760.48	44186.97
760.67	44318.04
760.85	44473.69
761.04	44127.58
761.22	44408.15
761.40	44201.31
761.59	44068.19
761.77	44012.90
761.96	43775.33
762.14	44004.70
762.32	43611.49
762.51	43763.04
762.69	43660.65
762.88	43705.70
763.06	43812.20
763.24	43605.35
763.43	43335.02
763.61	43767.14
763.80	43609.45
763.98	43337.07
764.16	43703.65
764.35	43406.70
764.53	42681.72
764.72	43308.40
764.90	42755.44
765.08	43373.93
765.27	43206.00
765.45	43105.65
765.63	43019.63
765.82	43193.71
766.00	42669.43
766.18	43023.73
766.37	42970.48
766.55	43117.93
766.74	43038.06
766.92	43015.54
767.10	42734.96
767.29	43124.08
767.47	42237.31
767.65	42390.91
767.84	42034.56
768.02	42718.58
768.20	42229.12
768.39	42524.02
768.57	42415.48
768.75	42587.51
768.94	42009.98
769.12	42915.19
769.30	42239.36
769.49	41883.01
769.67	42038.65
769.85	41940.35
770.04	42177.92
770.22	41942.40
770.40	41532.81
770.59	41727.36
770.77	42050.94
770.95	42331.51
771.14	41487.75
771.32	41436.55
771.50	41172.36
771.69	41678.21
771.87	41887.10
772.05	41436.55
772.24	41459.08
772.42	41385.35
772.60	41112.97
772.78	41407.88
772.97	40914.32
773.15	41461.13
773.33	41129.36
773.52	40930.70
773.70	41244.04
773.88	41665.92
774.07	41203.08
774.25	41033.10
774.43	41221.52
774.61	41383.30
774.80	40947.09
774.98	41280.91
775.16	41811.33
775.34	41311.63
775.53	41268.62
775.71	41889.15
775.89	41162.12
776.08	41029.01
776.26	41153.93
776.44	41029.01
776.62	41530.76
776.81	40725.91
776.99	41469.32
777.17	41416.07
777.35	41434.50
777.54	41616.77
777.72	41272.71
777.90	41446.79
778.08	41358.73
778.27	41172.36
778.45	41604.49
778.63	41766.27
778.81	41317.77
779.00	42040.70
779.18	41510.28
779.36	41956.74
779.54	41813.38
779.73	41545.09
779.91	41848.19
780.09	41733.51
780.27	41997.70
780.46	41739.65
780.64	41887.10
780.82	41729.41
781.00	41876.86
781.19	42206.59
781.37	42198.40
781.55	42040.70
781.73	42235.26
781.91	41747.84
782.10	42241.40
782.28	41926.02
782.46	42175.87
782.64	42114.43
782.82	41887.10
783.01	42102.14
783.19	42372.47
783.37	42651.00
783.55	41979.26
783.74	42145.15
783.92	42155.39
784.10	42743.16
784.28	42003.84
784.46	41792.90
784.64	42091.90
784.83	41977.22
785.01	42388.86
785.19	42366.33
785.37	42409.34
785.55	42231.16
785.74	41422.22
785.92	41704.84
786.10	42276.22
786.28	41788.80
786.46	41776.51
786.64	41727.36
786.83	41919.87
787.01	41960.83
787.19	41747.84
787.37	41913.73
787.55	41815.43
787.74	41354.63
787.92	41735.56
788.10	41971.07
788.28	41405.83
788.46	41454.98
788.64	41309.58
788.82	41907.58
789.01	41467.27
789.19	41522.57
789.37	41442.70
789.55	41573.77
789.73	41137.55
789.91	41002.38
790.09	41088.40
790.28	40816.02
790.46	40764.82
790.64	40770.96
790.82	40869.26
791.00	40744.34
791.18	40406.42
791.36	40617.36
791.55	41041.29
791.73	40506.77
791.91	40336.79
792.09	40660.37
792.27	40361.37
792.45	40224.15
792.63	40304.02
792.81	39769.51
793.00	40363.42
793.18	39847.33
793.36	39757.22
793.54	39517.60
793.72	39628.20
793.90	39853.47
794.08	39765.41
794.26	39474.60
794.44	39280.04
794.62	39552.42
794.81	39103.92
794.99	39026.09
795.17	39273.90
795.35	38819.25
795.53	38956.46
795.71	38993.32
795.89	38602.16
796.07	38542.77
796.25	38598.07
796.43	38454.71
796.61	38249.91
796.80	38421.94
796.98	38274.49
797.16	38266.30
797.34	38000.06
797.52	38092.22
797.70	38364.60
797.88	37774.78
798.06	37893.57
798.24	37580.23
798.42	37893.57
798.60	37524.93
798.78	37967.29
798.96	37578.18
799.14	37205.45
799.32	37262.79
799.51	37010.89
799.69	37322.18
799.87	37053.90
800.05	36724.18
800.23	37244.36
800.41	36963.79
800.59	36441.56
800.77	36720.08
800.95	36703.70
801.13	36525.52
801.31	36447.70
801.49	36605.39
801.67	36183.51
801.85	36181.46
802.03	36488.66
802.21	35919.32
802.39	35917.28
802.57	35931.61
802.75	35603.94
802.93	35735.01
803.11	35214.82
803.29	35237.35
803.47	35296.74
803.65	35376.61
803.83	35294.69
804.01	35186.15
804.19	34553.33
804.37	35429.86
804.55	35122.66
804.73	35122.66
804.91	34952.68
805.09	34733.55
805.27	34895.34
805.45	34788.85
805.63	35020.27
805.81	34817.52
805.99	34764.27
806.17	34633.20
806.35	34588.14
806.53	34242.04
806.71	34428.40
806.89	34250.23
807.07	34289.14
807.25	34141.69
807.43	33848.83
807.61	34276.85
807.79	34149.88
807.97	33566.21
808.15	33730.05
808.33	33521.15
808.51	33273.35
808.69	33547.78
808.87	33287.68
809.05	33326.60
809.23	33433.09
809.41	32863.75
809.59	33218.05
809.77	33191.43
809.95	33129.99
810.13	33277.44
810.31	33093.13
810.49	32769.55
810.67	33138.18
810.84	33123.85
811.02	32648.72
811.20	32589.33
811.38	32644.62
811.56	31985.18
811.74	32304.66
811.92	32243.22
812.10	32781.84
812.28	32704.01
812.46	32714.25
812.64	32040.47
812.82	31950.36
813.00	31878.68
813.18	31981.08
813.36	31807.00
813.53	31798.81
813.71	32110.10
813.89	31696.41
814.07	31880.73
814.25	31651.36
814.43	31647.26
814.61	31579.68
814.79	31458.85
814.97	31284.77
815.15	31620.64
815.33	31079.97
815.50	31217.19
815.68	31256.10
815.86	31452.70
816.04	30979.62
816.22	30723.63
816.40	31030.82
816.58	30725.68
816.76	30918.18
816.94	30805.55
817.11	30645.80
817.29	30520.88
817.47	30322.23
817.65	30191.16
817.83	30772.78
818.01	30596.65
818.19	30430.77
818.37	30580.27
818.54	30094.90
818.72	30205.49
818.90	30178.87
819.08	30230.07
819.26	30492.21
819.44	30033.46
819.62	29974.07
819.80	30174.77
819.97	30055.99
820.15	29779.51
820.33	29531.71
820.51	29992.50
820.69	29392.45
820.87	29859.38
821.05	29783.61
821.22	29601.34
821.40	29408.83
821.58	29789.75
821.76	29130.31
821.94	29314.62
822.12	29290.05
822.29	29386.30
822.47	29386.30
822.65	29509.18
822.83	29263.43
823.01	28950.09
823.19	29007.43
823.36	28659.27
823.54	28810.82
823.72	29009.48
823.90	29244.99
824.08	28786.25
824.25	28786.25
824.43	28689.99
824.61	28825.16
824.79	28722.76
824.97	28556.88
825.15	28833.35
825.32	28724.81
825.50	28261.97
825.68	28503.63
825.86	28773.96
826.04	28675.66
826.21	28501.58
826.39	28333.65
826.57	28343.89
826.75	28241.49
826.93	27766.36
827.10	28128.85
827.28	28143.19
827.46	28374.61
827.64	28126.80
827.81	27876.95
827.99	28171.86
828.17	28040.79
828.35	27727.45
828.53	27790.94
828.70	27766.36
828.88	27524.70
829.06	27817.56
829.24	27854.42
829.41	27852.38
829.59	27813.46
829.77	27457.12
829.95	27756.12
830.12	27438.69
830.30	27596.38
830.48	27385.44
830.66	27379.29
830.84	27493.98
831.01	27088.48
831.19	27649.63
831.37	27278.94
831.55	26975.84
831.72	27299.42
831.90	27326.05
832.08	27053.67
832.25	26981.99
832.43	27068.00
832.61	26906.21
832.79	26541.68
832.96	26781.29
833.14	26846.82
833.32	27160.16
833.50	26883.69
833.67	26666.60
833.85	26932.84
834.03	26549.87
834.20	26586.73
834.38	26951.27
834.56	26805.86
834.74	26807.91
834.91	26594.92
835.09	26621.55
835.27	26156.66
835.44	26529.39
835.62	25876.09
835.80	26332.78
835.98	26254.96
836.15	26396.27
836.33	25865.85
836.51	26019.44
836.68	26254.96
836.86	25972.34
837.04	26338.93
837.21	25966.20
837.39	26218.10
837.57	26064.50
837.75	26281.58
837.92	25867.89
838.10	26078.83
838.28	25960.05
838.45	25732.73
838.63	25710.20
838.81	26066.55
838.98	25470.59
839.16	25800.31
839.34	25454.20
839.51	25497.21
839.69	25335.42
839.87	25325.18
840.04	25536.12
840.22	25489.02
840.40	25284.22
840.57	25577.08
840.75	25437.82
840.93	25253.50
841.10	25376.38
841.28	25421.44
841.46	25452.16
841.63	25357.95
841.81	25095.81
841.98	25036.42
842.16	25179.78
842.34	25263.74
842.51	25220.74
842.69	25198.21
842.87	25235.07
843.04	24692.36
843.22	24733.32
843.40	24923.78
843.57	24524.43
843.75	24985.22
843.92	24927.88
844.10	24815.24
844.28	24850.05
844.45	24999.55
844.63	24991.36
844.81	24827.53
844.98	24749.70
845.16	24645.26
845.33	24878.72
845.51	24745.61
845.69	24338.06
845.86	24331.92
846.04	24176.27
846.21	24395.40
846.39	24342.16
846.57	24108.69
846.74	24565.39
846.92	24157.84
847.09	24260.24
847.27	24006.29
847.45	24159.89
847.62	24235.66
847.80	24104.59
847.97	24055.44
848.15	23975.57
848.32	23981.71
848.50	23942.80
848.68	23565.98
848.85	24043.15
849.03	23498.39
849.20	24026.77
849.38	23955.09
849.56	23592.60
849.73	23375.52
849.91	23625.37
850.08	23858.84
850.26	23357.08
850.43	23568.02
850.61	23469.72
850.78	23330.46
850.96	23396.00
851.14	23293.60
851.31	23584.41
851.49	23180.96
851.66	23316.12
851.84	23371.42
852.01	23244.45
852.19	23170.72
852.36	23226.01
852.54	23269.02
852.71	23408.28
852.89	23230.11
853.07	22943.39
853.24	23230.11
853.42	23264.92
853.59	23068.32
853.77	22931.11
853.94	23510.68
854.12	22963.87
854.29	22806.18
854.47	22998.69
854.64	22996.64
854.82	22881.95
854.99	22765.22
855.17	23037.60
855.34	22736.55
855.52	22988.45
855.69	22961.83
855.87	22695.59
856.04	22806.18
856.22	22644.39
856.39	22333.10
856.57	22763.17
856.74	22220.46
856.92	22505.13
857.09	22415.02
857.27	22220.46
857.44	22724.26
857.62	22533.80
857.79	22724.26
857.97	22288.04
858.14	22484.65
858.32	22247.08
858.49	22271.66
858.67	22273.71
858.84	22175.41
859.02	22359.72
859.19	22232.75
859.37	22142.64
859.54	22023.86
859.72	22226.60
859.89	22312.62
860.06	22214.32
860.24	21655.22
860.41	21968.56
860.59	21849.78
860.76	22101.68
860.94	21749.43
861.11	22091.44
861.29	21894.83
861.46	21778.10
861.64	21546.68
861.81	21563.06
861.98	21571.25
862.16	21028.54
862.33	21169.85
862.51	21552.82
862.68	21501.62
862.86	21434.04
863.03	21194.43
863.21	21483.19
863.38	21382.84
863.55	21403.32
863.73	21176.00
863.90	21507.77
864.08	21354.17
864.25	21300.92
864.43	21419.71
864.60	21010.11
864.77	21116.61
864.95	20879.04
865.12	20872.90
865.30	21108.41
865.47	21071.55
865.64	21061.31
865.82	21028.54
865.99	21212.86
866.17	20969.15
866.34	21038.78
866.51	20723.40
866.69	21180.09
866.86	21120.70
867.04	20729.54
867.21	20686.53
867.38	20336.33
867.56	20455.11
867.73	20377.29
867.91	20405.96
868.08	20653.76
868.25	20627.14
868.43	20315.85
868.60	20199.12
868.78	20348.62
868.95	20352.71
869.12	20375.24
869.30	20010.70
869.47	20373.19
869.64	20195.02
869.82	20332.23
869.99	20125.39
870.16	20606.66
870.34	20018.89
870.51	20201.16
870.69	19879.63
870.86	19965.65
871.03	20137.68
871.21	20020.94
871.38	20055.76
871.55	19791.57
871.73	19900.11
871.90	19554.01
872.07	19750.61
872.25	19785.43
872.42	19556.05
872.59	19517.14
872.77	19748.56
872.94	19613.40
873.11	19472.09
873.29	19744.47
873.46	19248.86
873.63	19355.35
873.81	19371.74
873.98	19291.87
874.15	19271.39
874.33	19058.40
874.50	19060.45
874.67	19052.25
874.85	19209.95
875.02	18892.51
875.19	18857.70
875.37	18996.96
875.54	19050.21
875.71	18941.66
875.88	18663.14
876.06	18882.27
876.23	18683.62
876.40	18636.52
876.58	18685.67
876.75	18679.52
876.92	18577.12
877.10	18456.29
877.27	18910.94
877.44	18493.16
877.61	18083.56
877.79	18392.81
877.96	18378.47
878.13	18147.05
878.31	18175.72
878.48	18198.25
878.65	18362.09
878.82	18003.69
879.00	18167.53
879.17	18065.13
879.34	18161.39
879.51	17749.75
879.69	18173.67
879.86	17721.07
880.03	17936.11
880.21	17848.05
880.38	17796.85
880.55	18054.89
880.72	17487.61
880.90	17774.32
881.07	17661.68
881.24	17972.97
881.41	17981.17
881.59	17682.16
881.76	17620.72
881.93	17393.40
882.10	17329.91
882.28	17393.40
882.45	17655.54
882.62	17614.58
882.79	17686.26
882.96	17235.70
883.14	17553.14
883.31	17719.03
883.48	17491.70
883.65	17678.07
883.83	17411.83
884.00	17307.38
884.17	17231.61
884.34	17454.84
884.51	17456.89
884.69	17256.18
884.86	17415.93
885.03	17213.18
885.20	17080.06
885.38	17182.46
885.55	17155.83
885.72	17123.07
885.89	17241.85
886.06	17215.23
886.24	17116.92
886.41	16813.82
886.58	17143.55
886.75	17325.82
886.92	16715.52
887.10	17196.79
887.27	16932.61
887.44	17145.59
887.61	17125.11
887.78	16828.16
887.95	16901.89
888.13	16680.71
888.30	16885.50
888.47	16719.62
888.64	16690.95
888.81	16566.02
888.99	16697.09
889.16	16688.90
889.33	16396.04
889.50	16535.30
889.67	16649.99
889.84	16527.11
890.01	16588.55
890.19	16463.62
890.36	16256.78
890.53	16457.48
890.70	16254.73
890.87	16408.33
891.04	16385.80
891.22	16572.16
891.39	16307.98
891.56	16320.26
891.73	16402.18
891.90	16158.47
892.07	15994.64
892.24	16066.31
892.42	16045.84
892.59	16129.80
892.76	15965.96
892.93	15779.60
893.10	16000.78
893.27	15845.13
893.44	15824.65
893.61	15763.22
893.79	15847.18
893.96	15939.34
894.13	15765.26
894.30	15988.49
894.47	15798.03
894.64	15859.47
894.81	15828.75
894.98	15871.76
895.15	15726.35
895.33	15705.87
895.50	15621.91
895.67	15884.05
895.84	15644.43
896.01	15707.92
896.18	15783.70
896.35	15666.96
896.52	15882.00
896.69	15699.73
896.86	15820.56
897.04	15882.00
897.21	15800.08
897.38	15611.67
897.55	15619.86
897.72	15892.24
897.89	15863.57
898.06	15705.87
898.23	15671.06
898.40	15568.66
898.57	15632.15
898.74	15845.13
898.91	15669.01
899.08	15816.46
899.26	15597.33
899.43	15697.68
899.60	15705.87
899.77	15697.68
899.94	15542.03
900.11	15404.82
900.28	15419.16
900.45	15210.26
900.62	15339.29
900.79	15656.72
900.96	15623.95
901.13	15601.43
901.30	15357.72
901.47	15392.53
901.64	15380.25
901.81	15443.73
901.98	15478.55
902.15	15838.99
902.32	15488.79
902.49	15748.88
902.66	15564.56
902.83	15443.73
903.01	15214.36
903.18	15470.36
903.35	15419.16
903.52	15582.99
903.69	15462.16
903.86	15607.57
904.03	15310.61
904.20	15687.44
904.37	15740.69
904.54	15441.68
904.71	15435.54
904.88	15458.07
905.05	15138.58
905.22	15396.63
905.39	15286.04
905.56	15382.29
905.73	15341.33
905.90	15390.49
906.07	15576.85
906.24	15523.60
906.41	15423.25
906.58	15419.16
906.75	15578.90
906.92	15056.67
907.09	15474.45
907.26	15161.11
907.43	15302.42
907.60	15632.15
907.77	15595.28
907.93	15245.08
908.10	15429.40
908.27	15425.30
908.44	15255.32
908.61	15077.15
908.78	15216.41
908.95	15519.51
909.12	15089.43
909.29	15353.62
909.46	15179.54
909.63	15453.97
909.80	15261.46
909.97	15257.37
910.14	15163.16
910.31	15275.80
910.48	15386.39
910.65	15134.49
910.82	14954.27
910.99	15195.93
911.16	15124.25
911.33	15154.97
911.50	15249.18
911.66	15183.64
911.83	15140.63
912.00	15097.63
912.17	14669.60
912.34	14759.71
912.51	14868.25
912.68	14866.21
912.85	14960.41
913.02	15021.85
913.19	14694.18
913.36	14888.73
913.53	14978.84
913.70	14628.64
913.86	14858.01
914.03	14649.12
914.20	14606.11
914.37	14784.29
914.54	14640.93
914.71	14624.54
914.88	14673.70
915.05	14384.93
915.22	14423.84
915.39	14305.06
915.55	14554.91
915.72	14479.14
915.89	14438.18
916.06	14014.25
916.23	14167.85
916.40	14229.29
916.57	14303.01
916.74	14024.49
916.91	14204.71
917.07	14319.40
917.24	13979.43
917.41	14294.82
917.58	14272.29
917.75	13963.05
917.92	13866.80
918.09	13809.45
918.26	14044.97
918.42	13870.89
918.59	13872.94
918.76	13690.67
918.93	13647.66
919.10	13713.20
919.27	13651.76
919.44	13776.69
919.60	13606.70
919.77	13631.28
919.94	13631.28
920.11	13416.24
920.28	13522.74
920.45	13307.70
920.61	13305.65
920.78	13174.58
920.95	13442.87
921.12	13061.94
921.29	13045.56
921.46	12861.24
921.62	12857.15
921.79	13188.92
921.96	12865.34
922.13	13123.38
922.30	12846.91
922.47	12875.58
922.63	12623.68
922.80	12705.60
922.97	12621.63
923.14	12537.66
923.31	12769.09
923.47	12347.20
923.64	12748.61
923.81	12392.26
923.98	12367.68
924.15	12392.26
924.32	12351.30
924.48	12373.83
924.65	12488.51
924.82	12332.87
924.99	12287.81
925.15	12033.86
925.32	12185.41
925.49	12076.87
925.66	12027.72
925.83	11919.18
925.99	11906.89
926.16	11980.62
926.33	11990.86
926.50	11577.17
926.67	11796.30
926.83	11767.63
927.00	11593.55
927.17	11644.75
927.34	11392.85
927.50	11296.60
927.67	11806.54
927.84	11306.84
928.01	11528.02
928.17	11208.53
928.34	11251.54
928.51	11300.69
928.68	11231.06
928.84	11106.13
929.01	11038.55
929.18	11077.46
929.35	10927.96
929.51	10954.58
929.68	10946.39
929.85	10895.19
930.02	10891.10
930.18	10692.44
930.35	10559.33
930.52	10594.14
930.69	10661.73
930.85	10794.84
931.02	10739.55
931.19	10620.77
931.36	10688.35
931.52	10360.67
931.69	10469.22
931.86	10399.59
932.02	10274.66
932.19	10354.53
932.36	10207.08
932.53	10463.07
932.69	10008.42
932.86	10071.91
933.03	9996.14
933.19	9959.27
933.36	9875.31
933.53	10094.44
933.70	9858.92
933.86	9789.29
934.03	9875.31
934.20	9504.62
934.36	9637.74
934.53	9394.03
934.70	9543.53
934.86	9510.77
935.03	9222.00
935.20	9234.29
935.36	9222.00
935.53	9064.31
935.70	8953.72
935.86	9011.06
936.03	8787.83
936.20	8822.65
936.36	8793.98
936.53	8826.75
936.70	8701.82
936.86	8802.17
937.03	8685.44
937.20	8349.57
937.36	8537.98
937.53	8179.59
937.70	8173.44
937.86	8036.23
938.03	7901.06
938.20	8062.85
938.36	7786.38
938.53	7851.91
938.70	7694.22
938.86	7610.25
939.03	7604.11
939.20	7487.37
939.36	7507.85
939.53	7163.79
939.70	7528.33
939.86	7122.84
940.03	6979.48
940.19	6924.18
940.36	6938.52
940.53	6899.61
940.69	6770.58
940.86	6743.96
941.03	6684.57
941.19	6477.73
941.36	6492.06
941.52	6463.39
941.69	6453.15
941.86	6240.16
942.02	6313.89
942.19	6309.79
942.35	6289.31
942.52	6305.70
942.69	6072.23
942.85	6029.22
943.02	6053.80
943.18	6057.89
943.35	5916.58
943.52	5935.01
943.68	5859.24
943.85	5754.79
944.01	5724.07
944.18	5730.22
944.35	5842.85
944.51	5703.59
944.68	5470.12
944.84	5580.71
945.01	5384.11
945.17	5525.42
945.34	5568.43
945.51	5523.37
945.67	5527.47
945.84	5593.00
946.00	5394.35
946.17	5535.66
946.33	5302.19
946.50	5525.42
946.67	5408.69
946.83	5416.88
947.00	5437.36
947.16	5334.96
947.33	5322.67
947.49	5484.46
947.66	5410.73
947.82	5597.10
947.99	5320.62
948.16	5535.66
948.32	5341.10
948.49	5500.84
948.65	5384.11
948.82	5365.68
948.98	5269.42
949.15	5384.11
949.31	5429.17
949.48	5490.60
949.64	5509.04
949.81	5310.38
949.97	5199.79
950.14	5357.49
950.30	5418.93
950.47	5519.28
950.63	5437.36
950.80	5431.21
950.96	5355.44
951.13	5304.24
951.30	5310.38
951.46	5390.25
951.63	5466.03
951.79	5554.09
951.96	5492.65
952.12	5382.06
952.29	5408.69
952.45	5380.01
952.62	5488.56
952.78	5562.28
952.94	5420.97
953.11	5365.68
953.27	5433.26
953.44	5443.50
953.60	5457.84
953.77	5515.18
953.93	5525.42
954.10	5384.11
954.26	5509.04
954.43	5441.45
954.59	5535.66
954.76	5597.10
954.92	5552.04
955.09	5537.71
955.25	5455.79
955.42	5576.62
955.58	5642.15
955.75	5619.63
955.91	5502.89
956.07	5642.15
956.24	5527.47
956.40	5533.61
956.57	5554.09
956.73	5472.17
956.90	5498.80
957.06	5531.56
957.23	5492.65
957.39	5476.27
957.56	5377.97
957.72	5531.56
957.88	5474.22
958.05	5488.56
958.21	5621.67
958.38	5482.41
958.54	5580.71
958.71	5654.44
958.87	5457.84
959.03	5666.73
959.20	5588.91
959.36	5574.57
959.53	5517.23
959.69	5554.09
959.85	5695.40
960.02	5550.00
960.18	5414.83
960.35	5453.74
960.51	5660.59
960.68	5576.62
960.84	5607.34
961.00	5480.36
961.17	5504.94
961.33	5646.25
961.50	5523.37
961.66	5648.30
961.82	5490.60
961.99	5500.84
962.15	5328.81
962.31	5498.80
962.48	5660.59
962.64	5523.37
962.81	5463.98
962.97	5457.84
963.13	5500.84
963.30	5550.00
963.46	5427.12
963.62	5451.69
963.79	5453.74
963.95	5423.02
964.12	5408.69
964.28	5447.60
964.44	5341.10
964.61	5470.12
964.77	5369.77
964.93	5545.90
965.10	5480.36
965.26	5380.01
965.42	5345.20
965.59	5255.09
965.75	5332.91
965.92	5345.20
966.08	5380.01
966.24	5337.01
966.41	5425.07
966.57	5343.15
966.73	5343.15
966.90	5408.69
967.06	5459.88
967.22	5406.64
967.39	5238.70
967.55	5214.13
967.71	5218.22
967.88	5132.21
968.04	5291.95
968.20	5205.94
968.37	5111.73
968.53	5224.37
968.69	5150.64
968.85	5195.70
969.02	5240.75
969.18	5187.50
969.34	5316.53
969.51	5296.05
969.67	5316.53
969.83	5009.33
970.00	5230.51
970.16	5117.87
970.32	5156.79
970.48	5318.57
970.65	5156.79
970.81	5054.39
970.97	4978.61
971.14	5011.38
971.30	5140.40
971.46	4943.80
971.63	4992.95
971.79	5117.87
971.95	5128.11
972.11	4984.76
972.28	5029.81
972.44	5171.12
972.60	4898.74
972.76	5095.35
972.93	4992.95
973.09	5009.33
973.25	5046.20
973.42	4984.76
973.58	4956.08
973.74	4968.37
973.90	4941.75
974.07	4888.50
974.23	4892.60
974.39	4900.79
974.55	4835.25
974.72	4886.45
974.88	4855.73
975.04	4820.92
975.20	4863.93
975.37	4851.64
975.53	4786.10
975.69	4847.54
975.85	4835.25
976.01	4822.97
976.18	4808.63
976.34	4698.04
976.50	4814.77
976.66	4908.98
976.83	4837.30
976.99	4747.19
977.15	4779.96
977.31	4628.41
977.47	4784.06
977.64	4704.18
977.80	4638.65
977.96	4730.81
978.12	4702.14
978.29	4597.69
978.45	4599.74
978.61	4695.99
978.77	4601.79
978.93	4595.64
979.10	4601.79
979.26	4624.31
979.42	4466.62
979.58	4343.74
979.74	4509.63
979.91	4571.07
980.07	4593.59
980.23	4528.06
980.39	4513.72
980.55	4474.81
980.71	4427.71
980.88	4370.37
981.04	4382.65
981.20	4429.76
981.36	4517.82
981.52	4452.28
981.68	4431.80
981.85	4450.24
982.01	4435.90
982.17	4392.89
982.33	4368.32
982.49	4474.81
982.65	4335.55
982.82	4401.08
982.98	4339.65
983.14	4300.73
983.30	4353.98
983.46	4415.42
983.62	4444.09
983.79	4290.49
983.95	4339.65
984.11	4132.80
984.27	4325.31
984.43	4372.41
984.59	4208.58
984.75	4384.70
984.91	4222.91
985.08	4353.98
985.24	4138.94
985.40	4130.75
985.56	4130.75
985.72	4163.52
985.88	4362.17
986.04	4059.07
986.20	4095.94
986.37	4138.94
986.53	4075.46
986.69	4175.81
986.85	3975.11
987.01	4161.47
987.17	4073.41
987.33	4034.50
987.49	4009.92
987.65	4095.94
987.82	4167.62
987.98	3977.16
988.14	3936.20
988.30	4116.42
988.46	3852.23
988.62	3968.96
988.78	3893.19
988.94	3880.90
989.10	3948.48
989.26	3862.47
989.42	3968.96
989.59	3874.76
989.75	3852.23
989.91	4022.21
990.07	3880.90
990.23	3848.13
990.39	3887.04
990.55	3864.52
990.71	3739.59
990.87	3815.37
991.03	3841.99
991.19	3872.71
991.35	3862.47
991.51	3747.78
991.67	3903.43
991.83	3737.54
992.00	3784.65
992.16	3616.71
992.32	3833.80
992.48	3717.06
992.64	3585.99
992.80	3743.69
992.96	3717.06
993.12	3702.73
993.28	3657.67
993.44	3686.34
993.60	3665.86
993.76	3719.11
993.92	3684.30
994.08	3739.59
994.24	3778.50
994.40	3588.04
994.56	3665.86
994.72	3565.51
994.88	3751.88
995.04	3635.14
995.20	3676.10
995.36	3483.59
995.52	3452.88
995.68	3542.99
995.84	3526.60
996.00	3598.28
996.16	3487.69
996.32	3530.70
996.48	3508.17
996.64	3653.58
996.80	3399.63
996.96	3512.27
997.12	3530.70
997.28	3487.69
997.44	3426.25
997.60	3567.56
997.76	3428.30
997.92	3416.01
998.08	3497.93
998.24	3379.15
998.40	3424.20
998.56	3540.94
998.72	3354.57
998.88	3307.47
999.04	3289.04
999.20	3418.06
999.36	3266.51
999.52	3450.83
999.68	3217.36
999.84	3420.11
1000.00	3385.29
1000.16	3356.62
1000.32	3225.55
1000.48	3442.64
1000.64	3243.98
1000.80	3291.09
1000.95	3141.58
1001.11	3252.17
1001.27	3157.97
1001.43	3221.45
1001.59	3157.97
1001.75	3100.62
1001.91	3276.75
1002.07	3182.54
1002.23	3223.50
1002.39	3082.19
1002.55	3131.34
1002.71	3217.36
1002.87	3133.39
1003.03	3178.45
1003.19	3119.06
1003.34	3178.45
1003.50	3102.67
1003.66	3153.87
1003.82	3082.19
1003.98	2981.84
1004.14	3088.34
1004.30	3047.38
1004.46	3045.33
1004.62	3067.86
1004.78	3051.47
1004.94	3166.16
1005.09	3166.16
1005.25	3016.66
1005.41	3045.33
1005.57	3002.32
1005.73	3033.04
1005.89	2951.12
1006.05	3024.85
1006.21	3004.37
1006.37	2899.92
1006.52	2908.12
1006.68	2877.40
1006.84	2969.55
1007.00	2871.25
1007.16	2942.93
1007.32	2973.65
1007.48	2924.50
1007.64	2953.17
1007.79	2926.55
1007.95	2877.40
1008.11	2895.83
1008.27	2813.91
1008.43	2936.79
1008.59	2869.20
1008.75	2977.75
1008.91	2985.94
1009.06	2904.02
1009.22	2856.92
1009.38	2910.16
1009.54	2879.44
1009.70	2793.43
1009.86	2852.82
1010.01	2865.11
1010.17	2777.05
1010.33	2789.33
1010.49	2818.00
1010.65	2813.91
1010.81	2736.09
1010.96	2906.07
1011.12	2797.53
1011.28	2760.66
1011.44	2781.14
1011.60	2734.04
1011.76	2715.61
1011.91	2818.00
1012.07	2568.15
1012.23	2576.34
1012.39	2656.22
1012.55	2674.65
1012.71	2662.36
1012.86	2656.22
1013.02	2623.45
1013.18	2613.21
1013.34	2572.25
1013.50	2752.47
1013.65	2607.06
1013.81	2619.35
1013.97	2650.07
1014.13	2516.95
1014.29	2598.87
1014.44	2650.07
1014.60	2713.56
1014.76	2662.36
1014.92	2496.47
1015.07	2625.50
1015.23	2576.34
1015.39	2574.30
1015.55	2605.02
1015.71	2525.15
1015.86	2535.39
1016.02	2502.62
1016.18	2510.81
1016.34	2566.10
1016.49	2531.29
1016.65	2584.54
1016.81	2471.90
1016.97	2486.23
1017.12	2641.88
1017.28	2492.38
1017.44	2471.90
1017.60	2453.47
1017.75	2490.33
1017.91	2498.52
1018.07	2539.48
1018.23	2467.80
1018.38	2389.98
1018.54	2449.37
1018.70	2469.85
1018.86	2377.69
1019.01	2351.07
1019.17	2414.56
1019.33	2527.19
1019.49	2394.08
1019.64	2406.36
1019.80	2445.27
1019.96	2459.61
1020.12	2420.70
1020.27	2351.07
1020.43	2369.50
1020.59	2426.84
1020.74	2322.40
1020.90	2447.32
1021.06	2367.45
1021.22	2355.16
1021.37	2338.78
1021.53	2318.30
1021.69	2394.08
1021.84	2277.34
1022.00	2291.68
1022.16	2365.40
1022.31	2244.57
1022.47	2303.96
1022.63	2400.22
1022.79	2252.77
1022.94	2346.97
1023.10	2412.51
1023.26	2256.86
1023.41	2269.15
1023.57	2279.39
1023.73	2265.05
1023.88	2246.62
1024.04	2166.75
1024.20	2172.89
1024.35	2301.92
1024.51	2263.01
1024.67	2205.66
1024.82	2291.68
1024.98	2197.47
1025.14	2207.71
1025.29	2318.30
1025.45	2322.40
1025.61	2176.99
1025.76	2226.14
1025.92	2275.29
1026.08	2256.86
1026.23	2246.62
1026.39	2213.85
1026.55	2174.94
1026.70	2146.27
1026.86	2174.94
1027.02	2197.47
1027.17	2148.32
1027.33	2164.70
1027.48	2162.66
1027.64	2097.12
1027.80	2076.64
1027.95	2160.61
1028.11	2109.41
1028.27	2207.71
1028.42	2176.99
1028.58	2123.74
1028.73	2070.50
1028.89	2023.39
1029.05	2260.96
1029.20	2203.61
>>>>>End Processed Spectral Data<<<<<
