SpectraSuite Data File
++++++++++++++++++++++++++++++++++++
Date: Fri Jun 02 14:51:09 CEST 2017
User: INFO_000
Dark Spectrum Present: No
Reference Spectrum Present: No
Number of Sampled Component Spectra: 1
Spectrometers: USB4H00879
Integration Time (usec): 80000 (USB4H00879)
Spectra Averaged: 1 (USB4H00879)
Boxcar Smoothing: 0 (USB4H00879)
Correct for Electrical Dark: No (USB4H00879)
Strobe/Lamp Enabled: No (USB4H00879)
Correct for Detector Non-linearity: No (USB4H00879)
Correct for Stray Light: No (USB4H00879)
Number of Pixels in Processed Spectrum: 3648
>>>>>Begin Processed Spectral Data<<<<<
345.13	1331.18
345.34	1331.18
345.56	1331.18
345.78	1255.40
345.99	1306.60
346.21	1660.90
346.42	1732.58
346.64	1599.46
346.86	1744.87
347.07	1642.47
347.29	1710.05
347.50	1628.14
347.72	1726.44
347.94	1757.16
348.15	1578.98
348.37	1634.28
348.59	1708.01
348.80	1615.85
349.02	1712.10
349.23	1839.08
349.45	1861.60
349.67	1912.80
349.88	1845.22
350.10	1992.67
350.31	1900.52
350.53	1884.13
350.75	1904.61
350.96	1822.69
351.18	1845.22
351.39	1814.50
351.61	1771.49
351.82	1812.45
352.04	1898.47
352.26	1841.12
352.47	1894.37
352.69	1923.04
352.90	1740.77
353.12	1802.21
353.34	1812.45
353.55	1861.60
353.77	1992.67
353.98	1884.13
354.20	1847.27
354.41	1933.28
354.63	1920.99
354.85	2021.35
355.06	1912.80
355.28	1648.61
355.49	1839.08
355.71	1896.42
355.92	1914.85
356.14	1929.19
356.35	1886.18
356.57	1759.21
356.79	1978.34
357.00	1857.51
357.22	1894.37
357.43	1855.46
357.65	1978.34
357.86	1875.94
358.08	1910.75
358.29	1968.10
358.51	1937.38
358.72	1941.47
358.94	1916.90
359.16	1888.23
359.37	1957.86
359.59	1896.42
359.80	1943.52
360.02	1955.81
360.23	1974.24
360.45	1957.86
360.66	1943.52
360.88	1800.16
361.09	1900.52
361.31	1906.66
361.52	1892.32
361.74	2064.35
361.95	2017.25
362.17	1927.14
362.38	2060.26
362.60	1912.80
362.81	1927.14
363.03	1865.70
363.24	1970.15
363.46	2099.17
363.67	1933.28
363.89	1986.53
364.10	2033.63
364.32	1953.76
364.53	2080.74
364.75	1945.57
364.96	1978.34
365.18	2093.02
365.39	1968.10
365.61	1908.71
365.82	2107.36
366.04	1959.91
366.25	1900.52
366.47	1929.19
366.68	2007.01
366.90	1935.33
367.11	2093.02
367.33	2002.91
367.54	2093.02
367.76	2045.92
367.97	2025.44
368.19	2015.20
368.40	2011.11
368.62	1929.19
368.83	2009.06
369.05	2054.11
369.26	1951.71
369.48	1990.63
369.69	2025.44
369.91	2035.68
370.12	1984.48
370.33	2101.22
370.55	1904.61
370.76	2056.16
370.98	2080.74
371.19	1990.63
371.41	1974.24
371.62	2074.59
371.84	2082.78
372.05	2187.23
372.27	1994.72
372.48	2019.30
372.69	1994.72
372.91	2076.64
373.12	2084.83
373.34	2047.97
373.55	2119.65
373.77	2107.36
373.98	2058.21
374.20	2131.94
374.41	2197.47
374.62	2037.73
374.84	2146.27
375.05	2129.89
375.27	2068.45
375.48	2150.37
375.70	2103.26
375.91	2197.47
376.12	2228.19
376.34	2179.04
376.55	2181.09
376.77	2174.94
376.98	2045.92
377.19	2148.32
377.41	2129.89
377.62	2224.09
377.84	2242.53
378.05	2342.88
378.27	2142.18
378.48	2287.58
378.69	2314.20
378.91	2260.96
379.12	2144.22
379.34	2230.24
379.55	2322.40
379.76	2283.49
379.98	2220.00
380.19	2254.81
380.41	2269.15
380.62	2324.44
380.83	2289.63
381.05	2181.09
381.26	2430.94
381.47	2271.20
381.69	2263.01
381.90	2322.40
382.12	2349.02
382.33	2291.68
382.54	2123.74
382.76	2224.09
382.97	2271.20
383.19	2287.58
383.40	2406.36
383.61	2338.78
383.83	2242.53
384.04	2330.59
384.25	2279.39
384.47	2367.45
384.68	2308.06
384.89	2269.15
385.11	2287.58
385.32	2334.68
385.54	2269.15
385.75	2324.44
385.96	2406.36
386.18	2400.22
386.39	2357.21
386.60	2260.96
386.82	2387.93
387.03	2410.46
387.24	2379.74
387.46	2527.19
387.67	2412.51
387.88	2447.32
388.10	2447.32
388.31	2498.52
388.52	2543.58
388.74	2435.03
388.95	2480.09
389.16	2533.34
389.38	2469.85
389.59	2523.10
389.80	2625.50
390.02	2516.95
390.23	2592.73
390.44	2445.27
390.66	2525.15
390.87	2406.36
391.08	2490.33
391.30	2633.69
391.51	2602.97
391.72	2676.70
391.94	2549.72
392.15	2539.48
392.36	2566.10
392.58	2504.67
392.79	2660.31
393.00	2582.49
393.22	2678.74
393.43	2680.79
393.64	2707.41
393.85	2699.22
394.07	2572.25
394.28	2731.99
394.49	2680.79
394.71	2662.36
394.92	2727.89
395.13	2594.78
395.35	2686.94
395.56	2723.80
395.77	2643.93
395.98	2707.41
396.20	2729.94
396.41	2721.75
396.62	2768.85
396.84	2801.62
397.05	2748.37
397.26	2887.64
397.47	2947.03
397.69	2789.33
397.90	2994.13
398.11	2879.44
398.32	2793.43
398.54	2789.33
398.75	2908.12
398.96	2731.99
399.18	3028.95
399.39	2871.25
399.60	2926.55
399.81	2891.73
400.03	2904.02
400.24	3174.35
400.45	2824.15
400.66	2987.99
400.88	2953.17
401.09	3149.78
401.30	3043.28
401.51	3174.35
401.73	3143.63
401.94	3035.09
402.15	3000.27
402.36	3145.68
402.58	3129.30
402.79	3215.31
403.00	3063.76
403.21	3141.58
403.43	3147.73
403.64	3256.27
403.85	3121.10
404.06	3164.11
404.27	3090.38
404.49	3172.30
404.70	3149.78
404.91	3166.16
405.12	3229.65
405.34	3188.69
405.55	3231.69
405.76	3030.99
405.97	3209.17
406.19	3334.09
406.40	3200.98
406.61	3252.17
406.82	3325.90
407.03	3178.45
407.25	3151.82
407.46	3411.92
407.67	3379.15
407.88	3454.92
408.09	3274.70
408.31	3317.71
408.52	3133.39
408.73	3243.98
408.94	3303.37
409.15	3362.76
409.37	3436.49
409.58	3291.09
409.79	3487.69
410.00	3559.37
410.21	3309.52
410.43	3538.89
410.64	3309.52
410.85	3420.11
411.06	3538.89
411.27	3448.78
411.48	3520.46
411.70	3516.36
411.91	3516.36
412.12	3592.14
412.33	3563.47
412.54	3536.84
412.76	3614.66
412.97	3633.10
413.18	3454.92
413.39	3475.40
413.60	3639.24
413.81	3594.19
414.03	3442.64
414.24	3551.18
414.45	3743.69
414.66	3536.84
414.87	3659.72
415.08	3684.30
415.30	3684.30
415.51	3749.83
415.72	3667.91
415.93	3575.75
416.14	3706.82
416.35	3784.65
416.56	3667.91
416.78	3798.98
416.99	3772.36
417.20	3653.58
417.41	3825.61
417.62	3874.76
417.83	3866.56
418.04	3690.44
418.26	3868.61
418.47	3745.73
418.68	3928.00
418.89	3878.85
419.10	3999.68
419.31	3790.79
419.52	3934.15
419.73	4065.22
419.95	3917.76
420.16	3796.93
420.37	3764.17
420.58	3917.76
420.79	3755.97
421.00	4071.36
421.21	4067.27
421.42	3889.09
421.63	3956.68
421.85	3983.30
422.06	4188.10
422.27	4077.51
422.48	4042.69
422.69	4122.56
422.90	4159.42
423.11	4177.86
423.32	4122.56
423.53	4204.48
423.75	4233.15
423.96	4255.68
424.17	4212.67
424.38	4222.91
424.59	4136.90
424.80	4329.41
425.01	4186.05
425.22	4270.01
425.43	4306.88
425.64	4523.96
425.85	4472.76
426.06	4321.21
426.28	4353.98
426.49	4261.82
426.70	4396.99
426.91	4423.61
427.12	4396.99
427.33	4411.32
427.54	4304.83
427.75	4564.92
427.96	4566.97
428.17	4519.87
428.38	4446.14
428.59	4609.98
428.80	4489.15
429.01	4784.06
429.23	4558.78
429.44	4710.33
429.65	4650.94
429.86	4730.81
430.07	4597.69
430.28	4655.03
430.49	4704.18
430.70	4835.25
430.91	4915.12
431.12	4773.82
431.33	4865.97
431.54	4888.50
431.75	4898.74
431.96	4923.32
432.17	4937.65
432.38	4845.49
432.59	5035.96
432.80	4999.09
433.01	5076.91
433.22	5005.24
433.43	5093.30
433.64	5050.29
433.85	4972.47
434.06	5064.63
434.27	4966.32
434.49	5044.15
434.70	5162.93
434.91	5177.26
435.12	5250.99
435.33	5160.88
435.54	5197.74
435.75	5007.28
435.96	5136.31
436.17	5158.83
436.38	5312.43
436.59	5392.30
436.80	5269.42
437.01	5480.36
437.22	5408.69
437.43	5466.03
437.64	5304.24
437.85	5691.31
438.06	5478.32
438.27	5343.15
438.48	5429.17
438.69	5607.34
438.90	5443.50
439.11	5427.12
439.32	5750.70
439.53	5511.08
439.74	5638.06
439.95	5746.60
440.16	5638.06
440.37	5578.67
440.57	5568.43
440.78	5701.54
440.99	5683.11
441.20	5685.16
441.41	5660.59
441.62	5840.81
441.83	5726.12
442.04	5842.85
442.25	5801.90
442.46	5906.34
442.67	5945.25
442.88	6295.46
443.09	5812.14
443.30	5973.92
443.51	6033.32
443.72	6076.32
443.93	5863.33
444.14	6223.78
444.35	5951.40
444.56	6012.84
444.77	5996.45
444.98	6021.03
445.19	6162.34
445.40	6268.83
445.61	6191.01
445.81	6303.65
446.02	6262.69
446.23	6227.87
446.44	6334.37
446.65	6369.18
446.86	6385.57
447.07	6479.77
447.28	6395.81
447.49	6399.90
447.70	6291.36
447.91	6483.87
448.12	6518.68
448.33	6633.37
448.54	6614.94
448.74	6457.25
448.95	6528.92
449.16	6381.47
449.37	6758.30
449.58	6539.16
449.79	6846.36
450.00	6485.92
450.21	6746.01
450.42	6778.78
450.63	6784.92
450.84	6819.74
451.05	6713.24
451.25	6797.21
451.46	6823.83
451.67	7139.22
451.88	7047.06
452.09	6973.33
452.30	6827.93
452.51	6989.72
452.72	7085.97
452.93	7313.30
453.13	6938.52
453.34	6915.99
453.55	7141.27
453.76	7151.51
453.97	7430.03
454.18	7278.48
454.39	7344.02
454.60	7180.18
454.81	7202.71
455.01	7671.69
455.22	7219.09
455.43	7389.07
455.64	7622.54
455.85	7790.47
456.06	7802.76
456.27	7645.07
456.48	7559.05
456.68	7769.99
456.89	7786.38
457.10	7923.59
457.31	7667.60
457.52	7747.47
457.73	8044.42
457.94	7970.69
458.14	7696.27
458.35	8261.51
458.56	8109.96
458.77	7933.83
458.98	8099.72
459.19	8142.72
459.39	8087.43
459.60	8226.69
459.81	8187.78
460.02	8169.35
460.23	8232.83
460.44	8331.14
460.65	8384.38
460.85	8464.25
461.06	8628.09
461.27	8310.66
461.48	8613.76
461.69	8695.68
461.89	8415.10
462.10	8470.40
462.31	8640.38
462.52	8769.40
462.73	8798.07
462.94	8974.20
463.14	8761.21
463.35	8900.47
463.56	9119.60
463.77	9181.04
463.98	8685.44
464.18	8992.63
464.39	9195.38
464.60	9391.98
464.81	9213.81
465.02	9121.65
465.23	9375.60
465.43	9072.50
465.64	9355.12
465.85	9326.45
466.06	9486.19
466.27	9674.60
466.47	9639.79
466.68	9590.64
466.89	9529.20
467.10	9682.80
467.30	9328.50
467.51	9752.43
467.72	9998.18
467.93	9598.83
468.14	10004.33
468.34	10231.65
468.55	10110.82
468.76	9985.90
468.97	9967.46
469.17	10170.21
469.38	10303.33
469.59	10522.46
469.80	10428.26
470.01	10162.02
470.21	10237.80
470.42	10757.98
470.63	10616.67
470.84	10448.74
471.04	10743.64
471.25	10733.40
471.46	10739.55
471.67	10864.47
471.87	10866.52
472.08	11181.91
472.29	11011.93
472.50	10835.80
472.70	10927.96
472.91	11095.89
473.12	11302.74
473.33	11341.65
473.53	11448.15
473.74	11278.16
473.95	11605.84
474.16	11638.61
474.36	11513.68
474.57	11812.68
474.78	11997.00
474.99	11933.51
475.19	11771.72
475.40	12154.69
475.61	12207.94
475.81	12316.48
476.02	12496.71
476.23	12300.10
476.44	12445.51
476.64	12603.20
476.85	12601.15
477.06	12775.23
477.27	13119.29
477.47	13000.51
477.68	13096.76
477.89	13180.73
478.09	13000.51
478.30	13199.16
478.51	13264.69
478.71	13219.64
478.92	13557.55
479.13	13326.13
479.34	13592.37
479.54	13737.77
479.75	13754.16
479.96	13756.21
480.16	13680.43
480.37	14030.63
480.58	14169.90
480.78	14421.80
480.99	14280.49
481.20	14542.63
481.41	14483.24
481.61	14728.99
481.82	14577.44
482.03	14520.10
482.23	14778.14
482.44	15011.61
482.65	15107.87
482.85	15175.45
483.06	15007.52
483.27	15263.51
483.47	15116.06
483.68	15073.05
483.89	15433.49
484.09	15421.20
484.30	15603.47
484.51	15863.57
484.71	15810.32
484.92	15904.53
485.13	16111.37
485.33	15947.53
485.54	15900.43
485.75	16443.14
485.95	16357.13
486.16	16449.28
486.37	16668.42
486.57	16637.70
486.78	16449.28
486.98	16690.95
487.19	16860.93
487.40	16801.54
487.60	17057.53
487.81	17180.41
488.02	17118.97
488.22	17293.05
488.43	17483.51
488.64	17356.54
488.84	17321.72
489.05	17790.70
489.25	17749.75
489.46	18005.74
489.67	17747.70
489.87	18194.15
490.08	18401.00
490.29	18421.48
490.49	18433.77
490.70	18368.23
490.90	18527.97
491.11	18646.76
491.32	18767.59
491.52	18583.27
491.73	18853.60
491.94	18781.92
492.14	19044.06
492.35	19185.37
492.55	19467.99
492.76	19427.03
492.97	19652.31
493.17	19599.06
493.38	19527.38
493.58	19936.98
493.79	19834.58
494.00	19846.87
494.20	19932.88
494.41	20149.96
494.61	20066.00
494.82	20123.34
495.02	20188.88
495.23	20227.79
495.44	20614.85
495.64	20584.13
495.85	20494.02
496.05	21104.32
496.26	20805.31
496.47	20950.72
496.67	20932.29
496.88	21550.78
497.08	21132.99
497.29	21452.47
497.49	21108.41
497.70	21296.83
497.91	21628.60
498.11	21790.39
498.32	21888.69
498.52	21909.17
498.73	21892.79
498.93	22316.72
499.14	22032.05
499.34	22292.14
499.55	22109.87
499.76	22220.46
499.96	22525.61
500.17	22265.52
500.37	22591.14
500.58	22490.79
500.78	22714.02
500.99	22742.69
501.19	22843.04
501.40	23068.32
501.60	23008.93
501.81	23146.14
502.02	22804.13
502.22	22982.31
502.43	23518.87
502.63	23404.19
502.84	23385.76
503.04	23578.26
503.25	23439.00
503.45	23525.02
503.66	23926.42
503.86	23795.35
504.07	24069.78
504.27	23828.12
504.48	24315.53
504.68	24184.46
504.89	24233.61
505.09	24159.89
505.30	24481.42
505.50	24489.61
505.71	24493.71
505.91	24755.85
506.12	24626.82
506.32	24618.63
506.53	24882.82
506.73	24454.79
506.94	24934.02
507.14	24686.22
507.35	25095.81
507.55	24880.77
507.76	25245.31
507.96	24956.55
508.17	25036.42
508.37	25071.23
508.58	25228.93
508.78	25118.34
508.99	25646.71
509.19	25282.17
509.40	25413.24
509.60	25691.77
509.81	25769.59
510.01	25667.19
510.22	25677.43
510.42	25917.04
510.63	25919.09
510.83	25822.84
511.04	25777.78
511.24	26185.33
511.44	26156.66
511.65	26275.44
511.85	26363.50
512.06	26201.71
512.26	26220.14
512.47	26330.73
512.67	26093.17
512.88	26269.30
513.08	26205.81
513.29	26627.69
513.49	26295.92
513.69	26521.20
513.90	26601.07
514.10	26639.98
514.31	26519.15
514.51	26836.58
514.72	26875.49
514.92	26775.14
515.13	26852.97
515.33	26605.16
515.53	27006.56
515.74	27407.97
515.94	26990.18
516.15	27074.15
516.35	26873.45
516.56	27295.33
516.76	27567.71
516.96	27303.52
517.17	27051.62
517.37	27270.75
517.58	27246.18
517.78	27612.76
517.99	27723.35
518.19	27653.72
518.39	27487.84
518.60	27985.49
518.80	27369.05
519.01	28210.77
519.21	27889.24
519.41	28032.60
519.62	27655.77
519.82	27969.11
520.03	28261.97
520.23	28257.87
520.43	28190.29
520.64	28468.81
520.84	28395.09
521.05	28436.05
521.25	28298.83
521.45	28677.71
521.66	28632.65
521.86	28739.15
522.07	28591.69
522.27	28667.47
522.47	28722.76
522.68	28923.46
522.88	28884.55
523.08	29298.24
523.29	28993.09
523.49	29390.40
523.70	29093.44
523.90	29355.58
524.10	29288.00
524.31	29724.22
524.51	29199.94
524.71	29443.65
524.92	29161.03
525.12	29546.05
525.33	29265.47
525.53	29589.05
525.73	30099.00
525.94	29787.71
526.14	29881.91
526.34	30125.62
526.55	30156.34
526.75	29959.73
526.95	30416.43
527.16	30049.85
527.36	29890.10
527.56	30240.31
527.77	30621.23
527.97	30031.41
528.17	30500.40
528.38	30414.38
528.58	30694.96
528.78	30912.04
528.99	30586.41
529.19	30950.95
529.39	30600.75
529.60	31145.51
529.80	31055.40
530.00	31020.58
530.21	31415.84
530.41	31012.39
530.61	31432.22
530.82	31319.59
531.02	31442.46
531.22	31600.16
531.43	31688.22
531.63	31772.19
531.83	31880.73
532.04	32538.13
532.24	31673.88
532.44	31976.98
532.64	31942.17
532.85	32106.01
533.05	32378.39
533.25	32405.01
533.46	32374.29
533.66	32693.77
533.86	32304.66
534.07	32699.92
534.27	33003.02
534.47	33039.88
534.67	32652.81
534.88	32964.10
535.08	33189.38
535.28	33224.20
535.49	33123.85
535.69	33680.89
535.89	33574.40
536.09	33494.53
536.30	33773.05
536.50	33936.89
536.70	34035.19
536.91	33924.60
537.11	33711.61
537.31	33951.23
537.51	33605.12
537.72	34139.64
537.92	34121.21
538.12	34661.87
538.32	34178.55
538.53	34070.01
538.73	34405.88
538.93	34244.09
539.13	34459.12
539.34	34549.23
539.54	34233.85
539.74	35233.25
539.94	34770.41
540.15	34792.94
540.35	35218.92
540.55	35040.75
540.75	35157.48
540.96	35393.00
541.16	35126.76
541.36	35362.28
541.56	35243.49
541.77	36087.26
541.97	35902.94
542.17	35505.63
542.37	35798.49
542.58	35868.12
542.78	35765.73
542.98	35970.52
543.18	35972.57
543.38	36281.81
543.59	36482.52
543.79	36296.15
543.99	36484.56
544.19	36640.21
544.40	36279.77
544.60	36625.87
544.80	36416.98
545.00	36484.56
545.20	36511.19
545.41	36820.43
545.61	36652.50
545.81	36814.29
546.01	37150.15
546.21	36922.83
546.42	36994.51
546.62	37215.69
546.82	37101.00
547.02	37193.16
547.22	37498.31
547.43	37594.56
547.63	37766.59
547.83	37606.85
548.03	37348.81
548.23	37420.48
548.44	37279.18
548.64	37553.60
548.84	37909.95
549.04	37674.43
549.24	38157.75
549.45	38012.35
549.65	37809.60
549.85	37772.74
550.05	38487.48
550.25	38057.40
550.45	38679.99
550.66	38426.04
550.86	38045.12
551.06	38708.66
551.26	38573.49
551.46	38536.63
551.66	38483.38
551.87	38536.63
552.07	38684.08
552.27	38772.14
552.47	38817.20
552.67	39003.56
552.87	39044.52
553.07	38987.18
553.28	39443.88
553.48	39097.77
553.68	39495.08
553.88	39603.62
554.08	39581.09
554.28	39370.15
554.48	39431.59
554.69	39620.00
554.89	39703.97
555.09	39849.38
555.29	39796.13
555.49	39849.38
555.69	39828.90
555.89	40177.05
556.10	40347.03
556.30	39861.66
556.50	40160.67
556.70	40101.28
556.90	40088.99
557.10	40572.31
557.30	39992.73
557.50	40783.25
557.70	40566.16
557.91	40797.59
558.11	40408.47
558.31	41129.36
558.51	40883.60
558.71	41000.33
558.91	41031.05
559.11	41141.64
559.31	41084.30
559.51	40695.19
559.72	40881.55
559.92	41133.45
560.12	40973.71
560.32	41285.00
560.52	40932.75
560.72	41430.41
560.92	41035.15
561.12	41334.15
561.32	41573.77
561.52	41469.32
561.72	41805.19
561.93	41559.43
562.13	41616.77
562.33	41641.35
562.53	42335.61
562.73	41729.41
562.93	41663.88
563.13	42073.47
563.33	42018.17
563.53	42052.99
563.73	41553.29
563.93	42065.28
564.13	42347.90
564.33	42227.07
564.53	42081.66
564.74	42425.72
564.94	42286.46
565.14	42677.62
565.34	42628.47
565.54	42630.52
565.74	42251.64
565.94	42546.55
566.14	42792.31
566.34	42472.82
566.54	43158.89
566.74	42962.29
566.94	43128.17
567.14	42894.71
567.34	42943.86
567.54	43249.00
567.74	42757.49
567.94	42816.88
568.14	43210.09
568.34	43461.99
568.54	43472.23
568.74	43380.07
568.94	43081.07
569.14	43603.30
569.34	43285.87
569.54	43578.73
569.75	43277.68
569.95	43285.87
570.15	44301.66
570.35	43408.75
570.55	43550.06
570.75	44049.76
570.95	44021.09
571.15	43933.03
571.35	44039.52
571.55	44172.64
571.75	43971.94
571.95	44359.00
572.15	44174.69
572.35	44318.04
572.55	43674.98
572.75	44494.17
572.95	44281.18
573.15	44479.83
573.35	44438.87
573.55	44537.18
573.75	44367.20
573.95	44471.64
574.15	44596.57
574.35	44651.86
574.55	44645.72
574.75	44752.21
574.95	44930.39
575.15	44483.93
575.34	44850.52
575.54	45702.47
575.74	45405.52
575.94	44905.81
576.14	44946.77
576.34	45595.98
576.54	45714.76
576.74	45139.28
576.94	45038.93
577.14	45493.58
577.34	45608.26
577.54	45581.64
577.74	45382.99
577.94	45692.23
578.14	45634.89
578.34	46038.34
578.54	45555.02
578.74	45743.43
578.94	46380.35
579.14	46007.62
579.34	45870.40
579.54	45839.68
579.74	46802.23
579.94	45937.99
580.13	46368.06
580.33	46429.50
580.53	46570.81
580.73	46648.63
580.93	45958.47
581.13	46515.51
581.33	46589.24
581.53	46691.64
581.73	46781.75
581.93	46751.03
582.13	46835.00
582.33	47250.74
582.53	46374.20
582.73	47037.75
582.92	46951.73
583.12	47013.17
583.32	46900.53
583.52	46675.26
583.72	47060.27
583.92	47332.65
584.12	47291.69
584.32	47557.93
584.52	47011.12
584.72	47326.51
584.92	47582.51
585.11	47689.00
585.31	47529.26
585.51	47293.74
585.71	47398.19
585.91	47723.82
586.11	47234.35
586.31	47289.65
586.51	47375.66
586.71	48106.79
586.91	48008.48
587.10	48182.56
587.30	47904.04
587.50	48069.92
587.70	48366.88
587.90	47658.28
588.10	48198.94
588.30	47840.55
588.50	48190.75
588.69	47838.50
588.89	47869.22
589.09	48110.88
589.29	48131.36
589.49	48602.39
589.69	48233.76
589.89	48280.86
590.08	48665.88
590.28	48117.03
590.48	48280.86
590.68	48065.83
590.88	48432.41
591.08	48342.30
591.28	48002.34
591.47	49179.92
591.67	48141.60
591.87	48930.07
592.07	48692.50
592.27	48712.98
592.47	49044.76
592.67	48538.91
592.86	48729.37
593.06	48473.37
593.26	48473.37
593.46	48915.73
593.66	48901.40
593.86	49114.39
594.05	48885.01
594.25	48919.83
594.45	48606.49
594.65	48751.90
594.85	48528.67
595.05	49122.58
595.24	49247.50
595.44	49075.48
595.64	49108.24
595.84	48915.73
596.04	49128.72
596.23	49120.53
596.43	49468.69
596.63	49145.11
596.83	49296.66
597.03	49610.00
597.22	49835.27
597.42	49335.57
597.62	49710.35
597.82	49319.18
598.02	49134.87
598.21	49685.77
598.41	49392.91
598.61	49458.45
598.81	49579.28
599.01	49935.62
599.20	49712.39
599.40	49685.77
599.60	49904.90
599.80	49411.34
600.00	49564.94
600.19	49882.37
600.39	49673.48
600.59	50181.38
600.79	50025.73
600.98	50367.74
601.18	49861.90
601.38	50279.68
601.58	50246.91
601.78	50513.15
601.97	50175.23
602.17	50507.01
602.37	50435.33
602.57	49732.87
602.76	51139.83
602.96	49784.07
603.16	50400.51
603.36	50468.09
603.55	50736.38
603.75	50445.57
603.95	50746.62
604.15	50889.98
604.34	50662.65
604.54	50941.17
604.74	50695.42
604.94	51010.81
605.13	50900.22
605.33	50756.86
605.53	50648.32
605.73	51148.02
605.92	50742.52
606.12	51074.29
606.32	50771.19
606.52	51119.35
606.71	50982.13
606.91	51086.58
607.11	51115.25
607.30	51109.11
607.50	51100.92
607.70	51203.31
607.90	50975.99
608.09	50963.70
608.29	51322.10
608.49	51274.99
608.68	50957.56
608.88	51107.06
609.08	51846.38
609.28	51387.63
609.47	51195.12
609.67	51500.27
609.87	51272.95
610.06	51221.75
610.26	51338.48
610.46	51682.54
610.66	50857.21
610.85	51426.54
611.05	51408.11
611.25	51786.99
611.44	51113.20
611.64	51352.82
611.84	51459.31
612.03	51279.09
612.23	51338.48
612.43	51326.19
612.62	51385.58
612.82	51698.92
613.02	51346.67
613.21	51444.98
613.41	51318.00
613.61	51647.72
613.80	51481.84
614.00	51088.63
614.20	51410.16
614.39	51199.22
614.59	51549.42
614.79	51164.40
614.98	51283.19
615.18	51528.94
615.38	51524.85
615.57	51356.91
615.77	51455.21
615.97	51801.32
616.16	51541.23
616.36	51709.16
616.56	51287.28
616.75	51451.12
616.95	51500.27
617.15	51524.85
617.34	51524.85
617.54	51430.64
617.74	51995.88
617.93	51811.56
618.13	51991.78
618.32	51483.89
618.52	51475.69
618.72	51539.18
618.91	51680.49
619.11	51649.77
619.31	51559.66
619.50	51516.65
619.70	51334.38
619.90	51418.35
620.09	51752.17
620.29	51549.42
620.48	50963.70
620.68	51768.55
620.88	51203.31
621.07	51385.58
621.27	51315.95
621.46	51356.91
621.66	51438.83
621.86	51299.57
622.05	51383.54
622.25	51942.63
622.44	51492.08
622.64	51471.60
622.84	51348.72
623.03	51371.25
623.23	51438.83
623.42	51567.85
623.62	51930.34
623.82	51541.23
624.01	51309.81
624.21	52104.42
624.40	51549.42
624.60	51356.91
624.80	51272.95
624.99	51363.06
625.19	51154.16
625.38	51825.90
625.58	51479.79
625.77	52114.66
625.97	51682.54
626.17	51342.58
626.36	51717.35
626.56	51684.59
626.75	51328.24
626.95	52085.99
627.14	51666.16
627.34	52450.53
627.54	51279.09
627.73	51608.81
627.93	51492.08
628.12	51516.65
628.32	51735.79
628.51	51647.72
628.71	51713.26
628.90	51733.74
629.10	51829.99
629.30	51461.36
629.49	51574.00
629.69	51600.62
629.88	51756.27
630.08	52186.34
630.27	52724.96
630.47	51797.23
630.66	51651.82
630.86	52339.94
631.05	51754.22
631.25	52229.35
631.44	52188.39
631.64	51541.23
631.84	52016.36
632.03	52364.51
632.23	52198.63
632.42	52329.70
632.62	51936.49
632.81	52036.84
633.01	52460.77
633.20	52233.44
633.40	52438.24
633.59	52163.81
633.79	51938.54
633.98	52378.85
634.18	52270.31
634.37	52149.48
634.57	52202.72
634.76	52587.74
634.96	52235.49
635.15	52321.51
635.35	51999.97
635.54	52088.04
635.74	52376.80
635.93	52569.31
636.13	53081.30
636.32	52714.72
636.52	52151.52
636.71	52724.96
636.91	52667.61
637.10	52468.96
637.30	52974.81
637.49	52958.42
637.69	52401.38
637.88	53118.17
638.08	52501.73
638.27	52927.70
638.46	52722.91
638.66	52403.42
638.85	52393.18
639.05	52911.32
639.24	52696.28
639.44	52024.55
639.63	52632.80
639.83	52901.08
640.02	52622.56
640.22	52794.59
640.41	53382.35
640.61	52727.00
640.80	53159.12
640.99	52827.35
641.19	53683.40
641.38	53462.22
641.58	53474.51
641.77	53030.10
641.97	53216.47
642.16	53413.07
642.36	53230.80
642.55	53722.32
642.74	53163.22
642.94	53621.97
643.13	53191.89
643.33	53789.90
643.52	53945.54
643.72	53920.97
643.91	53167.32
644.10	53572.81
644.30	53912.78
644.49	53679.31
644.69	53994.70
644.88	53820.62
645.08	53941.45
645.27	54074.57
645.46	53656.78
645.66	54033.61
645.85	53505.23
646.05	53630.16
646.24	54336.71
646.43	53748.94
646.63	54541.50
646.82	54031.56
647.02	53894.35
647.21	54547.65
647.40	54187.21
647.60	54133.96
647.79	54369.47
647.99	54830.27
648.18	54000.84
648.37	54617.28
648.57	54838.46
648.76	54404.29
648.96	54121.67
649.15	54596.80
649.34	54678.72
649.54	54768.83
649.73	54314.18
649.92	54820.03
650.12	54990.01
650.31	54533.31
650.51	54926.52
650.70	54809.79
650.89	54703.29
651.09	55645.36
651.28	54981.82
651.47	55088.31
651.67	55018.68
651.86	54873.27
652.06	54154.44
652.25	54781.12
652.44	54682.81
652.64	54883.51
652.83	55008.44
653.02	54672.57
653.22	55178.42
653.41	54607.04
653.60	55104.70
653.80	55116.98
653.99	55262.39
654.18	55033.02
654.38	54631.61
654.57	55571.63
654.76	55057.59
654.96	55274.68
655.15	55162.04
655.34	55473.33
655.54	54820.03
655.73	55153.85
655.92	55493.81
656.12	55403.70
656.31	55631.02
656.50	55383.22
656.70	55643.31
656.89	55223.48
657.08	55686.32
657.28	55434.42
657.47	55415.99
657.66	55796.91
657.86	55645.36
658.05	55749.81
658.24	55940.27
658.43	55323.83
658.63	55631.02
658.82	55624.88
659.01	55749.81
659.21	55696.56
659.40	56169.64
659.59	55729.33
659.79	55891.12
659.98	55948.46
660.17	56546.47
660.36	55923.88
660.56	56321.19
660.75	55993.51
660.94	56128.68
661.14	55760.05
661.33	55932.07
661.52	55581.87
661.71	56284.33
661.91	55938.22
662.10	55440.56
662.29	56243.37
662.49	56061.10
662.68	56704.16
662.87	56235.17
663.06	56108.20
663.26	55805.10
663.45	56276.13
663.64	56102.06
663.83	56427.68
664.03	56474.79
664.22	56296.61
664.41	56304.80
664.60	56392.87
664.80	56325.28
664.99	56198.31
665.18	56378.53
665.37	56579.23
665.57	56925.34
665.76	56243.37
665.95	56067.24
666.14	56317.09
666.34	55844.01
666.53	56356.00
666.72	55950.51
666.91	55866.54
667.11	56026.28
667.30	56313.00
667.49	56313.00
667.68	56112.30
667.87	55784.62
668.07	55927.98
668.26	56239.27
668.45	56335.52
668.64	56276.13
668.84	57121.94
669.03	56661.15
669.22	56243.37
669.41	56290.47
669.60	56665.25
669.80	56347.81
669.99	56882.33
670.18	56386.72
670.37	56288.42
670.57	56538.27
670.76	55956.65
670.95	56384.68
671.14	56362.15
671.33	56251.56
671.53	56464.55
671.72	56284.33
671.91	56540.32
672.10	56460.45
672.29	56513.70
672.48	56120.49
672.68	56333.48
672.87	55932.07
673.06	56284.33
673.25	55827.63
673.44	56083.62
673.64	55696.56
673.83	56284.33
674.02	55954.60
674.21	55721.13
674.40	56161.45
674.59	56120.49
674.79	56028.33
674.98	55966.89
675.17	56071.34
675.36	55741.61
675.55	56079.53
675.74	55903.40
675.94	55487.67
676.13	55766.19
676.32	56624.29
676.51	56485.03
676.70	56378.53
676.89	56009.90
677.08	56358.05
677.28	55696.56
677.47	56122.54
677.66	56341.67
677.85	56224.93
678.04	56337.57
678.23	56323.24
678.42	56169.64
678.62	55817.39
678.81	56237.22
679.00	55811.24
679.19	56675.49
679.38	56226.98
679.57	55948.46
679.76	55639.22
679.96	56163.50
680.15	56224.93
680.34	56241.32
680.53	55557.30
680.72	56042.66
680.91	56208.55
681.10	55583.92
681.29	55622.83
681.48	55545.01
681.68	55596.21
681.87	55671.98
682.06	55835.82
682.25	55510.19
682.44	55596.21
682.63	55755.95
682.82	55420.08
683.01	55293.11
683.20	55205.05
683.39	55712.94
683.59	55094.46
683.78	55094.46
683.97	55481.52
684.16	55399.60
684.35	54932.67
684.54	55248.05
684.73	55147.70
684.92	54813.88
685.11	54949.05
685.30	54879.42
685.49	55403.70
685.69	54965.43
685.88	55628.98
686.07	54977.72
686.26	54883.51
686.45	55231.67
686.64	55280.82
686.83	55002.30
687.02	54947.00
687.21	55186.61
687.40	55248.05
687.59	54670.53
687.78	55170.23
687.97	55235.77
688.16	54883.51
688.35	54424.77
688.54	54377.67
688.74	54645.95
688.93	54412.48
689.12	54699.20
689.31	54551.74
689.50	54707.39
689.69	54019.27
689.88	53841.10
690.07	54365.38
690.26	54281.41
690.45	54684.86
690.64	54277.32
690.83	54181.06
691.02	54179.01
691.21	54205.64
691.40	53826.76
691.59	54181.06
691.78	54252.74
691.97	54146.25
692.16	54011.08
692.35	53853.39
692.54	54095.05
692.73	53769.42
692.92	54074.57
693.11	53736.65
693.30	53994.70
693.49	53761.23
693.68	53724.36
693.87	53728.46
694.06	53365.97
694.25	53642.45
694.44	53062.87
694.63	53445.84
694.82	53757.13
695.01	53699.79
695.20	53648.59
695.39	53402.83
695.58	53069.01
695.77	53624.01
695.96	53214.42
696.15	53595.34
696.34	53052.63
696.53	53220.56
696.72	53146.84
696.91	53351.63
697.10	53245.14
697.29	52876.51
697.48	53003.48
697.67	52884.70
697.86	52624.60
698.05	52681.95
698.24	53363.92
698.43	52749.53
698.62	52567.26
698.81	52727.00
699.00	52620.51
699.19	52356.32
699.38	52716.76
699.57	52067.56
699.76	53247.19
699.95	52602.08
700.14	52378.85
700.32	52610.27
700.51	52401.38
700.70	52780.25
700.89	52915.42
701.08	52520.16
701.27	51885.29
701.46	52540.64
701.65	51766.51
701.84	52262.11
702.03	52595.93
702.22	52032.74
702.41	52192.48
702.60	52229.35
702.79	51846.38
702.98	51977.45
703.17	51696.88
703.35	51719.40
703.54	51510.51
703.73	52100.32
703.92	51682.54
704.11	51770.60
704.30	51033.33
704.49	51516.65
704.68	51250.42
704.87	51600.62
705.06	51225.84
705.25	51242.23
705.43	51188.98
705.62	51313.90
705.81	50959.61
706.00	51320.05
706.19	50724.09
706.38	51029.24
706.57	51115.25
706.76	50480.38
706.95	50961.65
707.14	51004.66
707.32	50560.25
707.51	50531.58
707.70	50621.69
707.89	50947.32
708.08	50767.10
708.27	50963.70
708.46	51180.79
708.65	50410.75
708.84	50783.48
709.02	50730.23
709.21	50627.84
709.40	50404.61
709.59	50840.82
709.78	49853.70
709.97	50439.42
710.16	49986.82
710.34	50087.17
710.53	50353.41
710.72	49822.98
710.91	50789.62
711.10	49657.10
711.29	50078.98
711.48	50312.45
711.66	50279.68
711.85	49812.74
712.04	50031.88
712.23	49851.66
712.42	49779.98
712.61	50230.53
712.80	50197.76
712.98	49812.74
713.17	49728.78
713.36	49501.45
713.55	49667.34
713.74	49810.70
713.93	49952.01
714.11	49331.47
714.30	48821.53
714.49	49421.58
714.68	49474.83
714.87	49112.34
715.06	49411.34
715.24	49073.43
715.43	49300.75
715.62	48821.53
715.81	48788.76
716.00	49304.85
716.18	48842.01
716.37	48751.90
716.56	48487.71
716.75	48698.65
716.94	48602.39
717.12	48852.25
717.31	48715.03
717.50	48704.79
717.69	48751.90
717.88	48467.23
718.06	48389.41
718.25	48741.66
718.44	48317.73
718.63	48452.89
718.82	47908.13
719.00	48348.45
719.19	47924.52
719.38	48031.01
719.57	47619.37
719.76	47850.79
719.94	47799.59
720.13	47895.85
720.32	47539.50
720.51	47840.55
720.69	47666.47
720.88	47744.30
721.07	47832.36
721.26	47246.64
721.44	47226.16
721.63	47486.25
721.82	47017.27
722.01	47031.60
722.20	47363.37
722.38	47404.33
722.57	46814.52
722.76	46841.14
722.95	46949.68
723.13	46867.76
723.32	46742.84
723.51	46372.16
723.70	46519.61
723.88	46513.47
724.07	46310.72
724.26	46449.98
724.44	46388.54
724.63	46875.96
724.82	46482.75
725.01	46181.70
725.19	46523.71
725.38	46636.34
725.57	46204.22
725.76	46560.57
725.94	46206.27
726.13	46378.30
726.32	46232.89
726.51	46269.76
726.69	46509.37
726.88	46153.02
727.07	46427.45
727.25	45958.47
727.44	46245.18
727.63	45804.87
727.82	46026.05
728.00	46099.78
728.19	45712.71
728.38	46044.48
728.56	45710.66
728.75	45972.80
728.94	45886.79
729.12	46255.42
729.31	46069.06
729.50	45870.40
729.69	45917.51
729.87	46134.59
730.06	45503.82
730.25	45802.82
730.43	46112.06
730.62	45659.46
730.81	45909.32
730.99	45729.09
731.18	45630.79
731.37	46091.58
731.55	45892.93
731.74	46056.77
731.93	45761.86
732.11	45505.87
732.30	45888.84
732.49	45628.74
732.67	45729.09
732.86	45540.68
733.05	45409.61
733.23	45438.28
733.42	45831.49
733.61	45563.21
733.79	45548.87
733.98	46220.61
734.17	45393.23
734.35	45469.00
734.54	45450.57
734.73	45819.20
734.91	45671.75
735.10	45782.34
735.29	45663.56
735.47	45225.29
735.66	45344.08
735.84	45862.21
736.03	45012.31
736.22	45626.70
736.40	45032.78
736.59	45483.34
736.78	45538.63
736.96	45516.11
737.15	45112.66
737.33	44920.15
737.52	45317.45
737.71	45387.08
737.89	45311.31
738.08	44838.23
738.27	45159.76
738.45	45331.79
738.64	45088.08
738.82	44791.12
739.01	45022.54
739.20	44905.81
739.38	45102.42
739.57	45530.44
739.75	45149.52
739.94	45108.56
740.13	44926.29
740.31	44514.65
740.50	44590.42
740.68	44770.64
740.87	44596.57
741.06	44744.02
741.24	44971.35
741.43	44655.96
741.61	44985.68
741.80	44371.29
741.99	44653.91
742.17	44643.67
742.36	44692.82
742.54	44402.01
742.73	44639.57
742.91	44793.17
743.10	44346.72
743.29	44780.88
743.47	44862.80
743.66	44209.50
743.84	44877.14
744.03	44608.86
744.21	44741.97
744.40	44375.39
744.59	44389.72
744.77	44344.67
744.96	44344.67
745.14	44662.10
745.33	44578.14
745.51	44447.07
745.70	44608.86
745.88	44426.59
746.07	44524.89
746.26	44180.83
746.44	44055.90
746.63	44359.00
746.81	44541.27
747.00	44084.58
747.18	44508.50
747.37	44123.49
747.55	44346.72
747.74	44735.83
747.92	43832.68
748.11	44031.33
748.29	44012.90
748.48	44483.93
748.66	43875.68
748.85	44166.49
749.03	43951.46
749.22	44103.01
749.41	43795.81
749.59	44359.00
749.78	43650.41
749.96	43472.23
750.15	43771.24
750.33	43922.79
750.52	43924.83
750.70	44037.47
750.89	43740.52
751.07	43693.41
751.26	43779.43
751.44	43480.42
751.63	43507.05
751.81	43435.37
752.00	43652.45
752.18	43763.04
752.37	43619.69
752.55	43357.55
752.74	42849.65
752.92	43466.09
753.10	43398.51
753.29	43150.70
753.47	42941.81
753.66	43191.66
753.84	43386.22
754.03	43138.41
754.21	42993.01
754.40	43218.28
754.58	43253.10
754.77	43122.03
754.95	42710.39
755.14	42866.03
755.32	42855.79
755.51	42853.75
755.69	42767.73
755.88	42706.29
756.06	42870.13
756.24	42763.64
756.43	42823.03
756.61	42913.14
756.80	42704.24
756.98	42739.06
757.17	42456.44
757.35	43210.09
757.54	42956.14
757.72	42954.10
757.90	42683.76
758.09	42673.52
758.27	42530.17
758.46	42274.17
758.64	42450.30
758.83	42763.64
759.01	42454.39
759.19	42495.35
759.38	42689.91
759.56	43148.65
759.75	43017.58
759.93	42784.12
760.12	42618.23
760.30	42696.05
760.48	42345.85
760.67	42233.21
760.85	42321.27
761.04	42274.17
761.22	42507.64
761.40	42284.41
761.59	42329.47
761.77	42016.13
761.96	42122.62
762.14	42323.32
762.32	41905.54
762.51	41823.62
762.69	41981.31
762.88	41971.07
763.06	42337.66
763.24	42235.26
763.43	42198.40
763.61	42120.57
763.80	41905.54
763.98	42016.13
764.16	41561.48
764.35	41784.71
764.53	41778.56
764.72	41502.09
764.90	41497.99
765.08	41627.01
765.27	41770.37
765.45	41233.80
765.63	41299.34
765.82	42202.49
766.00	41387.40
766.18	41227.66
766.37	41770.37
766.55	41465.22
766.74	41340.30
766.92	41371.02
767.10	41342.35
767.29	41538.95
767.47	41213.32
767.65	41127.31
767.84	40734.10
768.02	41139.60
768.20	40916.37
768.39	41254.28
768.57	41221.52
768.75	41084.30
768.94	41000.33
769.12	40906.13
769.30	40816.02
769.49	40416.66
769.67	40576.40
769.85	40504.73
770.04	40824.21
770.22	40500.63
770.40	40543.64
770.59	40619.41
770.77	40514.97
770.95	40342.94
771.14	40646.04
771.32	40271.26
771.50	39720.35
771.69	40355.22
771.87	40482.20
772.05	40293.79
772.24	40168.86
772.42	39851.42
772.60	40056.22
772.78	39757.22
772.97	39849.38
773.15	40195.48
773.33	40138.14
773.52	40099.23
773.70	40281.50
773.88	40179.10
774.07	39736.74
774.25	39970.21
774.43	40574.36
774.61	40240.54
774.80	40351.13
774.98	40158.62
775.16	40228.25
775.34	40351.13
775.53	40078.75
775.71	40420.76
775.89	39986.59
776.08	40101.28
776.26	40443.29
776.44	40033.69
776.62	40545.69
776.81	40349.08
776.99	40600.98
777.17	40525.21
777.35	40453.53
777.54	40580.50
777.72	40570.26
777.90	40453.53
778.08	40557.97
778.27	40445.33
778.45	41065.87
778.63	40975.76
778.81	40254.87
779.00	41188.75
779.18	40633.75
779.36	41252.23
779.54	40736.15
779.73	40777.11
779.91	40732.05
780.09	41129.36
780.27	41393.54
780.46	40793.49
780.64	41342.35
780.82	40883.60
781.00	40883.60
781.19	41115.02
781.37	41571.72
781.55	41321.87
781.73	41407.88
781.91	40969.61
782.10	41287.05
782.28	41143.69
782.46	41629.06
782.64	41577.86
782.82	41330.06
783.01	41622.92
783.19	41559.43
783.37	41448.84
783.55	41637.25
783.74	41538.95
783.92	41198.99
784.10	41477.51
784.28	41557.38
784.46	41475.46
784.64	41670.02
784.83	41541.00
785.01	41459.08
785.19	41758.08
785.37	41573.77
785.55	41581.96
785.74	41035.15
785.92	41186.70
786.10	41360.78
786.28	41440.65
786.46	41166.22
786.64	41104.78
786.83	41282.95
787.01	41399.69
787.19	41309.58
787.37	41432.46
787.55	41246.09
787.74	41162.12
787.92	40910.22
788.10	40965.52
788.28	41135.50
788.46	41180.56
788.64	40949.14
788.82	40951.18
789.01	40934.80
789.19	41112.97
789.37	40895.89
789.55	41282.95
789.73	40445.33
789.91	40506.77
790.09	40691.09
790.28	40267.16
790.46	40220.06
790.64	40619.41
790.82	40234.39
791.00	39990.69
791.18	40498.58
791.36	39878.05
791.55	40414.62
791.73	40064.41
791.91	39617.96
792.09	39912.86
792.27	40129.95
792.45	39839.14
792.63	39990.69
792.81	39484.84
793.00	39671.20
793.18	39298.47
793.36	39388.58
793.54	39409.06
793.72	39114.16
793.90	39329.19
794.08	38888.88
794.26	39312.81
794.44	38741.42
794.62	38827.44
794.81	38843.82
794.99	39220.65
795.17	38915.50
795.35	38626.74
795.53	38856.11
795.71	38860.21
795.89	38743.47
796.07	38278.58
796.25	37899.71
796.43	38141.37
796.61	37899.71
796.80	37901.76
796.98	37901.76
797.16	38034.88
797.34	37873.09
797.52	37608.90
797.70	38006.20
797.88	37995.96
798.06	37408.20
798.24	37330.37
798.42	37320.13
798.60	37277.13
798.78	37137.87
798.96	37539.27
799.14	36881.87
799.32	37166.54
799.51	36437.46
799.69	36920.78
799.87	37010.89
800.05	36568.53
800.23	36591.06
800.41	36492.76
800.59	36599.25
800.77	36556.24
800.95	36122.07
801.13	36447.70
801.31	36234.71
801.49	36128.22
801.67	35956.19
801.85	36091.35
802.03	35628.51
802.21	35499.49
802.39	35384.80
802.57	35739.10
802.75	35591.65
802.93	35655.14
803.11	35354.08
803.29	35597.79
803.47	35018.22
803.65	35386.85
803.83	34895.34
804.01	35143.14
804.19	34960.87
804.37	34657.78
804.55	34657.78
804.73	34698.73
804.91	34332.15
805.09	34547.18
805.27	34612.72
805.45	34455.03
805.63	34747.89
805.81	34309.62
805.99	34639.34
806.17	34430.45
806.35	34178.55
806.53	34289.14
806.71	34053.62
806.89	34199.03
807.07	33867.26
807.25	34209.27
807.43	33619.46
807.61	34010.62
807.79	33805.82
807.97	33375.75
808.15	33656.32
808.33	33500.67
808.51	33179.14
808.69	33486.34
808.87	33103.37
809.05	33017.35
809.23	32796.17
809.41	32755.21
809.59	32593.42
809.77	32964.10
809.95	32822.80
810.13	32654.86
810.31	32677.39
810.49	32826.89
810.67	32577.04
810.84	32589.33
811.02	32329.23
811.20	32087.57
811.38	32462.35
811.56	31991.32
811.74	32075.29
811.92	32038.42
812.10	32429.59
812.28	31987.22
812.46	32071.19
812.64	31739.42
812.82	32001.56
813.00	31925.78
813.18	31749.66
813.36	31708.70
813.53	31419.94
813.71	31313.44
813.89	31209.00
814.07	31456.80
814.25	31426.08
814.43	31485.47
814.61	30940.71
814.79	30989.86
814.97	30946.86
815.15	31317.54
815.33	30768.68
815.50	30860.84
815.68	30846.51
815.86	31290.91
816.04	30492.21
816.22	30711.34
816.40	30901.80
816.58	30643.76
816.76	30408.24
816.94	30760.49
817.11	30461.49
817.29	30594.61
817.47	29718.07
817.65	30127.67
817.83	30045.75
818.01	29912.63
818.19	29754.94
818.37	30393.90
818.54	29679.16
818.72	29347.39
818.90	29988.41
819.08	29496.89
819.26	30004.79
819.44	29652.54
819.62	29691.45
819.80	29685.31
819.97	29490.75
820.15	29460.03
820.33	29433.41
820.51	29466.17
820.69	29242.95
820.87	29247.04
821.05	29308.48
821.22	29009.48
821.40	28978.76
821.58	28800.58
821.76	29075.01
821.94	28827.21
822.12	28898.89
822.29	29083.20
822.47	28708.43
822.65	28788.30
822.83	28872.26
823.01	28620.36
823.19	28554.83
823.36	28350.03
823.54	28540.49
823.72	28208.72
823.90	28708.43
824.08	28098.13
824.25	28470.86
824.43	28235.35
824.61	28423.76
824.79	28098.13
824.97	28323.41
825.15	28462.67
825.32	27989.59
825.50	27805.27
825.68	27786.84
825.86	27917.91
826.04	28087.89
826.21	28044.88
826.39	28089.94
826.57	27809.37
826.75	27688.54
826.93	27586.14
827.10	27567.71
827.28	27420.25
827.46	27670.11
827.64	27598.43
827.81	27405.92
827.99	27997.78
828.17	27215.46
828.35	27178.59
828.53	27307.62
828.70	26773.10
828.88	27096.67
829.06	27321.95
829.24	27414.11
829.41	27035.24
829.59	27225.70
829.77	26771.05
829.95	27203.17
830.12	26938.98
830.30	26693.22
830.48	26754.66
830.66	26873.45
830.84	26580.59
831.01	26476.14
831.19	26510.96
831.37	26404.46
831.55	26445.42
831.72	26750.57
831.90	26697.32
832.08	26594.92
832.25	26373.74
832.43	25984.63
832.61	26556.01
832.79	26455.66
832.96	26158.70
833.14	26203.76
833.32	26302.06
833.50	26297.97
833.67	26179.18
833.85	25931.38
834.03	25927.28
834.20	25841.27
834.38	26095.22
834.56	26095.22
834.74	25673.34
834.91	25781.88
835.09	25577.08
835.27	25484.92
835.44	25675.38
835.62	25431.68
835.80	25241.21
835.98	25550.46
836.15	25583.23
836.33	25591.42
836.51	25474.68
836.68	25095.81
836.86	25364.09
837.04	25650.81
837.21	25032.32
837.39	25472.64
837.57	25210.50
837.75	25450.11
837.92	25044.61
838.10	25327.23
838.28	24927.88
838.45	24966.79
838.63	25036.42
838.81	24825.48
838.98	24841.86
839.16	24766.09
839.34	24491.66
839.51	24635.02
839.69	24317.58
839.87	24499.85
840.04	24721.03
840.22	24723.08
840.40	24340.11
840.57	24213.13
840.75	24348.30
840.93	24383.12
841.10	24559.24
841.28	24624.78
841.46	24632.97
841.63	24411.79
841.81	24311.44
841.98	24368.78
842.16	24239.76
842.34	24286.86
842.51	24278.67
842.69	24399.50
842.87	23875.22
843.04	23998.10
843.22	24143.50
843.40	23940.75
843.57	23869.08
843.75	23912.08
843.92	24014.48
844.10	23795.35
844.28	23926.42
844.45	23563.93
844.63	23791.25
844.81	23850.64
844.98	24184.46
845.16	23768.73
845.33	23887.51
845.51	23639.70
845.69	23520.92
845.86	23504.54
846.04	23398.04
846.21	23510.68
846.39	23365.28
846.57	23068.32
846.74	23250.59
846.92	23258.78
847.09	23230.11
847.27	22834.85
847.45	23086.75
847.62	23389.85
847.80	23266.97
847.97	23283.36
848.15	22886.05
848.32	23047.84
848.50	22963.87
848.68	22795.94
848.85	22785.70
849.03	22562.47
849.20	22646.44
849.38	22759.08
849.56	23049.89
849.73	22687.40
849.91	22490.79
850.08	22884.00
850.26	22660.77
850.43	22711.97
850.61	22679.21
850.78	22230.70
850.96	22783.65
851.14	22509.22
851.31	22408.87
851.49	22234.80
851.66	22492.84
851.84	22437.55
852.01	22341.29
852.19	22400.68
852.36	22113.97
852.54	22322.86
852.71	22232.75
852.89	22234.80
853.07	22238.89
853.24	22179.50
853.42	21950.13
853.59	22097.58
853.77	22281.90
853.94	22283.95
854.12	22154.93
854.29	22077.10
854.47	21909.17
854.64	21915.31
854.82	21857.97
854.99	21888.69
855.17	21644.98
855.34	21823.16
855.52	21632.69
855.69	21767.86
855.87	21683.89
856.04	21386.94
856.22	21571.25
856.39	21262.01
856.57	21438.14
856.74	21563.06
856.92	21403.32
857.09	21343.93
857.27	21065.41
857.44	21393.08
857.62	21616.31
857.79	21176.00
857.97	21472.95
858.14	21323.45
858.32	21229.24
858.49	21194.43
858.67	21114.56
858.84	20862.66
859.02	21159.61
859.19	20758.21
859.37	20954.82
859.54	20717.25
859.72	20799.17
859.89	20928.19
860.06	21149.37
860.24	21010.11
860.41	21165.76
860.59	20514.50
860.76	20860.61
860.94	20522.69
861.11	20813.51
861.29	20594.37
861.46	20479.69
861.64	20625.09
861.81	20412.10
861.98	20225.74
862.16	20379.34
862.33	20547.27
862.51	20326.09
862.68	20498.12
862.86	20297.42
863.03	20328.14
863.21	20412.10
863.38	20434.63
863.55	20334.28
863.73	20160.20
863.90	20221.64
864.08	20365.00
864.25	20072.14
864.43	20055.76
864.60	19920.59
864.77	19857.10
864.95	19893.97
865.12	20072.14
865.30	20109.01
865.47	19830.48
865.64	20080.33
865.82	19941.07
865.99	19775.19
866.17	19676.88
866.34	19840.72
866.51	19388.12
866.69	19791.57
866.86	19605.20
867.04	19685.08
867.21	19463.90
867.38	19242.71
867.56	19513.05
867.73	18933.47
867.91	19625.68
868.08	19287.77
868.25	19359.45
868.43	19375.83
868.60	19310.30
868.78	18964.19
868.95	19259.10
869.12	19287.77
869.30	19105.50
869.47	19037.92
869.64	18890.46
869.82	19046.11
869.99	19017.44
870.16	19171.04
870.34	18933.47
870.51	19226.33
870.69	18886.37
870.86	18947.81
871.03	18886.37
871.21	18751.20
871.38	18974.43
871.55	18534.12
871.73	18771.68
871.90	18593.51
872.07	18552.55
872.25	18413.29
872.42	18306.79
872.59	18538.21
872.77	18595.56
872.94	18325.22
873.11	18550.50
873.29	18480.87
873.46	18175.72
873.63	18427.62
873.81	18392.81
873.98	18009.84
874.15	18005.74
874.33	17835.76
874.50	17833.71
874.67	17944.30
874.85	17979.12
875.02	18028.27
875.19	17837.81
875.37	17667.83
875.54	17741.55
875.71	17792.75
875.88	17581.81
876.06	17882.86
876.23	17819.38
876.40	17680.11
876.58	17622.77
876.75	17575.67
876.92	17264.38
877.10	17764.08
877.27	17538.80
877.44	17532.66
877.61	17444.60
877.79	17452.79
877.96	17364.73
878.13	17204.99
878.31	17024.76
878.48	17008.38
878.65	17075.96
878.82	17028.86
879.00	17061.63
879.17	17080.06
879.34	17020.67
879.51	16656.13
879.69	16963.33
879.86	16910.08
880.03	16926.46
880.21	16803.58
880.38	16768.77
880.55	17051.39
880.72	16961.28
880.90	16649.99
881.07	16729.86
881.24	16658.18
881.41	16858.88
881.59	16727.81
881.76	16498.44
881.93	16643.84
882.10	16363.27
882.28	16457.48
882.45	16570.12
882.62	16471.81
882.79	16594.69
882.96	16326.41
883.14	16340.74
883.31	16385.80
883.48	16357.13
883.65	16090.89
883.83	16432.90
884.00	16140.04
884.17	16256.78
884.34	16287.50
884.51	16117.51
884.69	16248.58
884.86	16121.61
885.03	16383.75
885.20	16033.55
885.38	16142.09
885.55	15961.87
885.72	16090.89
885.89	15963.92
886.06	15920.91
886.24	16031.50
886.41	15910.67
886.58	15998.73
886.75	16174.86
886.92	15841.04
887.10	15724.30
887.27	15929.10
887.44	15910.67
887.61	16107.27
887.78	15916.81
887.95	15822.61
888.13	15922.96
888.30	15695.63
888.47	15814.41
888.64	15871.76
888.81	15720.21
888.99	15652.63
889.16	15343.38
889.33	15468.31
889.50	15355.67
889.67	15482.64
889.84	15337.24
890.01	15574.80
890.19	15370.01
890.36	15423.25
890.53	15451.92
890.70	15077.15
890.87	15392.53
891.04	15216.41
891.22	15054.62
891.39	15249.18
891.56	14995.23
891.73	14958.36
891.90	15183.64
892.07	14804.77
892.24	15152.92
892.42	15060.76
892.59	15165.21
892.76	15195.93
892.93	14788.38
893.10	14896.92
893.27	15060.76
893.44	14667.55
893.61	14925.60
893.79	15140.63
893.96	14802.72
894.13	14964.51
894.30	15204.12
894.47	15167.26
894.64	14931.74
894.81	14728.99
894.98	14743.33
895.15	15003.42
895.33	14817.05
895.50	14769.95
895.67	15040.28
895.84	14839.58
896.01	14712.61
896.18	14745.38
896.35	14890.78
896.52	14640.93
896.69	14708.51
896.86	14688.03
897.04	15009.56
897.21	14698.27
897.38	14462.76
897.55	14739.23
897.72	14851.87
897.89	14518.05
898.06	14722.85
898.23	14731.04
898.40	14638.88
898.57	14634.78
898.74	14534.43
898.91	14860.06
899.08	14749.47
899.26	14698.27
899.43	14599.97
899.60	14642.98
899.77	14667.55
899.94	14554.91
900.11	14505.76
900.28	14716.70
900.45	14589.73
900.62	14681.89
900.79	14757.66
900.96	14739.23
901.13	14778.14
901.30	14733.09
901.47	14481.19
901.64	14614.30
901.81	14653.22
901.98	14462.76
902.15	14528.29
902.32	14685.98
902.49	14733.09
902.66	14522.15
902.83	14634.78
903.01	14374.69
903.18	14704.42
903.35	14540.58
903.52	14522.15
903.69	14589.73
903.86	14698.27
904.03	14321.45
904.20	14745.38
904.37	14681.89
904.54	14638.88
904.71	14634.78
904.88	14331.69
905.05	14354.21
905.22	14636.83
905.39	14440.23
905.56	14532.39
905.73	14386.98
905.90	14700.32
906.07	14540.58
906.24	14651.17
906.41	14415.65
906.58	14718.75
906.75	14536.48
906.92	14386.98
907.09	14399.27
907.26	14405.41
907.43	14372.64
907.60	14460.71
907.77	14681.89
907.93	14536.48
908.10	14409.51
908.27	14559.01
908.44	14432.04
908.61	14368.55
908.78	14300.97
908.95	14409.51
909.12	14575.39
909.29	14315.30
909.46	14436.13
909.63	14536.48
909.80	14401.32
909.97	14481.19
910.14	14556.96
910.31	14389.03
910.48	14450.47
910.65	14438.18
910.82	14434.08
910.99	14307.11
911.16	14440.23
911.33	14210.86
911.50	14362.40
911.66	14026.54
911.83	14188.33
912.00	14083.88
912.17	14241.57
912.34	14108.46
912.51	13905.71
912.68	13913.90
912.85	14022.44
913.02	13887.28
913.19	14036.78
913.36	14137.13
913.53	14012.20
913.70	14116.65
913.86	14151.46
914.03	13995.82
914.20	13889.32
914.37	13973.29
914.54	13723.44
914.71	13760.30
914.88	13836.08
915.05	13877.04
915.22	13668.14
915.39	13682.48
915.55	13782.83
915.72	13657.90
915.89	13553.46
916.06	13606.70
916.23	13471.54
916.40	13283.13
916.57	13295.41
916.74	13635.38
916.91	13395.76
917.07	13274.93
917.24	13381.43
917.41	13213.49
917.58	13315.89
917.75	13070.14
917.92	13283.13
918.09	13233.97
918.26	13201.21
918.42	13272.89
918.59	13002.55
918.76	12922.68
918.93	13127.48
919.10	13076.28
919.27	12947.26
919.44	13285.17
919.60	13143.86
919.77	12955.45
919.94	12818.24
920.11	12914.49
920.28	12660.54
920.45	12699.45
920.61	12351.30
920.78	12627.78
920.95	12631.87
921.12	12590.91
921.29	12558.14
921.46	12625.73
921.62	12353.35
921.79	12504.90
921.96	12500.80
922.13	12472.13
922.30	12238.66
922.47	12371.78
922.63	12207.94
922.80	12101.45
922.97	12164.93
923.14	11970.38
923.31	11876.17
923.47	11980.62
923.64	12113.74
923.81	11990.86
923.98	11824.97
924.15	11857.74
924.32	12027.72
924.48	11743.05
924.65	11923.27
924.82	11685.71
924.99	11593.55
925.15	11290.45
925.32	11439.95
925.49	11474.77
925.66	11296.60
925.83	11464.53
925.99	11325.27
926.16	11351.89
926.33	11419.47
926.50	11081.56
926.67	11296.60
926.83	11073.37
927.00	10995.54
927.17	11145.05
927.34	10887.00
927.50	10952.54
927.67	11069.27
927.84	10927.96
928.01	10950.49
928.17	10792.80
928.34	10946.39
928.51	10813.28
928.68	10809.18
928.84	10743.64
929.01	10454.88
929.18	10432.35
929.35	10647.39
929.51	10348.39
929.68	10327.91
929.85	10309.47
930.02	10334.05
930.18	10332.00
930.35	10315.62
930.52	10405.73
930.69	10221.41
930.85	10225.51
931.02	10100.58
931.19	10090.34
931.36	10127.21
931.52	10065.77
931.69	10084.20
931.86	9963.37
932.02	9797.48
932.19	9846.63
932.36	9817.96
932.53	9701.23
932.69	9553.77
932.86	9830.25
933.03	9725.80
933.19	9525.10
933.36	9488.24
933.53	9525.10
933.70	9430.90
933.86	9357.17
934.03	9330.55
934.20	9162.61
934.36	9471.86
934.53	9041.78
934.70	8939.38
934.86	9041.78
935.03	8943.48
935.20	8910.71
935.36	9009.01
935.53	8730.49
935.70	8726.39
935.86	8765.31
936.03	8818.55
936.20	8347.52
936.36	8443.78
936.53	8474.49
936.70	8337.28
936.86	8544.13
937.03	8294.27
937.20	8081.28
937.36	8087.43
937.53	7839.62
937.70	7853.96
937.86	7688.07
938.03	7864.20
938.20	7716.75
938.36	7528.33
938.53	7475.09
938.70	7346.06
938.86	7192.47
939.03	7253.91
939.20	7018.39
939.36	7167.89
939.53	7049.11
939.70	7229.33
939.86	6799.26
940.03	6713.24
940.19	6584.22
940.36	6641.56
940.53	6707.10
940.69	6580.12
940.86	6547.36
941.03	6555.55
941.19	6217.63
941.36	6264.74
941.52	6299.55
941.69	6252.45
941.86	6393.76
942.02	6213.54
942.19	6119.33
942.35	6211.49
942.52	6002.60
942.69	5898.15
942.85	5722.02
943.02	5898.15
943.18	5814.18
943.35	5873.57
943.52	5812.14
943.68	5709.74
943.85	5613.48
944.01	5662.63
944.18	5650.35
944.35	5633.96
944.51	5664.68
944.68	5414.83
944.84	5347.25
945.01	5359.53
945.17	5527.47
945.34	5398.45
945.51	5371.82
945.67	5318.57
945.84	5294.00
946.00	5416.88
946.17	5316.53
946.33	5179.31
946.50	5500.84
946.67	5408.69
946.83	5187.50
947.00	5337.01
947.16	5359.53
947.33	5363.63
947.49	5312.43
947.66	5210.03
947.82	5320.62
947.99	5119.92
948.16	5337.01
948.32	5111.73
948.49	5248.94
948.65	5248.94
948.82	5140.40
948.98	5296.05
949.15	5158.83
949.31	5279.66
949.48	5230.51
949.64	5314.48
949.81	5271.47
949.97	5228.46
950.14	5271.47
950.30	5250.99
950.47	5347.25
950.63	5337.01
950.80	5343.15
950.96	5326.77
951.13	5283.76
951.30	5244.85
951.46	5439.40
951.63	5515.18
951.79	5218.22
951.96	5287.86
952.12	5361.58
952.29	5455.79
952.45	5300.14
952.62	5361.58
952.78	5498.80
952.94	5279.66
953.11	5343.15
953.27	5269.42
953.44	5437.36
953.60	5339.05
953.77	5328.81
953.93	5386.16
954.10	5294.00
954.26	5337.01
954.43	5361.58
954.59	5388.21
954.76	5601.19
954.92	5386.16
955.09	5326.77
955.25	5363.63
955.42	5578.67
955.58	5377.97
955.75	5339.05
955.91	5402.54
956.07	5437.36
956.24	5341.10
956.40	5476.27
956.57	5461.93
956.73	5365.68
956.90	5490.60
957.06	5529.52
957.23	5443.50
957.39	5425.07
957.56	5558.19
957.72	5410.73
957.88	5541.80
958.05	5500.84
958.21	5625.77
958.38	5453.74
958.54	5384.11
958.71	5578.67
958.87	5568.43
959.03	5402.54
959.20	5484.46
959.36	5386.16
959.53	5441.45
959.69	5408.69
959.85	5433.26
960.02	5408.69
960.18	5488.56
960.35	5478.32
960.51	5468.08
960.68	5410.73
960.84	5429.17
961.00	5351.34
961.17	5443.50
961.33	5513.13
961.50	5406.64
961.66	5554.09
961.82	5371.82
961.99	5566.38
962.15	5437.36
962.31	5410.73
962.48	5433.26
962.64	5560.24
962.81	5427.12
962.97	5414.83
963.13	5386.16
963.30	5504.94
963.46	5330.86
963.62	5384.11
963.79	5312.43
963.95	5502.89
964.12	5390.25
964.28	5375.92
964.44	5386.16
964.61	5380.01
964.77	5386.16
964.93	5459.88
965.10	5304.24
965.26	5414.83
965.42	5265.33
965.59	5238.70
965.75	5359.53
965.92	5384.11
966.08	5377.97
966.24	5285.81
966.41	5242.80
966.57	5281.71
966.73	5326.77
966.90	5363.63
967.06	5369.77
967.22	5353.39
967.39	5195.70
967.55	5130.16
967.71	5334.96
967.88	5171.12
968.04	5289.90
968.20	5351.34
968.37	5167.03
968.53	5185.46
968.69	5138.35
968.85	5093.30
969.02	5048.24
969.18	5230.51
969.34	5054.39
969.51	5236.66
969.67	5218.22
969.83	5121.97
970.00	5250.99
970.16	5052.34
970.32	5066.67
970.48	5171.12
970.65	5113.78
970.81	4980.66
970.97	5150.64
971.14	4849.59
971.30	5228.46
971.46	4966.32
971.63	5015.48
971.79	5095.35
971.95	5109.68
972.11	4999.09
972.28	5007.28
972.44	5023.67
972.60	4872.12
972.76	5056.43
972.93	5017.52
973.09	5089.20
973.25	4972.47
973.42	4954.04
973.58	4984.76
973.74	4988.85
973.90	4925.36
974.07	4851.64
974.23	4843.45
974.39	4892.60
974.55	4822.97
974.72	4884.41
974.88	4691.90
975.04	4851.64
975.20	4872.12
975.37	4911.03
975.53	4616.12
975.69	4870.07
975.85	4759.48
976.01	4693.94
976.18	4755.38
976.34	4751.29
976.50	4825.01
976.66	4865.97
976.83	4739.00
976.99	4618.17
977.15	4693.94
977.31	4427.71
977.47	4777.91
977.64	4599.74
977.80	4700.09
977.96	4634.55
978.12	4628.41
978.29	4601.79
978.45	4550.59
978.61	4638.65
978.77	4569.02
978.93	4646.84
979.10	4657.08
979.26	4558.78
979.42	4509.63
979.58	4370.37
979.74	4364.22
979.91	4538.30
980.07	4536.25
980.23	4409.28
980.39	4444.09
980.55	4476.86
980.71	4507.58
980.88	4476.86
981.04	4306.88
981.20	4435.90
981.36	4579.26
981.52	4440.00
981.68	4345.79
981.85	4452.28
982.01	4448.19
982.17	4263.87
982.33	4272.06
982.49	4466.62
982.65	4364.22
982.82	4317.12
982.98	4220.86
983.14	4175.81
983.30	4325.31
983.46	4489.15
983.62	4239.30
983.79	4214.72
983.95	4310.97
984.11	4231.10
984.27	4255.68
984.43	4165.57
984.59	4239.30
984.75	4227.01
984.91	4192.19
985.08	4280.25
985.24	4073.41
985.40	4151.23
985.56	4274.11
985.72	4313.02
985.88	4140.99
986.04	4136.90
986.20	4044.74
986.37	4112.32
986.53	4118.47
986.69	4173.76
986.85	4097.99
987.01	4057.03
987.17	4040.64
987.33	3905.48
987.49	3909.57
987.65	4028.35
987.82	4007.87
987.98	3917.76
988.14	3911.62
988.30	4034.50
988.46	3862.47
988.62	3880.90
988.78	3989.44
988.94	3948.48
989.10	3909.57
989.26	3913.67
989.42	3938.24
989.59	3770.31
989.75	3856.33
989.91	3866.56
990.07	3731.40
990.23	3893.19
990.39	3792.84
990.55	3803.08
990.71	3792.84
990.87	3798.98
991.03	3864.52
991.19	3825.61
991.35	3647.43
991.51	3753.93
991.67	3753.93
991.83	3796.93
992.00	3772.36
992.16	3747.78
992.32	3854.28
992.48	3694.54
992.64	3710.92
992.80	3665.86
992.96	3690.44
993.12	3710.92
993.28	3686.34
993.44	3706.82
993.60	3592.14
993.76	3643.34
993.92	3620.81
994.08	3639.24
994.24	3624.90
994.40	3602.38
994.56	3784.65
994.72	3653.58
994.88	3614.66
995.04	3551.18
995.20	3549.13
995.36	3506.12
995.52	3563.47
995.68	3510.22
995.84	3418.06
996.00	3516.36
996.16	3459.02
996.32	3348.43
996.48	3426.25
996.64	3602.38
996.80	3497.93
996.96	3545.03
997.12	3555.27
997.28	3411.92
997.44	3450.83
997.60	3377.10
997.76	3370.96
997.92	3350.48
998.08	3346.38
998.24	3456.97
998.40	3315.66
998.56	3391.44
998.72	3317.71
998.88	3303.37
999.04	3309.52
999.20	3401.68
999.36	3211.22
999.52	3381.20
999.68	3373.00
999.84	3456.97
1000.00	3303.37
1000.16	3307.47
1000.32	3219.41
1000.48	3389.39
1000.64	3305.42
1000.80	3243.98
1000.95	3106.77
1001.11	3137.49
1001.27	3180.50
1001.43	3194.83
1001.59	3196.88
1001.75	3203.02
1001.91	3196.88
1002.07	3108.82
1002.23	3178.45
1002.39	3182.54
1002.55	3291.09
1002.71	3082.19
1002.87	3024.85
1003.03	3135.44
1003.19	3114.96
1003.34	3248.08
1003.50	3114.96
1003.66	3133.39
1003.82	3147.73
1003.98	3096.53
1004.14	3182.54
1004.30	3071.95
1004.46	2992.08
1004.62	2940.88
1004.78	3071.95
1004.94	3071.95
1005.09	2942.93
1005.25	3098.58
1005.41	2979.79
1005.57	3028.95
1005.73	2983.89
1005.89	2983.89
1006.05	2936.79
1006.21	2994.13
1006.37	2879.44
1006.52	2983.89
1006.68	2916.31
1006.84	2983.89
1007.00	2803.67
1007.16	3020.75
1007.32	2906.07
1007.48	2881.49
1007.64	2922.45
1007.79	2834.39
1007.95	2863.06
1008.11	2949.08
1008.27	2787.29
1008.43	2918.36
1008.59	2815.96
1008.75	2961.36
1008.91	2799.57
1009.06	2832.34
1009.22	2832.34
1009.38	2826.20
1009.54	2828.24
1009.70	2760.66
1009.86	2809.81
1010.01	2762.71
1010.17	2684.89
1010.33	2893.78
1010.49	2705.37
1010.65	2789.33
1010.81	2668.50
1010.96	2887.64
1011.12	2787.29
1011.28	2705.37
1011.44	2746.33
1011.60	2723.80
1011.76	2662.36
1011.91	2867.16
1012.07	2631.64
1012.23	2609.11
1012.39	2645.98
1012.55	2723.80
1012.71	2680.79
1012.86	2693.08
1013.02	2666.46
1013.18	2637.78
1013.34	2596.82
1013.50	2729.94
1013.65	2731.99
1013.81	2633.69
1013.97	2523.10
1014.13	2623.45
1014.29	2545.63
1014.44	2633.69
1014.60	2635.74
1014.76	2633.69
1014.92	2502.62
1015.07	2580.44
1015.23	2529.24
1015.39	2549.72
1015.55	2592.73
1015.71	2447.32
1015.86	2537.43
1016.02	2516.95
1016.18	2406.36
1016.34	2607.06
1016.49	2543.58
1016.65	2533.34
1016.81	2420.70
1016.97	2449.37
1017.12	2535.39
1017.28	2418.65
1017.44	2482.14
1017.60	2467.80
1017.75	2510.81
1017.91	2410.46
1018.07	2441.18
1018.23	2428.89
1018.38	2312.16
1018.54	2418.65
1018.70	2465.75
1018.86	2406.36
1019.01	2443.23
1019.17	2400.22
1019.33	2516.95
1019.49	2412.51
1019.64	2480.09
1019.80	2445.27
1019.96	2469.85
1020.12	2371.55
1020.27	2338.78
1020.43	2369.50
1020.59	2330.59
1020.74	2355.16
1020.90	2478.04
1021.06	2281.44
1021.22	2308.06
1021.37	2322.40
1021.53	2279.39
1021.69	2377.69
1021.84	2254.81
1022.00	2285.53
1022.16	2330.59
1022.31	2285.53
1022.47	2326.49
1022.63	2283.49
1022.79	2197.47
1022.94	2299.87
1023.10	2355.16
1023.26	2265.05
1023.41	2340.83
1023.57	2271.20
1023.73	2246.62
1023.88	2377.69
1024.04	2263.01
1024.20	2232.29
1024.35	2267.10
1024.51	2289.63
1024.67	2170.85
1024.82	2353.12
1024.98	2187.23
1025.14	2197.47
1025.29	2144.22
1025.45	2213.85
1025.61	2152.42
1025.76	2185.18
1025.92	2187.23
1026.08	2263.01
1026.23	2201.57
1026.39	2277.34
1026.55	2215.90
1026.70	2115.55
1026.86	2187.23
1027.02	2152.42
1027.17	2170.85
1027.33	2199.52
1027.48	2170.85
1027.64	2166.75
1027.80	2080.74
1027.95	2203.61
1028.11	1990.63
1028.27	2150.37
1028.42	2181.09
1028.58	2068.45
1028.73	2052.06
1028.89	2011.11
1029.05	2230.24
1029.20	2191.33
>>>>>End Processed Spectral Data<<<<<
