SpectraSuite Data File
++++++++++++++++++++++++++++++++++++
Date: Fri Jun 02 14:51:13 CEST 2017
User: INFO_000
Dark Spectrum Present: No
Reference Spectrum Present: No
Number of Sampled Component Spectra: 1
Spectrometers: USB4H00879
Integration Time (usec): 80000 (USB4H00879)
Spectra Averaged: 1 (USB4H00879)
Boxcar Smoothing: 0 (USB4H00879)
Correct for Electrical Dark: No (USB4H00879)
Strobe/Lamp Enabled: No (USB4H00879)
Correct for Detector Non-linearity: No (USB4H00879)
Correct for Stray Light: No (USB4H00879)
Number of Pixels in Processed Spectrum: 3648
>>>>>Begin Processed Spectral Data<<<<<
345.13	1228.78
345.34	1228.78
345.56	1228.78
345.78	1210.35
345.99	1298.41
346.21	1646.57
346.42	1761.25
346.64	1642.47
346.86	1798.12
347.07	1617.90
347.29	1687.53
347.50	1605.61
347.72	1716.20
347.94	1732.58
348.15	1652.71
348.37	1572.84
348.59	1757.16
348.80	1591.27
349.02	1820.64
349.23	1859.56
349.45	1810.40
349.67	1888.23
349.88	1859.56
350.10	1986.53
350.31	1861.60
350.53	1753.06
350.75	1935.33
350.96	1826.79
351.18	1920.99
351.39	1880.04
351.61	1802.21
351.82	1964.00
352.04	1941.47
352.26	1826.79
352.47	1918.95
352.69	1947.62
352.90	1763.30
353.12	1834.98
353.34	1843.17
353.55	1888.23
353.77	1892.32
353.98	1851.36
354.20	1810.40
354.41	1939.43
354.63	1941.47
354.85	2064.35
355.06	1920.99
355.28	1806.31
355.49	1939.43
355.71	1912.80
355.92	1847.27
356.14	1849.32
356.35	1906.66
356.57	1933.28
356.79	1945.57
357.00	1783.78
357.22	1945.57
357.43	1849.32
357.65	1970.15
357.86	1863.65
358.08	1896.42
358.29	1941.47
358.51	1912.80
358.72	2000.87
358.94	1884.13
359.16	2007.01
359.37	1918.95
359.59	1873.89
359.80	1888.23
360.02	1890.28
360.23	1822.69
360.45	2111.46
360.66	1937.38
360.88	1826.79
361.09	1902.56
361.31	1994.72
361.52	1980.39
361.74	2062.30
361.95	2050.02
362.17	1939.43
362.38	2076.64
362.60	2115.55
362.81	1949.67
363.03	1908.71
363.24	2015.20
363.46	2011.11
363.67	2072.54
363.89	1959.91
364.10	2013.15
364.32	1990.63
364.53	2000.87
364.75	1976.29
364.96	2002.91
365.18	2025.44
365.39	1998.82
365.61	2035.68
365.82	2117.60
366.04	2035.68
366.25	1994.72
366.47	2093.02
366.68	1992.67
366.90	1912.80
367.11	2060.26
367.33	2023.39
367.54	2054.11
367.76	2021.35
367.97	2150.37
368.19	2027.49
368.40	2035.68
368.62	1980.39
368.83	2009.06
369.05	2101.22
369.26	2023.39
369.48	1964.00
369.69	1964.00
369.91	2109.41
370.12	2015.20
370.33	2154.46
370.55	1996.77
370.76	1984.48
370.98	2086.88
371.19	2074.59
371.41	2035.68
371.62	2033.63
371.84	1943.52
372.05	2181.09
372.27	2037.73
372.48	2019.30
372.69	2109.41
372.91	2209.76
373.12	2209.76
373.34	2129.89
373.55	2146.27
373.77	2125.79
373.98	2086.88
374.20	2158.56
374.41	2179.04
374.62	2035.68
374.84	2181.09
375.05	2205.66
375.27	2166.75
375.48	2154.46
375.70	2176.99
375.91	2152.42
376.12	2273.25
376.34	2154.46
376.55	2179.04
376.77	2162.66
376.98	2041.82
377.19	2119.65
377.41	2174.94
377.62	2271.20
377.84	2136.03
378.05	2269.15
378.27	2168.80
378.48	2334.68
378.69	2377.69
378.91	2220.00
379.12	2260.96
379.34	2189.28
379.55	2224.09
379.76	2248.67
379.98	2250.72
380.19	2183.13
380.41	2271.20
380.62	2355.16
380.83	2273.25
381.05	2205.66
381.26	2389.98
381.47	2238.43
381.69	2271.20
381.90	2396.12
382.12	2240.48
382.33	2332.64
382.54	2240.48
382.76	2314.20
382.97	2250.72
383.19	2238.43
383.40	2338.78
383.61	2334.68
383.83	2326.49
384.04	2351.07
384.25	2361.31
384.47	2320.35
384.68	2447.32
384.89	2209.76
385.11	2322.40
385.32	2379.74
385.54	2316.25
385.75	2367.45
385.96	2383.84
386.18	2371.55
386.39	2480.09
386.60	2359.26
386.82	2422.75
387.03	2392.03
387.24	2471.90
387.46	2377.69
387.67	2404.32
387.88	2533.34
388.10	2396.12
388.31	2396.12
388.52	2582.49
388.74	2519.00
388.95	2471.90
389.16	2516.95
389.38	2521.05
389.59	2574.30
389.80	2609.11
390.02	2576.34
390.23	2574.30
390.44	2609.11
390.66	2508.76
390.87	2543.58
391.08	2568.15
391.30	2672.60
391.51	2654.17
391.72	2584.54
391.94	2617.30
392.15	2674.65
392.36	2572.25
392.58	2596.82
392.79	2643.93
393.00	2707.41
393.22	2682.84
393.43	2731.99
393.64	2748.37
393.85	2754.52
394.07	2615.26
394.28	2740.18
394.49	2723.80
394.71	2760.66
394.92	2777.05
395.13	2662.36
395.35	2734.04
395.56	2711.51
395.77	2777.05
395.98	2865.11
396.20	2920.40
396.41	2764.76
396.62	2861.01
396.84	2789.33
397.05	2789.33
397.26	2949.08
397.47	2965.46
397.69	2766.81
397.90	3020.75
398.11	2822.10
398.32	2754.52
398.54	2910.16
398.75	2854.87
398.96	2889.68
399.18	3065.81
399.39	2887.64
399.60	3043.28
399.81	2891.73
400.03	2985.94
400.24	3221.45
400.45	2928.60
400.66	2963.41
400.88	2891.73
401.09	3229.65
401.30	2959.31
401.51	3135.44
401.73	3131.34
401.94	2969.55
402.15	3010.51
402.36	3155.92
402.58	3074.00
402.79	3192.78
403.00	3139.54
403.21	3137.49
403.43	3127.25
403.64	3221.45
403.85	3182.54
404.06	3252.17
404.27	3104.72
404.49	3121.10
404.70	3035.09
404.91	3239.89
405.12	3213.26
405.34	3301.33
405.55	3250.13
405.76	3133.39
405.97	3229.65
406.19	3274.70
406.40	3219.41
406.61	3270.61
406.82	3319.76
407.03	3248.08
407.25	3284.94
407.46	3428.30
407.67	3518.41
407.88	3506.12
408.09	3280.85
408.31	3293.13
408.52	3368.91
408.73	3426.25
408.94	3344.33
409.15	3311.57
409.37	3383.24
409.58	3393.48
409.79	3510.22
410.00	3598.28
410.21	3350.48
410.43	3352.52
410.64	3295.18
410.85	3596.23
411.06	3477.45
411.27	3626.95
411.48	3489.74
411.70	3536.84
411.91	3516.36
412.12	3639.24
412.33	3461.07
412.54	3530.70
412.76	3725.26
412.97	3631.05
413.18	3436.49
413.39	3663.82
413.60	3723.21
413.81	3567.56
414.03	3622.86
414.24	3590.09
414.45	3813.32
414.66	3663.82
414.87	3715.02
415.08	3745.73
415.30	3747.78
415.51	3622.86
415.72	3809.22
415.93	3755.97
416.14	3708.87
416.35	3639.24
416.56	3794.89
416.78	3807.17
416.99	3735.50
417.20	3946.44
417.41	3776.45
417.62	3891.14
417.83	3852.23
418.04	3753.93
418.26	3876.80
418.47	3811.27
418.68	3885.00
418.89	3903.43
419.10	4132.80
419.31	4016.07
419.52	3915.72
419.73	3948.48
419.95	4095.94
420.16	3948.48
420.37	3973.06
420.58	4063.17
420.79	3825.61
421.00	4138.94
421.21	4198.34
421.42	4124.61
421.63	3997.64
421.85	4138.94
422.06	4132.80
422.27	4239.30
422.48	4134.85
422.69	4149.18
422.90	4140.99
423.11	4218.82
423.32	4143.04
423.53	4405.18
423.75	4237.25
423.96	4386.75
424.17	4304.83
424.38	4265.92
424.59	4333.50
424.80	4583.35
425.01	4429.76
425.22	4509.63
425.43	4470.72
425.64	4595.64
425.85	4618.17
426.06	4435.90
426.28	4566.97
426.49	4509.63
426.70	4523.96
426.91	4476.86
427.12	4646.84
427.33	4583.35
427.54	4548.54
427.75	4773.82
427.96	4757.43
428.17	4491.20
428.38	4679.61
428.59	4812.73
428.80	4704.18
429.01	4870.07
429.23	4710.33
429.44	4908.98
429.65	4859.83
429.86	4878.26
430.07	4847.54
430.28	4882.36
430.49	4933.56
430.70	5064.63
430.91	5081.01
431.12	5042.10
431.33	5103.54
431.54	5048.24
431.75	5097.39
431.96	4960.18
432.17	4999.09
432.38	5083.06
432.59	5248.94
432.80	5154.74
433.01	5246.90
433.22	5195.70
433.43	5269.42
433.64	5218.22
433.85	5226.42
434.06	5404.59
434.27	5277.62
434.49	5294.00
434.70	5408.69
434.91	5474.22
435.12	5533.61
435.33	5386.16
435.54	5588.91
435.75	5224.37
435.96	5439.40
436.17	5345.20
436.38	5472.17
436.59	5586.86
436.80	5431.21
437.01	5787.56
437.22	5642.15
437.43	5605.29
437.64	5337.01
437.85	5679.02
438.06	5568.43
438.27	5615.53
438.48	5654.44
438.69	5742.50
438.90	5754.79
439.11	5654.44
439.32	5750.70
439.53	5816.23
439.74	5834.66
439.95	5744.55
440.16	5834.66
440.37	5910.44
440.57	5734.31
440.78	5865.38
440.99	5932.97
441.20	5859.24
441.41	5744.55
441.62	5820.33
441.83	5834.66
442.04	6158.24
442.25	6018.98
442.46	5969.83
442.67	6000.55
442.88	6373.28
443.09	5906.34
443.30	6041.51
443.51	6080.42
443.72	6342.56
443.93	6043.56
444.14	6455.20
444.35	5992.36
444.56	6215.59
444.77	6111.14
444.98	6274.98
445.19	6295.46
445.40	6395.81
445.61	6352.80
445.81	6412.19
446.02	6451.10
446.23	6356.90
446.44	6160.29
446.65	6340.51
446.86	6379.42
447.07	6522.78
447.28	6678.43
447.49	6549.40
447.70	6545.31
447.91	6580.12
448.12	6559.64
448.33	6735.77
448.54	6682.52
448.74	6645.66
448.95	6565.79
449.16	6410.14
449.37	6877.08
449.58	6780.82
449.79	6703.00
450.00	6805.40
450.21	6936.47
450.42	6883.22
450.63	7026.58
450.84	6823.83
451.05	6928.28
451.25	6942.61
451.46	6868.89
451.67	7202.71
451.88	7114.64
452.09	6903.70
452.30	6895.51
452.51	7014.29
452.72	7258.00
452.93	7399.31
453.13	7116.69
453.34	7135.12
453.55	7372.69
453.76	7243.67
453.97	7655.31
454.18	7298.96
454.39	7391.12
454.60	7348.11
454.81	7444.37
455.01	7661.45
455.22	7088.02
455.43	7602.06
455.64	7749.51
455.85	7571.34
456.06	7937.93
456.27	7735.18
456.48	7720.84
456.68	7782.28
456.89	7821.19
457.10	7878.54
457.31	7954.31
457.52	7743.37
457.73	7901.06
457.94	7991.17
458.14	7782.28
458.35	8200.07
458.56	7907.21
458.77	8144.77
458.98	8126.34
459.19	8230.79
459.39	8271.75
459.60	8376.19
459.81	8224.64
460.02	8550.27
460.23	8327.04
460.44	8638.33
460.65	8570.75
460.85	8638.33
461.06	8793.98
461.27	8365.95
461.48	8806.27
461.69	8812.41
461.89	8630.14
462.10	9082.74
462.31	8841.08
462.52	8787.83
462.73	8886.14
462.94	8851.32
463.14	9109.36
463.35	9002.87
463.56	9324.40
463.77	9353.07
463.98	9039.73
464.18	9125.75
464.39	9473.90
464.60	9467.76
464.81	9537.39
465.02	9422.70
465.23	9590.64
465.43	9521.01
465.64	9602.93
465.85	9770.86
466.06	9527.15
466.27	9965.42
466.47	9875.31
466.68	9910.12
466.89	9693.04
467.10	10104.68
467.30	9752.43
467.51	10182.50
467.72	10325.86
467.93	9998.18
468.14	10268.52
468.34	10448.74
468.55	10379.11
468.76	10215.27
468.97	10338.15
469.17	10590.05
469.38	10635.10
469.59	10848.09
469.80	10569.57
470.01	10743.64
470.21	10651.49
470.42	11028.31
470.63	11059.03
470.84	10944.34
471.04	11243.35
471.25	11347.79
471.46	11186.01
471.67	11485.01
471.87	11444.05
472.08	11427.67
472.29	11747.15
472.50	11237.20
472.70	11431.76
472.91	11593.55
473.12	11747.15
473.33	11820.88
473.53	12140.36
473.74	12001.10
473.95	11984.71
474.16	12488.51
474.36	12318.53
474.57	12306.24
474.78	12539.71
474.99	12339.01
475.19	12232.52
475.40	12584.77
475.61	12799.80
475.81	12783.42
476.02	13127.48
476.23	13014.84
476.44	13086.52
476.64	13152.06
476.85	13246.26
477.06	13252.41
477.27	13586.22
477.47	13522.74
477.68	13602.61
477.89	13811.50
478.09	13649.71
478.30	13692.72
478.51	13719.34
478.71	14040.87
478.92	14255.91
479.13	14319.40
479.34	14147.37
479.54	14307.11
479.75	14325.54
479.96	14479.14
480.16	14563.11
480.37	14843.68
480.58	14864.16
480.78	15109.91
480.99	15093.53
481.20	15027.99
481.41	15109.91
481.61	15345.43
481.82	15453.97
482.03	15503.12
482.23	15347.48
482.44	15597.33
482.65	15877.90
482.85	16066.31
483.06	15808.27
483.27	16021.26
483.47	15904.53
483.68	15914.77
483.89	16230.15
484.09	16252.68
484.30	16398.09
484.51	16496.39
484.71	16559.88
484.92	16731.90
485.13	16895.74
485.33	16740.10
485.54	16772.86
485.75	17278.71
485.95	17348.34
486.16	17229.56
486.37	17393.40
486.57	17395.45
486.78	17577.72
486.98	17561.33
487.19	17731.31
487.40	17772.27
487.60	17815.28
487.81	18118.38
488.02	17958.64
488.22	17712.88
488.43	18241.26
488.64	18071.28
488.84	18218.73
489.05	18280.17
489.25	18640.61
489.46	18636.52
489.67	18585.32
489.87	18824.93
490.08	18939.62
490.29	18861.79
490.49	19246.81
490.70	19263.19
490.90	19341.02
491.11	19107.55
491.32	19795.67
491.52	19394.26
491.73	19709.65
491.94	19648.21
492.14	19381.98
492.35	19769.04
492.55	20201.16
492.76	19988.18
492.97	20127.44
493.17	20188.88
493.38	20158.16
493.58	20496.07
493.79	20502.22
494.00	20399.82
494.20	20745.92
494.41	20661.96
494.61	20541.13
494.82	20922.05
495.02	20795.07
495.23	21163.71
495.44	21161.66
495.64	21464.76
495.85	21270.20
496.05	21272.25
496.26	21470.90
496.47	21515.96
496.67	21614.26
496.88	21751.48
497.08	21487.29
497.29	22007.47
497.49	21694.13
497.70	21933.75
497.91	22177.45
498.11	22152.88
498.32	22288.04
498.52	22568.62
498.73	22513.32
498.93	22183.60
499.14	22658.73
499.34	22453.93
499.55	22910.63
499.76	22730.41
499.96	22890.15
500.17	22943.39
500.37	22789.80
500.58	22931.11
500.78	23010.98
500.99	23307.93
501.19	23527.06
501.40	23375.52
501.60	23127.71
501.81	23492.25
502.02	23367.32
502.22	23584.41
502.43	23584.41
502.63	24094.35
502.84	23725.72
503.04	23602.84
503.25	24014.48
503.45	23768.73
503.66	24247.95
503.86	24096.40
504.07	24510.09
504.27	24059.54
504.48	24370.83
504.68	24387.21
504.89	24825.48
505.09	24436.36
505.30	24829.57
505.50	24573.58
505.71	24800.90
505.91	24714.89
506.12	24985.22
506.32	24813.19
506.53	25040.51
506.73	25013.89
506.94	25273.98
507.14	25370.24
507.35	25077.38
507.55	25529.98
507.76	25355.90
507.96	25400.96
508.17	25652.86
508.37	25427.58
508.58	25452.16
508.78	25548.41
508.99	25765.49
509.19	25740.92
509.40	25845.37
509.60	25570.94
509.81	25960.05
510.01	25933.43
510.22	26304.11
510.42	26052.21
510.63	25998.96
510.83	26148.46
511.04	26136.18
511.24	26431.08
511.44	26508.91
511.65	26648.17
511.85	26482.28
512.06	26250.86
512.26	26635.88
512.47	26590.83
512.67	26617.45
512.88	26652.27
513.08	26842.73
513.29	26932.84
513.49	26867.30
513.69	26760.81
513.90	26857.06
514.10	27192.93
514.31	26783.34
514.51	27045.48
514.72	27346.53
514.92	27215.46
515.13	27207.26
515.33	27211.36
515.53	27389.53
515.74	27496.03
515.94	27573.85
516.15	27508.32
516.35	27643.48
516.56	27846.23
516.76	27973.21
516.96	27891.29
517.17	27952.73
517.37	28051.03
517.58	28118.61
517.78	27706.97
517.99	27924.05
518.19	28399.18
518.39	28405.33
518.60	28280.40
518.80	28061.27
519.01	28649.03
519.21	28438.09
519.41	28733.00
519.62	28601.93
519.82	28587.60
520.03	29046.34
520.23	28919.37
520.43	28640.84
520.64	29201.99
520.84	29101.64
521.05	28929.61
521.25	29064.77
521.45	29267.52
521.66	29279.81
521.86	28931.65
522.07	29335.10
522.27	29328.96
522.47	29759.03
522.68	29812.28
522.88	29419.07
523.08	30010.93
523.29	29376.06
523.49	29838.90
523.70	30217.78
523.90	30332.47
524.10	30129.72
524.31	30133.81
524.51	30010.93
524.71	30504.49
524.92	30752.30
525.12	30631.47
525.33	30494.25
525.53	30733.87
525.73	30885.42
525.94	30866.98
526.14	30846.51
526.34	30942.76
526.55	31192.61
526.75	31172.13
526.95	31403.55
527.16	30922.28
527.36	31112.74
527.56	31489.57
527.77	31657.50
527.97	31563.29
528.17	31864.35
528.38	32075.29
528.58	32116.25
528.78	32196.12
528.99	31798.81
529.19	32052.76
529.39	31710.75
529.60	32226.84
529.80	32187.92
530.00	32437.78
530.21	32724.49
530.41	33097.22
530.61	32517.65
530.82	32634.38
531.02	32896.52
531.22	33037.83
531.43	33248.77
531.63	33068.55
531.83	33605.12
532.04	33486.34
532.24	33250.82
532.44	33555.97
532.64	33807.87
532.85	34045.43
533.05	33789.44
533.25	34131.45
533.46	33803.77
533.66	34289.14
533.86	34012.66
534.07	34827.76
534.27	34385.40
534.47	34448.88
534.67	34616.82
534.88	34510.32
535.08	34508.27
535.28	34633.20
535.49	34817.52
535.69	35227.11
535.89	35046.89
536.09	35423.72
536.30	35476.96
536.50	35530.21
536.70	35220.97
536.91	35458.53
537.11	35560.93
537.31	35911.13
537.51	35866.08
537.72	35808.73
537.92	36050.39
538.12	36232.66
538.32	36373.97
538.53	36500.95
538.73	36060.63
538.93	36378.07
539.13	36605.39
539.34	36423.12
539.54	36627.92
539.74	36765.14
539.94	36832.72
540.15	36230.62
540.35	37029.32
540.55	36824.53
540.75	36636.11
540.96	36867.53
541.16	36851.15
541.36	37465.54
541.56	37178.82
541.77	37778.88
541.97	37514.69
542.17	37713.34
542.37	37916.09
542.58	38204.86
542.78	37545.41
542.98	37526.98
543.18	37893.57
543.38	38409.65
543.59	38104.51
543.79	37709.25
543.99	37969.34
544.19	38665.65
544.40	38335.93
544.60	38616.50
544.80	38530.48
545.00	38542.77
545.20	38806.96
545.41	38555.06
545.61	38608.31
545.81	38931.89
546.01	39077.29
546.21	39071.15
546.42	39200.17
546.62	39744.93
546.82	39056.81
547.02	39136.68
547.22	39343.53
547.43	38960.56
547.63	39007.66
547.83	39450.02
548.03	39452.07
548.23	39591.33
548.44	39730.59
548.64	39589.28
548.84	39771.55
549.04	39984.54
549.24	39863.71
549.45	40095.13
549.65	40041.88
549.85	39962.01
550.05	40242.59
550.25	39861.66
550.45	40365.46
550.66	40132.00
550.86	40111.52
551.06	40545.69
551.26	40758.67
551.46	40650.13
551.66	40789.39
551.87	40379.80
552.07	40525.21
552.27	40805.78
552.47	40641.94
552.67	40754.58
552.87	40695.19
553.07	41211.28
553.28	41129.36
553.48	40895.89
553.68	40973.71
553.88	41330.06
554.08	40920.46
554.28	41182.60
554.48	41117.07
554.69	41352.58
554.89	41311.63
555.09	41332.11
555.29	41139.60
555.49	41512.33
555.69	41317.77
555.89	41340.30
556.10	41776.51
556.30	41272.71
556.50	41844.10
556.70	41987.46
556.90	41813.38
557.10	42063.23
557.30	41670.02
557.50	41710.98
557.70	41872.77
557.91	42286.46
558.11	42116.48
558.31	42159.48
558.51	41930.11
558.71	42374.52
558.91	42530.17
559.11	42096.00
559.31	42382.71
559.51	42040.70
559.72	42495.35
559.92	42667.38
560.12	42442.10
560.32	42087.81
560.52	42425.72
560.72	42347.90
560.92	42474.87
561.12	42663.28
561.32	42990.96
561.52	42685.81
561.72	42601.85
561.93	42837.36
562.13	42935.66
562.33	42245.50
562.53	43380.07
562.73	42913.14
562.93	42804.59
563.13	43275.63
563.33	43224.43
563.53	43384.17
563.73	42937.71
563.93	43064.69
564.13	43824.48
564.33	43232.62
564.53	43507.05
564.74	43801.96
564.94	43302.25
565.14	43410.79
565.34	43208.04
565.54	43146.61
565.74	43363.69
565.94	43863.39
566.14	43341.16
566.34	43709.80
566.54	44111.20
566.74	43670.89
566.94	44217.69
567.14	44098.91
567.34	43701.61
567.54	43881.83
567.74	43687.27
567.94	43804.00
568.14	44119.39
568.34	44232.03
568.54	43994.46
568.74	44502.36
568.94	44219.74
569.14	44283.23
569.34	44469.59
569.54	44582.23
569.75	44090.72
569.95	44211.55
570.15	44746.07
570.35	44342.62
570.55	44354.91
570.75	44467.55
570.95	44123.49
571.15	44694.87
571.35	44510.55
571.55	45026.64
571.75	44606.81
571.95	44557.66
572.15	44619.10
572.35	44621.14
572.55	44967.25
572.75	44711.25
572.95	45159.76
573.15	44864.85
573.35	45303.12
573.55	45100.37
573.75	45018.45
573.95	45399.37
574.15	45065.55
574.35	45020.50
574.55	45139.28
574.75	45096.27
574.95	45505.87
575.15	45067.60
575.34	45675.85
575.54	45456.71
575.74	45880.64
575.94	46112.06
576.14	45888.84
576.34	45962.56
576.54	46120.26
576.74	46150.98
576.94	45430.09
577.14	45983.04
577.34	46400.83
577.54	45851.97
577.74	45987.14
577.94	46042.43
578.14	45999.43
578.34	46660.92
578.54	46193.98
578.74	46105.92
578.94	46523.71
579.14	46052.67
579.34	45931.84
579.54	46521.66
579.74	46859.57
579.94	46421.31
580.13	46736.69
580.33	46939.44
580.53	46984.50
580.73	47220.02
580.93	46767.41
581.13	47179.06
581.33	47158.58
581.53	47316.27
581.73	47318.32
581.93	47723.82
582.13	47363.37
582.33	46898.48
582.53	46941.49
582.73	47756.58
582.92	47428.91
583.12	47752.49
583.32	47666.47
583.52	47406.38
583.72	47875.37
583.92	47465.77
584.12	47527.21
584.32	48432.41
584.52	48164.13
584.72	47994.15
584.92	48215.33
585.11	48174.37
585.31	48057.63
585.51	48280.86
585.71	48065.83
585.91	48747.80
586.11	48092.45
586.31	48186.66
586.51	48196.90
586.71	48424.22
586.91	48551.20
587.10	48305.44
587.30	48629.02
587.50	48561.44
587.70	48852.25
587.90	49159.44
588.10	49145.11
588.30	48950.55
588.50	49003.80
588.69	49110.29
588.89	48684.31
589.09	49069.33
589.29	49206.55
589.49	49380.62
589.69	48887.06
589.89	49620.23
590.08	49489.16
590.28	49222.93
590.48	49313.04
590.68	49394.96
590.88	49370.38
591.08	49167.63
591.28	49237.26
591.47	49863.94
591.67	49493.26
591.87	50076.93
592.07	49530.12
592.27	49990.92
592.47	49943.81
592.67	49714.44
592.86	49472.78
593.06	49913.09
593.26	49802.50
593.46	49992.97
593.66	50136.32
593.86	49894.66
594.05	50291.97
594.25	50099.46
594.45	50496.77
594.65	50078.98
594.85	49724.68
595.05	50763.00
595.24	50494.72
595.44	49982.73
595.64	50349.31
595.84	50525.44
596.04	50640.12
596.23	50887.93
596.43	50781.43
596.63	50777.34
596.83	50799.86
597.03	51086.58
597.22	51117.30
597.42	50629.88
597.62	51070.20
597.82	50894.07
598.02	50922.74
598.21	50803.96
598.41	50636.03
598.61	51223.79
598.81	51197.17
599.01	51678.44
599.20	51410.16
599.40	51322.10
599.60	51690.73
599.80	51490.03
600.00	51582.19
600.19	52147.43
600.39	51631.34
600.59	51868.90
600.79	51635.44
600.98	51711.21
601.18	51674.35
601.38	51682.54
601.58	52280.55
601.78	51997.93
601.97	52350.18
602.17	52358.37
602.37	52382.94
602.57	52335.84
602.76	52659.42
602.96	51930.34
603.16	52339.94
603.36	52335.84
603.55	52868.31
603.75	52610.27
603.95	52862.17
604.15	52651.23
604.34	52417.76
604.54	53019.86
604.74	52999.38
604.94	52829.40
605.13	52778.20
605.33	52626.65
605.53	52821.21
605.73	53679.31
605.92	52911.32
606.12	53214.42
606.32	53394.64
606.52	53376.21
606.71	53691.60
606.91	53558.48
607.11	53122.26
607.30	53638.35
607.50	53161.17
607.70	53494.99
607.90	53294.29
608.09	53546.19
608.29	53380.31
608.49	53568.72
608.68	53982.41
608.88	53599.44
609.08	53851.34
609.28	54066.38
609.47	53595.34
609.67	54480.06
609.87	53789.90
610.06	54066.38
610.26	53920.97
610.46	54254.79
610.66	53963.98
610.85	54060.23
611.05	53443.79
611.25	54467.78
611.44	54389.95
611.64	53558.48
611.84	54156.49
612.03	54281.41
612.23	54222.02
612.43	54185.16
612.62	53972.17
612.82	54299.84
613.02	54217.92
613.21	54615.23
613.41	53982.41
613.61	54461.63
613.80	53705.93
614.00	54478.02
614.20	54058.18
614.39	54404.29
614.59	54488.26
614.79	54269.12
614.98	54635.71
615.18	54420.67
615.38	54668.48
615.57	54283.46
615.77	54869.18
615.97	54490.30
616.16	54731.96
616.36	54281.41
616.56	54625.47
616.75	54441.15
616.95	54305.99
617.15	54353.09
617.34	54265.03
617.54	54314.18
617.74	54672.57
617.93	54801.60
618.13	54254.79
618.32	54852.80
618.52	54240.45
618.72	54408.39
618.91	54613.18
619.11	54377.67
619.31	54858.94
619.50	54334.66
619.70	54125.77
619.90	54557.89
620.09	54883.51
620.29	54617.28
620.48	54822.08
620.68	54834.36
620.88	53820.62
621.07	54793.40
621.27	54408.39
621.46	53849.29
621.66	54607.04
621.86	54627.52
622.05	54719.68
622.25	54994.10
622.44	54273.22
622.64	54348.99
622.84	54744.25
623.03	54553.79
623.23	54961.34
623.42	54942.91
623.62	55000.25
623.82	54703.29
624.01	54736.06
624.21	54592.70
624.40	54756.54
624.60	54422.72
624.80	54488.26
624.99	54762.68
625.19	53892.30
625.38	54361.28
625.58	54897.85
625.77	54381.76
625.97	54731.96
626.17	54410.43
626.36	54633.66
626.56	54832.32
626.75	54029.51
626.95	54973.63
627.14	54631.61
627.34	55182.52
627.54	54650.05
627.73	54639.81
627.93	54695.10
628.12	53978.31
628.32	54654.14
628.51	54695.10
628.71	54744.25
628.90	54744.25
629.10	54529.22
629.30	54580.42
629.49	54953.15
629.69	54572.22
629.88	54506.69
630.08	55286.96
630.27	54637.76
630.47	55022.78
630.66	54256.84
630.86	54662.33
631.05	53949.64
631.25	55037.11
631.44	55231.67
631.64	54584.51
631.84	54809.79
632.03	55084.22
632.23	54703.29
632.42	55162.04
632.62	54897.85
632.81	54301.89
633.01	54957.24
633.20	55006.39
633.40	54965.43
633.59	54863.03
633.79	54121.67
633.98	55186.61
634.18	55057.59
634.37	55133.37
634.57	54820.03
634.76	54965.43
634.96	55334.07
635.15	54961.34
635.35	54705.34
635.54	54938.81
635.74	55229.62
635.93	54899.90
636.13	55442.61
636.32	55354.55
636.52	54908.09
636.71	55026.87
636.91	55227.57
637.10	55313.59
637.30	55121.08
637.49	54879.42
637.69	55379.12
637.88	55123.13
638.08	54906.04
638.27	55256.24
638.46	55151.80
638.66	54621.37
638.85	54760.64
639.05	55067.83
639.24	55159.99
639.44	54791.36
639.63	55456.95
639.83	55205.05
640.02	55424.18
640.22	55352.50
640.41	55762.09
640.61	54736.06
640.80	55549.10
640.99	55211.19
641.19	55956.65
641.38	55073.98
641.58	55440.56
641.77	55041.21
641.97	55145.65
642.16	54987.96
642.36	55942.31
642.55	55598.26
642.74	55428.27
642.94	55964.84
643.13	55420.08
643.33	55585.97
643.52	55723.18
643.72	55784.62
643.91	55379.12
644.10	55702.70
644.30	55694.51
644.49	55598.26
644.69	55694.51
644.88	55215.29
645.08	55647.41
645.27	56345.76
645.46	55321.78
645.66	55622.83
645.85	55174.33
646.05	56114.34
646.24	55946.41
646.43	55682.22
646.63	55753.90
646.82	56259.75
647.02	56272.04
647.21	56161.45
647.40	55690.41
647.60	56102.06
647.79	56147.11
647.99	55878.83
648.18	55698.61
648.37	56341.67
648.57	56194.21
648.76	55973.03
648.96	55864.49
649.15	56018.09
649.34	56143.02
649.54	55956.65
649.73	55874.73
649.92	56036.52
650.12	55696.56
650.31	56165.54
650.51	56329.38
650.70	56489.12
650.89	56157.35
651.09	56908.96
651.28	56394.92
651.47	56278.18
651.67	56181.93
651.86	56628.38
652.06	55735.47
652.25	56507.55
652.44	56456.35
652.64	56243.37
652.83	55710.89
653.02	55758.00
653.22	56284.33
653.41	56181.93
653.60	55839.92
653.80	56065.19
653.99	56407.20
654.18	55516.34
654.38	55975.08
654.57	56761.50
654.76	55884.97
654.96	56243.37
655.15	56241.32
655.34	56374.44
655.54	56255.65
655.73	56464.55
655.92	56517.79
656.12	56140.97
656.31	56577.18
656.50	56198.31
656.70	56499.36
656.89	56499.36
657.08	56689.82
657.28	56351.91
657.47	56401.06
657.66	56814.75
657.86	56458.40
658.05	56458.40
658.24	56609.95
658.43	56648.86
658.63	56779.93
658.82	56269.99
659.01	56896.67
659.21	56990.87
659.40	56751.26
659.59	56650.91
659.79	56792.22
659.98	56831.13
660.17	56724.64
660.36	56468.64
660.56	56435.87
660.75	56741.02
660.94	56681.63
661.14	56532.13
661.33	56761.50
661.52	56439.97
661.71	56972.44
661.91	56843.42
662.10	56562.85
662.29	56917.15
662.49	56603.81
662.68	56509.60
662.87	56794.27
663.06	56861.85
663.26	56648.86
663.45	56673.44
663.64	56315.04
663.83	56835.23
664.03	57068.70
664.22	57259.16
664.41	56726.69
664.60	56450.21
664.80	57023.64
664.99	56505.51
665.18	56808.61
665.37	56878.24
665.57	56923.29
665.76	56638.62
665.95	57087.13
666.14	56861.85
666.34	57193.62
666.53	56169.64
666.72	56265.89
666.91	56599.71
667.11	56599.71
667.30	56712.35
667.49	56843.42
667.68	56824.99
667.87	56837.28
668.07	56900.76
668.26	56525.99
668.45	56753.31
668.64	56169.64
668.84	57195.67
669.03	56986.78
669.22	56902.81
669.41	56855.71
669.60	56792.22
669.80	56671.39
669.99	56800.41
670.18	56763.55
670.37	57177.24
670.57	56945.82
670.76	56810.65
670.95	57117.85
671.14	57140.38
671.33	56612.00
671.53	57019.55
671.72	56609.95
671.91	56396.96
672.10	56706.21
672.29	56560.80
672.48	56743.07
672.68	57242.77
672.87	56667.30
673.06	56837.28
673.25	56722.59
673.44	56804.51
673.64	57060.51
673.83	56513.70
674.02	56704.16
674.21	56605.86
674.40	56566.94
674.59	56136.87
674.79	57019.55
674.98	56177.83
675.17	56614.05
675.36	56464.55
675.55	56499.36
675.74	56190.12
675.94	56454.31
676.13	56626.34
676.32	56534.18
676.51	57296.02
676.70	56706.21
676.89	56509.60
677.08	56808.61
677.28	56333.48
677.47	56898.72
677.66	56714.40
677.85	56628.38
678.04	56943.77
678.23	56571.04
678.42	57058.46
678.62	56595.62
678.81	56439.97
679.00	56515.75
679.19	57007.26
679.38	56261.80
679.57	56730.78
679.76	56640.67
679.96	56698.01
680.15	56403.11
680.34	56618.14
680.53	56616.10
680.72	56759.45
680.91	56945.82
681.10	55962.79
681.29	56896.67
681.48	56353.96
681.68	56538.27
681.87	56648.86
682.06	56335.52
682.25	56116.39
682.44	56300.71
682.63	56284.33
682.82	56016.04
683.01	55932.07
683.20	56001.71
683.39	56071.34
683.59	55848.11
683.78	56106.15
683.97	55932.07
684.16	55952.55
684.35	55669.93
684.54	55893.16
684.73	55962.79
684.92	56237.22
685.11	55815.34
685.30	55737.52
685.49	56022.19
685.69	56210.60
685.88	55884.97
686.07	55682.22
686.26	55887.02
686.45	56122.54
686.64	55731.37
686.83	55852.20
687.02	55450.80
687.21	55995.56
687.40	55870.64
687.59	56009.90
687.78	55829.68
687.97	56231.08
688.16	55903.40
688.35	55645.36
688.54	55522.48
688.74	55639.22
688.93	55350.45
689.12	55686.32
689.31	55116.98
689.50	55631.02
689.69	55311.54
689.88	55055.54
690.07	55782.57
690.26	55442.61
690.45	55844.01
690.64	55375.03
690.83	55145.65
691.02	55309.49
691.21	55547.06
691.40	55096.50
691.59	55510.19
691.78	55133.37
691.97	55299.25
692.16	55364.79
692.35	55588.02
692.54	55256.24
692.73	55127.22
692.92	55518.38
693.11	55508.14
693.30	55211.19
693.49	55291.06
693.68	55246.00
693.87	55221.43
694.06	55119.03
694.25	54547.65
694.44	54723.77
694.63	54973.63
694.82	54756.54
695.01	54877.37
695.20	54711.49
695.39	54611.13
695.58	54801.60
695.77	54897.85
695.96	54498.50
696.15	55026.87
696.34	54498.50
696.53	54637.76
696.72	54893.75
696.91	54793.40
697.10	54670.53
697.29	54394.05
697.48	55262.39
697.67	54514.88
697.86	54017.22
698.05	54813.88
698.24	54521.02
698.43	53994.70
698.62	54525.12
698.81	54338.75
699.00	54486.21
699.19	54209.73
699.38	54230.21
699.57	53908.68
699.76	54496.45
699.95	53902.54
700.14	54533.31
700.32	54076.61
700.51	54365.38
700.70	54985.91
700.89	54508.74
701.08	54330.56
701.27	54072.52
701.46	54609.09
701.65	53900.49
701.84	53644.49
702.03	53843.15
702.22	53667.02
702.41	53937.35
702.60	53980.36
702.79	53494.99
702.98	53816.52
703.17	53789.90
703.35	53589.20
703.54	53327.06
703.73	53892.30
703.92	53603.53
704.11	53382.35
704.30	53581.01
704.49	53511.38
704.68	53470.42
704.87	53558.48
705.06	53494.99
705.25	53310.67
705.43	53220.56
705.62	53423.31
705.81	53028.05
706.00	53073.11
706.19	53122.26
706.38	53069.01
706.57	53042.39
706.76	53159.12
706.95	53208.28
707.14	52833.50
707.32	53023.96
707.51	52952.28
707.70	52751.58
707.89	52671.71
708.08	52655.32
708.27	52919.51
708.46	53523.66
708.65	53134.55
708.84	52983.00
709.02	53390.55
709.21	53062.87
709.40	52671.71
709.59	52815.07
709.78	52716.76
709.97	53040.34
710.16	52544.73
710.34	52466.91
710.53	52729.05
710.72	52356.32
710.91	52471.01
711.10	53009.62
711.29	53140.69
711.48	52561.12
711.66	52438.24
711.85	52200.68
712.04	52346.08
712.23	52620.51
712.42	52286.69
712.61	52706.52
712.80	52387.04
712.98	52323.55
713.17	51774.70
713.36	51873.00
713.55	52047.08
713.74	52215.01
713.93	52079.85
714.11	52200.68
714.30	51928.30
714.49	51801.32
714.68	52032.74
714.87	52272.35
715.06	52313.31
715.24	51653.87
715.43	51889.38
715.62	51180.79
715.81	51891.43
716.00	51795.18
716.18	51434.74
716.37	51246.32
716.56	51272.95
716.75	51682.54
716.94	51686.64
717.12	51438.83
717.31	51657.96
717.50	51578.09
717.69	51223.79
717.88	51375.34
718.06	51068.15
718.25	51389.68
718.44	51225.84
718.63	51203.31
718.82	50918.65
719.00	50887.93
719.19	51082.48
719.38	50826.49
719.57	50719.99
719.76	50498.81
719.94	50277.63
720.13	50404.61
720.32	50222.34
720.51	50617.60
720.69	50529.53
720.88	50433.28
721.07	50324.74
721.26	50056.45
721.44	50572.54
721.63	50015.49
721.82	49999.11
722.01	49927.43
722.20	50175.23
722.38	49724.68
722.57	49722.63
722.76	49952.01
722.95	49898.76
723.13	49241.36
723.32	49587.47
723.51	49513.74
723.70	49427.73
723.88	49806.60
724.07	49282.32
724.26	49515.79
724.44	48784.66
724.63	49452.30
724.82	48977.17
725.01	48856.34
725.19	49339.66
725.38	49317.14
725.57	49470.73
725.76	48944.41
725.94	48913.69
726.13	48936.21
726.32	49077.52
726.51	49118.48
726.69	49235.22
726.88	49057.04
727.07	49181.97
727.25	48596.25
727.44	48749.85
727.63	48760.09
727.82	48999.70
728.00	48690.46
728.19	48991.51
728.38	49308.94
728.56	48254.24
728.75	48600.35
728.94	48366.88
729.12	49141.01
729.31	48790.81
729.50	48694.55
729.69	48624.92
729.87	48739.61
730.06	48842.01
730.25	48786.71
730.43	49204.50
730.62	48389.41
730.81	48624.92
730.99	48493.85
731.18	48469.28
731.37	48858.39
731.55	48801.05
731.74	48866.58
731.93	49001.75
732.11	48715.03
732.30	48667.93
732.49	48940.31
732.67	48379.17
732.86	48528.67
733.05	48706.84
733.23	48014.63
733.42	48581.91
733.61	48422.17
733.79	48211.23
733.98	49118.48
734.17	48311.58
734.35	48768.28
734.54	48540.96
734.73	48651.55
734.91	48426.27
735.10	48139.55
735.29	49018.13
735.47	48149.79
735.66	48276.77
735.84	48383.26
736.03	48418.08
736.22	48989.46
736.40	48078.11
736.59	48379.17
736.78	48448.80
736.96	47920.42
737.15	48379.17
737.33	48180.51
737.52	48108.83
737.71	47850.79
737.89	47770.92
738.08	47435.05
738.27	47492.40
738.45	48129.31
738.64	48031.01
738.82	47693.10
739.01	48166.18
739.20	48092.45
739.38	47662.38
739.57	47897.89
739.75	47621.42
739.94	47881.51
740.13	47543.59
740.31	47656.23
740.50	47189.30
740.68	47846.69
740.87	47250.74
741.06	47537.45
741.24	47582.51
741.43	47322.41
741.61	47379.76
741.80	47412.52
741.99	47486.25
742.17	47414.57
742.36	47426.86
742.54	46880.05
742.73	47306.03
742.91	47643.94
743.10	46929.20
743.29	47293.74
743.47	47709.48
743.66	47086.90
743.84	47453.48
744.03	47422.76
744.21	47074.61
744.40	47179.06
744.59	47224.11
744.77	46802.23
744.96	46753.08
745.14	47490.35
745.33	46691.64
745.51	46865.72
745.70	47064.37
745.88	47324.46
746.07	46896.44
746.26	46652.73
746.44	46611.77
746.63	47041.84
746.81	46888.24
747.00	46425.40
747.18	46507.32
747.37	47076.66
747.55	46765.37
747.74	46853.43
747.92	46148.93
748.11	46130.50
748.29	47023.41
748.48	46665.02
748.66	45905.22
748.85	46327.10
749.03	46519.61
749.22	46368.06
749.41	46325.05
749.59	46439.74
749.78	45942.08
749.96	46257.47
750.15	46198.08
750.33	46064.96
750.52	45641.03
750.70	46247.23
750.89	45507.91
751.07	45475.15
751.26	46110.02
751.44	45935.94
751.63	45704.52
751.81	45995.33
752.00	45630.79
752.18	46030.15
752.37	45890.88
752.55	45272.40
752.74	45493.58
752.92	45837.64
753.10	45571.40
753.29	45163.85
753.47	45530.44
753.66	45192.53
753.84	45729.09
754.03	45208.91
754.21	45124.94
754.40	45284.68
754.58	45741.38
754.77	45378.89
754.95	45010.26
755.14	45114.70
755.32	45245.77
755.51	44911.95
755.69	44744.02
755.88	45108.56
756.06	44954.96
756.24	44889.43
756.43	44877.14
756.61	45014.35
756.80	44815.70
756.98	44406.11
757.17	44668.25
757.35	44922.19
757.54	44526.94
757.72	44545.37
757.90	44510.55
758.09	44328.28
758.27	44279.13
758.46	44236.12
758.64	44205.41
758.83	44615.00
759.01	44807.51
759.19	44135.77
759.38	44129.63
759.56	44641.62
759.75	44313.95
759.93	44242.27
760.12	44035.42
760.30	44229.98
760.48	44211.55
760.67	44148.06
760.85	44072.29
761.04	44320.09
761.22	44375.39
761.40	44309.85
761.59	44182.88
761.77	43976.03
761.96	43812.20
762.14	43619.69
762.32	44008.80
762.51	43642.21
762.69	43570.54
762.88	43717.99
763.06	43713.89
763.24	43736.42
763.43	43609.45
763.61	43179.37
763.80	43423.08
763.98	43330.92
764.16	43468.14
764.35	43636.07
764.53	42958.19
764.72	43144.56
764.90	42894.71
765.08	43103.60
765.27	43406.70
765.45	42880.37
765.63	42784.12
765.82	42986.86
766.00	42737.01
766.18	42876.27
766.37	43126.13
766.55	42800.50
766.74	43113.84
766.92	42931.57
767.10	42521.98
767.29	42567.03
767.47	42198.40
767.65	42726.77
767.84	42005.89
768.02	42610.04
768.20	42374.52
768.39	42409.34
768.57	42534.26
768.75	42313.08
768.94	42388.86
769.12	42360.19
769.30	42104.19
769.49	42327.42
769.67	41737.60
769.85	41840.00
770.04	41887.10
770.22	42046.85
770.40	41600.39
770.59	41645.44
770.77	41856.39
770.95	41311.63
771.14	41293.19
771.32	41063.82
771.50	41158.03
771.69	41323.91
771.87	41493.89
772.05	41237.90
772.24	41229.71
772.42	41315.72
772.60	41336.20
772.78	40869.26
772.97	40916.37
773.15	41651.59
773.33	40670.61
773.52	40834.45
773.70	41215.37
773.88	41155.98
774.07	40713.62
774.25	40918.42
774.43	41090.44
774.61	41373.06
774.80	41395.59
774.98	40887.70
775.16	41303.43
775.34	41256.33
775.53	41043.34
775.71	41393.54
775.89	40750.48
776.08	40785.30
776.26	41246.09
776.44	41045.39
776.62	41270.67
776.81	41047.44
776.99	41221.52
777.17	41336.20
777.35	41323.91
777.54	41543.05
777.72	41293.19
777.90	41252.23
778.08	41518.47
778.27	41145.74
778.45	41436.55
778.63	41766.27
778.81	41285.00
779.00	42407.29
779.18	41291.15
779.36	41917.82
779.54	41504.13
779.73	41778.56
779.91	41643.40
780.09	41555.33
780.27	41897.34
780.46	41860.48
780.64	41772.42
780.82	41395.59
781.00	41590.15
781.19	41848.19
781.37	42306.94
781.55	42237.31
781.73	42184.06
781.91	41747.84
782.10	41737.60
782.28	42108.29
782.46	41934.21
782.64	41844.10
782.82	41694.60
783.01	42548.60
783.19	41964.93
783.37	42106.24
783.55	41704.84
783.74	42083.71
783.92	42210.68
784.10	42485.11
784.28	42171.77
784.46	41735.56
784.64	41827.71
784.83	41930.11
785.01	42139.00
785.19	42278.27
785.37	42341.75
785.55	41813.38
785.74	41772.42
785.92	41354.63
786.10	41911.68
786.28	41739.65
786.46	41647.49
786.64	41348.49
786.83	41549.19
787.01	41844.10
787.19	41653.64
787.37	41870.72
787.55	41651.59
787.74	41575.81
787.92	41813.38
788.10	41270.67
788.28	41010.57
788.46	41502.09
788.64	41235.85
788.82	41289.10
789.01	41395.59
789.19	41530.76
789.37	41416.07
789.55	41381.26
789.73	40768.91
789.91	41178.51
790.09	41078.16
790.28	40764.82
790.46	40381.85
790.64	41112.97
790.82	40721.81
791.00	40697.24
791.18	40555.93
791.36	40512.92
791.55	40482.20
791.73	40527.25
791.91	40195.48
792.09	40400.28
792.27	40261.02
792.45	40273.31
792.63	40326.55
792.81	39734.69
793.00	39884.19
793.18	40043.93
793.36	39839.14
793.54	39568.80
793.72	39687.59
793.90	39712.16
794.08	39552.42
794.26	39550.37
794.44	38860.21
794.62	39216.55
794.81	38970.80
794.99	39388.58
795.17	38874.54
795.35	39085.48
795.53	38759.86
795.71	39456.17
795.89	38899.12
796.07	38604.21
796.25	38239.67
796.43	38284.73
796.61	37938.62
796.80	37897.66
796.98	38116.79
797.16	37590.47
797.34	38444.47
797.52	37864.89
797.70	37866.94
797.88	38131.13
798.06	37572.03
798.24	37658.05
798.42	37551.56
798.60	37758.40
798.78	37254.60
798.96	37504.45
799.14	37500.36
799.32	37408.20
799.51	37062.09
799.69	37096.91
799.87	37002.70
800.05	36867.53
800.23	36691.41
800.41	36822.48
800.59	36689.36
800.77	36337.11
800.95	36429.27
801.13	36470.23
801.31	36328.92
801.49	36449.75
801.67	36160.98
801.85	36005.34
802.03	35845.60
802.21	36382.16
802.39	35636.70
802.57	35364.32
802.75	35597.79
802.93	35487.20
803.11	35450.34
803.29	35669.47
803.47	35266.02
803.65	35687.90
803.83	35476.96
804.01	35319.27
804.19	34799.08
804.37	34977.26
804.55	34993.64
804.73	35173.86
804.91	35063.27
805.09	34543.09
805.27	34743.79
805.45	34911.72
805.63	34911.72
805.81	34248.18
805.99	34280.95
806.17	34633.20
806.35	34024.95
806.53	34317.81
806.71	34248.18
806.89	34360.82
807.07	34428.40
807.25	34194.93
807.43	33852.92
807.61	34203.13
807.79	33912.31
807.97	33551.87
808.15	33506.82
808.33	33572.35
808.51	33351.17
808.69	33543.68
808.87	33162.76
809.05	33146.37
809.23	32818.70
809.41	32835.08
809.59	33050.12
809.77	33150.47
809.95	33070.60
810.13	32917.00
810.31	32765.45
810.49	33093.13
810.67	32802.32
810.84	32773.64
811.02	32554.51
811.20	32355.86
811.38	32638.48
811.56	32390.67
811.74	32081.43
811.92	32269.84
812.10	32650.77
812.28	32462.35
812.46	32355.86
812.64	32116.25
812.82	32187.92
813.00	31950.36
813.18	31931.93
813.36	31882.78
813.53	32085.53
813.71	31692.32
813.89	31561.25
814.07	31256.10
814.25	31839.77
814.43	31321.63
814.61	31538.72
814.79	31546.91
814.97	31538.72
815.15	31295.01
815.33	31010.34
815.50	30967.34
815.68	31133.22
815.86	31198.76
816.04	31229.48
816.22	30623.28
816.40	30918.18
816.58	30819.88
816.76	30510.64
816.94	30637.61
817.11	30535.21
817.29	30387.76
817.47	30279.22
817.65	30596.65
817.83	30635.56
818.01	30225.97
818.19	30645.80
818.37	30408.24
818.54	30178.87
818.72	30158.39
818.90	30287.41
819.08	30015.03
819.26	29832.76
819.44	29693.50
819.62	29953.59
819.80	30035.51
819.97	29820.47
820.15	29926.97
820.33	29539.90
820.51	29756.99
820.69	29556.28
820.87	29570.62
821.05	29572.67
821.22	29339.20
821.40	29560.38
821.58	29324.86
821.76	29064.77
821.94	29265.47
822.12	29187.65
822.29	29455.93
822.47	29328.96
822.65	29269.57
822.83	29173.31
823.01	29304.38
823.19	29165.12
823.36	28812.87
823.54	29066.82
823.72	29050.44
823.90	28823.11
824.08	28368.46
824.25	28851.78
824.43	28280.40
824.61	28806.73
824.79	28689.99
824.97	28464.72
825.15	28663.37
825.32	28468.81
825.50	28499.53
825.68	28382.80
825.86	28530.25
826.04	28417.61
826.21	28264.02
826.39	28524.11
826.57	28423.76
826.75	28313.17
826.93	27954.77
827.10	28073.56
827.28	27936.34
827.46	28005.97
827.64	28069.46
827.81	28030.55
827.99	28046.93
828.17	27752.02
828.35	27715.16
828.53	27811.42
828.70	27446.88
828.88	27919.96
829.06	27668.06
829.24	27756.12
829.41	27551.32
829.59	27623.00
829.77	27381.34
829.95	27389.53
830.12	27301.47
830.30	27420.25
830.48	27502.17
830.66	27280.99
830.84	27557.47
831.01	27035.24
831.19	27227.74
831.37	27289.18
831.55	27072.10
831.72	26945.12
831.90	26975.84
832.08	27201.12
832.25	26920.55
832.43	27283.04
832.61	26926.69
832.79	27016.80
832.96	26891.88
833.14	26764.90
833.32	27123.30
833.50	27004.52
833.67	26586.73
833.85	26441.32
834.03	26355.31
834.20	26691.18
834.38	26607.21
834.56	26377.84
834.74	26295.92
834.91	26508.91
835.09	26115.70
835.27	26244.72
835.44	26052.21
835.62	26046.07
835.80	26261.10
835.98	26388.08
836.15	26123.89
836.33	26386.03
836.51	26273.39
836.68	26201.71
836.86	26037.87
837.04	26113.65
837.21	26271.34
837.39	26201.71
837.57	26224.24
837.75	26023.54
837.92	25667.19
838.10	25841.27
838.28	25564.79
838.45	25726.58
838.63	25644.66
838.81	25704.06
838.98	25497.21
839.16	25190.02
839.34	25437.82
839.51	25392.76
839.69	25335.42
839.87	25337.47
840.04	25433.72
840.22	25634.42
840.40	25243.26
840.57	25181.82
840.75	25147.01
840.93	25114.24
841.10	25130.62
841.28	25341.57
841.46	25237.12
841.63	25101.95
841.81	24835.72
841.98	24934.02
842.16	24979.07
842.34	24929.92
842.51	24684.17
842.69	25130.62
842.87	25087.62
843.04	24884.87
843.22	24440.46
843.40	24649.35
843.57	24600.20
843.75	24893.06
843.92	24630.92
844.10	24704.65
844.28	24815.24
844.45	25040.51
844.63	24684.17
844.81	24546.95
844.98	24499.85
845.16	24368.78
845.33	24553.10
845.51	24585.86
845.69	24624.78
845.86	24262.29
846.04	24186.51
846.21	24284.81
846.39	24149.65
846.57	24391.31
846.74	24153.74
846.92	24262.29
847.09	24041.11
847.27	23877.27
847.45	24053.39
847.62	23994.00
847.80	24020.63
847.97	24071.82
848.15	23860.88
848.32	23926.42
848.50	23977.62
848.68	23654.04
848.85	23877.27
849.03	23418.52
849.20	24084.11
849.38	23711.38
849.56	23688.85
849.73	23510.68
849.91	23594.65
850.08	23735.96
850.26	23396.00
850.43	23447.19
850.61	23641.75
850.78	23264.92
850.96	23398.04
851.14	23373.47
851.31	23408.28
851.49	23303.84
851.66	23565.98
851.84	23053.98
852.01	23183.01
852.19	23506.59
852.36	23150.24
852.54	23088.80
852.71	23049.89
852.89	22972.07
853.07	22972.07
853.24	23432.86
853.42	23105.18
853.59	23080.61
853.77	23301.79
853.94	23336.60
854.12	23367.32
854.29	22607.53
854.47	22785.70
854.64	22496.94
854.82	22875.81
854.99	22965.92
855.17	22967.97
855.34	22754.98
855.52	22541.99
855.69	22716.07
855.87	22677.16
856.04	22695.59
856.22	22857.38
856.39	22451.88
856.57	22400.68
856.74	22458.03
856.92	22460.07
857.09	22302.38
857.27	22294.19
857.44	22531.75
857.62	22564.52
857.79	22468.27
857.97	22128.30
858.14	22116.01
858.32	22230.70
858.49	22081.20
858.67	22050.48
858.84	21993.14
859.02	22034.10
859.19	22070.96
859.37	21749.43
859.54	22294.19
859.72	22091.44
859.89	22058.67
860.06	22288.04
860.24	21943.99
860.41	21989.04
860.59	21784.24
860.76	21835.44
860.94	21649.08
861.11	21993.14
861.29	21798.58
861.46	21647.03
861.64	21532.34
861.81	21515.96
861.98	21669.56
862.16	21714.61
862.33	21262.01
862.51	21421.75
862.68	21556.92
862.86	21253.82
863.03	21550.78
863.21	21415.61
863.38	20958.91
863.55	21401.27
863.73	21243.58
863.90	21206.72
864.08	21284.54
864.25	21262.01
864.43	21198.52
864.60	20958.91
864.77	21055.17
864.95	20864.71
865.12	20852.42
865.30	21243.58
865.47	20737.73
865.64	20819.65
865.82	20967.10
865.99	20747.97
866.17	20901.57
866.34	21227.20
866.51	20723.40
866.69	20717.25
866.86	21055.17
867.04	21061.31
867.21	20754.12
867.38	20719.30
867.56	20436.68
867.73	20442.82
867.91	20573.89
868.08	20537.03
868.25	20426.44
868.43	20385.48
868.60	20129.48
868.78	20035.28
868.95	20539.08
869.12	20115.15
869.30	20041.42
869.47	20215.50
869.64	20020.94
869.82	20213.45
869.99	20328.14
870.16	20281.03
870.34	20186.83
870.51	20248.27
870.69	20033.23
870.86	20225.74
871.03	19914.45
871.21	19877.58
871.38	20055.76
871.55	19738.32
871.73	19594.96
871.90	19680.98
872.07	19654.36
872.25	19521.24
872.42	19709.65
872.59	19621.59
872.77	19543.77
872.94	19369.69
873.11	19416.79
873.29	19570.39
873.46	19418.84
873.63	19248.86
873.81	19402.46
873.98	19263.19
874.15	19341.02
874.33	19148.51
874.50	18958.05
874.67	19099.36
874.85	18960.09
875.02	19031.77
875.19	18454.25
875.37	18921.18
875.54	18800.35
875.71	19162.84
875.88	18894.56
876.06	18822.88
876.23	18863.84
876.40	18671.33
876.58	18630.37
876.75	18743.01
876.92	18546.40
877.10	18874.08
877.27	18681.57
877.44	18519.78
877.61	18282.22
877.79	18575.08
877.96	18495.21
878.13	18343.66
878.31	18058.99
878.48	18190.06
878.65	18013.93
878.82	18020.08
879.00	18026.22
879.17	17985.26
879.34	18280.17
879.51	18061.04
879.69	17962.73
879.86	18175.72
880.03	17913.58
880.21	17649.39
880.38	18046.70
880.55	17983.21
880.72	18048.75
880.90	17788.66
881.07	17856.24
881.24	17899.25
881.41	17710.83
881.59	17444.60
881.76	17700.59
881.93	17608.44
882.10	17377.01
882.28	17440.50
882.45	17428.21
882.62	17434.36
882.79	17708.79
882.96	17182.46
883.14	17403.64
883.31	17491.70
883.48	17479.41
883.65	17438.45
883.83	17385.21
884.00	17440.50
884.17	17207.03
884.34	17243.90
884.51	17415.93
884.69	16862.97
884.86	17016.57
885.03	17286.90
885.20	16905.98
885.38	17125.11
885.55	17133.31
885.72	17125.11
885.89	16869.12
886.06	17067.77
886.24	17092.35
886.41	16760.58
886.58	17239.80
886.75	17114.87
886.92	16684.80
887.10	16758.53
887.27	16899.84
887.44	16674.56
887.61	16912.13
887.78	17090.30
887.95	17008.38
888.13	16609.03
888.30	16586.50
888.47	16465.67
888.64	16611.07
888.81	16637.70
888.99	16596.74
889.16	16547.59
889.33	16430.85
889.50	16424.71
889.67	16606.98
889.84	16297.74
890.01	16563.97
890.19	16471.81
890.36	16271.11
890.53	16631.55
890.70	16068.36
890.87	16207.62
891.04	16326.41
891.22	16285.45
891.39	16387.85
891.56	16041.74
891.73	15867.66
891.90	15988.49
892.07	15793.94
892.24	15963.92
892.42	15970.06
892.59	15963.92
892.76	16045.84
892.93	15970.06
893.10	15943.44
893.27	16031.50
893.44	15634.19
893.61	15712.02
893.79	15945.48
893.96	15888.14
894.13	15922.96
894.30	16058.12
894.47	15787.79
894.64	15896.33
894.81	15744.78
894.98	15933.20
895.15	15914.77
895.33	15628.05
895.50	15748.88
895.67	16037.64
895.84	15744.78
896.01	15642.39
896.18	15552.27
896.35	15793.94
896.52	15705.87
896.69	15736.59
896.86	15814.41
897.04	15707.92
897.21	15822.61
897.38	15742.74
897.55	15638.29
897.72	15578.90
897.89	15687.44
898.06	15669.01
898.23	15757.07
898.40	15666.96
898.57	15615.76
898.74	15576.85
898.91	15605.52
899.08	15660.82
899.26	15503.12
899.43	15626.00
899.60	15298.33
899.77	15519.51
899.94	15431.44
900.11	15372.05
900.28	15560.47
900.45	15496.98
900.62	15398.68
900.79	15632.15
900.96	15406.87
901.13	15562.51
901.30	15378.20
901.47	15503.12
901.64	15474.45
901.81	15437.59
901.98	15568.66
902.15	15701.78
902.32	15525.65
902.49	15478.55
902.66	15574.80
902.83	15550.23
903.01	15351.57
903.18	15353.62
903.35	15365.91
903.52	15363.86
903.69	15554.32
903.86	15697.68
904.03	15628.05
904.20	15464.21
904.37	15595.28
904.54	15499.03
904.71	15384.34
904.88	15443.73
905.05	15091.48
905.22	15421.20
905.39	15279.89
905.56	15361.81
905.73	15222.55
905.90	15339.29
906.07	15292.18
906.24	15396.63
906.41	15359.77
906.58	15384.34
906.75	15382.29
906.92	15089.43
907.09	15456.02
907.26	15283.99
907.43	15331.09
907.60	15462.16
907.77	15509.27
907.93	15257.37
908.10	15316.76
908.27	15380.25
908.44	15253.27
908.61	15277.85
908.78	15134.49
908.95	15517.46
909.12	15218.46
909.29	15286.04
909.46	15226.65
909.63	15357.72
909.80	15277.85
909.97	15224.60
910.14	15120.15
910.31	14972.70
910.48	15011.61
910.65	15316.76
910.82	15146.78
910.99	15165.21
911.16	15052.57
911.33	15220.50
911.50	15193.88
911.66	15005.47
911.83	15183.64
912.00	14894.88
912.17	14980.89
912.34	14812.96
912.51	15060.76
912.68	14710.56
912.85	14647.07
913.02	14802.72
913.19	14921.50
913.36	14757.66
913.53	14821.15
913.70	14544.67
913.86	14896.92
914.03	14753.57
914.20	14790.43
914.37	14632.74
914.54	14493.47
914.71	14370.60
914.88	14356.26
915.05	14550.82
915.22	14577.44
915.39	14401.32
915.55	14589.73
915.72	14466.85
915.89	14460.71
916.06	14141.22
916.23	14204.71
916.40	14429.99
916.57	14196.52
916.74	14262.05
916.91	14122.79
917.07	13737.77
917.24	14139.18
917.41	14067.50
917.58	13954.86
917.75	13926.19
917.92	13713.20
918.09	13686.58
918.26	13883.18
918.42	13856.56
918.59	13702.96
918.76	13666.10
918.93	13383.48
919.10	13477.68
919.27	13672.24
919.44	13627.18
919.60	13563.70
919.77	13412.15
919.94	13360.95
920.11	13485.87
920.28	13377.33
920.45	13297.46
920.61	13297.46
920.78	13219.64
920.95	13025.08
921.12	13074.23
921.29	12959.55
921.46	13129.53
921.62	12914.49
921.79	13041.46
921.96	12973.88
922.13	13172.54
922.30	12853.05
922.47	12621.63
922.63	12762.94
922.80	12857.15
922.97	12531.52
923.14	12496.71
923.31	12855.10
923.47	12492.61
923.64	12736.32
923.81	12416.83
923.98	12525.38
924.15	12494.66
924.32	12343.11
924.48	12410.69
924.65	12240.71
924.82	12111.69
924.99	12226.37
925.15	12027.72
925.32	12054.34
925.49	11876.17
925.66	12070.73
925.83	11982.67
925.99	11882.31
926.16	11786.06
926.33	12023.62
926.50	11644.75
926.67	11679.57
926.83	11939.66
927.00	11712.33
927.17	11665.23
927.34	11530.06
927.50	11257.68
927.67	11607.89
927.84	11380.56
928.01	11380.56
928.17	11403.09
928.34	11349.84
928.51	11280.21
928.68	11001.69
928.84	11112.28
929.01	11056.98
929.18	10897.24
929.35	11110.23
929.51	10798.94
929.68	10702.68
929.85	10811.23
930.02	10676.06
930.18	10852.19
930.35	10624.86
930.52	10760.03
930.69	10575.71
930.85	10542.94
931.02	10467.17
931.19	10418.02
931.36	10553.18
931.52	10393.44
931.69	10516.32
931.86	10086.25
932.02	10266.47
932.19	10305.38
932.36	10377.06
932.53	10221.41
932.69	10053.48
932.86	10141.54
933.03	10116.97
933.19	9899.88
933.36	9908.07
933.53	9914.22
933.70	9842.54
933.86	9703.28
934.03	9656.17
934.20	9518.96
934.36	9660.27
934.53	9267.06
934.70	9387.89
934.86	9643.88
935.03	9162.61
935.20	9090.93
935.36	9330.55
935.53	9031.54
935.70	9054.07
935.86	9064.31
936.03	8908.66
936.20	8843.13
936.36	8935.29
936.53	8611.71
936.70	8685.44
936.86	8763.26
937.03	8511.36
937.20	8259.46
937.36	8423.30
937.53	8134.53
937.70	8136.58
937.86	8126.34
938.03	8144.77
938.20	8042.37
938.36	7884.68
938.53	7847.82
938.70	7778.19
938.86	7862.15
939.03	7532.43
939.20	7526.29
939.36	7466.89
939.53	7309.20
939.70	7600.01
939.86	7036.82
940.03	7028.63
940.19	6950.81
940.36	6940.57
940.53	6858.65
940.69	6760.34
940.86	6762.39
941.03	6485.92
941.19	6584.22
941.36	6506.40
941.52	6573.98
941.69	6434.72
941.86	6332.32
942.02	6317.98
942.19	6240.16
942.35	6184.87
942.52	6055.84
942.69	6033.32
942.85	5988.26
943.02	6006.69
943.18	6014.88
943.35	5824.42
943.52	5969.83
943.68	5877.67
943.85	5734.31
944.01	5810.09
944.18	5636.01
944.35	5791.66
944.51	5664.68
944.68	5588.91
944.84	5476.27
945.01	5482.41
945.17	5572.52
945.34	5476.27
945.51	5506.99
945.67	5543.85
945.84	5332.91
946.00	5382.06
946.17	5488.56
946.33	5447.60
946.50	5504.94
946.67	5427.12
946.83	5343.15
947.00	5476.27
947.16	5445.55
947.33	5240.75
947.49	5367.73
947.66	5334.96
947.82	5474.22
947.99	5486.51
948.16	5492.65
948.32	5398.45
948.49	5509.04
948.65	5371.82
948.82	5459.88
948.98	5316.53
949.15	5242.80
949.31	5324.72
949.48	5316.53
949.64	5429.17
949.81	5320.62
949.97	5314.48
950.14	5509.04
950.30	5277.62
950.47	5509.04
950.63	5365.68
950.80	5402.54
950.96	5320.62
951.13	5418.93
951.30	5390.25
951.46	5425.07
951.63	5400.49
951.79	5382.06
951.96	5586.86
952.12	5375.92
952.29	5408.69
952.45	5273.52
952.62	5425.07
952.78	5535.66
952.94	5269.42
953.11	5330.86
953.27	5484.46
953.44	5545.90
953.60	5496.75
953.77	5527.47
953.93	5468.08
954.10	5396.40
954.26	5423.02
954.43	5515.18
954.59	5486.51
954.76	5570.48
954.92	5330.86
955.09	5496.75
955.25	5523.37
955.42	5445.55
955.58	5603.24
955.75	5396.40
955.91	5390.25
956.07	5461.93
956.24	5494.70
956.40	5529.52
956.57	5502.89
956.73	5545.90
956.90	5494.70
957.06	5506.99
957.23	5513.13
957.39	5511.08
957.56	5521.32
957.72	5363.63
957.88	5410.73
958.05	5662.63
958.21	5539.76
958.38	5615.53
958.54	5580.71
958.71	5842.85
958.87	5560.24
959.03	5543.85
959.20	5496.75
959.36	5498.80
959.53	5531.56
959.69	5357.49
959.85	5492.65
960.02	5423.02
960.18	5447.60
960.35	5492.65
960.51	5666.73
960.68	5603.24
960.84	5588.91
961.00	5662.63
961.17	5433.26
961.33	5609.39
961.50	5466.03
961.66	5584.81
961.82	5400.49
961.99	5410.73
962.15	5539.76
962.31	5334.96
962.48	5509.04
962.64	5474.22
962.81	5445.55
962.97	5556.14
963.13	5498.80
963.30	5474.22
963.46	5449.64
963.62	5459.88
963.79	5367.73
963.95	5443.50
964.12	5521.32
964.28	5638.06
964.44	5408.69
964.61	5525.42
964.77	5377.97
964.93	5513.13
965.10	5441.45
965.26	5326.77
965.42	5347.25
965.59	5423.02
965.75	5324.72
965.92	5367.73
966.08	5359.53
966.24	5476.27
966.41	5369.77
966.57	5332.91
966.73	5289.90
966.90	5316.53
967.06	5332.91
967.22	5304.24
967.39	5330.86
967.55	5246.90
967.71	5279.66
967.88	5328.81
968.04	5244.85
968.20	5281.71
968.37	5257.14
968.53	5181.36
968.69	5273.52
968.85	5480.36
969.02	5201.84
969.18	5269.42
969.34	5173.17
969.51	5197.74
969.67	5236.66
969.83	5124.02
970.00	5246.90
970.16	5148.59
970.32	5191.60
970.48	5234.61
970.65	5171.12
970.81	5001.14
970.97	5058.48
971.14	5044.15
971.30	5193.65
971.46	4970.42
971.63	4951.99
971.79	4951.99
971.95	5038.00
972.11	4960.18
972.28	5007.28
972.44	5072.82
972.60	5089.20
972.76	5013.43
972.93	4818.87
973.09	4999.09
973.25	5042.10
973.42	4947.89
973.58	4992.95
973.74	4933.56
973.90	4949.94
974.07	4843.45
974.23	4911.03
974.39	5009.33
974.55	4935.60
974.72	4888.50
974.88	4708.28
975.04	4908.98
975.20	4923.32
975.37	4743.10
975.53	4865.97
975.69	4743.10
975.85	4784.06
976.01	4906.93
976.18	4822.97
976.34	4704.18
976.50	4902.84
976.66	4818.87
976.83	4839.35
976.99	4714.42
977.15	4814.77
977.31	4700.09
977.47	4845.49
977.64	4671.42
977.80	4646.84
977.96	4622.27
978.12	4687.80
978.29	4562.87
978.45	4544.44
978.61	4607.93
978.77	4601.79
978.93	4650.94
979.10	4566.97
979.26	4554.68
979.42	4532.15
979.58	4562.87
979.74	4534.20
979.91	4532.15
980.07	4413.37
980.23	4636.60
980.39	4454.33
980.55	4452.28
980.71	4499.39
980.88	4384.70
981.04	4509.63
981.20	4427.71
981.36	4593.59
981.52	4458.43
981.68	4458.43
981.85	4550.59
982.01	4376.51
982.17	4345.79
982.33	4327.36
982.49	4415.42
982.65	4261.82
982.82	4485.05
982.98	4409.28
983.14	4290.49
983.30	4349.89
983.46	4339.65
983.62	4372.41
983.79	4229.06
983.95	4302.78
984.11	4249.54
984.27	4280.25
984.43	4265.92
984.59	4173.76
984.75	4227.01
984.91	4120.51
985.08	4313.02
985.24	4231.10
985.40	4112.32
985.56	4214.72
985.72	4169.66
985.88	4149.18
986.04	4149.18
986.20	4083.65
986.37	4040.64
986.53	4054.98
986.69	4108.23
986.85	4057.03
987.01	4018.11
987.17	4081.60
987.33	4095.94
987.49	4108.23
987.65	4030.40
987.82	3999.68
987.98	3852.23
988.14	4079.55
988.30	3936.20
988.46	3903.43
988.62	3985.35
988.78	3893.19
988.94	4028.35
989.10	3938.24
989.26	3817.41
989.42	3811.27
989.59	3819.46
989.75	3934.15
989.91	3872.71
990.07	3725.26
990.23	3772.36
990.39	3827.65
990.55	4009.92
990.71	3874.76
990.87	3794.89
991.03	3876.80
991.19	3692.49
991.35	3803.08
991.51	3727.30
991.67	3784.65
991.83	3645.38
992.00	3743.69
992.16	3809.22
992.32	3758.02
992.48	3694.54
992.64	3721.16
992.80	3794.89
992.96	3735.50
993.12	3825.61
993.28	3743.69
993.44	3682.25
993.60	3706.82
993.76	3694.54
993.92	3680.20
994.08	3592.14
994.24	3620.81
994.40	3633.10
994.56	3645.38
994.72	3467.21
994.88	3594.19
995.04	3633.10
995.20	3534.79
995.36	3571.66
995.52	3592.14
995.68	3575.75
995.84	3430.35
996.00	3567.56
996.16	3577.80
996.32	3573.71
996.48	3387.34
996.64	3571.66
996.80	3459.02
996.96	3424.20
997.12	3442.64
997.28	3465.16
997.44	3375.05
997.60	3465.16
997.76	3407.82
997.92	3465.16
998.08	3422.16
998.24	3354.57
998.40	3368.91
998.56	3549.13
998.72	3448.78
998.88	3497.93
999.04	3315.66
999.20	3389.39
999.36	3323.85
999.52	3495.88
999.68	3336.14
999.84	3411.92
1000.00	3252.17
1000.16	3368.91
1000.32	3250.13
1000.48	3452.88
1000.64	3205.07
1000.80	3190.74
1000.95	3258.32
1001.11	3274.70
1001.27	3164.11
1001.43	3282.89
1001.59	3182.54
1001.75	3110.86
1001.91	3219.41
1002.07	3157.97
1002.23	3108.82
1002.39	3186.64
1002.55	3190.74
1002.71	3157.97
1002.87	3190.74
1003.03	3133.39
1003.19	3194.83
1003.34	3231.69
1003.50	3090.38
1003.66	3065.81
1003.82	3127.25
1003.98	3067.86
1004.14	3127.25
1004.30	3092.43
1004.46	2996.18
1004.62	3082.19
1004.78	3006.42
1004.94	3065.81
1005.09	3100.62
1005.25	3084.24
1005.41	3000.27
1005.57	2985.94
1005.73	3028.95
1005.89	2928.60
1006.05	2996.18
1006.21	3047.38
1006.37	2801.62
1006.52	2861.01
1006.68	2889.68
1006.84	3098.58
1007.00	2883.54
1007.16	3039.19
1007.32	3055.57
1007.48	2914.26
1007.64	2932.69
1007.79	2893.78
1007.95	2836.44
1008.11	2922.45
1008.27	2959.31
1008.43	2983.89
1008.59	2830.29
1008.75	2846.68
1008.91	2861.01
1009.06	2854.87
1009.22	2846.68
1009.38	2895.83
1009.54	2807.77
1009.70	2770.90
1009.86	2768.85
1010.01	2928.60
1010.17	2742.23
1010.33	2871.25
1010.49	2766.81
1010.65	2832.34
1010.81	2881.49
1010.96	2805.72
1011.12	2719.70
1011.28	2740.18
1011.44	2787.29
1011.60	2746.33
1011.76	2639.83
1011.91	2781.14
1012.07	2703.32
1012.23	2658.26
1012.39	2568.15
1012.55	2723.80
1012.71	2670.55
1012.86	2641.88
1013.02	2697.17
1013.18	2695.13
1013.34	2568.15
1013.50	2760.66
1013.65	2719.70
1013.81	2586.58
1013.97	2617.30
1014.13	2680.79
1014.29	2609.11
1014.44	2697.17
1014.60	2453.47
1014.76	2643.93
1014.92	2516.95
1015.07	2625.50
1015.23	2559.96
1015.39	2572.25
1015.55	2531.29
1015.71	2596.82
1015.86	2484.19
1016.02	2549.72
1016.18	2547.67
1016.34	2519.00
1016.49	2539.48
1016.65	2631.64
1016.81	2615.26
1016.97	2527.19
1017.12	2508.76
1017.28	2475.99
1017.44	2498.52
1017.60	2502.62
1017.75	2566.10
1017.91	2432.99
1018.07	2539.48
1018.23	2516.95
1018.38	2451.42
1018.54	2494.43
1018.70	2490.33
1018.86	2387.93
1019.01	2346.97
1019.17	2355.16
1019.33	2621.40
1019.49	2408.41
1019.64	2400.22
1019.80	2428.89
1019.96	2424.80
1020.12	2559.96
1020.27	2369.50
1020.43	2437.08
1020.59	2361.31
1020.74	2482.14
1020.90	2418.65
1021.06	2308.06
1021.22	2381.79
1021.37	2361.31
1021.53	2269.15
1021.69	2424.80
1021.84	2234.33
1022.00	2416.60
1022.16	2379.74
1022.31	2267.10
1022.47	2301.92
1022.63	2328.54
1022.79	2232.29
1022.94	2371.55
1023.10	2441.18
1023.26	2250.72
1023.41	2234.33
1023.57	2310.11
1023.73	2242.53
1023.88	2281.44
1024.04	2252.77
1024.20	2166.75
1024.35	2303.96
1024.51	2336.73
1024.67	2220.00
1024.82	2310.11
1024.98	2191.33
1025.14	2316.25
1025.29	2179.04
1025.45	2383.84
1025.61	2129.89
1025.76	2201.57
1025.92	2269.15
1026.08	2205.66
1026.23	2279.39
1026.39	2263.01
1026.55	2150.37
1026.70	2107.36
1026.86	2242.53
1027.02	2172.89
1027.17	2181.09
1027.33	2123.74
1027.48	2201.57
1027.64	2150.37
1027.80	2129.89
1027.95	2195.42
1028.11	2076.64
1028.27	2191.33
1028.42	2256.86
1028.58	2142.18
1028.73	2125.79
1028.89	2123.74
1029.05	2207.71
1029.20	2187.23
>>>>>End Processed Spectral Data<<<<<
