SpectraSuite Data File
++++++++++++++++++++++++++++++++++++
Date: Fri Jun 02 14:51:12 CEST 2017
User: INFO_000
Dark Spectrum Present: No
Reference Spectrum Present: No
Number of Sampled Component Spectra: 1
Spectrometers: USB4H00879
Integration Time (usec): 80000 (USB4H00879)
Spectra Averaged: 1 (USB4H00879)
Boxcar Smoothing: 0 (USB4H00879)
Correct for Electrical Dark: No (USB4H00879)
Strobe/Lamp Enabled: No (USB4H00879)
Correct for Detector Non-linearity: No (USB4H00879)
Correct for Stray Light: No (USB4H00879)
Number of Pixels in Processed Spectrum: 3648
>>>>>Begin Processed Spectral Data<<<<<
345.13	1269.74
345.34	1269.74
345.56	1269.74
345.78	1265.64
345.99	1310.70
346.21	1753.06
346.42	1724.39
346.64	1695.72
346.86	1763.30
347.07	1642.47
347.29	1640.42
347.50	1601.51
347.72	1753.06
347.94	1726.44
348.15	1599.46
348.37	1595.37
348.59	1765.35
348.80	1615.85
349.02	1822.69
349.23	1914.85
349.45	1871.84
349.67	1894.37
349.88	1763.30
350.10	1916.90
350.31	1771.49
350.53	1810.40
350.75	1998.82
350.96	1769.44
351.18	1884.13
351.39	1849.32
351.61	1769.44
351.82	1992.67
352.04	1910.75
352.26	1808.36
352.47	1910.75
352.69	1867.75
352.90	1763.30
353.12	1816.55
353.34	1865.70
353.55	1910.75
353.77	1949.67
353.98	1871.84
354.20	1796.07
354.41	1937.38
354.63	1894.37
354.85	1994.72
355.06	1886.18
355.28	1820.64
355.49	1894.37
355.71	1978.34
355.92	1886.18
356.14	1916.90
356.35	1857.51
356.57	1820.64
356.79	1920.99
357.00	1898.47
357.22	1974.24
357.43	1818.60
357.65	1974.24
357.86	1914.85
358.08	1945.57
358.29	1929.19
358.51	1853.41
358.72	1998.82
358.94	1898.47
359.16	1902.56
359.37	1955.81
359.59	1964.00
359.80	2023.39
360.02	1943.52
360.23	2000.87
360.45	1951.71
360.66	1951.71
360.88	1839.08
361.09	1880.04
361.31	1998.82
361.52	1923.04
361.74	2090.98
361.95	2111.46
362.17	1974.24
362.38	2133.98
362.60	1968.10
362.81	1968.10
363.03	1890.28
363.24	1974.24
363.46	2111.46
363.67	2047.97
363.89	2054.11
364.10	1968.10
364.32	1990.63
364.53	2031.58
364.75	1906.66
364.96	2007.01
365.18	2109.41
365.39	2029.54
365.61	1941.47
365.82	2136.03
366.04	2007.01
366.25	1923.04
366.47	2025.44
366.68	2047.97
366.90	1916.90
367.11	2072.54
367.33	2039.78
367.54	2082.78
367.76	2076.64
367.97	2150.37
368.19	1980.39
368.40	2090.98
368.62	2019.30
368.83	2056.16
369.05	2037.73
369.26	1970.15
369.48	2000.87
369.69	2060.26
369.91	2039.78
370.12	2007.01
370.33	2203.61
370.55	1992.67
370.76	2007.01
370.98	2093.02
371.19	2033.63
371.41	1984.48
371.62	2033.63
371.84	2103.26
372.05	2152.42
372.27	2021.35
372.48	2117.60
372.69	2076.64
372.91	2179.04
373.12	2156.51
373.34	2154.46
373.55	2150.37
373.77	2113.50
373.98	2088.93
374.20	2152.42
374.41	2185.18
374.62	2082.78
374.84	2111.46
375.05	2056.16
375.27	2121.70
375.48	2195.42
375.70	2146.27
375.91	2275.29
376.12	2265.05
376.34	2125.79
376.55	2220.00
376.77	2226.14
376.98	2066.40
377.19	2105.31
377.41	2133.98
377.62	2246.62
377.84	2269.15
378.05	2338.78
378.27	2109.41
378.48	2289.63
378.69	2359.26
378.91	2250.72
379.12	2297.82
379.34	2148.32
379.55	2215.90
379.76	2334.68
379.98	2248.67
380.19	2281.44
380.41	2273.25
380.62	2334.68
380.83	2256.86
381.05	2129.89
381.26	2426.84
381.47	2203.61
381.69	2275.29
381.90	2432.99
382.12	2263.01
382.33	2234.33
382.54	2318.30
382.76	2351.07
382.97	2283.49
383.19	2263.01
383.40	2349.02
383.61	2398.17
383.83	2297.82
384.04	2287.58
384.25	2371.55
384.47	2346.97
384.68	2375.64
384.89	2244.57
385.11	2361.31
385.32	2353.12
385.54	2322.40
385.75	2357.21
385.96	2387.93
386.18	2371.55
386.39	2412.51
386.60	2279.39
386.82	2406.36
387.03	2349.02
387.24	2432.99
387.46	2494.43
387.67	2508.76
387.88	2566.10
388.10	2432.99
388.31	2492.38
388.52	2459.61
388.74	2486.23
388.95	2418.65
389.16	2475.99
389.38	2508.76
389.59	2588.63
389.80	2527.19
390.02	2459.61
390.23	2629.59
390.44	2537.43
390.66	2609.11
390.87	2498.52
391.08	2609.11
391.30	2668.50
391.51	2623.45
391.72	2672.60
391.94	2719.70
392.15	2615.26
392.36	2584.54
392.58	2473.95
392.79	2607.06
393.00	2641.88
393.22	2729.94
393.43	2717.65
393.64	2711.51
393.85	2826.20
394.07	2650.07
394.28	2693.08
394.49	2699.22
394.71	2723.80
394.92	2805.72
395.13	2660.31
395.35	2707.41
395.56	2736.09
395.77	2811.86
395.98	2887.64
396.20	2879.44
396.41	2793.43
396.62	2891.73
396.84	2834.39
397.05	2787.29
397.26	2848.72
397.47	2963.41
397.69	2791.38
397.90	2961.36
398.11	2959.31
398.32	2879.44
398.54	2891.73
398.75	2887.64
398.96	2863.06
399.18	3080.14
399.39	2975.70
399.60	3018.71
399.81	2973.65
400.03	2895.83
400.24	3266.51
400.45	2899.92
400.66	2990.03
400.88	2971.60
401.09	3221.45
401.30	2994.13
401.51	3114.96
401.73	2992.08
401.94	3098.58
402.15	3084.24
402.36	3125.20
402.58	3117.01
402.79	3176.40
403.00	3055.57
403.21	3170.26
403.43	3153.87
403.64	3231.69
403.85	3133.39
404.06	3196.88
404.27	2996.18
404.49	3180.50
404.70	3157.97
404.91	3239.89
405.12	3348.43
405.34	3211.22
405.55	3354.57
405.76	3076.05
405.97	3256.27
406.19	3389.39
406.40	3260.37
406.61	3368.91
406.82	3375.05
407.03	3305.42
407.25	3270.61
407.46	3471.31
407.67	3360.72
407.88	3383.24
408.09	3424.20
408.31	3334.09
408.52	3399.63
408.73	3303.37
408.94	3348.43
409.15	3391.44
409.37	3436.49
409.58	3465.16
409.79	3518.41
410.00	3461.07
410.21	3358.67
410.43	3356.62
410.64	3358.67
410.85	3508.17
411.06	3444.68
411.27	3547.08
411.48	3516.36
411.70	3485.64
411.91	3506.12
412.12	3661.77
412.33	3442.64
412.54	3497.93
412.76	3610.57
412.97	3573.71
413.18	3530.70
413.39	3655.62
413.60	3694.54
413.81	3794.89
414.03	3594.19
414.24	3618.76
414.45	3819.46
414.66	3532.75
414.87	3618.76
415.08	3672.01
415.30	3770.31
415.51	3577.80
415.72	3715.02
415.93	3710.92
416.14	3706.82
416.35	3805.13
416.56	3796.93
416.78	3784.65
416.99	3749.83
417.20	3880.90
417.41	3948.48
417.62	3977.16
417.83	3854.28
418.04	3788.74
418.26	3899.33
418.47	3919.81
418.68	3960.77
418.89	4061.12
419.10	4026.31
419.31	3893.19
419.52	4046.79
419.73	3956.68
419.95	4165.57
420.16	3895.24
420.37	4050.88
420.58	4108.23
420.79	3928.00
421.00	4059.07
421.21	4167.62
421.42	3973.06
421.63	4270.01
421.85	4075.46
422.06	4175.81
422.27	4179.90
422.48	4220.86
422.69	4208.58
422.90	4206.53
423.11	4218.82
423.32	4151.23
423.53	4292.54
423.75	4222.91
423.96	4460.48
424.17	4454.33
424.38	4411.32
424.59	4440.00
424.80	4548.54
425.01	4376.51
425.22	4358.08
425.43	4403.13
425.64	4607.93
425.85	4476.86
426.06	4593.59
426.28	4505.53
426.49	4388.80
426.70	4470.72
426.91	4603.83
427.12	4655.03
427.33	4636.60
427.54	4646.84
427.75	4603.83
427.96	4890.55
428.17	4655.03
428.38	4829.11
428.59	4792.25
428.80	4769.72
429.01	4861.88
429.23	4718.52
429.44	4972.47
429.65	4790.20
429.86	4956.08
430.07	4806.58
430.28	4935.60
430.49	4968.37
430.70	5029.81
430.91	5134.26
431.12	4863.93
431.33	5111.73
431.54	5046.20
431.75	5038.00
431.96	5013.43
432.17	5070.77
432.38	5179.31
432.59	5361.58
432.80	5261.23
433.01	5300.14
433.22	5265.33
433.43	5349.29
433.64	5242.80
433.85	5109.68
434.06	5279.66
434.27	5216.18
434.49	5294.00
434.70	5414.83
434.91	5318.57
435.12	5468.08
435.33	5337.01
435.54	5371.82
435.75	5242.80
435.96	5478.32
436.17	5382.06
436.38	5533.61
436.59	5521.32
436.80	5584.81
437.01	5734.31
437.22	5693.35
437.43	5713.83
437.64	5568.43
437.85	5566.38
438.06	5746.60
438.27	5537.71
438.48	5769.13
438.69	5738.41
438.90	5816.23
439.11	5595.05
439.32	5836.71
439.53	5728.17
439.74	5857.19
439.95	5900.20
440.16	5810.09
440.37	5801.90
440.57	5808.04
440.78	5998.50
440.99	5947.30
441.20	5816.23
441.41	5881.77
441.62	6023.08
441.83	5930.92
442.04	5926.82
442.25	5908.39
442.46	6037.41
442.67	6143.91
442.88	6424.48
443.09	5822.38
443.30	6033.32
443.51	6315.94
443.72	6246.30
443.93	6109.09
444.14	6416.29
444.35	6000.55
444.56	6268.83
444.77	6156.19
444.98	6238.11
445.19	6262.69
445.40	6281.12
445.61	6254.50
445.81	6373.28
446.02	6422.43
446.23	6277.02
446.44	6209.44
446.65	6537.12
446.86	6301.60
447.07	6586.27
447.28	6741.91
447.49	6721.43
447.70	6473.63
447.91	6565.79
448.12	6508.44
448.33	6627.23
448.54	6604.70
448.74	6711.19
448.95	6659.99
449.16	6705.05
449.37	6907.80
449.58	6809.50
449.79	7008.15
450.00	6594.46
450.21	6848.41
450.42	6961.05
450.63	7040.92
450.84	6836.12
451.05	7004.05
451.25	7077.78
451.46	6995.86
451.67	7045.01
451.88	7292.82
452.09	7114.64
452.30	7204.75
452.51	7053.20
452.72	7348.11
452.93	7430.03
453.13	7083.92
453.34	7045.01
453.55	7313.30
453.76	7344.02
453.97	7561.10
454.18	7348.11
454.39	7501.71
454.60	7387.02
454.81	7477.13
455.01	7565.20
455.22	7331.73
455.43	7636.88
455.64	7659.40
455.85	7784.33
456.06	7796.62
456.27	7790.47
456.48	7577.48
456.68	7798.66
456.89	7833.48
457.10	7948.17
457.31	7813.00
457.52	7751.56
457.73	8017.80
457.94	8114.05
458.14	7876.49
458.35	8261.51
458.56	8273.79
458.77	7974.79
458.98	8286.08
459.19	8329.09
459.39	8255.36
459.60	8421.25
459.81	8312.71
460.02	8439.68
460.23	8327.04
460.44	8685.44
460.65	8501.12
460.85	8628.09
461.06	8578.94
461.27	8494.97
461.48	8830.84
461.69	8970.10
461.89	8599.42
462.10	8869.75
462.31	8804.22
462.52	8712.06
462.73	8871.80
462.94	9224.05
463.14	9052.02
463.35	8959.86
463.56	9647.98
463.77	9449.33
463.98	9129.84
464.18	9310.07
464.39	9432.94
464.60	9523.05
464.81	9514.86
465.02	9512.81
465.23	9752.43
465.43	9564.01
465.64	9693.04
465.85	9664.36
466.06	9721.71
466.27	10071.91
466.47	9971.56
466.68	9852.78
466.89	10057.57
467.10	10131.30
467.30	9963.37
467.51	10229.60
467.72	10424.16
467.93	10194.79
468.14	10307.43
468.34	10329.95
468.55	10362.72
468.76	10436.45
468.97	10383.20
469.17	10622.81
469.38	10520.42
469.59	10809.18
469.80	10835.80
470.01	10788.70
470.21	10815.32
470.42	10919.77
470.63	11016.02
470.84	10819.42
471.04	11169.62
471.25	11333.46
471.46	11095.89
471.67	11480.91
471.87	11290.45
472.08	11515.73
472.29	11685.71
472.50	11267.92
472.70	11706.19
472.91	11534.16
473.12	11835.21
473.33	11845.45
473.53	12083.02
473.74	11761.48
473.95	12181.32
474.16	12113.74
474.36	12257.09
474.57	12373.83
474.78	12687.17
474.99	12476.23
475.19	12578.62
475.40	12789.56
475.61	12605.25
475.81	12848.96
476.02	12920.63
476.23	12924.73
476.44	13063.99
476.64	13283.13
476.85	13397.81
477.06	13301.56
477.27	13522.74
477.47	13709.10
477.68	13690.67
477.89	13831.98
478.09	13651.76
478.30	13852.46
478.51	13885.23
478.71	13973.29
478.92	14317.35
479.13	14059.31
479.34	14513.95
479.54	14180.14
479.75	14409.51
479.96	14620.45
480.16	14665.50
480.37	14700.32
480.58	14628.64
480.78	15283.99
480.99	15150.87
481.20	15273.75
481.41	15370.01
481.61	15400.72
481.82	15539.99
482.03	15456.02
482.23	15429.40
482.44	15699.73
482.65	15785.74
482.85	15875.85
483.06	15931.15
483.27	15955.72
483.47	16049.93
483.68	16043.79
483.89	16439.05
484.09	16215.82
484.30	16500.48
484.51	16518.92
484.71	16733.95
484.92	16705.28
485.13	16756.48
485.33	16944.89
485.54	16819.97
485.75	17096.44
485.95	17225.47
486.16	17442.55
486.37	17536.76
486.57	17452.79
486.78	17567.48
486.98	17303.29
487.19	17784.56
487.40	17917.68
487.60	17708.79
487.81	18282.22
488.02	17958.64
488.22	18003.69
488.43	18386.66
488.64	18530.02
488.84	18310.89
489.05	18591.46
489.25	18687.71
489.46	18710.24
489.67	18581.22
489.87	19003.10
490.08	19082.97
490.29	18902.75
490.49	19592.92
490.70	19447.51
490.90	19318.49
491.11	19148.51
491.32	19402.46
491.52	19640.02
491.73	19615.44
491.94	19785.43
492.14	19578.58
492.35	20035.28
492.55	19904.21
492.76	19959.50
492.97	20213.45
493.17	20512.46
493.38	20301.51
493.58	20604.61
493.79	20457.16
494.00	20721.35
494.20	20848.32
494.41	20700.87
494.61	20864.71
494.82	20895.43
495.02	21182.14
495.23	21065.41
495.44	21180.09
495.64	21223.10
495.85	21591.73
496.05	21577.40
496.26	21567.16
496.47	21667.51
496.67	21466.81
496.88	22025.90
497.08	21798.58
497.29	21827.25
497.49	21937.84
497.70	22226.60
497.91	22240.94
498.11	22374.06
498.32	22177.45
498.52	22486.70
498.73	22734.50
498.93	22529.70
499.14	22804.13
499.34	22814.37
499.55	23017.12
499.76	22677.16
499.96	22701.73
500.17	23039.65
500.37	23107.23
500.58	23101.09
500.78	23271.07
500.99	23123.62
501.19	23385.76
501.40	23629.46
501.60	23602.84
501.81	23234.21
502.02	23504.54
502.22	23627.42
502.43	23778.97
502.63	24151.70
502.84	24086.16
503.04	24047.25
503.25	24043.15
503.45	23934.61
503.66	24376.97
503.86	24395.40
504.07	24419.98
504.27	23776.92
504.48	24532.62
504.68	24395.40
504.89	24809.09
505.09	24592.01
505.30	24592.01
505.50	24661.64
505.71	24923.78
505.91	24866.44
506.12	24880.77
506.32	25020.03
506.53	25140.86
506.73	25183.87
506.94	25439.87
507.14	25380.48
507.35	25347.71
507.55	25196.16
507.76	25560.70
507.96	25644.66
508.17	25466.49
508.37	25650.81
508.58	25777.78
508.78	25925.24
508.99	25894.52
509.19	25855.61
509.40	25937.52
509.60	25808.50
509.81	25996.92
510.01	25935.48
510.22	25998.96
510.42	26269.30
510.63	26324.59
510.83	26109.55
511.04	26078.83
511.24	26566.25
511.44	26619.50
511.65	26644.07
511.85	26447.47
512.06	26711.66
512.26	26490.48
512.47	26685.03
512.67	26748.52
512.88	26930.79
513.08	26478.19
513.29	26922.60
513.49	26799.72
513.69	26975.84
513.90	27379.29
514.10	27170.40
514.31	27221.60
514.51	27326.05
514.72	27364.96
514.92	27287.14
515.13	27616.86
515.33	27448.93
515.53	27485.79
515.74	27778.65
515.94	27633.24
516.15	27547.23
516.35	27833.94
516.56	27971.16
516.76	27629.15
516.96	27987.54
517.17	28237.39
517.37	27969.11
517.58	28091.99
517.78	27967.06
517.99	28163.67
518.19	28526.16
518.39	28296.78
518.60	28520.01
518.80	28550.73
519.01	28806.73
519.21	28446.29
519.41	28692.04
519.62	28692.04
519.82	28636.75
520.03	28855.88
520.23	29011.53
520.43	29103.68
520.64	29099.59
520.84	29316.67
521.05	29226.56
521.25	29535.81
521.45	29066.82
521.66	29509.18
521.86	29625.92
522.07	29480.51
522.27	29709.88
522.47	29832.76
522.68	30070.33
522.88	29799.99
523.08	30170.68
523.29	29832.76
523.49	29945.40
523.70	29947.45
523.90	30135.86
524.10	30320.18
524.31	30309.94
524.51	30338.61
524.71	30912.04
524.92	30615.08
525.12	30918.18
525.33	30561.84
525.53	30881.32
525.73	31051.30
525.94	31014.44
526.14	30973.48
526.34	31073.83
526.55	30987.82
526.75	31327.78
526.95	31653.40
527.16	31389.22
527.36	31446.56
527.56	31575.58
527.77	32081.43
527.97	31591.97
528.17	31952.41
528.38	32212.50
528.58	32044.57
528.78	32259.60
528.99	32007.70
529.19	32544.27
529.39	32087.57
529.60	32517.65
529.80	32232.98
530.00	32470.54
530.21	32646.67
530.41	32654.86
530.61	32753.16
530.82	33031.69
531.02	32976.39
531.22	32931.34
531.43	33115.65
531.63	33170.95
531.83	33711.61
532.04	33582.59
532.24	33543.68
532.44	33748.48
532.64	33773.05
532.85	34196.98
533.05	33928.70
533.25	34213.37
533.46	34237.94
533.66	34899.44
533.86	34455.03
534.07	34938.35
534.27	34309.62
534.47	34655.73
534.67	34563.57
534.88	34766.32
535.08	34917.87
535.28	34952.68
535.49	35030.51
535.69	35200.49
535.89	35122.66
536.09	35345.89
536.30	35935.71
536.50	35761.63
536.70	35816.93
536.91	35718.62
537.11	35577.31
537.31	35800.54
537.51	36013.53
537.72	36546.00
537.92	36189.66
538.12	36865.49
538.32	36191.70
538.53	36337.11
538.73	36290.01
538.93	36453.84
539.13	36740.56
539.34	36713.94
539.54	36466.13
539.74	37115.34
539.94	36890.06
540.15	36832.72
540.35	37211.59
540.55	37256.65
540.75	37094.86
540.96	36986.32
541.16	37141.96
541.36	37531.08
541.56	37320.13
541.77	37998.01
541.97	37739.97
542.17	38239.67
542.37	37836.22
542.58	37729.73
542.78	37731.78
542.98	38151.61
543.18	38084.03
543.38	38778.29
543.59	38753.71
543.79	38153.66
543.99	38274.49
544.19	38507.96
544.40	38391.22
544.60	39130.54
544.80	38841.78
545.00	38684.08
545.20	38868.40
545.41	38591.92
545.61	38813.10
545.81	39265.70
546.01	39298.47
546.21	39222.70
546.42	39095.72
546.62	39450.02
546.82	39480.74
547.02	39056.81
547.22	39052.72
547.43	39433.64
547.63	39462.31
547.83	39456.17
548.03	39579.04
548.23	39660.96
548.44	39728.55
548.64	39566.76
548.84	40236.44
549.04	39654.82
549.24	40232.35
549.45	40191.39
549.65	40170.91
549.85	40428.95
550.05	40543.64
550.25	39863.71
550.45	40793.49
550.66	40377.75
550.86	40269.21
551.06	40598.93
551.26	40713.62
551.46	40680.85
551.66	40715.67
551.87	40809.87
552.07	40572.31
552.27	40756.63
552.47	40918.42
552.67	41225.61
552.87	40676.76
553.07	40940.94
553.28	41323.91
553.48	40813.97
553.68	41237.90
553.88	41584.01
554.08	41485.70
554.28	41454.98
554.48	40891.79
554.69	41497.99
554.89	41536.90
555.09	41684.36
555.29	41287.05
555.49	41264.52
555.69	41543.05
555.89	41887.10
556.10	41840.00
556.30	41858.43
556.50	41813.38
556.70	41840.00
556.90	41778.56
557.10	42198.40
557.30	41633.16
557.50	42169.72
557.70	42073.47
557.91	42415.48
558.11	42331.51
558.31	42614.13
558.51	42343.80
558.71	42642.81
558.91	42800.50
559.11	42562.93
559.31	42241.40
559.51	42392.95
559.72	42446.20
559.92	42321.27
560.12	42313.08
560.32	42720.63
560.52	42057.09
560.72	42665.33
560.92	42851.70
561.12	42589.56
561.32	43244.91
561.52	43009.39
561.72	42939.76
561.93	42906.99
562.13	42759.54
562.33	42589.56
562.53	43296.11
562.73	42958.19
562.93	43414.89
563.13	43316.59
563.33	43017.58
563.53	43390.31
563.73	43042.16
563.93	43314.54
564.13	43771.24
564.33	43390.31
564.53	43279.72
564.74	43781.48
564.94	43300.20
565.14	43926.88
565.34	43382.12
565.54	43619.69
565.74	43640.17
565.94	43875.68
566.14	43412.84
566.34	43285.87
566.54	44012.90
566.74	43525.48
566.94	43941.22
567.14	44055.90
567.34	43916.64
567.54	44350.81
567.74	43939.17
567.94	43840.87
568.14	44350.81
568.34	44229.98
568.54	44293.47
568.74	44709.21
568.94	44268.89
569.14	44459.35
569.34	44275.04
569.54	44223.84
569.75	44225.89
569.95	44711.25
570.15	44479.83
570.35	44256.60
570.55	44547.42
570.75	44643.67
570.95	44813.65
571.15	44692.82
571.35	44944.72
571.55	44871.00
571.75	44850.52
571.95	44926.29
572.15	44832.08
572.35	44741.97
572.55	44774.74
572.75	45096.27
572.95	44916.05
573.15	45081.94
573.35	45227.34
573.55	45131.09
573.75	45086.03
573.95	45315.40
574.15	45530.44
574.35	45802.82
574.55	45163.85
574.75	45335.88
574.95	45249.87
575.15	45276.49
575.34	45962.56
575.54	45837.64
575.74	45561.16
575.94	45899.08
576.14	45733.19
576.34	46234.94
576.54	45917.51
576.74	45907.27
576.94	45681.99
577.14	46107.97
577.34	46658.87
577.54	45909.32
577.74	46570.81
577.94	46234.94
578.14	46464.32
578.34	46454.08
578.54	45929.80
578.74	46169.41
578.94	46497.08
579.14	46447.93
579.34	46748.98
579.54	46372.16
579.74	46738.74
579.94	46306.62
580.13	46898.48
580.33	46755.13
580.53	46830.90
580.73	46974.26
580.93	47519.02
581.13	47349.04
581.33	47312.17
581.53	47412.52
581.73	47355.18
581.93	47623.47
582.13	47424.81
582.33	47514.92
582.53	47060.27
582.73	47848.74
582.92	47592.75
583.12	47803.69
583.32	47596.84
583.52	47506.73
583.72	47746.34
583.92	47772.97
584.12	47928.61
584.32	48194.85
584.52	48071.97
584.72	48051.49
584.92	48321.82
585.11	48604.44
585.31	48198.94
585.51	48270.62
585.71	48051.49
585.91	48829.72
586.11	48354.59
586.31	48125.22
586.51	48416.03
586.71	48680.22
586.91	49018.13
587.10	48784.66
587.30	49124.63
587.50	49321.23
587.70	48758.04
587.90	48766.23
588.10	49132.82
588.30	49081.62
588.50	49014.04
588.69	49435.92
588.89	49233.17
589.09	49452.30
589.29	48966.93
589.49	49763.59
589.69	48964.88
589.89	49399.05
590.08	49327.38
590.28	49040.66
590.48	49470.73
590.68	49171.73
590.88	49679.63
591.08	49216.78
591.28	49444.11
591.47	49937.67
591.67	49718.54
591.87	49583.37
592.07	49739.02
592.27	49878.28
592.47	50113.80
592.67	49931.53
592.86	49884.42
593.06	49851.66
593.26	50359.55
593.46	50263.30
593.66	50035.97
593.86	50240.77
594.05	50212.10
594.25	50304.26
594.45	49935.62
594.65	50545.92
594.85	50105.60
595.05	50468.09
595.24	50509.05
595.44	50507.01
595.64	50820.34
595.84	50754.81
596.04	49978.63
596.23	50541.82
596.43	50961.65
596.63	50771.19
596.83	51021.05
597.03	50953.46
597.22	51062.00
597.42	50932.98
597.62	51143.92
597.82	51248.37
598.02	51076.34
598.21	51561.71
598.41	50746.62
598.61	51303.67
598.81	51361.01
599.01	51145.97
599.20	51414.26
599.40	51508.46
599.60	51545.33
599.80	51633.39
600.00	51651.82
600.19	51786.99
600.39	51535.09
600.59	51926.25
600.79	51827.95
600.98	51854.57
601.18	52161.76
601.38	52045.03
601.58	52264.16
601.78	52415.71
601.97	52204.77
602.17	52591.84
602.37	52245.73
602.57	52260.07
602.76	52819.16
602.96	52360.42
603.16	52501.73
603.36	52571.36
603.55	53132.50
603.75	52655.32
603.95	52821.21
604.15	52980.95
604.34	52894.94
604.54	52983.00
604.74	53046.49
604.94	53466.32
605.13	53206.23
605.33	52835.55
605.53	52790.49
605.73	53507.28
605.92	53335.25
606.12	53800.14
606.32	53435.60
606.52	53341.39
606.71	53423.31
606.91	54076.61
607.11	53421.26
607.30	53814.47
607.50	53548.24
607.70	53599.44
607.90	53531.86
608.09	53943.50
608.29	53789.90
608.49	53961.93
608.68	53703.88
608.88	54043.85
609.08	54252.74
609.28	53980.36
609.47	53818.57
609.67	54736.06
609.87	53839.05
610.06	54314.18
610.26	54117.57
610.46	54213.83
610.66	54156.49
610.85	54215.88
611.05	53859.53
611.25	54076.61
611.44	54371.52
611.64	54473.92
611.84	54412.48
612.03	53699.79
612.23	54369.47
612.43	54478.02
612.62	54299.84
612.82	54381.76
613.02	54633.66
613.21	54260.93
613.41	54027.46
613.61	54566.08
613.80	53943.50
614.00	54815.93
614.20	54508.74
614.39	54529.22
614.59	54695.10
614.79	54406.34
614.98	54453.44
615.18	54607.04
615.38	54967.48
615.57	54299.84
615.77	54795.45
615.97	54760.64
616.16	54473.92
616.36	54525.12
616.56	54639.81
616.75	54674.62
616.95	54504.64
617.15	54303.94
617.34	55030.97
617.54	54484.16
617.74	55358.64
617.93	54879.42
618.13	54559.94
618.32	54826.17
618.52	54658.24
618.72	54465.73
618.91	54934.71
619.11	54254.79
619.31	54942.91
619.50	54600.89
619.70	54516.93
619.90	54813.88
620.09	54385.86
620.29	54613.18
620.48	54629.57
620.68	55293.11
620.88	54449.35
621.07	54559.94
621.27	54711.49
621.46	54557.89
621.66	54652.09
621.86	54736.06
622.05	54527.17
622.25	55194.81
622.44	54867.13
622.64	54656.19
622.84	54967.48
623.03	54338.75
623.23	54774.97
623.42	54613.18
623.62	54705.34
623.82	54893.75
624.01	54408.39
624.21	54985.91
624.40	55010.49
624.60	54928.57
624.80	54973.63
624.99	54906.04
625.19	54238.40
625.38	54635.71
625.58	54607.04
625.77	54820.03
625.97	54977.72
626.17	54611.13
626.36	54457.54
626.56	54691.01
626.75	54584.51
626.95	54785.21
627.14	54822.08
627.34	55452.85
627.54	54318.28
627.73	55153.85
627.93	54404.29
628.12	54600.89
628.32	54842.56
628.51	54840.51
628.71	54693.05
628.90	54482.11
629.10	54967.48
629.30	54564.03
629.49	54637.76
629.69	54762.68
629.88	54279.36
630.08	55309.49
630.27	55039.16
630.47	55133.37
630.66	55020.73
630.86	55110.84
631.05	54359.23
631.25	55239.86
631.44	54873.27
631.64	54727.87
631.84	54934.71
632.03	55436.47
632.23	54940.86
632.42	55547.06
632.62	54926.52
632.81	54723.77
633.01	54736.06
633.20	55438.51
633.40	54914.23
633.59	55307.44
633.79	54891.71
633.98	55004.34
634.18	55016.63
634.37	54897.85
634.57	55098.55
634.76	55084.22
634.96	55153.85
635.15	55055.54
635.35	54834.36
635.54	54594.75
635.74	55542.96
635.93	55211.19
636.13	55493.81
636.32	55665.84
636.52	55207.09
636.71	55250.10
636.91	55106.74
637.10	55200.95
637.30	55157.94
637.49	55567.54
637.69	55207.09
637.88	55258.29
638.08	54875.32
638.27	55614.64
638.46	55276.72
638.66	55016.63
638.85	55065.78
639.05	55379.12
639.24	55264.44
639.44	55110.84
639.63	55065.78
639.83	55463.09
640.02	55485.62
640.22	55553.20
640.41	55866.54
640.61	55219.38
640.80	55309.49
640.99	54887.61
641.19	55854.25
641.38	55164.09
641.58	55311.54
641.77	55145.65
641.97	55538.86
642.16	55364.79
642.36	55540.91
642.55	55569.58
642.74	55170.23
642.94	55983.27
643.13	55770.28
643.33	55547.06
643.52	56073.38
643.72	55854.25
643.91	55458.99
644.10	56071.34
644.30	56136.87
644.49	55631.02
644.69	56040.62
644.88	55559.34
645.08	55743.66
645.27	55772.33
645.46	55987.37
645.66	55919.79
645.85	55542.96
646.05	55618.74
646.24	55932.07
646.43	55925.93
646.63	56128.68
646.82	56181.93
647.02	56110.25
647.21	55827.63
647.40	56210.60
647.60	56247.46
647.79	56186.02
647.99	55893.16
648.18	55809.20
648.37	56022.19
648.57	55708.85
648.76	55960.75
648.96	55856.30
649.15	56501.41
649.34	56513.70
649.54	56276.13
649.73	56059.05
649.92	56276.13
650.12	56198.31
650.31	56038.57
650.51	56194.21
650.70	56665.25
650.89	56317.09
651.09	56726.69
651.28	56329.38
651.47	56466.59
651.67	56364.20
651.86	56982.68
652.06	55854.25
652.25	56306.85
652.44	56497.31
652.64	55788.72
652.83	56407.20
653.02	56007.85
653.22	56319.14
653.41	56462.50
653.60	56521.89
653.80	56632.48
653.99	56784.03
654.18	56304.80
654.38	56476.83
654.57	56507.55
654.76	56530.08
654.96	56603.81
655.15	56067.24
655.34	56507.55
655.54	56579.23
655.73	56503.46
655.92	56378.53
656.12	56890.52
656.31	56452.26
656.50	56396.96
656.70	56788.13
656.89	56620.19
657.08	56579.23
657.28	56296.61
657.47	56816.80
657.66	56638.62
657.86	56452.26
658.05	56730.78
658.24	56933.53
658.43	56693.92
658.63	56542.37
658.82	56806.56
659.01	57236.63
659.21	56861.85
659.40	56702.11
659.59	56974.49
659.79	56695.97
659.98	56810.65
660.17	56700.06
660.36	56726.69
660.56	56978.59
660.75	56790.17
660.94	57445.52
661.14	56540.32
661.33	56964.25
661.52	56657.06
661.71	57021.59
661.91	56685.73
662.10	56239.27
662.29	57236.63
662.49	56589.47
662.68	57119.90
662.87	57035.93
663.06	57025.69
663.26	56409.25
663.45	57293.97
663.64	56534.18
663.83	57357.46
664.03	57306.26
664.22	56974.49
664.41	56820.89
664.60	56800.41
664.80	57357.46
664.99	56906.91
665.18	56614.05
665.37	56614.05
665.57	56880.28
665.76	56718.49
665.95	57466.00
666.14	56792.22
666.34	56607.90
666.53	56403.11
666.72	56710.30
666.91	56804.51
667.11	57199.77
667.30	57289.88
667.49	56423.59
667.68	56781.98
667.87	56636.58
668.07	57228.44
668.26	56722.59
668.45	57336.98
668.64	56603.81
668.84	57398.42
669.03	57218.20
669.22	57259.16
669.41	57005.21
669.60	56972.44
669.80	56972.44
669.99	57425.04
670.18	57138.33
670.37	56884.38
670.57	57435.28
670.76	56937.63
670.95	57189.53
671.14	56730.78
671.33	56761.50
671.53	57316.50
671.72	57031.83
671.91	56898.72
672.10	56786.08
672.29	57001.11
672.48	56980.63
672.68	56988.83
672.87	56949.92
673.06	56751.26
673.25	56470.69
673.44	56425.64
673.64	56939.68
673.83	56751.26
674.02	56646.82
674.21	56370.34
674.40	57068.70
674.59	56448.16
674.79	56306.85
674.98	56568.99
675.17	56927.39
675.36	56630.43
675.55	56403.11
675.74	56511.65
675.94	56290.47
676.13	57003.16
676.32	56833.18
676.51	57371.80
676.70	56820.89
676.89	56786.08
677.08	57080.98
677.28	56675.49
677.47	56984.73
677.66	57164.95
677.85	56845.47
678.04	56429.73
678.23	57013.40
678.42	56820.89
678.62	56775.84
678.81	56648.86
679.00	56218.79
679.19	57506.96
679.38	56874.14
679.57	56603.81
679.76	56542.37
679.96	56886.43
680.15	56691.87
680.34	56257.70
680.53	56796.32
680.72	56954.01
680.91	57171.10
681.10	55962.79
681.29	56861.85
681.48	56695.97
681.68	56587.42
681.87	56468.64
682.06	56243.37
682.25	55891.12
682.44	56218.79
682.63	56738.97
682.82	55860.40
683.01	56345.76
683.20	56214.69
683.39	56419.49
683.59	56251.56
683.78	55944.36
683.97	55934.12
684.16	56149.16
684.35	55751.85
684.54	56126.63
684.73	55850.16
684.92	55923.88
685.11	56063.14
685.30	55811.24
685.49	56413.35
685.69	55995.56
685.88	56169.64
686.07	55823.53
686.26	56061.10
686.45	56042.66
686.64	55960.75
686.83	55911.59
687.02	55841.96
687.21	55719.09
687.40	55983.27
687.59	55829.68
687.78	55702.70
687.97	56317.09
688.16	55893.16
688.35	55653.55
688.54	56057.00
688.74	56034.47
688.93	55727.28
689.12	55729.33
689.31	55688.37
689.50	56016.04
689.69	55264.44
689.88	55301.30
690.07	55813.29
690.26	55428.27
690.45	55766.19
690.64	55555.25
690.83	55461.04
691.02	55315.64
691.21	55502.00
691.40	55303.35
691.59	55555.25
691.78	55510.19
691.97	55540.91
692.16	55358.64
692.35	55647.41
692.54	55813.29
692.73	54920.38
692.92	55497.91
693.11	55291.06
693.30	54801.60
693.49	55432.37
693.68	55321.78
693.87	55227.57
694.06	54858.94
694.25	55057.59
694.44	55094.46
694.63	55022.78
694.82	55243.96
695.01	55270.58
695.20	55119.03
695.39	55018.68
695.58	55145.65
695.77	54637.76
695.96	54711.49
696.15	55006.39
696.34	54633.66
696.53	54678.72
696.72	55270.58
696.91	54701.25
697.10	54580.42
697.29	55006.39
697.48	54856.89
697.67	54793.40
697.86	54402.24
698.05	54668.48
698.24	55022.78
698.43	54105.29
698.62	54734.01
698.81	54211.78
699.00	54725.82
699.19	54150.34
699.38	54508.74
699.57	54486.21
699.76	54936.76
699.95	54514.88
700.14	54240.45
700.32	54652.09
700.51	54023.37
700.70	54475.97
700.89	54373.57
701.08	54377.67
701.27	53890.25
701.46	54545.60
701.65	53662.93
701.84	54379.71
702.03	54367.43
702.22	54258.88
702.41	53789.90
702.60	54281.41
702.79	53703.88
702.98	53679.31
703.17	53710.03
703.35	53933.26
703.54	53800.14
703.73	53875.91
703.92	53781.71
704.11	53617.87
704.30	53568.72
704.49	53906.63
704.68	53499.09
704.87	53673.16
705.06	53636.30
705.25	53441.74
705.43	53621.97
705.62	53753.04
705.81	53458.13
706.00	53421.26
706.19	52679.90
706.38	53077.21
706.57	53447.89
706.76	53185.75
706.95	53040.34
707.14	53042.39
707.32	53214.42
707.51	52753.63
707.70	53015.77
707.89	53443.79
708.08	53152.98
708.27	53107.93
708.46	53372.11
708.65	52841.69
708.84	53173.46
709.02	53118.17
709.21	53216.47
709.40	52989.14
709.59	52821.21
709.78	52964.57
709.97	53019.86
710.16	52886.74
710.34	52536.54
710.53	52612.32
710.72	52903.13
710.91	52661.47
711.10	53150.93
711.29	52886.74
711.48	52755.68
711.66	52618.46
711.85	52456.67
712.04	52298.98
712.23	52663.52
712.42	52397.28
712.61	52409.57
712.80	52444.38
712.98	52966.62
713.17	52071.65
713.36	52622.56
713.55	52356.32
713.74	52384.99
713.93	52919.51
714.11	52368.61
714.30	52313.31
714.49	52098.28
714.68	52030.69
714.87	52110.56
715.06	52210.92
715.24	52139.24
715.43	51848.42
715.62	51913.96
715.81	51389.68
716.00	52253.92
716.18	51614.96
716.37	51813.61
716.56	51631.34
716.75	52057.32
716.94	51598.57
717.12	51506.41
717.31	51799.27
717.50	51424.50
717.69	51791.08
717.88	51901.67
718.06	51868.90
718.25	51637.48
718.44	51307.76
718.63	51670.25
718.82	51449.07
719.00	51139.83
719.19	51016.95
719.38	50810.10
719.57	50617.60
719.76	50339.07
719.94	50980.09
720.13	50459.90
720.32	50664.70
720.51	50230.53
720.69	50271.49
720.88	50494.72
721.07	50580.73
721.26	50208.00
721.44	50478.33
721.63	50640.12
721.82	49782.02
722.01	49696.01
722.20	50277.63
722.38	50236.67
722.57	49806.60
722.76	50091.27
722.95	49972.49
723.13	49620.23
723.32	49419.53
723.51	49362.19
723.70	49403.15
723.88	49642.76
724.07	49521.93
724.26	49689.87
724.44	49181.97
724.63	49868.04
724.82	49448.21
725.01	49257.74
725.19	49599.76
725.38	49114.39
725.57	49210.64
725.76	49249.55
725.94	49024.28
726.13	49169.68
726.32	49179.92
726.51	49419.53
726.69	49104.15
726.88	49149.20
727.07	49259.79
727.25	49138.96
727.44	48987.41
727.63	48633.11
727.82	49227.02
728.00	49177.87
728.19	49128.72
728.38	49356.05
728.56	48348.45
728.75	49181.97
728.94	48737.56
729.12	49130.77
729.31	48850.20
729.50	48633.11
729.69	48719.13
729.87	48901.40
730.06	49263.89
730.25	48641.31
730.43	49057.04
730.62	48469.28
730.81	49108.24
730.99	49255.70
731.18	48424.22
731.37	48932.12
731.55	48690.46
731.74	48946.45
731.93	48583.96
732.11	48856.34
732.30	48432.41
732.49	48538.91
732.67	48792.86
732.86	48708.89
733.05	48753.94
733.23	48160.03
733.42	48190.75
733.61	48430.36
733.79	48772.38
733.98	48829.72
734.17	48438.56
734.35	48405.79
734.54	48452.89
734.73	48547.10
734.91	48411.93
735.10	48071.97
735.29	48649.50
735.47	48291.10
735.66	48643.35
735.84	48278.82
736.03	48481.56
736.22	48878.87
736.40	48276.77
736.59	48227.62
736.78	48213.28
736.96	48141.60
737.15	48327.97
737.33	48108.83
737.52	48225.57
737.71	48209.18
737.89	48174.37
738.08	47531.31
738.27	47453.48
738.45	48588.06
738.64	48006.44
738.82	48102.69
739.01	48049.44
739.20	47783.21
739.38	47846.69
739.57	48235.81
739.75	47949.09
739.94	48035.11
740.13	47985.96
740.31	47777.06
740.50	47813.93
740.68	47641.90
740.87	47797.54
741.06	47766.82
741.24	47865.13
741.43	47586.60
741.61	47578.41
741.80	47215.92
741.99	47891.75
742.17	47420.72
742.36	47416.62
742.54	47351.09
742.73	47557.93
742.91	47338.80
743.10	47115.57
743.29	47715.62
743.47	47369.52
743.66	47078.71
743.84	47283.50
744.03	47621.42
744.21	47406.38
744.40	47707.43
744.59	46818.61
744.77	47254.83
744.96	47090.99
745.14	47281.45
745.33	47445.29
745.51	46757.17
745.70	47260.97
745.88	46638.39
746.07	47033.65
746.26	46931.25
746.44	46589.24
746.63	46816.57
746.81	46603.58
747.00	47082.80
747.18	46490.94
747.37	46757.17
747.55	46839.09
747.74	46751.03
747.92	46556.47
748.11	46529.85
748.29	46722.36
748.48	46740.79
748.66	46232.89
748.85	46519.61
749.03	46445.88
749.22	46363.96
749.41	46349.63
749.59	46300.48
749.78	46073.15
749.96	45862.21
750.15	46290.24
750.33	46355.77
750.52	45704.52
750.70	45860.16
750.89	45966.66
751.07	45974.85
751.26	46425.40
751.44	46122.30
751.63	46042.43
751.81	46128.45
752.00	45581.64
752.18	46003.52
752.37	45741.38
752.55	45184.33
752.74	45376.84
752.92	45421.90
753.10	45497.67
753.29	45892.93
753.47	45151.57
753.66	45421.90
753.84	45815.11
754.03	45469.00
754.21	45075.79
754.40	45274.45
754.58	45546.82
754.77	44991.83
754.95	45198.67
755.14	44797.27
755.32	44819.80
755.51	44655.96
755.69	45022.54
755.88	45241.68
756.06	45034.83
756.24	45094.22
756.43	44967.25
756.61	44844.37
756.80	44287.32
756.98	44746.07
757.17	44840.28
757.35	44778.84
757.54	44647.77
757.72	44629.34
757.90	44510.55
758.09	44735.83
758.27	44438.87
758.46	44522.84
758.64	44066.14
758.83	44719.45
759.01	44445.02
759.19	44508.50
759.38	44344.67
759.56	44737.88
759.75	44217.69
759.93	44399.96
760.12	44354.91
760.30	44500.31
760.48	44025.18
760.67	43795.81
760.85	44111.20
761.04	44445.02
761.22	44289.37
761.40	44217.69
761.59	44041.57
761.77	43824.48
761.96	43885.92
762.14	43769.19
762.32	43701.61
762.51	43447.66
762.69	43711.84
762.88	43656.55
763.06	44162.40
763.24	43693.41
763.43	43916.64
763.61	43693.41
763.80	43615.59
763.98	43689.32
764.16	43609.45
764.35	43269.48
764.53	43249.00
764.72	43261.29
764.90	43314.54
765.08	43085.17
765.27	43322.73
765.45	42767.73
765.63	42632.57
765.82	43294.06
766.00	42771.83
766.18	42722.68
766.37	43175.28
766.55	42806.64
766.74	42667.38
766.92	42894.71
767.10	42823.03
767.29	42956.14
767.47	42454.39
767.65	42753.40
767.84	42331.51
768.02	42694.00
768.20	42349.95
768.39	42630.52
768.57	42329.47
768.75	42077.57
768.94	42343.80
769.12	42255.74
769.30	42294.65
769.49	42098.05
769.67	41831.81
769.85	42071.42
770.04	42079.61
770.22	41758.08
770.40	41743.75
770.59	41676.16
770.77	41895.30
770.95	41809.28
771.14	41393.54
771.32	41287.05
771.50	41121.16
771.69	41561.48
771.87	41661.83
772.05	41213.32
772.24	41354.63
772.42	41344.39
772.60	41057.68
772.78	40945.04
772.97	41158.03
773.15	41418.12
773.33	40926.61
773.52	40990.09
773.70	41137.55
773.88	40998.29
774.07	41246.09
774.25	40854.93
774.43	41377.16
774.61	41178.51
774.80	41176.46
774.98	41256.33
775.16	41131.40
775.34	41194.89
775.53	41115.02
775.71	41532.81
775.89	41268.62
776.08	41405.83
776.26	41375.11
776.44	41385.35
776.62	41194.89
776.81	41010.57
776.99	41387.40
777.17	41661.83
777.35	41475.46
777.54	41698.69
777.72	41319.82
777.90	41102.73
778.08	41379.21
778.27	41321.87
778.45	41870.72
778.63	41571.72
778.81	41579.91
779.00	41991.55
779.18	41598.34
779.36	41571.72
779.54	41649.54
779.73	41000.33
779.91	41753.99
780.09	41420.17
780.27	41837.95
780.46	41964.93
780.64	41993.60
780.82	41811.33
781.00	41381.26
781.19	42337.66
781.37	41954.69
781.55	41557.38
781.73	42290.55
781.91	42161.53
782.10	41749.89
782.28	41964.93
782.46	42190.20
782.64	42128.77
782.82	41762.18
783.01	42478.97
783.19	41743.75
783.37	42245.50
783.55	42061.18
783.74	42425.72
783.92	42200.44
784.10	42364.28
784.28	42356.09
784.46	42132.86
784.64	42222.97
784.83	42337.66
785.01	42433.91
785.19	41852.29
785.37	42100.09
785.55	42007.94
785.74	42145.15
785.92	42063.23
786.10	41909.63
786.28	41842.05
786.46	41885.06
786.64	41579.91
786.83	41876.86
787.01	42124.67
787.19	41577.86
787.37	41803.14
787.55	41799.04
787.74	41835.91
787.92	41872.77
788.10	41612.68
788.28	41139.60
788.46	41661.83
788.64	40920.46
788.82	41823.62
789.01	41833.86
789.19	41555.33
789.37	41538.95
789.55	41158.03
789.73	41452.94
789.91	41252.23
790.09	40928.66
790.28	40910.22
790.46	40854.93
790.64	41051.53
790.82	41065.87
791.00	40480.15
791.18	40437.14
791.36	40240.54
791.55	40977.81
791.73	40310.17
791.91	40164.76
792.09	40228.25
792.27	40457.62
792.45	40482.20
792.63	40060.32
792.81	40097.18
793.00	40250.78
793.18	39792.03
793.36	39597.48
793.54	39814.56
793.72	39574.95
793.90	39646.63
794.08	39394.73
794.26	39869.86
794.44	39101.87
794.62	39349.67
794.81	39574.95
794.99	38927.79
795.17	39015.85
795.35	39267.75
795.53	39091.63
795.71	39040.43
795.89	38475.19
796.07	38350.26
796.25	38497.72
796.43	38596.02
796.61	38151.61
796.80	38157.75
796.98	38530.48
797.16	38202.81
797.34	38032.83
797.52	38116.79
797.70	38274.49
797.88	38235.58
798.06	37631.43
798.24	37795.26
798.42	37598.66
798.60	37561.79
798.78	37580.23
798.96	37488.07
799.14	37492.16
799.32	37539.27
799.51	36881.87
799.69	37305.80
799.87	37453.25
800.05	36820.43
800.23	36879.82
800.41	36865.49
800.59	36795.85
800.77	36570.58
800.95	36222.42
801.13	36525.52
801.31	36459.99
801.49	36208.09
801.67	36279.77
801.85	36355.54
802.03	35984.86
802.21	35751.39
802.39	35945.95
802.57	35763.68
802.75	35904.99
802.93	35579.36
803.11	35696.10
803.29	35476.96
803.47	35306.98
803.65	35327.46
803.83	35300.84
804.01	35556.83
804.19	34680.30
804.37	35206.63
804.55	35001.83
804.73	34958.83
804.91	35016.17
805.09	34780.65
805.27	34794.99
805.45	34682.35
805.63	34823.66
805.81	34831.85
805.99	34862.57
806.17	34725.36
806.35	34285.04
806.53	34463.22
806.71	34358.77
806.89	34364.92
807.07	34289.14
807.25	34311.67
807.43	34166.26
807.61	33990.14
807.79	33734.14
807.97	33836.54
808.15	33963.51
808.33	33586.69
808.51	33682.94
808.69	33689.09
808.87	33136.13
809.05	33152.52
809.23	33390.08
809.41	33373.70
809.59	32978.44
809.77	33297.92
809.95	32900.62
810.13	33365.51
810.31	33021.45
810.49	33074.70
810.67	32814.60
810.84	32914.95
811.02	32781.84
811.20	32658.96
811.38	32394.77
811.56	32208.40
811.74	32114.20
811.92	32280.08
812.10	31815.19
812.28	32734.73
812.46	32069.14
812.64	32382.48
812.82	32095.77
813.00	32417.30
813.18	31907.35
813.36	31993.37
813.53	31598.11
813.71	31864.35
813.89	31868.44
814.07	31819.29
814.25	31663.64
814.43	31665.69
814.61	31417.89
814.79	31778.33
814.97	31149.60
815.15	31098.41
815.33	31229.48
815.50	31092.26
815.68	31292.96
815.86	31376.93
816.04	31161.89
816.22	30850.60
816.40	30770.73
816.58	30957.10
816.76	31018.53
816.94	30858.79
817.11	30725.68
817.29	30819.88
817.47	30506.54
817.65	30502.45
817.83	30602.80
818.01	30268.98
818.19	30172.72
818.37	30344.75
818.54	30340.66
818.72	30070.33
818.90	30449.20
819.08	30309.94
819.26	30062.13
819.44	30000.69
819.62	30189.11
819.80	30311.99
819.97	30039.61
820.15	29617.72
820.33	29738.55
820.51	29855.29
820.69	29513.28
820.87	29861.43
821.05	29517.37
821.22	29759.03
821.40	29875.77
821.58	29476.41
821.76	29349.44
821.94	29417.02
822.12	29703.74
822.29	29490.75
822.47	29412.93
822.65	29419.07
822.83	29312.58
823.01	29304.38
823.19	29369.92
823.36	28714.57
823.54	28485.20
823.72	28919.37
823.90	28784.20
824.08	28833.35
824.25	28847.69
824.43	28649.03
824.61	28784.20
824.79	28673.61
824.97	28814.92
825.15	29038.15
825.32	28661.32
825.50	28329.55
825.68	28298.83
825.86	28745.29
826.04	28632.65
826.21	28296.78
826.39	28614.22
826.57	28413.52
826.75	28249.68
826.93	28118.61
827.10	28167.76
827.28	28071.51
827.46	28415.57
827.64	28048.98
827.81	27772.50
827.99	28276.30
828.17	27780.70
828.35	27614.81
828.53	27637.34
828.70	27975.25
828.88	27534.94
829.06	27901.53
829.24	27530.84
829.41	27498.08
829.59	27874.90
829.77	27637.34
829.95	27756.12
830.12	27487.84
830.30	27645.53
830.48	27420.25
830.66	27389.53
830.84	27430.49
831.01	27350.62
831.19	27256.42
831.37	27086.43
831.55	27250.27
831.72	27192.93
831.90	26975.84
832.08	27106.91
832.25	27301.47
832.43	26912.36
832.61	26916.45
832.79	27133.54
832.96	26848.87
833.14	26623.59
833.32	27078.24
833.50	26906.21
833.67	26637.93
833.85	26846.82
834.03	26519.15
834.20	26900.07
834.38	26570.35
834.56	26816.10
834.74	26519.15
834.91	26644.07
835.09	26596.97
835.27	26101.36
835.44	26189.42
835.62	26148.46
835.80	26492.52
835.98	26453.61
836.15	26607.21
836.33	26216.05
836.51	26220.14
836.68	26318.45
836.86	26203.76
837.04	26048.11
837.21	25996.92
837.39	26318.45
837.57	26363.50
837.75	25984.63
837.92	25972.34
838.10	26187.38
838.28	25814.65
838.45	25650.81
838.63	25857.65
838.81	25925.24
838.98	25568.89
839.16	25640.57
839.34	25478.78
839.51	25529.98
839.69	25380.48
839.87	25476.73
840.04	25466.49
840.22	25562.75
840.40	25190.02
840.57	25134.72
840.75	25411.20
840.93	25130.62
841.10	25396.86
841.28	25624.18
841.46	24917.64
841.63	24944.26
841.81	24983.17
841.98	25206.40
842.16	24905.35
842.34	24983.17
842.51	24596.10
842.69	25284.22
842.87	24952.45
843.04	24997.51
843.22	24755.85
843.40	24716.93
843.57	24915.59
843.75	25073.28
843.92	24661.64
844.10	24635.02
844.28	24852.10
844.45	24925.83
844.63	24790.66
844.81	24381.07
844.98	24929.92
845.16	24383.12
845.33	24481.42
845.51	24630.92
845.69	24641.16
845.86	24174.22
846.04	24397.45
846.21	24643.21
846.39	24227.47
846.57	24282.77
846.74	24350.35
846.92	24223.37
847.09	24096.40
847.27	23981.71
847.45	23963.28
847.62	24213.13
847.80	24391.31
847.97	24053.39
848.15	24145.55
848.32	23738.01
848.50	24114.83
848.68	23451.29
848.85	23695.00
849.03	23535.26
849.20	23824.02
849.38	23733.91
849.56	23809.68
849.73	23627.42
849.91	23871.12
850.08	23864.98
850.26	23303.84
850.43	23565.98
850.61	23561.88
850.78	23234.21
850.96	23355.04
851.14	23783.06
851.31	23551.64
851.49	23228.06
851.66	23398.04
851.84	23107.23
852.01	23406.23
852.19	23328.41
852.36	23002.78
852.54	23326.36
852.71	23187.10
852.89	23457.43
853.07	23189.15
853.24	23410.33
853.42	23070.37
853.59	23176.86
853.77	23117.47
853.94	23295.64
854.12	23479.96
854.29	22711.97
854.47	23160.48
854.64	22822.56
854.82	22986.40
854.99	22648.49
855.17	22955.68
855.34	22859.43
855.52	22810.28
855.69	23037.60
855.87	22673.06
856.04	22566.57
856.22	22488.74
856.39	22480.55
856.57	22562.47
856.74	22433.45
856.92	22599.34
857.09	22365.87
857.27	22634.15
857.44	22509.22
857.62	22329.00
857.79	22226.60
857.97	22359.72
858.14	22429.35
858.32	22427.31
858.49	22224.56
858.67	21966.51
858.84	22179.50
859.02	22390.44
859.19	21929.65
859.37	22142.64
859.54	22001.33
859.72	22034.10
859.89	21982.90
860.06	22003.38
860.24	22019.76
860.41	22087.34
860.59	21649.08
860.76	22101.68
860.94	21747.38
861.11	21909.17
861.29	21755.57
861.46	22052.53
861.64	21687.99
861.81	21866.16
861.98	21491.38
862.16	21718.71
862.33	21024.45
862.51	21522.10
862.68	21509.82
862.86	21292.73
863.03	21327.55
863.21	21370.55
863.38	21563.06
863.55	21264.06
863.73	21378.75
863.90	21225.15
864.08	21446.33
864.25	21247.68
864.43	20905.66
864.60	20831.94
864.77	20983.49
864.95	21098.17
865.12	21001.92
865.30	21130.94
865.47	20981.44
865.64	20879.04
865.82	21198.52
865.99	21186.24
866.17	20807.36
866.34	21010.11
866.51	20672.20
866.69	20840.13
866.86	20952.77
867.04	20608.71
867.21	20559.56
867.38	20653.76
867.56	20600.52
867.73	20514.50
867.91	20760.26
868.08	20502.22
868.25	20561.61
868.43	20418.25
868.60	20330.19
868.78	20442.82
868.95	20448.97
869.12	19998.41
869.30	20135.63
869.47	20238.03
869.64	20209.36
869.82	20686.53
869.99	20113.10
870.16	20373.19
870.34	20195.02
870.51	20084.43
870.69	20070.09
870.86	20043.47
871.03	20020.94
871.21	19840.72
871.38	20125.39
871.55	19838.67
871.73	19979.98
871.90	19642.07
872.07	19484.37
872.25	19766.99
872.42	19758.80
872.59	19689.17
872.77	19480.28
872.94	19541.72
873.11	19781.33
873.29	19492.57
873.46	19666.64
873.63	19246.81
873.81	19547.86
873.98	19214.04
874.15	19136.22
874.33	19218.14
874.50	18970.33
874.67	19001.05
874.85	19265.24
875.02	19107.55
875.19	18657.00
875.37	19029.73
875.54	18892.51
875.71	19003.10
875.88	18804.45
876.06	18945.76
876.23	18757.35
876.40	18618.08
876.58	18702.05
876.75	18755.30
876.92	18853.60
877.10	18609.89
877.27	18753.25
877.44	18343.66
877.61	18468.58
877.79	18448.10
877.96	18173.67
878.13	18292.46
878.31	18462.44
878.48	18362.09
878.65	18188.01
878.82	18153.20
879.00	18026.22
879.17	18278.12
879.34	18083.56
879.51	18015.98
879.69	18032.36
879.86	18003.69
880.03	17946.35
880.21	17501.94
880.38	17866.48
880.55	18003.69
880.72	17897.20
880.90	17819.38
881.07	17919.73
881.24	17657.59
881.41	18020.08
881.59	17897.20
881.76	17891.06
881.93	17630.96
882.10	17391.35
882.28	17395.45
882.45	17716.98
882.62	17643.25
882.79	17532.66
882.96	17350.39
883.14	17624.82
883.31	17225.47
883.48	17497.84
883.65	17313.53
883.83	17493.75
884.00	17350.39
884.17	17450.74
884.34	17575.67
884.51	17323.77
884.69	17151.74
884.86	17170.17
885.03	17231.61
885.20	17028.86
885.38	17207.03
885.55	17088.25
885.72	17213.18
885.89	17080.06
886.06	17014.52
886.24	16981.76
886.41	17045.24
886.58	17180.41
886.75	17178.36
886.92	16881.41
887.10	17006.33
887.27	16965.37
887.44	16961.28
887.61	17043.20
887.78	16971.52
887.95	16897.79
888.13	16690.95
888.30	16654.08
888.47	16672.51
888.64	16897.79
888.81	16592.64
888.99	16666.37
889.16	16422.66
889.33	16494.34
889.50	16514.82
889.67	16684.80
889.84	16490.24
890.01	16492.29
890.19	16510.72
890.36	16389.89
890.53	16166.67
890.70	16224.01
890.87	16183.05
891.04	16502.53
891.22	16379.65
891.39	16185.10
891.56	16013.07
891.73	16082.70
891.90	15994.64
892.07	16133.90
892.24	15941.39
892.42	16088.84
892.59	16103.18
892.76	15879.95
892.93	16029.45
893.10	16105.23
893.27	15978.25
893.44	15652.63
893.61	15810.32
893.79	16060.17
893.96	15888.14
894.13	16043.79
894.30	15935.24
894.47	15722.26
894.64	15795.98
894.81	15744.78
894.98	15830.80
895.15	15757.07
895.33	15789.84
895.50	15853.33
895.67	15791.89
895.84	15544.08
896.01	15654.67
896.18	15826.70
896.35	15660.82
896.52	15683.34
896.69	15611.67
896.86	15449.88
897.04	15740.69
897.21	15847.18
897.38	15787.79
897.55	15652.63
897.72	15742.74
897.89	15648.53
898.06	15644.43
898.23	15697.68
898.40	15666.96
898.57	15570.71
898.74	15517.46
898.91	15570.71
899.08	15652.63
899.26	15515.41
899.43	15552.27
899.60	15353.62
899.77	15630.10
899.94	15314.71
900.11	15402.77
900.28	15492.88
900.45	15523.60
900.62	15632.15
900.79	15480.60
900.96	15585.04
901.13	15470.36
901.30	15302.42
901.47	15484.69
901.64	15607.57
901.81	15476.50
901.98	15626.00
902.15	15673.10
902.32	15257.37
902.49	15499.03
902.66	15437.59
902.83	15294.23
903.01	15220.50
903.18	15628.05
903.35	15507.22
903.52	15560.47
903.69	15662.86
903.86	15638.29
904.03	15550.23
904.20	15630.10
904.37	15535.89
904.54	15466.26
904.71	15191.83
904.88	15654.67
905.05	15441.68
905.22	15243.03
905.39	15419.16
905.56	15386.39
905.73	15220.50
905.90	15566.61
906.07	15570.71
906.24	15357.72
906.41	15240.98
906.58	15736.59
906.75	15392.53
906.92	15300.37
907.09	15400.72
907.26	15320.85
907.43	15314.71
907.60	15165.21
907.77	15224.60
907.93	15318.81
908.10	15597.33
908.27	15533.84
908.44	15517.46
908.61	15386.39
908.78	15218.46
908.95	15050.52
909.12	15560.47
909.29	15138.58
909.46	15187.74
909.63	15410.96
909.80	15337.24
909.97	15441.68
910.14	15243.03
910.31	15247.13
910.48	15185.69
910.65	15048.47
910.82	15394.58
910.99	15146.78
911.16	15245.08
911.33	15136.54
911.50	15142.68
911.66	14862.11
911.83	15191.83
912.00	15003.42
912.17	14933.79
912.34	14845.73
912.51	14941.98
912.68	14921.50
912.85	14868.25
913.02	14782.24
913.19	14847.77
913.36	14860.06
913.53	14835.49
913.70	14804.77
913.86	15128.35
914.03	14845.73
914.20	14800.67
914.37	14690.08
914.54	14778.14
914.71	14620.45
914.88	14649.12
915.05	14798.62
915.22	14378.79
915.39	14583.59
915.55	14444.32
915.72	14335.78
915.89	14448.42
916.06	14413.60
916.23	14239.53
916.40	14309.16
916.57	14370.60
916.74	14120.74
916.91	14362.40
917.07	14264.10
917.24	13901.61
917.41	13997.87
917.58	13930.28
917.75	13799.21
917.92	13889.32
918.09	13979.43
918.26	13934.38
918.42	14135.08
918.59	13954.86
918.76	13889.32
918.93	13610.80
919.10	13631.28
919.27	13649.71
919.44	13649.71
919.60	13727.53
919.77	13547.31
919.94	13532.98
920.11	13666.10
920.28	13483.83
920.45	13375.28
920.61	13307.70
920.78	13360.95
920.95	13180.73
921.12	13266.74
921.29	12955.45
921.46	13166.39
921.62	12898.11
921.79	13137.72
921.96	12922.68
922.13	12758.85
922.30	12943.16
922.47	12607.30
922.63	12836.67
922.80	12879.68
922.97	12795.71
923.14	12631.87
923.31	12732.22
923.47	12691.26
923.64	12941.11
923.81	12443.46
923.98	12541.76
924.15	12400.45
924.32	12359.49
924.48	12490.56
924.65	12556.10
924.82	12324.68
924.99	12191.56
925.15	12078.92
925.32	12234.57
925.49	11921.23
925.66	11939.66
925.83	11931.47
925.99	12056.39
926.16	11949.90
926.33	11861.84
926.50	11644.75
926.67	11943.75
926.83	11732.81
927.00	11566.93
927.17	11644.75
927.34	11458.39
927.50	11468.62
927.67	11673.42
927.84	11329.36
928.01	11337.56
928.17	11351.89
928.34	11501.39
928.51	11190.10
928.68	11077.46
928.84	11192.15
929.01	11046.74
929.18	10930.01
929.35	10868.57
929.51	11007.83
929.68	10860.38
929.85	10721.12
930.02	10745.69
930.18	10700.64
930.35	10714.97
930.52	10774.36
930.69	10479.46
930.85	10618.72
931.02	10616.67
931.19	10483.55
931.36	10428.26
931.52	10346.34
931.69	10301.28
931.86	10190.69
932.02	10213.22
932.19	10164.07
932.36	10194.79
932.53	10157.92
932.69	10051.43
932.86	10170.21
933.03	10033.00
933.19	9793.39
933.36	10174.31
933.53	10006.38
933.70	9938.79
933.86	9676.65
934.03	9889.64
934.20	9531.25
934.36	9772.91
934.53	9305.97
934.70	9404.27
934.86	9490.29
935.03	9351.03
935.20	9391.98
935.36	9179.00
935.53	9111.41
935.70	9060.21
935.86	9133.94
936.03	8879.99
936.20	8757.11
936.36	8746.87
936.53	8879.99
936.70	8505.21
936.86	8720.25
937.03	8646.52
937.20	8421.25
937.36	8314.75
937.53	8036.23
937.70	8099.72
937.86	7976.84
938.03	7894.92
938.20	7909.26
938.36	7995.27
938.53	7821.19
938.70	7657.36
938.86	7593.87
939.03	7677.83
939.20	7419.79
939.36	7481.23
939.53	7325.58
939.70	7571.34
939.86	6971.29
940.03	6942.61
940.19	6940.57
940.36	6752.15
940.53	6844.31
940.69	6829.98
940.86	6598.56
941.03	6487.96
941.19	6455.20
941.36	6516.64
941.52	6408.09
941.69	6350.75
941.86	6215.59
942.02	6401.95
942.19	6303.65
942.35	6266.78
942.52	6049.70
942.69	6166.43
942.85	5943.21
943.02	6061.99
943.18	5945.25
943.35	5810.09
943.52	5750.70
943.68	5879.72
943.85	5787.56
944.01	5738.41
944.18	5748.65
944.35	5752.74
944.51	5728.17
944.68	5457.84
944.84	5654.44
945.01	5490.60
945.17	5578.67
945.34	5488.56
945.51	5509.04
945.67	5547.95
945.84	5488.56
946.00	5433.26
946.17	5468.08
946.33	5439.40
946.50	5545.90
946.67	5291.95
946.83	5203.89
947.00	5496.75
947.16	5377.97
947.33	5328.81
947.49	5199.79
947.66	5363.63
947.82	5375.92
947.99	5339.05
948.16	5435.31
948.32	5425.07
948.49	5515.18
948.65	5283.76
948.82	5404.59
948.98	5337.01
949.15	5410.73
949.31	5398.45
949.48	5359.53
949.64	5330.86
949.81	5316.53
949.97	5298.10
950.14	5449.64
950.30	5466.03
950.47	5478.32
950.63	5394.35
950.80	5388.21
950.96	5406.64
951.13	5410.73
951.30	5519.28
951.46	5398.45
951.63	5490.60
951.79	5533.61
951.96	5431.21
952.12	5418.93
952.29	5439.40
952.45	5330.86
952.62	5427.12
952.78	5515.18
952.94	5568.43
953.11	5437.36
953.27	5300.14
953.44	5519.28
953.60	5482.41
953.77	5527.47
953.93	5504.94
954.10	5435.31
954.26	5326.77
954.43	5484.46
954.59	5572.52
954.76	5728.17
954.92	5390.25
955.09	5687.21
955.25	5398.45
955.42	5449.64
955.58	5681.07
955.75	5654.44
955.91	5502.89
956.07	5537.71
956.24	5607.34
956.40	5558.19
956.57	5517.23
956.73	5486.51
956.90	5590.95
957.06	5449.64
957.23	5461.93
957.39	5545.90
957.56	5515.18
957.72	5431.21
957.88	5498.80
958.05	5660.59
958.21	5625.77
958.38	5525.42
958.54	5490.60
958.71	5640.11
958.87	5490.60
959.03	5494.70
959.20	5425.07
959.36	5447.60
959.53	5482.41
959.69	5513.13
959.85	5398.45
960.02	5568.43
960.18	5513.13
960.35	5451.69
960.51	5756.84
960.68	5500.84
960.84	5427.12
961.00	5535.66
961.17	5390.25
961.33	5566.38
961.50	5408.69
961.66	5341.10
961.82	5554.09
961.99	5633.96
962.15	5408.69
962.31	5461.93
962.48	5423.02
962.64	5574.57
962.81	5531.56
962.97	5506.99
963.13	5451.69
963.30	5517.23
963.46	5496.75
963.62	5408.69
963.79	5525.42
963.95	5416.88
964.12	5386.16
964.28	5390.25
964.44	5453.74
964.61	5345.20
964.77	5468.08
964.93	5517.23
965.10	5482.41
965.26	5300.14
965.42	5447.60
965.59	5377.97
965.75	5320.62
965.92	5398.45
966.08	5394.35
966.24	5482.41
966.41	5324.72
966.57	5232.56
966.73	5345.20
966.90	5392.30
967.06	5447.60
967.22	5332.91
967.39	5359.53
967.55	5283.76
967.71	5214.13
967.88	5115.83
968.04	5214.13
968.20	5183.41
968.37	5281.71
968.53	5181.36
968.69	5265.33
968.85	5308.34
969.02	5371.82
969.18	5261.23
969.34	5197.74
969.51	5214.13
969.67	5285.81
969.83	5136.31
970.00	5314.48
970.16	5060.53
970.32	5097.39
970.48	5275.57
970.65	5103.54
970.81	5005.24
970.97	4972.47
971.14	5015.48
971.30	5148.59
971.46	5038.00
971.63	5087.15
971.79	5070.77
971.95	4935.60
972.11	4931.51
972.28	5111.73
972.44	5033.91
972.60	4861.88
972.76	5031.86
972.93	5081.01
973.09	5054.39
973.25	5017.52
973.42	4956.08
973.58	5124.02
973.74	4956.08
973.90	4931.51
974.07	5074.87
974.23	5003.19
974.39	4937.65
974.55	4792.25
974.72	4927.41
974.88	4853.69
975.04	4753.34
975.20	4806.58
975.37	4876.21
975.53	4855.73
975.69	4855.73
975.85	4726.71
976.01	4763.58
976.18	4757.43
976.34	4620.22
976.50	4667.32
976.66	4857.78
976.83	4669.37
976.99	4741.05
977.15	4839.35
977.31	4689.85
977.47	4730.81
977.64	4648.89
977.80	4693.94
977.96	4618.17
978.12	4661.18
978.29	4579.26
978.45	4581.31
978.61	4661.18
978.77	4706.23
978.93	4528.06
979.10	4562.87
979.26	4597.69
979.42	4620.22
979.58	4468.67
979.74	4546.49
979.91	4624.31
980.07	4409.28
980.23	4511.68
980.39	4542.39
980.55	4505.53
980.71	4566.97
980.88	4491.20
981.04	4487.10
981.20	4380.61
981.36	4454.33
981.52	4468.67
981.68	4306.88
981.85	4392.89
982.01	4415.42
982.17	4296.64
982.33	4313.02
982.49	4503.48
982.65	4339.65
982.82	4341.69
982.98	4386.75
983.14	4237.25
983.30	4382.65
983.46	4364.22
983.62	4315.07
983.79	4306.88
983.95	4339.65
984.11	4149.18
984.27	4255.68
984.43	4222.91
984.59	4292.54
984.75	4280.25
984.91	4198.34
985.08	4313.02
985.24	4059.07
985.40	4253.63
985.56	4173.76
985.72	4173.76
985.88	4304.83
986.04	4128.70
986.20	3995.59
986.37	4161.47
986.53	4095.94
986.69	4128.70
986.85	4132.80
987.01	3999.68
987.17	4046.79
987.33	3868.61
987.49	3956.68
987.65	4093.89
987.82	4050.88
987.98	3975.11
988.14	3954.63
988.30	3852.23
988.46	3940.29
988.62	4028.35
988.78	3975.11
988.94	3917.76
989.10	3870.66
989.26	3928.00
989.42	3997.64
989.59	3848.13
989.75	3911.62
989.91	3903.43
990.07	3788.74
990.23	3876.80
990.39	3764.17
990.55	3862.47
990.71	3760.07
990.87	3731.40
991.03	3784.65
991.19	3723.21
991.35	3798.98
991.51	3737.54
991.67	3827.65
991.83	3780.55
992.00	3772.36
992.16	3846.09
992.32	3792.84
992.48	3698.63
992.64	3680.20
992.80	3741.64
992.96	3702.73
993.12	3694.54
993.28	3594.19
993.44	3649.48
993.60	3665.86
993.76	3895.24
993.92	3704.78
994.08	3737.54
994.24	3700.68
994.40	3618.76
994.56	3698.63
994.72	3585.99
994.88	3493.83
995.04	3622.86
995.20	3592.14
995.36	3645.38
995.52	3602.38
995.68	3616.71
995.84	3495.88
996.00	3729.35
996.16	3520.46
996.32	3514.31
996.48	3469.26
996.64	3459.02
996.80	3542.99
996.96	3461.07
997.12	3495.88
997.28	3368.91
997.44	3450.83
997.60	3489.74
997.76	3450.83
997.92	3538.89
998.08	3502.03
998.24	3456.97
998.40	3350.48
998.56	3360.72
998.72	3311.57
998.88	3332.05
999.04	3358.67
999.20	3393.48
999.36	3350.48
999.52	3426.25
999.68	3293.13
999.84	3426.25
1000.00	3254.22
1000.16	3297.23
1000.32	3258.32
1000.48	3489.74
1000.64	3207.12
1000.80	3200.98
1000.95	3186.64
1001.11	3311.57
1001.27	3133.39
1001.43	3227.60
1001.59	3254.22
1001.75	3180.50
1001.91	3088.34
1002.07	3151.82
1002.23	3180.50
1002.39	3207.12
1002.55	3241.93
1002.71	3076.05
1002.87	3106.77
1003.03	3114.96
1003.19	3067.86
1003.34	3188.69
1003.50	3022.80
1003.66	3157.97
1003.82	3080.14
1003.98	3028.95
1004.14	3112.91
1004.30	3084.24
1004.46	3020.75
1004.62	3106.77
1004.78	3082.19
1004.94	3100.62
1005.09	3051.47
1005.25	3098.58
1005.41	3000.27
1005.57	2949.08
1005.73	3002.32
1005.89	3067.86
1006.05	3024.85
1006.21	2992.08
1006.37	2975.70
1006.52	2949.08
1006.68	2977.75
1006.84	3094.48
1007.00	2957.27
1007.16	2994.13
1007.32	2938.84
1007.48	2961.36
1007.64	2908.12
1007.79	2906.07
1007.95	2850.77
1008.11	2947.03
1008.27	2865.11
1008.43	2955.22
1008.59	2856.92
1008.75	2930.64
1008.91	2893.78
1009.06	2899.92
1009.22	2861.01
1009.38	2813.91
1009.54	2793.43
1009.70	2783.19
1009.86	2770.90
1010.01	2910.16
1010.17	2686.94
1010.33	3008.47
1010.49	2863.06
1010.65	2725.85
1010.81	2656.22
1010.96	2752.47
1011.12	2777.05
1011.28	2695.13
1011.44	2711.51
1011.60	2725.85
1011.76	2748.37
1011.91	2670.55
1012.07	2672.60
1012.23	2633.69
1012.39	2740.18
1012.55	2633.69
1012.71	2637.78
1012.86	2731.99
1013.02	2658.26
1013.18	2645.98
1013.34	2688.98
1013.50	2654.17
1013.65	2729.94
1013.81	2564.06
1013.97	2498.52
1014.13	2592.73
1014.29	2666.46
1014.44	2703.32
1014.60	2611.16
1014.76	2510.81
1014.92	2688.98
1015.07	2697.17
1015.23	2592.73
1015.39	2508.76
1015.55	2650.07
1015.71	2629.59
1015.86	2463.71
1016.02	2496.47
1016.18	2418.65
1016.34	2609.11
1016.49	2590.68
1016.65	2592.73
1016.81	2541.53
1016.97	2494.43
1017.12	2545.63
1017.28	2443.23
1017.44	2412.51
1017.60	2453.47
1017.75	2426.84
1017.91	2527.19
1018.07	2549.72
1018.23	2449.37
1018.38	2510.81
1018.54	2420.70
1018.70	2584.54
1018.86	2426.84
1019.01	2408.41
1019.17	2340.83
1019.33	2510.81
1019.49	2359.26
1019.64	2428.89
1019.80	2402.27
1019.96	2459.61
1020.12	2488.28
1020.27	2287.58
1020.43	2369.50
1020.59	2396.12
1020.74	2363.36
1020.90	2545.63
1021.06	2320.35
1021.22	2328.54
1021.37	2349.02
1021.53	2303.96
1021.69	2293.72
1021.84	2306.01
1022.00	2340.83
1022.16	2324.44
1022.31	2287.58
1022.47	2267.10
1022.63	2330.59
1022.79	2224.09
1022.94	2279.39
1023.10	2324.44
1023.26	2289.63
1023.41	2209.76
1023.57	2226.14
1023.73	2371.55
1023.88	2273.25
1024.04	2330.59
1024.20	2248.67
1024.35	2287.58
1024.51	2301.92
1024.67	2326.49
1024.82	2326.49
1024.98	2136.03
1025.14	2285.53
1025.29	2273.25
1025.45	2256.86
1025.61	2238.43
1025.76	2162.66
1025.92	2207.71
1026.08	2254.81
1026.23	2242.53
1026.39	2191.33
1026.55	2240.48
1026.70	2101.22
1026.86	2244.57
1027.02	2273.25
1027.17	2131.94
1027.33	2199.52
1027.48	2183.13
1027.64	2154.46
1027.80	2213.85
1027.95	2172.89
1028.11	2082.78
1028.27	2050.02
1028.42	2183.13
1028.58	2146.27
1028.73	2107.36
1028.89	2052.06
1029.05	2201.57
1029.20	2185.18
>>>>>End Processed Spectral Data<<<<<
