SpectraSuite Data File
++++++++++++++++++++++++++++++++++++
Date: Fri Jun 02 14:51:09 CEST 2017
User: INFO_000
Dark Spectrum Present: No
Reference Spectrum Present: No
Number of Sampled Component Spectra: 1
Spectrometers: USB4H00879
Integration Time (usec): 80000 (USB4H00879)
Spectra Averaged: 1 (USB4H00879)
Boxcar Smoothing: 0 (USB4H00879)
Correct for Electrical Dark: No (USB4H00879)
Strobe/Lamp Enabled: No (USB4H00879)
Correct for Detector Non-linearity: No (USB4H00879)
Correct for Stray Light: No (USB4H00879)
Number of Pixels in Processed Spectrum: 3648
>>>>>Begin Processed Spectral Data<<<<<
345.13	1296.36
345.34	1296.36
345.56	1296.36
345.78	1249.26
345.99	1273.84
346.21	1679.33
346.42	1705.96
346.64	1638.38
346.86	1839.08
347.07	1650.66
347.29	1689.57
347.50	1732.58
347.72	1689.57
347.94	1787.88
348.15	1552.36
348.37	1626.09
348.59	1693.67
348.80	1652.71
349.02	1843.17
349.23	1816.55
349.45	1769.44
349.67	1810.40
349.88	1777.64
350.10	1927.14
350.31	1834.98
350.53	1853.41
350.75	2002.91
350.96	1794.02
351.18	1855.46
351.39	1814.50
351.61	1818.60
351.82	1828.84
352.04	1912.80
352.26	1777.64
352.47	1925.09
352.69	1945.57
352.90	1755.11
353.12	1855.46
353.34	1839.08
353.55	1943.52
353.77	1900.52
353.98	1765.35
354.20	1849.32
354.41	1888.23
354.63	1863.65
354.85	1968.10
355.06	1925.09
355.28	1814.50
355.49	1869.80
355.71	1851.36
355.92	1896.42
356.14	1894.37
356.35	1875.94
356.57	1804.26
356.79	1931.23
357.00	1816.55
357.22	1937.38
357.43	1804.26
357.65	1951.71
357.86	1808.36
358.08	1931.23
358.29	1884.13
358.51	1996.77
358.72	1943.52
358.94	1923.04
359.16	1966.05
359.37	1904.61
359.59	1920.99
359.80	1947.62
360.02	1939.43
360.23	1970.15
360.45	2080.74
360.66	1886.18
360.88	1871.84
361.09	1888.23
361.31	1949.67
361.52	1986.53
361.74	1953.76
361.95	2035.68
362.17	1923.04
362.38	2142.18
362.60	2013.15
362.81	1986.53
363.03	1908.71
363.24	1937.38
363.46	2086.88
363.67	1910.75
363.89	1990.63
364.10	1843.17
364.32	1929.19
364.53	2039.78
364.75	1865.70
364.96	2000.87
365.18	2033.63
365.39	1941.47
365.61	1974.24
365.82	2138.08
366.04	1959.91
366.25	1884.13
366.47	2058.21
366.68	2047.97
366.90	1966.05
367.11	2033.63
367.33	2109.41
367.54	2070.50
367.76	1980.39
367.97	2129.89
368.19	2045.92
368.40	2103.26
368.62	1910.75
368.83	1920.99
369.05	2058.21
369.26	1957.86
369.48	2011.11
369.69	1966.05
369.91	2050.02
370.12	1980.39
370.33	2119.65
370.55	2056.16
370.76	2060.26
370.98	2117.60
371.19	2043.87
371.41	1966.05
371.62	2041.82
371.84	1951.71
372.05	2154.46
372.27	2107.36
372.48	2031.58
372.69	2095.07
372.91	2138.08
373.12	2156.51
373.34	2041.82
373.55	2166.75
373.77	2222.05
373.98	2074.59
374.20	2181.09
374.41	2240.48
374.62	2082.78
374.84	2127.84
375.05	2138.08
375.27	2129.89
375.48	2156.51
375.70	2168.80
375.91	2174.94
376.12	2256.86
376.34	2058.21
376.55	2230.24
376.77	2248.67
376.98	2142.18
377.19	2164.70
377.41	2123.74
377.62	2244.57
377.84	2265.05
378.05	2275.29
378.27	2199.52
378.48	2213.85
378.69	2420.70
378.91	2330.59
379.12	2189.28
379.34	2174.94
379.55	2338.78
379.76	2342.88
379.98	2181.09
380.19	2213.85
380.41	2293.72
380.62	2310.11
380.83	2176.99
381.05	2199.52
381.26	2351.07
381.47	2189.28
381.69	2215.90
381.90	2275.29
382.12	2273.25
382.33	2265.05
382.54	2269.15
382.76	2234.33
382.97	2297.82
383.19	2201.57
383.40	2287.58
383.61	2295.77
383.83	2230.24
384.04	2279.39
384.25	2346.97
384.47	2361.31
384.68	2338.78
384.89	2301.92
385.11	2291.68
385.32	2293.72
385.54	2338.78
385.75	2256.86
385.96	2428.89
386.18	2338.78
386.39	2416.60
386.60	2334.68
386.82	2418.65
387.03	2353.12
387.24	2445.27
387.46	2447.32
387.67	2437.08
387.88	2387.93
388.10	2455.51
388.31	2461.66
388.52	2557.91
388.74	2469.85
388.95	2387.93
389.16	2461.66
389.38	2482.14
389.59	2652.12
389.80	2461.66
390.02	2482.14
390.23	2478.04
390.44	2502.62
390.66	2334.68
390.87	2506.71
391.08	2478.04
391.30	2602.97
391.51	2613.21
391.72	2605.02
391.94	2580.44
392.15	2539.48
392.36	2564.06
392.58	2529.24
392.79	2641.88
393.00	2553.82
393.22	2629.59
393.43	2705.37
393.64	2742.23
393.85	2746.33
394.07	2582.49
394.28	2615.26
394.49	2609.11
394.71	2721.75
394.92	2770.90
395.13	2621.40
395.35	2658.26
395.56	2617.30
395.77	2818.00
395.98	2754.52
396.20	2830.29
396.41	2838.48
396.62	2863.06
396.84	2775.00
397.05	2787.29
397.26	2699.22
397.47	2881.49
397.69	2777.05
397.90	2934.74
398.11	2838.48
398.32	2752.47
398.54	2768.85
398.75	2793.43
398.96	2838.48
399.18	2979.79
399.39	2871.25
399.60	3024.85
399.81	2895.83
400.03	2959.31
400.24	3125.20
400.45	2977.75
400.66	3010.51
400.88	2957.27
401.09	3076.05
401.30	3002.32
401.51	3033.04
401.73	3061.71
401.94	3047.38
402.15	3168.21
402.36	3063.76
402.58	3123.15
402.79	3190.74
403.00	3092.43
403.21	3143.63
403.43	3035.09
403.64	3172.30
403.85	3006.42
404.06	3168.21
404.27	3096.53
404.49	3213.26
404.70	3180.50
404.91	3223.50
405.12	3139.54
405.34	3190.74
405.55	3211.22
405.76	3018.71
405.97	3147.73
406.19	3289.04
406.40	3170.26
406.61	3258.32
406.82	3323.85
407.03	3327.95
407.25	3286.99
407.46	3325.90
407.67	3375.05
407.88	3327.95
408.09	3293.13
408.31	3217.36
408.52	3389.39
408.73	3211.22
408.94	3311.57
409.15	3358.67
409.37	3442.64
409.58	3573.71
409.79	3411.92
410.00	3434.44
410.21	3307.47
410.43	3352.52
410.64	3370.96
410.85	3440.59
411.06	3551.18
411.27	3559.37
411.48	3542.99
411.70	3561.42
411.91	3526.60
412.12	3592.14
412.33	3506.12
412.54	3452.88
412.76	3647.43
412.97	3598.28
413.18	3463.12
413.39	3557.32
413.60	3522.51
413.81	3534.79
414.03	3604.42
414.24	3604.42
414.45	3682.25
414.66	3516.36
414.87	3651.53
415.08	3604.42
415.30	3620.81
415.51	3559.37
415.72	3563.47
415.93	3637.19
416.14	3751.88
416.35	3657.67
416.56	3684.30
416.78	3631.05
416.99	3592.14
417.20	3870.66
417.41	3801.03
417.62	3712.97
417.83	3762.12
418.04	3690.44
418.26	3774.41
418.47	3731.40
418.68	3882.95
418.89	3794.89
419.10	3923.91
419.31	3815.37
419.52	3915.72
419.73	3868.61
419.95	3956.68
420.16	3866.56
420.37	3948.48
420.58	3919.81
420.79	3841.99
421.00	3905.48
421.21	4011.97
421.42	3936.20
421.63	4061.12
421.85	3948.48
422.06	4050.88
422.27	3985.35
422.48	4020.16
422.69	4009.92
422.90	4073.41
423.11	4063.17
423.32	4106.18
423.53	4245.44
423.75	4167.62
423.96	4364.22
424.17	4298.69
424.38	4358.08
424.59	4179.90
424.80	4335.55
425.01	4157.38
425.22	4298.69
425.43	4222.91
425.64	4345.79
425.85	4376.51
426.06	4435.90
426.28	4462.52
426.49	4335.55
426.70	4292.54
426.91	4429.76
427.12	4550.59
427.33	4339.65
427.54	4321.21
427.75	4411.32
427.96	4493.24
428.17	4415.42
428.38	4673.46
428.59	4640.70
428.80	4425.66
429.01	4618.17
429.23	4595.64
429.44	4726.71
429.65	4716.47
429.86	4767.67
430.07	4624.31
430.28	4771.77
430.49	4726.71
430.70	4820.92
430.91	4841.40
431.12	4777.91
431.33	5027.76
431.54	4911.03
431.75	4868.02
431.96	4884.41
432.17	4845.49
432.38	4898.74
432.59	5220.27
432.80	5081.01
433.01	5089.20
433.22	5126.07
433.43	5015.48
433.64	5121.97
433.85	4984.76
434.06	5146.55
434.27	4888.50
434.49	5138.35
434.70	5175.22
434.91	5314.48
435.12	5220.27
435.33	5205.94
435.54	5259.18
435.75	5173.17
435.96	5418.93
436.17	5138.35
436.38	5382.06
436.59	5402.54
436.80	5386.16
437.01	5539.76
437.22	5504.94
437.43	5521.32
437.64	5369.77
437.85	5611.43
438.06	5605.29
438.27	5466.03
438.48	5541.80
438.69	5642.15
438.90	5570.48
439.11	5556.14
439.32	5703.59
439.53	5687.21
439.74	5709.74
439.95	5910.44
440.16	5570.48
440.37	5607.34
440.57	5672.87
440.78	5808.04
440.99	5769.13
441.20	5898.15
441.41	5685.16
441.62	5834.66
441.83	5795.75
442.04	5820.33
442.25	5840.81
442.46	5877.67
442.67	6006.69
442.88	6322.08
443.09	5953.45
443.30	6004.64
443.51	5904.29
443.72	6358.94
443.93	5990.31
444.14	6285.22
444.35	5975.97
444.56	6045.60
444.77	6047.65
444.98	6201.25
445.19	6299.55
445.40	6272.93
445.61	6176.67
445.81	6227.87
446.02	6414.24
446.23	6236.06
446.44	6211.49
446.65	6395.81
446.86	6295.46
447.07	6410.14
447.28	6557.60
447.49	6561.69
447.70	6399.90
447.91	6539.16
448.12	6530.97
448.33	6510.49
448.54	6606.75
448.74	6461.34
448.95	6670.23
449.16	6610.84
449.37	6891.41
449.58	6561.69
449.79	6750.10
450.00	6586.27
450.21	6768.54
450.42	6991.77
450.63	6879.13
450.84	6719.39
451.05	6821.78
451.25	6793.11
451.46	6801.30
451.67	6965.14
451.88	7131.03
452.09	7006.10
452.30	6924.18
452.51	6829.98
452.72	7075.73
452.93	7171.99
453.13	7049.11
453.34	7036.82
453.55	7178.13
453.76	7139.22
453.97	7526.29
454.18	7339.92
454.39	7294.86
454.60	7298.96
454.81	7131.03
455.01	7595.92
455.22	7253.91
455.43	7425.93
455.64	7610.25
455.85	7655.31
456.06	7731.08
456.27	7624.59
456.48	7565.20
456.68	7708.55
456.89	7903.11
457.10	7706.51
457.31	7729.03
457.52	7696.27
457.73	7669.64
457.94	8103.81
458.14	7577.48
458.35	8195.97
458.56	8114.05
458.77	7813.00
458.98	7982.98
459.19	8114.05
459.39	8171.40
459.60	8212.35
459.81	8032.13
460.02	8269.70
460.23	8105.86
460.44	8302.47
460.65	8308.61
460.85	8337.28
461.06	8357.76
461.27	8208.26
461.48	8599.42
461.69	8789.88
461.89	8218.50
462.10	8548.22
462.31	8331.14
462.52	8429.44
462.73	8238.98
462.94	8775.55
463.14	8738.68
463.35	8761.21
463.56	9023.35
463.77	9017.21
463.98	8796.03
464.18	8906.62
464.39	9060.21
464.60	9209.72
464.81	9152.37
465.02	9117.56
465.23	9299.83
465.43	9092.98
465.64	9406.32
465.85	9217.91
466.06	9088.89
466.27	9604.97
466.47	9578.35
466.68	9611.12
466.89	9502.58
467.10	9586.54
467.30	9455.47
467.51	9750.38
467.72	9916.26
467.93	9590.64
468.14	9820.01
468.34	9832.30
468.55	9985.90
468.76	10014.57
468.97	9846.63
469.17	10110.82
469.38	10225.51
469.59	10338.15
469.80	10172.26
470.01	10309.47
470.21	10485.60
470.42	10375.01
470.63	10501.98
470.84	10602.33
471.04	10743.64
471.25	10667.87
471.46	10516.32
471.67	10850.14
471.87	10712.92
472.08	10917.72
472.29	11026.26
472.50	10766.17
472.70	10907.48
472.91	10991.45
473.12	11075.42
473.33	11468.62
473.53	11470.67
473.74	11360.08
473.95	11403.09
474.16	11577.17
474.36	11462.48
474.57	11910.99
474.78	11921.23
474.99	11800.40
475.19	11741.00
475.40	12027.72
475.61	12339.01
475.81	12209.99
476.02	12427.07
476.23	12441.41
476.44	12666.69
476.64	12451.65
476.85	12930.87
477.06	12652.35
477.27	13020.99
477.47	13047.61
477.68	13094.71
477.89	13111.10
478.09	13127.48
478.30	12953.40
478.51	13281.08
478.71	13410.10
478.92	13664.05
479.13	13524.79
479.34	13664.05
479.54	13659.95
479.75	13815.60
479.96	13795.12
480.16	13909.80
480.37	14075.69
480.58	13971.24
480.78	14294.82
480.99	14493.47
481.20	14391.08
481.41	14731.04
481.61	14440.23
481.82	14507.81
482.03	14632.74
482.23	14761.76
482.44	15062.81
482.65	15226.65
482.85	15118.11
483.06	15288.09
483.27	15400.72
483.47	15410.96
483.68	15314.71
483.89	15634.19
484.09	15587.09
484.30	15978.25
484.51	16002.83
484.71	16097.03
484.92	16189.19
485.13	16183.05
485.33	16295.69
485.54	16185.10
485.75	16516.87
485.95	16551.68
486.16	16764.67
486.37	16938.75
486.57	16654.08
486.78	16688.90
486.98	16654.08
487.19	17053.44
487.40	17338.10
487.60	17131.26
487.81	17569.52
488.02	17223.42
488.22	17454.84
488.43	17383.16
488.64	17850.10
488.84	17823.47
489.05	17972.97
489.25	17905.39
489.46	18345.70
489.67	18288.36
489.87	18288.36
490.08	18200.30
490.29	18429.67
490.49	18693.86
490.70	18841.31
490.90	18826.98
491.11	18912.99
491.32	19042.01
491.52	18851.55
491.73	19216.09
491.94	19187.42
492.14	19021.53
492.35	19474.13
492.55	19533.53
492.76	19578.58
492.97	19568.34
493.17	20049.61
493.38	20033.23
493.58	20057.81
493.79	20082.38
494.00	20002.51
494.20	20614.85
494.41	20311.75
494.61	20305.61
494.82	20784.83
495.02	20340.43
495.23	20707.01
495.44	20924.10
495.64	21167.80
495.85	20637.38
496.05	21139.13
496.26	21163.71
496.47	21532.34
496.67	21225.15
496.88	21573.30
497.08	21307.07
497.29	21728.95
497.49	21714.61
497.70	21817.01
497.91	21948.08
498.11	21956.27
498.32	21978.80
498.52	22085.30
498.73	22372.01
498.93	22111.92
499.14	22365.87
499.34	22650.53
499.55	22595.24
499.76	22576.81
499.96	22562.47
500.17	22544.04
500.37	22955.68
500.58	22593.19
500.78	22953.63
500.99	22656.68
501.19	23027.36
501.40	23305.88
501.60	22800.04
501.81	23207.58
502.02	23160.48
502.22	22900.39
502.43	23404.19
502.63	23252.64
502.84	23547.54
503.04	23568.02
503.25	23643.80
503.45	23848.60
503.66	23987.86
503.86	23813.78
504.07	23955.09
504.27	23701.14
504.48	24309.39
504.68	24307.34
504.89	24475.27
505.09	24567.43
505.30	24143.50
505.50	24553.10
505.71	24184.46
505.91	24458.89
506.12	24606.34
506.32	24641.16
506.53	24723.08
506.73	24696.46
506.94	24790.66
507.14	24987.27
507.35	24897.16
507.55	25067.14
507.76	25120.38
507.96	24895.11
508.17	25114.24
508.37	25294.46
508.58	24925.83
508.78	25255.55
508.99	25460.35
509.19	25345.66
509.40	25456.25
509.60	25343.61
509.81	25534.07
510.01	25511.55
510.22	25464.44
510.42	25515.64
510.63	25747.06
510.83	25495.16
511.04	25896.56
511.24	26007.16
511.44	25738.87
511.65	26076.79
511.85	25986.68
512.06	26187.38
512.26	25900.66
512.47	26365.55
512.67	26005.11
512.88	26082.93
513.08	26078.83
513.29	26396.27
513.49	26295.92
513.69	26484.33
513.90	26322.54
514.10	26537.58
514.31	26408.56
514.51	26588.78
514.72	26269.30
514.92	26453.61
515.13	26725.99
515.33	26537.58
515.53	27033.19
515.74	26928.74
515.94	26730.09
516.15	26850.92
516.35	26527.34
516.56	27186.79
516.76	26957.41
516.96	26922.60
517.17	26652.27
517.37	27170.40
517.58	27018.85
517.78	27231.84
517.99	27280.99
518.19	27493.98
518.39	27280.99
518.60	27498.08
518.80	27336.29
519.01	27700.83
519.21	27541.08
519.41	27526.75
519.62	27491.93
519.82	27623.00
520.03	27680.35
520.23	27782.74
520.43	27797.08
520.64	27821.66
520.84	28143.19
521.05	27852.38
521.25	28020.31
521.45	28298.83
521.66	28366.42
521.86	28165.71
522.07	27987.54
522.27	28178.00
522.47	28063.32
522.68	28374.61
522.88	28532.30
523.08	28431.95
523.29	28239.44
523.49	28556.88
523.70	28739.15
523.90	28868.17
524.10	28702.28
524.31	28864.07
524.51	28630.60
524.71	28956.23
524.92	29101.64
525.12	29222.47
525.33	29177.41
525.53	29171.27
525.73	29548.09
525.94	29361.73
526.14	29423.17
526.34	29539.90
526.55	29875.77
526.75	29677.12
526.95	29564.48
527.16	29632.06
527.36	29736.51
527.56	29859.38
527.77	30271.03
527.97	30168.63
528.17	30326.32
528.38	30305.84
528.58	30295.60
528.78	30686.76
528.99	30473.78
529.19	30635.56
529.39	30242.35
529.60	30490.16
529.80	30709.29
530.00	30416.43
530.21	30936.62
530.41	30909.99
530.61	30809.64
530.82	30877.22
531.02	31372.83
531.22	31344.16
531.43	31241.76
531.63	31606.30
531.83	31712.80
532.04	32030.23
532.24	31493.66
532.44	32120.34
532.64	31995.42
532.85	31895.07
533.05	32069.14
533.25	31915.54
533.46	32060.95
533.66	32552.46
533.86	32075.29
534.07	32402.96
534.27	32486.93
534.47	32861.71
534.67	32912.91
534.88	32386.58
535.08	32935.43
535.28	32822.80
535.49	32970.25
535.69	33369.60
535.89	33342.98
536.09	33193.48
536.30	33875.45
536.50	33721.85
536.70	33512.96
536.91	33537.54
537.11	33443.33
537.31	33576.45
537.51	33859.07
537.72	33988.09
537.92	34143.74
538.12	34250.23
538.32	34500.08
538.53	34586.10
538.73	34403.83
538.93	34383.35
539.13	34799.08
539.34	34524.66
539.54	34758.13
539.74	34811.37
539.94	35063.27
540.15	34852.33
540.35	35319.27
540.55	35288.55
540.75	34983.40
540.96	35386.85
541.16	35186.15
541.36	35403.24
541.56	35263.97
541.77	35759.58
541.97	35718.62
542.17	35925.47
542.37	36060.63
542.58	36060.63
542.78	35710.43
542.98	35771.87
543.18	36179.42
543.38	36668.88
543.59	36322.77
543.79	36091.35
543.99	36419.03
544.19	36443.60
544.40	36496.85
544.60	36658.64
544.80	36855.25
545.00	37135.82
545.20	37029.32
545.41	37205.45
545.61	36922.83
545.81	36945.36
546.01	37750.21
546.21	37320.13
546.42	37305.80
546.62	37336.52
546.82	37313.99
547.02	37520.84
547.22	37512.64
547.43	37795.26
547.63	37729.73
547.83	37633.47
548.03	37453.25
548.23	37787.07
548.44	38167.99
548.64	37627.33
548.84	38251.96
549.04	38284.73
549.24	38247.86
549.45	38188.47
549.65	38362.55
549.85	38546.87
550.05	38630.83
550.25	38847.92
550.45	39138.73
550.66	38755.76
550.86	38962.61
551.06	39187.88
551.26	39200.17
551.46	39306.66
551.66	38993.32
551.87	39273.90
552.07	39724.45
552.27	39632.29
552.47	39460.26
552.67	39310.76
552.87	39667.11
553.07	39585.19
553.28	39521.70
553.48	39998.88
553.68	39824.80
553.88	40052.12
554.08	40056.22
554.28	39818.66
554.48	39544.23
554.69	40088.99
554.89	40045.98
555.09	40197.53
555.29	40187.29
555.49	40723.86
555.69	40271.26
555.89	40154.52
556.10	40613.27
556.30	40600.98
556.50	41035.15
556.70	40461.72
556.90	41055.63
557.10	41250.19
557.30	40879.50
557.50	41268.62
557.70	41067.92
557.91	41174.41
558.11	41043.34
558.31	41315.72
558.51	41254.28
558.71	41520.52
558.91	41272.71
559.11	41155.98
559.31	41559.43
559.51	40816.02
559.72	41594.25
559.92	41547.14
560.12	41444.74
560.32	41825.67
560.52	41223.56
560.72	41799.04
560.92	41776.51
561.12	42089.85
561.32	42192.25
561.52	41592.20
561.72	42452.34
561.93	42014.08
562.13	41907.58
562.33	42210.68
562.53	42683.76
562.73	41979.26
562.93	42378.62
563.13	42263.93
563.33	42456.44
563.53	42607.99
563.73	42401.14
563.93	42685.81
564.13	43181.42
564.33	42974.58
564.53	42755.44
564.74	42685.81
564.94	42782.07
565.14	43197.80
565.34	42651.00
565.54	42777.97
565.74	42753.40
565.94	43375.98
566.14	43001.20
566.34	42890.61
566.54	43226.48
566.74	42833.27
566.94	43433.32
567.14	43468.14
567.34	43386.22
567.54	43836.77
567.74	43171.18
567.94	43513.19
568.14	43490.66
568.34	43947.36
568.54	43636.07
568.74	43701.61
568.94	43373.93
569.14	44180.83
569.34	43883.87
569.54	44012.90
569.75	43556.20
569.95	43756.90
570.15	44354.91
570.35	44287.32
570.55	44105.06
570.75	43842.92
570.95	44174.69
571.15	44246.36
571.35	44279.13
571.55	44191.07
571.75	44209.50
571.95	44385.63
572.15	44629.34
572.35	44492.12
572.55	44692.82
572.75	44467.55
572.95	44434.78
573.15	44668.25
573.35	44098.91
573.55	44283.23
573.75	44338.52
573.95	44889.43
574.15	44340.57
574.35	45321.55
574.55	44733.78
574.75	44815.70
574.95	45034.83
575.15	45065.55
575.34	44997.97
575.54	45370.70
575.74	45321.55
575.94	45471.05
576.14	45208.91
576.34	45339.98
576.54	45147.47
576.74	45559.11
576.94	45122.90
577.14	45831.49
577.34	45909.32
577.54	45542.73
577.74	45638.98
577.94	45471.05
578.14	45796.68
578.34	45811.01
578.54	45540.68
578.74	45765.96
578.94	45950.27
579.14	45782.34
579.34	45561.16
579.54	45978.95
579.74	46097.73
579.94	45917.51
580.13	45972.80
580.33	46394.68
580.53	45954.37
580.73	46529.85
580.93	46222.65
581.13	46548.28
581.33	46589.24
581.53	46552.38
581.73	46306.62
581.93	46937.40
582.13	46251.33
582.33	46327.10
582.53	46570.81
582.73	46626.10
582.92	46929.20
583.12	46974.26
583.32	46845.24
583.52	45935.94
583.72	47136.05
583.92	46585.15
584.12	47050.03
584.32	47093.04
584.52	47273.26
584.72	47080.75
584.92	46681.40
585.11	47437.10
585.31	46456.12
585.51	47338.80
585.71	46863.67
585.91	47553.83
586.11	47027.51
586.31	47064.37
586.51	47375.66
586.71	47836.45
586.91	47498.54
587.10	47418.67
587.30	47416.62
587.50	47371.57
587.70	47371.57
587.90	47326.51
588.10	48014.63
588.30	47824.17
588.50	47727.91
588.69	47592.75
588.89	47508.78
589.09	47705.38
589.29	47775.02
589.49	47969.57
589.69	47455.53
589.89	48299.30
590.08	47826.21
590.28	47764.78
590.48	47789.35
590.68	47136.05
590.88	47564.07
591.08	47498.54
591.28	47506.73
591.47	47994.15
591.67	48024.87
591.87	48086.31
592.07	47852.84
592.27	47729.96
592.47	48033.06
592.67	48084.26
592.86	47953.19
593.06	48067.87
593.26	48141.60
593.46	48055.59
593.66	48153.89
593.86	48235.81
594.05	48481.56
594.25	48889.11
594.45	48293.15
594.65	48053.54
594.85	48045.35
595.05	48622.87
595.24	48583.96
595.44	48743.70
595.64	48712.98
595.84	48674.07
596.04	48395.55
596.23	48823.58
596.43	48532.76
596.63	48600.35
596.83	48686.36
597.03	49239.31
597.22	48956.69
597.42	48594.20
597.62	48764.18
597.82	48522.52
598.02	48719.13
598.21	49321.23
598.41	49044.76
598.61	48964.88
598.81	49126.67
599.01	49292.56
599.20	49028.37
599.40	48989.46
599.60	49331.47
599.80	48932.12
600.00	49450.25
600.19	49241.36
600.39	48991.51
600.59	49308.94
600.79	49319.18
600.98	49456.40
601.18	49452.30
601.38	49337.62
601.58	49638.67
601.78	49517.84
601.97	49646.86
602.17	50095.36
602.37	49337.62
602.57	49681.67
602.76	49995.01
602.96	49544.46
603.16	49956.10
603.36	49888.52
603.55	49984.77
603.75	49696.01
603.95	49698.06
604.15	49900.81
604.34	49911.05
604.54	50404.61
604.74	50281.73
604.94	50236.67
605.13	50396.42
605.33	50613.50
605.53	50296.06
605.73	50289.92
605.92	50208.00
606.12	50824.44
606.32	50742.52
606.52	50093.32
606.71	50334.98
606.91	50699.51
607.11	50461.95
607.30	50525.44
607.50	50668.79
607.70	50894.07
607.90	50380.03
608.09	50445.57
608.29	50621.69
608.49	50658.56
608.68	50939.13
608.88	50230.53
609.08	50513.15
609.28	50988.28
609.47	50758.91
609.67	51186.93
609.87	50908.41
610.06	51049.72
610.26	50654.46
610.46	51078.39
610.66	50857.21
610.85	50820.34
611.05	50894.07
611.25	50992.37
611.44	50722.04
611.64	51143.92
611.84	50986.23
612.03	50967.80
612.23	51029.24
612.43	51432.69
612.62	51078.39
612.82	51225.84
613.02	51176.69
613.21	51156.21
613.41	51234.03
613.61	51346.67
613.80	51082.48
614.00	51391.73
614.20	51258.61
614.39	51455.21
614.59	51815.66
614.79	51322.10
614.98	51494.13
615.18	51211.51
615.38	51356.91
615.57	51361.01
615.77	51569.90
615.97	51131.64
616.16	51461.36
616.36	51125.49
616.56	51782.89
616.75	51166.45
616.95	50920.70
617.15	51029.24
617.34	51227.89
617.54	51342.58
617.74	51862.76
617.93	51680.49
618.13	51174.64
618.32	51639.53
618.52	51631.34
618.72	51475.69
618.91	51580.14
619.11	51483.89
619.31	51313.90
619.50	51385.58
619.70	51246.32
619.90	51725.55
620.09	51664.11
620.29	51336.43
620.48	51797.23
620.68	52192.48
620.88	51559.66
621.07	51500.27
621.27	51539.18
621.46	51209.46
621.66	51715.31
621.86	51791.08
622.05	51291.38
622.25	51832.04
622.44	51772.65
622.64	51791.08
622.84	52006.12
623.03	51797.23
623.23	51723.50
623.42	51543.28
623.62	51543.28
623.82	51926.25
624.01	51827.95
624.21	51797.23
624.40	51352.82
624.60	51614.96
624.80	51029.24
624.99	51522.80
625.19	51299.57
625.38	52133.09
625.58	52155.62
625.77	51903.72
625.97	51770.60
626.17	51752.17
626.36	52112.61
626.56	51813.61
626.75	51324.14
626.95	52384.99
627.14	52008.17
627.34	52270.31
627.54	51870.95
627.73	51987.69
627.93	52393.18
628.12	51664.11
628.32	51909.86
628.51	52069.61
628.71	51922.15
628.90	51829.99
629.10	52200.68
629.30	52079.85
629.49	52376.80
629.69	52008.17
629.88	52270.31
630.08	52387.04
630.27	52260.07
630.47	52274.40
630.66	52192.48
630.86	52321.51
631.05	52165.86
631.25	52765.91
631.44	52526.30
631.64	52405.47
631.84	52401.38
632.03	52864.22
632.23	52358.37
632.42	52794.59
632.62	52559.07
632.81	52278.50
633.01	52507.87
633.20	52751.58
633.40	52868.31
633.59	53144.79
633.79	52354.27
633.98	52628.70
634.18	52686.04
634.37	52944.09
634.57	52690.14
634.76	53044.44
634.96	53187.80
635.15	52987.10
635.35	52821.21
635.54	52770.01
635.74	53343.44
635.93	52794.59
636.13	53253.33
636.32	53202.13
636.52	52323.55
636.71	53058.77
636.91	53353.68
637.10	53142.74
637.30	53753.04
637.49	53150.93
637.69	53322.96
637.88	53359.83
638.08	53294.29
638.27	53263.57
638.46	53105.88
638.66	53433.55
638.85	53460.18
639.05	53425.36
639.24	53810.38
639.44	53263.57
639.63	53720.27
639.83	53658.83
640.02	54117.57
640.22	53914.83
640.41	53951.69
640.61	53261.52
640.80	53595.34
640.99	53142.74
641.19	54654.14
641.38	54129.86
641.58	53898.44
641.77	53707.98
641.97	53744.84
642.16	53660.88
642.36	53957.83
642.55	54342.85
642.74	53576.91
642.94	54568.13
643.13	54019.27
643.33	54381.76
643.52	53963.98
643.72	54408.39
643.91	54125.77
644.10	54561.98
644.30	54467.78
644.49	54170.82
644.69	54695.10
644.88	54373.57
645.08	54029.51
645.27	54537.41
645.46	54369.47
645.66	54424.77
645.85	54609.09
646.05	54987.96
646.24	54676.67
646.43	54443.20
646.63	54512.83
646.82	54977.72
647.02	54473.92
647.21	55176.37
647.40	54920.38
647.60	55088.31
647.79	54703.29
647.99	55203.00
648.18	54793.40
648.37	55057.59
648.57	54883.51
648.76	55045.30
648.96	54842.56
649.15	55071.93
649.34	55231.67
649.54	55166.13
649.73	54965.43
649.92	55270.58
650.12	55397.55
650.31	55499.95
650.51	55831.72
650.70	55610.54
650.89	55112.89
651.09	55764.14
651.28	55440.56
651.47	55534.77
651.67	55510.19
651.86	55628.98
652.06	55219.38
652.25	55604.40
652.44	55524.53
652.64	55663.79
652.83	55327.92
653.02	55551.15
653.22	55684.27
653.41	55313.59
653.60	55545.01
653.80	55489.71
653.99	55952.55
654.18	55798.96
654.38	55792.81
654.57	56136.87
654.76	56126.63
654.96	55991.47
655.15	55784.62
655.34	55946.41
655.54	55286.96
655.73	55917.74
655.92	56267.94
656.12	55921.83
656.31	55717.04
656.50	55645.36
656.70	55737.52
656.89	55897.26
657.08	56214.69
657.28	55688.37
657.47	56001.71
657.66	56222.89
657.86	56149.16
658.05	56388.77
658.24	56042.66
658.43	55964.84
658.63	56196.26
658.82	56546.47
659.01	56480.93
659.21	56618.14
659.40	56450.21
659.59	55784.62
659.79	56278.18
659.98	56272.04
660.17	56007.85
660.36	56446.11
660.56	56253.61
660.75	56075.43
660.94	56120.49
661.14	56392.87
661.33	56188.07
661.52	55778.48
661.71	56134.82
661.91	56276.13
662.10	55913.64
662.29	56702.11
662.49	56366.24
662.68	56566.94
662.87	56390.82
663.06	56147.11
663.26	56370.34
663.45	56753.31
663.64	56253.61
663.83	56759.45
664.03	56808.61
664.22	56345.76
664.41	56390.82
664.60	56423.59
664.80	56673.44
664.99	56208.55
665.18	56161.45
665.37	55850.16
665.57	56652.96
665.76	56136.87
665.95	56743.07
666.14	56020.14
666.34	56562.85
666.53	56575.14
666.72	56405.16
666.91	56095.91
667.11	56433.83
667.30	56491.17
667.49	56276.13
667.68	56335.52
667.87	56073.38
668.07	56319.14
668.26	56059.05
668.45	56290.47
668.64	55876.78
668.84	56751.26
669.03	56468.64
669.22	56251.56
669.41	56536.23
669.60	56464.55
669.80	56317.09
669.99	56644.77
670.18	56224.93
670.37	56384.68
670.57	56870.04
670.76	56253.61
670.95	56652.96
671.14	55887.02
671.33	56315.04
671.53	56792.22
671.72	56294.56
671.91	56052.90
672.10	56093.86
672.29	56075.43
672.48	56026.28
672.68	56335.52
672.87	55880.88
673.06	56462.50
673.25	55721.13
673.44	56179.88
673.64	55950.51
673.83	56030.38
674.02	55600.30
674.21	55639.22
674.40	55860.40
674.59	55921.83
674.79	55903.40
674.98	55727.28
675.17	56001.71
675.36	55850.16
675.55	56308.90
675.74	55835.82
675.94	55528.62
676.13	55776.43
676.32	56208.55
676.51	56128.68
676.70	56081.58
676.89	55731.37
677.08	55989.42
677.28	55442.61
677.47	55940.27
677.66	55581.87
677.85	55751.85
678.04	55684.27
678.23	55891.12
678.42	55868.59
678.62	55579.82
678.81	55530.67
679.00	55620.78
679.19	56399.01
679.38	55614.64
679.57	55303.35
679.76	55547.06
679.96	55944.36
680.15	55471.28
680.34	55975.08
680.53	55321.78
680.72	55534.77
680.91	55473.33
681.10	55192.76
681.29	55618.74
681.48	55534.77
681.68	55276.72
681.87	55184.57
682.06	55106.74
682.25	54895.80
682.44	54811.84
682.63	54949.05
682.82	54944.95
683.01	54926.52
683.20	54789.31
683.39	54985.91
683.59	54713.53
683.78	54465.73
683.97	54469.82
684.16	54557.89
684.35	54475.97
684.54	54777.02
684.73	54889.66
684.92	54703.29
685.11	54385.86
685.30	54498.50
685.49	54869.18
685.69	54621.37
685.88	54752.44
686.07	54590.66
686.26	54897.85
686.45	54641.85
686.64	54480.06
686.83	54635.71
687.02	54389.95
687.21	54416.58
687.40	54572.22
687.59	54334.66
687.78	54312.13
687.97	54547.65
688.16	54336.71
688.35	54099.14
688.54	53728.46
688.74	53728.46
688.93	53875.91
689.12	54160.58
689.31	54228.16
689.50	54045.90
689.69	53845.19
689.88	53658.83
690.07	53357.78
690.26	53581.01
690.45	53779.66
690.64	53523.66
690.83	53732.56
691.02	53304.53
691.21	53292.24
691.40	53603.53
691.59	53550.29
691.78	53400.79
691.97	53331.15
692.16	52856.03
692.35	53638.35
692.54	53505.23
692.73	53251.28
692.92	53269.72
693.11	53982.41
693.30	53206.23
693.49	53320.91
693.68	53202.13
693.87	52917.46
694.06	52819.16
694.25	52759.77
694.44	52980.95
694.63	52759.77
694.82	53109.97
695.01	52962.52
695.20	53286.10
695.39	52866.27
695.58	53093.59
695.77	52384.99
695.96	52942.04
696.15	52712.67
696.34	52139.24
696.53	52712.67
696.72	52610.27
696.91	52323.55
697.10	52382.94
697.29	52337.89
697.48	52516.06
697.67	52088.04
697.86	52499.68
698.05	52188.39
698.24	52706.52
698.43	51655.92
698.62	52446.43
698.81	51846.38
699.00	52536.54
699.19	51690.73
699.38	52145.38
699.57	51684.59
699.76	52346.08
699.95	51430.64
700.14	51870.95
700.32	51655.92
700.51	51639.53
700.70	51997.93
700.89	52008.17
701.08	52149.48
701.27	51487.98
701.46	51924.20
701.65	51236.08
701.84	51350.77
702.03	51252.47
702.22	51041.53
702.41	51412.21
702.60	51688.68
702.79	51631.34
702.98	50943.22
703.17	51426.54
703.35	50771.19
703.54	50988.28
703.73	51281.14
703.92	50580.73
704.11	50836.73
704.30	50535.68
704.49	50984.18
704.68	50588.92
704.87	50844.92
705.06	50810.10
705.25	50904.31
705.43	50806.01
705.62	50943.22
705.81	50240.77
706.00	50752.76
706.19	50078.98
706.38	50443.52
706.57	50257.15
706.76	50271.49
706.95	50277.63
707.14	50124.04
707.32	50470.14
707.51	49755.40
707.70	50095.36
707.89	50464.00
708.08	50263.30
708.27	50445.57
708.46	50478.33
708.65	50265.34
708.84	50394.37
709.02	50109.70
709.21	50367.74
709.40	50169.09
709.59	49988.87
709.78	49771.78
709.97	50164.99
710.16	49749.26
710.34	49960.20
710.53	49292.56
710.72	49779.98
710.91	49794.31
711.10	49976.58
711.29	49437.97
711.48	49470.73
711.66	49468.69
711.85	49503.50
712.04	49663.24
712.23	49689.87
712.42	49509.64
712.61	48985.36
712.80	49538.32
712.98	49317.14
713.17	49124.63
713.36	49190.16
713.55	49421.58
713.74	49036.56
713.93	49276.18
714.11	49345.81
714.30	49108.24
714.49	48954.64
714.68	48944.41
714.87	49059.09
715.06	49077.52
715.24	48911.64
715.43	49089.81
715.62	48561.44
715.81	48420.13
716.00	48852.25
716.18	48401.69
716.37	48426.27
716.56	48698.65
716.75	48815.38
716.94	48182.56
717.12	48082.21
717.31	48600.35
717.50	48235.81
717.69	48297.25
717.88	48000.29
718.06	48291.10
718.25	48358.69
718.44	47736.10
718.63	48045.35
718.82	47400.24
719.00	48530.72
719.19	47904.04
719.38	47781.16
719.57	47433.00
719.76	47496.49
719.94	47238.45
720.13	47772.97
720.32	47480.11
720.51	47125.81
720.69	47463.72
720.88	47492.40
721.07	47289.65
721.26	47232.30
721.44	47033.65
721.63	46839.09
721.82	47013.17
722.01	47011.12
722.20	47504.68
722.38	47152.43
722.57	46234.94
722.76	46828.85
722.95	46755.13
723.13	46191.94
723.32	47064.37
723.51	46363.96
723.70	46501.18
723.88	46433.60
724.07	46527.80
724.26	46171.46
724.44	46206.27
724.63	46515.51
724.82	46523.71
725.01	46114.11
725.19	46273.85
725.38	45993.28
725.57	46069.06
725.76	46554.43
725.94	46019.91
726.13	46021.95
726.32	46024.00
726.51	45870.40
726.69	46210.37
726.88	46159.17
727.07	46404.92
727.25	45704.52
727.44	45770.05
727.63	45438.28
727.82	45872.45
728.00	45874.50
728.19	46050.63
728.38	46062.91
728.56	45659.46
728.75	46253.37
728.94	45544.78
729.12	45935.94
729.31	46220.61
729.50	46173.50
729.69	46062.91
729.87	45868.36
730.06	46064.96
730.25	45595.98
730.43	45940.04
730.62	45741.38
730.81	46114.11
730.99	46167.36
731.18	45772.10
731.37	46282.05
731.55	45882.69
731.74	46075.20
731.93	45735.24
732.11	46019.91
732.30	45753.67
732.49	45905.22
732.67	45505.87
732.86	45970.75
733.05	45831.49
733.23	45313.36
733.42	45915.46
733.61	45339.98
733.79	46019.91
733.98	45698.37
734.17	45542.73
734.35	45573.45
734.54	45907.27
734.73	45905.22
734.91	45899.08
735.10	45737.29
735.29	45768.01
735.47	45411.66
735.66	45626.70
735.84	45704.52
736.03	45249.87
736.22	45882.69
736.40	45444.43
736.59	45602.12
736.78	45833.54
736.96	45745.48
737.15	45546.82
737.33	45602.12
737.52	45753.67
737.71	45964.61
737.89	45378.89
738.08	45143.38
738.27	45012.31
738.45	45888.84
738.64	45497.67
738.82	45163.85
739.01	45358.41
739.20	45598.02
739.38	45374.80
739.57	45174.09
739.75	45356.36
739.94	44963.15
740.13	45299.02
740.31	45006.16
740.50	44930.39
740.68	44977.49
740.87	45272.40
741.06	45221.20
741.24	45022.54
741.43	45026.64
741.61	45176.14
741.80	44952.91
741.99	44868.95
742.17	44856.66
742.36	44684.63
742.54	44746.07
742.73	45036.88
742.91	44844.37
743.10	44787.03
743.29	45133.14
743.47	45151.57
743.66	44954.96
743.84	44897.62
744.03	45092.18
744.21	44942.67
744.40	45102.42
744.59	44784.98
744.77	44528.98
744.96	44653.91
745.14	44619.10
745.33	45045.07
745.51	44733.78
745.70	44791.12
745.88	44674.39
746.07	44940.63
746.26	44428.63
746.44	44457.31
746.63	44815.70
746.81	44516.70
747.00	44473.69
747.18	44744.02
747.37	44547.42
747.55	44797.27
747.74	44612.95
747.92	44268.89
748.11	44373.34
748.29	44795.22
748.48	44647.77
748.66	44297.56
748.85	44164.45
749.03	44367.20
749.22	44375.39
749.41	43978.08
749.59	44637.53
749.78	44189.02
749.96	43779.43
750.15	44158.30
750.33	44277.08
750.52	44070.24
750.70	44313.95
750.89	43963.75
751.07	44203.36
751.26	44375.39
751.44	44103.01
751.63	44363.10
751.81	43900.26
752.00	43810.15
752.18	44033.38
752.37	43959.65
752.55	43816.29
752.74	43672.93
752.92	44082.53
753.10	43961.70
753.29	43691.37
753.47	43674.98
753.66	43439.47
753.84	44023.14
754.03	43494.76
754.21	43292.01
754.40	43656.55
754.58	43947.36
754.77	43459.94
754.95	43533.67
755.14	43611.49
755.32	43232.62
755.51	43439.47
755.69	43357.55
755.88	43435.37
756.06	43554.15
756.24	43128.17
756.43	43314.54
756.61	43193.71
756.80	43148.65
756.98	43300.20
757.17	43119.98
757.35	43177.33
757.54	43089.26
757.72	43187.56
757.90	43099.50
758.09	43277.68
758.27	43335.02
758.46	43060.59
758.64	43492.71
758.83	43191.66
759.01	43361.64
759.19	43038.06
759.38	43142.51
759.56	43636.07
759.75	43246.96
759.93	42853.75
760.12	42921.33
760.30	43312.49
760.48	43007.34
760.67	42796.40
760.85	43042.16
761.04	42782.07
761.22	43111.79
761.40	42669.43
761.59	42796.40
761.77	42270.08
761.96	42530.17
762.14	42431.86
762.32	42716.53
762.51	42337.66
762.69	42214.78
762.88	42112.38
763.06	42904.95
763.24	42440.06
763.43	42714.48
763.61	42446.20
763.80	42255.74
763.98	42048.89
764.16	42429.82
764.35	42141.05
764.53	41975.17
764.72	42093.95
764.90	41840.00
765.08	42038.65
765.27	42108.29
765.45	42126.72
765.63	41575.81
765.82	42034.56
766.00	41731.46
766.18	41899.39
766.37	42218.88
766.55	41862.53
766.74	42202.49
766.92	41727.36
767.10	41631.11
767.29	41737.60
767.47	41082.25
767.65	41817.47
767.84	41211.28
768.02	41921.92
768.20	41430.41
768.39	41868.67
768.57	41411.98
768.75	41956.74
768.94	41577.86
769.12	41461.13
769.30	41080.21
769.49	41186.70
769.67	41096.59
769.85	41000.33
770.04	41332.11
770.22	40805.78
770.40	41207.18
770.59	41285.00
770.77	41182.60
770.95	41373.06
771.14	40629.65
771.32	40697.24
771.50	40457.62
771.69	40904.08
771.87	40652.18
772.05	40431.00
772.24	40387.99
772.42	40697.24
772.60	40418.71
772.78	40510.87
772.97	40263.07
773.15	40617.36
773.33	40068.51
773.52	40654.23
773.70	40486.29
773.88	40707.47
774.07	40811.92
774.25	40555.93
774.43	40523.16
774.61	40365.46
774.80	40531.35
774.98	40779.15
775.16	40512.92
775.34	40852.88
775.53	40687.00
775.71	40777.11
775.89	40363.42
776.08	40531.35
776.26	41088.40
776.44	40951.18
776.62	40480.15
776.81	40664.47
776.99	41086.35
777.17	40764.82
777.35	40826.26
777.54	41125.26
777.72	40922.51
777.90	41244.04
778.08	40701.33
778.27	40902.03
778.45	41192.84
778.63	41127.31
778.81	40813.97
779.00	41678.21
779.18	41061.77
779.36	41373.06
779.54	41076.11
779.73	41178.51
779.91	41211.28
780.09	41110.92
780.27	41536.90
780.46	41655.68
780.64	41497.99
780.82	41827.71
781.00	41371.02
781.19	41860.48
781.37	41735.56
781.55	41612.68
781.73	41887.10
781.91	41428.36
782.10	41698.69
782.28	41471.37
782.46	41338.25
782.64	41700.74
782.82	41862.53
783.01	41809.28
783.19	42147.20
783.37	41739.65
783.55	41532.81
783.74	41987.46
783.92	41524.61
784.10	41739.65
784.28	41942.40
784.46	41614.72
784.64	41766.27
784.83	41788.80
785.01	42419.58
785.19	41710.98
785.37	41649.54
785.55	41805.19
785.74	41330.06
785.92	41178.51
786.10	41850.24
786.28	41721.22
786.46	41516.42
786.64	41049.49
786.83	41586.05
787.01	41551.24
787.19	41594.25
787.37	41465.22
787.55	41291.15
787.74	41258.38
787.92	41289.10
788.10	41209.23
788.28	40881.55
788.46	41477.51
788.64	41018.77
788.82	41635.20
789.01	41133.45
789.19	41602.44
789.37	41055.63
789.55	41104.78
789.73	40721.81
789.91	40779.15
790.09	40791.44
790.28	40953.23
790.46	40613.27
790.64	40850.83
790.82	40334.74
791.00	40353.18
791.18	40162.72
791.36	40502.68
791.55	40592.79
791.73	40224.15
791.91	40066.46
792.09	39880.10
792.27	40314.26
792.45	40056.22
792.63	39712.16
792.81	40039.84
793.00	39581.09
793.18	39927.20
793.36	39241.13
793.54	39572.90
793.72	39065.00
793.90	39157.16
794.08	39396.77
794.26	39153.07
794.44	39073.20
794.62	38829.49
794.81	39441.83
794.99	38770.10
795.17	38544.82
795.35	38817.20
795.53	38530.48
795.71	38649.27
795.89	38729.14
796.07	38268.34
796.25	38262.20
796.43	38299.06
796.61	38118.84
796.80	37887.42
796.98	38145.47
797.16	37791.17
797.34	38118.84
797.52	37426.63
797.70	37957.05
797.88	37529.03
798.06	37156.30
798.24	37637.57
798.42	37643.71
798.60	37373.38
798.78	37606.85
798.96	37029.32
799.14	37217.74
799.32	37385.67
799.51	37084.62
799.69	37084.62
799.87	37191.11
800.05	36769.23
800.23	36689.36
800.41	36513.23
800.59	36349.40
800.77	36574.67
800.95	35952.09
801.13	36421.08
801.31	36003.29
801.49	36132.31
801.67	36154.84
801.85	36054.49
802.03	35767.77
802.21	35847.64
802.39	35546.59
802.57	35788.25
802.75	35671.52
802.93	35407.33
803.11	35419.62
803.29	35304.93
803.47	35335.65
803.65	35249.64
803.83	35034.60
804.01	35233.25
804.19	34510.32
804.37	34393.59
804.55	34530.80
804.73	34696.69
804.91	34719.21
805.09	34672.11
805.27	34440.69
805.45	34858.48
805.63	34334.20
805.81	34274.80
805.99	34375.16
806.17	34203.13
806.35	34231.80
806.53	34004.47
806.71	33959.42
806.89	34104.82
807.07	33910.27
807.25	33760.76
807.43	33881.60
807.61	33469.95
807.79	33312.26
807.97	33173.00
808.15	33256.96
808.33	33129.99
808.51	33201.67
808.69	33254.92
808.87	32949.77
809.05	32847.37
809.23	33009.16
809.41	33003.02
809.59	32876.04
809.77	32763.40
809.95	32732.68
810.13	32675.34
810.31	32335.38
810.49	32966.15
810.67	32491.02
810.84	32347.67
811.02	32333.33
811.20	32071.19
811.38	31905.31
811.56	31733.28
811.74	31782.43
811.92	32177.68
812.10	31753.76
812.28	31997.46
812.46	31702.56
812.64	31731.23
812.82	31514.14
813.00	31630.88
813.18	31866.39
813.36	31602.21
813.53	31710.75
813.71	31299.11
813.89	31125.03
814.07	31067.69
814.25	31020.58
814.43	30758.44
814.61	30959.14
814.79	30926.38
814.97	30774.83
815.15	31047.21
815.33	30610.99
815.50	30516.78
815.68	30758.44
815.86	30592.56
816.04	30576.17
816.22	30627.37
816.40	30414.38
816.58	30025.27
816.76	29945.40
816.94	30103.09
817.11	30037.56
817.29	30252.59
817.47	30023.22
817.65	30084.66
817.83	29945.40
818.01	29830.71
818.19	29795.90
818.37	29769.27
818.54	29441.60
818.72	29218.37
818.90	29390.40
819.08	29804.09
819.26	29535.81
819.44	29265.47
819.62	29453.89
819.80	29312.58
819.97	29558.33
820.15	28892.74
820.33	29056.58
820.51	29011.53
820.69	29025.86
820.87	29109.83
821.05	29562.43
821.22	28905.03
821.40	28950.09
821.58	28853.83
821.76	28829.26
821.94	28749.39
822.12	28620.36
822.29	28964.42
822.47	28628.56
822.65	28892.74
822.83	28520.01
823.01	28464.72
823.19	28909.13
823.36	28210.77
823.54	28053.08
823.72	28200.53
823.90	28016.21
824.08	27799.13
824.25	28141.14
824.43	27872.85
824.61	27752.02
824.79	27989.59
824.97	27514.46
825.15	27911.77
825.32	27788.89
825.50	27706.97
825.68	27682.39
825.86	28155.47
826.04	27838.04
826.21	27713.11
826.39	27659.87
826.57	27448.93
826.75	27246.18
826.93	27326.05
827.10	27143.78
827.28	27371.10
827.46	27405.92
827.64	27139.68
827.81	26775.14
827.99	27199.07
828.17	26928.74
828.35	26816.10
828.53	26973.80
828.70	26838.63
828.88	26764.90
829.06	26838.63
829.24	27283.04
829.41	26769.00
829.59	27049.57
829.77	26918.50
829.95	26582.63
830.12	26480.24
830.30	26703.46
830.48	26517.10
830.66	26525.29
830.84	26717.80
831.01	26289.77
831.19	26388.08
831.37	26381.93
831.55	26330.73
831.72	26240.62
831.90	26203.76
832.08	26103.41
832.25	26158.70
832.43	25869.94
832.61	25966.20
832.79	25779.83
832.96	25927.28
833.14	26044.02
833.32	25921.14
833.50	26109.55
833.67	26142.32
833.85	25716.34
834.03	25396.86
834.20	25482.88
834.38	25437.82
834.56	25822.84
834.74	25476.73
834.91	25454.20
835.09	25550.46
835.27	25147.01
835.44	25499.26
835.62	24815.24
835.80	25267.84
835.98	25413.24
836.15	24997.51
836.33	25224.83
836.51	25808.50
836.68	25058.95
836.86	25394.81
837.04	25230.98
837.21	24999.55
837.39	25026.18
837.57	25394.81
837.75	25194.11
837.92	24747.65
838.10	24557.19
838.28	24714.89
838.45	24663.69
838.63	24639.11
838.81	24792.71
838.98	24700.55
839.16	24331.92
839.34	24503.95
839.51	24501.90
839.69	24688.26
839.87	24364.68
840.04	24231.57
840.22	24600.20
840.40	24329.87
840.57	23953.04
840.75	23770.77
840.93	23938.71
841.10	24235.66
841.28	24219.28
841.46	24041.11
841.63	24258.19
841.81	23891.60
841.98	23897.75
842.16	24295.05
842.34	24123.02
842.51	23907.99
842.69	23934.61
842.87	23842.45
843.04	23914.13
843.22	23647.90
843.40	23748.25
843.57	23717.53
843.75	23924.37
843.92	23580.31
844.10	23785.11
844.28	23862.93
844.45	23738.01
844.63	23531.16
844.81	23381.66
844.98	23629.46
845.16	23211.68
845.33	23447.19
845.51	23385.76
845.69	23490.20
845.86	23162.53
846.04	23060.13
846.21	23199.39
846.39	22857.38
846.57	22804.13
846.74	22957.73
846.92	22963.87
847.09	23209.63
847.27	22832.80
847.45	23103.14
847.62	22785.70
847.80	23017.12
847.97	23090.85
848.15	22746.79
848.32	22556.33
848.50	22884.00
848.68	22488.74
848.85	22623.91
849.03	22374.06
849.20	22683.30
849.38	22468.27
849.56	22453.93
849.73	22425.26
849.91	22585.00
850.08	22759.08
850.26	22460.07
850.43	22146.73
850.61	22027.95
850.78	22298.28
850.96	22369.96
851.14	22329.00
851.31	22384.30
851.49	21898.93
851.66	22261.42
851.84	22038.19
852.01	22273.71
852.19	21976.75
852.36	21720.76
852.54	22050.48
852.71	22073.01
852.89	21774.00
853.07	21913.27
853.24	21878.45
853.42	21716.66
853.59	21999.28
853.77	21685.94
853.94	22101.68
854.12	21620.41
854.29	21331.64
854.47	21681.85
854.64	21530.30
854.82	21716.66
854.99	21706.42
855.17	21685.94
855.34	21626.55
855.52	21837.49
855.69	21425.85
855.87	21257.92
856.04	21190.33
856.22	21214.91
856.39	21243.58
856.57	21239.48
856.74	20991.68
856.92	21298.88
857.09	20942.53
857.27	21044.93
857.44	21378.75
857.62	21264.06
857.79	21139.13
857.97	21028.54
858.14	21075.65
858.32	21354.17
858.49	20942.53
858.67	20745.92
858.84	20987.58
859.02	21049.02
859.19	20774.60
859.37	20690.63
859.54	20756.16
859.72	20924.10
859.89	20661.96
860.06	20735.68
860.24	20946.62
860.41	20881.09
860.59	20786.88
860.76	20924.10
860.94	20526.79
861.11	20575.94
861.29	20487.88
861.46	20330.19
861.64	20293.32
861.81	20266.70
861.98	20315.85
862.16	20324.04
862.33	20491.98
862.51	20182.73
862.68	20442.82
862.86	20061.90
863.03	20231.88
863.21	20133.58
863.38	20231.88
863.55	20231.88
863.73	20375.24
863.90	20115.15
864.08	20078.29
864.25	20043.47
864.43	19898.06
864.60	19947.22
864.77	19887.82
864.95	19769.04
865.12	19814.10
865.30	19842.77
865.47	19654.36
865.64	19846.87
865.82	19732.18
865.99	19853.01
866.17	19545.81
866.34	19758.80
866.51	19322.59
866.69	19693.27
866.86	19513.05
867.04	19605.20
867.21	19392.22
867.38	19207.90
867.56	19062.49
867.73	19222.23
867.91	19359.45
868.08	19472.09
868.25	19142.36
868.43	19418.84
868.60	19039.97
868.78	18951.90
868.95	19162.84
869.12	18816.74
869.30	18882.27
869.47	19252.95
869.64	18806.50
869.82	18956.00
869.99	18484.97
870.16	18986.72
870.34	19105.50
870.51	19181.28
870.69	18718.43
870.86	18798.31
871.03	18925.28
871.21	18792.16
871.38	18474.73
871.55	18527.97
871.73	18616.04
871.90	18501.35
872.07	18501.35
872.25	18212.59
872.42	18417.38
872.59	18532.07
872.77	18300.65
872.94	18323.18
873.11	18345.70
873.29	18411.24
873.46	18325.22
873.63	18118.38
873.81	18114.28
873.98	18235.11
874.15	17979.12
874.33	17929.97
874.50	17805.04
874.67	18138.86
874.85	17827.57
875.02	17852.14
875.19	17741.55
875.37	17835.76
875.54	17721.07
875.71	17698.55
875.88	17411.83
876.06	17630.96
876.23	17778.42
876.40	17393.40
876.58	17514.23
876.75	17598.20
876.92	17448.69
877.10	17301.24
877.27	17295.10
877.44	17112.83
877.61	17118.97
877.79	17301.24
877.96	17149.69
878.13	17317.62
878.31	17106.68
878.48	17127.16
878.65	17092.35
878.82	16985.85
879.00	17008.38
879.17	17071.87
879.34	17397.49
879.51	16992.00
879.69	16963.33
879.86	16791.30
880.03	16817.92
880.21	16932.61
880.38	16740.10
880.55	16854.78
880.72	16625.41
880.90	16965.37
881.07	16733.95
881.24	16731.90
881.41	16787.20
881.59	16604.93
881.76	16662.27
881.93	16486.15
882.10	16381.70
882.28	16408.33
882.45	16432.90
882.62	16541.44
882.79	16211.72
882.96	16238.34
883.14	16582.40
883.31	16334.60
883.48	16303.88
883.65	16297.74
883.83	16461.57
884.00	16447.24
884.17	16207.62
884.34	16273.16
884.51	16221.96
884.69	16242.44
884.86	16060.17
885.03	16344.84
885.20	16056.08
885.38	16043.79
885.55	16115.47
885.72	16099.08
885.89	16035.60
886.06	16060.17
886.24	15968.01
886.41	15826.70
886.58	15957.77
886.75	16156.43
886.92	15777.55
887.10	15922.96
887.27	15613.71
887.44	15998.73
887.61	15935.24
887.78	15857.42
887.95	16017.16
888.13	15789.84
888.30	15585.04
888.47	15390.49
888.64	15628.05
888.81	15757.07
888.99	15654.67
889.16	15443.73
889.33	15423.25
889.50	15378.20
889.67	15574.80
889.84	15386.39
890.01	15572.75
890.19	15370.01
890.36	15421.20
890.53	15386.39
890.70	15353.62
890.87	15337.24
891.04	15404.82
891.22	15339.29
891.39	15335.19
891.56	15171.35
891.73	15300.37
891.90	14874.40
892.07	14966.56
892.24	15101.72
892.42	15079.19
892.59	15048.47
892.76	14872.35
892.93	14972.70
893.10	15128.35
893.27	15048.47
893.44	14862.11
893.61	15068.95
893.79	14970.65
893.96	15173.40
894.13	14772.00
894.30	15150.87
894.47	14925.60
894.64	15079.19
894.81	15052.57
894.98	15077.15
895.15	14835.49
895.33	14835.49
895.50	14778.14
895.67	14958.36
895.84	14812.96
896.01	15019.80
896.18	14720.80
896.35	14941.98
896.52	14565.15
896.69	14569.25
896.86	14765.85
897.04	14757.66
897.21	14823.20
897.38	14845.73
897.55	14714.66
897.72	14896.92
897.89	14663.46
898.06	14585.63
898.23	14837.53
898.40	14595.87
898.57	14622.50
898.74	14694.18
898.91	14708.51
899.08	14739.23
899.26	14495.52
899.43	14655.26
899.60	14559.01
899.77	14583.59
899.94	14444.32
900.11	14602.02
900.28	14806.81
900.45	14454.56
900.62	14855.97
900.79	14858.01
900.96	14737.18
901.13	14624.54
901.30	14554.91
901.47	14542.63
901.64	14612.26
901.81	14737.18
901.98	14491.43
902.15	14812.96
902.32	14520.10
902.49	14503.71
902.66	14532.39
902.83	14685.98
903.01	14642.98
903.18	14769.95
903.35	14604.07
903.52	14788.38
903.69	14679.84
903.86	14802.72
904.03	14728.99
904.20	14698.27
904.37	14741.28
904.54	14708.51
904.71	14518.05
904.88	14745.38
905.05	14491.43
905.22	14700.32
905.39	14546.72
905.56	14548.77
905.73	14470.95
905.90	14700.32
906.07	14681.89
906.24	14823.20
906.41	14452.52
906.58	14618.40
906.75	14698.27
906.92	14647.07
907.09	14688.03
907.26	14653.22
907.43	14491.43
907.60	14788.38
907.77	14624.54
907.93	14642.98
908.10	14563.11
908.27	14618.40
908.44	14391.08
908.61	14655.26
908.78	14362.40
908.95	14434.08
909.12	14642.98
909.29	14507.81
909.46	14309.16
909.63	14505.76
909.80	14634.78
909.97	14651.17
910.14	14550.82
910.31	14507.81
910.48	14610.21
910.65	14468.90
910.82	14614.30
910.99	14540.58
911.16	14450.47
911.33	14323.49
911.50	14542.63
911.66	14264.10
911.83	14145.32
912.00	14296.87
912.17	14135.08
912.34	14266.15
912.51	14120.74
912.68	14024.49
912.85	14143.27
913.02	14217.00
913.19	14214.95
913.36	14358.31
913.53	14165.80
913.70	13936.43
913.86	14071.59
914.03	13799.21
914.20	14020.39
914.37	13846.32
914.54	13952.81
914.71	14176.04
914.88	13883.18
915.05	13809.45
915.22	13715.25
915.39	13920.04
915.55	13899.56
915.72	13711.15
915.89	13682.48
916.06	13733.68
916.23	13532.98
916.40	13647.66
916.57	13616.94
916.74	13580.08
916.91	13381.43
917.07	13516.59
917.24	13518.64
917.41	13492.02
917.58	13496.11
917.75	13391.67
917.92	13035.32
918.09	13029.18
918.26	13152.06
918.42	13158.20
918.59	13190.97
918.76	13133.62
918.93	13139.77
919.10	13080.38
919.27	13082.42
919.44	13117.24
919.60	13201.21
919.77	13070.14
919.94	13111.10
920.11	12943.16
920.28	13238.07
920.45	12816.19
920.61	12640.06
920.78	12805.95
920.95	12597.06
921.12	12443.46
921.29	12525.38
921.46	12525.38
921.62	12486.47
921.79	12568.38
921.96	12721.98
922.13	12250.95
922.30	12539.71
922.47	12341.06
922.63	12369.73
922.80	12330.82
922.97	12404.55
923.14	12076.87
923.31	12226.37
923.47	11947.85
923.64	12402.50
923.81	12173.13
923.98	12126.02
924.15	11896.65
924.32	11675.47
924.48	11949.90
924.65	12040.01
924.82	11552.59
924.99	11618.13
925.15	11593.55
925.32	11882.31
925.49	11556.69
925.66	11591.50
925.83	11509.58
925.99	11370.32
926.16	11450.19
926.33	11310.93
926.50	11405.14
926.67	11546.45
926.83	11243.35
927.00	11249.49
927.17	11118.42
927.34	11136.85
927.50	11192.15
927.67	11165.53
927.84	11190.10
928.01	10940.25
928.17	10837.85
928.34	10944.34
928.51	10811.23
928.68	10690.40
928.84	10723.16
929.01	10585.95
929.18	10567.52
929.35	10551.14
929.51	10743.64
929.68	10663.77
929.85	10538.85
930.02	10383.20
930.18	10592.09
930.35	10452.83
930.52	10377.06
930.69	10557.28
930.85	10379.11
931.02	10043.24
931.19	10061.67
931.36	10239.84
931.52	10135.40
931.69	10145.64
931.86	10082.15
932.02	10131.30
932.19	9940.84
932.36	9969.51
932.53	9674.60
932.69	9740.14
932.86	9936.74
933.03	9809.77
933.19	9635.69
933.36	9576.30
933.53	9756.52
933.70	9588.59
933.86	9551.73
934.03	9652.08
934.20	9234.29
934.36	9430.90
934.53	9121.65
934.70	9076.60
934.86	9174.90
935.03	9062.26
935.20	8935.29
935.36	8953.72
935.53	8884.09
935.70	8906.62
935.86	8802.17
936.03	8793.98
936.20	8499.07
936.36	8507.26
936.53	8611.71
936.70	8511.36
936.86	8548.22
937.03	8046.47
937.20	8107.91
937.36	8204.16
937.53	7985.03
937.70	7851.91
937.86	7868.30
938.03	7899.02
938.20	8015.75
938.36	7466.89
938.53	7612.30
938.70	7266.19
938.86	7423.89
939.03	7266.19
939.20	7178.13
939.36	7358.35
939.53	7045.01
939.70	7362.45
939.86	6946.71
940.03	6846.36
940.19	6786.97
940.36	6623.13
940.53	6752.15
940.69	6473.63
940.86	6614.94
941.03	6385.57
941.19	6457.25
941.36	6301.60
941.52	6336.42
941.69	6281.12
941.86	6236.06
942.02	6127.52
942.19	6158.24
942.35	6094.76
942.52	6023.08
942.69	5992.36
942.85	5857.19
943.02	5908.39
943.18	5681.07
943.35	5773.22
943.52	5752.74
943.68	5636.01
943.85	5621.67
944.01	5580.71
944.18	5640.11
944.35	5550.00
944.51	5504.94
944.68	5455.79
944.84	5423.02
945.01	5484.46
945.17	5359.53
945.34	5394.35
945.51	5451.69
945.67	5337.01
945.84	5449.64
946.00	5277.62
946.17	5353.39
946.33	5283.76
946.50	5425.07
946.67	5425.07
946.83	5412.78
947.00	5521.32
947.16	5318.57
947.33	5236.66
947.49	5343.15
947.66	5289.90
947.82	5388.21
947.99	5265.33
948.16	5308.34
948.32	5175.22
948.49	5244.85
948.65	5353.39
948.82	5253.04
948.98	5156.79
949.15	5328.81
949.31	5369.77
949.48	5205.94
949.64	5212.08
949.81	5320.62
949.97	5117.87
950.14	5425.07
950.30	5275.57
950.47	5371.82
950.63	5246.90
950.80	5255.09
950.96	5263.28
951.13	5337.01
951.30	5318.57
951.46	5425.07
951.63	5435.31
951.79	5394.35
951.96	5451.69
952.12	5488.56
952.29	5353.39
952.45	5255.09
952.62	5414.83
952.78	5314.48
952.94	5412.78
953.11	5390.25
953.27	5363.63
953.44	5328.81
953.60	5380.01
953.77	5554.09
953.93	5287.86
954.10	5392.30
954.26	5363.63
954.43	5351.34
954.59	5566.38
954.76	5349.29
954.92	5459.88
955.09	5386.16
955.25	5398.45
955.42	5406.64
955.58	5463.98
955.75	5543.85
955.91	5476.27
956.07	5451.69
956.24	5369.77
956.40	5429.17
956.57	5416.88
956.73	5388.21
956.90	5418.93
957.06	5404.59
957.23	5527.47
957.39	5457.84
957.56	5545.90
957.72	5285.81
957.88	5394.35
958.05	5584.81
958.21	5478.32
958.38	5345.20
958.54	5398.45
958.71	5590.95
958.87	5525.42
959.03	5402.54
959.20	5478.32
959.36	5556.14
959.53	5470.12
959.69	5459.88
959.85	5529.52
960.02	5457.84
960.18	5494.70
960.35	5439.40
960.51	5574.57
960.68	5308.34
960.84	5556.14
961.00	5468.08
961.17	5439.40
961.33	5384.11
961.50	5468.08
961.66	5451.69
961.82	5363.63
961.99	5375.92
962.15	5439.40
962.31	5375.92
962.48	5414.83
962.64	5562.28
962.81	5476.27
962.97	5435.31
963.13	5474.22
963.30	5435.31
963.46	5523.37
963.62	5386.16
963.79	5384.11
963.95	5480.36
964.12	5482.41
964.28	5504.94
964.44	5386.16
964.61	5451.69
964.77	5351.34
964.93	5646.25
965.10	5328.81
965.26	5451.69
965.42	5332.91
965.59	5271.47
965.75	5347.25
965.92	5472.17
966.08	5384.11
966.24	5330.86
966.41	5253.04
966.57	5353.39
966.73	5201.84
966.90	5289.90
967.06	5255.09
967.22	5349.29
967.39	5121.97
967.55	5144.50
967.71	5257.14
967.88	5294.00
968.04	5218.22
968.20	5101.49
968.37	5169.07
968.53	5269.42
968.69	5250.99
968.85	5193.65
969.02	5078.96
969.18	5212.08
969.34	5038.00
969.51	5183.41
969.67	5302.19
969.83	5103.54
970.00	5150.64
970.16	5095.35
970.32	5124.02
970.48	5242.80
970.65	5048.24
970.81	5070.77
970.97	4933.56
971.14	4861.88
971.30	5179.31
971.46	5066.67
971.63	4995.00
971.79	5119.92
971.95	5054.39
972.11	4939.70
972.28	4990.90
972.44	4982.71
972.60	4743.10
972.76	5101.49
972.93	4937.65
973.09	5064.63
973.25	4939.70
973.42	4945.84
973.58	5011.38
973.74	4954.04
973.90	4917.17
974.07	4894.65
974.23	4958.13
974.39	4945.84
974.55	4884.41
974.72	4898.74
974.88	4753.34
975.04	4769.72
975.20	4786.10
975.37	4689.85
975.53	4714.42
975.69	4874.17
975.85	4767.67
976.01	4652.98
976.18	4644.79
976.34	4736.95
976.50	4796.34
976.66	4796.34
976.83	4777.91
976.99	4712.38
977.15	4638.65
977.31	4689.85
977.47	4708.28
977.64	4618.17
977.80	4657.08
977.96	4786.10
978.12	4618.17
978.29	4532.15
978.45	4583.35
978.61	4552.63
978.77	4657.08
978.93	4663.22
979.10	4569.02
979.26	4616.12
979.42	4640.70
979.58	4474.81
979.74	4501.44
979.91	4624.31
980.07	4440.00
980.23	4548.54
980.39	4515.77
980.55	4458.43
980.71	4503.48
980.88	4392.89
981.04	4474.81
981.20	4376.51
981.36	4452.28
981.52	4409.28
981.68	4376.51
981.85	4452.28
982.01	4462.52
982.17	4394.94
982.33	4323.26
982.49	4386.75
982.65	4300.73
982.82	4370.37
982.98	4321.21
983.14	4249.54
983.30	4485.05
983.46	4384.70
983.62	4267.97
983.79	4362.17
983.95	4196.29
984.11	4175.81
984.27	4300.73
984.43	4165.57
984.59	4151.23
984.75	4296.64
984.91	4218.82
985.08	4300.73
985.24	4220.86
985.40	4071.36
985.56	4241.34
985.72	4239.30
985.88	4216.77
986.04	4202.43
986.20	4171.71
986.37	4145.09
986.53	4097.99
986.69	4138.94
986.85	4122.56
987.01	4122.56
987.17	4136.90
987.33	4009.92
987.49	3989.44
987.65	4091.84
987.82	4081.60
987.98	3956.68
988.14	4042.69
988.30	4011.97
988.46	4028.35
988.62	3911.62
988.78	3919.81
988.94	3860.42
989.10	3866.56
989.26	3964.87
989.42	3725.26
989.59	3878.85
989.75	3895.24
989.91	3798.98
990.07	3821.51
990.23	3792.84
990.39	3823.56
990.55	3870.66
990.71	3796.93
990.87	3889.09
991.03	3850.18
991.19	3764.17
991.35	3784.65
991.51	3833.80
991.67	3760.07
991.83	3780.55
992.00	3708.87
992.16	3745.73
992.32	3850.18
992.48	3733.45
992.64	3633.10
992.80	3741.64
992.96	3749.83
993.12	3772.36
993.28	3719.11
993.44	3669.96
993.60	3641.29
993.76	3706.82
993.92	3712.97
994.08	3772.36
994.24	3710.92
994.40	3749.83
994.56	3678.15
994.72	3606.47
994.88	3575.75
995.04	3590.09
995.20	3624.90
995.36	3514.31
995.52	3528.65
995.68	3672.01
995.84	3573.71
996.00	3620.81
996.16	3485.64
996.32	3467.21
996.48	3504.07
996.64	3585.99
996.80	3485.64
996.96	3432.40
997.12	3436.49
997.28	3444.68
997.44	3428.30
997.60	3454.92
997.76	3524.55
997.92	3438.54
998.08	3473.36
998.24	3325.90
998.40	3313.61
998.56	3514.31
998.72	3297.23
998.88	3268.56
999.04	3405.77
999.20	3325.90
999.36	3346.38
999.52	3385.29
999.68	3358.67
999.84	3338.19
1000.00	3330.00
1000.16	3321.81
1000.32	3223.50
1000.48	3315.66
1000.64	3170.26
1000.80	3178.45
1000.95	3127.25
1001.11	3248.08
1001.27	3108.82
1001.43	3284.94
1001.59	3223.50
1001.75	3211.22
1001.91	3258.32
1002.07	3170.26
1002.23	3141.58
1002.39	3188.69
1002.55	3147.73
1002.71	3114.96
1002.87	3061.71
1003.03	3088.34
1003.19	3133.39
1003.34	3190.74
1003.50	2965.46
1003.66	3051.47
1003.82	3055.57
1003.98	3049.43
1004.14	3123.15
1004.30	3098.58
1004.46	3121.10
1004.62	3016.66
1004.78	3069.91
1004.94	3108.82
1005.09	3147.73
1005.25	3141.58
1005.41	3039.19
1005.57	3016.66
1005.73	2871.25
1005.89	2967.51
1006.05	3084.24
1006.21	3051.47
1006.37	2869.20
1006.52	3002.32
1006.68	2822.10
1006.84	3016.66
1007.00	2957.27
1007.16	2998.23
1007.32	2885.59
1007.48	2916.31
1007.64	2871.25
1007.79	2920.40
1007.95	2863.06
1008.11	2906.07
1008.27	2838.48
1008.43	2797.53
1008.59	2899.92
1008.75	2940.88
1008.91	2908.12
1009.06	2781.14
1009.22	2791.38
1009.38	2799.57
1009.54	2854.87
1009.70	2740.18
1009.86	2750.42
1010.01	2897.88
1010.17	2693.08
1010.33	2826.20
1010.49	2803.67
1010.65	2836.44
1010.81	2703.32
1010.96	2736.09
1011.12	2680.79
1011.28	2697.17
1011.44	2832.34
1011.60	2676.70
1011.76	2699.22
1011.91	2705.37
1012.07	2568.15
1012.23	2742.23
1012.39	2525.15
1012.55	2715.61
1012.71	2676.70
1012.86	2729.94
1013.02	2748.37
1013.18	2576.34
1013.34	2650.07
1013.50	2631.64
1013.65	2725.85
1013.81	2576.34
1013.97	2674.65
1014.13	2693.08
1014.29	2502.62
1014.44	2781.14
1014.60	2580.44
1014.76	2621.40
1014.92	2525.15
1015.07	2590.68
1015.23	2580.44
1015.39	2478.04
1015.55	2584.54
1015.71	2492.38
1015.86	2527.19
1016.02	2541.53
1016.18	2473.95
1016.34	2578.39
1016.49	2609.11
1016.65	2578.39
1016.81	2498.52
1016.97	2551.77
1017.12	2584.54
1017.28	2383.84
1017.44	2402.27
1017.60	2426.84
1017.75	2416.60
1017.91	2447.32
1018.07	2410.46
1018.23	2424.80
1018.38	2385.88
1018.54	2357.21
1018.70	2435.03
1018.86	2375.64
1019.01	2379.74
1019.17	2447.32
1019.33	2496.47
1019.49	2400.22
1019.64	2461.66
1019.80	2459.61
1019.96	2437.08
1020.12	2475.99
1020.27	2238.43
1020.43	2369.50
1020.59	2432.99
1020.74	2398.17
1020.90	2359.26
1021.06	2326.49
1021.22	2389.98
1021.37	2351.07
1021.53	2281.44
1021.69	2316.25
1021.84	2240.48
1022.00	2310.11
1022.16	2252.77
1022.31	2306.01
1022.47	2289.63
1022.63	2367.45
1022.79	2236.38
1022.94	2271.20
1023.10	2400.22
1023.26	2303.96
1023.41	2293.72
1023.57	2301.92
1023.73	2328.54
1023.88	2240.48
1024.04	2213.85
1024.20	2256.86
1024.35	2277.34
1024.51	2328.54
1024.67	2263.01
1024.82	2279.39
1024.98	2187.23
1025.14	2275.29
1025.29	2187.23
1025.45	2256.86
1025.61	2160.61
1025.76	2189.28
1025.92	2238.43
1026.08	2234.33
1026.23	2215.90
1026.39	2246.62
1026.55	2084.83
1026.70	2203.61
1026.86	2158.56
1027.02	2179.04
1027.17	2179.04
1027.33	2133.98
1027.48	2164.70
1027.64	2142.18
1027.80	2119.65
1027.95	2107.36
1028.11	2097.12
1028.27	2201.57
1028.42	2125.79
1028.58	2093.02
1028.73	2082.78
1028.89	2142.18
1029.05	2203.61
1029.20	2136.03
>>>>>End Processed Spectral Data<<<<<
