SpectraSuite Data File
++++++++++++++++++++++++++++++++++++
Date: Fri Jun 02 14:51:10 CEST 2017
User: INFO_000
Dark Spectrum Present: No
Reference Spectrum Present: No
Number of Sampled Component Spectra: 1
Spectrometers: USB4H00879
Integration Time (usec): 80000 (USB4H00879)
Spectra Averaged: 1 (USB4H00879)
Boxcar Smoothing: 0 (USB4H00879)
Correct for Electrical Dark: No (USB4H00879)
Strobe/Lamp Enabled: No (USB4H00879)
Correct for Detector Non-linearity: No (USB4H00879)
Correct for Stray Light: No (USB4H00879)
Number of Pixels in Processed Spectrum: 3648
>>>>>Begin Processed Spectral Data<<<<<
345.13	1304.56
345.34	1304.56
345.56	1304.56
345.78	1277.93
345.99	1282.03
346.21	1699.81
346.42	1716.20
346.64	1640.42
346.86	1777.64
347.07	1656.81
347.29	1724.39
347.50	1630.18
347.72	1648.61
347.94	1730.53
348.15	1540.07
348.37	1630.18
348.59	1742.82
348.80	1630.18
349.02	1742.82
349.23	1875.94
349.45	1875.94
349.67	1800.16
349.88	1863.65
350.10	2023.39
350.31	1886.18
350.53	1847.27
350.75	2011.11
350.96	1781.73
351.18	1830.88
351.39	1802.21
351.61	1810.40
351.82	1951.71
352.04	1920.99
352.26	1804.26
352.47	1855.46
352.69	2031.58
352.90	1730.53
353.12	1841.12
353.34	1855.46
353.55	1978.34
353.77	1832.93
353.98	1830.88
354.20	1886.18
354.41	1929.19
354.63	1898.47
354.85	2074.59
355.06	1845.22
355.28	1773.54
355.49	1847.27
355.71	1867.75
355.92	1869.80
356.14	1974.24
356.35	1920.99
356.57	1851.36
356.79	1941.47
357.00	1943.52
357.22	1974.24
357.43	1910.75
357.65	1912.80
357.86	1843.17
358.08	1888.23
358.29	1953.76
358.51	2007.01
358.72	1970.15
358.94	1961.95
359.16	1951.71
359.37	1908.71
359.59	1894.37
359.80	1980.39
360.02	1992.67
360.23	2062.30
360.45	2066.40
360.66	1984.48
360.88	1888.23
361.09	1902.56
361.31	1941.47
361.52	1927.14
361.74	2068.45
361.95	2103.26
362.17	1939.43
362.38	2117.60
362.60	2066.40
362.81	1955.81
363.03	1904.61
363.24	2060.26
363.46	2078.69
363.67	2013.15
363.89	2043.87
364.10	2009.06
364.32	1941.47
364.53	2084.83
364.75	1894.37
364.96	2035.68
365.18	2011.11
365.39	2052.06
365.61	1912.80
365.82	2121.70
366.04	2072.54
366.25	1961.95
366.47	2021.35
366.68	2041.82
366.90	1966.05
367.11	2054.11
367.33	2011.11
367.54	2023.39
367.76	2047.97
367.97	2109.41
368.19	2090.98
368.40	2023.39
368.62	1853.41
368.83	1998.82
369.05	2019.30
369.26	2027.49
369.48	1937.38
369.69	1961.95
369.91	2099.17
370.12	1966.05
370.33	2117.60
370.55	2080.74
370.76	2084.83
370.98	2041.82
371.19	2084.83
371.41	1980.39
371.62	2105.31
371.84	2047.97
372.05	2181.09
372.27	2037.73
372.48	2060.26
372.69	2070.50
372.91	2047.97
373.12	2113.50
373.34	2088.93
373.55	2187.23
373.77	2174.94
373.98	2140.13
374.20	2271.20
374.41	2215.90
374.62	2238.43
374.84	2164.70
375.05	2191.33
375.27	2093.02
375.48	2187.23
375.70	2117.60
375.91	2197.47
376.12	2277.34
376.34	2123.74
376.55	2154.46
376.77	2230.24
376.98	2056.16
377.19	2093.02
377.41	2093.02
377.62	2242.53
377.84	2209.76
378.05	2351.07
378.27	2193.37
378.48	2279.39
378.69	2334.68
378.91	2285.53
379.12	2246.62
379.34	2244.57
379.55	2265.05
379.76	2197.47
379.98	2154.46
380.19	2346.97
380.41	2250.72
380.62	2238.43
380.83	2203.61
381.05	2215.90
381.26	2332.64
381.47	2328.54
381.69	2244.57
381.90	2435.03
382.12	2346.97
382.33	2287.58
382.54	2217.95
382.76	2322.40
382.97	2265.05
383.19	2375.64
383.40	2387.93
383.61	2299.87
383.83	2207.71
384.04	2349.02
384.25	2385.88
384.47	2375.64
384.68	2357.21
384.89	2234.33
385.11	2338.78
385.32	2312.16
385.54	2416.60
385.75	2373.60
385.96	2357.21
386.18	2355.16
386.39	2355.16
386.60	2334.68
386.82	2400.22
387.03	2461.66
387.24	2467.80
387.46	2449.37
387.67	2572.25
387.88	2506.71
388.10	2471.90
388.31	2469.85
388.52	2541.53
388.74	2432.99
388.95	2559.96
389.16	2535.39
389.38	2492.38
389.59	2598.87
389.80	2533.34
390.02	2381.79
390.23	2578.39
390.44	2551.77
390.66	2559.96
390.87	2449.37
391.08	2682.84
391.30	2650.07
391.51	2631.64
391.72	2625.50
391.94	2672.60
392.15	2654.17
392.36	2697.17
392.58	2457.56
392.79	2615.26
393.00	2668.50
393.22	2742.23
393.43	2793.43
393.64	2748.37
393.85	2760.66
394.07	2471.90
394.28	2686.94
394.49	2754.52
394.71	2779.09
394.92	2746.33
395.13	2699.22
395.35	2715.61
395.56	2725.85
395.77	2838.48
395.98	2721.75
396.20	2832.34
396.41	2744.28
396.62	2887.64
396.84	2785.24
397.05	2807.77
397.26	2940.88
397.47	2965.46
397.69	2801.62
397.90	3012.56
398.11	2932.69
398.32	2844.63
398.54	2846.68
398.75	2887.64
398.96	2992.08
399.18	3024.85
399.39	2932.69
399.60	2957.27
399.81	2912.21
400.03	2916.31
400.24	3198.93
400.45	2996.18
400.66	3016.66
400.88	3045.33
401.09	3137.49
401.30	3106.77
401.51	3135.44
401.73	3098.58
401.94	3164.11
402.15	3086.29
402.36	3133.39
402.58	3166.16
402.79	3141.58
403.00	3043.28
403.21	3117.01
403.43	3016.66
403.64	3321.81
403.85	3049.43
404.06	3311.57
404.27	3141.58
404.49	3205.07
404.70	3162.06
404.91	3364.81
405.12	3225.55
405.34	3200.98
405.55	3342.28
405.76	3139.54
405.97	3243.98
406.19	3364.81
406.40	3147.73
406.61	3309.52
406.82	3330.00
407.03	3278.80
407.25	3133.39
407.46	3436.49
407.67	3450.83
407.88	3418.06
408.09	3360.72
408.31	3278.80
408.52	3364.81
408.73	3327.95
408.94	3299.28
409.15	3469.26
409.37	3555.27
409.58	3471.31
409.79	3422.16
410.00	3620.81
410.21	3383.24
410.43	3418.06
410.64	3391.44
410.85	3547.08
411.06	3514.31
411.27	3508.17
411.48	3667.91
411.70	3590.09
411.91	3600.33
412.12	3645.38
412.33	3557.32
412.54	3592.14
412.76	3602.38
412.97	3614.66
413.18	3467.21
413.39	3702.73
413.60	3762.12
413.81	3592.14
414.03	3702.73
414.24	3614.66
414.45	3833.80
414.66	3614.66
414.87	3649.48
415.08	3780.55
415.30	3635.14
415.51	3817.41
415.72	3741.64
415.93	3729.35
416.14	3688.39
416.35	3762.12
416.56	3848.13
416.78	3676.10
416.99	3780.55
417.20	3792.84
417.41	3909.57
417.62	3829.70
417.83	3899.33
418.04	3901.38
418.26	3837.89
418.47	3835.85
418.68	4018.11
418.89	3950.53
419.10	4061.12
419.31	3991.49
419.52	4034.50
419.73	4038.59
419.95	4048.83
420.16	3889.09
420.37	3989.44
420.58	3999.68
420.79	3940.29
421.00	4128.70
421.21	4212.67
421.42	4163.52
421.63	3968.96
421.85	4095.94
422.06	4177.86
422.27	4003.78
422.48	4151.23
422.69	4239.30
422.90	4169.66
423.11	4122.56
423.32	4220.86
423.53	4384.70
423.75	4349.89
423.96	4415.42
424.17	4321.21
424.38	4440.00
424.59	4302.78
424.80	4695.99
425.01	4415.42
425.22	4425.66
425.43	4513.72
425.64	4614.07
425.85	4640.70
426.06	4616.12
426.28	4548.54
426.49	4501.44
426.70	4503.48
426.91	4544.44
427.12	4652.98
427.33	4497.34
427.54	4601.79
427.75	4661.18
427.96	4741.05
428.17	4710.33
428.38	4886.45
428.59	4900.79
428.80	4743.10
429.01	4765.62
429.23	4835.25
429.44	5154.74
429.65	4845.49
429.86	4837.30
430.07	4689.85
430.28	4745.14
430.49	4906.93
430.70	5029.81
430.91	5015.48
431.12	5035.96
431.33	5093.30
431.54	5222.32
431.75	5072.82
431.96	4960.18
432.17	5175.22
432.38	5001.14
432.59	5468.08
432.80	5246.90
433.01	5312.43
433.22	5210.03
433.43	5369.77
433.64	5214.13
433.85	5197.74
434.06	5394.35
434.27	5294.00
434.49	5433.26
434.70	5453.74
434.91	5416.88
435.12	5480.36
435.33	5502.89
435.54	5525.42
435.75	5154.74
435.96	5369.77
436.17	5279.66
436.38	5482.41
436.59	5453.74
436.80	5453.74
437.01	5889.96
437.22	5717.93
437.43	5595.05
437.64	5545.90
437.85	5640.11
438.06	5758.89
438.27	5572.52
438.48	5742.50
438.69	5711.78
438.90	5724.07
439.11	5771.18
439.32	5881.77
439.53	5844.90
439.74	5824.42
439.95	5849.00
440.16	5715.88
440.37	5947.30
440.57	5773.22
440.78	5932.97
440.99	5982.12
441.20	5959.59
441.41	5914.53
441.62	5873.57
441.83	5734.31
442.04	6053.80
442.25	6059.94
442.46	5978.02
442.67	6242.21
442.88	6539.16
443.09	5916.58
443.30	6061.99
443.51	5967.78
443.72	6414.24
443.93	6211.49
444.14	6463.39
444.35	6090.66
444.56	6289.31
444.77	6240.16
444.98	6348.70
445.19	6309.79
445.40	6356.90
445.61	6324.13
445.81	6604.70
446.02	6596.51
446.23	6297.50
446.44	6244.26
446.65	6496.16
446.86	6475.68
447.07	6533.02
447.28	6791.06
447.49	6688.67
447.70	6530.97
447.91	6639.51
448.12	6635.42
448.33	6739.87
448.54	6612.89
448.74	6500.25
448.95	6832.02
449.16	6664.09
449.37	7090.07
449.58	6846.36
449.79	6995.86
450.00	6729.63
450.21	6887.32
450.42	6938.52
450.63	7067.54
450.84	6915.99
451.05	6946.71
451.25	7102.36
451.46	6913.94
451.67	7135.12
451.88	7298.96
452.09	7223.19
452.30	7176.08
452.51	7079.83
452.72	7233.43
452.93	7450.51
453.13	7069.59
453.34	6989.72
453.55	7307.15
453.76	7278.48
453.97	7577.48
454.18	7368.59
454.39	7413.65
454.60	7344.02
454.81	7446.41
455.01	7757.71
455.22	7348.11
455.43	7649.16
455.64	7681.93
455.85	7851.91
456.06	7974.79
456.27	7745.42
456.48	7712.65
456.68	7638.92
456.89	7939.97
457.10	7866.25
457.31	7901.06
457.52	7989.13
457.73	7892.87
457.94	8146.82
458.14	7985.03
458.35	8271.75
458.56	8232.83
458.77	8171.40
458.98	8300.42
459.19	8404.86
459.39	8279.94
459.60	8667.00
459.81	8105.86
460.02	8488.83
460.23	8324.99
460.44	8562.56
460.65	8548.22
460.85	8732.54
461.06	8640.38
461.27	8507.26
461.48	8783.74
461.69	8888.18
461.89	8687.48
462.10	8812.41
462.31	8753.02
462.52	8847.22
462.73	8798.07
462.94	9152.37
463.14	9002.87
463.35	9086.84
463.56	9502.58
463.77	9346.93
463.98	9238.39
464.18	9172.85
464.39	9209.72
464.60	9529.20
464.81	9457.52
465.02	9375.60
465.23	9725.80
465.43	9391.98
465.64	9578.35
465.85	9674.60
466.06	9596.78
466.27	10057.57
466.47	9969.51
466.68	9983.85
466.89	9975.66
467.10	10020.71
467.30	9869.16
467.51	10116.97
467.72	10368.87
467.93	10065.77
468.14	10284.90
468.34	10434.40
468.55	10471.26
468.76	10504.03
468.97	10346.34
469.17	10512.22
469.38	10805.08
469.59	10862.43
469.80	10714.97
470.01	10905.43
470.21	10901.34
470.42	11292.50
470.63	11140.95
470.84	11095.89
471.04	11259.73
471.25	11267.92
471.46	11044.70
471.67	11337.56
471.87	11433.81
472.08	11634.51
472.29	11691.85
472.50	11231.06
472.70	11650.89
472.91	11636.56
473.12	11857.74
473.33	11894.60
473.53	12128.07
473.74	11884.36
473.95	12171.08
474.16	12185.41
474.36	12255.04
474.57	12496.71
474.78	12648.26
474.99	12511.04
475.19	12304.20
475.40	12642.11
475.61	12834.62
475.81	12906.30
476.02	13088.57
476.23	13107.00
476.44	13174.58
476.64	13242.17
476.85	13414.20
477.06	13301.56
477.27	13639.47
477.47	13700.91
477.68	13551.41
477.89	13899.56
478.09	13879.08
478.30	13694.77
478.51	14016.30
478.71	13983.53
478.92	14071.59
479.13	14260.01
479.34	14376.74
479.54	14200.62
479.75	14524.19
479.96	14554.91
480.16	14339.88
480.37	14681.89
480.58	14702.37
480.78	15023.90
480.99	15251.22
481.20	15087.39
481.41	15150.87
481.61	15247.13
481.82	15507.22
482.03	15384.34
482.23	15599.38
482.44	15660.82
482.65	15593.23
482.85	15843.09
483.06	16135.95
483.27	15910.67
483.47	15914.77
483.68	16025.36
483.89	16324.36
484.09	16410.37
484.30	16563.97
484.51	16799.49
484.71	16592.64
484.92	16637.70
485.13	16834.30
485.33	16817.92
485.54	17084.16
485.75	17075.96
485.95	17272.57
486.16	17243.90
486.37	17469.17
486.57	17297.14
486.78	17571.57
486.98	17413.88
487.19	17958.64
487.40	18071.28
487.60	17917.68
487.81	18132.72
488.02	18231.02
488.22	17999.60
488.43	18368.23
488.64	18392.81
488.84	18583.27
489.05	18745.06
489.25	18450.15
489.46	18722.53
489.67	18863.84
489.87	19037.92
490.08	19070.68
490.29	19211.99
490.49	19584.73
490.70	19482.33
490.90	19521.24
491.11	19255.00
491.32	19418.84
491.52	19443.42
491.73	19789.52
491.94	19908.30
492.14	19900.11
492.35	20033.23
492.55	20115.15
492.76	20221.64
492.97	20223.69
493.17	20401.86
493.38	20293.32
493.58	20420.30
493.79	20633.29
494.00	20688.58
494.20	20621.00
494.41	20901.57
494.61	21098.17
494.82	21034.69
495.02	21163.71
495.23	21141.18
495.44	21317.31
495.64	21518.01
495.85	21726.90
496.05	21722.80
496.26	21595.83
496.47	21835.44
496.67	21618.36
496.88	21780.15
497.08	21767.86
497.29	22128.30
497.49	22079.15
497.70	22118.06
497.91	21905.07
498.11	22107.82
498.32	22329.00
498.52	22468.27
498.73	23060.13
498.93	22658.73
499.14	22730.41
499.34	22736.55
499.55	22699.69
499.76	22748.84
499.96	22591.14
500.17	22851.24
500.37	23258.78
500.58	22912.67
500.78	23295.64
500.99	23158.43
501.19	23293.60
501.40	23375.52
501.60	23219.87
501.81	23641.75
502.02	23987.86
502.22	23596.70
502.43	23813.78
502.63	24096.40
502.84	23766.68
503.04	24178.32
503.25	23916.18
503.45	24256.14
503.66	24354.44
503.86	24317.58
504.07	24360.59
504.27	24082.06
504.48	24467.08
504.68	24561.29
504.89	24782.47
505.09	24456.84
505.30	24616.58
505.50	24635.02
505.71	24696.46
505.91	25069.19
506.12	24843.91
506.32	25167.49
506.53	25171.58
506.73	25157.25
506.94	25294.46
507.14	25360.00
507.35	25597.56
507.55	25439.87
507.76	25663.10
507.96	25681.53
508.17	25626.23
508.37	25507.45
508.58	25816.69
508.78	25620.09
508.99	25917.04
509.19	26072.69
509.40	26087.03
509.60	25738.87
509.81	25939.57
510.01	25833.08
510.22	26349.17
510.42	26347.12
510.63	26414.70
510.83	26072.69
511.04	26371.69
511.24	26687.08
511.44	26625.64
511.65	26369.65
511.85	26508.91
512.06	26646.12
512.26	26455.66
512.47	27139.68
512.67	26814.05
512.88	26842.73
513.08	26472.04
513.29	27051.62
513.49	27143.78
513.69	27027.04
513.90	27324.00
514.10	27465.31
514.31	27315.81
514.51	27260.51
514.72	27049.57
514.92	27280.99
515.13	27225.70
515.33	27840.09
515.53	27928.15
515.74	27600.47
515.94	27373.15
516.15	27965.01
516.35	27532.89
516.56	28044.88
516.76	27942.49
516.96	28008.02
517.17	28014.16
517.37	28196.43
517.58	28268.11
517.78	28188.24
517.99	28038.74
518.19	28603.98
518.39	28477.01
518.60	28354.13
518.80	28542.54
519.01	28800.58
519.21	28618.32
519.41	28849.74
519.62	28585.55
519.82	28859.98
520.03	28816.97
520.23	28767.82
520.43	28976.71
520.64	29513.28
520.84	29390.40
521.05	29161.03
521.25	29380.16
521.45	29521.47
521.66	29775.42
521.86	29865.53
522.07	29457.98
522.27	29580.86
522.47	29421.12
522.68	30004.79
522.88	29785.66
523.08	30463.54
523.29	29908.54
523.49	29947.45
523.70	30094.90
523.90	30340.66
524.10	30072.37
524.31	30189.11
524.51	30185.01
524.71	30371.38
524.92	30543.41
525.12	30498.35
525.33	30834.22
525.53	30754.35
525.73	31274.53
525.94	30996.01
526.14	31161.89
526.34	31219.24
526.55	31561.25
526.75	31202.85
526.95	31591.97
527.16	31645.21
527.36	31634.97
527.56	32063.00
527.77	32015.90
527.97	31540.77
528.17	31770.14
528.38	32093.72
528.58	32204.31
528.78	32300.56
528.99	32310.80
529.19	32640.53
529.39	31733.28
529.60	32562.70
529.80	32382.48
530.00	32884.23
530.21	32773.64
530.41	32859.66
530.61	32890.38
530.82	32976.39
531.02	32720.40
531.22	33297.92
531.43	33058.31
531.63	33289.73
531.83	33578.50
532.04	33736.19
532.24	33414.66
532.44	34225.65
532.64	33924.60
532.85	34321.91
533.05	33902.07
533.25	34039.29
533.46	34055.67
533.66	34547.18
533.86	34338.29
534.07	34561.52
534.27	34688.49
534.47	35192.30
534.67	35053.03
534.88	34778.61
535.08	35163.62
535.28	35317.22
535.49	35173.86
535.69	35468.77
535.89	35280.36
536.09	35642.85
536.30	35644.90
536.50	35485.15
536.70	36021.72
536.91	36093.40
537.11	35800.54
537.31	36234.71
537.51	35999.19
537.72	36632.02
537.92	36388.31
538.12	36877.77
538.32	36242.90
538.53	36857.29
538.73	36546.00
538.93	36290.01
539.13	36754.90
539.34	36902.35
539.54	36836.81
539.74	36908.49
539.94	36584.91
540.15	37010.89
540.35	37518.79
540.55	37328.33
540.75	37246.41
540.96	37565.89
541.16	37443.01
541.36	37250.50
541.56	37678.53
541.77	37789.12
541.97	37508.55
542.17	37586.37
542.37	37959.10
542.58	38004.16
542.78	37959.10
542.98	37785.02
543.18	38487.48
543.38	38940.08
543.59	38423.99
543.79	38389.17
543.99	38659.51
544.19	38983.09
544.40	38618.55
544.60	38901.17
544.80	38749.62
545.00	38708.66
545.20	39247.27
545.41	38833.58
545.61	39189.93
545.81	39159.21
546.01	39486.89
546.21	39427.49
546.42	39277.99
546.62	39482.79
546.82	39218.60
547.02	39263.66
547.22	39273.90
547.43	39329.19
547.63	39775.65
547.83	39835.04
548.03	39529.89
548.23	40043.93
548.44	39568.80
548.64	40279.45
548.84	39992.73
549.04	40093.08
549.24	40078.75
549.45	40199.58
549.65	40203.67
549.85	40361.37
550.05	40385.94
550.25	40314.26
550.45	40908.18
550.66	40418.71
550.86	40523.16
551.06	40697.24
551.26	40797.59
551.46	40967.57
551.66	41033.10
551.87	40830.35
552.07	41246.09
552.27	40650.13
552.47	41127.31
552.67	40627.60
552.87	40922.51
553.07	41139.60
553.28	41014.67
553.48	41151.88
553.68	41323.91
553.88	41811.33
554.08	41571.72
554.28	41467.27
554.48	41239.95
554.69	41295.24
554.89	41590.15
555.09	41807.23
555.29	41592.20
555.49	42020.22
555.69	41584.01
555.89	41549.19
556.10	42263.93
556.30	41856.39
556.50	42278.27
556.70	41600.39
556.90	42065.28
557.10	42042.75
557.30	41760.13
557.50	42319.23
557.70	42218.88
557.91	42333.56
558.11	42243.45
558.31	42358.14
558.51	42327.42
558.71	42755.44
558.91	42579.32
559.11	42354.04
559.31	42823.03
559.51	42481.02
559.72	42679.67
559.92	42503.54
560.12	42616.18
560.32	42423.67
560.52	42458.49
560.72	42227.07
560.92	42950.00
561.12	42630.52
561.32	42945.90
561.52	42556.79
561.72	43138.41
561.93	43201.90
562.13	43177.33
562.33	42780.02
562.53	43398.51
562.73	42806.64
562.93	43627.88
563.13	43269.48
563.33	43158.89
563.53	43271.53
563.73	43392.36
563.93	43318.64
564.13	43863.39
564.33	43758.95
564.53	43726.18
564.74	43654.50
564.94	43806.05
565.14	43730.28
565.34	43369.83
565.54	43447.66
565.74	43689.32
565.94	44232.03
566.14	43724.13
566.34	43459.94
566.54	44227.93
566.74	43994.46
566.94	43761.00
567.14	44332.38
567.34	43775.33
567.54	44115.29
567.74	44146.01
567.94	43877.73
568.14	44602.71
568.34	44604.76
568.54	44373.34
568.74	44143.97
568.94	44408.15
569.14	44354.91
569.34	44567.90
569.54	44561.75
569.75	43916.64
569.95	44459.35
570.15	44938.58
570.35	44815.70
570.55	44334.43
570.75	44602.71
570.95	44977.49
571.15	44985.68
571.35	44850.52
571.55	45063.50
571.75	44676.44
571.95	45034.83
572.15	44889.43
572.35	45612.36
572.55	45317.45
572.75	44918.10
572.95	44807.51
573.15	45358.41
573.35	45632.84
573.55	45069.65
573.75	45229.39
573.95	45626.70
574.15	45208.91
574.35	45528.39
574.55	45276.49
574.75	45542.73
574.95	45598.02
575.15	45612.36
575.34	46142.78
575.54	45733.19
575.74	46136.64
575.94	46064.96
576.14	45829.44
576.34	46153.02
576.54	46120.26
576.74	46232.89
576.94	46171.46
577.14	46110.02
577.34	46751.03
577.54	46505.27
577.74	46226.75
577.94	46277.95
578.14	46198.08
578.34	46183.74
578.54	46097.73
578.74	46294.33
578.94	46740.79
579.14	46642.49
579.34	46554.43
579.54	46794.04
579.74	47131.95
579.94	47007.03
580.13	46986.55
580.33	46658.87
580.53	46505.27
580.73	46525.75
580.93	46775.61
581.13	47062.32
581.33	47426.86
581.53	47361.33
581.73	47390.00
581.93	47424.81
582.13	47267.12
582.33	47592.75
582.53	47428.91
582.73	47279.41
582.92	47580.46
583.12	47824.17
583.32	48047.39
583.52	47643.94
583.72	47840.55
583.92	48010.53
584.12	48190.75
584.32	48022.82
584.52	48094.50
584.72	48121.12
584.92	48350.49
585.11	48626.97
585.31	48530.72
585.51	48629.02
585.71	48098.59
585.91	48815.38
586.11	48227.62
586.31	48577.82
586.51	48393.50
586.71	48543.00
586.91	48938.26
587.10	49007.89
587.30	48545.05
587.50	48784.66
587.70	49382.67
587.90	48862.49
588.10	49280.27
588.30	49149.20
588.50	49184.02
588.69	49091.86
588.89	49069.33
589.09	49644.81
589.29	49020.18
589.49	49734.92
589.69	49196.31
589.89	49790.22
590.08	49249.55
590.28	49552.65
590.48	49321.23
590.68	49143.06
590.88	49566.99
591.08	49263.89
591.28	49403.15
591.47	49642.76
591.67	49487.12
591.87	49472.78
592.07	50005.25
592.27	50007.30
592.47	49939.72
592.67	49976.58
592.86	49392.91
593.06	50468.09
593.26	50136.32
593.46	50191.62
593.66	50085.12
593.86	50308.35
594.05	50195.71
594.25	50519.29
594.45	50068.74
594.65	50355.46
594.85	49741.06
595.05	50758.91
595.24	50838.78
595.44	50328.83
595.64	50373.89
595.84	50707.71
596.04	50654.46
596.23	50853.11
596.43	51086.58
596.63	50670.84
596.83	51098.87
597.03	50943.22
597.22	51477.74
597.42	50855.16
597.62	51303.67
597.82	51248.37
598.02	51410.16
598.21	51567.85
598.41	51352.82
598.61	51426.54
598.81	51590.38
599.01	52182.24
599.20	51723.50
599.40	51291.38
599.60	52118.76
599.80	51827.95
600.00	52108.52
600.19	52010.21
600.39	51498.22
600.59	51617.00
600.79	52163.81
600.98	51997.93
601.18	52083.94
601.38	52079.85
601.58	52217.06
601.78	52307.17
601.97	52217.06
602.17	52778.20
602.37	52335.84
602.57	52380.90
602.76	52757.72
602.96	52118.76
603.16	52628.70
603.36	52958.42
603.55	52702.43
603.75	52686.04
603.95	52892.89
604.15	53058.77
604.34	52819.16
604.54	52790.49
604.74	53013.72
604.94	53183.70
605.13	53458.13
605.33	53329.11
605.53	53118.17
605.73	53642.45
605.92	52935.90
606.12	53116.12
606.32	53468.37
606.52	53300.43
606.71	53718.22
606.91	53798.09
607.11	53578.96
607.30	53656.78
607.50	53679.31
607.70	53701.84
607.90	53318.87
608.09	53861.58
608.29	53953.74
608.49	53683.40
608.68	54047.94
608.88	54260.93
609.08	54121.67
609.28	54428.87
609.47	53957.83
609.67	54662.33
609.87	54052.04
610.06	54295.75
610.26	54033.61
610.46	54473.92
610.66	54154.44
610.85	54217.92
611.05	54062.28
611.25	54207.68
611.44	54260.93
611.64	54392.00
611.84	54353.09
612.03	54115.53
612.23	54359.23
612.43	54271.17
612.62	54279.36
612.82	54449.35
613.02	54590.66
613.21	54754.49
613.41	54506.69
613.61	54527.17
613.80	53914.83
614.00	54437.06
614.20	54949.05
614.39	54920.38
614.59	54815.93
614.79	54922.43
614.98	54686.91
615.18	54682.81
615.38	54680.77
615.57	54555.84
615.77	54609.09
615.97	54619.33
616.16	54910.14
616.36	54465.73
616.56	55137.46
616.75	54691.01
616.95	54703.29
617.15	54248.64
617.34	54629.57
617.54	54650.05
617.74	55383.22
617.93	55325.88
618.13	54342.85
618.32	54594.75
618.52	54471.87
618.72	54514.88
618.91	55004.34
619.11	54580.42
619.31	54817.98
619.50	54719.68
619.70	54871.23
619.90	54987.96
620.09	54867.13
620.29	54654.14
620.48	54727.87
620.68	55571.63
620.88	54645.95
621.07	54734.01
621.27	54858.94
621.46	54809.79
621.66	54953.15
621.86	54883.51
622.05	54572.22
622.25	55076.02
622.44	54863.03
622.64	54785.21
622.84	54826.17
623.03	54711.49
623.23	54740.16
623.42	54400.19
623.62	54322.37
623.82	55135.41
624.01	54703.29
624.21	54875.32
624.40	54809.79
624.60	54596.80
624.80	54361.28
624.99	55059.64
625.19	54408.39
625.38	54777.02
625.58	54977.72
625.77	54539.46
625.97	55125.17
626.17	54561.98
626.36	54879.42
626.56	55082.17
626.75	54541.50
626.95	54940.86
627.14	54817.98
627.34	55067.83
627.54	54637.76
627.73	54748.35
627.93	55041.21
628.12	54537.41
628.32	55125.17
628.51	54934.71
628.71	54787.26
628.90	54863.03
629.10	54826.17
629.30	54473.92
629.49	55137.46
629.69	54543.55
629.88	54555.84
630.08	55149.75
630.27	54850.75
630.47	54944.95
630.66	54973.63
630.86	55219.38
631.05	54842.56
631.25	54957.24
631.44	54846.65
631.64	54961.34
631.84	54992.06
632.03	55254.20
632.23	55002.30
632.42	55231.67
632.62	54666.43
632.81	54453.44
633.01	55266.48
633.20	55213.24
633.40	55352.50
633.59	55135.41
633.79	54514.88
633.98	55286.96
634.18	55375.03
634.37	55203.00
634.57	55071.93
634.76	55561.39
634.96	55332.02
635.15	55280.82
635.35	55125.17
635.54	54899.90
635.74	55307.44
635.93	54465.73
636.13	55342.26
636.32	55588.02
636.52	55170.23
636.71	54959.29
636.91	55489.71
637.10	55596.21
637.30	55399.60
637.49	55225.53
637.69	55198.90
637.88	55332.02
638.08	55162.04
638.27	55870.64
638.46	55227.57
638.66	54793.40
638.85	55010.49
639.05	55211.19
639.24	55784.62
639.44	55088.31
639.63	55303.35
639.83	55321.78
640.02	55469.23
640.22	55409.84
640.41	55579.82
640.61	55090.36
640.80	55721.13
640.99	55567.54
641.19	55999.66
641.38	56011.95
641.58	55626.93
641.77	55786.67
641.97	55307.44
642.16	55481.52
642.36	55340.21
642.55	55751.85
642.74	55227.57
642.94	55899.31
643.13	55389.36
643.33	55522.48
643.52	55704.75
643.72	55682.22
643.91	55608.50
644.10	55915.69
644.30	56186.02
644.49	55637.17
644.69	55864.49
644.88	55852.20
645.08	55667.89
645.27	55676.08
645.46	55284.92
645.66	56042.66
645.85	55508.14
646.05	55788.72
646.24	56120.49
646.43	55887.02
646.63	56077.48
646.82	56124.58
647.02	56204.45
647.21	56300.71
647.40	55993.51
647.60	56030.38
647.79	56140.97
647.99	56069.29
648.18	56253.61
648.37	56386.72
648.57	56708.25
648.76	56130.73
648.96	55973.03
649.15	56810.65
649.34	56790.17
649.54	56177.83
649.73	56095.91
649.92	56521.89
650.12	56411.30
650.31	56470.69
650.51	56417.44
650.70	56655.01
650.89	55850.16
651.09	56673.44
651.28	56474.79
651.47	56564.90
651.67	56689.82
651.86	56734.88
652.06	55993.51
652.25	55997.61
652.44	56192.17
652.64	56571.04
652.83	56024.23
653.02	56556.70
653.22	56618.14
653.41	56497.31
653.60	56540.32
653.80	55901.36
653.99	56992.92
654.18	56210.60
654.38	56587.42
654.57	56503.46
654.76	56997.02
654.96	56126.63
655.15	56042.66
655.34	56474.79
655.54	55985.32
655.73	56644.77
655.92	56812.70
656.12	56554.66
656.31	56751.26
656.50	56343.72
656.70	56399.01
656.89	56319.14
657.08	56661.15
657.28	56724.64
657.47	56722.59
657.66	56628.38
657.86	56427.68
658.05	57005.21
658.24	56896.67
658.43	56999.07
658.63	56753.31
658.82	56784.03
659.01	57267.35
659.21	57062.55
659.40	56646.82
659.59	56331.43
659.79	56974.49
659.98	57242.77
660.17	56964.25
660.36	57023.64
660.56	57011.35
660.75	57164.95
660.94	57451.67
661.14	56673.44
661.33	56792.22
661.52	56714.40
661.71	57423.00
661.91	56837.28
662.10	56489.12
662.29	57627.79
662.49	56827.04
662.68	56689.82
662.87	56937.63
663.06	57062.55
663.26	56804.51
663.45	57111.70
663.64	57058.46
663.83	57664.66
664.03	57261.21
664.22	56564.90
664.41	56951.96
664.60	57285.78
664.80	57005.21
664.99	57111.70
665.18	57363.60
665.37	57222.29
665.57	57017.50
665.76	57058.46
665.95	57121.94
666.14	57089.18
666.34	56845.47
666.53	56890.52
666.72	57214.10
666.91	56976.54
667.11	56747.17
667.30	56831.13
667.49	56673.44
667.68	57384.08
667.87	56769.69
668.07	57195.67
668.26	56693.92
668.45	56853.66
668.64	56874.14
668.84	57754.77
669.03	56960.15
669.22	57250.97
669.41	57187.48
669.60	57562.26
669.80	56745.12
669.99	57336.98
670.18	56927.39
670.37	56898.72
670.57	57001.11
670.76	57224.34
670.95	57035.93
671.14	56822.94
671.33	56849.56
671.53	57705.62
671.72	57320.60
671.91	56671.39
672.10	56933.53
672.29	57072.79
672.48	57121.94
672.68	57332.89
672.87	56853.66
673.06	56855.71
673.25	56802.46
673.44	56702.11
673.64	56493.22
673.83	56865.95
674.02	56601.76
674.21	56374.44
674.40	56888.48
674.59	56513.70
674.79	56423.59
674.98	56968.35
675.17	57013.40
675.36	56550.56
675.55	56710.30
675.74	56458.40
675.94	56507.55
676.13	56702.11
676.32	56966.30
676.51	57388.18
676.70	56781.98
676.89	56685.73
677.08	56552.61
677.28	56233.13
677.47	56763.55
677.66	56753.31
677.85	56804.51
678.04	56820.89
678.23	56759.45
678.42	56755.36
678.62	56839.32
678.81	57113.75
679.00	56366.24
679.19	57154.71
679.38	56632.48
679.57	56720.54
679.76	56837.28
679.96	56849.56
680.15	56700.06
680.34	56399.01
680.53	56538.27
680.72	56872.09
680.91	56931.48
681.10	56683.68
681.29	56659.10
681.48	56505.51
681.68	56589.47
681.87	56345.76
682.06	56628.38
682.25	56464.55
682.44	56872.09
682.63	56415.40
682.82	56284.33
683.01	56374.44
683.20	56059.05
683.39	56179.88
683.59	55878.83
683.78	56325.28
683.97	55993.51
684.16	56116.39
684.35	55649.45
684.54	55952.55
684.73	56245.41
684.92	55960.75
685.11	55878.83
685.30	55989.42
685.49	56417.44
685.69	55989.42
685.88	56296.61
686.07	55542.96
686.26	55942.31
686.45	56347.81
686.64	56163.50
686.83	56161.45
687.02	55913.64
687.21	56089.77
687.40	56026.28
687.59	55837.87
687.78	56165.54
687.97	56202.41
688.16	56032.42
688.35	55837.87
688.54	55745.71
688.74	55944.36
688.93	56018.09
689.12	55764.14
689.31	56034.47
689.50	55923.88
689.69	55323.83
689.88	55170.23
690.07	55864.49
690.26	55776.43
690.45	56370.34
690.64	55915.69
690.83	55893.16
691.02	55540.91
691.21	55436.47
691.40	55393.46
691.59	55446.71
691.78	55620.78
691.97	55585.97
692.16	55614.64
692.35	55286.96
692.54	55229.62
692.73	55692.46
692.92	55375.03
693.11	55760.05
693.30	55225.53
693.49	55129.27
693.68	55229.62
693.87	55178.42
694.06	54717.63
694.25	55237.81
694.44	55188.66
694.63	54957.24
694.82	55172.28
695.01	55024.82
695.20	54860.99
695.39	55116.98
695.58	54990.01
695.77	54762.68
695.96	54805.69
696.15	54996.15
696.34	54691.01
696.53	55084.22
696.72	55289.01
696.91	54922.43
697.10	55002.30
697.29	54602.94
697.48	54822.08
697.67	54437.06
697.86	54254.79
698.05	54115.53
698.24	54820.03
698.43	54131.91
698.62	55100.60
698.81	54232.26
699.00	54981.82
699.19	54246.60
699.38	54547.65
699.57	54547.65
699.76	54836.41
699.95	54510.78
700.14	54254.79
700.32	53902.54
700.51	54226.12
700.70	54707.39
700.89	54461.63
701.08	54924.47
701.27	53843.15
701.46	54334.66
701.65	53925.07
701.84	54408.39
702.03	54041.80
702.22	54199.49
702.41	54359.23
702.60	54279.36
702.79	53914.83
702.98	53757.13
703.17	54027.46
703.35	53775.56
703.54	53695.69
703.73	54338.75
703.92	53865.67
704.11	54004.94
704.30	53480.66
704.49	53640.40
704.68	53755.08
704.87	53712.08
705.06	53853.39
705.25	53378.26
705.43	53140.69
705.62	53933.26
705.81	53894.35
706.00	53877.96
706.19	53605.58
706.38	52944.09
706.57	53294.29
706.76	53161.17
706.95	53634.25
707.14	53304.53
707.32	53181.65
707.51	53275.86
707.70	53482.70
707.89	53247.19
708.08	53216.47
708.27	53578.96
708.46	53568.72
708.65	53228.76
708.84	53511.38
709.02	53390.55
709.21	53331.15
709.40	52925.66
709.59	52788.44
709.78	52868.31
709.97	53302.48
710.16	52688.09
710.34	52649.18
710.53	53089.49
710.72	52419.81
710.91	52821.21
711.10	53118.17
711.29	53052.63
711.48	52434.14
711.66	52690.14
711.85	52350.18
712.04	52722.91
712.23	52632.80
712.42	52712.67
712.61	52593.89
712.80	52657.37
712.98	52597.98
713.17	52288.74
713.36	52413.66
713.55	52913.37
713.74	52442.34
713.93	52665.56
714.11	52012.26
714.30	52075.75
714.49	52094.18
714.68	52274.40
714.87	52221.16
715.06	52049.13
715.24	52178.15
715.43	51762.41
715.62	51778.79
715.81	52069.61
716.00	52036.84
716.18	51682.54
716.37	51586.28
716.56	51526.89
716.75	51885.29
716.94	51657.96
717.12	51371.25
717.31	51922.15
717.50	51221.75
717.69	51442.93
717.88	51281.14
718.06	51719.40
718.25	51571.95
718.44	51172.60
718.63	51115.25
718.82	51080.44
719.00	51549.42
719.19	50881.78
719.38	51102.96
719.57	51127.54
719.76	50496.77
719.94	50599.16
720.13	51033.33
720.32	50300.16
720.51	50449.66
720.69	50711.80
720.88	50670.84
721.07	50904.31
721.26	50312.45
721.44	50787.58
721.63	50078.98
721.82	50322.69
722.01	50181.38
722.20	50846.97
722.38	50410.75
722.57	49556.75
722.76	50304.26
722.95	49960.20
723.13	49861.90
723.32	49718.54
723.51	49474.83
723.70	49693.96
723.88	49591.56
724.07	49698.06
724.26	49505.55
724.44	49337.62
724.63	49603.85
724.82	49691.91
725.01	49386.77
725.19	49409.29
725.38	49542.41
725.57	49315.09
725.76	49640.71
725.94	49239.31
726.13	49126.67
726.32	49345.81
726.51	49003.80
726.69	49360.14
726.88	49458.45
727.07	48950.55
727.25	48909.59
727.44	48954.64
727.63	48510.24
727.82	49014.04
728.00	49222.93
728.19	48682.27
728.38	49302.80
728.56	48481.56
728.75	48622.87
728.94	48870.68
729.12	49118.48
729.31	48811.29
729.50	48821.53
729.69	49110.29
729.87	49057.04
730.06	49108.24
730.25	48909.59
730.43	49155.35
730.62	48606.49
730.81	48887.06
730.99	49159.44
731.18	48790.81
731.37	48776.47
731.55	49055.00
731.74	49147.15
731.93	49108.24
732.11	48995.60
732.30	48784.66
732.49	48903.45
732.67	48928.02
732.86	48483.61
733.05	49175.83
733.23	48348.45
733.42	48674.07
733.61	48848.15
733.79	48674.07
733.98	49011.99
734.17	48782.62
734.35	48465.18
734.54	48641.31
734.73	49079.57
734.91	48784.66
735.10	48493.85
735.29	48635.16
735.47	47762.73
735.66	48850.20
735.84	48508.19
736.03	48340.25
736.22	48657.69
736.40	48135.46
736.59	48751.90
736.78	48262.43
736.96	47971.62
737.15	48385.31
737.33	47973.67
737.52	48076.07
737.71	47985.96
737.89	47736.10
738.08	47666.47
738.27	48456.99
738.45	48639.26
738.64	48266.53
738.82	47871.27
739.01	47453.48
739.20	47768.87
739.38	48493.85
739.57	47965.48
739.75	47961.38
739.94	47445.29
740.13	47779.11
740.31	47316.27
740.50	47840.55
740.68	48129.31
740.87	47631.66
741.06	48180.51
741.24	47455.53
741.43	47711.53
741.61	47787.30
741.80	47207.73
741.99	47670.57
742.17	47346.99
742.36	47705.38
742.54	47125.81
742.73	47469.87
742.91	47271.21
743.10	47439.15
743.29	47404.33
743.47	47588.65
743.66	47195.44
743.84	47439.15
744.03	47617.32
744.21	46740.79
744.40	47508.78
744.59	47240.50
744.77	47029.55
744.96	47291.69
745.14	47346.99
745.33	47342.89
745.51	47349.04
745.70	47015.22
745.88	47193.39
746.07	47095.09
746.26	46921.01
746.44	46996.79
746.63	47134.00
746.81	47521.07
747.00	46605.62
747.18	47197.49
747.37	46896.44
747.55	46726.46
747.74	46828.85
747.92	46409.02
748.11	46968.12
748.29	46814.52
748.48	46986.55
748.66	46335.29
748.85	46210.37
749.03	46894.39
749.22	46452.03
749.41	46142.78
749.59	46667.06
749.78	46343.48
749.96	46157.12
750.15	46214.46
750.33	46581.05
750.52	46198.08
750.70	46290.24
750.89	46132.54
751.07	45821.25
751.26	46114.11
751.44	45894.98
751.63	45960.51
751.81	45731.14
752.00	45919.56
752.18	45997.38
752.37	46089.54
752.55	45765.96
752.74	45907.27
752.92	45675.85
753.10	45364.56
753.29	45684.04
753.47	45213.01
753.66	45083.98
753.84	45296.97
754.03	45026.64
754.21	45311.31
754.40	45602.12
754.58	45425.99
754.77	45512.01
754.95	45147.47
755.14	45247.82
755.32	44930.39
755.51	45063.50
755.69	45219.15
755.88	45008.21
756.06	45108.56
756.24	45227.34
756.43	44997.97
756.61	44877.14
756.80	44887.38
756.98	45057.36
757.17	44963.15
757.35	44860.76
757.54	44938.58
757.72	45098.32
757.90	44658.01
758.09	44518.74
758.27	44504.41
758.46	44123.49
758.64	44795.22
758.83	44680.53
759.01	44764.50
759.19	44703.06
759.38	44692.82
759.56	45213.01
759.75	44885.33
759.93	44528.98
760.12	44361.05
760.30	44389.72
760.48	44211.55
760.67	43969.89
760.85	44602.71
761.04	44234.08
761.22	44184.93
761.40	44178.78
761.59	44170.59
761.77	44068.19
761.96	43849.06
762.14	43847.01
762.32	44029.28
762.51	43867.49
762.69	43885.92
762.88	43734.37
763.06	44029.28
763.24	43922.79
763.43	43834.72
763.61	43359.59
763.80	43713.89
763.98	43339.11
764.16	43556.20
764.35	43251.05
764.53	43130.22
764.72	43337.07
764.90	43279.72
765.08	43677.03
765.27	43255.15
765.45	43052.40
765.63	42759.54
765.82	43357.55
766.00	43165.04
766.18	43009.39
766.37	43015.54
766.55	43388.27
766.74	42909.04
766.92	42796.40
767.10	43099.50
767.29	43201.90
767.47	42403.19
767.65	42839.41
767.84	42364.28
768.02	42667.38
768.20	42694.00
768.39	42857.84
768.57	42407.29
768.75	42386.81
768.94	42530.17
769.12	42382.71
769.30	42194.30
769.49	42513.78
769.67	42030.46
769.85	41510.28
770.04	42120.57
770.22	41854.34
770.40	41780.61
770.59	41786.75
770.77	41358.73
770.95	42124.67
771.14	41796.99
771.32	41473.42
771.50	41424.26
771.69	41504.13
771.87	41903.49
772.05	41680.26
772.24	41602.44
772.42	41612.68
772.60	41287.05
772.78	41426.31
772.97	41340.30
773.15	41381.26
773.33	41254.28
773.52	41305.48
773.70	41276.81
773.88	41622.92
774.07	41155.98
774.25	40916.37
774.43	41090.44
774.61	41371.02
774.80	41563.53
774.98	41319.82
775.16	41434.50
775.34	41424.26
775.53	41368.97
775.71	41530.76
775.89	41287.05
776.08	41598.34
776.26	41241.99
776.44	40934.80
776.62	41557.38
776.81	41155.98
776.99	41827.71
777.17	41338.25
777.35	41620.87
777.54	41547.14
777.72	41528.71
777.90	41219.47
778.08	41782.66
778.27	41356.68
778.45	41895.30
778.63	42071.42
778.81	41553.29
779.00	41829.76
779.18	41749.89
779.36	42001.79
779.54	41590.15
779.73	41366.92
779.91	41737.60
780.09	42024.32
780.27	42116.48
780.46	41887.10
780.64	42409.34
780.82	41768.32
781.00	42030.46
781.19	42030.46
781.37	42255.74
781.55	42204.54
781.73	42612.09
781.91	42096.00
782.10	41872.77
782.28	42040.70
782.46	42102.14
782.64	42308.99
782.82	41928.06
783.01	41932.16
783.19	42462.58
783.37	42063.23
783.55	42399.10
783.74	42022.27
783.92	42069.37
784.10	42798.45
784.28	42427.77
784.46	42009.98
784.64	42128.77
784.83	42030.46
785.01	42519.93
785.19	42431.86
785.37	42288.51
785.55	42055.04
785.74	41749.89
785.92	41981.31
786.10	42190.20
786.28	41946.50
786.46	42169.72
786.64	41600.39
786.83	42044.80
787.01	41989.50
787.19	42063.23
787.37	42012.03
787.55	42063.23
787.74	41817.47
787.92	41786.75
788.10	41608.58
788.28	41483.66
788.46	41776.51
788.64	41530.76
788.82	41772.42
789.01	41391.50
789.19	41874.82
789.37	41006.48
789.55	41518.47
789.73	40861.07
789.91	41033.10
790.09	40983.95
790.28	41190.80
790.46	40662.42
790.64	40869.26
790.82	41074.06
791.00	40752.53
791.18	40703.38
791.36	40838.54
791.55	40746.39
791.73	40510.87
791.91	40301.98
792.09	40310.17
792.27	40211.87
792.45	40613.27
792.63	40162.72
792.81	40162.72
793.00	39951.77
793.18	40121.76
793.36	39673.25
793.54	39538.08
793.72	39837.09
793.90	39685.54
794.08	39589.28
794.26	39804.32
794.44	38882.73
794.62	39368.10
794.81	39404.97
794.99	39497.13
795.17	39022.00
795.35	39372.20
795.53	39286.18
795.71	38880.69
795.89	38837.68
796.07	38671.79
796.25	38510.00
796.43	38526.39
796.61	38073.79
796.80	38079.93
796.98	38135.23
797.16	38362.55
797.34	38346.17
797.52	38346.17
797.70	38315.45
797.88	37848.51
798.06	37402.05
798.24	37903.81
798.42	37791.17
798.60	37514.69
798.78	37684.67
798.96	37737.92
799.14	36963.79
799.32	37285.32
799.51	37109.19
799.69	37103.05
799.87	37062.09
800.05	36580.82
800.23	36783.57
800.41	36664.78
800.59	36967.88
800.77	36871.63
800.95	36462.04
801.13	36455.89
801.31	36300.25
801.49	36840.91
801.67	36189.66
801.85	36431.32
802.03	36005.34
802.21	35825.12
802.39	35866.08
802.57	36160.98
802.75	35837.41
802.93	35997.15
803.11	35470.82
803.29	35509.73
803.47	35309.03
803.65	35337.70
803.83	35677.66
804.01	35286.50
804.19	34842.09
804.37	34940.39
804.55	35091.94
804.73	34881.00
804.91	35014.12
805.09	34999.79
805.27	34506.23
805.45	34455.03
805.63	34881.00
805.81	34627.06
805.99	34897.39
806.17	34854.38
806.35	34725.36
806.53	34317.81
806.71	34682.35
806.89	34213.37
807.07	34444.79
807.25	34434.55
807.43	33811.96
807.61	34307.57
807.79	34047.48
807.97	33938.94
808.15	33672.70
808.33	33701.37
808.51	33682.94
808.69	33953.27
808.87	33224.20
809.05	33248.77
809.23	33461.76
809.41	33129.99
809.59	32972.30
809.77	33359.36
809.95	33177.09
810.13	33345.03
810.31	33003.02
810.49	32876.04
810.67	32734.73
810.84	33193.48
811.02	32822.80
811.20	32638.48
811.38	32744.97
811.56	32171.54
811.74	32579.09
811.92	32419.35
812.10	32462.35
812.28	32362.00
812.46	32259.60
812.64	32275.99
812.82	32058.90
813.00	31970.84
813.18	32159.25
813.36	32312.85
813.53	32048.66
813.71	31665.69
813.89	31432.22
814.07	31804.95
814.25	31899.16
814.43	31389.22
814.61	31776.28
814.79	31430.18
814.97	31512.10
815.15	31669.79
815.33	31209.00
815.50	30895.66
815.68	31174.18
815.86	31475.23
816.04	30996.01
816.22	31055.40
816.40	30891.56
816.58	31045.16
816.76	31071.78
816.94	30938.66
817.11	30922.28
817.29	30787.11
817.47	30492.21
817.65	30299.70
817.83	30838.31
818.01	30305.84
818.19	30385.71
818.37	30350.90
818.54	30158.39
818.72	30170.68
818.90	30170.68
819.08	30430.77
819.26	30043.70
819.44	30074.42
819.62	30166.58
819.80	30135.86
819.97	29943.35
820.15	29851.19
820.33	29759.03
820.51	30119.48
820.69	29505.09
820.87	29824.57
821.05	29716.03
821.22	29312.58
821.40	29345.34
821.58	29423.17
821.76	29302.34
821.94	29437.50
822.12	29208.13
822.29	29339.20
822.47	29394.50
822.65	29652.54
822.83	29173.31
823.01	29406.78
823.19	28821.06
823.36	29199.94
823.54	28968.52
823.72	28999.24
823.90	28929.61
824.08	28673.61
824.25	28569.16
824.43	28716.62
824.61	28710.47
824.79	28943.94
824.97	28401.23
825.15	28999.24
825.32	28771.91
825.50	28067.41
825.68	28739.15
825.86	28849.74
826.04	28888.65
826.21	28511.82
826.39	28444.24
826.57	28145.23
826.75	28286.54
826.93	28212.82
827.10	28120.66
827.28	28102.23
827.46	28112.47
827.64	28180.05
827.81	28098.13
827.99	28051.03
828.17	27879.00
828.35	27631.19
828.53	27919.96
828.70	27842.14
828.88	27801.18
829.06	27590.24
829.24	28010.07
829.41	27846.23
829.59	27997.78
829.77	27719.26
829.95	27416.16
830.12	27461.21
830.30	27471.45
830.48	27616.86
830.66	27043.43
830.84	27420.25
831.01	27604.57
831.19	27342.43
831.37	27061.86
831.55	27477.60
831.72	27205.22
831.90	27350.62
832.08	27414.11
832.25	26852.97
832.43	27199.07
832.61	26875.49
832.79	26863.21
832.96	27074.15
833.14	26883.69
833.32	26912.36
833.50	26914.41
833.67	26926.69
833.85	26812.01
834.03	26734.18
834.20	26846.82
834.38	26689.13
834.56	26658.41
834.74	26732.14
834.91	26623.59
835.09	26758.76
835.27	26197.62
835.44	26590.83
835.62	26044.02
835.80	26127.99
835.98	26359.41
836.15	26025.59
836.33	25966.20
836.51	26404.46
836.68	26244.72
836.86	26306.16
837.04	26214.00
837.21	26062.45
837.39	26068.59
837.57	26394.22
837.75	26596.97
837.92	25638.52
838.10	25835.13
838.28	25755.26
838.45	25824.89
838.63	25874.04
838.81	25650.81
838.98	25595.51
839.16	25478.78
839.34	25577.08
839.51	25497.21
839.69	25398.91
839.87	25476.73
840.04	25316.99
840.22	25632.38
840.40	25239.17
840.57	25083.52
840.75	25513.59
840.93	25118.34
841.10	25241.21
841.28	25482.88
841.46	25251.45
841.63	25613.95
841.81	25372.28
841.98	25114.24
842.16	25296.51
842.34	25052.80
842.51	25038.47
842.69	25190.02
842.87	25042.56
843.04	25247.36
843.22	24714.89
843.40	24749.70
843.57	24800.90
843.75	24913.54
843.92	25187.97
844.10	24784.52
844.28	24526.47
844.45	24790.66
844.63	24647.30
844.81	24673.93
844.98	24639.11
845.16	24741.51
845.33	24663.69
845.51	24440.46
845.69	24282.77
845.86	24137.36
846.04	24170.13
846.21	24206.99
846.39	24510.09
846.57	24202.89
846.74	24110.74
846.92	24151.70
847.09	23922.32
847.27	24145.55
847.45	24131.22
847.62	24340.11
847.80	24247.95
847.97	24135.31
848.15	23930.51
848.32	23731.86
848.50	24090.26
848.68	23891.60
848.85	23805.59
849.03	23643.80
849.20	24213.13
849.38	23850.64
849.56	23529.11
849.73	23627.42
849.91	23950.99
850.08	24022.67
850.26	23549.59
850.43	23740.05
850.61	23627.42
850.78	23604.89
850.96	23588.50
851.14	23457.43
851.31	23402.14
851.49	23215.77
851.66	23643.80
851.84	23383.71
852.01	23309.98
852.19	23281.31
852.36	23318.17
852.54	23475.87
852.71	23230.11
852.89	23047.84
853.07	23273.12
853.24	23455.39
853.42	22986.40
853.59	23125.66
853.77	23408.28
853.94	23107.23
854.12	23361.18
854.29	22849.19
854.47	23121.57
854.64	22836.90
854.82	22820.52
854.99	23201.44
855.17	22814.37
855.34	22671.01
855.52	22707.88
855.69	22841.00
855.87	22904.48
856.04	22599.34
856.22	22582.95
856.39	22439.59
856.57	22697.64
856.74	22773.41
856.92	22574.76
857.09	22714.02
857.27	22390.44
857.44	22517.42
857.62	22599.34
857.79	22453.93
857.97	22410.92
858.14	22179.50
858.32	22128.30
858.49	22060.72
858.67	22159.02
858.84	22202.03
859.02	22484.65
859.19	22222.51
859.37	21868.21
859.54	22122.16
859.72	22064.82
859.89	21980.85
860.06	22247.08
860.24	21880.50
860.41	22367.91
860.59	21767.86
860.76	21857.97
860.94	21853.87
861.11	22021.81
861.29	22046.38
861.46	21954.22
861.64	21526.20
861.81	21870.26
861.98	21573.30
862.16	21315.26
862.33	21259.96
862.51	21380.79
862.68	21356.22
862.86	21309.11
863.03	21532.34
863.21	21274.30
863.38	21440.18
863.55	21235.39
863.73	21407.42
863.90	21305.02
864.08	21431.99
864.25	21114.56
864.43	21167.80
864.60	21128.89
864.77	21083.84
864.95	21270.20
865.12	20760.26
865.30	21075.65
865.47	20932.29
865.64	20958.91
865.82	20954.82
865.99	21063.36
866.17	20864.71
866.34	21229.24
866.51	20760.26
866.69	20879.04
866.86	21061.31
867.04	20739.78
867.21	20774.60
867.38	20295.37
867.56	20700.87
867.73	20723.40
867.91	20545.22
868.08	20395.72
868.25	20776.64
868.43	20487.88
868.60	20440.78
868.78	20418.25
868.95	20438.73
869.12	20313.80
869.30	20475.59
869.47	20293.32
869.64	20168.40
869.82	20395.72
869.99	20123.34
870.16	20481.74
870.34	20188.88
870.51	20405.96
870.69	20096.72
870.86	19756.75
871.03	19893.97
871.21	19988.18
871.38	19840.72
871.55	19779.28
871.73	19920.59
871.90	19834.58
872.07	19803.86
872.25	19400.41
872.42	19666.64
872.59	19693.27
872.77	19705.56
872.94	19476.18
873.11	19644.12
873.29	19490.52
873.46	19414.74
873.63	19584.73
873.81	19506.90
873.98	19209.95
874.15	19281.63
874.33	19390.17
874.50	19451.61
874.67	19019.49
874.85	19087.07
875.02	19044.06
875.19	18935.52
875.37	18869.98
875.54	18949.85
875.71	18761.44
875.88	18747.11
876.06	18902.75
876.23	18929.38
876.40	18831.07
876.58	18802.40
876.75	18540.26
876.92	18609.89
877.10	18634.47
877.27	18411.24
877.44	18288.36
877.61	18439.91
877.79	18429.67
877.96	18456.29
878.13	18558.69
878.31	18362.09
878.48	18018.03
878.65	18261.74
878.82	18140.91
879.00	17936.11
879.17	18097.90
879.34	18159.34
879.51	18145.00
879.69	17925.87
879.86	17753.84
880.03	18091.76
880.21	17815.28
880.38	18022.12
880.55	18083.56
880.72	18003.69
880.90	17766.13
881.07	17882.86
881.24	17925.87
881.41	17649.39
881.59	17565.43
881.76	17757.94
881.93	17618.68
882.10	17305.34
882.28	17755.89
882.45	17575.67
882.62	17538.80
882.79	17807.09
882.96	17286.90
883.14	17225.47
883.31	17585.91
883.48	17471.22
883.65	17561.33
883.83	17452.79
884.00	17491.70
884.17	17200.89
884.34	17499.89
884.51	17225.47
884.69	17018.62
884.86	17288.95
885.03	17067.77
885.20	17080.06
885.38	17344.25
885.55	17250.04
885.72	17190.65
885.89	16922.37
886.06	17086.20
886.24	17178.36
886.41	17061.63
886.58	17190.65
886.75	17090.30
886.92	16946.94
887.10	17030.91
887.27	16963.33
887.44	16987.90
887.61	17049.34
887.78	16994.04
887.95	16942.85
888.13	16768.77
888.30	16781.06
888.47	16733.95
888.64	16895.74
888.81	16758.53
888.99	16611.07
889.16	16424.71
889.33	16545.54
889.50	16510.72
889.67	16459.52
889.84	16383.75
890.01	16377.61
890.19	16418.57
890.36	16244.49
890.53	16293.64
890.70	16228.10
890.87	16076.55
891.04	16289.54
891.22	16502.53
891.39	16232.20
891.56	16019.21
891.73	16207.62
891.90	16152.33
892.07	16051.98
892.24	16107.27
892.42	16066.31
892.59	16103.18
892.76	15802.13
892.93	15824.65
893.10	16332.55
893.27	15963.92
893.44	15828.75
893.61	15791.89
893.79	15884.05
893.96	15838.99
894.13	15990.54
894.30	15838.99
894.47	15890.19
894.64	15865.61
894.81	15824.65
894.98	15556.37
895.15	15953.68
895.33	15576.85
895.50	15617.81
895.67	15718.16
895.84	15873.81
896.01	15609.62
896.18	15619.86
896.35	15828.75
896.52	15714.06
896.69	15449.88
896.86	15757.07
897.04	15746.83
897.21	15798.03
897.38	15785.74
897.55	15456.02
897.72	15761.17
897.89	15658.77
898.06	15591.19
898.23	15634.19
898.40	15644.43
898.57	15935.24
898.74	15621.91
898.91	15851.28
899.08	15576.85
899.26	15464.21
899.43	15453.97
899.60	15480.60
899.77	15640.34
899.94	15494.93
900.11	15519.51
900.28	15341.33
900.45	15507.22
900.62	15499.03
900.79	15808.27
900.96	15607.57
901.13	15441.68
901.30	15476.50
901.47	15374.10
901.64	15728.40
901.81	15705.87
901.98	15310.61
902.15	15683.34
902.32	15320.85
902.49	15593.23
902.66	15726.35
902.83	15449.88
903.01	15324.95
903.18	15415.06
903.35	15505.17
903.52	15472.40
903.69	15496.98
903.86	15413.01
904.03	15396.63
904.20	15566.61
904.37	15562.51
904.54	15576.85
904.71	15382.29
904.88	15425.30
905.05	15286.04
905.22	15656.72
905.39	15329.05
905.56	15482.64
905.73	15310.61
905.90	15417.11
906.07	15488.79
906.24	15697.68
906.41	15388.44
906.58	15480.60
906.75	15660.82
906.92	15349.53
907.09	15376.15
907.26	15546.13
907.43	15191.83
907.60	15341.33
907.77	15550.23
907.93	15245.08
908.10	15443.73
908.27	15640.34
908.44	15179.54
908.61	15191.83
908.78	15345.43
908.95	15482.64
909.12	15255.32
909.29	15036.19
909.46	15152.92
909.63	15322.90
909.80	15468.31
909.97	15304.47
910.14	15501.08
910.31	15245.08
910.48	15402.77
910.65	15286.04
910.82	15243.03
910.99	15417.11
911.16	15216.41
911.33	15052.57
911.50	15144.73
911.66	15066.91
911.83	15200.02
912.00	15101.72
912.17	15081.24
912.34	14962.46
912.51	14835.49
912.68	14827.29
912.85	14788.38
913.02	15048.47
913.19	14905.12
913.36	14851.87
913.53	15079.19
913.70	14747.42
913.86	14817.05
914.03	14610.21
914.20	14683.94
914.37	14618.40
914.54	14722.85
914.71	14866.21
914.88	14649.12
915.05	14569.25
915.22	14540.58
915.39	14597.92
915.55	14419.75
915.72	14468.90
915.89	14350.12
916.06	14440.23
916.23	14270.25
916.40	14329.64
916.57	14272.29
916.74	13987.63
916.91	14372.64
917.07	14212.90
917.24	14188.33
917.41	14067.50
917.58	14151.46
917.75	13952.81
917.92	14094.12
918.09	13852.46
918.26	13942.57
918.42	13901.61
918.59	13856.56
918.76	13764.40
918.93	13782.83
919.10	13672.24
919.27	13653.81
919.44	13782.83
919.60	13598.51
919.77	13518.64
919.94	13561.65
920.11	13514.55
920.28	13635.38
920.45	13420.34
920.61	13381.43
920.78	13281.08
920.95	13668.14
921.12	13059.90
921.29	13193.01
921.46	12924.73
921.62	13115.19
921.79	13061.94
921.96	12916.54
922.13	12980.03
922.30	12851.00
922.47	12699.45
922.63	12824.38
922.80	12781.37
922.97	12873.53
923.14	12500.80
923.31	12652.35
923.47	12650.30
923.64	12771.13
923.81	12635.97
923.98	12412.74
924.15	12265.28
924.32	12351.30
924.48	12416.83
924.65	12693.31
924.82	12308.29
924.99	12164.93
925.15	11990.86
925.32	12101.45
925.49	12097.35
925.66	11992.90
925.83	11956.04
925.99	11892.55
926.16	12005.19
926.33	11980.62
926.50	11743.05
926.67	11640.65
926.83	11601.74
927.00	11763.53
927.17	11503.44
927.34	11405.14
927.50	11472.72
927.67	11736.91
927.84	11525.97
928.01	11515.73
928.17	11194.20
928.34	11360.08
928.51	11153.24
928.68	11241.30
928.84	11190.10
929.01	11136.85
929.18	11038.55
929.35	10747.74
929.51	10970.97
929.68	10962.78
929.85	10774.36
930.02	10837.85
930.18	10786.65
930.35	10880.86
930.52	10506.08
930.69	10837.85
930.85	10440.54
931.02	10667.87
931.19	10569.57
931.36	10473.31
931.52	10473.31
931.69	10344.29
931.86	10319.71
932.02	10254.18
932.19	10217.32
932.36	10254.18
932.53	9949.03
932.69	9889.64
932.86	10168.16
933.03	10002.28
933.19	9824.11
933.36	9953.13
933.53	9910.12
933.70	9680.75
933.86	9711.47
934.03	9637.74
934.20	9666.41
934.36	9895.78
934.53	9439.09
934.70	9439.09
934.86	9537.39
935.03	9308.02
935.20	9267.06
935.36	9211.76
935.53	9297.78
935.70	9156.47
935.86	9111.41
936.03	8777.59
936.20	8681.34
936.36	8769.40
936.53	8695.68
936.70	8626.04
936.86	8861.56
937.03	8402.82
937.20	8241.03
937.36	8429.44
937.53	8234.88
937.70	8202.11
937.86	7972.74
938.03	7954.31
938.20	7950.21
938.36	7911.30
938.53	7716.75
938.70	7653.26
938.86	7640.97
939.03	7632.78
939.20	7499.66
939.36	7274.38
939.53	7243.67
939.70	7501.71
939.86	7137.17
940.03	7024.53
940.19	6913.94
940.36	7022.48
940.53	6920.09
940.69	6823.83
940.86	6651.80
941.03	6565.79
941.19	6514.59
941.36	6588.32
941.52	6512.54
941.69	6363.04
941.86	6277.02
942.02	6244.26
942.19	6211.49
942.35	6334.37
942.52	6256.54
942.69	6041.51
942.85	5961.64
943.02	5932.97
943.18	5967.78
943.35	5937.06
943.52	5828.52
943.68	5769.13
943.85	5869.48
944.01	5640.11
944.18	5754.79
944.35	5803.94
944.51	5705.64
944.68	5648.30
944.84	5560.24
945.01	5580.71
945.17	5695.40
945.34	5427.12
945.51	5605.29
945.67	5472.17
945.84	5550.00
946.00	5343.15
946.17	5384.11
946.33	5418.93
946.50	5478.32
946.67	5437.36
946.83	5443.50
947.00	5433.26
947.16	5478.32
947.33	5418.93
947.49	5466.03
947.66	5240.75
947.82	5386.16
947.99	5347.25
948.16	5386.16
948.32	5337.01
948.49	5515.18
948.65	5406.64
948.82	5506.99
948.98	5296.05
949.15	5326.77
949.31	5463.98
949.48	5414.83
949.64	5214.13
949.81	5271.47
949.97	5261.23
950.14	5457.84
950.30	5414.83
950.47	5423.02
950.63	5433.26
950.80	5273.52
950.96	5326.77
951.13	5359.53
951.30	5480.36
951.46	5386.16
951.63	5480.36
951.79	5377.97
951.96	5459.88
952.12	5486.51
952.29	5398.45
952.45	5279.66
952.62	5382.06
952.78	5451.69
952.94	5482.41
953.11	5349.29
953.27	5285.81
953.44	5521.32
953.60	5623.72
953.77	5550.00
953.93	5396.40
954.10	5457.84
954.26	5416.88
954.43	5490.60
954.59	5545.90
954.76	5691.31
954.92	5455.79
955.09	5435.31
955.25	5384.11
955.42	5423.02
955.58	5603.24
955.75	5384.11
955.91	5494.70
956.07	5711.78
956.24	5486.51
956.40	5603.24
956.57	5605.29
956.73	5457.84
956.90	5490.60
957.06	5496.75
957.23	5386.16
957.39	5455.79
957.56	5773.22
957.72	5369.77
957.88	5388.21
958.05	5605.29
958.21	5672.87
958.38	5588.91
958.54	5521.32
958.71	5676.97
958.87	5482.41
959.03	5537.71
959.20	5541.80
959.36	5541.80
959.53	5457.84
959.69	5377.97
959.85	5480.36
960.02	5398.45
960.18	5572.52
960.35	5541.80
960.51	5541.80
960.68	5468.08
960.84	5607.34
961.00	5384.11
961.17	5492.65
961.33	5621.67
961.50	5494.70
961.66	5431.21
961.82	5482.41
961.99	5517.23
962.15	5472.17
962.31	5556.14
962.48	5539.76
962.64	5550.00
962.81	5506.99
962.97	5470.12
963.13	5367.73
963.30	5433.26
963.46	5328.81
963.62	5435.31
963.79	5480.36
963.95	5502.89
964.12	5496.75
964.28	5533.61
964.44	5443.50
964.61	5484.46
964.77	5564.33
964.93	5463.98
965.10	5386.16
965.26	5402.54
965.42	5382.06
965.59	5337.01
965.75	5519.28
965.92	5384.11
966.08	5488.56
966.24	5427.12
966.41	5267.38
966.57	5345.20
966.73	5384.11
966.90	5412.78
967.06	5429.17
967.22	5205.94
967.39	5345.20
967.55	5255.09
967.71	5267.38
967.88	5314.48
968.04	5203.89
968.20	5191.60
968.37	5187.50
968.53	5296.05
968.69	5154.74
968.85	5294.00
969.02	5304.24
969.18	5212.08
969.34	5341.10
969.51	5175.22
969.67	5281.71
969.83	5140.40
970.00	5138.35
970.16	5130.16
970.32	5255.09
970.48	5244.85
970.65	5132.21
970.81	5062.58
970.97	5105.59
971.14	4939.70
971.30	5203.89
971.46	5033.91
971.63	5054.39
971.79	5234.61
971.95	5152.69
972.11	4870.07
972.28	4939.70
972.44	5021.62
972.60	4960.18
972.76	5005.24
972.93	4927.41
973.09	5068.72
973.25	5062.58
973.42	4949.94
973.58	5074.87
973.74	5046.20
973.90	4964.28
974.07	4865.97
974.23	4954.04
974.39	4939.70
974.55	4884.41
974.72	4898.74
974.88	4868.02
975.04	4935.60
975.20	4874.17
975.37	4884.41
975.53	4800.44
975.69	4851.64
975.85	4825.01
976.01	4790.20
976.18	4736.95
976.34	4757.43
976.50	4765.62
976.66	4814.77
976.83	4773.82
976.99	4749.24
977.15	4655.03
977.31	4628.41
977.47	4667.32
977.64	4693.94
977.80	4736.95
977.96	4751.29
978.12	4558.78
978.29	4550.59
978.45	4593.59
978.61	4640.70
978.77	4710.33
978.93	4575.16
979.10	4427.71
979.26	4517.82
979.42	4569.02
979.58	4468.67
979.74	4421.56
979.91	4601.79
980.07	4573.11
980.23	4528.06
980.39	4546.49
980.55	4538.30
980.71	4433.85
980.88	4435.90
981.04	4417.47
981.20	4511.68
981.36	4415.42
981.52	4454.33
981.68	4351.93
981.85	4614.07
982.01	4374.46
982.17	4345.79
982.33	4364.22
982.49	4407.23
982.65	4540.35
982.82	4415.42
982.98	4431.80
983.14	4329.41
983.30	4470.72
983.46	4437.95
983.62	4251.58
983.79	4190.14
983.95	4267.97
984.11	4190.14
984.27	4220.86
984.43	4339.65
984.59	4298.69
984.75	4270.01
984.91	4212.67
985.08	4243.39
985.24	4143.04
985.40	4198.34
985.56	4157.38
985.72	4270.01
985.88	4169.66
986.04	4198.34
986.20	4104.13
986.37	4120.51
986.53	4100.03
986.69	4091.84
986.85	4020.16
987.01	4052.93
987.17	4104.13
987.33	4042.69
987.49	3977.16
987.65	4149.18
987.82	4009.92
987.98	3983.30
988.14	4040.64
988.30	3966.92
988.46	3999.68
988.62	3997.64
988.78	3915.72
988.94	3966.92
989.10	3932.10
989.26	4016.07
989.42	3794.89
989.59	3778.50
989.75	3782.60
989.91	3971.01
990.07	3723.21
990.23	3813.32
990.39	3719.11
990.55	3981.25
990.71	3723.21
990.87	3925.96
991.03	3928.00
991.19	3672.01
991.35	3788.74
991.51	3966.92
991.67	3813.32
991.83	3735.50
992.00	3807.17
992.16	3772.36
992.32	3850.18
992.48	3682.25
992.64	3602.38
992.80	3655.62
992.96	3798.98
993.12	3655.62
993.28	3641.29
993.44	3719.11
993.60	3731.40
993.76	3545.03
993.92	3635.14
994.08	3669.96
994.24	3762.12
994.40	3692.49
994.56	3608.52
994.72	3672.01
994.88	3573.71
995.04	3604.42
995.20	3512.27
995.36	3647.43
995.52	3502.03
995.68	3532.75
995.84	3477.45
996.00	3641.29
996.16	3397.58
996.32	3456.97
996.48	3557.32
996.64	3626.95
996.80	3469.26
996.96	3432.40
997.12	3551.18
997.28	3418.06
997.44	3438.54
997.60	3401.68
997.76	3407.82
997.92	3389.39
998.08	3426.25
998.24	3469.26
998.40	3483.59
998.56	3477.45
998.72	3350.48
998.88	3360.72
999.04	3366.86
999.20	3440.59
999.36	3375.05
999.52	3409.87
999.68	3303.37
999.84	3426.25
1000.00	3268.56
1000.16	3395.53
1000.32	3235.79
1000.48	3346.38
1000.64	3227.60
1000.80	3170.26
1000.95	3176.40
1001.11	3325.90
1001.27	3182.54
1001.43	3266.51
1001.59	3196.88
1001.75	3119.06
1001.91	3243.98
1002.07	3133.39
1002.23	3055.57
1002.39	3121.10
1002.55	3139.54
1002.71	3176.40
1002.87	3174.35
1003.03	3026.90
1003.19	3071.95
1003.34	3223.50
1003.50	3104.72
1003.66	3239.89
1003.82	2998.23
1003.98	3137.49
1004.14	3166.16
1004.30	2973.65
1004.46	3053.52
1004.62	3071.95
1004.78	3045.33
1004.94	3051.47
1005.09	3090.38
1005.25	3069.91
1005.41	3053.52
1005.57	3043.28
1005.73	3061.71
1005.89	2932.69
1006.05	3010.51
1006.21	3010.51
1006.37	2965.46
1006.52	2992.08
1006.68	2906.07
1006.84	3094.48
1007.00	2967.51
1007.16	2930.64
1007.32	2961.36
1007.48	2891.73
1007.64	2977.75
1007.79	2912.21
1007.95	2891.73
1008.11	2930.64
1008.27	2985.94
1008.43	2942.93
1008.59	2826.20
1008.75	2992.08
1008.91	2854.87
1009.06	2725.85
1009.22	2908.12
1009.38	2867.16
1009.54	2801.62
1009.70	2777.05
1009.86	2867.16
1010.01	2846.68
1010.17	2877.40
1010.33	2832.34
1010.49	2842.58
1010.65	2795.48
1010.81	2811.86
1010.96	2723.80
1011.12	2750.42
1011.28	2752.47
1011.44	2727.89
1011.60	2697.17
1011.76	2727.89
1011.91	2713.56
1012.07	2535.39
1012.23	2697.17
1012.39	2613.21
1012.55	2650.07
1012.71	2662.36
1012.86	2654.17
1013.02	2625.50
1013.18	2607.06
1013.34	2605.02
1013.50	2727.89
1013.65	2674.65
1013.81	2619.35
1013.97	2598.87
1014.13	2611.16
1014.29	2643.93
1014.44	2688.98
1014.60	2568.15
1014.76	2600.92
1014.92	2584.54
1015.07	2568.15
1015.23	2662.36
1015.39	2566.10
1015.55	2609.11
1015.71	2602.97
1015.86	2602.97
1016.02	2506.71
1016.18	2443.23
1016.34	2609.11
1016.49	2541.53
1016.65	2559.96
1016.81	2531.29
1016.97	2443.23
1017.12	2627.54
1017.28	2416.60
1017.44	2447.32
1017.60	2475.99
1017.75	2418.65
1017.91	2492.38
1018.07	2469.85
1018.23	2480.09
1018.38	2451.42
1018.54	2412.51
1018.70	2514.91
1018.86	2496.47
1019.01	2324.44
1019.17	2451.42
1019.33	2510.81
1019.49	2396.12
1019.64	2430.94
1019.80	2473.95
1019.96	2420.70
1020.12	2465.75
1020.27	2389.98
1020.43	2322.40
1020.59	2410.46
1020.74	2424.80
1020.90	2492.38
1021.06	2342.88
1021.22	2289.63
1021.37	2316.25
1021.53	2322.40
1021.69	2351.07
1021.84	2291.68
1022.00	2295.77
1022.16	2394.08
1022.31	2301.92
1022.47	2402.27
1022.63	2404.32
1022.79	2312.16
1022.94	2306.01
1023.10	2394.08
1023.26	2279.39
1023.41	2269.15
1023.57	2303.96
1023.73	2271.20
1023.88	2273.25
1024.04	2222.05
1024.20	2222.05
1024.35	2277.34
1024.51	2340.83
1024.67	2324.44
1024.82	2293.72
1024.98	2166.75
1025.14	2224.09
1025.29	2236.38
1025.45	2244.57
1025.61	2183.13
1025.76	2213.85
1025.92	2217.95
1026.08	2252.77
1026.23	2308.06
1026.39	2209.76
1026.55	2127.84
1026.70	2209.76
1026.86	2121.70
1027.02	2203.61
1027.17	2174.94
1027.33	2271.20
1027.48	2166.75
1027.64	2179.04
1027.80	2234.33
1027.95	2228.19
1028.11	2123.74
1028.27	2162.66
1028.42	2133.98
1028.58	2181.09
1028.73	2142.18
1028.89	2080.74
1029.05	2215.90
1029.20	2197.47
>>>>>End Processed Spectral Data<<<<<
