SpectraSuite Data File
++++++++++++++++++++++++++++++++++++
Date: Fri Jun 02 14:47:59 CEST 2017
User: INFO_000
Dark Spectrum Present: No
Reference Spectrum Present: No
Number of Sampled Component Spectra: 1
Spectrometers: USB4H00879
Integration Time (usec): 80000 (USB4H00879)
Spectra Averaged: 1 (USB4H00879)
Boxcar Smoothing: 0 (USB4H00879)
Correct for Electrical Dark: No (USB4H00879)
Strobe/Lamp Enabled: No (USB4H00879)
Correct for Detector Non-linearity: No (USB4H00879)
Correct for Stray Light: No (USB4H00879)
Number of Pixels in Processed Spectrum: 3648
>>>>>Begin Processed Spectral Data<<<<<
345.13	1253.36
345.34	1253.36
345.56	1253.36
345.78	1263.60
345.99	1316.84
346.21	1740.77
346.42	1691.62
346.64	1662.95
346.86	1810.40
347.07	1621.99
347.29	1832.93
347.50	1599.46
347.72	1685.48
347.94	1736.68
348.15	1548.26
348.37	1652.71
348.59	1673.19
348.80	1658.85
349.02	1753.06
349.23	1918.95
349.45	1808.36
349.67	1898.47
349.88	1765.35
350.10	2043.87
350.31	1849.32
350.53	1830.88
350.75	1972.19
350.96	1701.86
351.18	1777.64
351.39	1787.88
351.61	1794.02
351.82	1902.56
352.04	1890.28
352.26	1847.27
352.47	1875.94
352.69	1941.47
352.90	1753.06
353.12	1896.42
353.34	1867.75
353.55	1894.37
353.77	1916.90
353.98	1777.64
354.20	1890.28
354.41	1869.80
354.63	1898.47
354.85	2025.44
355.06	1945.57
355.28	1763.30
355.49	1943.52
355.71	1855.46
355.92	1845.22
356.14	1941.47
356.35	1882.08
356.57	1853.41
356.79	1945.57
357.00	1886.18
357.22	1976.29
357.43	1824.74
357.65	2000.87
357.86	1804.26
358.08	1892.32
358.29	1871.84
358.51	1972.19
358.72	1957.86
358.94	1871.84
359.16	1886.18
359.37	2000.87
359.59	1937.38
359.80	1949.67
360.02	2019.30
360.23	1974.24
360.45	2039.78
360.66	1886.18
360.88	1875.94
361.09	1882.08
361.31	1986.53
361.52	1918.95
361.74	2072.54
361.95	2056.16
362.17	1957.86
362.38	2090.98
362.60	2037.73
362.81	1992.67
363.03	1925.09
363.24	2023.39
363.46	2088.93
363.67	2058.21
363.89	1998.82
364.10	1978.34
364.32	1890.28
364.53	2056.16
364.75	1937.38
364.96	2023.39
365.18	1990.63
365.39	2041.82
365.61	1939.43
365.82	2086.88
366.04	2097.12
366.25	1882.08
366.47	1959.91
366.68	1982.43
366.90	2037.73
367.11	2152.42
367.33	2138.08
367.54	2056.16
367.76	1968.10
367.97	2070.50
368.19	2039.78
368.40	2066.40
368.62	1943.52
368.83	1982.43
369.05	2056.16
369.26	2004.96
369.48	1955.81
369.69	1988.58
369.91	2062.30
370.12	2088.93
370.33	2086.88
370.55	1929.19
370.76	2007.01
370.98	2119.65
371.19	2125.79
371.41	2011.11
371.62	2033.63
371.84	2047.97
372.05	2156.51
372.27	2074.59
372.48	2090.98
372.69	2093.02
372.91	2203.61
373.12	2119.65
373.34	2039.78
373.55	2133.98
373.77	2176.99
373.98	2050.02
374.20	2125.79
374.41	2205.66
374.62	2076.64
374.84	2263.01
375.05	2154.46
375.27	2271.20
375.48	2148.32
375.70	2242.53
375.91	2168.80
376.12	2299.87
376.34	2154.46
376.55	2152.42
376.77	2191.33
376.98	2174.94
377.19	2129.89
377.41	2170.85
377.62	2179.04
377.84	2158.56
378.05	2207.71
378.27	2189.28
378.48	2301.92
378.69	2396.12
378.91	2285.53
379.12	2291.68
379.34	2201.57
379.55	2269.15
379.76	2269.15
379.98	2289.63
380.19	2152.42
380.41	2349.02
380.62	2334.68
380.83	2195.42
381.05	2197.47
381.26	2400.22
381.47	2258.91
381.69	2179.04
381.90	2357.21
382.12	2224.09
382.33	2193.37
382.54	2254.81
382.76	2232.29
382.97	2357.21
383.19	2263.01
383.40	2246.62
383.61	2316.25
383.83	2254.81
384.04	2303.96
384.25	2334.68
384.47	2410.46
384.68	2342.88
384.89	2281.44
385.11	2285.53
385.32	2320.35
385.54	2332.64
385.75	2344.92
385.96	2451.42
386.18	2355.16
386.39	2402.27
386.60	2301.92
386.82	2439.13
387.03	2371.55
387.24	2482.14
387.46	2392.03
387.67	2463.71
387.88	2494.43
388.10	2498.52
388.31	2502.62
388.52	2602.97
388.74	2461.66
388.95	2375.64
389.16	2551.77
389.38	2502.62
389.59	2643.93
389.80	2611.16
390.02	2504.67
390.23	2578.39
390.44	2504.67
390.66	2527.19
390.87	2568.15
391.08	2535.39
391.30	2564.06
391.51	2607.06
391.72	2572.25
391.94	2650.07
392.15	2572.25
392.36	2602.97
392.58	2539.48
392.79	2572.25
393.00	2664.41
393.22	2566.10
393.43	2803.67
393.64	2713.56
393.85	2734.04
394.07	2566.10
394.28	2654.17
394.49	2764.76
394.71	2772.95
394.92	2871.25
395.13	2793.43
395.35	2738.13
395.56	2693.08
395.77	2684.89
395.98	2820.05
396.20	2815.96
396.41	2731.99
396.62	2809.81
396.84	2674.65
397.05	2787.29
397.26	2953.17
397.47	2969.55
397.69	2719.70
397.90	2998.23
398.11	2869.20
398.32	2877.40
398.54	2875.35
398.75	2871.25
398.96	2938.84
399.18	3047.38
399.39	2887.64
399.60	3047.38
399.81	2889.68
400.03	2904.02
400.24	3076.05
400.45	2936.79
400.66	3082.19
400.88	3002.32
401.09	3141.58
401.30	3082.19
401.51	3243.98
401.73	3117.01
401.94	3098.58
402.15	3071.95
402.36	3088.34
402.58	3127.25
402.79	3127.25
403.00	3223.50
403.21	3119.06
403.43	3133.39
403.64	3332.05
403.85	3024.85
404.06	3221.45
404.27	3102.67
404.49	3180.50
404.70	3104.72
404.91	3295.18
405.12	3135.44
405.34	3229.65
405.55	3510.22
405.76	3237.84
405.97	3141.58
406.19	3354.57
406.40	3227.60
406.61	3225.55
406.82	3356.62
407.03	3342.28
407.25	3325.90
407.46	3334.09
407.67	3479.50
407.88	3424.20
408.09	3227.60
408.31	3411.92
408.52	3399.63
408.73	3381.20
408.94	3395.53
409.15	3368.91
409.37	3461.07
409.58	3520.46
409.79	3545.03
410.00	3610.57
410.21	3330.00
410.43	3598.28
410.64	3397.58
410.85	3510.22
411.06	3385.29
411.27	3524.55
411.48	3547.08
411.70	3499.98
411.91	3526.60
412.12	3649.48
412.33	3422.16
412.54	3635.14
412.76	3688.39
412.97	3602.38
413.18	3448.78
413.39	3569.61
413.60	3645.38
413.81	3719.11
414.03	3620.81
414.24	3704.78
414.45	3825.61
414.66	3590.09
414.87	3678.15
415.08	3588.04
415.30	3608.52
415.51	3743.69
415.72	3610.57
415.93	3731.40
416.14	3659.72
416.35	3848.13
416.56	3835.85
416.78	3839.94
416.99	3760.07
417.20	3776.45
417.41	3930.05
417.62	3891.14
417.83	3866.56
418.04	3823.56
418.26	3821.51
418.47	4040.64
418.68	3985.35
418.89	3862.47
419.10	3936.20
419.31	3934.15
419.52	4018.11
419.73	3923.91
419.95	3960.77
420.16	4007.87
420.37	3897.28
420.58	3989.44
420.79	3819.46
421.00	4065.22
421.21	4081.60
421.42	4085.70
421.63	4042.69
421.85	4016.07
422.06	4243.39
422.27	4085.70
422.48	4124.61
422.69	4212.67
422.90	4014.02
423.11	4218.82
423.32	4270.01
423.53	4427.71
423.75	4349.89
423.96	4376.51
424.17	4358.08
424.38	4421.56
424.59	4403.13
424.80	4476.86
425.01	4423.61
425.22	4405.18
425.43	4454.33
425.64	4542.39
425.85	4689.85
426.06	4464.57
426.28	4489.15
426.49	4464.57
426.70	4497.34
426.91	4558.78
427.12	4655.03
427.33	4743.10
427.54	4616.12
427.75	4763.58
427.96	4775.86
428.17	4802.49
428.38	4741.05
428.59	4892.60
428.80	4745.14
429.01	4855.73
429.23	4698.04
429.44	5025.72
429.65	4949.94
429.86	5089.20
430.07	4861.88
430.28	4931.51
430.49	4949.94
430.70	5152.69
430.91	4988.85
431.12	4999.09
431.33	5121.97
431.54	5101.49
431.75	5212.08
431.96	4968.37
432.17	5124.02
432.38	5119.92
432.59	5349.29
432.80	5306.29
433.01	5339.05
433.22	5183.41
433.43	5480.36
433.64	5294.00
433.85	5181.36
434.06	5287.86
434.27	5171.12
434.49	5418.93
434.70	5353.39
434.91	5486.51
435.12	5410.73
435.33	5451.69
435.54	5468.08
435.75	5437.36
435.96	5449.64
436.17	5294.00
436.38	5564.33
436.59	5570.48
436.80	5597.10
437.01	5795.75
437.22	5722.02
437.43	5734.31
437.64	5539.76
437.85	5668.78
438.06	5693.35
438.27	5582.76
438.48	5705.64
438.69	5922.73
438.90	5793.70
439.11	5547.95
439.32	5988.26
439.53	5861.29
439.74	5816.23
439.95	5842.85
440.16	5756.84
440.37	5959.59
440.57	5885.86
440.78	5975.97
440.99	5955.49
441.20	5973.92
441.41	5660.59
441.62	5951.40
441.83	5951.40
442.04	6053.80
442.25	6055.84
442.46	5953.45
442.67	6279.07
442.88	6401.95
443.09	6033.32
443.30	6029.22
443.51	6115.23
443.72	6348.70
443.93	5990.31
444.14	6389.66
444.35	6137.76
444.56	6332.32
444.77	6256.54
444.98	6176.67
445.19	6356.90
445.40	6418.33
445.61	6221.73
445.81	6449.05
446.02	6524.83
446.23	6401.95
446.44	6234.02
446.65	6553.50
446.86	6406.05
447.07	6406.05
447.28	6500.25
447.49	6539.16
447.70	6352.80
447.91	6629.27
448.12	6543.26
448.33	6752.15
448.54	6854.55
448.74	6561.69
448.95	6633.37
449.16	6565.79
449.37	6918.04
449.58	6733.72
449.79	6852.50
450.00	6621.08
450.21	6780.82
450.42	7071.64
450.63	6872.98
450.84	6918.04
451.05	7077.78
451.25	6799.26
451.46	6883.22
451.67	7073.68
451.88	7151.51
452.09	7139.22
452.30	7100.31
452.51	7081.88
452.72	7417.74
452.93	7389.07
453.13	6971.29
453.34	7188.37
453.55	7208.85
453.76	7268.24
453.97	7530.38
454.18	7214.99
454.39	7358.35
454.60	7503.76
454.81	7165.84
455.01	7720.84
455.22	7149.46
455.43	7356.30
455.64	7665.55
455.85	7686.03
456.06	7616.40
456.27	7726.99
456.48	7587.72
456.68	7702.41
456.89	7653.26
457.10	7843.72
457.31	7858.06
457.52	7899.02
457.73	7946.12
457.94	8173.44
458.14	7643.02
458.35	8263.55
458.56	8081.28
458.77	8030.09
458.98	8460.16
459.19	8161.16
459.39	8200.07
459.60	8408.96
459.81	8193.92
460.02	8423.30
460.23	8507.26
460.44	8474.49
460.65	8525.69
460.85	8681.34
461.06	8603.52
461.27	8492.93
461.48	8920.95
461.69	8976.25
461.89	8361.86
462.10	8753.02
462.31	8671.10
462.52	8861.56
462.73	8914.81
462.94	8941.43
463.14	8939.38
463.35	8900.47
463.56	9475.95
463.77	9471.86
463.98	9242.48
464.18	9277.30
464.39	9291.63
464.60	9498.48
464.81	9547.63
465.02	9512.81
465.23	9807.72
465.43	9543.53
465.64	9799.53
465.85	9660.27
466.06	9594.73
466.27	10043.24
466.47	9936.74
466.68	10057.57
466.89	9951.08
467.10	10026.86
467.30	9901.93
467.51	10168.16
467.72	10448.74
467.93	10164.07
468.14	10508.13
468.34	10610.53
468.55	10323.81
468.76	10598.24
468.97	10450.78
469.17	10641.25
469.38	10665.82
469.59	10829.66
469.80	10694.49
470.01	10643.29
470.21	10856.28
470.42	11018.07
470.63	11028.31
470.84	11214.68
471.04	11202.39
471.25	11149.14
471.46	11196.25
471.67	11517.78
471.87	11319.12
472.08	11685.71
472.29	11657.04
472.50	11442.00
472.70	11603.79
472.91	11794.25
473.12	11978.57
473.33	12005.19
473.53	12146.50
473.74	11857.74
473.95	11976.52
474.16	12443.46
474.36	12341.06
474.57	12597.06
474.78	12678.97
474.99	12511.04
475.19	12474.18
475.40	12687.17
475.61	12906.30
475.81	13000.51
476.02	13074.23
476.23	13068.09
476.44	13391.67
476.64	13532.98
476.85	13303.60
477.06	13528.88
477.27	13608.75
477.47	13786.93
477.68	13801.26
477.89	13786.93
478.09	13934.38
478.30	13862.70
478.51	14044.97
478.71	14163.75
478.92	14270.25
479.13	14487.33
479.34	14583.59
479.54	14645.02
479.75	14679.84
479.96	14819.10
480.16	14571.30
480.37	14653.22
480.58	14849.82
480.78	15101.72
480.99	14941.98
481.20	15320.85
481.41	15431.44
481.61	15425.30
481.82	15523.60
482.03	15263.51
482.23	15562.51
482.44	15828.75
482.65	15908.62
482.85	15959.82
483.06	15867.66
483.27	15879.95
483.47	16154.38
483.68	16178.95
483.89	16314.12
484.09	16527.11
484.30	16416.52
484.51	16563.97
484.71	16723.71
484.92	16619.27
485.13	17002.24
485.33	17118.97
485.54	16996.09
485.75	17157.88
485.95	17196.79
486.16	17264.38
486.37	17239.80
486.57	17223.42
486.78	17336.06
486.98	17438.45
487.19	17575.67
487.40	17895.15
487.60	17792.75
487.81	18075.37
488.02	17919.73
488.22	17874.67
488.43	18235.11
488.64	18413.29
488.84	18409.19
489.05	18368.23
489.25	18417.38
489.46	18661.09
489.67	18597.60
489.87	18814.69
490.08	18937.57
490.29	18747.11
490.49	19427.03
490.70	19214.04
490.90	19326.68
491.11	19138.27
491.32	19580.63
491.52	19355.35
491.73	19513.05
491.94	19648.21
492.14	19181.28
492.35	19771.09
492.55	19965.65
492.76	20094.67
492.97	20053.71
493.17	20115.15
493.38	20268.75
493.58	20287.18
493.79	20365.00
494.00	20295.37
494.20	20424.39
494.41	20379.34
494.61	20928.19
494.82	20788.93
495.02	20528.84
495.23	21069.50
495.44	21051.07
495.64	21106.37
495.85	21356.22
496.05	21411.51
496.26	20838.08
496.47	21475.00
496.67	21388.99
496.88	21761.72
497.08	21491.38
497.29	21778.10
497.49	21712.56
497.70	21991.09
497.91	21991.09
498.11	22146.73
498.32	21972.66
498.52	22566.57
498.73	22392.49
498.93	22671.01
499.14	22341.29
499.34	22357.67
499.55	22636.20
499.76	22666.92
499.96	22781.60
500.17	22716.07
500.37	23191.20
500.58	22896.29
500.78	23076.51
500.99	22699.69
501.19	23172.77
501.40	23447.19
501.60	23330.46
501.81	23535.26
502.02	23600.79
502.22	23277.21
502.43	23490.20
502.63	23881.36
502.84	24032.91
503.04	23699.09
503.25	24004.24
503.45	23766.68
503.66	24301.20
503.86	24358.54
504.07	24503.95
504.27	24075.92
504.48	24448.65
504.68	24293.01
504.89	24835.72
505.09	24669.83
505.30	24721.03
505.50	24598.15
505.71	24764.04
505.91	24905.35
506.12	25079.43
506.32	24987.27
506.53	24895.11
506.73	25251.45
506.94	24993.41
507.14	25190.02
507.35	25439.87
507.55	25183.87
507.76	25108.10
507.96	25265.79
508.17	25452.16
508.37	25593.47
508.58	25671.29
508.78	25605.75
508.99	25923.19
509.19	25874.04
509.40	25851.51
509.60	25708.15
509.81	26400.37
510.01	26048.11
510.22	25837.17
510.42	26277.49
510.63	26353.26
510.83	26259.06
511.04	25996.92
511.24	26707.56
511.44	26584.68
511.65	26435.18
511.85	26777.19
512.06	26586.73
512.26	26797.67
512.47	26936.93
512.67	27004.52
512.88	27260.51
513.08	26445.42
513.29	27090.53
513.49	27225.70
513.69	27053.67
513.90	26924.65
514.10	27283.04
514.31	27354.72
514.51	27692.63
514.72	26986.08
514.92	27293.28
515.13	27352.67
515.33	27575.90
515.53	27635.29
515.74	27430.49
515.94	27743.83
516.15	28044.88
516.35	28016.21
516.56	28063.32
516.76	27737.69
516.96	28118.61
517.17	28044.88
517.37	27969.11
517.58	28720.71
517.78	28317.26
517.99	28067.41
518.19	28425.81
518.39	28804.68
518.60	28653.13
518.80	28538.44
519.01	28972.61
519.21	28808.78
519.41	28868.17
519.62	28792.39
519.82	29130.31
520.03	29075.01
520.23	28952.13
520.43	28927.56
520.64	28954.18
520.84	29242.95
521.05	29347.39
521.25	29460.03
521.45	29550.14
521.66	29505.09
521.86	29752.89
522.07	29851.19
522.27	29832.76
522.47	29720.12
522.68	30481.97
522.88	29728.31
523.08	30006.84
523.29	29963.83
523.49	30303.79
523.70	30092.85
523.90	30125.62
524.10	30410.29
524.31	30936.62
524.51	30516.78
524.71	31002.15
524.92	30748.20
525.12	31055.40
525.33	30619.18
525.53	30795.31
525.73	31067.69
525.94	30991.91
526.14	30979.62
526.34	31481.38
526.55	31116.84
526.75	31559.20
526.95	31430.18
527.16	31415.84
527.36	31628.83
527.56	31675.93
527.77	31798.81
527.97	32138.77
528.17	31997.46
528.38	32081.43
528.58	31968.79
528.78	32212.50
528.99	32273.94
529.19	32511.50
529.39	31995.42
529.60	32783.88
529.80	32572.94
530.00	32759.31
530.21	32966.15
530.41	33035.78
530.61	32781.84
530.82	32792.08
531.02	32583.18
531.22	33166.85
531.43	33146.37
531.63	33060.36
531.83	33674.75
532.04	33740.29
532.24	33641.98
532.44	33512.96
532.64	33590.78
532.85	33977.85
533.05	33943.03
533.25	33605.12
533.46	33834.49
533.66	34475.51
533.86	33877.50
534.07	34651.63
534.27	33828.35
534.47	34612.72
534.67	34911.72
534.88	34500.08
535.08	34495.99
535.28	34485.75
535.49	34784.75
535.69	35247.59
535.89	34983.40
536.09	35071.46
536.30	35530.21
536.50	35261.93
536.70	35343.84
536.91	35630.56
537.11	35433.96
537.31	35706.34
537.51	35704.29
537.72	35999.19
537.92	36029.91
538.12	36128.22
538.32	35743.20
538.53	36142.55
538.73	36177.37
538.93	36025.82
539.13	36019.67
539.34	36138.46
539.54	36629.97
539.74	36969.93
539.94	36230.62
540.15	36543.95
540.35	36832.72
540.55	36824.53
540.75	36849.10
540.96	36953.55
541.16	37094.86
541.36	37139.91
541.56	36816.33
541.77	37248.46
541.97	37082.57
542.17	37479.88
542.37	37389.77
542.58	37481.92
542.78	37410.25
542.98	37346.76
543.18	37512.64
543.38	37828.03
543.59	37961.15
543.79	37576.13
543.99	37641.67
544.19	38010.30
544.40	37889.47
544.60	38065.60
544.80	38069.69
545.00	38542.77
545.20	38057.40
545.41	38151.61
545.61	38460.85
545.81	38679.99
546.01	38526.39
546.21	38639.03
546.42	38438.33
546.62	38499.76
546.82	38542.77
547.02	38872.49
547.22	38622.64
547.43	38983.09
547.63	38888.88
547.83	39075.24
548.03	39151.02
548.23	39275.94
548.44	39503.27
548.64	39433.64
548.84	39474.60
549.04	39609.76
549.24	39728.55
549.45	39564.71
549.65	38948.27
549.85	39892.38
550.05	39947.68
550.25	39409.06
550.45	40207.77
550.66	40156.57
550.86	39620.00
551.06	40342.94
551.26	39998.88
551.46	40213.91
551.66	40185.24
551.87	40140.19
552.07	40363.42
552.27	40547.73
552.47	40838.54
552.67	40410.52
552.87	40175.00
553.07	40605.08
553.28	40797.59
553.48	40738.19
553.68	40474.01
553.88	41276.81
554.08	40752.53
554.28	40883.60
554.48	40586.64
554.69	41035.15
554.89	40957.33
555.09	41436.55
555.29	41182.60
555.49	41495.94
555.69	41463.18
555.89	40975.76
556.10	41717.12
556.30	41203.08
556.50	41821.57
556.70	41227.66
556.90	41588.10
557.10	41731.46
557.30	41205.13
557.50	41790.85
557.70	41837.95
557.91	42075.52
558.11	41596.29
558.31	42110.33
558.51	41923.97
558.71	41692.55
558.91	41940.35
559.11	41983.36
559.31	42077.57
559.51	42132.86
559.72	41735.56
559.92	42126.72
560.12	42415.48
560.32	42564.98
560.52	42182.01
560.72	42382.71
560.92	42597.75
561.12	42460.54
561.32	42904.95
561.52	42085.76
561.72	42642.81
561.93	42366.33
562.13	43029.87
562.33	42405.24
562.53	43300.20
562.73	42616.18
562.93	43048.30
563.13	43097.45
563.33	43126.13
563.53	43265.39
563.73	43048.30
563.93	43201.90
564.13	43261.29
564.33	43230.57
564.53	43175.28
564.74	43472.23
564.94	43253.10
565.14	43472.23
565.34	43134.32
565.54	43851.11
565.74	43443.56
565.94	43844.96
566.14	43267.44
566.34	43414.89
566.54	44160.35
566.74	43365.74
566.94	43961.70
567.14	44060.00
567.34	43953.51
567.54	44084.58
567.74	44000.61
567.94	43611.49
568.14	44455.26
568.34	44569.94
568.54	44049.76
568.74	44322.14
568.94	44096.86
569.14	44897.62
569.34	44899.67
569.54	44449.11
569.75	44213.60
569.95	44248.41
570.15	45260.11
570.35	44356.96
570.55	45151.57
570.75	44965.20
570.95	44703.06
571.15	44666.20
571.35	44733.78
571.55	45151.57
571.75	45059.41
571.95	45509.96
572.15	45004.11
572.35	45036.88
572.55	45090.13
572.75	45131.09
572.95	45376.84
573.15	45667.66
573.35	45126.99
573.55	45516.11
573.75	45337.93
573.95	45882.69
574.15	45507.91
574.35	45888.84
574.55	45411.66
574.75	45194.57
574.95	45763.91
575.15	45843.78
575.34	45921.60
575.54	45854.02
575.74	46011.71
575.94	46230.85
576.14	45999.43
576.34	45985.09
576.54	46302.53
576.74	46247.23
576.94	46320.96
577.14	45901.12
577.34	46632.25
577.54	46593.34
577.74	46462.27
577.94	46693.69
578.14	46464.32
578.34	46867.76
578.54	46089.54
578.74	46142.78
578.94	46826.81
579.14	46490.94
579.34	46484.79
579.54	46585.15
579.74	47109.43
579.94	46544.19
580.13	47324.46
580.33	46906.68
580.53	47062.32
580.73	47193.39
580.93	46773.56
581.13	47236.40
581.33	47320.37
581.53	47377.71
581.73	47033.65
581.93	47744.30
582.13	47205.68
582.33	47185.20
582.53	47414.57
582.73	47635.75
582.92	47807.78
583.12	47893.80
583.32	47543.59
583.52	47693.10
583.72	47672.62
583.92	47707.43
584.12	47639.85
584.32	48297.25
584.52	47969.57
584.72	47746.34
584.92	48164.13
585.11	48469.28
585.31	48225.57
585.51	48459.04
585.71	48055.59
585.91	48753.94
586.11	48289.06
586.31	48241.95
586.51	48391.45
586.71	48600.35
586.91	48440.60
587.10	48719.13
587.30	48880.92
587.50	48125.22
587.70	48590.11
587.90	48833.81
588.10	48645.40
588.30	48905.49
588.50	48796.95
588.69	49409.29
588.89	49067.28
589.09	48895.25
589.29	49055.00
589.49	49564.94
589.69	48946.45
589.89	49091.86
590.08	49198.35
590.28	49110.29
590.48	49308.94
590.68	49343.76
590.88	49310.99
591.08	49583.37
591.28	48915.73
591.47	49610.00
591.67	49673.48
591.87	49259.79
592.07	49354.00
592.27	49208.59
592.47	49270.03
592.67	49249.55
592.86	49683.72
593.06	49435.92
593.26	49878.28
593.46	49886.47
593.66	49843.46
593.86	49880.33
594.05	50042.12
594.25	50201.86
594.45	50015.49
594.65	49818.89
594.85	49304.85
595.05	50324.74
595.24	50017.54
595.44	50072.84
595.64	50005.25
595.84	50074.88
596.04	50414.85
596.23	50525.44
596.43	50466.05
596.63	49847.56
596.83	50142.47
597.03	50918.65
597.22	50822.39
597.42	50556.16
597.62	50873.59
597.82	50672.89
598.02	50689.27
598.21	51092.72
598.41	50564.35
598.61	51031.29
598.81	50404.61
599.01	50881.78
599.20	50527.48
599.40	50394.37
599.60	50951.41
599.80	50914.55
600.00	50961.65
600.19	51530.99
600.39	50951.41
600.59	51322.10
600.79	51328.24
600.98	51379.44
601.18	51508.46
601.38	51975.40
601.58	51483.89
601.78	51490.03
601.97	51346.67
602.17	51592.43
602.37	51639.53
602.57	51498.22
602.76	51803.37
602.96	51434.74
603.16	51746.03
603.36	52004.07
603.55	52231.40
603.75	51754.22
603.95	51918.06
604.15	52012.26
604.34	52253.92
604.54	52188.39
604.74	52352.23
604.94	52303.07
605.13	52401.38
605.33	52466.91
605.53	51963.11
605.73	52712.67
605.92	52126.95
606.12	52520.16
606.32	52196.58
606.52	52102.37
606.71	52661.47
606.91	52911.32
607.11	52602.08
607.30	53130.45
607.50	52524.25
607.70	52557.02
607.90	52622.56
608.09	52731.10
608.29	52896.98
608.49	52847.83
608.68	52995.29
608.88	52954.33
609.08	53040.34
609.28	53026.01
609.47	52571.36
609.67	53470.42
609.87	52960.47
610.06	53150.93
610.26	53179.60
610.46	53302.48
610.66	52643.04
610.85	53648.59
611.05	52966.62
611.25	52948.18
611.44	53269.72
611.64	53368.02
611.84	52921.56
612.03	53517.52
612.23	53374.16
612.43	53265.62
612.62	53486.80
612.82	53945.54
613.02	53515.47
613.21	53576.91
613.41	53548.24
613.61	53726.41
613.80	53093.59
614.00	53396.69
614.20	53554.38
614.39	53804.24
614.59	53884.11
614.79	53777.61
614.98	53538.00
615.18	53406.93
615.38	53888.20
615.57	53249.24
615.77	53593.29
615.97	53507.28
616.16	53785.80
616.36	53785.80
616.56	54267.08
616.75	53718.22
616.95	53615.82
617.15	53341.39
617.34	53705.93
617.54	53892.30
617.74	54236.36
617.93	54176.97
618.13	53732.56
618.32	53720.27
618.52	53621.97
618.72	53716.17
618.91	53714.12
619.11	53710.03
619.31	54084.81
619.50	53927.11
619.70	53959.88
619.90	53912.78
620.09	54170.82
620.29	53890.25
620.48	53488.85
620.68	54490.30
620.88	53511.38
621.07	53910.73
621.27	54105.29
621.46	53732.56
621.66	54060.23
621.86	54078.66
622.05	53753.04
622.25	54443.20
622.44	53816.52
622.64	53867.72
622.84	54377.67
623.03	54056.14
623.23	54019.27
623.42	53619.92
623.62	53933.26
623.82	54285.51
624.01	54383.81
624.21	54125.77
624.40	54095.05
624.60	53980.36
624.80	53949.64
624.99	54166.73
625.19	53757.13
625.38	54375.62
625.58	53910.73
625.77	54105.29
625.97	54293.70
626.17	53968.07
626.36	54301.89
626.56	54181.06
626.75	54084.81
626.95	54564.03
627.14	53861.58
627.34	54572.22
627.54	54336.71
627.73	54394.05
627.93	54383.81
628.12	54408.39
628.32	54109.38
628.51	54488.26
628.71	54611.13
628.90	54133.96
629.10	54369.47
629.30	53918.92
629.49	54385.86
629.69	54631.61
629.88	54637.76
630.08	55069.88
630.27	54588.61
630.47	54639.81
630.66	54449.35
630.86	55057.59
631.05	53988.55
631.25	55188.66
631.44	54498.50
631.64	54506.69
631.84	54863.03
632.03	55104.70
632.23	54416.58
632.42	55211.19
632.62	54609.09
632.81	54336.71
633.01	54779.07
633.20	54783.16
633.40	55448.75
633.59	55037.11
633.79	54478.02
633.98	54469.82
634.18	54744.25
634.37	54881.47
634.57	54699.20
634.76	55252.15
634.96	54936.76
635.15	55153.85
635.35	54469.82
635.54	54584.51
635.74	55067.83
635.93	54916.28
636.13	55162.04
636.32	55137.46
636.52	54930.62
636.71	55157.94
636.91	54967.48
637.10	55153.85
637.30	54951.10
637.49	55286.96
637.69	55071.93
637.88	55465.14
638.08	54488.26
638.27	55467.19
638.46	54852.80
638.66	55039.16
638.85	54758.59
639.05	55561.39
639.24	55442.61
639.44	55526.58
639.63	55534.77
639.83	55739.57
640.02	55342.26
640.22	55389.36
640.41	55721.13
640.61	55033.02
640.80	54990.01
640.99	55389.36
641.19	55620.78
641.38	55694.51
641.58	55174.33
641.77	55866.54
641.97	55094.46
642.16	55393.46
642.36	55794.86
642.55	55665.84
642.74	55274.68
642.94	56038.57
643.13	55428.27
643.33	55895.21
643.52	55639.22
643.72	56110.25
643.91	55473.33
644.10	55383.22
644.30	55940.27
644.49	55821.48
644.69	56222.89
644.88	55645.36
645.08	55635.12
645.27	55997.61
645.46	55448.75
645.66	56042.66
645.85	55813.29
646.05	55764.14
646.24	55915.69
646.43	55950.51
646.63	56124.58
646.82	56112.30
647.02	56196.26
647.21	56208.55
647.40	56132.78
647.60	56349.86
647.79	56175.78
647.99	55835.82
648.18	55743.66
648.37	56384.68
648.57	56087.72
648.76	56362.15
648.96	56143.02
649.15	56542.37
649.34	56147.11
649.54	56325.28
649.73	55768.24
649.92	56513.70
650.12	56194.21
650.31	56198.31
650.51	56753.31
650.70	56249.51
650.89	56231.08
651.09	57339.03
651.28	56710.30
651.47	56571.04
651.67	56349.86
651.86	56945.82
652.06	56032.42
652.25	56366.24
652.44	56480.93
652.64	56401.06
652.83	56763.55
653.02	56251.56
653.22	56190.12
653.41	56069.29
653.60	56001.71
653.80	56282.28
653.99	56915.10
654.18	56259.75
654.38	56001.71
654.57	56542.37
654.76	56425.64
654.96	56450.21
655.15	56229.03
655.34	56515.75
655.54	56032.42
655.73	56511.65
655.92	56392.87
656.12	56712.35
656.31	56806.56
656.50	56378.53
656.70	56403.11
656.89	56036.52
657.08	56464.55
657.28	56112.30
657.47	56415.40
657.66	56585.38
657.86	56233.13
658.05	56386.72
658.24	56564.90
658.43	56644.77
658.63	56507.55
658.82	56743.07
659.01	56644.77
659.21	56442.02
659.40	56741.02
659.59	56435.87
659.79	56644.77
659.98	57351.32
660.17	56405.16
660.36	56581.28
660.56	56790.17
660.75	57085.08
660.94	56505.51
661.14	56450.21
661.33	56827.04
661.52	56276.13
661.71	57099.42
661.91	56347.81
662.10	56368.29
662.29	57107.61
662.49	56648.86
662.68	56401.06
662.87	56698.01
663.06	56411.30
663.26	56198.31
663.45	57099.42
663.64	56480.93
663.83	57148.57
664.03	56482.98
664.22	56493.22
664.41	56644.77
664.60	56163.50
664.80	56507.55
664.99	56308.90
665.18	56358.05
665.37	56681.63
665.57	56022.19
665.76	56427.68
665.95	56302.76
666.14	56263.85
666.34	55878.83
666.53	56353.96
666.72	56065.19
666.91	56226.98
667.11	56339.62
667.30	56292.52
667.49	56136.87
667.68	56702.11
667.87	55671.98
668.07	56593.57
668.26	56161.45
668.45	56546.47
668.64	55702.70
668.84	56906.91
669.03	56476.83
669.22	56089.77
669.41	56155.30
669.60	56308.90
669.80	55958.70
669.99	56384.68
670.18	56104.10
670.37	56276.13
670.57	56528.03
670.76	55620.78
670.95	56450.21
671.14	56214.69
671.33	55909.55
671.53	56298.66
671.72	56259.75
671.91	55878.83
672.10	55712.94
672.29	56511.65
672.48	55958.70
672.68	56380.58
672.87	56247.46
673.06	55774.38
673.25	56089.77
673.44	55770.28
673.64	55731.37
673.83	55790.76
674.02	55655.60
674.21	55641.26
674.40	56177.83
674.59	55338.16
674.79	56083.62
674.98	55252.15
675.17	55964.84
675.36	55581.87
675.55	56222.89
675.74	55731.37
675.94	55497.91
676.13	56173.73
676.32	55796.91
676.51	56116.39
676.70	55880.88
676.89	55770.28
677.08	55768.24
677.28	55493.81
677.47	55979.18
677.66	56390.82
677.85	55858.35
678.04	56001.71
678.23	55784.62
678.42	56052.90
678.62	55624.88
678.81	56274.09
679.00	55735.47
679.19	56013.99
679.38	55940.27
679.57	55565.49
679.76	55626.93
679.96	55635.12
680.15	55696.56
680.34	55227.57
680.53	55645.36
680.72	55671.98
680.91	55538.86
681.10	55186.61
681.29	55499.95
681.48	55358.64
681.68	55198.90
681.87	55932.07
682.06	55522.48
682.25	55123.13
682.44	55227.57
682.63	55329.97
682.82	54928.57
683.01	55086.26
683.20	55211.19
683.39	55149.75
683.59	55276.72
683.78	55078.07
683.97	54973.63
684.16	55071.93
684.35	55229.62
684.54	55041.21
684.73	54813.88
684.92	54918.33
685.11	54838.46
685.30	54903.99
685.49	54924.47
685.69	54772.92
685.88	55006.39
686.07	54826.17
686.26	54875.32
686.45	55002.30
686.64	54621.37
686.83	54903.99
687.02	54373.57
687.21	55149.75
687.40	54942.91
687.59	54795.45
687.78	54764.73
687.97	55295.16
688.16	54758.59
688.35	54721.72
688.54	54365.38
688.74	54785.21
688.93	54707.39
689.12	54279.36
689.31	54826.17
689.50	54447.30
689.69	54181.06
689.88	54187.21
690.07	54867.13
690.26	54707.39
690.45	54875.32
690.64	54615.23
690.83	54068.42
691.02	54355.14
691.21	54486.21
691.40	54584.51
691.59	54193.35
691.78	54441.15
691.97	54344.90
692.16	54111.43
692.35	54435.01
692.54	54093.00
692.73	54629.57
692.92	54342.85
693.11	54416.58
693.30	54600.89
693.49	54320.32
693.68	54097.09
693.87	54301.89
694.06	53976.26
694.25	53884.11
694.44	53572.81
694.63	54019.27
694.82	54189.25
695.01	53966.02
695.20	53396.69
695.39	53656.78
695.58	53777.61
695.77	53986.50
695.96	53552.33
696.15	53566.67
696.34	53742.80
696.53	53847.24
696.72	53830.86
696.91	53318.87
697.10	53963.98
697.29	53624.01
697.48	54187.21
697.67	53660.88
697.86	53202.13
698.05	53163.22
698.24	53886.15
698.43	53163.22
698.62	53583.05
698.81	52983.00
699.00	53419.22
699.19	53200.08
699.38	53472.46
699.57	53089.49
699.76	53798.09
699.95	52933.85
700.14	53109.97
700.32	52876.51
700.51	53275.86
700.70	53605.58
700.89	53519.57
701.08	53691.60
701.27	52995.29
701.46	53611.73
701.65	52864.22
701.84	53175.51
702.03	52917.46
702.22	52798.68
702.41	53152.98
702.60	52950.23
702.79	53007.58
702.98	52645.08
703.17	53253.33
703.35	52858.07
703.54	52651.23
703.73	53017.82
703.92	52909.27
704.11	52815.07
704.30	52737.24
704.49	52827.35
704.68	52569.31
704.87	52802.78
705.06	52415.71
705.25	52780.25
705.43	52892.89
705.62	52999.38
705.81	52761.82
706.00	52806.87
706.19	52092.13
706.38	52890.84
706.57	52815.07
706.76	52722.91
706.95	52612.32
707.14	52499.68
707.32	52251.87
707.51	52049.13
707.70	52198.63
707.89	52241.63
708.08	52352.23
708.27	52491.49
708.46	52591.84
708.65	52536.54
708.84	52561.12
709.02	52458.72
709.21	52432.10
709.40	52419.81
709.59	52583.65
709.78	51948.78
709.97	52444.38
710.16	51909.86
710.34	52075.75
710.53	51877.10
710.72	51610.86
710.91	52356.32
711.10	51743.98
711.29	52241.63
711.48	52036.84
711.66	51746.03
711.85	51901.67
712.04	51635.44
712.23	52106.47
712.42	51688.68
712.61	51856.62
712.80	51887.34
712.98	51989.73
713.17	51549.42
713.36	51733.74
713.55	51766.51
713.74	51854.57
713.93	51965.16
714.11	51772.65
714.30	51637.48
714.49	51211.51
714.68	51813.61
714.87	51512.56
715.06	51348.72
715.24	51170.55
715.43	51678.44
715.62	51092.72
715.81	51205.36
716.00	51516.65
716.18	51021.05
716.37	51346.67
716.56	50730.23
716.75	51516.65
716.94	51301.62
717.12	51033.33
717.31	51336.43
717.50	51100.92
717.69	51172.60
717.88	51119.35
718.06	50943.22
718.25	51328.24
718.44	50947.32
718.63	50873.59
718.82	50490.62
719.00	51027.19
719.19	50676.99
719.38	51262.71
719.57	50623.74
719.76	50539.77
719.94	50210.05
720.13	50781.43
720.32	50130.18
720.51	50629.88
720.69	50476.29
720.88	50199.81
721.07	50396.42
721.26	49839.37
721.44	49968.39
721.63	49749.26
721.82	49859.85
722.01	49921.29
722.20	50060.55
722.38	49915.14
722.57	49089.81
722.76	49943.81
722.95	49870.09
723.13	49700.11
723.32	49339.66
723.51	49126.67
723.70	49251.60
723.88	49614.09
724.07	49202.45
724.26	49648.91
724.44	49050.90
724.63	49321.23
724.82	49540.36
725.01	49284.37
725.19	49130.77
725.38	48749.85
725.57	49007.89
725.76	49376.53
725.94	49032.47
726.13	49110.29
726.32	49028.37
726.51	48979.22
726.69	49511.69
726.88	49255.70
727.07	48825.62
727.25	48825.62
727.44	49069.33
727.63	49057.04
727.82	49034.52
728.00	49335.57
728.19	49112.34
728.38	49253.65
728.56	48303.39
728.75	48973.08
728.94	48864.53
729.12	48788.76
729.31	48911.64
729.50	48946.45
729.69	49220.88
729.87	48200.99
730.06	48735.51
730.25	48534.81
730.43	48923.93
730.62	48747.80
730.81	48760.09
730.99	49110.29
731.18	48821.53
731.37	48766.23
731.55	49030.42
731.74	49034.52
731.93	48944.41
732.11	48543.00
732.30	48655.64
732.49	48649.50
732.67	48819.48
732.86	48413.98
733.05	48295.20
733.23	48258.34
733.42	48674.07
733.61	48768.28
733.79	48901.40
733.98	48997.65
734.17	48454.94
734.35	48690.46
734.54	48616.73
734.73	48616.73
734.91	48809.24
735.10	48401.69
735.29	48532.76
735.47	47412.52
735.66	48164.13
735.84	48751.90
736.03	47752.49
736.22	48141.60
736.40	47973.67
736.59	48135.46
736.78	48538.91
736.96	48258.34
737.15	48264.48
737.33	47871.27
737.52	48035.11
737.71	48102.69
737.89	47850.79
738.08	47961.38
738.27	47879.46
738.45	48471.32
738.64	48098.59
738.82	48047.39
739.01	47422.76
739.20	47842.60
739.38	48045.35
739.57	48221.47
739.75	47869.22
739.94	47605.03
740.13	47883.56
740.31	47660.33
740.50	47648.04
740.68	47820.07
740.87	47594.79
741.06	48080.16
741.24	47641.90
741.43	47441.20
741.61	48151.84
741.80	46966.07
741.99	46902.58
742.17	47748.39
742.36	47539.50
742.54	47525.16
742.73	47127.86
742.91	47754.54
743.10	47279.41
743.29	47523.11
743.47	47369.52
743.66	46978.36
743.84	47379.76
744.03	47146.29
744.21	46925.11
744.40	47525.16
744.59	47029.55
744.77	47213.87
744.96	47363.37
745.14	46742.84
745.33	46904.63
745.51	46609.72
745.70	46994.74
745.88	46884.15
746.07	46656.82
746.26	46708.02
746.44	46531.90
746.63	46826.81
746.81	46869.81
747.00	46265.66
747.18	46808.37
747.37	46314.81
747.55	46228.80
747.74	46665.02
747.92	46128.45
748.11	45923.65
748.29	45933.89
748.48	46478.65
748.66	46376.25
748.85	46267.71
749.03	46390.59
749.22	46589.24
749.41	46179.65
749.59	46036.29
749.78	45913.41
749.96	45526.35
750.15	46046.53
750.33	45589.83
750.52	45956.42
750.70	45989.19
750.89	45548.87
751.07	45722.95
751.26	46134.59
751.44	45307.21
751.63	45665.61
751.81	45389.13
752.00	45450.57
752.18	45493.58
752.37	45397.32
752.55	45192.53
752.74	45186.38
752.92	44971.35
753.10	44920.15
753.29	45321.55
753.47	45112.66
753.66	45184.33
753.84	45370.70
754.03	44934.48
754.21	45024.59
754.40	45135.18
754.58	45184.33
754.77	45210.96
754.95	44746.07
755.14	44950.87
755.32	44842.32
755.51	44615.00
755.69	45096.27
755.88	44655.96
756.06	45067.60
756.24	44701.01
756.43	44733.78
756.61	44516.70
756.80	44436.83
756.98	44399.96
757.17	44393.82
757.35	44201.31
757.54	44221.79
757.72	44455.26
757.90	44121.44
758.09	44090.72
758.27	44184.93
758.46	44031.33
758.64	44066.14
758.83	44117.34
759.01	44342.62
759.19	43824.48
759.38	43953.51
759.56	43939.17
759.75	43842.92
759.93	43853.15
760.12	43208.04
760.30	43900.26
760.48	43781.48
760.67	43162.99
760.85	43953.51
761.04	43687.27
761.22	43627.88
761.40	43572.58
761.59	43670.89
761.77	43441.51
761.96	43619.69
762.14	43292.01
762.32	43044.21
762.51	43263.34
762.69	43226.48
762.88	43218.28
763.06	43404.65
763.24	43486.57
763.43	43373.93
763.61	42968.43
763.80	42945.90
763.98	42968.43
764.16	42906.99
764.35	42431.86
764.53	42341.75
764.72	42616.18
764.90	42333.56
765.08	42741.11
765.27	42073.47
765.45	41969.02
765.63	41977.22
765.82	42182.01
766.00	41690.50
766.18	42085.76
766.37	42636.66
766.55	42030.46
766.74	42288.51
766.92	41528.71
767.10	41659.78
767.29	41928.06
767.47	41653.64
767.65	41915.78
767.84	41596.29
768.02	41772.42
768.20	41522.57
768.39	41616.77
768.57	41311.63
768.75	41438.60
768.94	41479.56
769.12	41661.83
769.30	41149.84
769.49	41436.55
769.67	41211.28
769.85	41074.06
770.04	40920.46
770.22	41203.08
770.40	40785.30
770.59	40883.60
770.77	41102.73
770.95	41162.12
771.14	40443.29
771.32	40850.83
771.50	40523.16
771.69	40547.73
771.87	40961.42
772.05	40736.15
772.24	40504.73
772.42	40318.36
772.60	40324.50
772.78	40478.10
772.97	40439.19
773.15	40652.18
773.33	40265.11
773.52	40347.03
773.70	40433.05
773.88	40334.74
774.07	40519.06
774.25	40222.11
774.43	40156.57
774.61	40179.10
774.80	40670.61
774.98	40443.29
775.16	40383.90
775.34	40080.80
775.53	40080.80
775.71	40545.69
775.89	40361.37
776.08	39980.45
776.26	40641.94
776.44	40011.17
776.62	40289.69
776.81	39974.30
776.99	40445.33
777.17	40279.45
777.35	40414.62
777.54	40547.73
777.72	40666.52
777.90	40338.84
778.08	40594.84
778.27	40267.16
778.45	40820.11
778.63	40727.95
778.81	40031.65
779.00	40875.41
779.18	40560.02
779.36	40893.84
779.54	40179.10
779.73	40578.45
779.91	40703.38
780.09	40594.84
780.27	41029.01
780.46	41061.77
780.64	41016.72
780.82	40576.40
781.00	40725.91
781.19	41045.39
781.37	41248.14
781.55	40949.14
781.73	40666.52
781.91	41067.92
782.10	40707.47
782.28	41391.50
782.46	41024.91
782.64	41481.61
782.82	40893.84
783.01	41119.12
783.19	40871.31
783.37	40863.12
783.55	40881.55
783.74	41454.98
783.92	40668.56
784.10	41346.44
784.28	41151.88
784.46	40623.51
784.64	40603.03
784.83	41299.34
785.01	41270.67
785.19	41002.38
785.37	41244.04
785.55	40998.29
785.74	40711.57
785.92	40545.69
786.10	40914.32
786.28	41186.70
786.46	40961.42
786.64	40586.64
786.83	40813.97
787.01	40887.70
787.19	40285.59
787.37	40730.00
787.55	40457.62
787.74	40572.31
787.92	40334.74
788.10	40365.46
788.28	40185.24
788.46	40428.95
788.64	40021.41
788.82	40637.84
789.01	40381.85
789.19	40132.00
789.37	39949.73
789.55	40021.41
789.73	40228.25
789.91	39464.36
790.09	39718.31
790.28	39456.17
790.46	39640.48
790.64	40027.55
790.82	39765.41
791.00	39312.81
791.18	38995.37
791.36	39533.99
791.55	39595.43
791.73	39269.80
791.91	39189.93
792.09	39216.55
792.27	39331.24
792.45	38995.37
792.63	39216.55
792.81	39148.97
793.00	39048.62
793.18	38985.13
793.36	38938.03
793.54	38698.42
793.72	38768.05
793.90	38454.71
794.08	38274.49
794.26	38057.40
794.44	37909.95
794.62	37866.94
794.81	37983.68
794.99	38030.78
795.17	38098.36
795.35	37963.20
795.53	38229.43
795.71	37930.43
795.89	37649.86
796.07	37656.00
796.25	37139.91
796.43	37694.91
796.61	37189.06
796.80	37189.06
796.98	37354.95
797.16	37008.84
797.34	37150.15
797.52	36455.89
797.70	37174.73
797.88	37049.80
798.06	36566.48
798.24	36918.73
798.42	36715.98
798.60	36728.27
798.78	36750.80
798.96	36566.48
799.14	36292.05
799.32	36298.20
799.51	35988.95
799.69	36398.55
799.87	36304.34
800.05	35743.20
800.23	35868.12
800.41	35755.49
800.59	36263.38
800.77	35540.45
800.95	35507.68
801.13	35530.21
801.31	35395.04
801.49	35483.11
801.67	35050.99
801.85	35382.76
802.03	35212.77
802.21	34684.40
802.39	34967.02
802.57	35149.29
802.75	35028.46
802.93	35007.98
803.11	34706.93
803.29	34395.64
803.47	34442.74
803.65	34502.13
803.83	34559.47
804.01	34307.57
804.19	34201.08
804.37	34369.01
804.55	34006.52
804.73	33971.71
804.91	34207.22
805.09	33830.40
805.27	33807.87
805.45	34039.29
805.63	33885.69
805.81	34131.45
805.99	33781.24
806.17	33861.12
806.35	33607.17
806.53	33474.05
806.71	33744.38
806.89	33465.86
807.07	33279.49
807.25	33631.74
807.43	33173.00
807.61	33367.55
807.79	32970.25
807.97	33132.04
808.15	32988.68
808.33	32824.84
808.51	32925.19
808.69	32714.25
808.87	32988.68
809.05	32370.19
809.23	32704.01
809.41	32124.44
809.59	32349.71
809.77	32507.41
809.95	32351.76
810.13	32609.81
810.31	32222.74
810.49	32069.14
810.67	32474.64
810.84	32011.80
811.02	32200.21
811.20	31626.78
811.38	31907.35
811.56	31634.97
811.74	31897.11
811.92	31456.80
812.10	32157.21
812.28	31766.04
812.46	31618.59
812.64	31729.18
812.82	31262.24
813.00	31475.23
813.18	31397.41
813.36	31237.67
813.53	30881.32
813.71	31338.02
813.89	30899.75
814.07	30860.84
814.25	31022.63
814.43	31075.88
814.61	30772.78
814.79	30744.11
814.97	30830.12
815.15	30856.75
815.33	30875.18
815.50	30606.89
815.68	30344.75
815.86	30326.32
816.04	30606.89
816.22	30357.04
816.40	30060.09
816.58	30453.30
816.76	30096.95
816.94	30150.20
817.11	30455.34
817.29	30154.29
817.47	30131.76
817.65	29992.50
817.83	29924.92
818.01	29756.99
818.19	29701.69
818.37	29584.96
818.54	29916.73
818.72	29271.62
818.90	29584.96
819.08	29486.65
819.26	29570.62
819.44	29261.38
819.62	29427.26
819.80	29488.70
819.97	29726.27
820.15	29654.59
820.33	29261.38
820.51	29554.24
820.69	29050.44
820.87	29253.19
821.05	29335.10
821.22	29331.01
821.40	29302.34
821.58	28843.59
821.76	28722.76
821.94	29318.72
822.12	29054.53
822.29	28905.03
822.47	28733.00
822.65	29165.12
822.83	28755.53
823.01	28714.57
823.19	28929.61
823.36	28655.18
823.54	28800.58
823.72	28485.20
823.90	28501.58
824.08	27969.11
824.25	28094.04
824.43	28347.98
824.61	28014.16
824.79	28534.35
824.97	28055.12
825.15	28425.81
825.32	28225.11
825.50	27954.77
825.68	27987.54
825.86	28292.69
826.04	28493.39
826.21	28020.31
826.39	28114.52
826.57	27672.15
826.75	27733.59
826.93	27600.47
827.10	27573.85
827.28	27610.71
827.46	27893.33
827.64	27801.18
827.81	27739.74
827.99	27848.28
828.17	27547.23
828.35	27332.19
828.53	27571.80
828.70	27571.80
828.88	27440.73
829.06	27237.98
829.24	27440.73
829.41	27328.10
829.59	27539.04
829.77	27127.39
829.95	27565.66
830.12	27231.84
830.30	27303.52
830.48	27039.33
830.66	27135.59
830.84	27254.37
831.01	26959.46
831.19	27215.46
831.37	27047.52
831.55	27106.91
831.72	26861.16
831.90	27139.68
832.08	27293.28
832.25	26707.56
832.43	26852.97
832.61	26752.62
832.79	26883.69
832.96	26668.65
833.14	26662.51
833.32	26701.42
833.50	26873.45
833.67	26820.20
833.85	26625.64
834.03	26269.30
834.20	26672.74
834.38	26392.17
834.56	26820.20
834.74	26410.60
834.91	25906.80
835.09	26058.35
835.27	25917.04
835.44	26351.21
835.62	25896.56
835.80	26109.55
835.98	26150.51
836.15	25925.24
836.33	26074.74
836.51	26158.70
836.68	25796.21
836.86	25718.39
837.04	25904.76
837.21	25755.26
837.39	25794.17
837.57	25955.96
837.75	25994.87
837.92	25667.19
838.10	25548.41
838.28	25718.39
838.45	25196.16
838.63	25562.75
838.81	25472.64
838.98	25544.31
839.16	25714.30
839.34	25292.41
839.51	25458.30
839.69	25329.28
839.87	25140.86
840.04	25392.76
840.22	25699.96
840.40	25638.52
840.57	25169.54
840.75	25261.69
840.93	25194.11
841.10	25198.21
841.28	25321.09
841.46	25009.79
841.63	25144.96
841.81	24985.22
841.98	24999.55
842.16	25163.39
842.34	25173.63
842.51	24860.29
842.69	25138.82
842.87	25069.19
843.04	25030.27
843.22	24817.29
843.40	25011.84
843.57	25024.13
843.75	24778.37
843.92	24782.47
844.10	24682.12
844.28	24653.45
844.45	24630.92
844.63	24653.45
844.81	24616.58
844.98	24276.62
845.16	24604.30
845.33	24671.88
845.51	24555.15
845.69	24313.48
845.86	24237.71
846.04	24293.01
846.21	24233.61
846.39	24393.36
846.57	24288.91
846.74	24323.72
846.92	24088.21
847.09	24006.29
847.27	23996.05
847.45	24071.82
847.62	24129.17
847.80	24098.45
847.97	24061.58
848.15	24043.15
848.32	23836.31
848.50	23932.56
848.68	23961.23
848.85	23873.17
849.03	23594.65
849.20	23946.90
849.38	23596.70
849.56	23486.11
849.73	23408.28
849.91	23596.70
850.08	23934.61
850.26	23373.47
850.43	23445.15
850.61	23713.43
850.78	23434.91
850.96	23641.75
851.14	23389.85
851.31	23441.05
851.49	23432.86
851.66	23617.18
851.84	23316.12
852.01	23189.15
852.19	23465.63
852.36	23439.00
852.54	23332.51
852.71	23033.50
852.89	23066.27
853.07	22994.59
853.24	22953.63
853.42	22771.36
853.59	22881.95
853.77	22996.64
853.94	23146.14
854.12	23121.57
854.29	22662.82
854.47	22697.64
854.64	22927.01
854.82	22838.95
854.99	22730.41
855.17	23129.76
855.34	22650.53
855.52	22572.71
855.69	22580.90
855.87	22585.00
856.04	22322.86
856.22	22652.58
856.39	22283.95
856.57	22384.30
856.74	22204.08
856.92	22574.76
857.09	22324.91
857.27	22085.30
857.44	22550.18
857.62	22382.25
857.79	22322.86
857.97	22372.01
858.14	22566.57
858.32	22113.97
858.49	21986.99
858.67	22056.62
858.84	22079.15
859.02	22003.38
859.19	21837.49
859.37	21855.92
859.54	21845.68
859.72	22050.48
859.89	21849.78
860.06	21974.70
860.24	21753.52
860.41	22093.49
860.59	21704.37
860.76	22030.00
860.94	21589.69
861.11	21911.22
861.29	21655.22
861.46	21808.82
861.64	21397.18
861.81	21407.42
861.98	21765.81
862.16	21503.67
862.33	21425.85
862.51	21345.98
862.68	21405.37
862.86	21464.76
863.03	21268.16
863.21	21319.35
863.38	21360.31
863.55	21427.90
863.73	21163.71
863.90	21219.00
864.08	21290.68
864.25	21135.04
864.43	21110.46
864.60	21438.14
864.77	20942.53
864.95	21022.40
865.12	20711.11
865.30	20965.06
865.47	20891.33
865.64	20776.64
865.82	20960.96
865.99	21030.59
866.17	20788.93
866.34	20932.29
866.51	20758.21
866.69	20879.04
866.86	20690.63
867.04	20813.51
867.21	20612.81
867.38	20694.72
867.56	20481.74
867.73	20475.59
867.91	20588.23
868.08	20481.74
868.25	20395.72
868.43	20457.16
868.60	20274.89
868.78	20154.06
868.95	20422.34
869.12	20084.43
869.30	20223.69
869.47	20057.81
869.64	20192.97
869.82	20240.08
869.99	19807.95
870.16	20129.48
870.34	20045.52
870.51	20102.86
870.69	19795.67
870.86	20184.78
871.03	20090.57
871.21	19642.07
871.38	20049.61
871.55	19580.63
871.73	19324.63
871.90	19691.22
872.07	19515.09
872.25	19580.63
872.42	19345.11
872.59	19418.84
872.77	19457.75
872.94	19459.80
873.11	19037.92
873.29	19418.84
873.46	19199.71
873.63	19281.63
873.81	19246.81
873.98	18904.80
874.15	19093.21
874.33	18835.17
874.50	18833.12
874.67	18980.57
874.85	19082.97
875.02	18771.68
875.19	18773.73
875.37	18767.59
875.54	18726.63
875.71	18691.81
875.88	18593.51
876.06	18675.43
876.23	18749.15
876.40	18542.31
876.58	18327.27
876.75	18616.04
876.92	18480.87
877.10	18575.08
877.27	18278.12
877.44	18415.34
877.61	18300.65
877.79	18278.12
877.96	17983.21
878.13	17987.31
878.31	18132.72
878.48	18005.74
878.65	18276.07
878.82	17753.84
879.00	18220.78
879.17	18052.84
879.34	17938.16
879.51	17823.47
879.69	17409.78
879.86	17899.25
880.03	17587.96
880.21	17739.51
880.38	17762.03
880.55	17530.61
880.72	17751.79
880.90	17501.94
881.07	17503.99
881.24	17712.88
881.41	17571.57
881.59	17323.77
881.76	17327.86
881.93	17475.32
882.10	17190.65
882.28	17225.47
882.45	17268.47
882.62	17262.33
882.79	17401.59
882.96	17108.73
883.14	17270.52
883.31	17471.22
883.48	17379.06
883.65	16932.61
883.83	17194.75
884.00	17088.25
884.17	17180.41
884.34	17323.77
884.51	17174.27
884.69	17389.30
884.86	17037.05
885.03	17065.72
885.20	17041.15
885.38	16760.58
885.55	17141.50
885.72	16987.90
885.89	16793.34
886.06	17049.34
886.24	16799.49
886.41	16588.55
886.58	17030.91
886.75	16969.47
886.92	16662.27
887.10	16719.62
887.27	16639.75
887.44	16699.14
887.61	16764.67
887.78	16799.49
887.95	16838.40
888.13	16412.42
888.30	16590.59
888.47	16391.94
888.64	16787.20
888.81	16504.58
888.99	16207.62
889.16	16269.06
889.33	16148.23
889.50	16084.75
889.67	16275.21
889.84	16301.83
890.01	16260.87
890.19	16447.24
890.36	16363.27
890.53	16211.72
890.70	15847.18
890.87	15757.07
891.04	16027.40
891.22	16074.51
891.39	15982.35
891.56	15701.78
891.73	15752.98
891.90	15679.25
892.07	15714.06
892.24	15687.44
892.42	15898.38
892.59	15589.14
892.76	15755.02
892.93	15535.89
893.10	15621.91
893.27	15734.54
893.44	15300.37
893.61	15503.12
893.79	15869.71
893.96	15585.04
894.13	15634.19
894.30	15515.41
894.47	15378.20
894.64	15607.57
894.81	15642.39
894.98	15542.03
895.15	15605.52
895.33	15595.28
895.50	15335.19
895.67	15435.54
895.84	15261.46
896.01	15308.57
896.18	15181.59
896.35	15511.32
896.52	15384.34
896.69	15378.20
896.86	15353.62
897.04	15408.92
897.21	15132.44
897.38	15474.45
897.55	15232.79
897.72	15357.72
897.89	15281.94
898.06	15451.92
898.23	15154.97
898.40	15277.85
898.57	15261.46
898.74	15335.19
898.91	15157.02
899.08	15240.98
899.26	15120.15
899.43	15337.24
899.60	15062.81
899.77	15261.46
899.94	15226.65
900.11	14937.88
900.28	15240.98
900.45	15320.85
900.62	15081.24
900.79	15075.10
900.96	15173.40
901.13	14821.15
901.30	15054.62
901.47	15058.71
901.64	15105.82
901.81	15062.81
901.98	14946.08
902.15	15421.20
902.32	15003.42
902.49	15036.19
902.66	15224.60
902.83	15152.92
903.01	15245.08
903.18	15128.35
903.35	15042.33
903.52	15298.33
903.69	15181.59
903.86	15189.78
904.03	15114.01
904.20	15226.65
904.37	15222.55
904.54	15021.85
904.71	15079.19
904.88	15140.63
905.05	14921.50
905.22	15148.82
905.39	15021.85
905.56	14962.46
905.73	15015.71
905.90	15044.38
906.07	15079.19
906.24	15052.57
906.41	14913.31
906.58	15017.75
906.75	15009.56
906.92	14941.98
907.09	15001.37
907.26	15019.80
907.43	15048.47
907.60	14763.81
907.77	15128.35
907.93	14923.55
908.10	15003.42
908.27	14972.70
908.44	15052.57
908.61	14978.84
908.78	14956.32
908.95	15027.99
909.12	14827.29
909.29	14946.08
909.46	14941.98
909.63	14774.05
909.80	14858.01
909.97	14573.35
910.14	14599.97
910.31	14792.48
910.48	14659.36
910.65	14884.64
910.82	14532.39
910.99	14747.42
911.16	14776.09
911.33	14849.82
911.50	14647.07
911.66	14489.38
911.83	14495.52
912.00	14561.06
912.17	14288.68
912.34	14378.79
912.51	14481.19
912.68	14307.11
912.85	14456.61
913.02	14550.82
913.19	14286.63
913.36	14616.35
913.53	14538.53
913.70	14284.58
913.86	14429.99
914.03	14706.46
914.20	14264.10
914.37	14294.82
914.54	14243.62
914.71	14059.31
914.88	14171.94
915.05	14100.26
915.22	14227.24
915.39	14118.70
915.55	14100.26
915.72	13909.80
915.89	14055.21
916.06	13928.24
916.23	13659.95
916.40	14028.59
916.57	13754.16
916.74	13688.62
916.91	13866.80
917.07	13557.55
917.24	13662.00
917.41	13567.79
917.58	13754.16
917.75	13657.90
917.92	13391.67
918.09	13471.54
918.26	13418.29
918.42	13651.76
918.59	13573.94
918.76	13500.21
918.93	13229.88
919.10	13326.13
919.27	13289.27
919.44	13016.89
919.60	13375.28
919.77	13389.62
919.94	13172.54
920.11	13096.76
920.28	13035.32
920.45	12822.33
920.61	12818.24
920.78	12977.98
920.95	12691.26
921.12	12828.48
921.29	12752.70
921.46	12642.11
921.62	12640.06
921.79	12674.88
921.96	12488.51
922.13	12685.12
922.30	12433.22
922.47	12386.12
922.63	12451.65
922.80	12357.44
922.97	12298.05
923.14	12164.93
923.31	12314.44
923.47	12156.74
923.64	12410.69
923.81	12083.02
923.98	11986.76
924.15	11929.42
924.32	12085.06
924.48	11820.88
924.65	12066.63
924.82	11810.64
924.99	11790.16
925.15	11732.81
925.32	11728.72
925.49	11657.04
925.66	11716.43
925.83	11558.74
925.99	11509.58
926.16	11636.56
926.33	11706.19
926.50	11405.14
926.67	11626.32
926.83	11394.90
927.00	11196.25
927.17	11276.12
927.34	11296.60
927.50	11102.04
927.67	11507.54
927.84	11159.38
928.01	11063.13
928.17	10927.96
928.34	10923.87
928.51	10948.44
928.68	10739.55
928.84	10911.58
929.01	10792.80
929.18	10671.97
929.35	10397.54
929.51	10622.81
929.68	10588.00
929.85	10393.44
930.02	10366.82
930.18	10493.79
930.35	10260.32
930.52	10280.80
930.69	10395.49
930.85	10289.00
931.02	10266.47
931.19	10149.73
931.36	10282.85
931.52	10162.02
931.69	10245.99
931.86	10028.90
932.02	10049.38
932.19	9938.79
932.36	10043.24
932.53	9899.88
932.69	9789.29
932.86	9938.79
933.03	9932.65
933.19	9678.70
933.36	9707.37
933.53	9504.62
933.70	9508.72
933.86	9539.44
934.03	9549.68
934.20	9400.18
934.36	9496.43
934.53	9219.96
934.70	9152.37
934.86	9211.76
935.03	9002.87
935.20	9015.16
935.36	8953.72
935.53	8875.90
935.70	8843.13
935.86	8718.20
936.03	8589.18
936.20	8447.87
936.36	8660.86
936.53	8386.43
936.70	8347.52
936.86	8476.54
937.03	8224.64
937.20	8155.01
937.36	8066.95
937.53	7999.37
937.70	7817.10
937.86	7759.75
938.03	7862.15
938.20	7827.34
938.36	7634.83
938.53	7677.83
938.70	7417.74
938.86	7360.40
939.03	7401.36
939.20	7198.61
939.36	7194.51
939.53	7081.88
939.70	7235.47
939.86	6907.80
940.03	6703.00
940.19	6655.90
940.36	6774.68
940.53	6653.85
940.69	6682.52
940.86	6594.46
941.03	6371.23
941.19	6344.61
941.36	6350.75
941.52	6217.63
941.69	6188.96
941.86	6219.68
942.02	5988.26
942.19	5916.58
942.35	5982.12
942.52	6014.88
942.69	5785.51
942.85	5824.42
943.02	5732.26
943.18	5670.83
943.35	5844.90
943.52	5748.65
943.68	5595.05
943.85	5771.18
944.01	5453.74
944.18	5429.17
944.35	5652.39
944.51	5472.17
944.68	5322.67
944.84	5420.97
945.01	5355.44
945.17	5529.52
945.34	5386.16
945.51	5322.67
945.67	5271.47
945.84	5349.29
946.00	5250.99
946.17	5320.62
946.33	5128.11
946.50	5242.80
946.67	5294.00
946.83	5298.10
947.00	5310.38
947.16	5146.55
947.33	5203.89
947.49	5095.35
947.66	5044.15
947.82	5445.55
947.99	5242.80
948.16	5273.52
948.32	5148.59
948.49	5312.43
948.65	5296.05
948.82	5269.42
948.98	5238.70
949.15	5150.64
949.31	5248.94
949.48	5337.01
949.64	5306.29
949.81	5111.73
949.97	5156.79
950.14	5365.68
950.30	5228.46
950.47	5291.95
950.63	5296.05
950.80	5304.24
950.96	5234.61
951.13	5386.16
951.30	5306.29
951.46	5343.15
951.63	5334.96
951.79	5302.19
951.96	5463.98
952.12	5187.50
952.29	5416.88
952.45	5380.01
952.62	5339.05
952.78	5330.86
952.94	5222.32
953.11	5334.96
953.27	5265.33
953.44	5443.50
953.60	5361.58
953.77	5420.97
953.93	5484.46
954.10	5298.10
954.26	5242.80
954.43	5363.63
954.59	5277.62
954.76	5476.27
954.92	5337.01
955.09	5359.53
955.25	5347.25
955.42	5310.38
955.58	5498.80
955.75	5390.25
955.91	5502.89
956.07	5371.82
956.24	5558.19
956.40	5472.17
956.57	5498.80
956.73	5371.82
956.90	5531.56
957.06	5308.34
957.23	5406.64
957.39	5496.75
957.56	5418.93
957.72	5271.47
957.88	5533.61
958.05	5470.12
958.21	5627.82
958.38	5394.35
958.54	5474.22
958.71	5631.91
958.87	5490.60
959.03	5646.25
959.20	5355.44
959.36	5310.38
959.53	5304.24
959.69	5320.62
959.85	5535.66
960.02	5494.70
960.18	5541.80
960.35	5494.70
960.51	5617.58
960.68	5433.26
960.84	5423.02
961.00	5337.01
961.17	5332.91
961.33	5541.80
961.50	5312.43
961.66	5482.41
961.82	5310.38
961.99	5484.46
962.15	5496.75
962.31	5328.81
962.48	5418.93
962.64	5427.12
962.81	5439.40
962.97	5433.26
963.13	5410.73
963.30	5441.45
963.46	5398.45
963.62	5351.34
963.79	5347.25
963.95	5326.77
964.12	5402.54
964.28	5349.29
964.44	5298.10
964.61	5314.48
964.77	5427.12
964.93	5463.98
965.10	5326.77
965.26	5404.59
965.42	5324.72
965.59	5238.70
965.75	5353.39
965.92	5412.78
966.08	5326.77
966.24	5214.13
966.41	5298.10
966.57	5287.86
966.73	5373.87
966.90	5277.62
967.06	5355.44
967.22	5185.46
967.39	5201.84
967.55	5070.77
967.71	5201.84
967.88	5164.98
968.04	5187.50
968.20	5195.70
968.37	5214.13
968.53	5066.67
968.69	5081.01
968.85	5148.59
969.02	5242.80
969.18	5146.55
969.34	5097.39
969.51	5054.39
969.67	5164.98
969.83	5119.92
970.00	5230.51
970.16	5091.25
970.32	5062.58
970.48	5185.46
970.65	5003.19
970.81	5060.53
970.97	4990.90
971.14	4849.59
971.30	5081.01
971.46	5025.72
971.63	4935.60
971.79	5081.01
971.95	5087.15
972.11	4874.17
972.28	4992.95
972.44	4847.54
972.60	4786.10
972.76	4896.69
972.93	4882.36
973.09	4900.79
973.25	4947.89
973.42	4908.98
973.58	4841.40
973.74	4898.74
973.90	4878.26
974.07	4927.41
974.23	4788.15
974.39	4902.84
974.55	4870.07
974.72	4720.57
974.88	4628.41
975.04	4894.65
975.20	4861.88
975.37	4777.91
975.53	4675.51
975.69	4900.79
975.85	4786.10
976.01	4814.77
976.18	4728.76
976.34	4648.89
976.50	4749.24
976.66	4743.10
976.83	4741.05
976.99	4689.85
977.15	4739.00
977.31	4542.39
977.47	4730.81
977.64	4847.54
977.80	4759.48
977.96	4665.27
978.12	4739.00
978.29	4480.96
978.45	4515.77
978.61	4534.20
978.77	4712.38
978.93	4507.58
979.10	4472.76
979.26	4591.55
979.42	4628.41
979.58	4458.43
979.74	4460.48
979.91	4474.81
980.07	4480.96
980.23	4597.69
980.39	4327.36
980.55	4483.00
980.71	4378.56
980.88	4480.96
981.04	4456.38
981.20	4474.81
981.36	4356.03
981.52	4554.68
981.68	4315.07
981.85	4380.61
982.01	4362.17
982.17	4378.56
982.33	4202.43
982.49	4376.51
982.65	4267.97
982.82	4392.89
982.98	4274.11
983.14	4341.69
983.30	4302.78
983.46	4331.45
983.62	4280.25
983.79	4222.91
983.95	4304.83
984.11	4159.42
984.27	4108.23
984.43	4239.30
984.59	4147.14
984.75	4204.48
984.91	4239.30
985.08	4181.95
985.24	4147.14
985.40	4138.94
985.56	4159.42
985.72	4218.82
985.88	4093.89
986.04	4050.88
986.20	4034.50
986.37	4061.12
986.53	4071.36
986.69	4153.28
986.85	4118.47
987.01	4122.56
987.17	4075.46
987.33	4030.40
987.49	3938.24
987.65	4100.03
987.82	3993.54
987.98	4001.73
988.14	3940.29
988.30	3993.54
988.46	3923.91
988.62	4114.37
988.78	4036.55
988.94	3903.43
989.10	3944.39
989.26	3801.03
989.42	3936.20
989.59	3772.36
989.75	3825.61
989.91	3950.53
990.07	3743.69
990.23	3753.93
990.39	3891.14
990.55	3766.21
990.71	3758.02
990.87	3780.55
991.03	3807.17
991.19	3745.73
991.35	3729.35
991.51	3821.51
991.67	3762.12
991.83	3919.81
992.00	3704.78
992.16	3725.26
992.32	3784.65
992.48	3780.55
992.64	3780.55
992.80	3747.78
992.96	3649.48
993.12	3755.97
993.28	3753.93
993.44	3665.86
993.60	3661.77
993.76	3604.42
993.92	3622.86
994.08	3686.34
994.24	3616.71
994.40	3649.48
994.56	3645.38
994.72	3575.75
994.88	3600.33
995.04	3633.10
995.20	3559.37
995.36	3596.23
995.52	3520.46
995.68	3528.65
995.84	3571.66
996.00	3602.38
996.16	3467.21
996.32	3448.78
996.48	3512.27
996.64	3575.75
996.80	3485.64
996.96	3499.98
997.12	3440.59
997.28	3432.40
997.44	3432.40
997.60	3428.30
997.76	3456.97
997.92	3440.59
998.08	3377.10
998.24	3366.86
998.40	3405.77
998.56	3465.16
998.72	3327.95
998.88	3332.05
999.04	3297.23
999.20	3387.34
999.36	3260.37
999.52	3391.44
999.68	3348.43
999.84	3491.79
1000.00	3313.61
1000.16	3243.98
1000.32	3180.50
1000.48	3395.53
1000.64	3162.06
1000.80	3207.12
1000.95	3139.54
1001.11	3260.37
1001.27	3157.97
1001.43	3282.89
1001.59	3147.73
1001.75	3239.89
1001.91	3145.68
1002.07	3084.24
1002.23	3141.58
1002.39	3024.85
1002.55	3076.05
1002.71	3137.49
1002.87	3155.92
1003.03	3157.97
1003.19	3074.00
1003.34	3121.10
1003.50	3147.73
1003.66	3229.65
1003.82	3213.26
1003.98	3030.99
1004.14	3108.82
1004.30	3026.90
1004.46	3119.06
1004.62	3016.66
1004.78	3057.62
1004.94	3022.80
1005.09	3096.53
1005.25	3121.10
1005.41	3049.43
1005.57	2990.03
1005.73	3069.91
1005.89	2998.23
1006.05	3065.81
1006.21	2924.50
1006.37	2910.16
1006.52	3016.66
1006.68	2826.20
1006.84	3043.28
1007.00	2893.78
1007.16	3049.43
1007.32	2873.30
1007.48	2936.79
1007.64	2918.36
1007.79	2926.55
1007.95	2863.06
1008.11	3002.32
1008.27	2844.63
1008.43	2834.39
1008.59	2842.58
1008.75	2895.83
1008.91	2924.50
1009.06	2762.71
1009.22	2875.35
1009.38	2887.64
1009.54	2858.96
1009.70	2721.75
1009.86	2756.57
1010.01	2766.81
1010.17	2781.14
1010.33	2930.64
1010.49	2742.23
1010.65	2861.01
1010.81	2672.60
1010.96	2813.91
1011.12	2742.23
1011.28	2740.18
1011.44	2793.43
1011.60	2701.27
1011.76	2729.94
1011.91	2711.51
1012.07	2691.03
1012.23	2676.70
1012.39	2641.88
1012.55	2740.18
1012.71	2625.50
1012.86	2629.59
1013.02	2584.54
1013.18	2596.82
1013.34	2527.19
1013.50	2639.83
1013.65	2697.17
1013.81	2660.31
1013.97	2615.26
1014.13	2631.64
1014.29	2578.39
1014.44	2660.31
1014.60	2562.01
1014.76	2576.34
1014.92	2572.25
1015.07	2613.21
1015.23	2564.06
1015.39	2478.04
1015.55	2590.68
1015.71	2590.68
1015.86	2498.52
1016.02	2514.91
1016.18	2443.23
1016.34	2582.49
1016.49	2527.19
1016.65	2650.07
1016.81	2559.96
1016.97	2578.39
1017.12	2555.86
1017.28	2465.75
1017.44	2473.95
1017.60	2531.29
1017.75	2473.95
1017.91	2527.19
1018.07	2369.50
1018.23	2426.84
1018.38	2494.43
1018.54	2420.70
1018.70	2420.70
1018.86	2371.55
1019.01	2443.23
1019.17	2402.27
1019.33	2416.60
1019.49	2414.56
1019.64	2457.56
1019.80	2480.09
1019.96	2344.92
1020.12	2402.27
1020.27	2269.15
1020.43	2422.75
1020.59	2410.46
1020.74	2387.93
1020.90	2338.78
1021.06	2355.16
1021.22	2439.13
1021.37	2326.49
1021.53	2361.31
1021.69	2353.12
1021.84	2306.01
1022.00	2195.42
1022.16	2400.22
1022.31	2365.40
1022.47	2301.92
1022.63	2299.87
1022.79	2207.71
1022.94	2263.01
1023.10	2365.40
1023.26	2322.40
1023.41	2203.61
1023.57	2285.53
1023.73	2275.29
1023.88	2306.01
1024.04	2246.62
1024.20	2330.59
1024.35	2265.05
1024.51	2281.44
1024.67	2265.05
1024.82	2340.83
1024.98	2164.70
1025.14	2275.29
1025.29	2211.81
1025.45	2303.96
1025.61	2174.94
1025.76	2211.81
1025.92	2179.04
1026.08	2248.67
1026.23	2222.05
1026.39	2254.81
1026.55	2191.33
1026.70	2189.28
1026.86	2172.89
1027.02	2183.13
1027.17	2154.46
1027.33	2181.09
1027.48	2164.70
1027.64	2207.71
1027.80	2160.61
1027.95	2220.00
1028.11	2066.40
1028.27	2101.22
1028.42	2099.17
1028.58	2099.17
1028.73	2076.64
1028.89	2136.03
1029.05	2254.81
1029.20	2187.23
>>>>>End Processed Spectral Data<<<<<
