SpectraSuite Data File
++++++++++++++++++++++++++++++++++++
Date: Fri Jun 02 14:47:54 CEST 2017
User: INFO_000
Dark Spectrum Present: No
Reference Spectrum Present: No
Number of Sampled Component Spectra: 1
Spectrometers: USB4H00879
Integration Time (usec): 80000 (USB4H00879)
Spectra Averaged: 1 (USB4H00879)
Boxcar Smoothing: 0 (USB4H00879)
Correct for Electrical Dark: No (USB4H00879)
Strobe/Lamp Enabled: No (USB4H00879)
Correct for Detector Non-linearity: No (USB4H00879)
Correct for Stray Light: No (USB4H00879)
Number of Pixels in Processed Spectrum: 3648
>>>>>Begin Processed Spectral Data<<<<<
345.13	1261.55
345.34	1261.55
345.56	1261.55
345.78	1236.97
345.99	1347.56
346.21	1771.49
346.42	1728.49
346.64	1658.85
346.86	1802.21
347.07	1685.48
347.29	1677.29
347.50	1599.46
347.72	1703.91
347.94	1765.35
348.15	1624.04
348.37	1621.99
348.59	1712.10
348.80	1703.91
349.02	1791.97
349.23	1816.55
349.45	1855.46
349.67	1851.36
349.88	1767.40
350.10	1970.15
350.31	1884.13
350.53	1779.68
350.75	1937.38
350.96	1757.16
351.18	1880.04
351.39	1830.88
351.61	1726.44
351.82	1863.65
352.04	1877.99
352.26	1744.87
352.47	1861.60
352.69	1947.62
352.90	1718.25
353.12	1804.26
353.34	1908.71
353.55	1863.65
353.77	1884.13
353.98	1806.31
354.20	1818.60
354.41	1904.61
354.63	1906.66
354.85	2009.06
355.06	1832.93
355.28	1685.48
355.49	1925.09
355.71	1859.56
355.92	1916.90
356.14	1978.34
356.35	1824.74
356.57	1880.04
356.79	1914.85
357.00	1892.32
357.22	1933.28
357.43	1728.49
357.65	1925.09
357.86	1839.08
358.08	1865.70
358.29	1882.08
358.51	1968.10
358.72	1970.15
358.94	1925.09
359.16	1830.88
359.37	1884.13
359.59	1923.04
359.80	1974.24
360.02	2041.82
360.23	1869.80
360.45	1947.62
360.66	1896.42
360.88	1812.45
361.09	1916.90
361.31	2000.87
361.52	1880.04
361.74	1953.76
361.95	2101.22
362.17	1959.91
362.38	1964.00
362.60	1943.52
362.81	1923.04
363.03	1877.99
363.24	1925.09
363.46	2019.30
363.67	1992.67
363.89	1939.43
364.10	2041.82
364.32	1953.76
364.53	2033.63
364.75	1916.90
364.96	2011.11
365.18	2082.78
365.39	2050.02
365.61	1914.85
365.82	2129.89
366.04	2068.45
366.25	1945.57
366.47	1990.63
366.68	2037.73
366.90	1996.77
367.11	2031.58
367.33	2088.93
367.54	2052.06
367.76	1939.43
367.97	2099.17
368.19	1951.71
368.40	2103.26
368.62	1964.00
368.83	1914.85
369.05	2060.26
369.26	1904.61
369.48	1982.43
369.69	1949.67
369.91	2043.87
370.12	1990.63
370.33	2090.98
370.55	1980.39
370.76	2037.73
370.98	2080.74
371.19	2062.30
371.41	1984.48
371.62	2062.30
371.84	1964.00
372.05	2140.13
372.27	2064.35
372.48	2037.73
372.69	2119.65
372.91	1994.72
373.12	2136.03
373.34	2146.27
373.55	2183.13
373.77	2082.78
373.98	2064.35
374.20	2166.75
374.41	2205.66
374.62	2142.18
374.84	2232.29
375.05	2174.94
375.27	2248.67
375.48	2281.44
375.70	2213.85
375.91	2166.75
376.12	2279.39
376.34	2113.50
376.55	2115.55
376.77	2232.29
376.98	2039.78
377.19	2176.99
377.41	2158.56
377.62	2170.85
377.84	2299.87
378.05	2279.39
378.27	2133.98
378.48	2320.35
378.69	2306.01
378.91	2299.87
379.12	2320.35
379.34	2334.68
379.55	2232.29
379.76	2211.81
379.98	2224.09
380.19	2306.01
380.41	2256.86
380.62	2269.15
380.83	2240.48
381.05	2133.98
381.26	2342.88
381.47	2230.24
381.69	2193.37
381.90	2406.36
382.12	2336.73
382.33	2306.01
382.54	2293.72
382.76	2295.77
382.97	2222.05
383.19	2269.15
383.40	2295.77
383.61	2303.96
383.83	2260.96
384.04	2314.20
384.25	2326.49
384.47	2340.83
384.68	2461.66
384.89	2336.73
385.11	2293.72
385.32	2355.16
385.54	2330.59
385.75	2363.36
385.96	2363.36
386.18	2453.47
386.39	2461.66
386.60	2320.35
386.82	2340.83
387.03	2404.32
387.24	2537.43
387.46	2426.84
387.67	2486.23
387.88	2473.95
388.10	2445.27
388.31	2498.52
388.52	2516.95
388.74	2533.34
388.95	2455.51
389.16	2514.91
389.38	2484.19
389.59	2572.25
389.80	2570.20
390.02	2514.91
390.23	2547.67
390.44	2535.39
390.66	2588.63
390.87	2541.53
391.08	2555.86
391.30	2648.02
391.51	2514.91
391.72	2602.97
391.94	2656.22
392.15	2527.19
392.36	2594.78
392.58	2609.11
392.79	2688.98
393.00	2660.31
393.22	2623.45
393.43	2789.33
393.64	2797.53
393.85	2781.14
394.07	2670.55
394.28	2723.80
394.49	2801.62
394.71	2678.74
394.92	2846.68
395.13	2777.05
395.35	2717.65
395.56	2713.56
395.77	2772.95
395.98	2879.44
396.20	2850.77
396.41	2779.09
396.62	2760.66
396.84	2734.04
397.05	2926.55
397.26	2873.30
397.47	2924.50
397.69	2953.17
397.90	2910.16
398.11	2934.74
398.32	2942.93
398.54	2869.20
398.75	2811.86
398.96	2910.16
399.18	3039.19
399.39	2850.77
399.60	2971.60
399.81	2928.60
400.03	2844.63
400.24	3262.41
400.45	2959.31
400.66	3039.19
400.88	2994.13
401.09	3198.93
401.30	2998.23
401.51	3092.43
401.73	3155.92
401.94	3106.77
402.15	3233.74
402.36	3047.38
402.58	3112.91
402.79	3086.29
403.00	3155.92
403.21	3119.06
403.43	3291.09
403.64	3254.22
403.85	3092.43
404.06	3215.31
404.27	3184.59
404.49	3207.12
404.70	3098.58
404.91	3315.66
405.12	3250.13
405.34	3256.27
405.55	3413.96
405.76	3110.86
405.97	3198.93
406.19	3393.48
406.40	3233.74
406.61	3317.71
406.82	3360.72
407.03	3389.39
407.25	3262.41
407.46	3407.82
407.67	3377.10
407.88	3360.72
408.09	3309.52
408.31	3387.34
408.52	3358.67
408.73	3395.53
408.94	3293.13
409.15	3401.68
409.37	3420.11
409.58	3477.45
409.79	3475.40
410.00	3434.44
410.21	3424.20
410.43	3375.05
410.64	3373.00
410.85	3502.03
411.06	3471.31
411.27	3471.31
411.48	3598.28
411.70	3516.36
411.91	3657.67
412.12	3624.90
412.33	3680.20
412.54	3592.14
412.76	3702.73
412.97	3569.61
413.18	3559.37
413.39	3715.02
413.60	3559.37
413.81	3614.66
414.03	3534.79
414.24	3669.96
414.45	3813.32
414.66	3667.91
414.87	3751.88
415.08	3606.47
415.30	3688.39
415.51	3786.69
415.72	3641.29
415.93	3715.02
416.14	3747.78
416.35	3823.56
416.56	3780.55
416.78	3708.87
416.99	3780.55
417.20	3774.41
417.41	3925.96
417.62	3780.55
417.83	3893.19
418.04	3735.50
418.26	4005.83
418.47	3899.33
418.68	3973.06
418.89	3964.87
419.10	4014.02
419.31	3850.18
419.52	4024.26
419.73	3960.77
419.95	4083.65
420.16	3917.76
420.37	4042.69
420.58	4034.50
420.79	3966.92
421.00	4034.50
421.21	4097.99
421.42	3995.59
421.63	4016.07
421.85	4071.36
422.06	4151.23
422.27	4198.34
422.48	4206.53
422.69	4245.44
422.90	4167.62
423.11	4265.92
423.32	4341.69
423.53	4433.85
423.75	4321.21
423.96	4399.04
424.17	4364.22
424.38	4550.59
424.59	4392.89
424.80	4511.68
425.01	4415.42
425.22	4380.61
425.43	4411.32
425.64	4685.75
425.85	4661.18
426.06	4571.07
426.28	4595.64
426.49	4487.10
426.70	4528.06
426.91	4566.97
427.12	4550.59
427.33	4575.16
427.54	4599.74
427.75	4755.38
427.96	4822.97
428.17	4655.03
428.38	4739.00
428.59	4898.74
428.80	4831.16
429.01	4855.73
429.23	4892.60
429.44	4964.28
429.65	4892.60
429.86	4843.45
430.07	4837.30
430.28	4874.17
430.49	4982.71
430.70	5003.19
430.91	4935.60
431.12	4917.17
431.33	5076.91
431.54	5021.62
431.75	5150.64
431.96	5056.43
432.17	5212.08
432.38	5058.48
432.59	5326.77
432.80	5371.82
433.01	5271.47
433.22	5210.03
433.43	5279.66
433.64	5210.03
433.85	5173.17
434.06	5326.77
434.27	5337.01
434.49	5498.80
434.70	5484.46
434.91	5435.31
435.12	5394.35
435.33	5343.15
435.54	5504.94
435.75	5167.03
435.96	5486.51
436.17	5402.54
436.38	5576.62
436.59	5578.67
436.80	5416.88
437.01	5719.98
437.22	5691.31
437.43	5564.33
437.64	5322.67
437.85	5715.88
438.06	5707.69
438.27	5550.00
438.48	5787.56
438.69	5670.83
438.90	5756.84
439.11	5631.91
439.32	5867.43
439.53	5697.45
439.74	5853.09
439.95	5711.78
440.16	5746.60
440.37	5873.57
440.57	5703.59
440.78	5920.68
440.99	6070.18
441.20	5990.31
441.41	5713.83
441.62	5996.45
441.83	5855.14
442.04	6086.56
442.25	6002.60
442.46	5896.10
442.67	6217.63
442.88	6408.09
443.09	6031.27
443.30	6080.42
443.51	6231.97
443.72	6346.66
443.93	6066.08
444.14	6363.04
444.35	6154.15
444.56	6287.26
444.77	6324.13
444.98	6270.88
445.19	6326.18
445.40	6360.99
445.61	6315.94
445.81	6610.84
446.02	6573.98
446.23	6490.01
446.44	6324.13
446.65	6410.14
446.86	6422.43
447.07	6391.71
447.28	6547.36
447.49	6588.32
447.70	6461.34
447.91	6635.42
448.12	6741.91
448.33	6700.95
448.54	6690.71
448.74	6557.60
448.95	6746.01
449.16	6487.96
449.37	6924.18
449.58	6635.42
449.79	6899.61
450.00	6647.71
450.21	6815.64
450.42	7020.44
450.63	7071.64
450.84	7026.58
451.05	7030.68
451.25	6924.18
451.46	6823.83
451.67	7096.21
451.88	7339.92
452.09	7194.51
452.30	7110.55
452.51	7116.69
452.72	7208.85
452.93	7331.73
453.13	7038.87
453.34	7042.96
453.55	7294.86
453.76	7188.37
453.97	7628.68
454.18	7507.85
454.39	7501.71
454.60	7397.26
454.81	7630.73
455.01	7710.60
455.22	7315.34
455.43	7698.31
455.64	7790.47
455.85	7735.18
456.06	7810.95
456.27	7806.86
456.48	7794.57
456.68	7679.88
456.89	7896.97
457.10	7976.84
457.31	7946.12
457.52	7905.16
457.73	7913.35
457.94	8228.74
458.14	8128.39
458.35	8654.72
458.56	8226.69
458.77	8025.99
458.98	8312.71
459.19	8267.65
459.39	8322.94
459.60	8480.64
459.81	8327.04
460.02	8482.69
460.23	8380.29
460.44	8662.91
460.65	8580.99
460.85	8695.68
461.06	8826.75
461.27	8437.63
461.48	8791.93
461.69	9023.35
461.89	8646.52
462.10	8789.88
462.31	8664.96
462.52	8892.28
462.73	8834.94
462.94	9099.13
463.14	8984.44
463.35	8839.03
463.56	9371.50
463.77	9232.24
463.98	9138.04
464.18	9121.65
464.39	9416.56
464.60	9459.57
464.81	9494.38
465.02	9391.98
465.23	9592.69
465.43	9418.61
465.64	9748.33
465.85	9686.89
466.06	9631.60
466.27	10092.39
466.47	9957.22
466.68	9869.16
466.89	9912.17
467.10	10024.81
467.30	9891.69
467.51	10202.98
467.72	10450.78
467.93	9879.40
468.14	10252.13
468.34	10411.87
468.55	10354.53
468.76	10411.87
468.97	10295.14
469.17	10612.57
469.38	10696.54
469.59	10901.34
469.80	10823.51
470.01	10727.26
470.21	10649.44
470.42	11016.02
470.63	11056.98
470.84	11007.83
471.04	11034.46
471.25	11274.07
471.46	11272.02
471.67	11396.95
471.87	11278.16
472.08	11548.50
472.29	11698.00
472.50	11347.79
472.70	11575.12
472.91	11702.09
473.12	11749.20
473.33	12052.30
473.53	11876.17
473.74	11784.01
473.95	11970.38
474.16	12246.85
474.36	11958.09
474.57	12228.42
474.78	12693.31
474.99	12201.80
475.19	12304.20
475.40	12726.08
475.61	12652.35
475.81	12844.86
476.02	13039.42
476.23	13051.70
476.44	12980.03
476.64	13207.35
476.85	13498.16
477.06	13473.59
477.27	13645.62
477.47	13496.11
477.68	13518.64
477.89	13739.82
478.09	13819.69
478.30	13911.85
478.51	13987.63
478.71	14008.11
478.92	14333.73
479.13	14137.13
479.34	14632.74
479.54	14481.19
479.75	14436.13
479.96	14485.28
480.16	14544.67
480.37	14694.18
480.58	14700.32
480.78	15103.77
480.99	15040.28
481.20	15394.58
481.41	15130.39
481.61	15257.37
481.82	15574.80
482.03	15468.31
482.23	15546.13
482.44	15810.32
482.65	15888.14
482.85	15922.96
483.06	16006.92
483.27	16123.66
483.47	15988.49
483.68	16183.05
483.89	16160.52
484.09	16332.55
484.30	16525.06
484.51	16879.36
484.71	16910.08
484.92	17016.57
485.13	16992.00
485.33	16973.56
485.54	17475.32
485.75	17221.37
485.95	17329.91
486.16	17395.45
486.37	17839.86
486.57	17241.85
486.78	17528.56
486.98	17456.89
487.19	17741.55
487.40	17872.62
487.60	18024.17
487.81	18083.56
488.02	17979.12
488.22	18181.87
488.43	18335.46
488.64	18333.42
488.84	18560.74
489.05	18570.98
489.25	18767.59
489.46	18970.33
489.67	18853.60
489.87	19029.73
490.08	18953.95
490.29	19031.77
490.49	19605.20
490.70	19543.77
490.90	19535.57
491.11	19498.71
491.32	19556.05
491.52	19769.04
491.73	19785.43
491.94	19762.90
492.14	19766.99
492.35	20090.57
492.55	20154.06
492.76	20231.88
492.97	20295.37
493.17	20444.87
493.38	20455.11
493.58	20647.62
493.79	20623.05
494.00	20567.75
494.20	20788.93
494.41	20719.30
494.61	20745.92
494.82	21036.74
495.02	21026.50
495.23	21436.09
495.44	21350.07
495.64	21296.83
495.85	21696.18
496.05	21225.15
496.26	21542.58
496.47	21618.36
496.67	21460.66
496.88	22032.05
497.08	21515.96
497.29	22085.30
497.49	21774.00
497.70	22079.15
497.91	22210.22
498.11	22314.67
498.32	22232.75
498.52	22197.93
498.73	22726.31
498.93	22605.48
499.14	23015.07
499.34	22720.17
499.55	22697.64
499.76	22709.93
499.96	23082.66
500.17	22642.34
500.37	23072.42
500.58	23053.98
500.78	22955.68
500.99	23293.60
501.19	23543.45
501.40	23350.94
501.60	22982.31
501.81	23285.40
502.02	23498.39
502.22	23346.84
502.43	23402.14
502.63	23910.04
502.84	23950.99
503.04	24114.83
503.25	23746.20
503.45	24108.69
503.66	23930.51
503.86	24096.40
504.07	24430.22
504.27	23981.71
504.48	24624.78
504.68	24557.19
504.89	24565.39
505.09	24637.06
505.30	24635.02
505.50	24665.74
505.71	24579.72
505.91	24866.44
506.12	24381.07
506.32	25118.34
506.53	24864.39
506.73	25190.02
506.94	24997.51
507.14	25063.04
507.35	25134.72
507.55	25212.54
507.76	25126.53
507.96	25360.00
508.17	25454.20
508.37	25454.20
508.58	25280.13
508.78	25659.00
508.99	26001.01
509.19	25622.14
509.40	25585.27
509.60	25790.07
509.81	25869.94
510.01	25779.83
510.22	25867.89
510.42	25665.14
510.63	26345.07
510.83	26019.44
511.04	26064.50
511.24	26119.79
511.44	26142.32
511.65	26228.34
511.85	26285.68
512.06	26521.20
512.26	26814.05
512.47	26844.77
512.67	26443.37
512.88	26465.90
513.08	26625.64
513.29	26545.77
513.49	26605.16
513.69	26730.09
513.90	27025.00
514.10	26932.84
514.31	27082.34
514.51	27424.35
514.72	26969.70
514.92	27102.82
515.13	27428.45
515.33	27395.68
515.53	27395.68
515.74	27573.85
515.94	27604.57
516.15	27506.27
516.35	27792.98
516.56	28018.26
516.76	27698.78
516.96	27647.58
517.17	27881.05
517.37	27962.97
517.58	28331.60
517.78	27962.97
517.99	28243.54
518.19	28589.64
518.39	28397.13
518.60	28337.74
518.80	28302.93
519.01	28728.91
519.21	28642.89
519.41	28962.37
519.62	28747.34
519.82	28509.77
520.03	28931.65
520.23	28917.32
520.43	28943.94
520.64	29263.43
520.84	29455.93
521.05	29130.31
521.25	29187.65
521.45	29351.49
521.66	29832.76
521.86	29378.11
522.07	29607.48
522.27	29564.48
522.47	29601.34
522.68	30078.52
522.88	29759.03
523.08	30316.08
523.29	30236.21
523.49	30367.28
523.70	30068.28
523.90	30541.36
524.10	30494.25
524.31	30408.24
524.51	30428.72
524.71	31118.89
524.92	30780.97
525.12	31039.01
525.33	31000.10
525.53	30869.03
525.73	30924.33
525.94	31079.97
526.14	31284.77
526.34	31581.73
526.55	31366.69
526.75	31176.23
526.95	31921.69
527.16	31612.45
527.36	31667.74
527.56	31788.57
527.77	32087.57
527.97	31960.60
528.17	32149.01
528.38	32259.60
528.58	31929.88
528.78	31956.50
528.99	32241.17
529.19	32648.72
529.39	32257.56
529.60	32484.88
529.80	32355.86
530.00	32472.59
530.21	32892.43
530.41	33474.05
530.61	33168.90
530.82	32949.77
531.02	33232.39
531.22	33064.46
531.43	33091.08
531.63	33500.67
531.83	33652.22
532.04	33926.65
532.24	33365.51
532.44	33791.48
532.64	34229.75
532.85	33936.89
533.05	33752.57
533.25	34090.49
533.46	33820.16
533.66	34354.68
533.86	34319.86
534.07	34823.66
534.27	34475.51
534.47	34760.17
534.67	34784.75
534.88	34788.85
535.08	34801.13
535.28	35284.45
535.49	35284.45
535.69	35180.01
535.89	35444.20
536.09	35280.36
536.30	35456.48
536.50	35411.43
536.70	35825.12
536.91	35671.52
537.11	35669.47
537.31	36220.38
537.51	35982.81
537.72	36216.28
537.92	35876.32
538.12	36459.99
538.32	36068.83
538.53	36459.99
538.73	36357.59
538.93	36109.78
539.13	36185.56
539.34	36521.43
539.54	36453.84
539.74	37137.87
539.94	36976.08
540.15	36632.02
540.35	37170.63
540.55	36961.74
540.75	36847.05
540.96	36894.16
541.16	36722.13
541.36	37252.55
541.56	37412.29
541.77	37408.20
541.97	37469.64
542.17	37164.49
542.37	37500.36
542.58	38020.54
542.78	37660.10
542.98	37879.23
543.18	38073.79
543.38	37955.00
543.59	38225.34
543.79	37733.82
543.99	37891.52
544.19	38057.40
544.40	38172.09
544.60	38421.94
544.80	38266.30
545.00	38473.14
545.20	38630.83
545.41	38221.24
545.61	38497.72
545.81	38927.79
546.01	38753.71
546.21	38729.14
546.42	38577.59
546.62	38985.13
546.82	38573.49
547.02	39091.63
547.22	38827.44
547.43	38960.56
547.63	39052.72
547.83	39220.65
548.03	39294.38
548.23	39069.10
548.44	39409.06
548.64	39499.17
548.84	39540.13
549.04	39339.43
549.24	39595.43
549.45	39640.48
549.65	39515.56
549.85	39749.03
550.05	40355.22
550.25	39820.70
550.45	40981.90
550.66	40242.59
550.86	39597.48
551.06	40308.12
551.26	40519.06
551.46	40263.07
551.66	40402.33
551.87	40410.52
552.07	40828.30
552.27	40453.53
552.47	40625.56
552.67	40895.89
552.87	40994.19
553.07	40424.86
553.28	40641.94
553.48	40793.49
553.68	40598.93
553.88	41366.92
554.08	40834.45
554.28	40693.14
554.48	40369.56
554.69	41446.79
554.89	41092.49
555.09	41108.88
555.29	41176.46
555.49	41606.53
555.69	41213.32
555.89	41375.11
556.10	41385.35
556.30	41426.31
556.50	41506.18
556.70	41305.48
556.90	41870.72
557.10	41950.59
557.30	41682.31
557.50	41778.56
557.70	42046.85
557.91	42249.60
558.11	41915.78
558.31	41983.36
558.51	41895.30
558.71	42120.57
558.91	42147.20
559.11	42145.15
559.31	42186.11
559.51	42046.85
559.72	42395.00
559.92	42313.08
560.12	42534.26
560.32	42024.32
560.52	42212.73
560.72	43007.34
560.92	42796.40
561.12	42743.16
561.32	42874.23
561.52	42814.83
561.72	43046.26
561.93	42808.69
562.13	42911.09
562.33	42663.28
562.53	43267.44
562.73	43427.18
562.93	42972.53
563.13	43451.75
563.33	42980.72
563.53	43410.79
563.73	43267.44
563.93	43236.72
564.13	43359.59
564.33	43285.87
564.53	43418.99
564.74	43650.41
564.94	43314.54
565.14	43599.21
565.34	43363.69
565.54	43873.63
565.74	43588.97
565.94	43910.50
566.14	43955.55
566.34	43795.81
566.54	44109.15
566.74	43851.11
566.94	44311.90
567.14	44307.80
567.34	43699.56
567.54	44057.95
567.74	43617.64
567.94	44291.42
568.14	44103.01
568.34	44313.95
568.54	44250.46
568.74	44483.93
568.94	44184.93
569.14	44651.86
569.34	44416.35
569.54	44922.19
569.75	44158.30
569.95	44674.39
570.15	44864.85
570.35	44561.75
570.55	44959.06
570.75	44526.94
570.95	44541.27
571.15	45008.21
571.35	44983.63
571.55	45362.51
571.75	44684.63
571.95	45346.12
572.15	44774.74
572.35	45282.64
572.55	45073.74
572.75	44989.78
572.95	45159.76
573.15	45147.47
573.35	45591.88
573.55	45196.62
573.75	45638.98
573.95	45604.17
574.15	45401.42
574.35	45595.98
574.55	45632.84
574.75	45352.27
574.95	45970.75
575.15	45327.69
575.34	45563.21
575.54	45634.89
575.74	45772.10
575.94	45913.41
576.14	46060.87
576.34	46040.39
576.54	46269.76
576.74	46052.67
576.94	46052.67
577.14	46249.28
577.34	46505.27
577.54	45763.91
577.74	46556.47
577.94	46366.01
578.14	46105.92
578.34	46703.93
578.54	45929.80
578.74	46609.72
578.94	46599.48
579.14	46644.54
579.34	46716.22
579.54	46542.14
579.74	46826.81
579.94	47072.56
580.13	47023.41
580.33	46806.33
580.53	46755.13
580.73	47060.27
580.93	46589.24
581.13	46943.54
581.33	47138.10
581.53	47500.59
581.73	46927.16
581.93	47250.74
582.13	47215.92
582.33	47469.87
582.53	47355.18
582.73	47367.47
582.92	47627.56
583.12	47928.61
583.32	47465.77
583.52	47084.85
583.72	47756.58
583.92	47457.58
584.12	47588.65
584.32	48246.05
584.52	47752.49
584.72	48153.89
584.92	47953.19
585.11	48055.59
585.31	47758.63
585.51	48545.05
585.71	47852.84
585.91	48213.28
586.11	48446.75
586.31	47961.38
586.51	47916.32
586.71	48000.29
586.91	48678.17
587.10	48227.62
587.30	48026.92
587.50	48336.16
587.70	48477.47
587.90	49034.52
588.10	48645.40
588.30	48485.66
588.50	48876.82
588.69	48745.75
588.89	48803.10
589.09	48790.81
589.29	48874.77
589.49	49075.48
589.69	48598.30
589.89	48528.67
590.08	48749.85
590.28	48551.20
590.48	48895.25
590.68	48934.17
590.88	48674.07
591.08	49116.43
591.28	48911.64
591.47	49476.88
591.67	49546.51
591.87	49573.13
592.07	49141.01
592.27	49468.69
592.47	49374.48
592.67	49521.93
592.86	49374.48
593.06	49548.56
593.26	49407.25
593.46	49509.64
593.66	49634.57
593.86	49822.98
594.05	49337.62
594.25	49728.78
594.45	49820.94
594.65	49562.89
594.85	49751.30
595.05	49845.51
595.24	50283.78
595.44	49788.17
595.64	49939.72
595.84	49876.23
596.04	49888.52
596.23	50279.68
596.43	50431.23
596.63	50140.42
596.83	50115.84
597.03	50603.26
597.22	50703.61
597.42	50353.41
597.62	50724.09
597.82	50644.22
598.02	50345.22
598.21	51203.31
598.41	50511.10
598.61	50300.16
598.81	50394.37
599.01	50722.04
599.20	50615.55
599.40	50531.58
599.60	50904.31
599.80	50830.58
600.00	50914.55
600.19	51315.95
600.39	51057.91
600.59	51086.58
600.79	51082.48
600.98	51131.64
601.18	51692.78
601.38	51479.79
601.58	51586.28
601.78	51584.24
601.97	51469.55
602.17	51846.38
602.37	51805.42
602.57	51535.09
602.76	51852.52
602.96	51932.39
603.16	52051.17
603.36	51840.23
603.55	52188.39
603.75	52051.17
603.95	52030.69
604.15	52120.80
604.34	52118.76
604.54	52341.99
604.74	52116.71
604.94	52491.49
605.13	52618.46
605.33	52675.80
605.53	52100.32
605.73	52798.68
605.92	52735.20
606.12	53488.85
606.32	53247.19
606.52	52737.24
606.71	52757.72
606.91	53116.12
607.11	53023.96
607.30	52802.78
607.50	53062.87
607.70	53437.65
607.90	52856.03
608.09	53179.60
608.29	53007.58
608.49	53458.13
608.68	53163.22
608.88	53662.93
609.08	53439.70
609.28	53597.39
609.47	53343.44
609.67	54009.03
609.87	53787.85
610.06	53642.45
610.26	53359.83
610.46	53871.82
610.66	53404.88
610.85	53548.24
611.05	53511.38
611.25	53697.74
611.44	53595.34
611.64	53955.78
611.84	53234.90
612.03	54068.42
612.23	53843.15
612.43	54293.70
612.62	54000.84
612.82	54355.14
613.02	53986.50
613.21	54113.48
613.41	54047.94
613.61	54555.84
613.80	53636.30
614.00	54072.52
614.20	54015.18
614.39	54033.61
614.59	54496.45
614.79	54029.51
614.98	54301.89
615.18	54334.66
615.38	54355.14
615.57	54109.38
615.77	54766.78
615.97	54392.00
616.16	53867.72
616.36	54490.30
616.56	54258.88
616.75	54566.08
616.95	54226.12
617.15	54377.67
617.34	54699.20
617.54	54650.05
617.74	54711.49
617.93	54277.32
618.13	54043.85
618.32	54365.38
618.52	54101.19
618.72	54351.04
618.91	54516.93
619.11	54441.15
619.31	54617.28
619.50	54531.26
619.70	54168.77
619.90	54588.61
620.09	54490.30
620.29	54754.49
620.48	54432.96
620.68	55137.46
620.88	54125.77
621.07	54572.22
621.27	54596.80
621.46	54131.91
621.66	54650.05
621.86	54672.57
622.05	54154.44
622.25	55014.58
622.44	54631.61
622.64	54322.37
622.84	54348.99
623.03	54361.28
623.23	54590.66
623.42	54330.56
623.62	54750.40
623.82	55006.39
624.01	54850.75
624.21	54555.84
624.40	54760.64
624.60	54539.46
624.80	54367.43
624.99	55164.09
625.19	54375.62
625.38	54699.20
625.58	55018.68
625.77	54875.32
625.97	54858.94
626.17	54295.75
626.36	54584.51
626.56	54770.88
626.75	54148.29
626.95	54983.86
627.14	54795.45
627.34	54973.63
627.54	54408.39
627.73	54482.11
627.93	54727.87
628.12	54523.07
628.32	54772.92
628.51	54623.42
628.71	54691.01
628.90	54695.10
629.10	54498.50
629.30	54664.38
629.49	54723.77
629.69	54842.56
629.88	54805.69
630.08	55104.70
630.27	55272.63
630.47	54850.75
630.66	54826.17
630.86	54654.14
631.05	54611.13
631.25	55436.47
631.44	54523.07
631.64	54879.42
631.84	54789.31
632.03	55467.19
632.23	55080.12
632.42	54903.99
632.62	55037.11
632.81	54662.33
633.01	55014.58
633.20	54955.19
633.40	55125.17
633.59	55147.70
633.79	54394.05
633.98	55110.84
634.18	55338.16
634.37	55317.68
634.57	54973.63
634.76	55268.53
634.96	55033.02
635.15	55137.46
635.35	54805.69
635.54	54693.05
635.74	55291.06
635.93	54766.78
636.13	55108.79
636.32	55092.41
636.52	54752.44
636.71	55391.41
636.91	54965.43
637.10	55418.03
637.30	55076.02
637.49	55237.81
637.69	54787.26
637.88	55315.64
638.08	54817.98
638.27	55067.83
638.46	55334.07
638.66	55180.47
638.85	55231.67
639.05	55084.22
639.24	55159.99
639.44	55030.97
639.63	54817.98
639.83	55291.06
640.02	55135.41
640.22	55153.85
640.41	55096.50
640.61	54828.22
640.80	55180.47
640.99	54779.07
641.19	55454.90
641.38	55071.93
641.58	55055.54
641.77	55020.73
641.97	55127.22
642.16	55061.69
642.36	55190.71
642.55	55153.85
642.74	55203.00
642.94	55393.46
643.13	55057.59
643.33	55325.88
643.52	55391.41
643.72	55598.26
643.91	55293.11
644.10	55303.35
644.30	55594.16
644.49	55133.37
644.69	55518.38
644.88	55180.47
645.08	55012.54
645.27	55510.19
645.46	55030.97
645.66	55301.30
645.85	55305.40
646.05	55415.99
646.24	55827.63
646.43	54924.47
646.63	55596.21
646.82	55248.05
647.02	55188.66
647.21	55299.25
647.40	55338.16
647.60	55350.45
647.79	55749.81
647.99	55473.33
648.18	55354.55
648.37	55991.47
648.57	55688.37
648.76	55620.78
648.96	54848.70
649.15	55702.70
649.34	55909.55
649.54	55717.04
649.73	55399.60
649.92	55970.99
650.12	55880.88
650.31	55606.45
650.51	55442.61
650.70	55809.20
650.89	55688.37
651.09	56337.57
651.28	56251.56
651.47	55784.62
651.67	55874.73
651.86	56104.10
652.06	55760.05
652.25	55774.38
652.44	55784.62
652.64	55592.11
652.83	55452.85
653.02	55588.02
653.22	55571.63
653.41	55747.76
653.60	55940.27
653.80	55540.91
653.99	55522.48
654.18	55700.65
654.38	55667.89
654.57	55620.78
654.76	56071.34
654.96	55280.82
655.15	55620.78
655.34	55690.41
655.54	55352.50
655.73	56054.95
655.92	55934.12
656.12	55884.97
656.31	55631.02
656.50	55506.10
656.70	55893.16
656.89	55456.95
657.08	55915.69
657.28	55919.79
657.47	55686.32
657.66	55692.46
657.86	55569.58
658.05	55735.47
658.24	55768.24
658.43	55522.48
658.63	55817.39
658.82	55878.83
659.01	55960.75
659.21	56286.37
659.40	55866.54
659.59	55397.55
659.79	56202.41
659.98	55975.08
660.17	55862.44
660.36	55948.46
660.56	56181.93
660.75	55479.47
660.94	55952.55
661.14	56052.90
661.33	56048.81
661.52	55651.50
661.71	55936.17
661.91	55553.20
662.10	55575.73
662.29	55760.05
662.49	56399.01
662.68	55991.47
662.87	56194.21
663.06	56186.02
663.26	56073.38
663.45	56372.39
663.64	55651.50
663.83	55944.36
664.03	56128.68
664.22	56073.38
664.41	55968.94
664.60	55958.70
664.80	55891.12
664.99	55872.68
665.18	55710.89
665.37	56181.93
665.57	55985.32
665.76	56083.62
665.95	56153.26
666.14	55809.20
666.34	56042.66
666.53	55803.05
666.72	55891.12
666.91	56165.54
667.11	55880.88
667.30	56005.80
667.49	55846.06
667.68	56431.78
667.87	55821.48
668.07	56235.17
668.26	56044.71
668.45	56100.01
668.64	55637.17
668.84	56546.47
669.03	55876.78
669.22	56439.97
669.41	56200.36
669.60	56300.71
669.80	55948.46
669.99	56224.93
670.18	55921.83
670.37	56229.03
670.57	56300.71
670.76	56069.29
670.95	56220.84
671.14	55921.83
671.33	55819.44
671.53	56861.85
671.72	56177.83
671.91	56685.73
672.10	55702.70
672.29	55786.67
672.48	55803.05
672.68	56368.29
672.87	55954.60
673.06	55833.77
673.25	55977.13
673.44	55784.62
673.64	55749.81
673.83	56255.65
674.02	56431.78
674.21	55964.84
674.40	56714.40
674.59	56067.24
674.79	55858.35
674.98	56224.93
675.17	56521.89
675.36	55768.24
675.55	56454.31
675.74	55801.00
675.94	55973.03
676.13	56083.62
676.32	56458.40
676.51	56243.37
676.70	56054.95
676.89	56229.03
677.08	56644.77
677.28	55866.54
677.47	56591.52
677.66	56161.45
677.85	56009.90
678.04	56630.43
678.23	56573.09
678.42	56018.09
678.62	56196.26
678.81	55993.51
679.00	56269.99
679.19	56358.05
679.38	56343.72
679.57	56190.12
679.76	56106.15
679.96	56399.01
680.15	56525.99
680.34	55975.08
680.53	56108.20
680.72	56423.59
680.91	56276.13
681.10	56196.26
681.29	56018.09
681.48	56122.54
681.68	55985.32
681.87	56079.53
682.06	55940.27
682.25	55778.48
682.44	55686.32
682.63	55938.22
682.82	55870.64
683.01	55747.76
683.20	55753.90
683.39	55645.36
683.59	56239.27
683.78	56188.07
683.97	55995.56
684.16	55952.55
684.35	55592.11
684.54	55688.37
684.73	55841.96
684.92	55784.62
685.11	55809.20
685.30	55827.63
685.49	55770.28
685.69	55794.86
685.88	55817.39
686.07	55815.34
686.26	56028.33
686.45	55905.45
686.64	55792.81
686.83	55565.49
687.02	55628.98
687.21	55612.59
687.40	55729.33
687.59	55530.67
687.78	55708.85
687.97	55743.66
688.16	56087.72
688.35	55661.74
688.54	55471.28
688.74	55665.84
688.93	55520.43
689.12	55237.81
689.31	55876.78
689.50	55403.70
689.69	55405.75
689.88	55045.30
690.07	55770.28
690.26	55471.28
690.45	55694.51
690.64	55231.67
690.83	55065.78
691.02	54903.99
691.21	55217.33
691.40	55690.41
691.59	55649.45
691.78	55041.21
691.97	55370.93
692.16	55510.19
692.35	55528.62
692.54	55710.89
692.73	55260.34
692.92	55063.74
693.11	55080.12
693.30	55080.12
693.49	55274.68
693.68	55084.22
693.87	55028.92
694.06	54699.20
694.25	54924.47
694.44	54807.74
694.63	55452.85
694.82	55000.25
695.01	55190.71
695.20	54791.36
695.39	54541.50
695.58	54893.75
695.77	54779.07
695.96	54604.99
696.15	55041.21
696.34	54836.41
696.53	54852.80
696.72	54983.86
696.91	54711.49
697.10	54813.88
697.29	54590.66
697.48	55041.21
697.67	54211.78
697.86	54426.82
698.05	54209.73
698.24	55039.16
698.43	54490.30
698.62	54545.60
698.81	54156.49
699.00	54850.75
699.19	54037.70
699.38	54320.32
699.57	53822.67
699.76	54961.34
699.95	54000.84
700.14	54228.16
700.32	54205.64
700.51	54392.00
700.70	54174.92
700.89	54222.02
701.08	54119.62
701.27	54019.27
701.46	54047.94
701.65	53953.74
701.84	53814.47
702.03	53937.35
702.22	54160.58
702.41	53963.98
702.60	54078.66
702.79	53794.00
702.98	53361.87
703.17	54283.46
703.35	53415.12
703.54	53802.19
703.73	53810.38
703.92	53462.22
704.11	53646.54
704.30	53384.40
704.49	53697.74
704.68	53656.78
704.87	53609.68
705.06	53165.27
705.25	53490.90
705.43	53335.25
705.62	53427.41
705.81	53480.66
706.00	53298.39
706.19	52810.97
706.38	52927.70
706.57	53251.28
706.76	53005.53
706.95	53236.95
707.14	52931.80
707.32	52909.27
707.51	52645.08
707.70	53114.07
707.89	53138.65
708.08	52919.51
708.27	52524.25
708.46	53279.96
708.65	52776.15
708.84	53179.60
709.02	53380.31
709.21	52819.16
709.40	52509.92
709.59	52778.20
709.78	52217.06
709.97	52972.76
710.16	52409.57
710.34	52434.14
710.53	52843.74
710.72	52278.50
710.91	52690.14
711.10	52485.34
711.29	52614.37
711.48	52247.78
711.66	52503.77
711.85	52155.62
712.04	52524.25
712.23	52335.84
712.42	51967.21
712.61	52147.43
712.80	51836.14
712.98	51580.14
713.17	51711.21
713.36	51782.89
713.55	51690.73
713.74	51731.69
713.93	52075.75
714.11	51492.08
714.30	51502.32
714.49	51733.74
714.68	51643.63
714.87	51846.38
715.06	52024.55
715.24	51594.48
715.43	51352.82
715.62	51131.64
715.81	51363.06
716.00	51160.31
716.18	51029.24
716.37	51295.47
716.56	50816.25
716.75	51358.96
716.94	50865.40
717.12	50691.32
717.31	50730.23
717.50	50752.76
717.69	51242.23
717.88	50771.19
718.06	51133.68
718.25	50865.40
718.44	50498.81
718.63	50541.82
718.82	50566.40
719.00	50468.09
719.19	50769.15
719.38	50246.91
719.57	50255.11
719.76	49739.02
719.94	49845.51
720.13	50068.74
720.32	50279.68
720.51	49693.96
720.69	50265.34
720.88	49992.97
721.07	50208.00
721.26	49718.54
721.44	49659.15
721.63	49960.20
721.82	49397.01
722.01	49360.14
722.20	49411.34
722.38	49245.46
722.57	48780.57
722.76	49450.25
722.95	49153.30
723.13	49120.53
723.32	48653.59
723.51	48368.93
723.70	48594.20
723.88	49022.23
724.07	48903.45
724.26	48862.49
724.44	48231.71
724.63	48917.78
724.82	48719.13
725.01	48391.45
725.19	48944.41
725.38	48495.90
725.57	48370.97
725.76	48559.39
725.94	48436.51
726.13	48327.97
726.32	48035.11
726.51	48139.55
726.69	48749.85
726.88	48774.42
727.07	48473.37
727.25	48272.67
727.44	48317.73
727.63	48477.47
727.82	48104.74
728.00	48018.72
728.19	48096.55
728.38	48418.08
728.56	47691.05
728.75	47983.91
728.94	48131.36
729.12	48438.56
729.31	48106.79
729.50	48330.01
729.69	48405.79
729.87	47951.14
730.06	47951.14
730.25	47856.93
730.43	48026.92
730.62	47613.23
730.81	47953.19
730.99	47666.47
731.18	47482.16
731.37	47904.04
731.55	48239.90
731.74	48119.07
731.93	47691.05
732.11	47985.96
732.30	47889.70
732.49	47656.23
732.67	47576.36
732.86	47727.91
733.05	47801.64
733.23	47398.19
733.42	47854.89
733.61	47635.75
733.79	47674.66
733.98	47668.52
734.17	47500.59
734.35	47527.21
734.54	47516.97
734.73	48123.17
734.91	47439.15
735.10	47275.31
735.29	47756.58
735.47	47068.47
735.66	47283.50
735.84	47514.92
736.03	47220.02
736.22	47672.62
736.40	47428.91
736.59	47516.97
736.78	47193.39
736.96	46888.24
737.15	47297.84
737.33	47293.74
737.52	47654.18
737.71	47338.80
737.89	47252.78
738.08	46961.97
738.27	46847.29
738.45	47248.69
738.64	46933.30
738.82	47064.37
739.01	47418.67
739.20	47072.56
739.38	46738.74
739.57	47220.02
739.75	47013.17
739.94	46804.28
740.13	46888.24
740.31	46552.38
740.50	47039.79
740.68	46980.40
740.87	46511.42
741.06	46867.76
741.24	46542.14
741.43	46804.28
741.61	46409.02
741.80	46187.84
741.99	46306.62
742.17	46556.47
742.36	46595.38
742.54	46331.20
742.73	46316.86
742.91	46732.60
743.10	46257.47
743.29	46710.07
743.47	46832.95
743.66	46386.49
743.84	46482.75
744.03	46349.63
744.21	46343.48
744.40	46159.17
744.59	46030.15
744.77	45905.22
744.96	45854.02
745.14	46144.83
745.33	46380.35
745.51	45772.10
745.70	46255.42
745.88	46048.58
746.07	45808.96
746.26	45948.23
746.44	45747.53
746.63	45823.30
746.81	45413.71
747.00	45208.91
747.18	46011.71
747.37	46021.95
747.55	45524.30
747.74	46138.69
747.92	44993.87
748.11	45425.99
748.29	45591.88
748.48	45442.38
748.66	45292.88
748.85	45825.35
749.03	45552.97
749.22	45884.74
749.41	45686.09
749.59	45600.07
749.78	45464.91
749.96	44948.82
750.15	45487.43
750.33	45471.05
750.52	45102.42
750.70	45337.93
750.89	45088.08
751.07	45469.00
751.26	44805.46
751.44	44897.62
751.63	45059.41
751.81	44731.73
752.00	45143.38
752.18	45206.86
752.37	45014.35
752.55	44766.55
752.74	44604.76
752.92	44795.22
753.10	44369.24
753.29	45137.23
753.47	44952.91
753.66	44782.93
753.84	44979.54
754.03	44721.49
754.21	44287.32
754.40	44871.00
754.58	45102.42
754.77	44834.13
754.95	44369.24
755.14	44571.99
755.32	44758.36
755.51	44365.15
755.69	44442.97
755.88	44275.04
756.06	44793.17
756.24	44176.73
756.43	44189.02
756.61	44350.81
756.80	44094.82
756.98	43986.27
757.17	44313.95
757.35	44000.61
757.54	44281.18
757.72	44461.40
757.90	43933.03
758.09	43908.45
758.27	43808.10
758.46	43939.17
758.64	44033.38
758.83	43830.63
759.01	44066.14
759.19	43834.72
759.38	43734.37
759.56	43808.10
759.75	43955.55
759.93	43597.16
760.12	43660.65
760.30	43621.73
760.48	43914.59
760.67	43568.49
760.85	43973.98
761.04	43595.11
761.22	43548.01
761.40	43480.42
761.59	43459.94
761.77	43466.09
761.96	43525.48
762.14	43261.29
762.32	43337.07
762.51	43066.73
762.69	43332.97
762.88	42939.76
763.06	43629.93
763.24	42966.38
763.43	43494.76
763.61	43240.81
763.80	43081.07
763.98	42990.96
764.16	43070.83
764.35	42694.00
764.53	42550.65
764.72	42806.64
764.90	42857.84
765.08	43240.81
765.27	42904.95
765.45	42415.48
765.63	42429.82
765.82	42640.76
766.00	42661.24
766.18	42296.70
766.37	43015.54
766.55	42466.68
766.74	42259.84
766.92	42110.33
767.10	42069.37
767.29	41977.22
767.47	41858.43
767.65	42458.49
767.84	41944.45
768.02	42489.21
768.20	41778.56
768.39	41837.95
768.57	41989.50
768.75	41948.54
768.94	42009.98
769.12	41825.67
769.30	41647.49
769.49	42042.75
769.67	41604.49
769.85	41416.07
770.04	41876.86
770.22	41321.87
770.40	41719.17
770.59	41454.98
770.77	41563.53
770.95	41475.46
771.14	41088.40
771.32	41180.56
771.50	41332.11
771.69	41172.36
771.87	41647.49
772.05	41219.47
772.24	40859.02
772.42	41497.99
772.60	41244.04
772.78	40854.93
772.97	40664.47
773.15	41508.23
773.33	40926.61
773.52	41145.74
773.70	40877.46
773.88	41475.46
774.07	41117.07
774.25	40744.34
774.43	40983.95
774.61	41121.16
774.80	41446.79
774.98	41061.77
775.16	40834.45
775.34	41151.88
775.53	40693.14
775.71	41264.52
775.89	40947.09
776.08	40756.63
776.26	41262.47
776.44	41133.45
776.62	40826.26
776.81	40676.76
776.99	41090.44
777.17	41250.19
777.35	41362.82
777.54	41129.36
777.72	41231.75
777.90	40934.80
778.08	41352.58
778.27	40908.18
778.45	41534.85
778.63	41211.28
778.81	41393.54
779.00	41608.58
779.18	41553.29
779.36	41921.92
779.54	41235.85
779.73	41497.99
779.91	41889.15
780.09	41799.04
780.27	41604.49
780.46	41168.27
780.64	41866.63
780.82	41430.41
781.00	41379.21
781.19	41598.34
781.37	41969.02
781.55	41866.63
781.73	41848.19
781.91	42063.23
782.10	41971.07
782.28	41852.29
782.46	41923.97
782.64	41956.74
782.82	41618.82
783.01	42331.51
783.19	42200.44
783.37	42372.47
783.55	41534.85
783.74	42104.19
783.92	41852.29
784.10	42280.31
784.28	42102.14
784.46	42003.84
784.64	41952.64
784.83	41940.35
785.01	42112.38
785.19	42065.28
785.37	41567.62
785.55	41909.63
785.74	41921.92
785.92	42028.41
786.10	41907.58
786.28	42038.65
786.46	41584.01
786.64	41620.87
786.83	41764.23
787.01	41805.19
787.19	41643.40
787.37	41667.97
787.55	41631.11
787.74	41704.84
787.92	41352.58
788.10	41010.57
788.28	40920.46
788.46	41639.30
788.64	41035.15
788.82	41577.86
789.01	41500.04
789.19	41145.74
789.37	41051.53
789.55	40762.77
789.73	40469.91
789.91	40768.91
790.09	40947.09
790.28	40576.40
790.46	40727.95
790.64	40498.58
790.82	40676.76
791.00	40938.90
791.18	40340.89
791.36	40189.34
791.55	40519.06
791.73	39736.74
791.91	39851.42
792.09	40062.36
792.27	39820.70
792.45	40340.89
792.63	40088.99
792.81	39787.94
793.00	39835.04
793.18	39712.16
793.36	39744.93
793.54	39527.84
793.72	39089.58
793.90	39368.10
794.08	39245.23
794.26	39142.83
794.44	39011.76
794.62	38903.21
794.81	39208.36
794.99	38684.08
795.17	39347.62
795.35	38610.35
795.53	38782.38
795.71	38727.09
795.89	38106.55
796.07	38565.30
796.25	38297.02
796.43	38430.13
796.61	37852.61
796.80	38147.51
796.98	38094.27
797.16	38016.44
797.34	38194.62
797.52	37590.47
797.70	37895.61
797.88	37797.31
798.06	37137.87
798.24	37447.11
798.42	37506.50
798.60	37311.94
798.78	36978.12
798.96	37080.52
799.14	37139.91
799.32	37348.81
799.51	36599.25
799.69	37162.44
799.87	36974.03
800.05	36404.69
800.23	36799.95
800.41	36533.71
800.59	36511.19
800.77	36146.65
800.95	35800.54
801.13	36052.44
801.31	35935.71
801.49	36138.46
801.67	35626.46
801.85	36025.82
802.03	35464.67
802.21	35409.38
802.39	35560.93
802.57	35405.28
802.75	35702.24
802.93	35571.17
803.11	35143.14
803.29	35501.54
803.47	35016.17
803.65	34893.29
803.83	35315.17
804.01	34909.68
804.19	34600.43
804.37	34444.79
804.55	34569.71
804.73	34434.55
804.91	34373.11
805.09	34504.18
805.27	34326.00
805.45	34407.92
805.63	34483.70
805.81	34305.52
805.99	34465.27
806.17	33920.51
806.35	33900.03
806.53	34080.25
806.71	34115.06
806.89	33707.52
807.07	33787.39
807.25	33969.66
807.43	33285.64
807.61	33824.25
807.79	33625.60
807.97	33402.37
808.15	33369.60
808.33	33158.66
808.51	33216.01
808.69	33218.05
808.87	33052.17
809.05	33052.17
809.23	32847.37
809.41	32685.58
809.59	32583.18
809.77	32914.95
809.95	32505.36
810.13	32615.95
810.31	32527.89
810.49	32372.24
810.67	32323.09
810.84	32407.06
811.02	31835.67
811.20	31741.47
811.38	32192.02
811.56	31680.03
811.74	31929.88
811.92	31604.25
812.10	31933.98
812.28	31839.77
812.46	31589.92
812.64	31561.25
812.82	31362.59
813.00	31667.74
813.18	31456.80
813.36	31311.39
813.53	31168.04
813.71	31303.20
813.89	31278.63
814.07	31051.30
814.25	31385.12
814.43	30856.75
814.61	31045.16
814.79	30844.46
814.97	30731.82
815.15	30783.02
815.33	30619.18
815.50	30592.56
815.68	30740.01
815.86	31065.64
816.04	30709.29
816.22	30117.43
816.40	30551.60
816.58	30264.88
816.76	30195.25
816.94	30512.69
817.11	30228.02
817.29	30076.47
817.47	29888.06
817.65	29865.53
817.83	30250.55
818.01	29611.58
818.19	29552.19
818.37	29830.71
818.54	29380.16
818.72	29468.22
818.90	29570.62
819.08	29632.06
819.26	30066.23
819.44	29785.66
819.62	29525.57
819.80	29552.19
819.97	29845.05
820.15	29263.43
820.33	29068.87
820.51	29417.02
820.69	29023.81
820.87	29242.95
821.05	29214.27
821.22	29259.33
821.40	29093.44
821.58	29005.38
821.76	28683.85
821.94	28487.25
822.12	28778.06
822.29	28608.08
822.47	28522.06
822.65	28597.84
822.83	28352.08
823.01	28730.95
823.19	28534.35
823.36	28425.81
823.54	28517.96
823.72	28266.06
823.90	28194.39
824.08	28192.34
824.25	28182.10
824.43	27731.54
824.61	28001.88
824.79	28223.06
824.97	27971.16
825.15	28175.95
825.32	28038.74
825.50	27864.66
825.68	27827.80
825.86	27854.42
826.04	28077.65
826.21	27666.01
826.39	27291.23
826.57	27610.71
826.75	27524.70
826.93	27606.62
827.10	27283.04
827.28	27379.29
827.46	27510.36
827.64	27319.90
827.81	27043.43
827.99	27278.94
828.17	27047.52
828.35	27233.89
828.53	27371.10
828.70	27414.11
828.88	27063.91
829.06	26961.51
829.24	26904.17
829.41	26920.55
829.59	27041.38
829.77	26678.89
829.95	26695.27
830.12	26637.93
830.30	26938.98
830.48	26746.47
830.66	26986.08
830.84	26758.76
831.01	26584.68
831.19	26664.55
831.37	26629.74
831.55	26740.33
831.72	26861.16
831.90	26705.51
832.08	26310.25
832.25	26488.43
832.43	26302.06
832.61	26328.69
832.79	26400.37
832.96	26207.86
833.14	26424.94
833.32	26226.29
833.50	26408.56
833.67	26236.53
833.85	26037.87
834.03	25667.19
834.20	25874.04
834.38	26162.80
834.56	26263.15
834.74	25611.90
834.91	26009.20
835.09	25953.91
835.27	25683.58
835.44	25347.71
835.62	25316.99
835.80	25411.20
835.98	25818.74
836.15	25681.53
836.33	25386.62
836.51	25673.34
836.68	25239.17
836.86	25198.21
837.04	25753.21
837.21	24921.73
837.39	25521.79
837.57	25200.26
837.75	25392.76
837.92	24764.04
838.10	25446.01
838.28	24886.92
838.45	25122.43
838.63	24942.21
838.81	25124.48
838.98	25022.08
839.16	24856.20
839.34	25249.41
839.51	24870.53
839.69	24585.86
839.87	24628.87
840.04	24729.22
840.22	25083.52
840.40	24907.40
840.57	24508.04
840.75	24790.66
840.93	24368.78
841.10	24571.53
841.28	24940.16
841.46	24630.92
841.63	24456.84
841.81	24516.23
841.98	24520.33
842.16	24649.35
842.34	24544.91
842.51	24530.57
842.69	24505.99
842.87	24086.16
843.04	24448.65
843.22	23983.76
843.40	24333.96
843.57	24227.47
843.75	24256.14
843.92	24196.75
844.10	23994.00
844.28	24155.79
844.45	24045.20
844.63	24399.50
844.81	23705.24
844.98	23991.95
845.16	23916.18
845.33	23934.61
845.51	23907.99
845.69	23815.83
845.86	23625.37
846.04	23596.70
846.21	23574.17
846.39	23674.52
846.57	23594.65
846.74	23553.69
846.92	23484.06
847.09	23559.83
847.27	23352.99
847.45	23697.05
847.62	23463.58
847.80	23791.25
847.97	23256.73
848.15	23512.73
848.32	23223.97
848.50	23451.29
848.68	22994.59
848.85	23164.57
849.03	23010.98
849.20	23248.54
849.38	23338.65
849.56	23266.97
849.73	22961.83
849.91	23226.01
850.08	23383.71
850.26	22615.72
850.43	23049.89
850.61	22978.21
850.78	22806.18
850.96	23045.79
851.14	22654.63
851.31	22974.11
851.49	22818.47
851.66	22984.35
851.84	22750.88
852.01	22736.55
852.19	22791.84
852.36	22535.85
852.54	22777.51
852.71	22486.70
852.89	22351.53
853.07	22802.08
853.24	22365.87
853.42	22501.03
853.59	22347.44
853.77	22433.45
853.94	22498.98
854.12	22630.05
854.29	22126.25
854.47	22384.30
854.64	22435.50
854.82	22156.97
854.99	22032.05
855.17	22261.42
855.34	22185.65
855.52	22027.95
855.69	22447.79
855.87	22189.74
856.04	22247.08
856.22	22001.33
856.39	22017.71
856.57	21950.13
856.74	22156.97
856.92	22025.90
857.09	21636.79
857.27	21710.52
857.44	22005.42
857.62	22103.73
857.79	21792.44
857.97	22077.10
858.14	21907.12
858.32	22054.58
858.49	21540.54
858.67	21843.63
858.84	21464.76
859.02	21612.21
859.19	21380.79
859.37	21483.19
859.54	21522.10
859.72	21784.24
859.89	21776.05
860.06	21393.08
860.24	21589.69
860.41	21976.75
860.59	20967.10
860.76	21685.94
860.94	21280.44
861.11	21325.50
861.29	21196.48
861.46	21372.60
861.64	20766.40
861.81	21262.01
861.98	21063.36
862.16	21225.15
862.33	21210.81
862.51	20987.58
862.68	21264.06
862.86	20874.95
863.03	20922.05
863.21	20920.00
863.38	20960.96
863.55	20793.03
863.73	20737.73
863.90	20780.74
864.08	20924.10
864.25	20655.81
864.43	20745.92
864.60	20799.17
864.77	20502.22
864.95	20516.55
865.12	20633.29
865.30	20872.90
865.47	20735.68
865.64	20629.19
865.82	20764.36
865.99	20950.72
866.17	20289.23
866.34	20727.49
866.51	20422.34
866.69	20780.74
866.86	20491.98
867.04	20604.61
867.21	20516.55
867.38	20475.59
867.56	20381.38
867.73	19810.00
867.91	20098.77
868.08	20010.70
868.25	20117.20
868.43	20156.11
868.60	19996.37
868.78	20158.16
868.95	20203.21
869.12	20231.88
869.30	20012.75
869.47	19922.64
869.64	19764.95
869.82	19846.87
869.99	19891.92
870.16	19855.06
870.34	19742.42
870.51	19977.94
870.69	19637.97
870.86	19695.32
871.03	19578.58
871.21	19629.78
871.38	19863.25
871.55	19723.99
871.73	19281.63
871.90	19189.47
872.07	19402.46
872.25	19414.74
872.42	19300.06
872.59	19121.88
872.77	19187.42
872.94	19412.70
873.11	18943.71
873.29	19156.70
873.46	18845.41
873.63	19240.67
873.81	19146.46
873.98	18919.14
874.15	19097.31
874.33	18945.76
874.50	19107.55
874.67	19050.21
874.85	19054.30
875.02	18919.14
875.19	18710.24
875.37	18743.01
875.54	18603.75
875.71	18810.59
875.88	18550.50
876.06	18712.29
876.23	18620.13
876.40	18296.55
876.58	18792.16
876.75	18622.18
876.92	18343.66
877.10	18427.62
877.27	18302.70
877.44	18423.53
877.61	18183.91
877.79	18114.28
877.96	18327.27
878.13	18032.36
878.31	18102.00
878.48	18075.37
878.65	18030.32
878.82	17979.12
879.00	17991.41
879.17	18130.67
879.34	17915.63
879.51	17729.27
879.69	17741.55
879.86	17739.51
880.03	17780.46
880.21	17665.78
880.38	17876.72
880.55	17479.41
880.72	17567.48
880.90	17755.89
881.07	17596.15
881.24	17796.85
881.41	17585.91
881.59	17727.22
881.76	17434.36
881.93	17428.21
882.10	17565.43
882.28	17221.37
882.45	17256.18
882.62	17307.38
882.79	17532.66
882.96	17245.94
883.14	17291.00
883.31	17352.44
883.48	17299.19
883.65	17278.71
883.83	17217.27
884.00	17110.78
884.17	17329.91
884.34	17364.73
884.51	17268.47
884.69	17215.23
884.86	17127.16
885.03	17104.64
885.20	16852.73
885.38	17010.43
885.55	16916.22
885.72	17080.06
885.89	17082.11
886.06	16731.90
886.24	16795.39
886.41	16862.97
886.58	16965.37
886.75	17049.34
886.92	16830.21
887.10	16813.82
887.27	16736.00
887.44	16844.54
887.61	16830.21
887.78	16832.26
887.95	16897.79
888.13	16570.12
888.30	16480.00
888.47	16566.02
888.64	16586.50
888.81	16631.55
888.99	16275.21
889.16	16289.54
889.33	16357.13
889.50	16271.11
889.67	16297.74
889.84	16109.32
890.01	16432.90
890.19	16303.88
890.36	16305.93
890.53	16195.34
890.70	15826.70
890.87	16172.81
891.04	16242.44
891.22	16135.95
891.39	16209.67
891.56	16004.88
891.73	15957.77
891.90	16074.51
892.07	15822.61
892.24	16408.33
892.42	15836.94
892.59	16027.40
892.76	15892.24
892.93	15601.43
893.10	15873.81
893.27	15947.53
893.44	15744.78
893.61	15675.15
893.79	15986.44
893.96	15867.66
894.13	15707.92
894.30	15945.48
894.47	15591.19
894.64	16101.13
894.81	15636.24
894.98	15669.01
895.15	15882.00
895.33	15562.51
895.50	15767.31
895.67	15703.82
895.84	15542.03
896.01	15732.50
896.18	15425.30
896.35	15699.73
896.52	15542.03
896.69	15613.71
896.86	15542.03
897.04	15628.05
897.21	15560.47
897.38	15720.21
897.55	15531.80
897.72	15621.91
897.89	15505.17
898.06	15521.56
898.23	15509.27
898.40	15550.23
898.57	15660.82
898.74	15709.97
898.91	15539.99
899.08	15413.01
899.26	15488.79
899.43	15568.66
899.60	15318.81
899.77	15515.41
899.94	15484.69
900.11	15415.06
900.28	15408.92
900.45	15400.72
900.62	15413.01
900.79	15390.49
900.96	15509.27
901.13	15615.76
901.30	15208.22
901.47	15273.75
901.64	15286.04
901.81	15560.47
901.98	15228.70
902.15	15470.36
902.32	15163.16
902.49	15257.37
902.66	15535.89
902.83	15077.15
903.01	15310.61
903.18	15515.41
903.35	15593.23
903.52	15449.88
903.69	15734.54
903.86	15812.37
904.03	15437.59
904.20	15384.34
904.37	15609.62
904.54	15333.14
904.71	15505.17
904.88	15390.49
905.05	15404.82
905.22	15484.69
905.39	15206.17
905.56	15380.25
905.73	15107.87
905.90	15421.20
906.07	15357.72
906.24	15476.50
906.41	15105.82
906.58	15374.10
906.75	15531.80
906.92	15105.82
907.09	15468.31
907.26	15492.88
907.43	15079.19
907.60	15255.32
907.77	15333.14
907.93	15007.52
908.10	15316.76
908.27	15439.64
908.44	15146.78
908.61	15257.37
908.78	15085.34
908.95	15208.22
909.12	15142.68
909.29	15372.05
909.46	15247.13
909.63	15105.82
909.80	15068.95
909.97	15249.18
910.14	15107.87
910.31	15234.84
910.48	15066.91
910.65	15032.09
910.82	14972.70
910.99	15081.24
911.16	15167.26
911.33	14864.16
911.50	15032.09
911.66	14769.95
911.83	15083.29
912.00	14642.98
912.17	14638.88
912.34	14569.25
912.51	14919.45
912.68	14837.53
912.85	14659.36
913.02	14989.08
913.19	14645.02
913.36	14733.09
913.53	14675.74
913.70	14722.85
913.86	14743.33
914.03	14798.62
914.20	14401.32
914.37	14614.30
914.54	14446.37
914.71	14679.84
914.88	14288.68
915.05	14362.40
915.22	14264.10
915.39	14483.24
915.55	14235.43
915.72	14004.01
915.89	14300.97
916.06	14298.92
916.23	14317.35
916.40	14290.73
916.57	14126.89
916.74	14106.41
916.91	13856.56
917.07	14034.73
917.24	13920.04
917.41	14133.03
917.58	14044.97
917.75	13791.02
917.92	13848.36
918.09	13770.54
918.26	13942.57
918.42	13971.24
918.59	13893.42
918.76	13633.33
918.93	13375.28
919.10	13487.92
919.27	13547.31
919.44	13551.41
919.60	13518.64
919.77	13395.76
919.94	13367.09
920.11	13418.29
920.28	13561.65
920.45	13334.32
920.61	13125.43
920.78	13047.61
920.95	13211.45
921.12	13098.81
921.29	12932.92
921.46	12900.16
921.62	12863.29
921.79	13098.81
921.96	12721.98
922.13	12767.04
922.30	12814.14
922.47	12791.61
922.63	12476.23
922.80	12603.20
922.97	12660.54
923.14	12369.73
923.31	12625.73
923.47	12369.73
923.64	12740.41
923.81	12382.02
923.98	12478.27
924.15	12050.25
924.32	12273.48
924.48	12242.76
924.65	12289.86
924.82	12298.05
924.99	12011.34
925.15	11976.52
925.32	11933.51
925.49	11876.17
925.66	11706.19
925.83	11673.42
925.99	11558.74
926.16	12013.38
926.33	11800.40
926.50	11312.98
926.67	11698.00
926.83	11521.87
927.00	11521.87
927.17	11499.34
927.34	11347.79
927.50	11544.40
927.67	11556.69
927.84	11417.43
928.01	11186.01
928.17	11198.29
928.34	11263.83
928.51	10960.73
928.68	11052.89
928.84	11046.74
929.01	10835.80
929.18	11036.50
929.35	10823.51
929.51	10944.34
929.68	10710.88
929.85	10667.87
930.02	10807.13
930.18	10674.01
930.35	10653.53
930.52	10485.60
930.69	10512.22
930.85	10475.36
931.02	10305.38
931.19	10420.06
931.36	10354.53
931.52	10428.26
931.69	10276.71
931.86	10147.69
932.02	10155.88
932.19	10053.48
932.36	9916.26
932.53	10016.62
932.69	9908.07
932.86	10094.44
933.03	9754.48
933.19	9711.47
933.36	9889.64
933.53	9738.09
933.70	9561.97
933.86	9643.88
934.03	9736.04
934.20	9416.56
934.36	9715.56
934.53	9467.76
934.70	9217.91
934.86	9338.74
935.03	9219.96
935.20	9111.41
935.36	9095.03
935.53	9125.75
935.70	9047.93
935.86	8908.66
936.03	8744.83
936.20	8529.79
936.36	8630.14
936.53	8476.54
936.70	8396.67
936.86	8435.58
937.03	8386.43
937.20	8310.66
937.36	8531.84
937.53	8042.37
937.70	8062.85
937.86	7888.78
938.03	7907.21
938.20	8093.57
938.36	7618.44
938.53	7722.89
938.70	7473.04
938.86	7466.89
939.03	7348.11
939.20	7149.46
939.36	7247.76
939.53	7337.87
939.70	7387.02
939.86	6911.89
940.03	6965.14
940.19	6825.88
940.36	6801.30
940.53	6805.40
940.69	6647.71
940.86	6696.86
941.03	6475.68
941.19	6297.50
941.36	6510.49
941.52	6473.63
941.69	6234.02
941.86	6303.65
942.02	6180.77
942.19	6121.38
942.35	6152.10
942.52	5902.25
942.69	5941.16
942.85	5916.58
943.02	5771.18
943.18	5834.66
943.35	5771.18
943.52	5615.53
943.68	5701.54
943.85	5676.97
944.01	5672.87
944.18	5599.15
944.35	5707.69
944.51	5560.24
944.68	5484.46
944.84	5398.45
945.01	5476.27
945.17	5468.08
945.34	5437.36
945.51	5400.49
945.67	5375.92
945.84	5408.69
946.00	5248.94
946.17	5408.69
946.33	5402.54
946.50	5433.26
946.67	5238.70
946.83	5259.18
947.00	5316.53
947.16	5302.19
947.33	5107.63
947.49	5271.47
947.66	5128.11
947.82	5324.72
947.99	5269.42
948.16	5306.29
948.32	5199.79
948.49	5388.21
948.65	5253.04
948.82	5236.66
948.98	5259.18
949.15	5275.57
949.31	5398.45
949.48	5265.33
949.64	5289.90
949.81	5236.66
949.97	5203.89
950.14	5312.43
950.30	5308.34
950.47	5250.99
950.63	5250.99
950.80	5334.96
950.96	5150.64
951.13	5253.04
951.30	5349.29
951.46	5177.26
951.63	5423.02
951.79	5312.43
951.96	5463.98
952.12	5334.96
952.29	5423.02
952.45	5279.66
952.62	5271.47
952.78	5388.21
952.94	5410.73
953.11	5373.87
953.27	5263.28
953.44	5529.52
953.60	5343.15
953.77	5382.06
953.93	5375.92
954.10	5294.00
954.26	5453.74
954.43	5326.77
954.59	5412.78
954.76	5494.70
954.92	5410.73
955.09	5398.45
955.25	5332.91
955.42	5334.96
955.58	5531.56
955.75	5629.87
955.91	5224.37
956.07	5396.40
956.24	5371.82
956.40	5423.02
956.57	5461.93
956.73	5343.15
956.90	5382.06
957.06	5398.45
957.23	5382.06
957.39	5410.73
957.56	5529.52
957.72	5179.31
957.88	5320.62
958.05	5371.82
958.21	5488.56
958.38	5472.17
958.54	5445.55
958.71	5578.67
958.87	5455.79
959.03	5298.10
959.20	5502.89
959.36	5519.28
959.53	5574.57
959.69	5431.21
959.85	5533.61
960.02	5429.17
960.18	5412.78
960.35	5427.12
960.51	5476.27
960.68	5429.17
960.84	5353.39
961.00	5300.14
961.17	5396.40
961.33	5420.97
961.50	5357.49
961.66	5400.49
961.82	5279.66
961.99	5410.73
962.15	5345.20
962.31	5291.95
962.48	5326.77
962.64	5447.60
962.81	5449.64
962.97	5244.85
963.13	5328.81
963.30	5332.91
963.46	5310.38
963.62	5369.77
963.79	5386.16
963.95	5248.94
964.12	5197.74
964.28	5334.96
964.44	5294.00
964.61	5334.96
964.77	5447.60
964.93	5447.60
965.10	5312.43
965.26	5218.22
965.42	5328.81
965.59	5238.70
965.75	5238.70
965.92	5259.18
966.08	5271.47
966.24	5261.23
966.41	5384.11
966.57	5359.53
966.73	5187.50
966.90	5214.13
967.06	5130.16
967.22	5119.92
967.39	5130.16
967.55	5066.67
967.71	5220.27
967.88	5179.31
968.04	5203.89
968.20	5124.02
968.37	5066.67
968.53	5179.31
968.69	5226.42
968.85	5201.84
969.02	5117.87
969.18	5193.65
969.34	5087.15
969.51	5160.88
969.67	5191.60
969.83	5035.96
970.00	5150.64
970.16	5003.19
970.32	5203.89
970.48	5173.17
970.65	4937.65
970.81	4978.61
970.97	4919.22
971.14	5001.14
971.30	5074.87
971.46	4890.55
971.63	4974.52
971.79	5017.52
971.95	4995.00
972.11	4835.25
972.28	4935.60
972.44	5058.48
972.60	4913.08
972.76	4939.70
972.93	4900.79
973.09	4837.30
973.25	4859.83
973.42	4794.29
973.58	4947.89
973.74	4847.54
973.90	4722.62
974.07	4911.03
974.23	4792.25
974.39	4802.49
974.55	4759.48
974.72	4947.89
974.88	4739.00
975.04	4804.53
975.20	4734.90
975.37	4794.29
975.53	4804.53
975.69	4769.72
975.85	4689.85
976.01	4644.79
976.18	4573.11
976.34	4720.57
976.50	4624.31
976.66	4749.24
976.83	4673.46
976.99	4620.22
977.15	4724.66
977.31	4501.44
977.47	4644.79
977.64	4724.66
977.80	4591.55
977.96	4569.02
978.12	4620.22
978.29	4440.00
978.45	4347.84
978.61	4499.39
978.77	4571.07
978.93	4538.30
979.10	4501.44
979.26	4542.39
979.42	4560.83
979.58	4274.11
979.74	4530.11
979.91	4431.80
980.07	4407.23
980.23	4491.20
980.39	4368.32
980.55	4489.15
980.71	4362.17
980.88	4401.08
981.04	4349.89
981.20	4376.51
981.36	4251.58
981.52	4288.45
981.68	4386.75
981.85	4431.80
982.01	4331.45
982.17	4212.67
982.33	4206.53
982.49	4405.18
982.65	4184.00
982.82	4300.73
982.98	4267.97
983.14	4222.91
983.30	4308.93
983.46	4212.67
983.62	4325.31
983.79	4214.72
983.95	4218.82
984.11	4054.98
984.27	4181.95
984.43	4081.60
984.59	4120.51
984.75	4147.14
984.91	4097.99
985.08	4100.03
985.24	4044.74
985.40	4181.95
985.56	4136.90
985.72	4167.62
985.88	4118.47
986.04	4009.92
986.20	4014.02
986.37	4163.52
986.53	3874.76
986.69	4130.75
986.85	4001.73
987.01	4120.51
987.17	4114.37
987.33	3909.57
987.49	3821.51
987.65	4026.31
987.82	3839.94
987.98	3905.48
988.14	3915.72
988.30	3997.64
988.46	3782.60
988.62	3968.96
988.78	3889.09
988.94	3858.37
989.10	3774.41
989.26	3807.17
989.42	3780.55
989.59	3770.31
989.75	3792.84
989.91	3848.13
990.07	3717.06
990.23	3694.54
990.39	3911.62
990.55	3805.13
990.71	3749.83
990.87	3731.40
991.03	3723.21
991.19	3647.43
991.35	3768.26
991.51	3712.97
991.67	3674.06
991.83	3833.80
992.00	3631.05
992.16	3809.22
992.32	3749.83
992.48	3674.06
992.64	3583.95
992.80	3661.77
992.96	3624.90
993.12	3647.43
993.28	3723.21
993.44	3622.86
993.60	3667.91
993.76	3715.02
993.92	3633.10
994.08	3774.41
994.24	3633.10
994.40	3661.77
994.56	3579.85
994.72	3512.27
994.88	3502.03
995.04	3459.02
995.20	3542.99
995.36	3418.06
995.52	3366.86
995.68	3545.03
995.84	3442.64
996.00	3579.85
996.16	3499.98
996.32	3311.57
996.48	3452.88
996.64	3524.55
996.80	3475.40
996.96	3485.64
997.12	3436.49
997.28	3456.97
997.44	3358.67
997.60	3321.81
997.76	3321.81
997.92	3420.11
998.08	3409.87
998.24	3344.33
998.40	3436.49
998.56	3469.26
998.72	3262.41
998.88	3295.18
999.04	3284.94
999.20	3313.61
999.36	3246.03
999.52	3315.66
999.68	3317.71
999.84	3330.00
1000.00	3295.18
1000.16	3352.52
1000.32	3270.61
1000.48	3311.57
1000.64	3200.98
1000.80	3192.78
1000.95	3080.14
1001.11	3182.54
1001.27	3104.72
1001.43	3215.31
1001.59	3094.48
1001.75	3088.34
1001.91	3231.69
1002.07	3141.58
1002.23	3117.01
1002.39	3139.54
1002.55	3127.25
1002.71	3155.92
1002.87	3215.31
1003.03	3067.86
1003.19	3059.67
1003.34	3147.73
1003.50	3155.92
1003.66	3063.76
1003.82	3157.97
1003.98	2983.89
1004.14	3055.57
1004.30	2977.75
1004.46	3067.86
1004.62	3059.67
1004.78	3022.80
1004.94	3002.32
1005.09	2959.31
1005.25	3084.24
1005.41	2959.31
1005.57	3016.66
1005.73	2869.20
1005.89	2830.29
1006.05	3004.37
1006.21	2908.12
1006.37	2887.64
1006.52	2871.25
1006.68	2891.73
1006.84	3022.80
1007.00	2820.05
1007.16	2910.16
1007.32	2891.73
1007.48	2910.16
1007.64	2985.94
1007.79	2826.20
1007.95	2777.05
1008.11	2918.36
1008.27	2865.11
1008.43	2867.16
1008.59	2789.33
1008.75	2873.30
1008.91	2805.72
1009.06	2740.18
1009.22	2824.15
1009.38	2811.86
1009.54	2801.62
1009.70	2772.95
1009.86	2867.16
1010.01	2801.62
1010.17	2725.85
1010.33	2758.61
1010.49	2709.46
1010.65	2787.29
1010.81	2635.74
1010.96	2674.65
1011.12	2729.94
1011.28	2611.16
1011.44	2686.94
1011.60	2596.82
1011.76	2736.09
1011.91	2672.60
1012.07	2650.07
1012.23	2664.41
1012.39	2617.30
1012.55	2648.02
1012.71	2516.95
1012.86	2562.01
1013.02	2697.17
1013.18	2695.13
1013.34	2688.98
1013.50	2648.02
1013.65	2590.68
1013.81	2580.44
1013.97	2576.34
1014.13	2598.87
1014.29	2600.92
1014.44	2525.15
1014.60	2613.21
1014.76	2562.01
1014.92	2584.54
1015.07	2562.01
1015.23	2568.15
1015.39	2418.65
1015.55	2549.72
1015.71	2590.68
1015.86	2402.27
1016.02	2543.58
1016.18	2394.08
1016.34	2682.84
1016.49	2574.30
1016.65	2619.35
1016.81	2461.66
1016.97	2469.85
1017.12	2551.77
1017.28	2396.12
1017.44	2416.60
1017.60	2414.56
1017.75	2510.81
1017.91	2467.80
1018.07	2467.80
1018.23	2484.19
1018.38	2467.80
1018.54	2475.99
1018.70	2441.18
1018.86	2402.27
1019.01	2285.53
1019.17	2383.84
1019.33	2437.08
1019.49	2478.04
1019.64	2461.66
1019.80	2445.27
1019.96	2328.54
1020.12	2373.60
1020.27	2295.77
1020.43	2353.12
1020.59	2473.95
1020.74	2355.16
1020.90	2426.84
1021.06	2338.78
1021.22	2371.55
1021.37	2314.20
1021.53	2326.49
1021.69	2289.63
1021.84	2228.19
1022.00	2293.72
1022.16	2232.29
1022.31	2232.29
1022.47	2322.40
1022.63	2379.74
1022.79	2191.33
1022.94	2293.72
1023.10	2410.46
1023.26	2222.05
1023.41	2265.05
1023.57	2279.39
1023.73	2213.85
1023.88	2326.49
1024.04	2279.39
1024.20	2215.90
1024.35	2246.62
1024.51	2295.77
1024.67	2234.33
1024.82	2396.12
1024.98	2131.94
1025.14	2207.71
1025.29	2228.19
1025.45	2367.45
1025.61	2179.04
1025.76	2133.98
1025.92	2150.37
1026.08	2277.34
1026.23	2228.19
1026.39	2125.79
1026.55	2154.46
1026.70	2123.74
1026.86	2166.75
1027.02	2230.24
1027.17	2224.09
1027.33	2258.91
1027.48	2090.98
1027.64	2189.28
1027.80	2080.74
1027.95	2115.55
1028.11	1925.09
1028.27	2156.51
1028.42	2191.33
1028.58	2035.68
1028.73	2047.97
1028.89	2101.22
1029.05	2201.57
1029.20	2146.27
>>>>>End Processed Spectral Data<<<<<
