SpectraSuite Data File
++++++++++++++++++++++++++++++++++++
Date: Fri Jun 02 14:48:01 CEST 2017
User: INFO_000
Dark Spectrum Present: No
Reference Spectrum Present: No
Number of Sampled Component Spectra: 1
Spectrometers: USB4H00879
Integration Time (usec): 80000 (USB4H00879)
Spectra Averaged: 1 (USB4H00879)
Boxcar Smoothing: 0 (USB4H00879)
Correct for Electrical Dark: No (USB4H00879)
Strobe/Lamp Enabled: No (USB4H00879)
Correct for Detector Non-linearity: No (USB4H00879)
Correct for Stray Light: No (USB4H00879)
Number of Pixels in Processed Spectrum: 3648
>>>>>Begin Processed Spectral Data<<<<<
345.13	1304.56
345.34	1304.56
345.56	1304.56
345.78	1304.56
345.99	1275.88
346.21	1699.81
346.42	1701.86
346.64	1640.42
346.86	1830.88
347.07	1638.38
347.29	1687.53
347.50	1626.09
347.72	1746.92
347.94	1714.15
348.15	1529.83
348.37	1632.23
348.59	1703.91
348.80	1689.57
349.02	1708.01
349.23	1904.61
349.45	1869.80
349.67	1857.51
349.88	1843.17
350.10	1945.57
350.31	1877.99
350.53	1814.50
350.75	1974.24
350.96	1722.34
351.18	1787.88
351.39	1863.65
351.61	1755.11
351.82	1925.09
352.04	1912.80
352.26	1822.69
352.47	1918.95
352.69	1910.75
352.90	1820.64
353.12	1863.65
353.34	1820.64
353.55	1961.95
353.77	1853.41
353.98	1839.08
354.20	1773.54
354.41	1929.19
354.63	1959.91
354.85	2002.91
355.06	2000.87
355.28	1796.07
355.49	1877.99
355.71	1814.50
355.92	1830.88
356.14	1986.53
356.35	1841.12
356.57	1877.99
356.79	1992.67
357.00	1941.47
357.22	1894.37
357.43	1882.08
357.65	1933.28
357.86	1808.36
358.08	1951.71
358.29	1992.67
358.51	1978.34
358.72	1945.57
358.94	1880.04
359.16	1912.80
359.37	1959.91
359.59	1882.08
359.80	1994.72
360.02	1951.71
360.23	1888.23
360.45	2009.06
360.66	1970.15
360.88	1867.75
361.09	1906.66
361.31	1966.05
361.52	1929.19
361.74	2099.17
361.95	2064.35
362.17	2000.87
362.38	2068.45
362.60	2101.22
362.81	1966.05
363.03	1998.82
363.24	2023.39
363.46	2107.36
363.67	2109.41
363.89	1945.57
364.10	1970.15
364.32	2015.20
364.53	2074.59
364.75	2007.01
364.96	2002.91
365.18	2023.39
365.39	2027.49
365.61	2007.01
365.82	2086.88
366.04	1990.63
366.25	1912.80
366.47	2076.64
366.68	1996.77
366.90	1951.71
367.11	2133.98
367.33	2064.35
367.54	2146.27
367.76	2045.92
367.97	2060.26
368.19	2107.36
368.40	2052.06
368.62	2002.91
368.83	2050.02
369.05	2058.21
369.26	2023.39
369.48	1931.23
369.69	1929.19
369.91	2142.18
370.12	2009.06
370.33	2152.42
370.55	2019.30
370.76	2025.44
370.98	2222.05
371.19	2090.98
371.41	2074.59
371.62	2009.06
371.84	2000.87
372.05	2228.19
372.27	2045.92
372.48	2064.35
372.69	2052.06
372.91	2146.27
373.12	2189.28
373.34	2117.60
373.55	2136.03
373.77	2226.14
373.98	2099.17
374.20	2150.37
374.41	2117.60
374.62	2209.76
374.84	2240.48
375.05	2211.81
375.27	2193.37
375.48	2195.42
375.70	2125.79
375.91	2125.79
376.12	2359.26
376.34	2140.13
376.55	2297.82
376.77	2230.24
376.98	2123.74
377.19	2203.61
377.41	2174.94
377.62	2271.20
377.84	2176.99
378.05	2273.25
378.27	2213.85
378.48	2303.96
378.69	2412.51
378.91	2222.05
379.12	2289.63
379.34	2232.29
379.55	2308.06
379.76	2269.15
379.98	2220.00
380.19	2248.67
380.41	2244.57
380.62	2303.96
380.83	2322.40
381.05	2199.52
381.26	2301.92
381.47	2248.67
381.69	2344.92
381.90	2406.36
382.12	2314.20
382.33	2392.03
382.54	2287.58
382.76	2314.20
382.97	2236.38
383.19	2306.01
383.40	2435.03
383.61	2357.21
383.83	2244.57
384.04	2342.88
384.25	2275.29
384.47	2453.47
384.68	2432.99
384.89	2295.77
385.11	2383.84
385.32	2412.51
385.54	2420.70
385.75	2414.56
385.96	2379.74
386.18	2482.14
386.39	2453.47
386.60	2351.07
386.82	2420.70
387.03	2439.13
387.24	2545.63
387.46	2457.56
387.67	2514.91
387.88	2516.95
388.10	2453.47
388.31	2543.58
388.52	2525.15
388.74	2551.77
388.95	2609.11
389.16	2516.95
389.38	2488.28
389.59	2674.65
389.80	2676.70
390.02	2514.91
390.23	2666.46
390.44	2539.48
390.66	2633.69
390.87	2424.80
391.08	2631.64
391.30	2756.57
391.51	2682.84
391.72	2713.56
391.94	2719.70
392.15	2674.65
392.36	2697.17
392.58	2539.48
392.79	2645.98
393.00	2701.27
393.22	2779.09
393.43	2861.01
393.64	2756.57
393.85	2811.86
394.07	2713.56
394.28	2727.89
394.49	2695.13
394.71	2809.81
394.92	2904.02
395.13	2826.20
395.35	2762.71
395.56	2787.29
395.77	2899.92
395.98	2818.00
396.20	2912.21
396.41	2811.86
396.62	2973.65
396.84	2908.12
397.05	2836.44
397.26	2858.96
397.47	3010.51
397.69	2830.29
397.90	3022.80
398.11	2967.51
398.32	2918.36
398.54	2918.36
398.75	2934.74
398.96	2940.88
399.18	3047.38
399.39	2979.79
399.60	3082.19
399.81	2944.98
400.03	2971.60
400.24	3303.37
400.45	3084.24
400.66	3084.24
400.88	3110.86
401.09	3246.03
401.30	3067.86
401.51	3184.59
401.73	3194.83
401.94	3196.88
402.15	3250.13
402.36	3180.50
402.58	3215.31
402.79	3370.96
403.00	3164.11
403.21	3229.65
403.43	3274.70
403.64	3426.25
403.85	3108.82
404.06	3334.09
404.27	3215.31
404.49	3221.45
404.70	3108.82
404.91	3373.00
405.12	3260.37
405.34	3203.02
405.55	3561.42
405.76	3295.18
405.97	3270.61
406.19	3502.03
406.40	3340.24
406.61	3379.15
406.82	3407.82
407.03	3356.62
407.25	3327.95
407.46	3499.98
407.67	3393.48
407.88	3540.94
408.09	3518.41
408.31	3407.82
408.52	3397.58
408.73	3497.93
408.94	3485.64
409.15	3467.21
409.37	3719.11
409.58	3534.79
409.79	3590.09
410.00	3610.57
410.21	3424.20
410.43	3606.47
410.64	3563.47
410.85	3651.53
411.06	3581.90
411.27	3674.06
411.48	3631.05
411.70	3600.33
411.91	3616.71
412.12	3653.58
412.33	3633.10
412.54	3688.39
412.76	3733.45
412.97	3792.84
413.18	3633.10
413.39	3649.48
413.60	3680.20
413.81	3821.51
414.03	3694.54
414.24	3729.35
414.45	3868.61
414.66	3663.82
414.87	3784.65
415.08	3758.02
415.30	3852.23
415.51	3829.70
415.72	3782.60
415.93	3858.37
416.14	3798.98
416.35	4005.83
416.56	3885.00
416.78	3860.42
416.99	3899.33
417.20	4001.73
417.41	3979.20
417.62	3960.77
417.83	3942.34
418.04	3936.20
418.26	3993.54
418.47	3895.24
418.68	4022.21
418.89	4128.70
419.10	4190.14
419.31	4138.94
419.52	4157.38
419.73	4179.90
419.95	4304.83
420.16	4034.50
420.37	4145.09
420.58	4190.14
420.79	4077.51
421.00	4165.57
421.21	4298.69
421.42	4059.07
421.63	4202.43
421.85	4204.48
422.06	4372.41
422.27	4298.69
422.48	4282.30
422.69	4356.03
422.90	4329.41
423.11	4261.82
423.32	4497.34
423.53	4583.35
423.75	4442.04
423.96	4591.55
424.17	4454.33
424.38	4560.83
424.59	4554.68
424.80	4521.92
425.01	4511.68
425.22	4472.76
425.43	4552.63
425.64	4755.38
425.85	4577.21
426.06	4722.62
426.28	4646.84
426.49	4683.70
426.70	4669.37
426.91	4669.37
427.12	4730.81
427.33	4689.85
427.54	4757.43
427.75	4990.90
427.96	4986.80
428.17	4894.65
428.38	4966.32
428.59	5044.15
428.80	4865.97
429.01	5007.28
429.23	4935.60
429.44	5101.49
429.65	5107.63
429.86	5093.30
430.07	5064.63
430.28	4796.34
430.49	5058.48
430.70	5013.43
430.91	5222.32
431.12	5201.84
431.33	5222.32
431.54	5230.51
431.75	5199.79
431.96	5273.52
432.17	5152.69
432.38	5212.08
432.59	5445.55
432.80	5382.06
433.01	5353.39
433.22	5451.69
433.43	5394.35
433.64	5560.24
433.85	5334.96
434.06	5545.90
434.27	5437.36
434.49	5459.88
434.70	5625.77
434.91	5674.92
435.12	5543.85
435.33	5586.86
435.54	5646.25
435.75	5332.91
435.96	5590.95
436.17	5500.84
436.38	5775.27
436.59	5695.40
436.80	5715.88
437.01	5988.26
437.22	5855.14
437.43	5851.05
437.64	5672.87
437.85	5930.92
438.06	5869.48
438.27	5762.98
438.48	5898.15
438.69	5930.92
438.90	5892.01
439.11	5773.22
439.32	6096.80
439.53	6059.94
439.74	6074.28
439.95	5951.40
440.16	6012.84
440.37	6100.90
440.57	6002.60
440.78	6096.80
440.99	6143.91
441.20	6295.46
441.41	6096.80
441.62	6213.54
441.83	5988.26
442.04	6182.82
442.25	6311.84
442.46	6260.64
442.67	6262.69
442.88	6645.66
443.09	6096.80
443.30	6236.06
443.51	6455.20
443.72	6672.28
443.93	6266.78
444.14	6735.77
444.35	6365.09
444.56	6528.92
444.77	6633.37
444.98	6485.92
445.19	6559.64
445.40	6614.94
445.61	6573.98
445.81	6606.75
446.02	6705.05
446.23	6680.47
446.44	6467.49
446.65	6778.78
446.86	6711.19
447.07	6766.49
447.28	7071.64
447.49	6754.20
447.70	6717.34
447.91	6903.70
448.12	6840.22
448.33	6860.70
448.54	6907.80
448.74	6616.99
448.95	6973.33
449.16	7002.01
449.37	7112.60
449.58	7073.68
449.79	7282.58
450.00	7016.34
450.21	7073.68
450.42	7288.72
450.63	7243.67
450.84	7032.72
451.05	7286.67
451.25	7288.72
451.46	7235.47
451.67	7491.47
451.88	7401.36
452.09	7419.79
452.30	7395.22
452.51	7427.98
452.72	7530.38
452.93	7790.47
453.13	7323.54
453.34	7380.88
453.55	7557.00
453.76	7358.35
453.97	7747.47
454.18	7587.72
454.39	7743.37
454.60	7694.22
454.81	7645.07
455.01	7960.45
455.22	7622.54
455.43	7874.44
455.64	8050.57
455.85	7985.03
456.06	8265.60
456.27	7933.83
456.48	7946.12
456.68	8130.44
456.89	8138.63
457.10	8185.73
457.31	8206.21
457.52	8218.50
457.73	8314.75
457.94	8499.07
458.14	8155.01
458.35	8687.48
458.56	8519.55
458.77	8456.06
458.98	8673.15
459.19	8447.87
459.39	8828.79
459.60	8746.87
459.81	8476.54
460.02	8757.11
460.23	8871.80
460.44	8894.33
460.65	8777.59
460.85	8777.59
461.06	8947.58
461.27	8722.30
461.48	9125.75
461.69	9369.46
461.89	8994.68
462.10	9111.41
462.31	9084.79
462.52	9228.15
462.73	9240.44
462.94	9447.28
463.14	9199.48
463.35	9250.67
463.56	9772.91
463.77	9699.18
463.98	9375.60
464.18	9512.81
464.39	9760.62
464.60	10145.64
464.81	9734.00
465.02	9744.24
465.23	10178.40
465.43	10041.19
465.64	10188.64
465.85	9953.13
466.06	9967.46
466.27	10268.52
466.47	10157.92
466.68	10237.80
466.89	10481.50
467.10	10334.05
467.30	10205.03
467.51	10600.29
467.72	10913.63
467.93	10317.67
468.14	10692.44
468.34	10923.87
468.55	10786.65
468.76	10841.95
468.97	10659.68
469.17	11065.18
469.38	10968.92
469.59	11386.71
469.80	11116.37
470.01	11312.98
470.21	11306.84
470.42	11691.85
470.63	11493.20
470.84	11519.82
471.04	11560.78
471.25	11650.89
471.46	11388.75
471.67	11929.42
471.87	11761.48
472.08	11994.95
472.29	12253.00
472.50	11792.20
472.70	12248.90
472.91	12083.02
473.12	12320.58
473.33	12394.31
473.53	12513.09
473.74	12494.66
473.95	12717.89
474.16	12781.37
474.36	12451.65
474.57	12865.34
474.78	13119.29
474.99	12853.05
475.19	12879.68
475.40	13150.01
475.61	13311.80
475.81	13410.10
476.02	13557.55
476.23	13418.29
476.44	13641.52
476.64	13786.93
476.85	13842.22
477.06	13731.63
477.27	13989.67
477.47	14305.06
477.68	14192.42
477.89	14466.85
478.09	14397.22
478.30	14470.95
478.51	14442.28
478.71	14669.60
478.92	14815.01
479.13	14919.45
479.34	15007.52
479.54	14925.60
479.75	15152.92
479.96	14989.08
480.16	15095.58
480.37	15286.04
480.58	15419.16
480.78	15845.13
480.99	15695.63
481.20	15894.29
481.41	15761.17
481.61	16150.28
481.82	16137.99
482.03	16367.37
482.23	16244.49
482.44	16645.89
482.65	16695.04
482.85	16645.89
483.06	16682.75
483.27	16971.52
483.47	16965.37
483.68	16887.55
483.89	17063.68
484.09	17123.07
484.30	17018.62
484.51	17344.25
484.71	17383.16
484.92	17356.54
485.13	17737.46
485.33	17874.67
485.54	17977.07
485.75	18065.13
485.95	18300.65
486.16	18054.89
486.37	18245.35
486.57	18044.65
486.78	17983.21
486.98	18237.16
487.19	18493.16
487.40	18673.38
487.60	18562.79
487.81	18984.67
488.02	18861.79
488.22	18798.31
488.43	19384.02
488.64	19076.83
488.84	19238.62
489.05	19486.42
489.25	19281.63
489.46	19644.12
489.67	19285.72
489.87	19693.27
490.08	19873.49
490.29	19965.65
490.49	20096.72
490.70	19881.68
490.90	19963.60
491.11	20203.21
491.32	20436.68
491.52	20444.87
491.73	20436.68
491.94	20534.98
492.14	20418.25
492.35	20825.79
492.55	20913.86
492.76	21155.52
492.97	21151.42
493.17	21075.65
493.38	21192.38
493.58	21434.04
493.79	21587.64
494.00	21333.69
494.20	21612.21
494.41	21620.41
494.61	21628.60
494.82	21978.80
495.02	21810.87
495.23	22369.96
495.44	22097.58
495.64	22283.95
495.85	22230.70
496.05	22339.24
496.26	22380.20
496.47	22689.45
496.67	22449.83
496.88	22892.19
497.08	22646.44
497.29	22965.92
497.49	22908.58
497.70	22982.31
497.91	22998.69
498.11	23035.55
498.32	23453.34
498.52	23309.98
498.73	23471.77
498.93	23692.95
499.14	23733.91
499.34	23754.39
499.55	23797.40
499.76	23615.13
499.96	23934.61
500.17	23907.99
500.37	24133.26
500.58	23965.33
500.78	24432.27
500.99	24352.40
501.19	24471.18
501.40	24536.71
501.60	24241.81
501.81	24331.92
502.02	24454.79
502.22	24409.74
502.43	25054.85
502.63	25020.03
502.84	24954.50
503.04	24962.69
503.25	24987.27
503.45	25005.70
503.66	25202.30
503.86	25204.35
504.07	25540.22
504.27	25194.11
504.48	25814.65
504.68	25785.97
504.89	26041.97
505.09	25839.22
505.30	25904.76
505.50	25681.53
505.71	25546.36
505.91	25826.93
506.12	25863.80
506.32	26046.07
506.53	26193.52
506.73	26203.76
506.94	26193.52
507.14	26355.31
507.35	26343.02
507.55	26549.87
507.76	26429.04
507.96	26336.88
508.17	26478.19
508.37	26580.59
508.58	26791.53
508.78	26930.79
508.99	27053.67
509.19	26992.23
509.40	27330.14
509.60	26871.40
509.81	27256.42
510.01	27225.70
510.22	27080.29
510.42	27500.12
510.63	27448.93
510.83	27403.87
511.04	27461.21
511.24	27766.36
511.44	27295.33
511.65	27704.92
511.85	27440.73
512.06	27633.24
512.26	27981.40
512.47	27928.15
512.67	27844.18
512.88	27934.29
513.08	27686.49
513.29	28077.65
513.49	27811.42
513.69	28112.47
513.90	28167.76
514.10	28008.02
514.31	28407.37
514.51	28479.05
514.72	28380.75
514.92	28477.01
515.13	28411.47
515.33	28513.87
515.53	28966.47
515.74	28571.21
515.94	29005.38
516.15	29025.86
516.35	28384.85
516.56	29029.96
516.76	28689.99
516.96	28782.15
517.17	29187.65
517.37	29032.00
517.58	28888.65
517.78	29134.40
517.99	29310.53
518.19	29423.17
518.39	29623.87
518.60	29812.28
518.80	29670.97
519.01	29822.52
519.21	29777.47
519.41	30008.89
519.62	29695.55
519.82	30311.99
520.03	30019.13
520.23	30408.24
520.43	29902.39
520.64	30207.54
520.84	30688.81
521.05	30359.09
521.25	30613.04
521.45	30756.39
521.66	30551.60
521.86	30561.84
522.07	30479.92
522.27	30762.54
522.47	30873.13
522.68	31178.28
522.88	31096.36
523.08	31483.42
523.29	31305.25
523.49	31280.67
523.70	31548.96
523.90	31456.80
524.10	31454.75
524.31	31825.43
524.51	31362.59
524.71	32046.62
524.92	31596.06
525.12	31956.50
525.33	32093.72
525.53	32251.41
525.73	32321.04
525.94	32519.70
526.14	32359.95
526.34	32458.26
526.55	32400.91
526.75	32058.90
526.95	32730.64
527.16	32441.87
527.36	32511.50
527.56	33154.57
527.77	33097.22
527.97	33179.14
528.17	32992.78
528.38	33275.40
528.58	33283.59
528.78	33224.20
528.99	33494.53
529.19	34131.45
529.39	33555.97
529.60	33949.18
529.80	33928.70
530.00	33598.98
530.21	34117.11
530.41	34231.80
530.61	34418.16
530.82	34287.09
531.02	34217.46
531.22	34577.90
531.43	34751.98
531.63	34827.76
531.83	35370.47
532.04	35440.10
532.24	34725.36
532.44	35456.48
532.64	35519.97
532.85	35352.04
533.05	35538.40
533.25	35413.48
533.46	35694.05
533.66	35638.75
533.86	35304.93
534.07	35915.23
534.27	35417.57
534.47	36156.89
534.67	36441.56
534.88	36328.92
535.08	36445.65
535.28	36277.72
535.49	36261.33
535.69	36845.01
535.89	36931.02
536.09	36752.85
536.30	37008.84
536.50	36685.26
536.70	37006.80
536.91	36931.02
537.11	37139.91
537.31	37584.32
537.51	37381.57
537.72	37643.71
537.92	37608.90
538.12	38057.40
538.32	38008.25
538.53	37860.80
538.73	37922.24
538.93	38004.16
539.13	38081.98
539.34	38313.40
539.54	38215.10
539.74	38503.86
539.94	38598.07
540.15	38647.22
540.35	38688.18
540.55	38546.87
540.75	38958.51
540.96	38677.94
541.16	38712.75
541.36	39169.45
541.56	38852.02
541.77	39556.52
541.97	39167.40
542.17	39114.16
542.37	39644.58
542.58	39572.90
542.78	39349.67
542.98	39523.75
543.18	39777.70
543.38	39699.87
543.59	39740.83
543.79	39581.09
543.99	39986.59
544.19	40197.53
544.40	39882.14
544.60	40406.42
544.80	40375.70
545.00	40254.87
545.20	40736.15
545.41	40508.82
545.61	40463.77
545.81	40635.80
546.01	40979.85
546.21	40674.71
546.42	40443.29
546.62	41029.01
546.82	40547.73
547.02	41065.87
547.22	41094.54
547.43	41164.17
547.63	41350.54
547.83	40994.19
548.03	40740.24
548.23	41371.02
548.44	41383.30
548.64	41620.87
548.84	41452.94
549.04	41739.65
549.24	41672.07
549.45	41811.33
549.65	41330.06
549.85	41596.29
550.05	41917.82
550.25	41446.79
550.45	42179.96
550.66	41962.88
550.86	41819.52
551.06	42003.84
551.26	41966.98
551.46	42155.39
551.66	42503.54
551.87	42499.45
552.07	42425.72
552.27	42452.34
552.47	42599.80
552.67	42435.96
552.87	42567.03
553.07	42509.69
553.28	42777.97
553.48	42648.95
553.68	42859.89
553.88	43095.41
554.08	43066.73
554.28	43117.93
554.48	42997.10
554.69	43521.38
554.89	43287.92
555.09	43054.45
555.29	42655.09
555.49	43242.86
555.69	43300.20
555.89	43003.25
556.10	43568.49
556.30	43382.12
556.50	43548.01
556.70	43181.42
556.90	43887.97
557.10	43629.93
557.30	43666.79
557.50	43812.20
557.70	43773.28
557.91	44199.26
558.11	44174.69
558.31	43926.88
558.51	43515.24
558.71	44246.36
558.91	44076.38
559.11	44023.14
559.31	43822.44
559.51	44336.48
559.72	44275.04
559.92	44283.23
560.12	43986.27
560.32	44625.24
560.52	44670.29
560.72	44131.68
560.92	44293.47
561.12	44514.65
561.32	44748.12
561.52	44205.41
561.72	44602.71
561.93	44303.71
562.13	44322.14
562.33	44445.02
562.53	44965.20
562.73	44406.11
562.93	44528.98
563.13	44897.62
563.33	44932.43
563.53	44907.86
563.73	44807.51
563.93	45094.22
564.13	45223.25
564.33	45118.80
564.53	45038.93
564.74	45569.35
564.94	45395.28
565.14	45544.78
565.34	44920.15
565.54	45593.93
565.74	45139.28
565.94	45546.82
566.14	45479.24
566.34	45233.49
566.54	45798.73
566.74	45135.18
566.94	45604.17
567.14	45970.75
567.34	45421.90
567.54	45497.67
567.74	45456.71
567.94	45473.10
568.14	45462.86
568.34	45694.28
568.54	45821.25
568.74	45770.05
568.94	45778.25
569.14	46142.78
569.34	46001.47
569.54	46050.63
569.75	46005.57
569.95	46034.24
570.15	46802.23
570.35	46282.05
570.55	46243.13
570.75	46220.61
570.95	46269.76
571.15	46120.26
571.35	46705.98
571.55	46916.92
571.75	46429.50
571.95	46595.38
572.15	46304.57
572.35	46413.12
572.55	46941.49
572.75	46628.15
572.95	46880.05
573.15	47205.68
573.35	46753.08
573.55	46689.59
573.75	46933.30
573.95	46959.92
574.15	47121.71
574.35	47150.38
574.55	47162.67
574.75	47361.33
574.95	47166.77
575.15	47101.23
575.34	47365.42
575.54	47430.96
575.74	47873.32
575.94	47850.79
576.14	47181.10
576.34	48014.63
576.54	47799.59
576.74	47682.86
576.94	47527.21
577.14	47711.53
577.34	48053.54
577.54	48088.35
577.74	47930.66
577.94	48297.25
578.14	48309.53
578.34	48315.68
578.54	48026.92
578.74	48143.65
578.94	48364.83
579.14	48117.03
579.34	48270.62
579.54	48370.97
579.74	48469.28
579.94	48678.17
580.13	48928.02
580.33	48868.63
580.53	48862.49
580.73	48809.24
580.93	48483.61
581.13	48825.62
581.33	48514.33
581.53	49321.23
581.73	48960.79
581.93	49112.34
582.13	49061.14
582.33	49335.57
582.53	49022.23
582.73	48874.77
582.92	49042.71
583.12	49317.14
583.32	49382.67
583.52	49052.95
583.72	49601.80
583.92	49397.01
584.12	49607.95
584.32	49954.05
584.52	49825.03
584.72	49716.49
584.92	49689.87
585.11	50679.03
585.31	49952.01
585.51	50029.83
585.71	49784.07
585.91	50695.42
586.11	50345.22
586.31	50154.75
586.51	49990.92
586.71	50142.47
586.91	50427.13
587.10	50560.25
587.30	50396.42
587.50	50724.09
587.70	50541.82
587.90	50607.36
588.10	50902.26
588.30	50814.20
588.50	50445.57
588.69	50980.09
588.89	50648.32
589.09	50832.63
589.29	50857.21
589.49	51123.44
589.69	51135.73
589.89	51338.48
590.08	51088.63
590.28	51014.90
590.48	51434.74
590.68	51236.08
590.88	50975.99
591.08	51832.04
591.28	50992.37
591.47	51688.68
591.67	51447.02
591.87	51213.55
592.07	51748.07
592.27	51909.86
592.47	51348.72
592.67	51574.00
592.86	51756.27
593.06	51846.38
593.26	51999.97
593.46	52024.55
593.66	51719.40
593.86	51999.97
594.05	51961.06
594.25	52575.45
594.45	51741.93
594.65	52282.59
594.85	52133.09
595.05	52552.93
595.24	52114.66
595.44	52419.81
595.64	52370.66
595.84	52503.77
596.04	52413.66
596.23	52643.04
596.43	53177.56
596.63	52397.28
596.83	52688.09
597.03	53079.25
597.22	53650.64
597.42	52954.33
597.62	53089.49
597.82	52757.72
598.02	53255.38
598.21	53208.28
598.41	53032.15
598.61	53343.44
598.81	53148.88
599.01	53613.77
599.20	53146.84
599.40	53038.29
599.60	53607.63
599.80	52888.79
600.00	53308.63
600.19	54021.32
600.39	53261.52
600.59	53683.40
600.79	53621.97
600.98	53765.32
601.18	53855.43
601.38	53634.25
601.58	54154.44
601.78	53949.64
601.97	53712.08
602.17	54377.67
602.37	54281.41
602.57	54078.66
602.76	54779.07
602.96	53875.91
603.16	54297.80
603.36	54502.59
603.55	54975.67
603.75	54768.83
603.95	54623.42
604.15	55047.35
604.34	54621.37
604.54	54856.89
604.74	54969.53
604.94	54883.51
605.13	55151.80
605.33	54973.63
605.53	54709.44
605.73	55465.14
605.92	55260.34
606.12	55522.48
606.32	55053.50
606.52	55137.46
606.71	54908.09
606.91	55336.12
607.11	55049.40
607.30	55321.78
607.50	55344.31
607.70	55815.34
607.90	55614.64
608.09	55424.18
608.29	55522.48
608.49	55407.79
608.68	55678.13
608.88	55563.44
609.08	55919.79
609.28	55891.12
609.47	55317.68
609.67	56620.19
609.87	55968.94
610.06	56161.45
610.26	56304.80
610.46	56726.69
610.66	55897.26
610.85	56358.05
611.05	55712.94
611.25	55997.61
611.44	55966.89
611.64	56198.31
611.84	55733.42
612.03	55862.44
612.23	56245.41
612.43	56145.06
612.62	55858.35
612.82	56095.91
613.02	56255.65
613.21	55958.70
613.41	56108.20
613.61	56597.66
613.80	55870.64
614.00	56390.82
614.20	56198.31
614.39	56286.37
614.59	55932.07
614.79	56792.22
614.98	56196.26
615.18	56624.29
615.38	56525.99
615.57	56470.69
615.77	56884.38
615.97	56294.56
616.16	56575.14
616.36	56630.43
616.56	56087.72
616.75	56788.13
616.95	56157.35
617.15	56321.19
617.34	56556.70
617.54	56169.64
617.74	56874.14
617.93	56812.70
618.13	56278.18
618.32	56784.03
618.52	56136.87
618.72	56837.28
618.91	56683.68
619.11	56685.73
619.31	56407.20
619.50	56276.13
619.70	56358.05
619.90	56761.50
620.09	56609.95
620.29	56186.02
620.48	56552.61
620.68	56661.15
620.88	56063.14
621.07	56347.81
621.27	56568.99
621.46	56075.43
621.66	56409.25
621.86	56364.20
622.05	56124.58
622.25	56999.07
622.44	56343.72
622.64	56317.09
622.84	56556.70
623.03	56239.27
623.23	56456.35
623.42	56048.81
623.62	56554.66
623.82	56476.83
624.01	56951.96
624.21	56356.00
624.40	56788.13
624.60	56444.07
624.80	56362.15
624.99	56607.90
625.19	55825.58
625.38	56507.55
625.58	56380.58
625.77	56532.13
625.97	56804.51
626.17	56206.50
626.36	56548.51
626.56	56655.01
626.75	56054.95
626.95	56779.93
627.14	56671.39
627.34	56700.06
627.54	56349.86
627.73	56378.53
627.93	56710.30
628.12	56124.58
628.32	56640.67
628.51	56450.21
628.71	56153.26
628.90	56564.90
629.10	56175.78
629.30	56458.40
629.49	56409.25
629.69	56738.97
629.88	56272.04
630.08	56534.18
630.27	56612.00
630.47	56855.71
630.66	56345.76
630.86	56558.75
631.05	56253.61
631.25	56984.73
631.44	56681.63
631.64	56583.33
631.84	56902.81
632.03	56980.63
632.23	56767.65
632.42	57152.66
632.62	56448.16
632.81	56591.52
633.01	57037.98
633.20	56997.02
633.40	57259.16
633.59	56824.99
633.79	56505.51
633.98	56829.08
634.18	56880.28
634.37	57072.79
634.57	56794.27
634.76	57107.61
634.96	56718.49
635.15	56759.45
635.35	56720.54
635.54	56689.82
635.74	56880.28
635.93	56646.82
636.13	56964.25
636.32	57373.84
636.52	56749.21
636.71	57193.62
636.91	57009.31
637.10	57048.22
637.30	56886.43
637.49	57144.47
637.69	57099.42
637.88	57287.83
638.08	56980.63
638.27	56827.04
638.46	57146.52
638.66	56476.83
638.85	57005.21
639.05	57476.24
639.24	57300.12
639.44	57148.57
639.63	57304.21
639.83	57046.17
640.02	57058.46
640.22	56769.69
640.41	57334.93
640.61	57179.29
640.80	57218.20
640.99	57269.40
641.19	57443.48
641.38	57332.89
641.58	57171.10
641.77	56941.72
641.97	56968.35
642.16	56855.71
642.36	57234.58
642.55	57543.83
642.74	57060.51
642.94	57623.70
643.13	57349.27
643.33	57799.82
643.52	57283.73
643.72	57226.39
643.91	57320.60
644.10	57312.41
644.30	57799.82
644.49	57855.12
644.69	57611.41
644.88	57414.80
645.08	57351.32
645.27	57875.60
645.46	57463.96
645.66	57640.08
645.85	57451.67
646.05	58051.72
646.24	57793.68
646.43	57840.78
646.63	58274.95
646.82	58250.38
647.02	57701.52
647.21	57732.24
647.40	57762.96
647.60	57773.20
647.79	57867.40
647.99	57783.44
648.18	57572.50
648.37	58186.89
648.57	58156.17
648.76	58178.70
648.96	57881.74
649.15	58479.75
649.34	58223.75
649.54	58504.32
649.73	58135.69
649.92	58057.87
650.12	58463.36
650.31	58305.67
650.51	58410.12
650.70	58115.21
650.89	57969.80
651.09	58201.22
651.28	58279.05
651.47	58449.03
651.67	58242.18
651.86	58664.06
652.06	57816.21
652.25	58381.45
652.44	58377.35
652.64	57842.83
652.83	58283.14
653.02	58217.61
653.22	58293.38
653.41	57834.64
653.60	57738.38
653.80	58522.76
653.99	58555.52
654.18	58258.57
654.38	57894.03
654.57	58266.76
654.76	58102.92
654.96	57975.95
655.15	58365.06
655.34	58143.88
655.54	58127.50
655.73	58098.83
655.92	58696.83
656.12	58072.20
656.31	58524.80
656.50	58262.66
656.70	58623.11
656.89	58377.35
657.08	58389.64
657.28	58766.46
657.47	58770.56
657.66	58502.28
657.86	58637.44
658.05	58524.80
658.24	58541.19
658.43	58217.61
658.63	58584.19
658.82	58518.66
659.01	58899.58
659.21	58639.49
659.40	58422.40
659.59	58555.52
659.79	58684.54
659.98	58320.01
660.17	59022.46
660.36	58606.72
660.56	58381.45
660.75	58881.15
660.94	58322.05
661.14	58791.04
661.33	58745.98
661.52	58231.94
661.71	58856.57
661.91	58279.05
662.10	58471.56
662.29	58557.57
662.49	58885.25
662.68	58733.70
662.87	58565.76
663.06	58885.25
663.26	58590.34
663.45	59360.37
663.64	58393.73
663.83	58836.09
664.03	58705.02
664.22	58975.36
664.41	58842.24
664.60	58410.12
664.80	58412.16
664.99	58274.95
665.18	58508.42
665.37	59069.56
665.57	58594.43
665.76	58029.19
665.95	58893.44
666.14	58676.35
666.34	58739.84
666.53	58877.05
666.72	58117.26
666.91	58832.00
667.11	58623.11
667.30	58680.45
667.49	58823.81
667.68	58686.59
667.87	58301.57
668.07	58467.46
668.26	58709.12
668.45	58498.18
668.64	58135.69
668.84	59032.70
669.03	58690.69
669.22	58631.30
669.41	58643.59
669.60	58819.71
669.80	58336.39
669.99	58715.26
670.18	58578.05
670.37	58528.90
670.57	58850.43
670.76	58358.92
670.95	58557.57
671.14	58893.44
671.33	58344.58
671.53	58715.26
671.72	58641.54
671.91	58762.37
672.10	58244.23
672.29	58463.36
672.48	58315.91
672.68	58762.37
672.87	58342.53
673.06	58596.48
673.25	58209.42
673.44	58277.00
673.64	58592.39
673.83	58365.06
674.02	58256.52
674.21	58295.43
674.40	58805.37
674.59	58219.66
674.79	58205.32
674.98	58459.27
675.17	58254.47
675.36	58174.60
675.55	58545.28
675.74	58272.90
675.94	58193.03
676.13	58274.95
676.32	58377.35
676.51	58469.51
676.70	58489.99
676.89	58465.41
677.08	58715.26
677.28	58127.50
677.47	58608.77
677.66	58653.82
677.85	58086.54
678.04	58586.24
678.23	58455.17
678.42	58440.84
678.62	58268.81
678.81	58770.56
679.00	58817.66
679.19	58674.30
679.38	58285.19
679.57	58446.98
679.76	58053.77
679.96	58475.65
680.15	58125.45
680.34	58387.59
680.53	57898.12
680.72	58686.59
680.91	58418.31
681.10	58221.70
681.29	58367.11
681.48	57990.28
681.68	58186.89
681.87	58467.46
682.06	58131.59
682.25	57703.57
682.44	58078.35
682.63	58133.64
682.82	58340.49
683.01	58061.96
683.20	57713.81
683.39	58029.19
683.59	57797.77
683.78	57668.75
683.97	57967.76
684.16	58131.59
684.35	57957.52
684.54	58061.96
684.73	57699.47
684.92	57812.11
685.11	57533.59
685.30	57476.24
685.49	57889.93
685.69	57635.98
685.88	57830.54
686.07	57658.51
686.26	57222.29
686.45	57875.60
686.64	57275.54
686.83	58104.97
687.02	58250.38
687.21	57799.82
687.40	57476.24
687.59	57257.11
687.78	57496.72
687.97	57674.90
688.16	57523.35
688.35	57431.19
688.54	57177.24
688.74	57400.47
688.93	57275.54
689.12	57152.66
689.31	57615.50
689.50	57846.93
689.69	57060.51
689.88	56954.01
690.07	57132.18
690.26	57328.79
690.45	57461.91
690.64	57263.25
690.83	56880.28
691.02	57218.20
691.21	57324.69
691.40	56882.33
691.59	57058.46
691.78	56718.49
691.97	57435.28
692.16	57418.90
692.35	57212.06
692.54	56968.35
692.73	57283.73
692.92	56741.02
693.11	57056.41
693.30	57365.65
693.49	57009.31
693.68	56726.69
693.87	57111.70
694.06	56712.35
694.25	56714.40
694.44	56519.84
694.63	56771.74
694.82	56865.95
695.01	56800.41
695.20	56603.81
695.39	56669.34
695.58	56255.65
695.77	56431.78
695.96	56333.48
696.15	56472.74
696.34	56036.52
696.53	56452.26
696.72	56612.00
696.91	56171.69
697.10	56401.06
697.29	56331.43
697.48	56736.93
697.67	56040.62
697.86	55758.00
698.05	55866.54
698.24	56818.84
698.43	55907.50
698.62	56429.73
698.81	55932.07
699.00	56452.26
699.19	55833.77
699.38	56183.97
699.57	55741.61
699.76	56317.09
699.95	55633.07
700.14	55817.39
700.32	55786.67
700.51	55760.05
700.70	55565.49
700.89	56220.84
701.08	55794.86
701.27	55694.51
701.46	55911.59
701.65	55549.10
701.84	55571.63
702.03	56040.62
702.22	55364.79
702.41	55547.06
702.60	55637.17
702.79	55551.15
702.98	55239.86
703.17	55485.62
703.35	54930.62
703.54	55030.97
703.73	55553.20
703.92	55252.15
704.11	55233.72
704.30	54693.05
704.49	55254.20
704.68	54893.75
704.87	55047.35
705.06	55141.56
705.25	55170.23
705.43	54801.60
705.62	55080.12
705.81	55219.38
706.00	55166.13
706.19	55047.35
706.38	55211.19
706.57	54531.26
706.76	54809.79
706.95	54990.01
707.14	54664.38
707.32	54389.95
707.51	54553.79
707.70	54379.71
707.89	54672.57
708.08	54269.12
708.27	54588.61
708.46	54809.79
708.65	54746.30
708.84	55170.23
709.02	54860.99
709.21	54637.76
709.40	54074.57
709.59	54748.35
709.78	54342.85
709.97	54881.47
710.16	54088.90
710.34	54533.31
710.53	54219.97
710.72	53771.47
710.91	54447.30
711.10	54224.07
711.29	54486.21
711.48	54015.18
711.66	54215.88
711.85	53984.46
712.04	54115.53
712.23	54383.81
712.42	54060.23
712.61	54041.80
712.80	53789.90
712.98	54305.99
713.17	53245.14
713.36	54242.50
713.55	53826.76
713.74	53892.30
713.93	53896.39
714.11	53673.16
714.30	53306.58
714.49	53640.40
714.68	53726.41
714.87	53912.78
715.06	53554.38
715.24	53662.93
715.43	53298.39
715.62	53152.98
715.81	53859.53
716.00	53249.24
716.18	52792.54
716.37	53064.92
716.56	53077.21
716.75	53433.55
716.94	52933.85
717.12	52684.00
717.31	53523.66
717.50	53171.41
717.69	52956.38
717.88	52610.27
718.06	53103.83
718.25	53394.64
718.44	52950.23
718.63	52647.13
718.82	52604.13
719.00	53028.05
719.19	52704.48
719.38	52737.24
719.57	52241.63
719.76	52100.32
719.94	51684.59
720.13	52266.21
720.32	52294.88
720.51	52063.46
720.69	52319.46
720.88	51854.57
721.07	51700.97
721.26	51422.45
721.44	51502.32
721.63	51858.66
721.82	51268.85
722.01	51549.42
722.20	51907.82
722.38	51274.99
722.57	51242.23
722.76	51305.71
722.95	51655.92
723.13	51168.50
723.32	51133.68
723.51	51023.09
723.70	50935.03
723.88	51410.16
724.07	50877.69
724.26	50765.05
724.44	50674.94
724.63	50963.70
724.82	50799.86
725.01	50904.31
725.19	50842.87
725.38	50482.43
725.57	50597.12
725.76	50691.32
725.94	50414.85
726.13	50746.62
726.32	50568.44
726.51	50537.72
726.69	51025.14
726.88	50640.12
727.07	50787.58
727.25	50148.61
727.44	50418.94
727.63	50294.02
727.82	50218.24
728.00	50466.05
728.19	50466.05
728.38	50515.20
728.56	49857.80
728.75	50470.14
728.94	50357.50
729.12	50529.53
729.31	50535.68
729.50	50433.28
729.69	50607.36
729.87	49808.65
730.06	50236.67
730.25	50144.51
730.43	50724.09
730.62	49753.35
730.81	50418.94
730.99	49892.61
731.18	50074.88
731.37	50369.79
731.55	50042.12
731.74	49855.75
731.93	50353.41
732.11	50175.23
732.30	49775.88
732.49	49804.55
732.67	50044.16
732.86	50083.08
733.05	49990.92
733.23	49851.66
733.42	50214.15
733.61	50216.19
733.79	50068.74
733.98	50408.70
734.17	50320.64
734.35	49902.85
734.54	50021.64
734.73	49886.47
734.91	49909.00
735.10	49472.78
735.29	50349.31
735.47	49505.55
735.66	49417.49
735.84	49726.73
736.03	49280.27
736.22	49888.52
736.40	49566.99
736.59	49937.67
736.78	49634.57
736.96	49800.46
737.15	49739.02
737.33	49601.80
737.52	49313.04
737.71	49564.94
737.89	49116.43
738.08	49067.28
738.27	49132.82
738.45	49769.74
738.64	49298.70
738.82	49157.39
739.01	49079.57
739.20	49470.73
739.38	49190.16
739.57	49265.94
739.75	49710.35
739.94	49065.24
740.13	49214.74
740.31	48842.01
740.50	48905.49
740.68	49323.28
740.87	49446.16
741.06	49214.74
741.24	49038.61
741.43	48608.54
741.61	48864.53
741.80	48899.35
741.99	48985.36
742.17	48776.47
742.36	49300.75
742.54	48420.13
742.73	48735.51
742.91	48803.10
743.10	48332.06
743.29	48508.19
743.47	49153.30
743.66	48657.69
743.84	48655.64
744.03	48958.74
744.21	48454.94
744.40	48882.97
744.59	48307.49
744.77	48358.69
744.96	48592.15
745.14	48565.53
745.33	48389.41
745.51	48192.80
745.70	48559.39
745.88	48170.27
746.07	48330.01
746.26	47701.29
746.44	48354.59
746.63	48014.63
746.81	48422.17
747.00	48074.02
747.18	48112.93
747.37	47920.42
747.55	47879.46
747.74	48477.47
747.92	47674.66
748.11	47562.03
748.29	48043.30
748.48	48016.68
748.66	47764.78
748.85	47895.85
749.03	47967.52
749.22	47732.01
749.41	47359.28
749.59	47516.97
749.78	47146.29
749.96	47592.75
750.15	47674.66
750.33	47875.37
750.52	47136.05
750.70	47645.99
750.89	47072.56
751.07	47090.99
751.26	47301.93
751.44	46939.44
751.63	47406.38
751.81	47074.61
752.00	47066.42
752.18	46904.63
752.37	46757.17
752.55	46708.02
752.74	47031.60
752.92	46357.82
753.10	46757.17
753.29	46744.89
753.47	46454.08
753.66	46589.24
753.84	46884.15
754.03	47084.85
754.21	46652.73
754.40	46658.87
754.58	47113.52
754.77	46726.46
754.95	46150.98
755.14	46579.00
755.32	46490.94
755.51	46124.35
755.69	46314.81
755.88	46613.82
756.06	46665.02
756.24	46015.81
756.43	46171.46
756.61	46085.44
756.80	46105.92
756.98	45811.01
757.17	45974.85
757.35	46245.18
757.54	45974.85
757.72	46011.71
757.90	45749.57
758.09	45552.97
758.27	45919.56
758.46	45540.68
758.64	45782.34
758.83	45856.07
759.01	45937.99
759.19	45475.15
759.38	45698.37
759.56	46208.32
759.75	45800.77
759.93	45516.11
760.12	45385.04
760.30	45905.22
760.48	45450.57
760.67	45368.65
760.85	45638.98
761.04	45462.86
761.22	45610.31
761.40	45628.74
761.59	45591.88
761.77	45475.15
761.96	45102.42
762.14	45055.31
762.32	45161.81
762.51	45206.86
762.69	45096.27
762.88	45104.46
763.06	45004.11
763.24	45311.31
763.43	44991.83
763.61	44651.86
763.80	45055.31
763.98	44608.86
764.16	44488.03
764.35	44350.81
764.53	43775.33
764.72	44436.83
764.90	44422.49
765.08	44725.59
765.27	44756.31
765.45	44172.64
765.63	43746.66
765.82	44100.96
766.00	43873.63
766.18	44043.62
766.37	44266.84
766.55	44033.38
766.74	44029.28
766.92	43834.72
767.10	43341.16
767.29	43885.92
767.47	43523.43
767.65	43900.26
767.84	43484.52
768.02	43853.15
768.20	43328.87
768.39	43836.77
768.57	43414.89
768.75	43619.69
768.94	43695.46
769.12	43554.15
769.30	43134.32
769.49	43332.97
769.67	43036.02
769.85	43193.71
770.04	42997.10
770.22	42982.77
770.40	43185.52
770.59	42655.09
770.77	42743.16
770.95	43210.09
771.14	42460.54
771.32	42687.86
771.50	42517.88
771.69	42587.51
771.87	42894.71
772.05	42718.58
772.24	42317.18
772.42	42593.65
772.60	42243.45
772.78	42337.66
772.97	42644.85
773.15	42718.58
773.33	42077.57
773.52	42210.68
773.70	42282.36
773.88	42308.99
774.07	42134.91
774.25	42376.57
774.43	42317.18
774.61	41948.54
774.80	42030.46
774.98	42268.03
775.16	42610.04
775.34	42220.92
775.53	42065.28
775.71	42751.35
775.89	42392.95
776.08	42218.88
776.26	42325.37
776.44	42489.21
776.62	42233.21
776.81	42253.69
776.99	42653.05
777.17	42198.40
777.35	42448.25
777.54	42878.32
777.72	42335.61
777.90	42646.90
778.08	42820.98
778.27	42104.19
778.45	42562.93
778.63	43195.76
778.81	42046.85
779.00	42978.67
779.18	42573.17
779.36	42968.43
779.54	42614.13
779.73	42935.66
779.91	43111.79
780.09	43033.97
780.27	42784.12
780.46	43072.88
780.64	42999.15
780.82	42964.34
781.00	42808.69
781.19	42988.91
781.37	43246.96
781.55	43347.31
781.73	43124.08
781.91	43111.79
782.10	43492.71
782.28	43328.87
782.46	43019.63
782.64	43382.12
782.82	43222.38
783.01	43308.40
783.19	43517.29
783.37	43158.89
783.55	43261.29
783.74	43558.25
783.92	43439.47
784.10	43820.39
784.28	43253.10
784.46	42954.10
784.64	43040.11
784.83	43332.97
785.01	43259.24
785.19	43218.28
785.37	43044.21
785.55	43152.75
785.74	43187.56
785.92	43179.37
786.10	43576.68
786.28	43134.32
786.46	42706.29
786.64	42415.48
786.83	42843.51
787.01	42941.81
787.19	42788.21
787.37	43150.70
787.55	43003.25
787.74	42673.52
787.92	42937.71
788.10	42700.15
788.28	42358.14
788.46	42788.21
788.64	42261.88
788.82	42343.80
789.01	42444.15
789.19	42564.98
789.37	42171.77
789.55	42438.01
789.73	41670.02
789.91	42009.98
790.09	41887.10
790.28	41999.74
790.46	41645.44
790.64	41940.35
790.82	41880.96
791.00	41348.49
791.18	41328.01
791.36	41739.65
791.55	41667.97
791.73	41571.72
791.91	41033.10
792.09	41575.81
792.27	41328.01
792.45	41321.87
792.63	41260.43
792.81	41135.50
793.00	41045.39
793.18	41379.21
793.36	41239.95
793.54	40678.80
793.72	40519.06
793.90	40449.43
794.08	40304.02
794.26	40682.90
794.44	40177.05
794.62	40205.72
794.81	40654.23
794.99	40058.27
795.17	39923.10
795.35	39695.78
795.53	39970.21
795.71	40449.43
795.89	39757.22
796.07	39755.17
796.25	39165.35
796.43	39312.81
796.61	39214.51
796.80	39202.22
796.98	39128.49
797.16	38985.13
797.34	39161.26
797.52	38944.17
797.70	39286.18
797.88	38712.75
798.06	38624.69
798.24	38677.94
798.42	39132.59
798.60	38722.99
798.78	38221.24
798.96	38796.72
799.14	38024.64
799.32	38387.13
799.51	37770.69
799.69	38335.93
799.87	38118.84
800.05	37778.88
800.23	37871.04
800.41	37641.67
800.59	37733.82
800.77	37375.43
800.95	37168.58
801.13	37348.81
801.31	37029.32
801.49	37260.74
801.67	37133.77
801.85	37101.00
802.03	37021.13
802.21	36341.21
802.39	36472.28
802.57	37174.73
802.75	36740.56
802.93	36734.42
803.11	36500.95
803.29	36535.76
803.47	36179.42
803.65	36576.72
803.83	36396.50
804.01	36656.59
804.19	35917.28
804.37	35978.72
804.55	35917.28
804.73	35767.77
804.91	35986.91
805.09	35849.69
805.27	35515.87
805.45	35476.96
805.63	35765.73
805.81	35728.86
805.99	35284.45
806.17	35579.36
806.35	35370.47
806.53	34913.77
806.71	34956.78
806.89	35112.42
807.07	35104.23
807.25	35132.90
807.43	34723.31
807.61	34993.64
807.79	34977.26
807.97	34125.30
808.15	34915.82
808.33	34625.01
808.51	34348.53
808.69	34774.51
808.87	34186.74
809.05	34366.96
809.23	33900.03
809.41	33920.51
809.59	33936.89
809.77	34092.54
809.95	33900.03
810.13	34115.06
810.31	33922.55
810.49	33889.79
810.67	33650.17
810.84	33879.55
811.02	33742.33
811.20	33205.77
811.38	33547.78
811.56	33256.96
811.74	33476.10
811.92	32980.49
812.10	32816.65
812.28	33480.19
812.46	32925.19
812.64	33185.29
812.82	32679.44
813.00	32865.80
813.18	32790.03
813.36	32448.02
813.53	32626.19
813.71	32843.27
813.89	32280.08
814.07	32781.84
814.25	32685.58
814.43	32085.53
814.61	31983.13
814.79	32548.37
814.97	32310.80
815.15	32202.26
815.33	32132.63
815.50	31606.30
815.68	32054.81
815.86	32106.01
816.04	31579.68
816.22	31653.40
816.40	31878.68
816.58	31690.27
816.76	31430.18
816.94	31532.57
817.11	31921.69
817.29	31645.21
817.47	31360.55
817.65	30979.62
817.83	30969.38
818.01	30948.90
818.19	30766.63
818.37	30858.79
818.54	30727.72
818.72	30522.93
818.90	30930.47
819.08	30807.59
819.26	31084.07
819.44	30649.90
819.62	30793.26
819.80	30920.23
819.97	30733.87
820.15	30588.46
820.33	30522.93
820.51	30797.35
820.69	30455.34
820.87	30352.94
821.05	30535.21
821.22	30428.72
821.40	30162.48
821.58	30219.83
821.76	30352.94
821.94	30187.06
822.12	29853.24
822.29	29799.99
822.47	29822.52
822.65	30004.79
822.83	29984.31
823.01	30154.29
823.19	29937.21
823.36	29435.45
823.54	29685.31
823.72	29589.05
823.90	29578.81
824.08	29279.81
824.25	29386.30
824.43	29214.27
824.61	29552.19
824.79	29298.24
824.97	29341.25
825.15	29398.59
825.32	29259.33
825.50	28997.19
825.68	29003.33
825.86	29371.97
826.04	29154.88
826.21	29257.28
826.39	28905.03
826.57	28886.60
826.75	28735.05
826.93	28716.62
827.10	28714.57
827.28	28925.51
827.46	28702.28
827.64	28773.96
827.81	28896.84
827.99	28749.39
828.17	28798.54
828.35	28554.83
828.53	28282.45
828.70	28479.05
828.88	28536.40
829.06	28563.02
829.24	28620.36
829.41	28251.73
829.59	28524.11
829.77	27946.58
829.95	28325.46
830.12	28266.06
830.30	27954.77
830.48	28169.81
830.66	27797.08
830.84	27856.47
831.01	27645.53
831.19	27938.39
831.37	27881.05
831.55	27592.28
831.72	27518.56
831.90	28022.36
832.08	27733.59
832.25	27754.07
832.43	27795.03
832.61	27328.10
832.79	27569.76
832.96	27424.35
833.14	27516.51
833.32	27715.16
833.50	27487.84
833.67	27522.65
833.85	27240.03
834.03	27174.50
834.20	27321.95
834.38	27289.18
834.56	27731.54
834.74	27225.70
834.91	27108.96
835.09	27061.86
835.27	26742.38
835.44	27297.38
835.62	26807.91
835.80	26867.30
835.98	26719.85
836.15	26846.82
836.33	26863.21
836.51	27141.73
836.68	26416.75
836.86	26592.87
837.04	26578.54
837.21	26373.74
837.39	26760.81
837.57	26769.00
837.75	26484.33
837.92	26510.96
838.10	26429.04
838.28	25910.90
838.45	26330.73
838.63	26222.19
838.81	26498.67
838.98	26054.26
839.16	26082.93
839.34	25847.41
839.51	26121.84
839.69	25949.81
839.87	26080.88
840.04	25998.96
840.22	26152.56
840.40	25941.62
840.57	25835.13
840.75	25927.28
840.93	25577.08
841.10	25804.41
841.28	26037.87
841.46	26072.69
841.63	25960.05
841.81	25726.58
841.98	25439.87
842.16	26046.07
842.34	25611.90
842.51	25339.52
842.69	25785.97
842.87	25560.70
843.04	25716.34
843.22	25763.45
843.40	25556.60
843.57	25575.03
843.75	25364.09
843.92	25820.79
844.10	25235.07
844.28	25237.12
844.45	25214.59
844.63	25392.76
844.81	25126.53
844.98	25538.17
845.16	25212.54
845.33	25319.04
845.51	25390.72
845.69	24989.31
845.86	25144.96
846.04	24921.73
846.21	24733.32
846.39	25067.14
846.57	24895.11
846.74	24983.17
846.92	24768.13
847.09	24612.49
847.27	24938.12
847.45	24657.54
847.62	24903.30
847.80	24848.00
847.97	24499.85
848.15	24710.79
848.32	24200.85
848.50	24301.20
848.68	24096.40
848.85	24145.55
849.03	23965.33
849.20	24221.33
849.38	24319.63
849.56	24477.32
849.73	24198.80
849.91	24280.72
850.08	24309.39
850.26	24178.32
850.43	23994.00
850.61	24125.07
850.78	24069.78
850.96	24045.20
851.14	23664.28
851.31	23950.99
851.49	23987.86
851.66	23875.22
851.84	24024.72
852.01	23983.76
852.19	23750.29
852.36	23994.00
852.54	23989.91
852.71	23932.56
852.89	23746.20
853.07	23873.17
853.24	23664.28
853.42	23729.81
853.59	23471.77
853.77	23580.31
853.94	23574.17
854.12	23719.57
854.29	23131.81
854.47	23541.40
854.64	23307.93
854.82	23252.64
854.99	23477.91
855.17	23381.66
855.34	23217.82
855.52	23129.76
855.69	23344.80
855.87	23363.23
856.04	22861.48
856.22	23107.23
856.39	23070.37
856.57	23211.68
856.74	22822.56
856.92	23174.81
857.09	22802.08
857.27	22957.73
857.44	22984.35
857.62	22937.25
857.79	22959.78
857.97	22947.49
858.14	22873.76
858.32	22677.16
858.49	22767.27
858.67	22769.32
858.84	22668.97
859.02	22793.89
859.19	22388.39
859.37	22406.83
859.54	22834.85
859.72	22562.47
859.89	22605.48
860.06	22668.97
860.24	22185.65
860.41	22470.31
860.59	22372.01
860.76	22273.71
860.94	22255.28
861.11	22460.07
861.29	22197.93
861.46	22013.62
861.64	22185.65
861.81	21882.55
861.98	22185.65
862.16	22070.96
862.33	21720.76
862.51	21720.76
862.68	21974.70
862.86	22001.33
863.03	21857.97
863.21	21860.02
863.38	21888.69
863.55	21759.67
863.73	21735.09
863.90	21759.67
864.08	21763.76
864.25	21694.13
864.43	21835.44
864.60	21765.81
864.77	21561.02
864.95	21755.57
865.12	21413.56
865.30	21819.06
865.47	21417.66
865.64	21452.47
865.82	21397.18
865.99	21575.35
866.17	21628.60
866.34	21489.34
866.51	21141.18
866.69	21620.41
866.86	21388.99
867.04	21163.71
867.21	21167.80
867.38	21030.59
867.56	21186.24
867.73	21030.59
867.91	21022.40
868.08	21014.21
868.25	20739.78
868.43	20758.21
868.60	21008.06
868.78	20977.34
868.95	21055.17
869.12	20678.34
869.30	21022.40
869.47	20942.53
869.64	20672.20
869.82	20426.44
869.99	20559.56
870.16	20995.78
870.34	20285.13
870.51	20496.07
870.69	20428.49
870.86	20668.10
871.03	20575.94
871.21	20467.40
871.38	20283.08
871.55	20434.63
871.73	20158.16
871.90	20115.15
872.07	19932.88
872.25	19955.41
872.42	20092.62
872.59	20113.10
872.77	19723.99
872.94	19832.53
873.11	19898.06
873.29	19900.11
873.46	19785.43
873.63	19930.83
873.81	19597.01
873.98	19476.18
874.15	19779.28
874.33	19683.03
874.50	19377.88
874.67	19762.90
874.85	19652.31
875.02	19381.98
875.19	19615.44
875.37	19660.50
875.54	19318.49
875.71	19261.15
875.88	19056.35
876.06	19189.47
876.23	19191.52
876.40	19136.22
876.58	19054.30
876.75	19187.42
876.92	18951.90
877.10	18804.45
877.27	18751.20
877.44	18968.29
877.61	18912.99
877.79	18814.69
877.96	18888.42
878.13	18906.85
878.31	18507.49
878.48	18501.35
878.65	18843.36
878.82	18620.13
879.00	18849.50
879.17	18548.45
879.34	18501.35
879.51	18419.43
879.69	18321.13
879.86	18163.43
880.03	18200.30
880.21	18290.41
880.38	18235.11
880.55	18511.59
880.72	18220.78
880.90	18294.50
881.07	18077.42
881.24	18276.07
881.41	18122.48
881.59	18116.33
881.76	18145.00
881.93	18122.48
882.10	17802.99
882.28	17903.34
882.45	17962.73
882.62	18071.28
882.79	18147.05
882.96	17698.55
883.14	17692.40
883.31	17874.67
883.48	17897.20
883.65	17805.04
883.83	17825.52
884.00	17927.92
884.17	17579.76
884.34	17708.79
884.51	17690.35
884.69	17993.45
884.86	17780.46
885.03	17684.21
885.20	17667.83
885.38	17706.74
885.55	17678.07
885.72	17485.56
885.89	17440.50
886.06	17491.70
886.24	17303.29
886.41	17338.10
886.58	17739.51
886.75	17323.77
886.92	17108.73
887.10	17514.23
887.27	17088.25
887.44	17254.14
887.61	17532.66
887.78	17362.68
887.95	17161.98
888.13	16928.51
888.30	17000.19
888.47	17090.30
888.64	16840.45
888.81	17051.39
888.99	16944.89
889.16	16887.55
889.33	16834.30
889.50	16934.65
889.67	16895.74
889.84	16783.10
890.01	16889.60
890.19	16785.15
890.36	16811.78
890.53	16842.50
890.70	16613.12
890.87	16748.29
891.04	16447.24
891.22	16480.00
891.39	16484.10
891.56	16271.11
891.73	16287.50
891.90	16484.10
892.07	16137.99
892.24	16271.11
892.42	16617.22
892.59	16273.16
892.76	16154.38
892.93	16441.09
893.10	16383.75
893.27	16459.52
893.44	16099.08
893.61	16109.32
893.79	16168.71
893.96	16193.29
894.13	16199.43
894.30	16267.02
894.47	16307.98
894.64	16236.30
894.81	16193.29
894.98	16355.08
895.15	16217.86
895.33	16230.15
895.50	15869.71
895.67	16107.27
895.84	16203.53
896.01	16086.79
896.18	15904.53
896.35	16211.72
896.52	16162.57
896.69	15877.90
896.86	15900.43
897.04	16140.04
897.21	16047.88
897.38	15871.76
897.55	15884.05
897.72	16035.60
897.89	15955.72
898.06	16008.97
898.23	15808.27
898.40	16025.36
898.57	15918.86
898.74	16168.71
898.91	15804.17
899.08	15986.44
899.26	15718.16
899.43	16101.13
899.60	15875.85
899.77	16078.60
899.94	16011.02
900.11	15685.39
900.28	15857.42
900.45	15697.68
900.62	15779.60
900.79	15914.77
900.96	15859.47
901.13	15982.35
901.30	15843.09
901.47	15777.55
901.64	15769.36
901.81	16101.13
901.98	15671.06
902.15	15980.30
902.32	15767.31
902.49	15896.33
902.66	15748.88
902.83	15783.70
903.01	15775.50
903.18	16043.79
903.35	15738.64
903.52	15630.10
903.69	16027.40
903.86	16021.26
904.03	15726.35
904.20	16002.83
904.37	15748.88
904.54	15800.08
904.71	15691.54
904.88	15615.76
905.05	15447.83
905.22	15875.85
905.39	15617.81
905.56	15838.99
905.73	15714.06
905.90	15746.83
906.07	15523.60
906.24	15666.96
906.41	15646.48
906.58	15947.53
906.75	15705.87
906.92	15609.62
907.09	15898.38
907.26	15523.60
907.43	15537.94
907.60	15615.76
907.77	15705.87
907.93	15892.24
908.10	15589.14
908.27	15511.32
908.44	15671.06
908.61	15435.54
908.78	15537.94
908.95	15417.11
909.12	15582.99
909.29	15474.45
909.46	15372.05
909.63	15550.23
909.80	15568.66
909.97	15554.32
910.14	15453.97
910.31	15570.71
910.48	15640.34
910.65	15488.79
910.82	15386.39
910.99	15726.35
911.16	15290.13
911.33	15408.92
911.50	15312.66
911.66	15269.66
911.83	15261.46
912.00	15066.91
912.17	15023.90
912.34	15283.99
912.51	15232.79
912.68	15187.74
912.85	15120.15
913.02	15269.66
913.19	15089.43
913.36	15240.98
913.53	15150.87
913.70	14982.94
913.86	15200.02
914.03	15046.43
914.20	14939.93
914.37	14855.97
914.54	14958.36
914.71	14946.08
914.88	14880.54
915.05	14880.54
915.22	14593.83
915.39	14640.93
915.55	14935.84
915.72	14671.65
915.89	14720.80
916.06	14438.18
916.23	14604.07
916.40	14536.48
916.57	14427.94
916.74	14475.04
916.91	14565.15
917.07	14243.62
917.24	14405.41
917.41	14255.91
917.58	14294.82
917.75	14311.21
917.92	13961.00
918.09	14102.31
918.26	13915.95
918.42	14251.81
918.59	14260.01
918.76	14212.90
918.93	14102.31
919.10	13717.29
919.27	13647.66
919.44	13883.18
919.60	13938.48
919.77	14018.35
919.94	13698.86
920.11	13715.25
920.28	13825.84
920.45	13815.60
920.61	13590.32
920.78	13518.64
920.95	13571.89
921.12	13479.73
921.29	13418.29
921.46	13500.21
921.62	13262.65
921.79	13262.65
921.96	13141.82
922.13	13233.97
922.30	13160.25
922.47	12863.29
922.63	12951.35
922.80	12877.63
922.97	13109.05
923.14	12760.89
923.31	12664.64
923.47	12793.66
923.64	13061.94
923.81	12891.96
923.98	12787.52
924.15	12375.88
924.32	12513.09
924.48	12500.80
924.65	12615.49
924.82	12533.57
924.99	12472.13
925.15	12218.18
925.32	12267.33
925.49	12189.51
925.66	12205.89
925.83	12060.49
925.99	12068.68
926.16	12156.74
926.33	12234.57
926.50	11624.27
926.67	12062.54
926.83	11855.69
927.00	11708.24
927.17	11691.85
927.34	11540.30
927.50	11867.98
927.67	11943.75
927.84	11749.20
928.01	11446.10
928.17	11444.05
928.34	11462.48
928.51	11587.41
928.68	11433.81
928.84	11444.05
929.01	11306.84
929.18	11186.01
929.35	11192.15
929.51	11194.20
929.68	10843.99
929.85	11235.16
930.02	11050.84
930.18	11151.19
930.35	10944.34
930.52	10819.42
930.69	10956.63
930.85	10755.93
931.02	10725.21
931.19	10852.19
931.36	10717.02
931.52	10686.30
931.69	10530.66
931.86	10563.42
932.02	10553.18
932.19	10295.14
932.36	10483.55
932.53	10651.49
932.69	10407.78
932.86	10379.11
933.03	10317.67
933.19	10135.40
933.36	10270.56
933.53	10012.52
933.70	10030.95
933.86	9897.83
934.03	9977.70
934.20	9740.14
934.36	9828.20
934.53	9549.68
934.70	9508.72
934.86	9799.53
935.03	9400.18
935.20	9455.47
935.36	9240.44
935.53	9332.59
935.70	9265.01
935.86	9144.18
936.03	9029.49
936.20	9043.83
936.36	8877.94
936.53	8925.05
936.70	8761.21
936.86	9090.93
937.03	8613.76
937.20	8441.73
937.36	8732.54
937.53	8124.29
937.70	8181.64
937.86	8103.81
938.03	8101.76
938.20	8191.88
938.36	7872.39
938.53	8023.94
938.70	7710.60
938.86	7681.93
939.03	7626.64
939.20	7579.53
939.36	7608.20
939.53	7403.41
939.70	7608.20
939.86	7163.79
940.03	7022.48
940.19	7034.77
940.36	6770.58
940.53	6932.37
940.69	6918.04
940.86	6883.22
941.03	6639.51
941.19	6696.86
941.36	6625.18
941.52	6616.99
941.69	6524.83
941.86	6490.01
942.02	6408.09
942.19	6471.58
942.35	6272.93
942.52	6258.59
942.69	6289.31
942.85	6033.32
943.02	6033.32
943.18	6234.02
943.35	6080.42
943.52	6168.48
943.68	6010.79
943.85	5957.54
944.01	5853.09
944.18	5871.53
944.35	5873.57
944.51	5785.51
944.68	5740.46
944.84	5482.41
945.01	5566.38
945.17	5636.01
945.34	5578.67
945.51	5603.24
945.67	5588.91
945.84	5455.79
946.00	5420.97
946.17	5482.41
946.33	5488.56
946.50	5556.14
946.67	5472.17
946.83	5523.37
947.00	5531.56
947.16	5359.53
947.33	5533.61
947.49	5476.27
947.66	5402.54
947.82	5498.80
947.99	5445.55
948.16	5365.68
948.32	5406.64
948.49	5476.27
948.65	5433.26
948.82	5472.17
948.98	5429.17
949.15	5382.06
949.31	5408.69
949.48	5515.18
949.64	5316.53
949.81	5406.64
949.97	5334.96
950.14	5474.22
950.30	5500.84
950.47	5451.69
950.63	5468.08
950.80	5511.08
950.96	5482.41
951.13	5539.76
951.30	5478.32
951.46	5478.32
951.63	5613.48
951.79	5644.20
951.96	5547.95
952.12	5588.91
952.29	5582.76
952.45	5418.93
952.62	5468.08
952.78	5457.84
952.94	5543.85
953.11	5560.24
953.27	5476.27
953.44	5670.83
953.60	5500.84
953.77	5525.42
953.93	5500.84
954.10	5695.40
954.26	5685.16
954.43	5595.05
954.59	5599.15
954.76	5762.98
954.92	5631.91
955.09	5627.82
955.25	5461.93
955.42	5631.91
955.58	5873.57
955.75	5713.83
955.91	5578.67
956.07	5699.50
956.24	5679.02
956.40	5748.65
956.57	5627.82
956.73	5603.24
956.90	5613.48
957.06	5511.08
957.23	5543.85
957.39	5525.42
957.56	5676.97
957.72	5629.87
957.88	5574.57
958.05	5767.08
958.21	5805.99
958.38	5709.74
958.54	5560.24
958.71	5715.88
958.87	5672.87
959.03	5705.64
959.20	5717.93
959.36	5531.56
959.53	5676.97
959.69	5543.85
959.85	5664.68
960.02	5732.26
960.18	5566.38
960.35	5500.84
960.51	5662.63
960.68	5611.43
960.84	5619.63
961.00	5574.57
961.17	5552.04
961.33	5576.62
961.50	5593.00
961.66	5554.09
961.82	5609.39
961.99	5566.38
962.15	5545.90
962.31	5466.03
962.48	5679.02
962.64	5668.78
962.81	5482.41
962.97	5476.27
963.13	5629.87
963.30	5515.18
963.46	5492.65
963.62	5674.92
963.79	5689.26
963.95	5523.37
964.12	5537.71
964.28	5560.24
964.44	5423.02
964.61	5504.94
964.77	5605.29
964.93	5679.02
965.10	5459.88
965.26	5435.31
965.42	5498.80
965.59	5435.31
965.75	5513.13
965.92	5423.02
966.08	5443.50
966.24	5472.17
966.41	5377.97
966.57	5431.21
966.73	5482.41
966.90	5523.37
967.06	5375.92
967.22	5466.03
967.39	5566.38
967.55	5343.15
967.71	5343.15
967.88	5506.99
968.04	5287.86
968.20	5343.15
968.37	5330.86
968.53	5248.94
968.69	5302.19
968.85	5349.29
969.02	5275.57
969.18	5169.07
969.34	5296.05
969.51	5279.66
969.67	5371.82
969.83	5273.52
970.00	5277.62
970.16	5181.36
970.32	5273.52
970.48	5242.80
970.65	5179.31
970.81	5152.69
970.97	5132.21
971.14	5068.72
971.30	5230.51
971.46	5124.02
971.63	5279.66
971.79	5234.61
971.95	5124.02
972.11	5005.24
972.28	5113.78
972.44	5121.97
972.60	5142.45
972.76	5048.24
972.93	5124.02
973.09	5042.10
973.25	5083.06
973.42	5093.30
973.58	5230.51
973.74	5105.59
973.90	5103.54
974.07	5103.54
974.23	5044.15
974.39	5068.72
974.55	5058.48
974.72	4919.22
974.88	4861.88
975.04	4964.28
975.20	4954.04
975.37	5040.05
975.53	4968.37
975.69	4847.54
975.85	4673.46
976.01	4771.77
976.18	4882.36
976.34	4700.09
976.50	4896.69
976.66	4890.55
976.83	4841.40
976.99	4794.29
977.15	4825.01
977.31	4722.62
977.47	4925.36
977.64	4841.40
977.80	4767.67
977.96	4681.66
978.12	4763.58
978.29	4667.32
978.45	4589.50
978.61	4769.72
978.77	4816.82
978.93	4648.89
979.10	4689.85
979.26	4706.23
979.42	4675.51
979.58	4450.24
979.74	4673.46
979.91	4607.93
980.07	4722.62
980.23	4685.75
980.39	4626.36
980.55	4622.27
980.71	4538.30
980.88	4581.31
981.04	4526.01
981.20	4616.12
981.36	4546.49
981.52	4526.01
981.68	4450.24
981.85	4483.00
982.01	4427.71
982.17	4464.57
982.33	4505.53
982.49	4515.77
982.65	4417.47
982.82	4403.13
982.98	4437.95
983.14	4272.06
983.30	4427.71
983.46	4485.05
983.62	4403.13
983.79	4218.82
983.95	4306.88
984.11	4192.19
984.27	4315.07
984.43	4454.33
984.59	4274.11
984.75	4310.97
984.91	4184.00
985.08	4267.97
985.24	4190.14
985.40	4204.48
985.56	4222.91
985.72	4153.28
985.88	4263.87
986.04	4104.13
986.20	4235.20
986.37	4184.00
986.53	4118.47
986.69	4210.62
986.85	4108.23
987.01	4147.14
987.17	4255.68
987.33	4108.23
987.49	4114.37
987.65	4097.99
987.82	4067.27
987.98	4024.26
988.14	4145.09
988.30	4046.79
988.46	4083.65
988.62	4102.08
988.78	4040.64
988.94	4009.92
989.10	3958.72
989.26	3866.56
989.42	3854.28
989.59	3981.25
989.75	3942.34
989.91	3960.77
990.07	3794.89
990.23	3844.04
990.39	3741.64
990.55	3913.67
990.71	3925.96
990.87	3848.13
991.03	3854.28
991.19	3979.20
991.35	3831.75
991.51	3913.67
991.67	3950.53
991.83	3760.07
992.00	3796.93
992.16	3839.94
992.32	3778.50
992.48	3741.64
992.64	3698.63
992.80	3753.93
992.96	3815.37
993.12	3706.82
993.28	3737.54
993.44	3758.02
993.60	3764.17
993.76	3772.36
993.92	3727.30
994.08	3784.65
994.24	3729.35
994.40	3674.06
994.56	3735.50
994.72	3663.82
994.88	3647.43
995.04	3719.11
995.20	3612.62
995.36	3557.32
995.52	3600.33
995.68	3526.60
995.84	3561.42
996.00	3667.91
996.16	3559.37
996.32	3522.51
996.48	3659.72
996.64	3684.30
996.80	3551.18
996.96	3520.46
997.12	3413.96
997.28	3399.63
997.44	3411.92
997.60	3504.07
997.76	3506.12
997.92	3530.70
998.08	3479.50
998.24	3411.92
998.40	3418.06
998.56	3385.29
998.72	3313.61
998.88	3426.25
999.04	3358.67
999.20	3385.29
999.36	3346.38
999.52	3477.45
999.68	3375.05
999.84	3436.49
1000.00	3383.24
1000.16	3395.53
1000.32	3235.79
1000.48	3477.45
1000.64	3262.41
1000.80	3321.81
1000.95	3241.93
1001.11	3295.18
1001.27	3278.80
1001.43	3237.84
1001.59	3170.26
1001.75	3200.98
1001.91	3280.85
1002.07	3096.53
1002.23	3184.59
1002.39	3166.16
1002.55	3301.33
1002.71	3106.77
1002.87	3100.62
1003.03	3211.22
1003.19	3213.26
1003.34	3207.12
1003.50	3157.97
1003.66	3250.13
1003.82	3049.43
1003.98	3100.62
1004.14	3117.01
1004.30	3106.77
1004.46	3127.25
1004.62	3123.15
1004.78	3106.77
1004.94	2994.13
1005.09	3215.31
1005.25	3076.05
1005.41	3006.42
1005.57	3024.85
1005.73	3028.95
1005.89	3061.71
1006.05	3008.47
1006.21	2973.65
1006.37	2992.08
1006.52	2871.25
1006.68	2953.17
1006.84	3045.33
1007.00	2959.31
1007.16	2979.79
1007.32	2901.97
1007.48	2920.40
1007.64	2891.73
1007.79	3030.99
1007.95	2932.69
1008.11	2983.89
1008.27	2957.27
1008.43	2934.74
1008.59	2928.60
1008.75	2967.51
1008.91	2920.40
1009.06	2850.77
1009.22	2818.00
1009.38	2885.59
1009.54	2793.43
1009.70	2789.33
1009.86	2863.06
1010.01	2936.79
1010.17	2762.71
1010.33	2854.87
1010.49	2901.97
1010.65	2861.01
1010.81	2744.28
1010.96	2736.09
1011.12	2748.37
1011.28	2744.28
1011.44	2809.81
1011.60	2746.33
1011.76	2746.33
1011.91	2813.91
1012.07	2674.65
1012.23	2666.46
1012.39	2719.70
1012.55	2672.60
1012.71	2635.74
1012.86	2574.30
1013.02	2742.23
1013.18	2715.61
1013.34	2789.33
1013.50	2779.09
1013.65	2734.04
1013.81	2648.02
1013.97	2711.51
1014.13	2670.55
1014.29	2557.91
1014.44	2754.52
1014.60	2623.45
1014.76	2596.82
1014.92	2635.74
1015.07	2594.78
1015.23	2588.63
1015.39	2592.73
1015.55	2617.30
1015.71	2480.09
1015.86	2576.34
1016.02	2519.00
1016.18	2539.48
1016.34	2519.00
1016.49	2590.68
1016.65	2605.02
1016.81	2494.43
1016.97	2535.39
1017.12	2531.29
1017.28	2461.66
1017.44	2404.32
1017.60	2473.95
1017.75	2541.53
1017.91	2512.86
1018.07	2478.04
1018.23	2527.19
1018.38	2389.98
1018.54	2490.33
1018.70	2447.32
1018.86	2355.16
1019.01	2418.65
1019.17	2365.40
1019.33	2521.05
1019.49	2471.90
1019.64	2451.42
1019.80	2394.08
1019.96	2465.75
1020.12	2371.55
1020.27	2344.92
1020.43	2435.03
1020.59	2334.68
1020.74	2449.37
1020.90	2392.03
1021.06	2303.96
1021.22	2367.45
1021.37	2310.11
1021.53	2387.93
1021.69	2363.36
1021.84	2320.35
1022.00	2312.16
1022.16	2346.97
1022.31	2363.36
1022.47	2279.39
1022.63	2377.69
1022.79	2271.20
1022.94	2408.41
1023.10	2381.79
1023.26	2306.01
1023.41	2285.53
1023.57	2254.81
1023.73	2328.54
1023.88	2269.15
1024.04	2191.33
1024.20	2181.09
1024.35	2320.35
1024.51	2293.72
1024.67	2338.78
1024.82	2267.10
1024.98	2189.28
1025.14	2228.19
1025.29	2136.03
1025.45	2306.01
1025.61	2176.99
1025.76	2207.71
1025.92	2203.61
1026.08	2193.37
1026.23	2275.29
1026.39	2228.19
1026.55	2252.77
1026.70	2191.33
1026.86	2222.05
1027.02	2220.00
1027.17	2179.04
1027.33	2293.72
1027.48	2152.42
1027.64	2125.79
1027.80	2176.99
1027.95	2146.27
1028.11	2109.41
1028.27	2187.23
1028.42	2209.76
1028.58	2097.12
1028.73	2140.13
1028.89	2174.94
1029.05	2205.66
1029.20	2156.51
>>>>>End Processed Spectral Data<<<<<
