SpectraSuite Data File
++++++++++++++++++++++++++++++++++++
Date: Fri Jun 02 14:47:59 CEST 2017
User: INFO_000
Dark Spectrum Present: No
Reference Spectrum Present: No
Number of Sampled Component Spectra: 1
Spectrometers: USB4H00879
Integration Time (usec): 80000 (USB4H00879)
Spectra Averaged: 1 (USB4H00879)
Boxcar Smoothing: 0 (USB4H00879)
Correct for Electrical Dark: No (USB4H00879)
Strobe/Lamp Enabled: No (USB4H00879)
Correct for Detector Non-linearity: No (USB4H00879)
Correct for Stray Light: No (USB4H00879)
Number of Pixels in Processed Spectrum: 3648
>>>>>Begin Processed Spectral Data<<<<<
345.13	1263.60
345.34	1263.60
345.56	1263.60
345.78	1257.45
345.99	1259.50
346.21	1755.11
346.42	1759.21
346.64	1708.01
346.86	1757.16
347.07	1654.76
347.29	1720.29
347.50	1642.47
347.72	1740.77
347.94	1779.68
348.15	1560.55
348.37	1630.18
348.59	1650.66
348.80	1605.61
349.02	1812.45
349.23	1914.85
349.45	1857.51
349.67	1877.99
349.88	1845.22
350.10	1951.71
350.31	1867.75
350.53	1789.92
350.75	1955.81
350.96	1789.92
351.18	1798.12
351.39	1847.27
351.61	1820.64
351.82	1931.23
352.04	1910.75
352.26	1890.28
352.47	1882.08
352.69	1957.86
352.90	1753.06
353.12	1953.76
353.34	1824.74
353.55	1888.23
353.77	1941.47
353.98	1839.08
354.20	1820.64
354.41	1916.90
354.63	1904.61
354.85	2027.49
355.06	1994.72
355.28	1796.07
355.49	1853.41
355.71	1931.23
355.92	1867.75
356.14	1912.80
356.35	1884.13
356.57	1859.56
356.79	1906.66
357.00	1785.83
357.22	1933.28
357.43	1869.80
357.65	1920.99
357.86	1869.80
358.08	1851.36
358.29	1918.95
358.51	1957.86
358.72	1923.04
358.94	1927.14
359.16	1843.17
359.37	1933.28
359.59	1923.04
359.80	2004.96
360.02	1877.99
360.23	1906.66
360.45	2033.63
360.66	1863.65
360.88	1816.55
361.09	1933.28
361.31	2041.82
361.52	1931.23
361.74	2011.11
361.95	2062.30
362.17	1914.85
362.38	2072.54
362.60	2011.11
362.81	2035.68
363.03	1970.15
363.24	2064.35
363.46	1980.39
363.67	2013.15
363.89	2007.01
364.10	1949.67
364.32	1937.38
364.53	2019.30
364.75	1920.99
364.96	2078.69
365.18	2047.97
365.39	2019.30
365.61	1916.90
365.82	2138.08
366.04	1923.04
366.25	1951.71
366.47	2019.30
366.68	2052.06
366.90	1976.29
367.11	2043.87
367.33	2076.64
367.54	1998.82
367.76	1988.58
367.97	2117.60
368.19	2052.06
368.40	2084.83
368.62	1990.63
368.83	1966.05
369.05	2037.73
369.26	2025.44
369.48	2050.02
369.69	1980.39
369.91	2025.44
370.12	2035.68
370.33	2037.73
370.55	1947.62
370.76	1939.43
370.98	2074.59
371.19	2060.26
371.41	2039.78
371.62	2070.50
371.84	1974.24
372.05	2123.74
372.27	2131.94
372.48	2093.02
372.69	2074.59
372.91	2140.13
373.12	2154.46
373.34	2041.82
373.55	2111.46
373.77	2152.42
373.98	2064.35
374.20	2170.85
374.41	2174.94
374.62	2058.21
374.84	2095.07
375.05	2185.18
375.27	2170.85
375.48	2148.32
375.70	2095.07
375.91	2199.52
376.12	2220.00
376.34	2179.04
376.55	2181.09
376.77	2158.56
376.98	2070.50
377.19	2123.74
377.41	2097.12
377.62	2148.32
377.84	2222.05
378.05	2357.21
378.27	2179.04
378.48	2269.15
378.69	2351.07
378.91	2285.53
379.12	2277.34
379.34	2195.42
379.55	2228.19
379.76	2215.90
379.98	2224.09
380.19	2297.82
380.41	2215.90
380.62	2287.58
380.83	2306.01
381.05	2189.28
381.26	2443.23
381.47	2244.57
381.69	2260.96
381.90	2396.12
382.12	2263.01
382.33	2250.72
382.54	2351.07
382.76	2299.87
382.97	2332.64
383.19	2189.28
383.40	2363.36
383.61	2314.20
383.83	2211.81
384.04	2340.83
384.25	2367.45
384.47	2381.79
384.68	2420.70
384.89	2246.62
385.11	2340.83
385.32	2344.92
385.54	2439.13
385.75	2336.73
385.96	2385.88
386.18	2412.51
386.39	2369.50
386.60	2334.68
386.82	2383.84
387.03	2428.89
387.24	2490.33
387.46	2418.65
387.67	2506.71
387.88	2557.91
388.10	2461.66
388.31	2449.37
388.52	2547.67
388.74	2443.23
388.95	2551.77
389.16	2596.82
389.38	2453.47
389.59	2605.02
389.80	2596.82
390.02	2498.52
390.23	2611.16
390.44	2523.10
390.66	2516.95
390.87	2455.51
391.08	2633.69
391.30	2650.07
391.51	2578.39
391.72	2602.97
391.94	2660.31
392.15	2674.65
392.36	2666.46
392.58	2688.98
392.79	2723.80
393.00	2775.00
393.22	2731.99
393.43	2742.23
393.64	2781.14
393.85	2801.62
394.07	2633.69
394.28	2818.00
394.49	2758.61
394.71	2719.70
394.92	2854.87
395.13	2789.33
395.35	2807.77
395.56	2799.57
395.77	2815.96
395.98	2727.89
396.20	2895.83
396.41	2832.34
396.62	2912.21
396.84	2748.37
397.05	2822.10
397.26	2910.16
397.47	2873.30
397.69	2881.49
397.90	2987.99
398.11	2983.89
398.32	2899.92
398.54	2861.01
398.75	2879.44
398.96	2940.88
399.18	3063.76
399.39	2891.73
399.60	2996.18
399.81	2969.55
400.03	2840.53
400.24	3125.20
400.45	3018.71
400.66	2957.27
400.88	2887.64
401.09	3121.10
401.30	3010.51
401.51	2977.75
401.73	3100.62
401.94	3149.78
402.15	3127.25
402.36	3063.76
402.58	3123.15
402.79	3110.86
403.00	3110.86
403.21	3092.43
403.43	3235.79
403.64	3284.94
403.85	3168.21
404.06	3143.63
404.27	3076.05
404.49	3133.39
404.70	3043.28
404.91	3315.66
405.12	3235.79
405.34	3121.10
405.55	3366.86
405.76	3133.39
405.97	3284.94
406.19	3325.90
406.40	3254.22
406.61	3205.07
406.82	3262.41
407.03	3334.09
407.25	3192.78
407.46	3385.29
407.67	3438.54
407.88	3485.64
408.09	3370.96
408.31	3235.79
408.52	3299.28
408.73	3389.39
408.94	3305.42
409.15	3430.35
409.37	3358.67
409.58	3397.58
409.79	3420.11
410.00	3618.76
410.21	3542.99
410.43	3514.31
410.64	3346.38
410.85	3487.69
411.06	3524.55
411.27	3475.40
411.48	3532.75
411.70	3518.41
411.91	3639.24
412.12	3682.25
412.33	3565.51
412.54	3573.71
412.76	3739.59
412.97	3690.44
413.18	3375.05
413.39	3606.47
413.60	3735.50
413.81	3696.58
414.03	3684.30
414.24	3614.66
414.45	3878.85
414.66	3549.13
414.87	3821.51
415.08	3692.49
415.30	3770.31
415.51	3782.60
415.72	3702.73
415.93	3690.44
416.14	3901.38
416.35	3887.04
416.56	3821.51
416.78	3815.37
416.99	3848.13
417.20	3760.07
417.41	3852.23
417.62	4005.83
417.83	3897.28
418.04	3934.15
418.26	3928.00
418.47	3946.44
418.68	3979.20
418.89	4038.59
419.10	4149.18
419.31	4020.16
419.52	4134.85
419.73	4050.88
419.95	4118.47
420.16	3997.64
420.37	4011.97
420.58	4087.75
420.79	4011.97
421.00	4093.89
421.21	4218.82
421.42	3940.29
421.63	4186.05
421.85	4093.89
422.06	4233.15
422.27	4231.10
422.48	4167.62
422.69	4294.59
422.90	4173.76
423.11	4313.02
423.32	4384.70
423.53	4333.50
423.75	4296.64
423.96	4476.86
424.17	4427.71
424.38	4595.64
424.59	4360.13
424.80	4560.83
425.01	4478.91
425.22	4446.14
425.43	4499.39
425.64	4714.42
425.85	4577.21
426.06	4691.90
426.28	4589.50
426.49	4503.48
426.70	4480.96
426.91	4569.02
427.12	4640.70
427.33	4706.23
427.54	4579.26
427.75	4757.43
427.96	4761.53
428.17	4628.41
428.38	4751.29
428.59	4870.07
428.80	4804.53
429.01	4779.96
429.23	4698.04
429.44	4984.76
429.65	4894.65
429.86	5074.87
430.07	4949.94
430.28	4880.31
430.49	4868.02
430.70	5070.77
430.91	5091.25
431.12	5072.82
431.33	5054.39
431.54	5121.97
431.75	5158.83
431.96	5078.96
432.17	4978.61
432.38	5140.40
432.59	5359.53
432.80	5224.37
433.01	5322.67
433.22	5277.62
433.43	5250.99
433.64	5226.42
433.85	5199.79
434.06	5296.05
434.27	5316.53
434.49	5371.82
434.70	5519.28
434.91	5361.58
435.12	5470.12
435.33	5468.08
435.54	5375.92
435.75	5279.66
435.96	5328.81
436.17	5337.01
436.38	5560.24
436.59	5631.91
436.80	5500.84
437.01	5785.51
437.22	5463.98
437.43	5621.67
437.64	5375.92
437.85	5676.97
438.06	5750.70
438.27	5636.01
438.48	5488.56
438.69	5672.87
438.90	5607.34
439.11	5734.31
439.32	5732.26
439.53	5728.17
439.74	5838.76
439.95	5865.38
440.16	5799.85
440.37	5818.28
440.57	5705.64
440.78	5912.49
440.99	5941.16
441.20	5902.25
441.41	5902.25
441.62	5799.85
441.83	5795.75
442.04	5922.73
442.25	5955.49
442.46	6004.64
442.67	6131.62
442.88	6492.06
443.09	5838.76
443.30	6084.52
443.51	6027.17
443.72	6352.80
443.93	6150.05
444.14	6266.78
444.35	5996.45
444.56	6219.68
444.77	6156.19
444.98	6295.46
445.19	6309.79
445.40	6090.66
445.61	6348.70
445.81	6317.98
446.02	6459.29
446.23	6258.59
446.44	6201.25
446.65	6451.10
446.86	6391.71
447.07	6641.56
447.28	6676.38
447.49	6596.51
447.70	6426.53
447.91	6604.70
448.12	6469.53
448.33	6711.19
448.54	6659.99
448.74	6655.90
448.95	6713.24
449.16	6539.16
449.37	7083.92
449.58	6713.24
449.79	6989.72
450.00	6834.07
450.21	6965.14
450.42	6928.28
450.63	7012.24
450.84	6969.24
451.05	7065.49
451.25	6881.18
451.46	7014.29
451.67	7002.01
451.88	7255.95
452.09	7071.64
452.30	7118.74
452.51	7171.99
452.72	7436.17
452.93	7612.30
453.13	7067.54
453.34	7364.50
453.55	7380.88
453.76	7452.56
453.97	7712.65
454.18	7438.22
454.39	7372.69
454.60	7532.43
454.81	7450.51
455.01	7737.23
455.22	7405.46
455.43	7657.36
455.64	7741.32
455.85	7800.71
456.06	8054.66
456.27	7982.98
456.48	7733.13
456.68	8064.90
456.89	7831.43
457.10	8052.61
457.31	8001.41
457.52	8128.39
457.73	8015.75
457.94	8050.57
458.14	7980.93
458.35	8333.18
458.56	8263.55
458.77	8165.25
458.98	8304.51
459.19	8365.95
459.39	8425.34
459.60	8716.16
459.81	8435.58
460.02	8576.89
460.23	8474.49
460.44	8941.43
460.65	8677.24
460.85	8847.22
461.06	8869.75
461.27	8613.76
461.48	8791.93
461.69	9099.13
461.89	8578.94
462.10	8949.62
462.31	8888.18
462.52	8812.41
462.73	9064.31
462.94	9211.76
463.14	9162.61
463.35	9285.49
463.56	9510.77
463.77	9408.37
463.98	9228.15
464.18	9342.83
464.39	9676.65
464.60	9832.30
464.81	9604.97
465.02	9600.88
465.23	9647.98
465.43	9488.24
465.64	9850.73
465.85	9772.91
466.06	9846.63
466.27	10030.95
466.47	9989.99
466.68	9926.50
466.89	10004.33
467.10	10047.33
467.30	9887.59
467.51	10299.23
467.72	10391.39
467.93	10186.60
468.14	10403.68
468.34	10389.35
468.55	10377.06
468.76	10524.51
468.97	10305.38
469.17	10911.58
469.38	10825.56
469.59	10858.33
469.80	10657.63
470.01	10915.67
470.21	10731.36
470.42	10948.44
470.63	11110.23
470.84	10956.63
471.04	11249.49
471.25	11157.33
471.46	11056.98
471.67	11288.40
471.87	11456.34
472.08	11521.87
472.29	11679.57
472.50	11405.14
472.70	11325.27
472.91	11611.98
473.12	11646.80
473.33	11910.99
473.53	12140.36
473.74	11773.77
473.95	12076.87
474.16	12062.54
474.36	12044.10
474.57	12109.64
474.78	12306.24
474.99	12353.35
475.19	12308.29
475.40	12572.48
475.61	12771.13
475.81	12791.61
476.02	13135.67
476.23	12631.87
476.44	12764.99
476.64	13209.40
476.85	13289.27
477.06	12996.41
477.27	13395.76
477.47	13309.75
477.68	13500.21
477.89	13729.58
478.09	13586.22
478.30	13700.91
478.51	13670.19
478.71	13938.48
478.92	14118.70
479.13	13987.63
479.34	14294.82
479.54	14231.33
479.75	14311.21
479.96	14511.91
480.16	14561.06
480.37	14599.97
480.58	14587.68
480.78	14815.01
480.99	14675.74
481.20	14962.46
481.41	15126.30
481.61	15243.03
481.82	15099.67
482.03	15111.96
482.23	15324.95
482.44	15597.33
482.65	15976.20
482.85	15761.17
483.06	15746.83
483.27	15662.86
483.47	15804.17
483.68	15730.45
483.89	16072.46
484.09	15970.06
484.30	16203.53
484.51	16451.33
484.71	16402.18
484.92	16551.68
485.13	16666.37
485.33	16772.86
485.54	16670.47
485.75	16942.85
485.95	16987.90
486.16	16979.71
486.37	17327.86
486.57	17086.20
486.78	17256.18
486.98	17440.50
487.19	17317.62
487.40	17690.35
487.60	17567.48
487.81	18011.89
488.02	17940.21
488.22	17825.52
488.43	18050.80
488.64	18093.80
488.84	18269.93
489.05	18695.91
489.25	18282.22
489.46	18777.83
489.67	18611.94
489.87	19046.11
490.08	18773.73
490.29	19224.28
490.49	19248.86
490.70	19484.37
490.90	19519.19
491.11	19154.65
491.32	19551.96
491.52	19713.75
491.73	19683.03
491.94	19558.10
492.14	19551.96
492.35	19910.35
492.55	20008.65
492.76	20141.77
492.97	20258.51
493.17	20340.43
493.38	20471.50
493.58	20750.02
493.79	20446.92
494.00	20909.76
494.20	20747.97
494.41	21069.50
494.61	20803.27
494.82	21010.11
495.02	21239.48
495.23	21003.97
495.44	21356.22
495.64	21710.52
495.85	21532.34
496.05	21817.01
496.26	21655.22
496.47	22070.96
496.67	21814.96
496.88	21989.04
497.08	21968.56
497.29	22199.98
497.49	22087.34
497.70	22302.38
497.91	22474.41
498.11	22550.18
498.32	22763.17
498.52	22666.92
498.73	23160.48
498.93	23199.39
499.14	22933.15
499.34	22849.19
499.55	23152.29
499.76	23193.25
499.96	23465.63
500.17	23146.14
500.37	23355.04
500.58	23482.01
500.78	23283.36
500.99	23717.53
501.19	23928.47
501.40	23836.31
501.60	23836.31
501.81	23781.01
502.02	23895.70
502.22	23983.76
502.43	24041.11
502.63	24516.23
502.84	24557.19
503.04	24381.07
503.25	24266.38
503.45	24514.19
503.66	24628.87
503.86	24624.78
504.07	24964.74
504.27	24618.63
504.48	24972.93
504.68	24868.48
504.89	25212.54
505.09	24991.36
505.30	25181.82
505.50	25333.37
505.71	25040.51
505.91	25843.32
506.12	25392.76
506.32	25679.48
506.53	25450.11
506.73	25710.20
506.94	25853.56
507.14	25792.12
507.35	25818.74
507.55	25818.74
507.76	26125.94
507.96	25681.53
508.17	25867.89
508.37	25929.33
508.58	26074.74
508.78	26347.12
508.99	26725.99
509.19	26308.21
509.40	26105.46
509.60	26277.49
509.81	26404.46
510.01	26363.50
510.22	26277.49
510.42	26547.82
510.63	26807.91
510.83	26639.98
511.04	26232.43
511.24	26742.38
511.44	26998.37
511.65	26582.63
511.85	26580.59
512.06	26695.27
512.26	26908.26
512.47	26795.62
512.67	27076.19
512.88	26943.08
513.08	26648.17
513.29	27547.23
513.49	27221.60
513.69	27309.66
513.90	27143.78
514.10	27270.75
514.31	27457.12
514.51	27514.46
514.72	27471.45
514.92	27455.07
515.13	27684.44
515.33	27328.10
515.53	27805.27
515.74	27551.32
515.94	27528.80
516.15	27561.56
516.35	27774.55
516.56	28042.84
516.76	27952.73
516.96	27614.81
517.17	27987.54
517.37	28071.51
517.58	27788.89
517.78	28280.40
517.99	28171.86
518.19	28294.74
518.39	28364.37
518.60	28587.60
518.80	28245.58
519.01	28616.27
519.21	28317.26
519.41	28735.05
519.62	28477.01
519.82	28589.64
520.03	28919.37
520.23	28794.44
520.43	28720.71
520.64	29072.96
520.84	28997.19
521.05	28726.86
521.25	29068.87
521.45	29216.32
521.66	29156.93
521.86	29091.40
522.07	29271.62
522.27	29195.84
522.47	29222.47
522.68	29855.29
522.88	29673.02
523.08	29390.40
523.29	29761.08
523.49	29630.01
523.70	29750.84
523.90	30271.03
524.10	29843.00
524.31	30195.25
524.51	29855.29
524.71	30303.79
524.92	30111.28
525.12	30279.22
525.33	30279.22
525.53	30400.05
525.73	30451.25
525.94	30490.16
526.14	30348.85
526.34	30555.69
526.55	30748.20
526.75	30631.47
526.95	31006.25
527.16	30907.94
527.36	31159.84
527.56	31125.03
527.77	31409.70
527.97	31282.72
528.17	31168.04
528.38	31436.32
528.58	31284.77
528.78	31960.60
528.99	31348.26
529.19	31671.84
529.39	31669.79
529.60	31575.58
529.80	31737.37
530.00	31778.33
530.21	32331.28
530.41	31970.84
530.61	32288.28
530.82	32448.02
531.02	32157.21
531.22	32509.46
531.43	32359.95
531.63	32624.14
531.83	33218.05
532.04	33459.71
532.24	32904.71
532.44	33232.39
532.64	33474.05
532.85	33385.99
533.05	33433.09
533.25	33437.19
533.46	33650.17
533.66	33717.76
533.86	33496.58
534.07	33975.80
534.27	33803.77
534.47	34002.43
534.67	34270.71
534.88	33791.48
535.08	34158.07
535.28	34235.89
535.49	34342.39
535.69	34885.10
535.89	34813.42
536.09	34862.57
536.30	35126.76
536.50	35157.48
536.70	34989.55
536.91	35401.19
537.11	35263.97
537.31	35831.26
537.51	35438.05
537.72	35706.34
537.92	35974.62
538.12	36117.98
538.32	35964.38
538.53	36386.26
538.73	35825.12
538.93	35986.91
539.13	36058.59
539.34	36193.75
539.54	36038.11
539.74	36617.68
539.94	36578.77
540.15	36656.59
540.35	36791.76
540.55	36455.89
540.75	37010.89
540.96	36976.08
541.16	37111.24
541.36	37230.02
541.56	37301.70
541.77	37391.81
541.97	37500.36
542.17	37590.47
542.37	37449.16
542.58	37348.81
542.78	37692.86
542.98	37750.21
543.18	37684.67
543.38	38297.02
543.59	38432.18
543.79	38008.25
543.99	38430.13
544.19	38553.01
544.40	38116.79
544.60	38720.95
544.80	38479.28
545.00	38309.30
545.20	38899.12
545.41	38679.99
545.61	38919.60
545.81	39034.28
546.01	39517.60
546.21	39200.17
546.42	39097.77
546.62	39476.65
546.82	39296.42
547.02	39275.94
547.22	39341.48
547.43	39138.73
547.63	39646.63
547.83	39904.67
548.03	39497.13
548.23	39744.93
548.44	39871.90
548.64	40132.00
548.84	40142.24
549.04	40242.59
549.24	39968.16
549.45	40633.75
549.65	40205.72
549.85	40301.98
550.05	40322.46
550.25	40455.57
550.45	40938.90
550.66	40777.11
550.86	40603.03
551.06	41295.24
551.26	40598.93
551.46	40973.71
551.66	41108.88
551.87	40865.17
552.07	41106.83
552.27	41252.23
552.47	41260.43
552.67	41647.49
552.87	41555.33
553.07	41753.99
553.28	41710.98
553.48	41778.56
553.68	41620.87
553.88	41770.37
554.08	41686.40
554.28	41774.47
554.48	41555.33
554.69	42450.30
554.89	41870.72
555.09	41923.97
555.29	41911.68
555.49	42247.55
555.69	42419.58
555.89	42089.85
556.10	42327.42
556.30	42218.88
556.50	42661.24
556.70	42081.66
556.90	42655.09
557.10	42624.37
557.30	42599.80
557.50	43320.68
557.70	42716.53
557.91	42812.79
558.11	42954.10
558.31	42593.65
558.51	42671.48
558.71	42829.17
558.91	43206.00
559.11	42734.96
559.31	42909.04
559.51	42925.42
559.72	43310.44
559.92	43103.60
560.12	43165.04
560.32	43359.59
560.52	42978.67
560.72	43535.72
560.92	43744.61
561.12	43470.18
561.32	43597.16
561.52	43115.89
561.72	43908.45
561.93	43545.96
562.13	43541.86
562.33	43208.04
562.53	43767.14
562.73	43392.36
562.93	43881.83
563.13	43840.87
563.33	43816.29
563.53	43855.20
563.73	43898.21
563.93	43824.48
564.13	43881.83
564.33	44119.39
564.53	44023.14
564.74	44203.36
564.94	43646.31
565.14	44272.99
565.34	43904.35
565.54	44053.86
565.74	44641.62
565.94	44623.19
566.14	44352.86
566.34	44301.66
566.54	44721.49
566.74	43836.77
566.94	43859.30
567.14	44440.92
567.34	44246.36
567.54	44713.30
567.74	44148.06
567.94	44264.80
568.14	44991.83
568.34	44838.23
568.54	44512.60
568.74	44748.12
568.94	44344.67
569.14	44985.68
569.34	44567.90
569.54	44813.65
569.75	44430.68
569.95	44703.06
570.15	44621.14
570.35	44617.05
570.55	44838.23
570.75	44889.43
570.95	45067.60
571.15	45100.37
571.35	44991.83
571.55	45235.53
571.75	45090.13
571.95	45268.30
572.15	44733.78
572.35	44879.19
572.55	44901.71
572.75	44889.43
572.95	45512.01
573.15	45606.22
573.35	45442.38
573.55	45057.36
573.75	45124.94
573.95	45749.57
574.15	45323.60
574.35	45532.49
574.55	45385.04
574.75	45491.53
574.95	45243.73
575.15	45450.57
575.34	45135.18
575.54	45782.34
575.74	45786.44
575.94	45632.84
576.14	45591.88
576.34	45612.36
576.54	45610.31
576.74	45665.61
576.94	45663.56
577.14	46097.73
577.34	46257.47
577.54	45655.37
577.74	45964.61
577.94	45866.31
578.14	46019.91
578.34	45872.45
578.54	45245.77
578.74	45890.88
578.94	46097.73
579.14	45733.19
579.34	45937.99
579.54	46286.14
579.74	46693.69
579.94	46511.42
580.13	46198.08
580.33	46388.54
580.53	46333.24
580.73	46593.34
580.93	46296.38
581.13	46503.23
581.33	46818.61
581.53	46816.57
581.73	47011.12
581.93	46703.93
582.13	46652.73
582.33	47011.12
582.53	46396.73
582.73	47000.88
582.92	46742.84
583.12	47101.23
583.32	47103.28
583.52	47260.97
583.72	46888.24
583.92	46966.07
584.12	46892.34
584.32	47185.20
584.52	46802.23
584.72	47244.59
584.92	47183.15
585.11	47930.66
585.31	47205.68
585.51	47355.18
585.71	47002.93
585.91	47365.42
586.11	47324.46
586.31	47658.28
586.51	47461.68
586.71	47748.39
586.91	47789.35
587.10	47633.71
587.30	47582.51
587.50	48069.92
587.70	47842.60
587.90	47676.71
588.10	48149.79
588.30	48031.01
588.50	48157.99
588.69	48145.70
588.89	48207.14
589.09	48373.02
589.29	48024.87
589.49	48362.78
589.69	47949.09
589.89	48260.38
590.08	48172.32
590.28	48168.22
590.48	48794.90
590.68	48311.58
590.88	48557.34
591.08	48545.05
591.28	48629.02
591.47	48864.53
591.67	48549.15
591.87	48635.16
592.07	48618.78
592.27	48518.43
592.47	48706.84
592.67	48723.22
592.86	48495.90
593.06	48948.50
593.26	48960.79
593.46	48923.93
593.66	48805.14
593.86	49018.13
594.05	49218.83
594.25	49253.65
594.45	49222.93
594.65	48917.78
594.85	48809.24
595.05	49634.57
595.24	49558.80
595.44	49614.09
595.64	49472.78
595.84	49865.99
596.04	49685.77
596.23	49675.53
596.43	50222.34
596.63	49773.83
596.83	49757.45
597.03	49945.86
597.22	50101.51
597.42	50160.90
597.62	50459.90
597.82	50007.30
598.02	50291.97
598.21	50392.32
598.41	49902.85
598.61	50326.78
598.81	50560.25
599.01	50885.88
599.20	50642.17
599.40	50390.27
599.60	51045.62
599.80	50437.37
600.00	50785.53
600.19	50756.86
600.39	50693.37
600.59	51178.74
600.79	51395.82
600.98	50582.78
601.18	50955.51
601.38	51004.66
601.58	50879.74
601.78	51156.21
601.97	51111.16
602.17	51465.45
602.37	51791.08
602.57	51313.90
602.76	51453.17
602.96	51520.75
603.16	51891.43
603.36	52057.32
603.55	52307.17
603.75	52229.35
603.95	52045.03
604.15	52106.47
604.34	51842.28
604.54	52643.04
604.74	52516.06
604.94	52278.50
605.13	52681.95
605.33	52442.34
605.53	52286.69
605.73	52903.13
605.92	52520.16
606.12	52802.78
606.32	52710.62
606.52	52735.20
606.71	52821.21
606.91	53247.19
607.11	52739.29
607.30	52913.37
607.50	52905.18
607.70	53302.48
607.90	53423.31
608.09	53064.92
608.29	53048.53
608.49	53316.82
608.68	53472.46
608.88	53593.29
609.08	53333.20
609.28	53523.66
609.47	53343.44
609.67	53966.02
609.87	53505.23
610.06	53753.04
610.26	53916.87
610.46	53974.22
610.66	53892.30
610.85	53900.49
611.05	54283.46
611.25	54314.18
611.44	53873.87
611.64	54074.57
611.84	54006.98
612.03	53814.47
612.23	54219.97
612.43	54246.60
612.62	53955.78
612.82	54494.40
613.02	54287.56
613.21	54457.54
613.41	54140.10
613.61	53896.39
613.80	54279.36
614.00	53880.01
614.20	54523.07
614.39	54498.50
614.59	54609.09
614.79	54742.20
614.98	54525.12
615.18	54836.41
615.38	54535.36
615.57	54625.47
615.77	55139.51
615.97	54641.85
616.16	54543.55
616.36	55278.77
616.56	54674.62
616.75	54961.34
616.95	54996.15
617.15	55194.81
617.34	54809.79
617.54	54832.32
617.74	54983.86
617.93	55174.33
618.13	54930.62
618.32	55147.70
618.52	54654.14
618.72	54856.89
618.91	55258.29
619.11	54957.24
619.31	55164.09
619.50	54887.61
619.70	54719.68
619.90	54975.67
620.09	54750.40
620.29	55358.64
620.48	54926.52
620.68	55317.68
620.88	54645.95
621.07	54422.72
621.27	55317.68
621.46	54983.86
621.66	54623.42
621.86	55026.87
622.05	54793.40
622.25	54918.33
622.44	55428.27
622.64	54926.52
622.84	55276.72
623.03	54643.90
623.23	55139.51
623.42	55041.21
623.62	55258.29
623.82	55399.60
624.01	55114.94
624.21	55266.48
624.40	54916.28
624.60	55600.30
624.80	55112.89
624.99	55084.22
625.19	54711.49
625.38	55366.84
625.58	55219.38
625.77	55203.00
625.97	55454.90
626.17	55082.17
626.36	55098.55
626.56	55227.57
626.75	55065.78
626.95	55497.91
627.14	55241.91
627.34	55737.52
627.54	54406.34
627.73	55243.96
627.93	55538.86
628.12	55264.44
628.32	55487.67
628.51	55063.74
628.71	55483.57
628.90	55317.68
629.10	55338.16
629.30	55340.21
629.49	55114.94
629.69	55143.61
629.88	55268.53
630.08	55635.12
630.27	55217.33
630.47	55403.70
630.66	55401.65
630.86	55747.76
631.05	55293.11
631.25	55698.61
631.44	55180.47
631.64	55528.62
631.84	55139.51
632.03	55782.57
632.23	55583.92
632.42	55954.60
632.62	55841.96
632.81	55479.47
633.01	55618.74
633.20	55485.62
633.40	55917.74
633.59	55706.80
633.79	54920.38
633.98	55479.47
634.18	55794.86
634.37	55395.51
634.57	55751.85
634.76	55887.02
634.96	55280.82
635.15	55753.90
635.35	55250.10
635.54	55307.44
635.74	55907.50
635.93	55274.68
636.13	55723.18
636.32	55805.10
636.52	55358.64
636.71	55379.12
636.91	55655.60
637.10	56046.76
637.30	55473.33
637.49	55520.43
637.69	55248.05
637.88	55790.76
638.08	55370.93
638.27	55641.26
638.46	55528.62
638.66	55524.53
638.85	55325.88
639.05	55960.75
639.24	56196.26
639.44	55338.16
639.63	55790.76
639.83	55997.61
640.02	55450.80
640.22	55301.30
640.41	55950.51
640.61	55301.30
640.80	55499.95
640.99	55192.76
641.19	55932.07
641.38	55190.71
641.58	55415.99
641.77	55291.06
641.97	55325.88
642.16	55868.59
642.36	55706.80
642.55	56200.36
642.74	55344.31
642.94	56042.66
643.13	55604.40
643.33	56206.50
643.52	55698.61
643.72	55725.23
643.91	55458.99
644.10	55622.83
644.30	55870.64
644.49	55870.64
644.69	56018.09
644.88	55583.92
645.08	55755.95
645.27	56059.05
645.46	55317.68
645.66	55465.14
645.85	55528.62
646.05	55803.05
646.24	55942.31
646.43	55948.46
646.63	55991.47
646.82	55899.31
647.02	55796.91
647.21	55999.66
647.40	55669.93
647.60	55706.80
647.79	55704.75
647.99	56032.42
648.18	55700.65
648.37	56259.75
648.57	56009.90
648.76	55956.65
648.96	55837.87
649.15	55751.85
649.34	56063.14
649.54	55680.17
649.73	55375.03
649.92	56059.05
650.12	55602.35
650.31	55782.57
650.51	56018.09
650.70	55999.66
650.89	55532.72
651.09	56229.03
651.28	55962.79
651.47	55940.27
651.67	55635.12
651.86	56251.56
652.06	55733.42
652.25	56149.16
652.44	55727.28
652.64	55362.74
652.83	55297.20
653.02	55200.95
653.22	55649.45
653.41	55745.71
653.60	55198.90
653.80	55932.07
653.99	55973.03
654.18	55399.60
654.38	55516.34
654.57	55696.56
654.76	55870.64
654.96	55813.29
655.15	55596.21
655.34	55399.60
655.54	55192.76
655.73	55377.08
655.92	56001.71
656.12	55647.41
656.31	55860.40
656.50	55671.98
656.70	55721.13
656.89	55801.00
657.08	55563.44
657.28	55645.36
657.47	55719.09
657.66	55925.93
657.86	55137.46
658.05	55428.27
658.24	56128.68
658.43	55112.89
658.63	55858.35
658.82	55862.44
659.01	55528.62
659.21	55989.42
659.40	56079.53
659.59	55391.41
659.79	55770.28
659.98	56001.71
660.17	56071.34
660.36	55985.32
660.56	55776.43
660.75	55923.88
660.94	55297.20
661.14	55635.12
661.33	55358.64
661.52	55217.33
661.71	55825.58
661.91	55069.88
662.10	55397.55
662.29	55604.40
662.49	55784.62
662.68	55483.57
662.87	55637.17
663.06	55788.72
663.26	55344.31
663.45	55950.51
663.64	55135.41
663.83	56110.25
664.03	55467.19
664.22	55645.36
664.41	55475.38
664.60	55235.77
664.80	55153.85
664.99	55325.88
665.18	55801.00
665.37	55102.65
665.57	55823.53
665.76	55235.77
665.95	55719.09
666.14	55356.60
666.34	55452.85
666.53	55704.75
666.72	55231.67
666.91	55801.00
667.11	54967.48
667.30	55714.99
667.49	55438.51
667.68	55327.92
667.87	55084.22
668.07	55456.95
668.26	55409.84
668.45	55291.06
668.64	54740.16
668.84	55899.31
669.03	55575.73
669.22	55325.88
669.41	55440.56
669.60	55332.02
669.80	55479.47
669.99	56095.91
670.18	55325.88
670.37	55340.21
670.57	55753.90
670.76	55473.33
670.95	55583.92
671.14	55276.72
671.33	54979.77
671.53	55719.09
671.72	55391.41
671.91	55825.58
672.10	55375.03
672.29	55248.05
672.48	55338.16
672.68	55760.05
672.87	55106.74
673.06	55286.96
673.25	55098.55
673.44	55104.70
673.64	55530.67
673.83	55143.61
674.02	54910.14
674.21	55096.50
674.40	55383.22
674.59	55440.56
674.79	55030.97
674.98	54901.95
675.17	55493.81
675.36	55329.97
675.55	55295.16
675.74	55145.65
675.94	55080.12
676.13	55129.27
676.32	54998.20
676.51	55714.99
676.70	55350.45
676.89	55229.62
677.08	55493.81
677.28	55174.33
677.47	55465.14
677.66	55278.77
677.85	55436.47
678.04	55962.79
678.23	55481.52
678.42	55231.67
678.62	55346.36
678.81	55962.79
679.00	55383.22
679.19	55723.18
679.38	55252.15
679.57	55426.23
679.76	55176.37
679.96	55342.26
680.15	55495.86
680.34	55504.05
680.53	55059.64
680.72	55127.22
680.91	55938.22
681.10	55145.65
681.29	55639.22
681.48	55555.25
681.68	55248.05
681.87	55209.14
682.06	54783.16
682.25	55194.81
682.44	55198.90
682.63	55375.03
682.82	55043.26
683.01	55217.33
683.20	54682.81
683.39	55014.58
683.59	54830.27
683.78	55280.82
683.97	54809.79
684.16	55434.42
684.35	55043.26
684.54	55289.01
684.73	55278.77
684.92	55121.08
685.11	55030.97
685.30	54981.82
685.49	55358.64
685.69	54475.97
685.88	54770.88
686.07	55262.39
686.26	54955.19
686.45	55407.79
686.64	54865.08
686.83	54648.00
687.02	55135.41
687.21	55006.39
687.40	55170.23
687.59	54932.67
687.78	54961.34
687.97	55276.72
688.16	55047.35
688.35	54691.01
688.54	54537.41
688.74	55268.53
688.93	54672.57
689.12	54789.31
689.31	54863.03
689.50	55329.97
689.69	55000.25
689.88	54488.26
690.07	55211.19
690.26	55579.82
690.45	55006.39
690.64	54686.91
690.83	54725.82
691.02	54758.59
691.21	54854.84
691.40	55051.45
691.59	54891.71
691.78	54826.17
691.97	54824.12
692.16	54615.23
692.35	55057.59
692.54	54891.71
692.73	55141.56
692.92	54920.38
693.11	54916.28
693.30	54797.50
693.49	54998.20
693.68	54635.71
693.87	54703.29
694.06	54938.81
694.25	54457.54
694.44	54500.54
694.63	54740.16
694.82	54484.16
695.01	54664.38
695.20	54494.40
695.39	54031.56
695.58	54582.46
695.77	54408.39
695.96	54353.09
696.15	54486.21
696.34	54148.29
696.53	54604.99
696.72	54693.05
696.91	54269.12
697.10	54670.53
697.29	54187.21
697.48	54815.93
697.67	54580.42
697.86	53998.79
698.05	54312.13
698.24	54777.02
698.43	53826.76
698.62	54447.30
698.81	54170.82
699.00	54281.41
699.19	54082.76
699.38	54332.61
699.57	54080.71
699.76	54527.17
699.95	53746.89
700.14	53660.88
700.32	54273.22
700.51	53992.65
700.70	54392.00
700.89	54219.97
701.08	53918.92
701.27	53961.93
701.46	54402.24
701.65	53703.88
701.84	54064.33
702.03	54121.67
702.22	53597.39
702.41	54140.10
702.60	54389.95
702.79	53882.06
702.98	53372.11
703.17	53855.43
703.35	53634.25
703.54	53462.22
703.73	54469.82
703.92	53998.79
704.11	53939.40
704.30	53689.55
704.49	53707.98
704.68	53826.76
704.87	54121.67
705.06	53738.70
705.25	53892.30
705.43	53705.93
705.62	53804.24
705.81	53687.50
706.00	53959.88
706.19	53175.51
706.38	53540.05
706.57	53808.33
706.76	53253.33
706.95	53984.46
707.14	53376.21
707.32	53093.59
707.51	52964.57
707.70	53425.36
707.89	53441.74
708.08	53159.12
708.27	53269.72
708.46	53593.29
708.65	53083.35
708.84	53445.84
709.02	53513.42
709.21	53310.67
709.40	52972.76
709.59	53695.69
709.78	52997.34
709.97	53707.98
710.16	52810.97
710.34	53161.17
710.53	53167.32
710.72	52692.19
710.91	53150.93
711.10	53130.45
711.29	53343.44
711.48	53032.15
711.66	53011.67
711.85	52692.19
712.04	53185.75
712.23	53007.58
712.42	52653.28
712.61	52831.45
712.80	52782.30
712.98	53126.36
713.17	52384.99
713.36	52823.26
713.55	52737.24
713.74	53056.73
713.93	52950.23
714.11	52366.56
714.30	52323.55
714.49	52337.89
714.68	52409.57
714.87	52151.52
715.06	52546.78
715.24	52374.75
715.43	52393.18
715.62	52196.58
715.81	52475.10
716.00	52442.34
716.18	51942.63
716.37	51987.69
716.56	51963.11
716.75	52292.83
716.94	52272.35
717.12	51731.69
717.31	52301.03
717.50	52075.75
717.69	52090.09
717.88	51823.85
718.06	52446.43
718.25	52374.75
718.44	51737.83
718.63	51993.83
718.82	52030.69
719.00	51762.41
719.19	51508.46
719.38	51336.43
719.57	51338.48
719.76	51295.47
719.94	51057.91
720.13	51205.36
720.32	51025.14
720.51	50953.46
720.69	50953.46
720.88	50877.69
721.07	51303.67
721.26	50689.27
721.44	50236.67
721.63	50468.09
721.82	50748.67
722.01	50451.71
722.20	50459.90
722.38	50285.82
722.57	50343.17
722.76	50656.51
722.95	50126.08
723.13	50044.16
723.32	49945.86
723.51	50050.31
723.70	49757.45
723.88	49853.70
724.07	49663.24
724.26	50152.71
724.44	49034.52
724.63	50427.13
724.82	49865.99
725.01	49657.10
725.19	49952.01
725.38	49724.68
725.57	49663.24
725.76	49573.13
725.94	49521.93
726.13	49556.75
726.32	49587.47
726.51	49384.72
726.69	49573.13
726.88	49620.23
727.07	49208.59
727.25	49259.79
727.44	49282.32
727.63	49628.43
727.82	49691.91
728.00	49280.27
728.19	48971.03
728.38	49442.06
728.56	48905.49
728.75	49521.93
728.94	48741.66
729.12	49159.44
729.31	49259.79
729.50	48889.11
729.69	49265.94
729.87	49161.49
730.06	49222.93
730.25	49001.75
730.43	49214.74
730.62	49229.07
730.81	48874.77
730.99	49224.98
731.18	48837.91
731.37	49095.95
731.55	48893.21
731.74	49435.92
731.93	49200.40
732.11	49374.48
732.30	48940.31
732.49	48893.21
732.67	48567.58
732.86	48774.42
733.05	48925.97
733.23	48325.92
733.42	48739.61
733.61	48551.20
733.79	48456.99
733.98	48338.21
734.17	48776.47
734.35	48803.10
734.54	48846.10
734.73	48567.58
734.91	48565.53
735.10	48381.21
735.29	48674.07
735.47	48117.03
735.66	48090.40
735.84	48346.40
736.03	48014.63
736.22	48436.51
736.40	47875.37
736.59	48370.97
736.78	48135.46
736.96	48393.50
737.15	48356.64
737.33	48362.78
737.52	47801.64
737.71	48102.69
737.89	47957.28
738.08	47748.39
738.27	47633.71
738.45	47969.57
738.64	47678.76
738.82	47756.58
739.01	47736.10
739.20	47664.42
739.38	47752.49
739.57	47949.09
739.75	47760.68
739.94	47625.51
740.13	47609.13
740.31	47482.16
740.50	47422.76
740.68	47576.36
740.87	47265.07
741.06	47541.55
741.24	47115.57
741.43	46937.40
741.61	47256.88
741.80	46597.43
741.99	47410.48
742.17	47080.75
742.36	46949.68
742.54	46763.32
742.73	46923.06
742.91	46882.10
743.10	46650.68
743.29	47007.03
743.47	46880.05
743.66	46929.20
743.84	47017.27
744.03	47052.08
744.21	46665.02
744.40	46898.48
744.59	46507.32
744.77	46413.12
744.96	46617.91
745.14	46775.61
745.33	46193.98
745.51	46400.83
745.70	46581.05
745.88	46181.70
746.07	46357.82
746.26	46263.61
746.44	46183.74
746.63	46220.61
746.81	46318.91
747.00	45718.85
747.18	46312.77
747.37	46370.11
747.55	46034.24
747.74	46241.09
747.92	45610.31
748.11	45749.57
748.29	45919.56
748.48	45712.71
748.66	45653.32
748.85	45725.00
749.03	45483.34
749.22	45919.56
749.41	45626.70
749.59	45911.36
749.78	45178.19
749.96	45432.14
750.15	45677.90
750.33	45708.61
750.52	45532.49
750.70	45794.63
750.89	45227.34
751.07	45356.36
751.26	44991.83
751.44	45114.70
751.63	45323.60
751.81	45016.40
752.00	44844.37
752.18	45063.50
752.37	44766.55
752.55	44711.25
752.74	44811.60
752.92	44680.53
753.10	44766.55
753.29	44825.94
753.47	44565.85
753.66	44432.73
753.84	44864.85
754.03	44490.07
754.21	44414.30
754.40	44938.58
754.58	44918.10
754.77	44606.81
754.95	44057.95
755.14	44402.01
755.32	44338.52
755.51	44160.35
755.69	44057.95
755.88	44164.45
756.06	44703.06
756.24	43877.73
756.43	44082.53
756.61	43693.41
756.80	44053.86
756.98	43785.57
757.17	43591.01
757.35	44025.18
757.54	43603.30
757.72	43756.90
757.90	43394.41
758.09	43464.04
758.27	43619.69
758.46	43273.58
758.64	43496.81
758.83	43521.38
759.01	43300.20
759.19	43050.35
759.38	43470.18
759.56	43335.02
759.75	43064.69
759.93	43191.66
760.12	43220.33
760.30	43578.73
760.48	42950.00
760.67	42517.88
760.85	43406.70
761.04	43384.17
761.22	43402.60
761.40	42728.82
761.59	42616.18
761.77	42931.57
761.96	42567.03
762.14	42878.32
762.32	42464.63
762.51	42454.39
762.69	42620.28
762.88	42888.56
763.06	42923.38
763.24	42820.98
763.43	42417.53
763.61	42345.85
763.80	42255.74
763.98	42206.59
764.16	42308.99
764.35	42048.89
764.53	41291.15
764.72	41749.89
764.90	41780.61
765.08	41956.74
765.27	42179.96
765.45	41915.78
765.63	41381.26
765.82	41774.47
766.00	41604.49
766.18	41579.91
766.37	42239.36
766.55	41184.65
766.74	41352.58
766.92	40895.89
767.10	41153.93
767.29	41246.09
767.47	40791.44
767.65	41403.78
767.84	41131.40
768.02	41317.77
768.20	40899.98
768.39	41164.17
768.57	40822.16
768.75	40869.26
768.94	41299.34
769.12	41014.67
769.30	40652.18
769.49	40670.61
769.67	41241.99
769.85	40400.28
770.04	40836.50
770.22	40508.82
770.40	40052.12
770.59	40533.40
770.77	40662.42
770.95	40820.11
771.14	40404.38
771.32	40322.46
771.50	40050.08
771.69	40410.52
771.87	40416.66
772.05	39773.60
772.24	39919.01
772.42	40017.31
772.60	40220.06
772.78	40240.54
772.97	39890.34
773.15	40175.00
773.33	39974.30
773.52	39773.60
773.70	39966.11
773.88	40011.17
774.07	39523.75
774.25	39802.27
774.43	39947.68
774.61	40043.93
774.80	39955.87
774.98	39937.44
775.16	40175.00
775.34	39773.60
775.53	39624.10
775.71	40039.84
775.89	40023.45
776.08	40185.24
776.26	40226.20
776.44	40015.26
776.62	39749.03
776.81	39798.18
776.99	40326.55
777.17	39773.60
777.35	39847.33
777.54	40283.55
777.72	39896.48
777.90	39769.51
778.08	40160.67
778.27	40105.37
778.45	40115.61
778.63	40023.45
778.81	39777.70
779.00	40676.76
779.18	40441.24
779.36	40959.38
779.54	39835.04
779.73	40572.31
779.91	40560.02
780.09	41024.91
780.27	40811.92
780.46	40189.34
780.64	40758.67
780.82	40465.81
781.00	40279.45
781.19	40500.63
781.37	40385.94
781.55	40611.22
781.73	41080.21
781.91	40471.96
782.10	40949.14
782.28	40859.02
782.46	40818.07
782.64	41328.01
782.82	40648.08
783.01	41006.48
783.19	41123.21
783.37	40844.69
783.55	40723.86
783.74	40611.22
783.92	40707.47
784.10	41160.08
784.28	41137.55
784.46	40537.49
784.64	40486.29
784.83	40811.92
785.01	40760.72
785.19	40611.22
785.37	40965.52
785.55	40652.18
785.74	40213.91
785.92	40338.84
786.10	41080.21
786.28	41117.07
786.46	40222.11
786.64	40551.83
786.83	40547.73
787.01	40650.13
787.19	40560.02
787.37	40670.61
787.55	40768.91
787.74	40486.29
787.92	40410.52
788.10	40402.33
788.28	39949.73
788.46	40230.30
788.64	40314.26
788.82	40068.51
789.01	40105.37
789.19	40197.53
789.37	40119.71
789.55	39869.86
789.73	40125.85
789.91	39746.98
790.09	39845.28
790.28	39781.79
790.46	39404.97
790.64	39656.87
790.82	39685.54
791.00	39603.62
791.18	39708.07
791.36	39263.66
791.55	39323.05
791.73	39009.71
791.91	39386.54
792.09	39368.10
792.27	39325.10
792.45	39118.25
792.63	39538.08
792.81	39130.54
793.00	38772.14
793.18	38890.93
793.36	38854.06
793.54	38555.06
793.72	38886.83
793.90	38608.31
794.08	38464.95
794.26	38733.23
794.44	38221.24
794.62	38507.96
794.81	38485.43
794.99	38475.19
795.17	37991.87
795.35	38149.56
795.53	38186.43
795.71	38241.72
795.89	37776.83
796.07	37666.24
796.25	37586.37
796.43	37598.66
796.61	37563.84
796.80	36941.26
796.98	37729.73
797.16	37332.42
797.34	37391.81
797.52	36969.93
797.70	37432.77
797.88	36976.08
798.06	36933.07
798.24	36767.18
798.42	37000.65
798.60	37090.76
798.78	36380.12
798.96	36652.50
799.14	36787.66
799.32	36746.70
799.51	36455.89
799.69	36468.18
799.87	36711.89
800.05	36296.15
800.23	36255.19
800.41	36273.62
800.59	36208.09
800.77	36130.26
800.95	35778.01
801.13	35919.32
801.31	35583.46
801.49	35603.94
801.67	35263.97
801.85	35571.17
802.03	35417.57
802.21	35384.80
802.39	35143.14
802.57	35243.49
802.75	35323.36
802.93	35122.66
803.11	35059.18
803.29	34749.93
803.47	34569.71
803.65	34731.50
803.83	34950.63
804.01	34698.73
804.19	34315.76
804.37	34422.26
804.55	34371.06
804.73	34311.67
804.91	34590.19
805.09	34252.28
805.27	33998.33
805.45	34143.74
805.63	34541.04
805.81	34162.17
805.99	34385.40
806.17	34022.90
806.35	34158.07
806.53	34264.57
806.71	33906.17
806.89	33680.89
807.07	33531.39
807.25	33773.05
807.43	33527.30
807.61	33617.41
807.79	33838.59
807.97	33314.31
808.15	33400.32
808.33	33469.95
808.51	33240.58
808.69	33469.95
808.87	33052.17
809.05	32728.59
809.23	32595.47
809.41	32837.13
809.59	33074.70
809.77	33007.11
809.95	32828.94
810.13	32740.88
810.31	32347.67
810.49	32763.40
810.67	32435.73
810.84	32450.06
811.02	32427.54
811.20	32087.57
811.38	32206.36
811.56	32052.76
811.74	32075.29
811.92	31995.42
812.10	31985.18
812.28	32407.06
812.46	32017.94
812.64	31821.34
812.82	31708.70
813.00	32122.39
813.18	32003.61
813.36	32116.25
813.53	31651.36
813.71	31483.42
813.89	31436.32
814.07	31600.16
814.25	31583.77
814.43	31168.04
814.61	31077.93
814.79	31315.49
814.97	31215.14
815.15	31196.71
815.33	30973.48
815.50	30801.45
815.68	31530.53
815.86	31243.81
816.04	30789.16
816.22	30846.51
816.40	31020.58
816.58	30776.87
816.76	30895.66
816.94	30801.45
817.11	30719.53
817.29	30473.78
817.47	30619.18
817.65	30475.82
817.83	30461.49
818.01	30359.09
818.19	30246.45
818.37	30213.68
818.54	30051.89
818.72	29535.81
818.90	30244.40
819.08	30103.09
819.26	30031.41
819.44	30344.75
819.62	29859.38
819.80	30031.41
819.97	30422.58
820.15	30277.17
820.33	29830.71
820.51	30182.96
820.69	29468.22
820.87	29894.20
821.05	29746.75
821.22	29761.08
821.40	29886.01
821.58	29353.54
821.76	29460.03
821.94	29306.43
822.12	29333.06
822.29	29478.46
822.47	29214.27
822.65	29345.34
822.83	29384.26
823.01	29177.41
823.19	29206.08
823.36	28872.26
823.54	29052.48
823.72	28984.90
823.90	28915.27
824.08	28642.89
824.25	28866.12
824.43	28419.66
824.61	28636.75
824.79	28866.12
824.97	28448.33
825.15	28687.95
825.32	28728.91
825.50	28575.31
825.68	28431.95
825.86	28790.34
826.04	28737.10
826.21	28630.60
826.39	28221.01
826.57	28538.44
826.75	28253.78
826.93	27954.77
827.10	27932.25
827.28	28257.87
827.46	28083.80
827.64	28075.60
827.81	28374.61
827.99	27694.68
828.17	27682.39
828.35	28161.62
828.53	27817.56
828.70	27784.79
828.88	27825.75
829.06	27805.27
829.24	27969.11
829.41	27461.21
829.59	27858.52
829.77	27637.34
829.95	27827.80
830.12	27457.12
830.30	27618.91
830.48	27432.54
830.66	27868.76
830.84	27706.97
831.01	27248.22
831.19	27555.42
831.37	27242.08
831.55	27272.80
831.72	27260.51
831.90	27125.35
832.08	27338.33
832.25	27203.17
832.43	27250.27
832.61	27111.01
832.79	27012.71
832.96	27074.15
833.14	26877.54
833.32	27035.24
833.50	27143.78
833.67	27201.12
833.85	26709.61
834.03	26725.99
834.20	27059.81
834.38	26943.08
834.56	27035.24
834.74	26639.98
834.91	26908.26
835.09	26666.60
835.27	26306.16
835.44	26570.35
835.62	26400.37
835.80	26087.03
835.98	26482.28
836.15	26355.31
836.33	26422.89
836.51	26476.14
836.68	26011.25
836.86	25763.45
837.04	26195.57
837.21	26254.96
837.39	25927.28
837.57	26158.70
837.75	26308.21
837.92	26023.54
838.10	25636.47
838.28	25724.54
838.45	25900.66
838.63	25878.13
838.81	25892.47
838.98	25714.30
839.16	25831.03
839.34	25745.02
839.51	25642.62
839.69	25513.59
839.87	25515.64
840.04	25642.62
840.22	25615.99
840.40	25523.83
840.57	25181.82
840.75	25439.87
840.93	25226.88
841.10	25464.44
841.28	25476.73
841.46	25558.65
841.63	25491.07
841.81	25269.89
841.98	25620.09
842.16	25286.27
842.34	25339.52
842.51	25114.24
842.69	25351.81
842.87	25259.65
843.04	25443.96
843.22	25030.27
843.40	24929.92
843.57	25017.99
843.75	25224.83
843.92	25028.23
844.10	24942.21
844.28	24934.02
844.45	24800.90
844.63	24690.31
844.81	24696.46
844.98	24977.03
845.16	24376.97
845.33	24585.86
845.51	24858.24
845.69	24501.90
845.86	24479.37
846.04	24299.15
846.21	24655.50
846.39	24358.54
846.57	24516.23
846.74	24295.05
846.92	24059.54
847.09	24188.56
847.27	24063.63
847.45	24147.60
847.62	24172.18
847.80	24049.30
847.97	24282.77
848.15	24069.78
848.32	23629.46
848.50	24176.27
848.68	23735.96
848.85	23871.12
849.03	23537.30
849.20	24073.87
849.38	23797.40
849.56	24172.18
849.73	23555.74
849.91	23774.87
850.08	23776.92
850.26	23676.57
850.43	23635.61
850.61	23486.11
850.78	23248.54
850.96	23864.98
851.14	23604.89
851.31	23432.86
851.49	23250.59
851.66	23729.81
851.84	23676.57
852.01	23506.59
852.19	23271.07
852.36	23162.53
852.54	23551.64
852.71	23285.40
852.89	23025.31
853.07	23035.55
853.24	23004.83
853.42	23021.22
853.59	23103.14
853.77	23303.84
853.94	23154.33
854.12	23166.62
854.29	22797.99
854.47	22779.56
854.64	22718.12
854.82	22554.28
854.99	22967.97
855.17	22914.72
855.34	22652.58
855.52	22941.35
855.69	22609.58
855.87	22486.70
856.04	22683.30
856.22	22671.01
856.39	22234.80
856.57	22754.98
856.74	22566.57
856.92	22511.27
857.09	22439.59
857.27	22314.67
857.44	22079.15
857.62	22417.07
857.79	22261.42
857.97	22335.15
858.14	22159.02
858.32	22388.39
858.49	22224.56
858.67	21864.11
858.84	22179.50
859.02	22179.50
859.19	22095.53
859.37	21765.81
859.54	21950.13
859.72	22056.62
859.89	21857.97
860.06	21876.40
860.24	21575.35
860.41	22130.35
860.59	21616.31
860.76	21763.76
860.94	21698.23
861.11	21900.98
861.29	21579.45
861.46	21745.33
861.64	21536.44
861.81	21571.25
861.98	21624.50
862.16	21782.20
862.33	21221.05
862.51	21286.59
862.68	21526.20
862.86	21188.28
863.03	21497.53
863.21	21145.28
863.38	21587.64
863.55	21044.93
863.73	21165.76
863.90	21157.57
864.08	20932.29
864.25	21202.62
864.43	21077.69
864.60	20989.63
864.77	20809.41
864.95	21102.27
865.12	20833.99
865.30	20967.10
865.47	20866.75
865.64	20938.43
865.82	20823.75
865.99	20893.38
866.17	20524.74
866.34	20825.79
866.51	20557.51
866.69	20633.29
866.86	20790.98
867.04	20815.55
867.21	20557.51
867.38	20684.48
867.56	20487.88
867.73	20461.26
867.91	20422.34
868.08	20367.05
868.25	19865.30
868.43	20297.42
868.60	20285.13
868.78	19992.27
868.95	20229.84
869.12	20104.91
869.30	19861.20
869.47	20137.68
869.64	20045.52
869.82	19738.32
869.99	19926.74
870.16	20082.38
870.34	19986.13
870.51	20137.68
870.69	19838.67
870.86	19826.39
871.03	19646.16
871.21	19533.53
871.38	19707.60
871.55	19472.09
871.73	19291.87
871.90	19543.77
872.07	19435.22
872.25	19359.45
872.42	19408.60
872.59	19042.01
872.77	19484.37
872.94	18890.46
873.11	19394.26
873.29	19115.74
873.46	18806.50
873.63	19101.40
873.81	19039.97
873.98	18679.52
874.15	18806.50
874.33	18677.48
874.50	19132.12
874.67	18953.95
874.85	18839.26
875.02	18702.05
875.19	18738.91
875.37	18632.42
875.54	18527.97
875.71	18544.36
875.88	18605.80
876.06	18595.56
876.23	18829.02
876.40	18417.38
876.58	18228.97
876.75	18284.26
876.92	18300.65
877.10	18544.36
877.27	18241.26
877.44	18112.24
877.61	17833.71
877.79	17985.26
877.96	18091.76
878.13	18247.40
878.31	17843.95
878.48	17938.16
878.65	17884.91
878.82	17872.62
879.00	17975.02
879.17	17735.41
879.34	17772.27
879.51	17743.60
879.69	17739.51
879.86	17704.69
880.03	17407.73
880.21	17221.37
880.38	17475.32
880.55	17649.39
880.72	17268.47
880.90	17575.67
881.07	17497.84
881.24	17637.11
881.41	17571.57
881.59	17413.88
881.76	17389.30
881.93	17063.68
882.10	17223.42
882.28	17147.64
882.45	17430.26
882.62	17094.40
882.79	17325.82
882.96	16987.90
883.14	17145.59
883.31	17078.01
883.48	16930.56
883.65	16936.70
883.83	17123.07
884.00	16774.91
884.17	16934.65
884.34	17065.72
884.51	17192.70
884.69	16881.41
884.86	16826.11
885.03	16738.05
885.20	16873.21
885.38	17086.20
885.55	16740.10
885.72	16938.75
885.89	16473.86
886.06	16901.89
886.24	16582.40
886.41	16418.57
886.58	16707.33
886.75	16668.42
886.92	16582.40
887.10	16756.48
887.27	16271.11
887.44	16459.52
887.61	16848.64
887.78	16766.72
887.95	16490.24
888.13	16355.08
888.30	16195.34
888.47	16242.44
888.64	16271.11
888.81	16328.45
888.99	16369.41
889.16	16170.76
889.33	16045.84
889.50	16092.94
889.67	16248.58
889.84	16058.12
890.01	16242.44
890.19	15974.16
890.36	16203.53
890.53	15798.03
890.70	15818.51
890.87	15755.02
891.04	15779.60
891.22	15662.86
891.39	15750.93
891.56	15603.47
891.73	15509.27
891.90	15525.65
892.07	15798.03
892.24	15720.21
892.42	15474.45
892.59	15628.05
892.76	15394.58
892.93	15429.40
893.10	15687.44
893.27	15386.39
893.44	15533.84
893.61	15329.05
893.79	15644.43
893.96	15550.23
894.13	15419.16
894.30	15451.92
894.47	15472.40
894.64	15335.19
894.81	15433.49
894.98	15492.88
895.15	15378.20
895.33	15343.38
895.50	15181.59
895.67	15585.04
895.84	15355.67
896.01	15283.99
896.18	15187.74
896.35	15197.98
896.52	15220.50
896.69	15101.72
896.86	15251.22
897.04	15204.12
897.21	15163.16
897.38	15339.29
897.55	15060.76
897.72	15202.07
897.89	15111.96
898.06	15224.60
898.23	15159.06
898.40	15249.18
898.57	15255.32
898.74	14997.28
898.91	14835.49
899.08	15064.86
899.26	15073.05
899.43	14980.89
899.60	15034.14
899.77	14884.64
899.94	15068.95
900.11	14978.84
900.28	15044.38
900.45	14935.84
900.62	14870.30
900.79	15023.90
900.96	14884.64
901.13	14974.75
901.30	14872.35
901.47	14815.01
901.64	14966.56
901.81	14919.45
901.98	15089.43
902.15	15146.78
902.32	14769.95
902.49	15038.23
902.66	14913.31
902.83	14831.39
903.01	14958.36
903.18	14946.08
903.35	15077.15
903.52	14984.99
903.69	14946.08
903.86	15091.48
904.03	14765.85
904.20	15224.60
904.37	15228.70
904.54	14896.92
904.71	15167.26
904.88	14962.46
905.05	14995.23
905.22	15095.58
905.39	14581.54
905.56	14958.36
905.73	14890.78
905.90	15040.28
906.07	15103.77
906.24	15052.57
906.41	14851.87
906.58	14946.08
906.75	14929.69
906.92	14989.08
907.09	14847.77
907.26	14987.04
907.43	14774.05
907.60	14972.70
907.77	15064.86
907.93	14962.46
908.10	14798.62
908.27	14743.33
908.44	14655.26
908.61	14946.08
908.78	14860.06
908.95	14710.56
909.12	14870.30
909.29	14628.64
909.46	14776.09
909.63	14649.12
909.80	14673.70
909.97	14667.55
910.14	14671.65
910.31	14733.09
910.48	14567.20
910.65	14462.76
910.82	14728.99
910.99	14726.94
911.16	14429.99
911.33	14513.95
911.50	14540.58
911.66	14386.98
911.83	14524.19
912.00	14368.55
912.17	14462.76
912.34	14401.32
912.51	14137.13
912.68	14417.70
912.85	14386.98
913.02	14427.94
913.19	14243.62
913.36	14147.37
913.53	14317.35
913.70	14429.99
913.86	14300.97
914.03	14171.94
914.20	13936.43
914.37	13971.24
914.54	13977.39
914.71	14210.86
914.88	14036.78
915.05	14061.35
915.22	13922.09
915.39	14176.04
915.55	13911.85
915.72	13653.81
915.89	13967.15
916.06	13664.05
916.23	13827.88
916.40	13528.88
916.57	13739.82
916.74	13754.16
916.91	13518.64
917.07	13555.51
917.24	13567.79
917.41	13373.24
917.58	13518.64
917.75	13522.74
917.92	13328.18
918.09	13412.15
918.26	13315.89
918.42	13406.00
918.59	13305.65
918.76	13334.32
918.93	13160.25
919.10	13379.38
919.27	13383.48
919.44	13219.64
919.60	13330.23
919.77	13162.30
919.94	13020.99
920.11	13049.66
920.28	13045.56
920.45	13000.51
920.61	12801.85
920.78	12748.61
920.95	12732.22
921.12	12644.16
921.29	12597.06
921.46	12519.23
921.62	12504.90
921.79	12681.02
921.96	12732.22
922.13	12513.09
922.30	12341.06
922.47	12324.68
922.63	12250.95
922.80	12117.83
922.97	12275.52
923.14	12083.02
923.31	12097.35
923.47	11976.52
923.64	12113.74
923.81	11992.90
923.98	12009.29
924.15	11937.61
924.32	11937.61
924.48	11855.69
924.65	11958.09
924.82	11923.27
924.99	11906.89
925.15	11661.13
925.32	11607.89
925.49	11650.89
925.66	11509.58
925.83	11646.80
925.99	11233.11
926.16	11652.94
926.33	11558.74
926.50	11243.35
926.67	11568.98
926.83	11376.47
927.00	11200.34
927.17	11224.92
927.34	11231.06
927.50	11163.48
927.67	11386.71
927.84	11106.13
928.01	10966.87
928.17	11161.43
928.34	10944.34
928.51	10774.36
928.68	10927.96
928.84	10725.21
929.01	10833.75
929.18	10719.07
929.35	10688.35
929.51	10702.68
929.68	10471.26
929.85	10450.78
930.02	10385.25
930.18	10428.26
930.35	10289.00
930.52	10432.35
930.69	10368.87
930.85	10114.92
931.02	10305.38
931.19	10131.30
931.36	10114.92
931.52	10084.20
931.69	10215.27
931.86	10045.29
932.02	9963.37
932.19	9777.00
932.36	9867.11
932.53	9877.35
932.69	9856.87
932.86	9777.00
933.03	9879.40
933.19	9531.25
933.36	9676.65
933.53	9803.63
933.70	9434.99
933.86	9410.42
934.03	9453.42
934.20	9322.35
934.36	9514.86
934.53	9164.66
934.70	9027.45
934.86	9158.52
935.03	9111.41
935.20	9006.97
935.36	8976.25
935.53	8802.17
935.70	8783.74
935.86	8683.39
936.03	8554.37
936.20	8589.18
936.36	8519.55
936.53	8441.73
936.70	8482.69
936.86	8380.29
937.03	8193.92
937.20	8105.86
937.36	8191.88
937.53	8028.04
937.70	8034.18
937.86	7989.13
938.03	7724.94
938.20	7884.68
938.36	7546.76
938.53	7544.72
938.70	7348.11
938.86	7448.46
939.03	7221.14
939.20	7040.92
939.36	7196.56
939.53	7180.18
939.70	7237.52
939.86	6918.04
940.03	6885.27
940.19	6797.21
940.36	6645.66
940.53	6586.27
940.69	6571.93
940.86	6659.99
941.03	6535.07
941.19	6246.30
941.36	6383.52
941.52	6303.65
941.69	6244.26
941.86	6156.19
942.02	6115.23
942.19	6139.81
942.35	6131.62
942.52	5959.59
942.69	5861.29
942.85	5810.09
943.02	5961.64
943.18	5826.47
943.35	5689.26
943.52	5791.66
943.68	5656.49
943.85	5648.30
944.01	5728.17
944.18	5586.86
944.35	5523.37
944.51	5564.33
944.68	5392.30
944.84	5496.75
945.01	5416.88
945.17	5492.65
945.34	5406.64
945.51	5326.77
945.67	5394.35
945.84	5361.58
946.00	5169.07
946.17	5386.16
946.33	5201.84
946.50	5375.92
946.67	5289.90
946.83	5296.05
947.00	5318.57
947.16	5171.12
947.33	5250.99
947.49	5287.86
947.66	5189.55
947.82	5218.22
947.99	5230.51
948.16	5300.14
948.32	5400.49
948.49	5273.52
948.65	5253.04
948.82	5234.61
948.98	5240.75
949.15	5191.60
949.31	5414.83
949.48	5373.87
949.64	5285.81
949.81	5232.56
949.97	5218.22
950.14	5408.69
950.30	5228.46
950.47	5463.98
950.63	5302.19
950.80	5302.19
950.96	5220.27
951.13	5457.84
951.30	5351.34
951.46	5265.33
951.63	5318.57
951.79	5322.67
951.96	5425.07
952.12	5185.46
952.29	5396.40
952.45	5212.08
952.62	5294.00
952.78	5418.93
952.94	5365.68
953.11	5316.53
953.27	5408.69
953.44	5556.14
953.60	5420.97
953.77	5463.98
953.93	5404.59
954.10	5347.25
954.26	5394.35
954.43	5410.73
954.59	5537.71
954.76	5476.27
954.92	5294.00
955.09	5521.32
955.25	5449.64
955.42	5330.86
955.58	5480.36
955.75	5480.36
955.91	5482.41
956.07	5377.97
956.24	5320.62
956.40	5482.41
956.57	5496.75
956.73	5386.16
956.90	5461.93
957.06	5326.77
957.23	5498.80
957.39	5435.31
957.56	5566.38
957.72	5402.54
957.88	5380.01
958.05	5627.82
958.21	5423.02
958.38	5580.71
958.54	5400.49
958.71	5617.58
958.87	5482.41
959.03	5480.36
959.20	5517.23
959.36	5504.94
959.53	5525.42
959.69	5353.39
959.85	5570.48
960.02	5603.24
960.18	5537.71
960.35	5433.26
960.51	5472.17
960.68	5369.77
960.84	5476.27
961.00	5449.64
961.17	5406.64
961.33	5410.73
961.50	5486.51
961.66	5490.60
961.82	5388.21
961.99	5449.64
962.15	5437.36
962.31	5337.01
962.48	5353.39
962.64	5490.60
962.81	5476.27
962.97	5400.49
963.13	5486.51
963.30	5472.17
963.46	5353.39
963.62	5455.79
963.79	5398.45
963.95	5447.60
964.12	5277.62
964.28	5441.45
964.44	5455.79
964.61	5513.13
964.77	5406.64
964.93	5400.49
965.10	5482.41
965.26	5244.85
965.42	5392.30
965.59	5341.10
965.75	5394.35
965.92	5287.86
966.08	5212.08
966.24	5392.30
966.41	5437.36
966.57	5320.62
966.73	5332.91
966.90	5670.83
967.06	5425.07
967.22	5365.68
967.39	5187.50
967.55	5294.00
967.71	5257.14
967.88	5279.66
968.04	5298.10
968.20	5212.08
968.37	5083.06
968.53	5089.20
968.69	5152.69
968.85	5287.86
969.02	5224.37
969.18	5173.17
969.34	5287.86
969.51	5142.45
969.67	5171.12
969.83	5214.13
970.00	5062.58
970.16	5134.26
970.32	5171.12
970.48	5076.91
970.65	5081.01
970.81	4966.32
970.97	5033.91
971.14	4976.56
971.30	5119.92
971.46	5064.63
971.63	5021.62
971.79	5009.33
971.95	5144.50
972.11	4980.66
972.28	4937.65
972.44	5048.24
972.60	4984.76
972.76	5152.69
972.93	4933.56
973.09	4927.41
973.25	5044.15
973.42	4923.32
973.58	4951.99
973.74	4888.50
973.90	4951.99
974.07	4847.54
974.23	4986.80
974.39	5003.19
974.55	4779.96
974.72	4833.21
974.88	4773.82
975.04	4951.99
975.20	4847.54
975.37	4784.06
975.53	4712.38
975.69	4919.22
975.85	4751.29
976.01	4861.88
976.18	4681.66
976.34	4761.53
976.50	4730.81
976.66	4825.01
976.83	4726.71
976.99	4626.36
977.15	4626.36
977.31	4560.83
977.47	4761.53
977.64	4749.24
977.80	4720.57
977.96	4779.96
978.12	4599.74
978.29	4546.49
978.45	4534.20
978.61	4566.97
978.77	4716.47
978.93	4476.86
979.10	4626.36
979.26	4683.70
979.42	4523.96
979.58	4550.59
979.74	4569.02
979.91	4519.87
980.07	4401.08
980.23	4532.15
980.39	4456.38
980.55	4499.39
980.71	4394.94
980.88	4399.04
981.04	4495.29
981.20	4374.46
981.36	4577.21
981.52	4476.86
981.68	4319.17
981.85	4499.39
982.01	4374.46
982.17	4386.75
982.33	4388.80
982.49	4532.15
982.65	4382.65
982.82	4460.48
982.98	4300.73
983.14	4272.06
983.30	4440.00
983.46	4437.95
983.62	4358.08
983.79	4235.20
983.95	4282.30
984.11	4186.05
984.27	4349.89
984.43	4249.54
984.59	4249.54
984.75	4247.49
984.91	4083.65
985.08	4276.16
985.24	4093.89
985.40	4200.38
985.56	4173.76
985.72	4272.06
985.88	4198.34
986.04	3975.11
986.20	4044.74
986.37	4276.16
986.53	3977.16
986.69	4104.13
986.85	4040.64
987.01	4065.22
987.17	4167.62
987.33	4083.65
987.49	3997.64
987.65	4077.51
987.82	3973.06
987.98	4034.50
988.14	4040.64
988.30	3987.40
988.46	3930.05
988.62	4089.79
988.78	4001.73
988.94	3985.35
989.10	3923.91
989.26	3907.52
989.42	3882.95
989.59	3772.36
989.75	3866.56
989.91	3903.43
990.07	3749.83
990.23	3803.08
990.39	3817.41
990.55	3893.19
990.71	3688.39
990.87	3788.74
991.03	3932.10
991.19	3864.52
991.35	3815.37
991.51	3819.46
991.67	3837.89
991.83	3872.71
992.00	3784.65
992.16	3788.74
992.32	3837.89
992.48	3753.93
992.64	3717.06
992.80	3753.93
992.96	3639.24
993.12	3735.50
993.28	3841.99
993.44	3614.66
993.60	3776.45
993.76	3678.15
993.92	3735.50
994.08	3755.97
994.24	3651.53
994.40	3600.33
994.56	3823.56
994.72	3622.86
994.88	3598.28
995.04	3588.04
995.20	3588.04
995.36	3614.66
995.52	3520.46
995.68	3489.74
995.84	3499.98
996.00	3717.06
996.16	3499.98
996.32	3493.83
996.48	3526.60
996.64	3534.79
996.80	3467.21
996.96	3526.60
997.12	3561.42
997.28	3428.30
997.44	3416.01
997.60	3565.51
997.76	3485.64
997.92	3473.36
998.08	3375.05
998.24	3321.81
998.40	3330.00
998.56	3452.88
998.72	3276.75
998.88	3397.58
999.04	3377.10
999.20	3325.90
999.36	3325.90
999.52	3434.44
999.68	3448.78
999.84	3297.23
1000.00	3338.19
1000.16	3346.38
1000.32	3264.46
1000.48	3383.24
1000.64	3252.17
1000.80	3338.19
1000.95	3188.69
1001.11	3307.47
1001.27	3262.41
1001.43	3368.91
1001.59	3119.06
1001.75	3237.84
1001.91	3213.26
1002.07	3180.50
1002.23	3194.83
1002.39	3297.23
1002.55	3086.29
1002.71	3147.73
1002.87	3117.01
1003.03	3094.48
1003.19	3164.11
1003.34	3117.01
1003.50	3078.10
1003.66	3129.30
1003.82	3059.67
1003.98	3076.05
1004.14	3102.67
1004.30	3043.28
1004.46	3055.57
1004.62	3086.29
1004.78	3055.57
1004.94	2975.70
1005.09	3080.14
1005.25	2998.23
1005.41	3143.63
1005.57	2949.08
1005.73	3000.27
1005.89	2926.55
1006.05	3078.10
1006.21	3026.90
1006.37	3022.80
1006.52	2979.79
1006.68	2914.26
1006.84	3006.42
1007.00	2772.95
1007.16	2957.27
1007.32	2891.73
1007.48	2908.12
1007.64	2875.35
1007.79	2975.70
1007.95	2926.55
1008.11	2871.25
1008.27	2768.85
1008.43	2912.21
1008.59	2854.87
1008.75	2965.46
1008.91	2904.02
1009.06	2744.28
1009.22	2887.64
1009.38	2901.97
1009.54	2795.48
1009.70	2838.48
1009.86	2783.19
1010.01	2760.66
1010.17	2797.53
1010.33	2779.09
1010.49	2832.34
1010.65	2811.86
1010.81	2705.37
1010.96	2770.90
1011.12	2680.79
1011.28	2697.17
1011.44	2813.91
1011.60	2797.53
1011.76	2742.23
1011.91	2768.85
1012.07	2678.74
1012.23	2623.45
1012.39	2713.56
1012.55	2648.02
1012.71	2682.84
1012.86	2658.26
1013.02	2777.05
1013.18	2668.50
1013.34	2705.37
1013.50	2695.13
1013.65	2621.40
1013.81	2576.34
1013.97	2607.06
1014.13	2598.87
1014.29	2572.25
1014.44	2693.08
1014.60	2625.50
1014.76	2633.69
1014.92	2488.28
1015.07	2598.87
1015.23	2600.92
1015.39	2592.73
1015.55	2551.77
1015.71	2494.43
1015.86	2519.00
1016.02	2412.51
1016.18	2363.36
1016.34	2492.38
1016.49	2543.58
1016.65	2521.05
1016.81	2531.29
1016.97	2531.29
1017.12	2557.91
1017.28	2377.69
1017.44	2445.27
1017.60	2502.62
1017.75	2527.19
1017.91	2432.99
1018.07	2484.19
1018.23	2416.60
1018.38	2471.90
1018.54	2424.80
1018.70	2420.70
1018.86	2398.17
1019.01	2373.60
1019.17	2459.61
1019.33	2512.86
1019.49	2443.23
1019.64	2469.85
1019.80	2422.75
1019.96	2385.88
1020.12	2447.32
1020.27	2346.97
1020.43	2361.31
1020.59	2394.08
1020.74	2437.08
1020.90	2344.92
1021.06	2383.84
1021.22	2453.47
1021.37	2306.01
1021.53	2277.34
1021.69	2342.88
1021.84	2342.88
1022.00	2281.44
1022.16	2383.84
1022.31	2361.31
1022.47	2328.54
1022.63	2312.16
1022.79	2199.52
1022.94	2297.82
1023.10	2445.27
1023.26	2260.96
1023.41	2295.77
1023.57	2336.73
1023.73	2256.86
1023.88	2246.62
1024.04	2201.57
1024.20	2267.10
1024.35	2209.76
1024.51	2291.68
1024.67	2283.49
1024.82	2361.31
1024.98	2193.37
1025.14	2209.76
1025.29	2230.24
1025.45	2361.31
1025.61	2115.55
1025.76	2160.61
1025.92	2254.81
1026.08	2281.44
1026.23	2181.09
1026.39	2181.09
1026.55	2152.42
1026.70	2142.18
1026.86	2142.18
1027.02	2222.05
1027.17	2254.81
1027.33	2183.13
1027.48	2211.81
1027.64	2095.07
1027.80	2164.70
1027.95	2199.52
1028.11	2176.99
1028.27	2117.60
1028.42	2158.56
1028.58	2086.88
1028.73	2144.22
1028.89	2052.06
1029.05	2215.90
1029.20	2162.66
>>>>>End Processed Spectral Data<<<<<
