SpectraSuite Data File
++++++++++++++++++++++++++++++++++++
Date: Fri Jun 02 14:47:58 CEST 2017
User: INFO_000
Dark Spectrum Present: No
Reference Spectrum Present: No
Number of Sampled Component Spectra: 1
Spectrometers: USB4H00879
Integration Time (usec): 80000 (USB4H00879)
Spectra Averaged: 1 (USB4H00879)
Boxcar Smoothing: 0 (USB4H00879)
Correct for Electrical Dark: No (USB4H00879)
Strobe/Lamp Enabled: No (USB4H00879)
Correct for Detector Non-linearity: No (USB4H00879)
Correct for Stray Light: No (USB4H00879)
Number of Pixels in Processed Spectrum: 3648
>>>>>Begin Processed Spectral Data<<<<<
345.13	1271.79
345.34	1271.79
345.56	1271.79
345.78	1253.36
345.99	1269.74
346.21	1714.15
346.42	1689.57
346.64	1630.18
346.86	1791.97
347.07	1691.62
347.29	1718.25
347.50	1595.37
347.72	1673.19
347.94	1712.10
348.15	1593.32
348.37	1617.90
348.59	1650.66
348.80	1697.77
349.02	1845.22
349.23	1904.61
349.45	1796.07
349.67	1830.88
349.88	1857.51
350.10	1941.47
350.31	1851.36
350.53	1834.98
350.75	1961.95
350.96	1771.49
351.18	1904.61
351.39	1869.80
351.61	1744.87
351.82	1933.28
352.04	1941.47
352.26	1863.65
352.47	1849.32
352.69	1910.75
352.90	1755.11
353.12	1900.52
353.34	1806.31
353.55	2033.63
353.77	1898.47
353.98	1748.97
354.20	1720.29
354.41	1875.94
354.63	1941.47
354.85	2019.30
355.06	1906.66
355.28	1771.49
355.49	1861.60
355.71	1859.56
355.92	1834.98
356.14	1918.95
356.35	1863.65
356.57	1820.64
356.79	1937.38
357.00	1867.75
357.22	1943.52
357.43	1791.97
357.65	1980.39
357.86	1857.51
358.08	1834.98
358.29	1988.58
358.51	2047.97
358.72	2023.39
358.94	1935.33
359.16	2011.11
359.37	1951.71
359.59	1939.43
359.80	1945.57
360.02	1941.47
360.23	1949.67
360.45	1957.86
360.66	1918.95
360.88	1847.27
361.09	1927.14
361.31	1927.14
361.52	1982.43
361.74	2058.21
361.95	2109.41
362.17	1953.76
362.38	2203.61
362.60	1978.34
362.81	1998.82
363.03	1949.67
363.24	2017.25
363.46	2064.35
363.67	2029.54
363.89	1978.34
364.10	1972.19
364.32	1974.24
364.53	1980.39
364.75	1871.84
364.96	1992.67
365.18	2070.50
365.39	2047.97
365.61	1966.05
365.82	2140.13
366.04	2023.39
366.25	1955.81
366.47	2105.31
366.68	2017.25
366.90	1992.67
367.11	2076.64
367.33	2117.60
367.54	1980.39
367.76	2043.87
367.97	2084.83
368.19	1982.43
368.40	2035.68
368.62	2058.21
368.83	2066.40
369.05	2027.49
369.26	2019.30
369.48	2002.91
369.69	2047.97
369.91	2004.96
370.12	2027.49
370.33	2097.12
370.55	1990.63
370.76	2045.92
370.98	2107.36
371.19	2013.15
371.41	2021.35
371.62	2082.78
371.84	2064.35
372.05	2158.56
372.27	1984.48
372.48	2035.68
372.69	2078.69
372.91	2105.31
373.12	2154.46
373.34	2090.98
373.55	2095.07
373.77	2228.19
373.98	2195.42
374.20	2197.47
374.41	2195.42
374.62	2123.74
374.84	2164.70
375.05	2113.50
375.27	2209.76
375.48	2232.29
375.70	2158.56
375.91	2189.28
376.12	2308.06
376.34	2191.33
376.55	2111.46
376.77	2195.42
376.98	2150.37
377.19	2109.41
377.41	2160.61
377.62	2193.37
377.84	2265.05
378.05	2361.31
378.27	2250.72
378.48	2293.72
378.69	2355.16
378.91	2322.40
379.12	2252.77
379.34	2205.66
379.55	2281.44
379.76	2232.29
379.98	2193.37
380.19	2260.96
380.41	2215.90
380.62	2306.01
380.83	2222.05
381.05	2281.44
381.26	2437.08
381.47	2228.19
381.69	2228.19
381.90	2363.36
382.12	2220.00
382.33	2271.20
382.54	2275.29
382.76	2349.02
382.97	2320.35
383.19	2351.07
383.40	2396.12
383.61	2174.94
383.83	2217.95
384.04	2365.40
384.25	2383.84
384.47	2430.94
384.68	2410.46
384.89	2279.39
385.11	2283.49
385.32	2342.88
385.54	2342.88
385.75	2250.72
385.96	2519.00
386.18	2375.64
386.39	2369.50
386.60	2412.51
386.82	2377.69
387.03	2406.36
387.24	2471.90
387.46	2531.29
387.67	2469.85
387.88	2516.95
388.10	2445.27
388.31	2392.03
388.52	2510.81
388.74	2478.04
388.95	2498.52
389.16	2519.00
389.38	2467.80
389.59	2555.86
389.80	2594.78
390.02	2498.52
390.23	2672.60
390.44	2584.54
390.66	2519.00
390.87	2525.15
391.08	2668.50
391.30	2590.68
391.51	2678.74
391.72	2635.74
391.94	2639.83
392.15	2654.17
392.36	2682.84
392.58	2541.53
392.79	2625.50
393.00	2693.08
393.22	2639.83
393.43	2746.33
393.64	2818.00
393.85	2736.09
394.07	2607.06
394.28	2740.18
394.49	2691.03
394.71	2820.05
394.92	2803.67
395.13	2699.22
395.35	2836.44
395.56	2772.95
395.77	2756.57
395.98	2848.72
396.20	2762.71
396.41	2818.00
396.62	2834.39
396.84	2750.42
397.05	2768.85
397.26	2885.59
397.47	2916.31
397.69	2756.57
397.90	2987.99
398.11	2865.11
398.32	2830.29
398.54	2803.67
398.75	2850.77
398.96	2893.78
399.18	3080.14
399.39	2949.08
399.60	2979.79
399.81	2961.36
400.03	2922.45
400.24	3213.26
400.45	2938.84
400.66	3059.67
400.88	2901.97
401.09	3151.82
401.30	3076.05
401.51	3076.05
401.73	3125.20
401.94	3178.45
402.15	3155.92
402.36	3090.38
402.58	3100.62
402.79	3022.80
403.00	3053.52
403.21	3164.11
403.43	3147.73
403.64	3272.65
403.85	3172.30
404.06	3256.27
404.27	3176.40
404.49	3168.21
404.70	3221.45
404.91	3313.61
405.12	3143.63
405.34	3192.78
405.55	3467.21
405.76	3092.43
405.97	3174.35
406.19	3336.14
406.40	3166.16
406.61	3327.95
406.82	3370.96
407.03	3286.99
407.25	3305.42
407.46	3575.75
407.67	3428.30
407.88	3436.49
408.09	3311.57
408.31	3338.19
408.52	3327.95
408.73	3264.46
408.94	3289.04
409.15	3385.29
409.37	3416.01
409.58	3442.64
409.79	3510.22
410.00	3565.51
410.21	3305.42
410.43	3370.96
410.64	3366.86
410.85	3542.99
411.06	3467.21
411.27	3608.52
411.48	3575.75
411.70	3565.51
411.91	3606.47
412.12	3540.94
412.33	3588.04
412.54	3631.05
412.76	3739.59
412.97	3731.40
413.18	3540.94
413.39	3567.56
413.60	3719.11
413.81	3626.95
414.03	3694.54
414.24	3633.10
414.45	3788.74
414.66	3502.03
414.87	3815.37
415.08	3751.88
415.30	3686.34
415.51	3753.93
415.72	3692.49
415.93	3745.73
416.14	3737.54
416.35	3770.31
416.56	3815.37
416.78	3803.08
416.99	3784.65
417.20	3805.13
417.41	3784.65
417.62	3825.61
417.83	4011.97
418.04	3928.00
418.26	3895.24
418.47	4014.02
418.68	3930.05
418.89	3903.43
419.10	4136.90
419.31	3878.85
419.52	4140.99
419.73	4001.73
419.95	4159.42
420.16	3977.16
420.37	4081.60
420.58	3932.10
420.79	3919.81
421.00	4095.94
421.21	4093.89
421.42	3979.20
421.63	4181.95
421.85	4095.94
422.06	4167.62
422.27	4198.34
422.48	4177.86
422.69	4202.43
422.90	4212.67
423.11	4294.59
423.32	4284.35
423.53	4251.58
423.75	4206.53
423.96	4464.57
424.17	4435.90
424.38	4476.86
424.59	4356.03
424.80	4556.73
425.01	4444.09
425.22	4399.04
425.43	4444.09
425.64	4620.22
425.85	4552.63
426.06	4474.81
426.28	4442.04
426.49	4460.48
426.70	4511.68
426.91	4515.77
427.12	4624.31
427.33	4554.68
427.54	4526.01
427.75	4673.46
427.96	4724.66
428.17	4632.51
428.38	4693.94
428.59	4655.03
428.80	4771.77
429.01	4886.45
429.23	4890.55
429.44	4933.56
429.65	4796.34
429.86	4904.89
430.07	4808.63
430.28	4972.47
430.49	4972.47
430.70	5072.82
430.91	5089.20
431.12	5119.92
431.33	4964.28
431.54	5156.79
431.75	5068.72
431.96	5091.25
432.17	5205.94
432.38	5177.26
432.59	5380.01
432.80	5162.93
433.01	5429.17
433.22	5248.94
433.43	5373.87
433.64	5089.20
433.85	5177.26
434.06	5472.17
434.27	5285.81
434.49	5484.46
434.70	5459.88
434.91	5216.18
435.12	5633.96
435.33	5504.94
435.54	5521.32
435.75	5361.58
435.96	5484.46
436.17	5287.86
436.38	5562.28
436.59	5687.21
436.80	5586.86
437.01	5771.18
437.22	5937.06
437.43	5683.11
437.64	5466.03
437.85	5785.51
438.06	5775.27
438.27	5627.82
438.48	5582.76
438.69	5701.54
438.90	5783.46
439.11	5650.35
439.32	5963.68
439.53	5836.71
439.74	5844.90
439.95	5863.33
440.16	5803.94
440.37	5894.05
440.57	5844.90
440.78	5918.63
440.99	5978.02
441.20	5994.40
441.41	5894.05
441.62	5963.68
441.83	5863.33
442.04	6053.80
442.25	5992.36
442.46	6098.85
442.67	6180.77
442.88	6412.19
443.09	6104.99
443.30	6109.09
443.51	6117.28
443.72	6451.10
443.93	6186.91
444.14	6387.61
444.35	6154.15
444.56	6180.77
444.77	6424.48
444.98	6211.49
445.19	6266.78
445.40	6373.28
445.61	6354.85
445.81	6573.98
446.02	6573.98
446.23	6459.29
446.44	6256.54
446.65	6487.96
446.86	6504.35
447.07	6688.67
447.28	6811.54
447.49	6827.93
447.70	6586.27
447.91	6561.69
448.12	6641.56
448.33	6655.90
448.54	6686.62
448.74	6569.88
448.95	6694.81
449.16	6637.47
449.37	6956.95
449.58	6733.72
449.79	6969.24
450.00	6725.53
450.21	6942.61
450.42	7002.01
450.63	7002.01
450.84	7047.06
451.05	6999.96
451.25	7022.48
451.46	6905.75
451.67	7069.59
451.88	7014.29
452.09	6866.84
452.30	7008.15
452.51	7026.58
452.72	7202.71
452.93	7344.02
453.13	7155.60
453.34	6989.72
453.55	7231.38
453.76	7225.23
453.97	7458.70
454.18	7321.49
454.39	7524.24
454.60	7485.33
454.81	7294.86
455.01	7569.29
455.22	7313.30
455.43	7427.98
455.64	7907.21
455.85	7868.30
456.06	7659.40
456.27	7804.81
456.48	7620.49
456.68	7751.56
456.89	7815.05
457.10	7714.70
457.31	7931.78
457.52	7765.90
457.73	7913.35
457.94	8277.89
458.14	7933.83
458.35	8302.47
458.56	8128.39
458.77	7999.37
458.98	8292.23
459.19	8114.05
459.39	8281.99
459.60	8335.23
459.81	8144.77
460.02	8349.57
460.23	8335.23
460.44	8587.13
460.65	8699.77
460.85	8503.17
461.06	8624.00
461.27	8339.33
461.48	8810.36
461.69	9060.21
461.89	8580.99
462.10	8691.58
462.31	8773.50
462.52	8650.62
462.73	9019.25
462.94	9033.59
463.14	9031.54
463.35	8918.90
463.56	9504.62
463.77	9414.51
463.98	8935.29
464.18	9228.15
464.39	9480.05
464.60	9582.45
464.81	9355.12
465.02	9463.66
465.23	9727.85
465.43	9531.25
465.64	9613.17
465.85	9731.95
466.06	9621.36
466.27	10026.86
466.47	9899.88
466.68	9881.45
466.89	9846.63
467.10	10153.83
467.30	9781.10
467.51	10289.00
467.72	10350.43
467.93	10067.81
468.14	10418.02
468.34	10600.29
468.55	10547.04
468.76	10528.61
468.97	10530.66
469.17	10751.84
469.38	10702.68
469.59	10925.91
469.80	10663.77
470.01	10663.77
470.21	10866.52
470.42	10891.10
470.63	11130.71
470.84	11026.26
471.04	11202.39
471.25	11349.84
471.46	11288.40
471.67	11452.24
471.87	11448.15
472.08	11548.50
472.29	11712.33
472.50	11276.12
472.70	11417.43
472.91	11509.58
473.12	12037.96
473.33	12134.21
473.53	12375.88
473.74	12134.21
473.95	12105.54
474.16	12537.66
474.36	12359.49
474.57	12580.67
474.78	12699.45
474.99	12455.75
475.19	12457.79
475.40	12775.23
475.61	12945.21
475.81	13039.42
476.02	13139.77
476.23	12986.17
476.44	13029.18
476.64	13299.51
476.85	13469.49
477.06	13238.07
477.27	13717.29
477.47	13645.62
477.68	13815.60
477.89	14104.36
478.09	13793.07
478.30	13905.71
478.51	13922.09
478.71	14317.35
478.92	14126.89
479.13	14298.92
479.34	14599.97
479.54	14550.82
479.75	14595.87
479.96	14653.22
480.16	14878.49
480.37	14782.24
480.58	14925.60
480.78	15232.79
480.99	15036.19
481.20	15331.09
481.41	15458.07
481.61	15658.77
481.82	15462.16
482.03	15585.04
482.23	15339.29
482.44	16043.79
482.65	15959.82
482.85	16131.85
483.06	15865.61
483.27	16152.33
483.47	16346.89
483.68	16166.67
483.89	16301.83
484.09	16477.96
484.30	16443.14
484.51	16817.92
484.71	16684.80
484.92	16619.27
485.13	16660.23
485.33	17133.31
485.54	16856.83
485.75	17135.35
485.95	17084.16
486.16	17204.99
486.37	17518.32
486.57	17356.54
486.78	17288.95
486.98	17620.72
487.19	17657.59
487.40	17696.50
487.60	17665.78
487.81	18038.51
488.02	17995.50
488.22	17815.28
488.43	18204.39
488.64	18269.93
488.84	18530.02
489.05	18523.88
489.25	18558.69
489.46	18734.82
489.67	18708.19
489.87	18724.58
490.08	19060.45
490.29	19013.34
490.49	19015.39
490.70	19244.76
490.90	19216.09
491.11	19209.95
491.32	19377.88
491.52	19451.61
491.73	19633.88
491.94	19820.24
492.14	19707.60
492.35	19869.39
492.55	19824.34
492.76	19979.98
492.97	20076.24
493.17	19910.35
493.38	20117.20
493.58	20451.02
493.79	20491.98
494.00	20131.53
494.20	20346.57
494.41	20432.58
494.61	20682.44
494.82	20700.87
495.02	20784.83
495.23	20793.03
495.44	21032.64
495.64	21137.09
495.85	21145.28
496.05	21442.23
496.26	21499.58
496.47	21585.59
496.67	21202.62
496.88	21698.23
497.08	21526.20
497.29	21933.75
497.49	21669.56
497.70	21974.70
497.91	22116.01
498.11	22056.62
498.32	21919.41
498.52	22167.21
498.73	22695.59
498.93	22355.63
499.14	22617.77
499.34	22308.52
499.55	22386.35
499.76	22722.21
499.96	22730.41
500.17	22572.71
500.37	22787.75
500.58	22703.78
500.78	23103.14
500.99	23047.84
501.19	23414.43
501.40	23101.09
501.60	22881.95
501.81	23142.05
502.02	23623.32
502.22	23338.65
502.43	23824.02
502.63	23746.20
502.84	24018.58
503.04	23768.73
503.25	24022.67
503.45	23547.54
503.66	23959.19
503.86	23832.21
504.07	24505.99
504.27	24313.48
504.48	24860.29
504.68	24403.60
504.89	24653.45
505.09	24399.50
505.30	24432.27
505.50	24409.74
505.71	24925.83
505.91	24778.37
506.12	25147.01
506.32	25124.48
506.53	24786.57
506.73	25280.13
506.94	25255.55
507.14	24962.69
507.35	25300.61
507.55	25495.16
507.76	25468.54
507.96	25472.64
508.17	25661.05
508.37	25536.12
508.58	25615.99
508.78	25554.55
508.99	26035.83
509.19	25833.08
509.40	26064.50
509.60	25947.76
509.81	26101.36
510.01	25935.48
510.22	26023.54
510.42	26039.92
510.63	26353.26
510.83	26304.11
511.04	26312.30
511.24	26535.53
511.44	26383.98
511.65	26775.14
511.85	26707.56
512.06	26889.83
512.26	26666.60
512.47	26949.22
512.67	27014.76
512.88	26941.03
513.08	26705.51
513.29	27313.76
513.49	26773.10
513.69	27045.48
513.90	27199.07
514.10	27440.73
514.31	27620.95
514.51	27377.25
514.72	27197.02
514.92	27670.11
515.13	27446.88
515.33	27618.91
515.53	27778.65
515.74	27799.13
515.94	27919.96
516.15	28182.10
516.35	27850.33
516.56	28206.67
516.76	27813.46
516.96	28321.36
517.17	27983.44
517.37	28137.04
517.58	28216.91
517.78	28434.00
517.99	28378.70
518.19	28708.43
518.39	28853.83
518.60	29003.33
518.80	28548.68
519.01	28984.90
519.21	28694.09
519.41	28763.72
519.62	29191.75
519.82	29103.68
520.03	29230.66
520.23	29251.14
520.43	29191.75
520.64	29279.81
520.84	29527.61
521.05	29292.10
521.25	29675.07
521.45	29582.91
521.66	29824.57
521.86	29965.88
522.07	29892.15
522.27	29646.40
522.47	29808.19
522.68	30023.22
522.88	30199.35
523.08	30520.88
523.29	30213.68
523.49	30051.89
523.70	30441.01
523.90	30514.73
524.10	30580.27
524.31	31030.82
524.51	30451.25
524.71	30996.01
524.92	30660.14
525.12	31286.82
525.33	30979.62
525.53	31125.03
525.73	31229.48
525.94	31249.96
526.14	31086.12
526.34	31424.03
526.55	31221.28
526.75	31647.26
526.95	32022.04
527.16	31389.22
527.36	31921.69
527.56	32126.49
527.77	32118.29
527.97	32026.14
528.17	32013.85
528.38	32257.56
528.58	32335.38
528.78	32280.08
528.99	31862.30
529.19	32691.73
529.39	32515.60
529.60	32882.19
529.80	32620.05
530.00	32615.95
530.21	33021.45
530.41	32759.31
530.61	32757.26
530.82	33416.71
531.02	32912.91
531.22	33187.33
531.43	33369.60
531.63	33730.05
531.83	33394.18
532.04	33986.04
532.24	33381.89
532.44	33877.50
532.64	33895.93
532.85	34065.91
533.05	33734.14
533.25	34178.55
533.46	33785.34
533.66	34508.27
533.86	34102.78
534.07	34285.04
534.27	34369.01
534.47	34792.94
534.67	34786.80
534.88	34338.29
535.08	34881.00
535.28	34682.35
535.49	34823.66
535.69	35229.16
535.89	34907.63
536.09	35294.69
536.30	35268.07
536.50	35386.85
536.70	35532.26
536.91	35309.03
537.11	35603.94
537.31	35864.03
537.51	35702.24
537.72	36111.83
537.92	35993.05
538.12	35986.91
538.32	35810.78
538.53	36165.08
538.73	36097.50
538.93	36158.94
539.13	36367.83
539.34	36099.55
539.54	36380.12
539.74	36517.33
539.94	36779.47
540.15	36642.26
540.35	36586.96
540.55	36746.70
540.75	37008.84
540.96	36883.92
541.16	37045.71
541.36	37043.66
541.56	37080.52
541.77	37383.62
541.97	37240.26
542.17	37176.78
542.37	37342.66
542.58	37316.04
542.78	37451.20
542.98	37723.58
543.18	37735.87
543.38	37823.93
543.59	37926.33
543.79	37864.89
543.99	37729.73
544.19	37912.00
544.40	37578.18
544.60	38477.24
544.80	37963.20
545.00	38194.62
545.20	38456.76
545.41	38317.50
545.61	38151.61
545.81	38548.92
546.01	38430.13
546.21	38487.48
546.42	38440.37
546.62	38415.80
546.82	38786.48
547.02	38548.92
547.22	38917.55
547.43	39095.72
547.63	39114.16
547.83	38823.34
548.03	38651.31
548.23	39013.80
548.44	38856.11
548.64	39124.40
548.84	39437.73
549.04	38878.64
549.24	39558.56
549.45	39632.29
549.65	39361.96
549.85	39581.09
550.05	39728.55
550.25	39634.34
550.45	39990.69
550.66	39769.51
550.86	39675.30
551.06	40078.75
551.26	39785.89
551.46	40220.06
551.66	40269.21
551.87	40265.11
552.07	40308.12
552.27	40512.92
552.47	40441.24
552.67	40629.65
552.87	40648.08
553.07	40506.77
553.28	40541.59
553.48	40920.46
553.68	40721.81
553.88	40981.90
554.08	40992.14
554.28	40844.69
554.48	40566.16
554.69	40621.46
554.89	40471.96
555.09	40912.27
555.29	40502.68
555.49	41153.93
555.69	41086.35
555.89	41192.84
556.10	41190.80
556.30	41350.54
556.50	41493.89
556.70	41579.91
556.90	41717.12
557.10	41512.33
557.30	41637.25
557.50	41624.96
557.70	41973.12
557.91	42065.28
558.11	41946.50
558.31	41862.53
558.51	41643.40
558.71	41887.10
558.91	42190.20
559.11	41991.55
559.31	41969.02
559.51	42296.70
559.72	42100.09
559.92	42308.99
560.12	42130.81
560.32	42634.61
560.52	42311.03
560.72	42761.59
560.92	42853.75
561.12	42448.25
561.32	42950.00
561.52	42784.12
561.72	43007.34
561.93	42509.69
562.13	42663.28
562.33	42765.68
562.53	43513.19
562.73	42579.32
562.93	42831.22
563.13	42986.86
563.33	42980.72
563.53	43230.57
563.73	43027.82
563.93	43046.26
564.13	43554.15
564.33	43560.30
564.53	43189.61
564.74	43529.58
564.94	42997.10
565.14	43564.39
565.34	43558.25
565.54	43697.51
565.74	44004.70
565.94	43765.09
566.14	43634.02
566.34	43525.48
566.54	44164.45
566.74	43644.26
566.94	44178.78
567.14	44168.54
567.34	43816.29
567.54	44184.93
567.74	44068.19
567.94	44242.27
568.14	44948.82
568.34	44578.14
568.54	44260.70
568.74	44762.45
568.94	44549.46
569.14	44578.14
569.34	44608.86
569.54	45040.98
569.75	44438.87
569.95	44842.32
570.15	44647.77
570.35	45213.01
570.55	44719.45
570.75	45032.78
570.95	44897.62
571.15	45151.57
571.35	45335.88
571.55	45579.59
571.75	45294.92
571.95	45268.30
572.15	45045.07
572.35	45335.88
572.55	45370.70
572.75	45473.10
572.95	45438.28
573.15	45729.09
573.35	45407.56
573.55	45612.36
573.75	45600.07
573.95	46169.41
574.15	45806.92
574.35	45952.32
574.55	45872.45
574.75	45747.53
574.95	45948.23
575.15	45937.99
575.34	45933.89
575.54	46462.27
575.74	45792.58
575.94	46310.72
576.14	46091.58
576.34	46695.74
576.54	46564.67
576.74	46452.03
576.94	46589.24
577.14	46251.33
577.34	46423.36
577.54	46460.22
577.74	46564.67
577.94	47007.03
578.14	46957.88
578.34	46486.84
578.54	46617.91
578.74	46687.54
578.94	47138.10
579.14	46841.14
579.34	46918.96
579.54	46929.20
579.74	47379.76
579.94	47437.10
580.13	46980.40
580.33	47301.93
580.53	47736.10
580.73	47453.48
580.93	47422.76
581.13	47580.46
581.33	47613.23
581.53	47478.06
581.73	47621.42
581.93	47701.29
582.13	47666.47
582.33	47748.39
582.53	47838.50
582.73	48018.72
582.92	48039.20
583.12	48330.01
583.32	47861.03
583.52	47416.62
583.72	48174.37
583.92	48155.94
584.12	48276.77
584.32	48551.20
584.52	48420.13
584.72	48180.51
584.92	48651.55
585.11	48551.20
585.31	48813.34
585.51	47875.37
585.71	48622.87
585.91	48944.41
586.11	48432.41
586.31	48596.25
586.51	48538.91
586.71	48612.63
586.91	49360.14
587.10	48776.47
587.30	49134.87
587.50	49001.75
587.70	48989.46
587.90	48608.54
588.10	49257.74
588.30	48655.64
588.50	49181.97
588.69	49241.36
588.89	48878.87
589.09	49251.60
589.29	48688.41
589.49	49384.72
589.69	49108.24
589.89	49622.28
590.08	48868.63
590.28	48968.98
590.48	49413.39
590.68	49323.28
590.88	49452.30
591.08	49665.29
591.28	49425.68
591.47	50031.88
591.67	49564.94
591.87	49528.08
592.07	49872.14
592.27	49503.50
592.47	49818.89
592.67	49753.35
592.86	49141.01
593.06	49579.28
593.26	49853.70
593.46	49970.44
593.66	49833.22
593.86	49755.40
594.05	49792.26
594.25	49886.47
594.45	49796.36
594.65	49845.51
594.85	49745.16
595.05	50380.03
595.24	50269.44
595.44	50183.43
595.64	50398.46
595.84	50550.01
596.04	49929.48
596.23	50171.14
596.43	50394.37
596.63	50064.64
596.83	50265.34
597.03	50398.46
597.22	50668.79
597.42	50345.22
597.62	50650.36
597.82	50799.86
598.02	50654.46
598.21	50975.99
598.41	50865.40
598.61	50978.04
598.81	50654.46
599.01	50603.26
599.20	51100.92
599.40	50640.12
599.60	51096.82
599.80	51014.90
600.00	50799.86
600.19	51492.08
600.39	51258.61
600.59	50963.70
600.79	51043.57
600.98	50883.83
601.18	51307.76
601.38	51240.18
601.58	51621.10
601.78	51477.74
601.97	51590.38
602.17	51623.15
602.37	51690.73
602.57	51506.41
602.76	51838.18
602.96	51332.34
603.16	51950.82
603.36	51885.29
603.55	52098.28
603.75	51918.06
603.95	51950.82
604.15	51664.11
604.34	52067.56
604.54	52022.50
604.74	52073.70
604.94	52075.75
605.13	51741.93
605.33	52528.35
605.53	52479.20
605.73	52481.25
605.92	52102.37
606.12	52645.08
606.32	52348.13
606.52	52227.30
606.71	52417.76
606.91	52792.54
607.11	52718.81
607.30	52589.79
607.50	52440.29
607.70	52573.41
607.90	52741.34
608.09	52503.77
608.29	52595.93
608.49	52727.00
608.68	52813.02
608.88	52473.06
609.08	52849.88
609.28	52684.00
609.47	52612.32
609.67	53220.56
609.87	52802.78
610.06	53239.00
610.26	52620.51
610.46	52980.95
610.66	52991.19
610.85	53175.51
611.05	52813.02
611.25	53126.36
611.44	52845.79
611.64	53288.15
611.84	53302.48
612.03	53007.58
612.23	53183.70
612.43	53552.33
612.62	52954.33
612.82	53353.68
613.02	53048.53
613.21	53523.66
613.41	52716.76
613.61	53402.83
613.80	52794.59
614.00	53560.53
614.20	53216.47
614.39	53427.41
614.59	53247.19
614.79	53187.80
614.98	53429.46
615.18	53376.21
615.38	53423.31
615.57	53263.57
615.77	53875.91
615.97	53658.83
616.16	53437.65
616.36	53783.76
616.56	53875.91
616.75	53707.98
616.95	53279.96
617.15	53417.17
617.34	53634.25
617.54	53728.46
617.74	53740.75
617.93	53744.84
618.13	53388.50
618.32	53976.26
618.52	53812.43
618.72	53617.87
618.91	53640.40
619.11	53443.79
619.31	53826.76
619.50	53419.22
619.70	53963.98
619.90	53839.05
620.09	53583.05
620.29	53550.29
620.48	53378.26
620.68	54009.03
620.88	53804.24
621.07	53941.45
621.27	53818.57
621.46	53261.52
621.66	53636.30
621.86	53861.58
622.05	54017.22
622.25	53787.85
622.44	53877.96
622.64	53847.24
622.84	54117.57
623.03	53742.80
623.23	54136.01
623.42	54183.11
623.62	54328.52
623.82	54547.65
624.01	54056.14
624.21	54031.56
624.40	54037.70
624.60	53951.69
624.80	54146.25
624.99	54152.39
625.19	53884.11
625.38	54502.59
625.58	53933.26
625.77	53939.40
625.97	54295.75
626.17	53720.27
626.36	54398.15
626.56	54189.25
626.75	54025.42
626.95	54873.27
627.14	54207.68
627.34	54809.79
627.54	54156.49
627.73	54322.37
627.93	54009.03
628.12	54230.21
628.32	54023.37
628.51	54518.98
628.71	54117.57
628.90	54547.65
629.10	54238.40
629.30	54269.12
629.49	54473.92
629.69	54631.61
629.88	54355.14
630.08	54983.86
630.27	54672.57
630.47	54600.89
630.66	54695.10
630.86	54832.32
631.05	54322.37
631.25	54672.57
631.44	54738.11
631.64	54467.78
631.84	54893.75
632.03	55057.59
632.23	55170.23
632.42	55219.38
632.62	55428.27
632.81	54858.94
633.01	55000.25
633.20	55585.97
633.40	55004.34
633.59	55182.52
633.79	54559.94
633.98	55131.32
634.18	55381.17
634.37	55303.35
634.57	55237.81
634.76	55119.03
634.96	55192.76
635.15	55415.99
635.35	55481.52
635.54	55002.30
635.74	55309.49
635.93	54842.56
636.13	55147.70
636.32	55610.54
636.52	55049.40
636.71	55778.48
636.91	55428.27
637.10	55399.60
637.30	54906.04
637.49	55469.23
637.69	55473.33
637.88	55817.39
638.08	55139.51
638.27	55682.22
638.46	55366.84
638.66	55661.74
638.85	55706.80
639.05	55864.49
639.24	55801.00
639.44	55721.13
639.63	55835.82
639.83	55563.44
640.02	55923.88
640.22	55956.65
640.41	55588.02
640.61	55336.12
640.80	55637.17
640.99	55563.44
641.19	55751.85
641.38	55856.30
641.58	55698.61
641.77	55911.59
641.97	55801.00
642.16	55485.62
642.36	56224.93
642.55	56237.22
642.74	55968.94
642.94	56296.61
643.13	55887.02
643.33	56292.52
643.52	56319.14
643.72	55661.74
643.91	56089.77
644.10	56063.14
644.30	56442.02
644.49	56587.42
644.69	56288.42
644.88	56276.13
645.08	56218.79
645.27	56546.47
645.46	55456.95
645.66	56341.67
645.85	56218.79
646.05	56814.75
646.24	56173.73
646.43	56558.75
646.63	56523.94
646.82	56657.06
647.02	56390.82
647.21	56530.08
647.40	56669.34
647.60	56558.75
647.79	56704.16
647.99	56894.62
648.18	56136.87
648.37	56972.44
648.57	57070.75
648.76	56736.93
648.96	56784.03
649.15	56968.35
649.34	56603.81
649.54	56792.22
649.73	56298.66
649.92	56669.34
650.12	56405.16
650.31	57074.84
650.51	56808.61
650.70	57242.77
650.89	57121.94
651.09	57367.70
651.28	57037.98
651.47	57023.64
651.67	56958.11
651.86	57463.96
652.06	56396.96
652.25	57210.01
652.44	56956.06
652.64	57050.27
652.83	56603.81
653.02	56794.27
653.22	56681.63
653.41	56966.30
653.60	56781.98
653.80	56790.17
653.99	57230.49
654.18	56536.23
654.38	56558.75
654.57	57029.79
654.76	56865.95
654.96	56591.52
655.15	56607.90
655.34	56777.89
655.54	56439.97
655.73	56933.53
655.92	56949.92
656.12	56794.27
656.31	56507.55
656.50	56673.44
656.70	57181.34
656.89	56661.15
657.08	57269.40
657.28	56585.38
657.47	56603.81
657.66	56714.40
657.86	56749.21
658.05	56890.52
658.24	57001.11
658.43	56659.10
658.63	57308.31
658.82	56872.09
659.01	57046.17
659.21	56908.96
659.40	56857.76
659.59	56534.18
659.79	56749.21
659.98	57197.72
660.17	57103.51
660.36	56814.75
660.56	57085.08
660.75	56706.21
660.94	57037.98
661.14	56724.64
661.33	56677.54
661.52	56546.47
661.71	56812.70
661.91	56321.19
662.10	56601.76
662.29	57314.45
662.49	56626.34
662.68	56521.89
662.87	56886.43
663.06	57029.79
663.26	56878.24
663.45	57107.61
663.64	56720.54
663.83	57363.60
664.03	56679.58
664.22	57105.56
664.41	56911.00
664.60	56550.56
664.80	56806.56
664.99	56470.69
665.18	56679.58
665.37	56751.26
665.57	57021.59
665.76	56474.79
665.95	56702.11
666.14	56626.34
666.34	56214.69
666.53	56333.48
666.72	56464.55
666.91	56489.12
667.11	56249.51
667.30	56433.83
667.49	56718.49
667.68	56548.51
667.87	56112.30
668.07	56759.45
668.26	56030.38
668.45	56472.74
668.64	56038.57
668.84	56908.96
669.03	56278.18
669.22	56317.09
669.41	56382.63
669.60	56659.10
669.80	56161.45
669.99	56661.15
670.18	56007.85
670.37	56157.35
670.57	56317.09
670.76	55678.13
670.95	55985.32
671.14	55907.50
671.33	55968.94
671.53	56310.95
671.72	56382.63
671.91	56112.30
672.10	55436.47
672.29	55882.92
672.48	55551.15
672.68	56376.48
672.87	55889.07
673.06	56085.67
673.25	55530.67
673.44	55502.00
673.64	55913.64
673.83	55907.50
674.02	55846.06
674.21	55776.43
674.40	55647.41
674.59	55577.78
674.79	55491.76
674.98	55452.85
675.17	55973.03
675.36	55874.73
675.55	55254.20
675.74	55164.09
675.94	55508.14
676.13	55667.89
676.32	55714.99
676.51	55626.93
676.70	55567.54
676.89	55467.19
677.08	55784.62
677.28	55702.70
677.47	56022.19
677.66	55868.59
677.85	55473.33
678.04	55368.88
678.23	55657.65
678.42	55831.72
678.62	55428.27
678.81	55854.25
679.00	55655.60
679.19	55989.42
679.38	55768.24
679.57	55223.48
679.76	55246.00
679.96	55485.62
680.15	55618.74
680.34	55489.71
680.53	54953.15
680.72	55346.36
680.91	55473.33
681.10	55196.85
681.29	55450.80
681.48	55243.96
681.68	55096.50
681.87	55133.37
682.06	55059.64
682.25	54961.34
682.44	54940.86
682.63	55059.64
682.82	54754.49
683.01	54621.37
683.20	54967.48
683.39	54791.36
683.59	54887.61
683.78	54852.80
683.97	54590.66
684.16	54473.92
684.35	54469.82
684.54	54822.08
684.73	54445.25
684.92	54744.25
685.11	54594.75
685.30	54697.15
685.49	54944.95
685.69	54684.86
685.88	54521.02
686.07	55055.54
686.26	54453.44
686.45	55252.15
686.64	54783.16
686.83	54432.96
687.02	54453.44
687.21	54742.20
687.40	54482.11
687.59	54011.08
687.78	54312.13
687.97	54383.81
688.16	54484.16
688.35	54060.23
688.54	54154.44
688.74	54437.06
688.93	54009.03
689.12	54254.79
689.31	54631.61
689.50	54375.62
689.69	54396.10
689.88	53671.12
690.07	54287.56
690.26	54052.04
690.45	54103.24
690.64	53843.15
690.83	53847.24
691.02	53763.28
691.21	53769.42
691.40	53763.28
691.59	54113.48
691.78	54080.71
691.97	53982.41
692.16	53654.73
692.35	53767.37
692.54	53761.23
692.73	53877.96
692.92	53794.00
693.11	53912.78
693.30	53904.59
693.49	53621.97
693.68	53650.64
693.87	53867.72
694.06	53159.12
694.25	53556.43
694.44	53568.72
694.63	53818.57
694.82	53976.26
695.01	53728.46
695.20	53562.57
695.39	53255.38
695.58	53562.57
695.77	53335.25
695.96	53482.70
696.15	53533.90
696.34	53482.70
696.53	53376.21
696.72	53601.49
696.91	53505.23
697.10	53273.81
697.29	53298.39
697.48	53310.67
697.67	53187.80
697.86	53269.72
698.05	53181.65
698.24	53042.39
698.43	52835.55
698.62	53361.87
698.81	53036.25
699.00	53210.32
699.19	52829.40
699.38	52831.45
699.57	52636.89
699.76	53558.48
699.95	52966.62
700.14	52886.74
700.32	53081.30
700.51	53116.12
700.70	52786.39
700.89	52903.13
701.08	52849.88
701.27	52974.81
701.46	53150.93
701.65	52649.18
701.84	52661.47
702.03	52913.37
702.22	53122.26
702.41	52466.91
702.60	52880.60
702.79	52786.39
702.98	52389.09
703.17	52763.87
703.35	52684.00
703.54	52733.15
703.73	52798.68
703.92	52942.04
704.11	52894.94
704.30	52649.18
704.49	52712.67
704.68	52567.26
704.87	52522.21
705.06	52675.80
705.25	52350.18
705.43	52729.05
705.62	52845.79
705.81	52880.60
706.00	52681.95
706.19	52180.20
706.38	52401.38
706.57	52841.69
706.76	52442.34
706.95	52497.63
707.14	52182.24
707.32	52188.39
707.51	51926.25
707.70	52401.38
707.89	52460.77
708.08	51942.63
708.27	52360.42
708.46	52671.71
708.65	52051.17
708.84	52815.07
709.02	52810.97
709.21	52004.07
709.40	52473.06
709.59	52425.95
709.78	52198.63
709.97	52157.67
710.16	52479.20
710.34	52638.94
710.53	52034.79
710.72	52112.61
710.91	51975.40
711.10	51913.96
711.29	52311.27
711.48	52270.31
711.66	52024.55
711.85	51924.20
712.04	52432.10
712.23	51860.71
712.42	51950.82
712.61	51762.41
712.80	51807.47
712.98	52106.47
713.17	51782.89
713.36	51893.48
713.55	52221.16
713.74	51420.40
713.93	51852.52
714.11	51614.96
714.30	52036.84
714.49	51594.48
714.68	51795.18
714.87	51762.41
715.06	51856.62
715.24	51377.39
715.43	51715.31
715.62	51303.67
715.81	51543.28
716.00	51963.11
716.18	51352.82
716.37	51328.24
716.56	51430.64
716.75	51533.04
716.94	51344.62
717.12	51236.08
717.31	51557.61
717.50	51279.09
717.69	51250.42
717.88	51348.72
718.06	51508.46
718.25	51463.41
718.44	51285.23
718.63	51307.76
718.82	50865.40
719.00	50699.51
719.19	51148.02
719.38	51096.82
719.57	50660.60
719.76	50287.87
719.94	50629.88
720.13	50527.48
720.32	50195.71
720.51	50679.03
720.69	50498.81
720.88	50394.37
721.07	50334.98
721.26	50230.53
721.44	50273.54
721.63	50156.80
721.82	50324.74
722.01	50328.83
722.20	50259.20
722.38	49841.42
722.57	49980.68
722.76	50181.38
722.95	50031.88
723.13	49792.26
723.32	49669.39
723.51	49634.57
723.70	49509.64
723.88	49440.01
724.07	49747.21
724.26	49630.47
724.44	49157.39
724.63	50093.32
724.82	49872.14
725.01	49691.91
725.19	49505.55
725.38	49554.70
725.57	49446.16
725.76	49626.38
725.94	49169.68
726.13	49005.84
726.32	49220.88
726.51	49272.08
726.69	49884.42
726.88	49564.94
727.07	49435.92
727.25	49280.27
727.44	49337.62
727.63	49501.45
727.82	49263.89
728.00	49075.48
728.19	49227.02
728.38	49575.18
728.56	48657.69
728.75	49519.88
728.94	48796.95
729.12	49759.50
729.31	49194.26
729.50	48975.12
729.69	49560.84
729.87	48854.29
730.06	49431.82
730.25	49294.61
730.43	49485.07
730.62	49020.18
730.81	49229.07
730.99	49202.45
731.18	48936.21
731.37	49167.63
731.55	49218.83
731.74	49849.61
731.93	49585.42
732.11	49157.39
732.30	49108.24
732.49	48543.00
732.67	49050.90
732.86	49042.71
733.05	49261.84
733.23	49100.05
733.42	49038.61
733.61	48624.92
733.79	49300.75
733.98	49360.14
734.17	49001.75
734.35	49173.78
734.54	49272.08
734.73	48987.41
734.91	48895.25
735.10	48829.72
735.29	48899.35
735.47	48614.68
735.66	48794.90
735.84	48940.31
736.03	48307.49
736.22	49153.30
736.40	48452.89
736.59	49132.82
736.78	48778.52
736.96	48545.05
737.15	48665.88
737.33	48801.05
737.52	48784.66
737.71	48647.45
737.89	48424.22
738.08	48682.27
738.27	48446.75
738.45	48874.77
738.64	48635.16
738.82	48532.76
739.01	48842.01
739.20	48287.01
739.38	48008.48
739.57	48620.83
739.75	48473.37
739.94	48469.28
740.13	48375.07
740.31	48366.88
740.50	47973.67
740.68	48100.64
740.87	48162.08
741.06	48338.21
741.24	47564.07
741.43	47582.51
741.61	47797.54
741.80	47447.34
741.99	47738.15
742.17	47766.82
742.36	48063.78
742.54	47832.36
742.73	47703.34
742.91	47772.97
743.10	47873.32
743.29	47799.59
743.47	48149.79
743.66	47473.96
743.84	47879.46
744.03	47912.23
744.21	47441.20
744.40	47906.08
744.59	47631.66
744.77	47635.75
744.96	47750.44
745.14	47332.65
745.33	47392.04
745.51	47291.69
745.70	47684.90
745.88	47281.45
746.07	46992.69
746.26	47109.43
746.44	46785.85
746.63	47103.28
746.81	47088.95
747.00	46675.26
747.18	47127.86
747.37	46763.32
747.55	47045.94
747.74	47283.50
747.92	46535.99
748.11	47045.94
748.29	46697.78
748.48	46658.87
748.66	46384.44
748.85	46515.51
749.03	46771.51
749.22	46662.97
749.41	46425.40
749.59	46566.71
749.78	46261.57
749.96	46191.94
750.15	46415.16
750.33	46458.17
750.52	46142.78
750.70	46568.76
750.89	46169.41
751.07	46140.74
751.26	46454.08
751.44	46282.05
751.63	46011.71
751.81	45737.29
752.00	45366.60
752.18	46015.81
752.37	45950.27
752.55	45589.83
752.74	45813.06
752.92	45352.27
753.10	45458.76
753.29	45741.38
753.47	45710.66
753.66	44991.83
753.84	45512.01
754.03	45327.69
754.21	45139.28
754.40	45784.39
754.58	45303.12
754.77	45286.73
754.95	45215.05
755.14	45305.16
755.32	45296.97
755.51	44739.93
755.69	44756.31
755.88	44748.12
756.06	45270.35
756.24	44815.70
756.43	44660.05
756.61	44782.93
756.80	44795.22
756.98	44615.00
757.17	44520.79
757.35	44561.75
757.54	44459.35
757.72	44754.26
757.90	44596.57
758.09	44295.52
758.27	44250.46
758.46	44076.38
758.64	44666.20
758.83	44410.20
759.01	44330.33
759.19	44133.73
759.38	44078.43
759.56	44289.37
759.75	44062.05
759.93	44520.79
760.12	43834.72
760.30	43916.64
760.48	43627.88
760.67	43607.40
760.85	43826.53
761.04	44092.77
761.22	44209.50
761.40	43711.84
761.59	44068.19
761.77	43341.16
761.96	43570.54
762.14	43507.05
762.32	43197.80
762.51	43222.38
762.69	43488.62
762.88	43183.47
763.06	43713.89
763.24	43429.23
763.43	43345.26
763.61	43179.37
763.80	43027.82
763.98	43093.36
764.16	42665.33
764.35	42634.61
764.53	42571.13
764.72	42552.69
764.90	42491.26
765.08	42788.21
765.27	43054.45
765.45	42366.33
765.63	42020.22
765.82	42390.91
766.00	41801.09
766.18	42311.03
766.37	42261.88
766.55	42003.84
766.74	41999.74
766.92	42014.08
767.10	42214.78
767.29	41690.50
767.47	41645.44
767.65	42233.21
767.84	41614.72
768.02	41942.40
768.20	41190.80
768.39	42110.33
768.57	41897.34
768.75	41567.62
768.94	41788.80
769.12	40965.52
769.30	41661.83
769.49	41434.50
769.67	41399.69
769.85	41317.77
770.04	41500.04
770.22	40832.40
770.40	41158.03
770.59	40945.04
770.77	41057.68
770.95	41022.86
771.14	40527.25
771.32	40924.56
771.50	40207.77
771.69	40850.83
771.87	41055.63
772.05	40617.36
772.24	40142.24
772.42	40869.26
772.60	40476.05
772.78	40226.20
772.97	40351.13
773.15	40983.95
773.33	40605.08
773.52	40504.73
773.70	40254.87
773.88	40390.04
774.07	40109.47
774.25	40076.70
774.43	40281.50
774.61	40277.40
774.80	40195.48
774.98	40211.87
775.16	39996.83
775.34	40496.53
775.53	39794.08
775.71	40633.75
775.89	40099.23
776.08	39550.37
776.26	40342.94
776.44	40639.89
776.62	40193.43
776.81	39855.52
776.99	40390.04
777.17	39865.76
777.35	40267.16
777.54	40293.79
777.72	39951.77
777.90	40291.74
778.08	40488.34
778.27	40488.34
778.45	40457.62
778.63	40330.65
778.81	39749.03
779.00	40502.68
779.18	40093.08
779.36	41049.49
779.54	40392.09
779.73	40445.33
779.91	40465.81
780.09	40926.61
780.27	40840.59
780.46	40394.14
780.64	40689.04
780.82	40699.28
781.00	40431.00
781.19	40856.98
781.37	40850.83
781.55	40807.83
781.73	40744.34
781.91	40625.56
782.10	40547.73
782.28	40963.47
782.46	40398.23
782.64	41172.36
782.82	40580.50
783.01	41037.20
783.19	40703.38
783.37	40770.96
783.55	40920.46
783.74	40977.81
783.92	40070.56
784.10	41063.82
784.28	40824.21
784.46	40422.81
784.64	40752.53
784.83	40783.25
785.01	40756.63
785.19	40920.46
785.37	40834.45
785.55	40820.11
785.74	40709.52
785.92	40469.91
786.10	40887.70
786.28	40494.49
786.46	40551.83
786.64	40201.63
786.83	40459.67
787.01	40441.24
787.19	40654.23
787.37	40596.88
787.55	40449.43
787.74	39959.97
787.92	39529.89
788.10	39714.21
788.28	39988.64
788.46	39695.78
788.64	39982.49
788.82	40138.14
789.01	39589.28
789.19	40054.17
789.37	39732.64
789.55	40091.04
789.73	39466.41
789.91	39460.26
790.09	39527.84
790.28	38931.89
790.46	39359.91
790.64	39259.56
790.82	39648.68
791.00	39048.62
791.18	38993.32
791.36	38942.13
791.55	38741.42
791.73	38958.51
791.91	38575.54
792.09	38827.44
792.27	38507.96
792.45	38782.38
792.63	38831.54
792.81	38852.02
793.00	38600.12
793.18	38471.09
793.36	38385.08
793.54	38174.14
793.72	38149.56
793.90	38383.03
794.08	38313.40
794.26	38145.47
794.44	37846.46
794.62	37619.14
794.81	37879.23
794.99	37729.73
795.17	37864.89
795.35	37516.74
795.53	38038.97
795.71	37989.82
795.89	37262.79
796.07	37047.75
796.25	37158.34
796.43	37131.72
796.61	36967.88
796.80	37057.99
796.98	37094.86
797.16	36756.94
797.34	37117.39
797.52	36748.75
797.70	36990.41
797.88	36564.43
798.06	36529.62
798.24	36503.00
798.42	36472.28
798.60	36466.13
798.78	36199.90
798.96	35954.14
799.14	36195.80
799.32	36376.02
799.51	35919.32
799.69	35859.93
799.87	36056.54
800.05	35735.01
800.23	35857.88
800.41	35513.83
800.59	35444.20
800.77	35431.91
800.95	35155.43
801.13	34909.68
801.31	34915.82
801.49	35263.97
801.67	35069.42
801.85	35079.66
802.03	34596.34
802.21	34934.25
802.39	34538.99
802.57	34860.52
802.75	34723.31
802.93	34661.87
803.11	34299.38
803.29	34389.49
803.47	34268.66
803.65	34381.30
803.83	34123.26
804.01	34168.31
804.19	33895.93
804.37	33570.30
804.55	33691.13
804.73	33922.55
804.91	33555.97
805.09	33576.45
805.27	33388.03
805.45	33437.19
805.63	33658.37
805.81	33353.22
805.99	33345.03
806.17	33416.71
806.35	33543.68
806.53	32787.98
806.71	33385.99
806.89	33273.35
807.07	33345.03
807.25	33152.52
807.43	32902.67
807.61	33383.94
807.79	33037.83
807.97	32835.08
808.15	32964.10
808.33	32509.46
808.51	32603.66
808.69	32482.83
808.87	32574.99
809.05	32359.95
809.23	32392.72
809.41	32144.92
809.59	32306.71
809.77	32114.20
809.95	31804.95
810.13	32460.30
810.31	31979.03
810.49	31886.87
810.67	31884.83
810.84	31778.33
811.02	31936.02
811.20	31594.01
811.38	31798.81
811.56	31401.50
811.74	31434.27
811.92	31295.01
812.10	31399.46
812.28	31469.09
812.46	31723.04
812.64	31383.07
812.82	31194.66
813.00	31229.48
813.18	30918.18
813.36	31049.25
813.53	31112.74
813.71	31061.54
813.89	30969.38
814.07	30875.18
814.25	30740.01
814.43	30699.05
814.61	30699.05
814.79	30514.73
814.97	30811.69
815.15	30647.85
815.33	30266.93
815.50	30391.86
815.68	30400.05
815.86	30318.13
816.04	30570.03
816.22	30686.76
816.40	30381.62
816.58	30103.09
816.76	30211.64
816.94	30133.81
817.11	29963.83
817.29	30037.56
817.47	30117.43
817.65	29699.64
817.83	29865.53
818.01	29791.80
818.19	29605.44
818.37	29740.60
818.54	29423.17
818.72	29275.71
818.90	29857.34
819.08	29498.94
819.26	29699.64
819.44	29363.78
819.62	29093.44
819.80	29484.61
819.97	29369.92
820.15	29189.70
820.33	28952.13
820.51	29470.27
820.69	28968.52
820.87	29533.76
821.05	29331.01
821.22	29324.86
821.40	28925.51
821.58	29034.05
821.76	29097.54
821.94	28583.50
822.12	28859.98
822.29	28892.74
822.47	28616.27
822.65	28800.58
822.83	28917.32
823.01	28587.60
823.19	28558.92
823.36	28233.30
823.54	28292.69
823.72	28554.83
823.90	28395.09
824.08	28423.76
824.25	28188.24
824.43	27922.01
824.61	28235.35
824.79	28261.97
824.97	28294.74
825.15	28364.37
825.32	28134.99
825.50	28223.06
825.68	27962.97
825.86	28276.30
826.04	28272.21
826.21	28036.69
826.39	27942.49
826.57	27938.39
826.75	28065.36
826.93	27717.21
827.10	27829.85
827.28	27852.38
827.46	27809.37
827.64	27965.01
827.81	27377.25
827.99	27473.50
828.17	27567.71
828.35	27309.66
828.53	27590.24
828.70	27324.00
828.88	27625.05
829.06	27733.59
829.24	27778.65
829.41	27520.60
829.59	27702.87
829.77	27436.64
829.95	27272.80
830.12	27463.26
830.30	26932.84
830.48	27106.91
830.66	27094.63
830.84	27065.96
831.01	26850.92
831.19	26965.60
831.37	26875.49
831.55	26648.17
831.72	27029.09
831.90	26834.53
832.08	26818.15
832.25	26676.84
832.43	27147.87
832.61	26855.01
832.79	26603.11
832.96	26472.04
833.14	26803.82
833.32	26920.55
833.50	26922.60
833.67	26893.93
833.85	26898.02
834.03	26228.34
834.20	26541.68
834.38	26904.17
834.56	26601.07
834.74	26560.11
834.91	26383.98
835.09	26558.06
835.27	26490.48
835.44	26134.13
835.62	25884.28
835.80	26037.87
835.98	26177.14
836.15	26168.94
836.33	26095.22
836.51	26314.35
836.68	25921.14
836.86	26015.35
837.04	26066.55
837.21	26005.11
837.39	26089.07
837.57	26021.49
837.75	26144.37
837.92	25425.53
838.10	25814.65
838.28	25540.22
838.45	25745.02
838.63	25527.93
838.81	25941.62
838.98	25474.68
839.16	25652.86
839.34	25347.71
839.51	25548.41
839.69	25460.35
839.87	25593.47
840.04	25454.20
840.22	25669.24
840.40	25278.08
840.57	25235.07
840.75	25378.43
840.93	25173.63
841.10	25400.96
841.28	25564.79
841.46	25327.23
841.63	25390.72
841.81	25581.18
841.98	25151.10
842.16	25321.09
842.34	25075.33
842.51	25085.57
842.69	25357.95
842.87	25157.25
843.04	25286.27
843.22	24751.75
843.40	24753.80
843.57	24925.83
843.75	25319.04
843.92	24952.45
844.10	24624.78
844.28	24958.60
844.45	25013.89
844.63	24970.88
844.81	24895.11
844.98	24460.94
845.16	24585.86
845.33	24575.62
845.51	24766.09
845.69	24573.58
845.86	24424.08
846.04	24403.60
846.21	24596.10
846.39	24477.32
846.57	24411.79
846.74	24616.58
846.92	24409.74
847.09	24293.01
847.27	24092.30
847.45	24157.84
847.62	24381.07
847.80	24137.36
847.97	24352.40
848.15	24069.78
848.32	23871.12
848.50	24086.16
848.68	23848.60
848.85	23977.62
849.03	23834.26
849.20	24184.46
849.38	23774.87
849.56	24037.01
849.73	23944.85
849.91	23828.12
850.08	23783.06
850.26	23674.52
850.43	23879.32
850.61	23860.88
850.78	23510.68
850.96	23770.77
851.14	23848.60
851.31	23695.00
851.49	23215.77
851.66	23629.46
851.84	23772.82
852.01	23516.83
852.19	23760.53
852.36	23821.97
852.54	23529.11
852.71	23717.53
852.89	23291.55
853.07	23154.33
853.24	23148.19
853.42	23209.63
853.59	23271.07
853.77	23455.39
853.94	23256.73
854.12	23277.21
854.29	22783.65
854.47	22843.04
854.64	23049.89
854.82	22853.28
854.99	23023.26
855.17	23140.00
855.34	22988.45
855.52	23021.22
855.69	23039.65
855.87	22818.47
856.04	22767.27
856.22	22718.12
856.39	22644.39
856.57	22992.55
856.74	22496.94
856.92	22644.39
857.09	22580.90
857.27	22779.56
857.44	22769.32
857.62	22861.48
857.79	22646.44
857.97	22458.03
858.14	22476.46
858.32	22109.87
858.49	22703.78
858.67	22216.36
858.84	22224.56
859.02	22261.42
859.19	22339.24
859.37	22077.10
859.54	22130.35
859.72	22505.13
859.89	22466.22
860.06	22286.00
860.24	21989.04
860.41	22062.77
860.59	22109.87
860.76	22085.30
860.94	22208.17
861.11	21913.27
861.29	21782.20
861.46	22058.67
861.64	21704.37
861.81	21749.43
861.98	22017.71
862.16	21962.42
862.33	21597.88
862.51	21612.21
862.68	21567.16
862.86	21528.25
863.03	21710.52
863.21	21673.65
863.38	21571.25
863.55	21321.40
863.73	21628.60
863.90	21667.51
864.08	21425.85
864.25	21368.51
864.43	21536.44
864.60	21415.61
864.77	21137.09
864.95	21452.47
865.12	21012.16
865.30	21350.07
865.47	21161.66
865.64	20985.54
865.82	20989.63
865.99	21315.26
866.17	21173.95
866.34	21012.16
866.51	21010.11
866.69	21165.76
866.86	20930.24
867.04	21012.16
867.21	20786.88
867.38	20903.62
867.56	20778.69
867.73	21022.40
867.91	20825.79
868.08	20797.12
868.25	20575.94
868.43	20473.54
868.60	20412.10
868.78	20420.30
868.95	20643.52
869.12	20700.87
869.30	20365.00
869.47	20582.09
869.64	20276.94
869.82	20346.57
869.99	19990.22
870.16	20369.10
870.34	20289.23
870.51	20489.93
870.69	19881.68
870.86	19779.28
871.03	20428.49
871.21	19924.69
871.38	20209.36
871.55	19875.54
871.73	19891.92
871.90	19893.97
872.07	19594.96
872.25	19601.11
872.42	19625.68
872.59	19549.91
872.77	19777.23
872.94	19302.11
873.11	19558.10
873.29	19343.06
873.46	19511.00
873.63	19433.18
873.81	19490.52
873.98	19240.67
874.15	18956.00
874.33	18992.86
874.50	19152.60
874.67	19166.94
874.85	19017.44
875.02	19240.67
875.19	19037.92
875.37	19099.36
875.54	18976.48
875.71	18990.81
875.88	18702.05
876.06	18982.62
876.23	18822.88
876.40	18593.51
876.58	18790.11
876.75	18984.67
876.92	18491.11
877.10	18497.25
877.27	18587.36
877.44	18482.92
877.61	18382.57
877.79	18431.72
877.96	18300.65
878.13	18466.53
878.31	18038.51
878.48	18337.51
878.65	18210.54
878.82	18300.65
879.00	18091.76
879.17	18188.01
879.34	18065.13
879.51	18069.23
879.69	17690.35
879.86	17624.82
880.03	17659.63
880.21	17741.55
880.38	18116.33
880.55	17870.58
880.72	17839.86
880.90	17977.07
881.07	17821.42
881.24	17475.32
881.41	17716.98
881.59	17764.08
881.76	17598.20
881.93	17407.73
882.10	17403.64
882.28	17598.20
882.45	17596.15
882.62	17391.35
882.79	17489.65
882.96	17184.51
883.14	17544.95
883.31	17456.89
883.48	17547.00
883.65	17645.30
883.83	17366.78
884.00	17366.78
884.17	17600.24
884.34	17323.77
884.51	17336.06
884.69	17172.22
884.86	17086.20
885.03	17147.64
885.20	16791.30
885.38	17131.26
885.55	16905.98
885.72	17037.05
885.89	16934.65
886.06	17059.58
886.24	17051.39
886.41	17041.15
886.58	16924.41
886.75	17024.76
886.92	16703.23
887.10	17086.20
887.27	16711.42
887.44	16951.04
887.61	16830.21
887.78	16793.34
887.95	16860.93
888.13	16561.92
888.30	16336.65
888.47	16459.52
888.64	16629.51
888.81	16477.96
888.99	16510.72
889.16	16445.19
889.33	16705.28
889.50	16140.04
889.67	16383.75
889.84	16312.07
890.01	16213.77
890.19	16193.29
890.36	16324.36
890.53	16275.21
890.70	15965.96
890.87	16099.08
891.04	16025.36
891.22	15974.16
891.39	15914.77
891.56	15712.02
891.73	16019.21
891.90	15865.61
892.07	15865.61
892.24	15802.13
892.42	15593.23
892.59	15769.36
892.76	15660.82
892.93	15705.87
893.10	15859.47
893.27	15568.66
893.44	15613.71
893.61	15585.04
893.79	15798.03
893.96	15605.52
894.13	15548.18
894.30	15501.08
894.47	15556.37
894.64	15642.39
894.81	15626.00
894.98	15652.63
895.15	15519.51
895.33	15513.36
895.50	15630.10
895.67	15685.39
895.84	15298.33
896.01	15193.88
896.18	15247.13
896.35	15503.12
896.52	15595.28
896.69	15355.67
896.86	15263.51
897.04	15294.23
897.21	15453.97
897.38	15331.09
897.55	15492.88
897.72	15535.89
897.89	15503.12
898.06	15394.58
898.23	15496.98
898.40	15339.29
898.57	15232.79
898.74	15349.53
898.91	15324.95
899.08	15269.66
899.26	15167.26
899.43	15347.48
899.60	15212.31
899.77	15150.87
899.94	15124.25
900.11	15089.43
900.28	15144.73
900.45	14974.75
900.62	15005.47
900.79	15150.87
900.96	14995.23
901.13	15157.02
901.30	15050.52
901.47	14837.53
901.64	14913.31
901.81	15464.21
901.98	14927.64
902.15	15324.95
902.32	14911.26
902.49	15109.91
902.66	15021.85
902.83	14972.70
903.01	15011.61
903.18	15122.20
903.35	15034.14
903.52	14925.60
903.69	15142.68
903.86	15130.39
904.03	15064.86
904.20	15306.52
904.37	15322.90
904.54	15032.09
904.71	15165.21
904.88	15169.30
905.05	14890.78
905.22	15036.19
905.39	15025.95
905.56	14993.18
905.73	14948.12
905.90	14948.12
906.07	15169.30
906.24	14841.63
906.41	14870.30
906.58	15146.78
906.75	14921.50
906.92	15015.71
907.09	14794.53
907.26	15015.71
907.43	14673.70
907.60	14872.35
907.77	15152.92
907.93	14833.44
908.10	14898.97
908.27	15046.43
908.44	14894.88
908.61	14843.68
908.78	14757.66
908.95	15001.37
909.12	14724.90
909.29	14694.18
909.46	14769.95
909.63	14839.58
909.80	14774.05
909.97	14911.26
910.14	14632.74
910.31	14683.94
910.48	14714.66
910.65	14841.63
910.82	14587.68
910.99	14645.02
911.16	14571.30
911.33	14825.25
911.50	14782.24
911.66	14667.55
911.83	14479.14
912.00	14446.37
912.17	14432.04
912.34	14331.69
912.51	14556.96
912.68	14133.03
912.85	14499.62
913.02	14544.67
913.19	14505.76
913.36	14665.50
913.53	14288.68
913.70	14284.58
913.86	14407.46
914.03	14225.19
914.20	14339.88
914.37	14004.01
914.54	14102.31
914.71	14180.14
914.88	14241.57
915.05	14184.23
915.22	14044.97
915.39	13866.80
915.55	14161.70
915.72	13987.63
915.89	13715.25
916.06	13893.42
916.23	13877.04
916.40	13793.07
916.57	13918.00
916.74	13528.88
916.91	13758.25
917.07	13276.98
917.24	13508.40
917.41	13705.01
917.58	13481.78
917.75	13551.41
917.92	13631.28
918.09	13352.76
918.26	13436.72
918.42	13483.83
918.59	13354.80
918.76	13166.39
918.93	13166.39
919.10	13209.40
919.27	13387.57
919.44	13381.43
919.60	13363.00
919.77	13236.02
919.94	13088.57
920.11	12902.20
920.28	12969.79
920.45	13143.86
920.61	12953.40
920.78	12902.20
920.95	12889.92
921.12	12644.16
921.29	12439.36
921.46	12873.53
921.62	12455.75
921.79	12439.36
921.96	12644.16
922.13	12762.94
922.30	12398.40
922.47	12341.06
922.63	12379.97
922.80	12363.59
922.97	12367.68
923.14	12025.67
923.31	12048.20
923.47	12132.17
923.64	12248.90
923.81	12001.10
923.98	12023.62
924.15	11865.93
924.32	12011.34
924.48	11956.04
924.65	11843.40
924.82	11775.82
924.99	11812.68
925.15	11575.12
925.32	11824.97
925.49	11411.28
925.66	11556.69
925.83	11421.52
925.99	11476.82
926.16	11507.54
926.33	11548.50
926.50	11353.94
926.67	11523.92
926.83	11398.99
927.00	11333.46
927.17	11132.76
927.34	11143.00
927.50	11292.50
927.67	11261.78
927.84	11190.10
928.01	11018.07
928.17	10962.78
928.34	10995.54
928.51	10889.05
928.68	10745.69
928.84	10555.23
929.01	10702.68
929.18	10624.86
929.35	10405.73
929.51	10510.18
929.68	10381.15
929.85	10317.67
930.02	10325.86
930.18	10438.50
930.35	10477.41
930.52	10190.69
930.69	10321.76
930.85	10303.33
931.02	10049.38
931.19	10049.38
931.36	10028.90
931.52	10262.37
931.69	10094.44
931.86	9860.97
932.02	10035.05
932.19	9838.44
932.36	9764.72
932.53	9832.30
932.69	9854.83
932.86	9869.16
933.03	9643.88
933.19	9668.46
933.36	9713.52
933.53	9596.78
933.70	9365.36
933.86	9441.14
934.03	9310.07
934.20	9353.07
934.36	9328.50
934.53	9092.98
934.70	9060.21
934.86	9095.03
935.03	9002.87
935.20	8966.01
935.36	8957.82
935.53	8916.86
935.70	8800.12
935.86	8804.22
936.03	8593.28
936.20	8413.06
936.36	8615.80
936.53	8460.16
936.70	8345.47
936.86	8415.10
937.03	8310.66
937.20	8101.76
937.36	8142.72
937.53	7909.26
937.70	7743.37
937.86	7569.29
938.03	7634.83
938.20	7921.54
938.36	7495.57
938.53	7503.76
938.70	7368.59
938.86	7284.62
939.03	7180.18
939.20	7282.58
939.36	7126.93
939.53	7026.58
939.70	7202.71
939.86	6840.22
940.03	6780.82
940.19	6651.80
940.36	6737.82
940.53	6600.60
940.69	6555.55
940.86	6604.70
941.03	6387.61
941.19	6272.93
941.36	6199.20
941.52	6246.30
941.69	6162.34
941.86	6018.98
942.02	6094.76
942.19	5971.88
942.35	6055.84
942.52	6018.98
942.69	6006.69
942.85	5717.93
943.02	5736.36
943.18	5828.52
943.35	5865.38
943.52	5535.66
943.68	5646.25
943.85	5570.48
944.01	5531.56
944.18	5404.59
944.35	5541.80
944.51	5461.93
944.68	5400.49
944.84	5371.82
945.01	5326.77
945.17	5386.16
945.34	5359.53
945.51	5408.69
945.67	5439.40
945.84	5277.62
946.00	5222.32
946.17	5365.68
946.33	5177.26
946.50	5279.66
946.67	5216.18
946.83	5230.51
947.00	5304.24
947.16	5318.57
947.33	5171.12
947.49	5263.28
947.66	5140.40
947.82	5162.93
947.99	5230.51
948.16	5132.21
948.32	5201.84
948.49	5341.10
948.65	5373.87
948.82	5199.79
948.98	5115.83
949.15	5154.74
949.31	5332.91
949.48	5144.50
949.64	5070.77
949.81	5175.22
949.97	5130.16
950.14	5371.82
950.30	5234.61
950.47	5386.16
950.63	5343.15
950.80	5326.77
950.96	5232.56
951.13	5238.70
951.30	5173.17
951.46	5177.26
951.63	5312.43
951.79	5253.04
951.96	5437.36
952.12	5361.58
952.29	5371.82
952.45	5187.50
952.62	5324.72
952.78	5283.76
952.94	5232.56
953.11	5267.38
953.27	5205.94
953.44	5382.06
953.60	5281.71
953.77	5492.65
953.93	5296.05
954.10	5263.28
954.26	5390.25
954.43	5314.48
954.59	5334.96
954.76	5482.41
954.92	5427.12
955.09	5345.20
955.25	5410.73
955.42	5318.57
955.58	5496.75
955.75	5400.49
955.91	5384.11
956.07	5418.93
956.24	5543.85
956.40	5431.21
956.57	5468.08
956.73	5339.05
956.90	5502.89
957.06	5289.90
957.23	5433.26
957.39	5359.53
957.56	5595.05
957.72	5380.01
957.88	5410.73
958.05	5390.25
958.21	5484.46
958.38	5506.99
958.54	5398.45
958.71	5666.73
958.87	5308.34
959.03	5396.40
959.20	5498.80
959.36	5318.57
959.53	5298.10
959.69	5367.73
959.85	5369.77
960.02	5404.59
960.18	5377.97
960.35	5423.02
960.51	5660.59
960.68	5238.70
960.84	5425.07
961.00	5296.05
961.17	5425.07
961.33	5425.07
961.50	5441.45
961.66	5349.29
961.82	5355.44
961.99	5345.20
962.15	5296.05
962.31	5435.31
962.48	5377.97
962.64	5300.14
962.81	5398.45
962.97	5304.24
963.13	5281.71
963.30	5265.33
963.46	5351.34
963.62	5302.19
963.79	5410.73
963.95	5380.01
964.12	5337.01
964.28	5275.57
964.44	5324.72
964.61	5431.21
964.77	5332.91
964.93	5470.12
965.10	5296.05
965.26	5214.13
965.42	5257.14
965.59	5250.99
965.75	5287.86
965.92	5255.09
966.08	5220.27
966.24	5273.52
966.41	5269.42
966.57	5207.98
966.73	5267.38
966.90	5150.64
967.06	5201.84
967.22	5189.55
967.39	5148.59
967.55	5216.18
967.71	5132.21
967.88	5074.87
968.04	5038.00
968.20	5179.31
968.37	5111.73
968.53	5001.14
968.69	5138.35
968.85	5134.26
969.02	5113.78
969.18	5171.12
969.34	5093.30
969.51	4990.90
969.67	5183.41
969.83	5019.57
970.00	5156.79
970.16	4999.09
970.32	5076.91
970.48	5164.98
970.65	5089.20
970.81	4947.89
970.97	5054.39
971.14	4820.92
971.30	5074.87
971.46	5038.00
971.63	4951.99
971.79	5103.54
971.95	4923.32
972.11	4878.26
972.28	4913.08
972.44	5078.96
972.60	4816.82
972.76	4962.23
972.93	4820.92
973.09	5007.28
973.25	4874.17
973.42	4888.50
973.58	5038.00
973.74	4876.21
973.90	4841.40
974.07	4857.78
974.23	4878.26
974.39	4935.60
974.55	4853.69
974.72	4753.34
974.88	4739.00
975.04	4796.34
975.20	4870.07
975.37	4700.09
975.53	4765.62
975.69	4827.06
975.85	4677.56
976.01	4736.95
976.18	4652.98
976.34	4698.04
976.50	4698.04
976.66	4796.34
976.83	4734.90
976.99	4724.66
977.15	4677.56
977.31	4597.69
977.47	4720.57
977.64	4681.66
977.80	4597.69
977.96	4523.96
978.12	4601.79
978.29	4581.31
978.45	4419.52
978.61	4501.44
978.77	4618.17
978.93	4532.15
979.10	4468.67
979.26	4540.35
979.42	4605.88
979.58	4407.23
979.74	4491.20
979.91	4493.24
980.07	4429.76
980.23	4552.63
980.39	4294.59
980.55	4394.94
980.71	4454.33
980.88	4386.75
981.04	4505.53
981.20	4392.89
981.36	4257.73
981.52	4374.46
981.68	4378.56
981.85	4374.46
982.01	4392.89
982.17	4294.59
982.33	4327.36
982.49	4419.52
982.65	4396.99
982.82	4362.17
982.98	4315.07
983.14	4282.30
983.30	4376.51
983.46	4308.93
983.62	4280.25
983.79	4214.72
983.95	4222.91
984.11	4114.37
984.27	4237.25
984.43	4192.19
984.59	4126.66
984.75	4237.25
984.91	4159.42
985.08	4224.96
985.24	4179.90
985.40	4001.73
985.56	4112.32
985.72	4171.71
985.88	4140.99
986.04	4108.23
986.20	4024.26
986.37	3960.77
986.53	4132.80
986.69	4110.27
986.85	3987.40
987.01	4024.26
987.17	4136.90
987.33	4026.31
987.49	3954.63
987.65	4134.85
987.82	4081.60
987.98	3997.64
988.14	3989.44
988.30	4069.31
988.46	3903.43
988.62	4007.87
988.78	3948.48
988.94	3925.96
989.10	3792.84
989.26	3852.23
989.42	3844.04
989.59	3706.82
989.75	3792.84
989.91	3878.85
990.07	3839.94
990.23	3940.29
990.39	3915.72
990.55	3960.77
990.71	3911.62
990.87	3788.74
991.03	3954.63
991.19	3813.32
991.35	3760.07
991.51	3753.93
991.67	3870.66
991.83	3803.08
992.00	3846.09
992.16	3839.94
992.32	3786.69
992.48	3844.04
992.64	3698.63
992.80	3610.57
992.96	3708.87
993.12	3698.63
993.28	3688.39
993.44	3692.49
993.60	3684.30
993.76	3663.82
993.92	3655.62
994.08	3608.52
994.24	3655.62
994.40	3698.63
994.56	3590.09
994.72	3526.60
994.88	3618.76
995.04	3731.40
995.20	3600.33
995.36	3563.47
995.52	3540.94
995.68	3616.71
995.84	3588.04
996.00	3684.30
996.16	3538.89
996.32	3551.18
996.48	3553.23
996.64	3538.89
996.80	3489.74
996.96	3520.46
997.12	3452.88
997.28	3524.55
997.44	3336.14
997.60	3444.68
997.76	3473.36
997.92	3420.11
998.08	3342.28
998.24	3360.72
998.40	3393.48
998.56	3471.31
998.72	3362.76
998.88	3268.56
999.04	3364.81
999.20	3401.68
999.36	3338.19
999.52	3483.59
999.68	3325.90
999.84	3352.52
1000.00	3375.05
1000.16	3450.83
1000.32	3229.65
1000.48	3430.35
1000.64	3147.73
1000.80	3157.97
1000.95	3123.15
1001.11	3246.03
1001.27	3190.74
1001.43	3338.19
1001.59	3172.30
1001.75	3223.50
1001.91	3291.09
1002.07	3276.75
1002.23	3205.07
1002.39	3030.99
1002.55	3176.40
1002.71	3098.58
1002.87	3149.78
1003.03	3022.80
1003.19	3131.34
1003.34	3198.93
1003.50	3057.62
1003.66	3227.60
1003.82	3198.93
1003.98	3063.76
1004.14	3008.47
1004.30	3182.54
1004.46	2942.93
1004.62	3100.62
1004.78	3055.57
1004.94	3014.61
1005.09	3020.75
1005.25	3086.29
1005.41	2979.79
1005.57	3002.32
1005.73	3053.52
1005.89	2996.18
1006.05	2998.23
1006.21	3000.27
1006.37	2940.88
1006.52	2955.22
1006.68	2908.12
1006.84	3033.04
1007.00	2949.08
1007.16	3020.75
1007.32	2836.44
1007.48	2844.63
1007.64	2998.23
1007.79	2906.07
1007.95	2838.48
1008.11	3035.09
1008.27	2996.18
1008.43	2889.68
1008.59	2920.40
1008.75	2854.87
1008.91	2926.55
1009.06	2805.72
1009.22	2852.82
1009.38	2830.29
1009.54	2768.85
1009.70	2836.44
1009.86	2891.73
1010.01	2967.51
1010.17	2713.56
1010.33	2861.01
1010.49	2783.19
1010.65	2916.31
1010.81	2666.46
1010.96	2764.76
1011.12	2750.42
1011.28	2623.45
1011.44	2820.05
1011.60	2744.28
1011.76	2797.53
1011.91	2910.16
1012.07	2688.98
1012.23	2727.89
1012.39	2641.88
1012.55	2766.81
1012.71	2605.02
1012.86	2656.22
1013.02	2592.73
1013.18	2619.35
1013.34	2648.02
1013.50	2641.88
1013.65	2617.30
1013.81	2654.17
1013.97	2535.39
1014.13	2676.70
1014.29	2564.06
1014.44	2711.51
1014.60	2566.10
1014.76	2545.63
1014.92	2594.78
1015.07	2650.07
1015.23	2617.30
1015.39	2508.76
1015.55	2566.10
1015.71	2553.82
1015.86	2559.96
1016.02	2467.80
1016.18	2478.04
1016.34	2562.01
1016.49	2533.34
1016.65	2613.21
1016.81	2492.38
1016.97	2568.15
1017.12	2609.11
1017.28	2531.29
1017.44	2449.37
1017.60	2408.41
1017.75	2500.57
1017.91	2455.51
1018.07	2523.10
1018.23	2426.84
1018.38	2416.60
1018.54	2473.95
1018.70	2381.79
1018.86	2529.24
1019.01	2416.60
1019.17	2457.56
1019.33	2562.01
1019.49	2414.56
1019.64	2418.65
1019.80	2519.00
1019.96	2437.08
1020.12	2365.40
1020.27	2371.55
1020.43	2428.89
1020.59	2428.89
1020.74	2465.75
1020.90	2455.51
1021.06	2355.16
1021.22	2396.12
1021.37	2435.03
1021.53	2224.09
1021.69	2330.59
1021.84	2287.58
1022.00	2328.54
1022.16	2275.29
1022.31	2379.74
1022.47	2357.21
1022.63	2355.16
1022.79	2330.59
1022.94	2267.10
1023.10	2318.30
1023.26	2285.53
1023.41	2281.44
1023.57	2244.57
1023.73	2324.44
1023.88	2301.92
1024.04	2226.14
1024.20	2271.20
1024.35	2369.50
1024.51	2260.96
1024.67	2199.52
1024.82	2371.55
1024.98	2207.71
1025.14	2203.61
1025.29	2250.72
1025.45	2185.18
1025.61	2146.27
1025.76	2211.81
1025.92	2228.19
1026.08	2238.43
1026.23	2332.64
1026.39	2215.90
1026.55	2213.85
1026.70	2107.36
1026.86	2176.99
1027.02	2244.57
1027.17	2199.52
1027.33	2183.13
1027.48	2166.75
1027.64	2150.37
1027.80	2181.09
1027.95	2228.19
1028.11	2007.01
1028.27	2152.42
1028.42	2152.42
1028.58	2136.03
1028.73	2033.63
1028.89	2033.63
1029.05	2154.46
1029.20	2183.13
>>>>>End Processed Spectral Data<<<<<
