SpectraSuite Data File
++++++++++++++++++++++++++++++++++++
Date: Fri Jun 02 14:47:58 CEST 2017
User: INFO_000
Dark Spectrum Present: No
Reference Spectrum Present: No
Number of Sampled Component Spectra: 1
Spectrometers: USB4H00879
Integration Time (usec): 80000 (USB4H00879)
Spectra Averaged: 1 (USB4H00879)
Boxcar Smoothing: 0 (USB4H00879)
Correct for Electrical Dark: No (USB4H00879)
Strobe/Lamp Enabled: No (USB4H00879)
Correct for Detector Non-linearity: No (USB4H00879)
Correct for Stray Light: No (USB4H00879)
Number of Pixels in Processed Spectrum: 3648
>>>>>Begin Processed Spectral Data<<<<<
345.13	1241.07
345.34	1241.07
345.56	1241.07
345.78	1282.03
345.99	1273.84
346.21	1701.86
346.42	1699.81
346.64	1597.42
346.86	1789.92
347.07	1626.09
347.29	1699.81
347.50	1621.99
347.72	1695.72
347.94	1769.44
348.15	1572.84
348.37	1662.95
348.59	1728.49
348.80	1603.56
349.02	1755.11
349.23	1877.99
349.45	1832.93
349.67	1953.76
349.88	1794.02
350.10	1918.95
350.31	1794.02
350.53	1863.65
350.75	1953.76
350.96	1843.17
351.18	1794.02
351.39	1787.88
351.61	1804.26
351.82	1849.32
352.04	1937.38
352.26	1914.85
352.47	1886.18
352.69	1857.51
352.90	1777.64
353.12	1882.08
353.34	1880.04
353.55	1787.88
353.77	1890.28
353.98	1853.41
354.20	1765.35
354.41	1837.03
354.63	1894.37
354.85	2084.83
355.06	1888.23
355.28	1748.97
355.49	1880.04
355.71	1865.70
355.92	1904.61
356.14	1923.04
356.35	1853.41
356.57	1834.98
356.79	1931.23
357.00	1826.79
357.22	1966.05
357.43	1837.03
357.65	1947.62
357.86	1912.80
358.08	1861.60
358.29	1949.67
358.51	1959.91
358.72	2029.54
358.94	1918.95
359.16	1931.23
359.37	1978.34
359.59	1894.37
359.80	1976.29
360.02	1943.52
360.23	2000.87
360.45	1964.00
360.66	1918.95
360.88	1822.69
361.09	1943.52
361.31	2000.87
361.52	1978.34
361.74	1978.34
361.95	2136.03
362.17	1998.82
362.38	2080.74
362.60	2076.64
362.81	1996.77
363.03	1972.19
363.24	1986.53
363.46	2107.36
363.67	2035.68
363.89	1976.29
364.10	1970.15
364.32	1894.37
364.53	2119.65
364.75	1896.42
364.96	1988.58
365.18	2019.30
365.39	1976.29
365.61	1916.90
365.82	2029.54
366.04	2011.11
366.25	1972.19
366.47	2062.30
366.68	2088.93
366.90	1933.28
367.11	2115.55
367.33	2109.41
367.54	2115.55
367.76	2131.94
367.97	2041.82
368.19	1943.52
368.40	2080.74
368.62	1937.38
368.83	1986.53
369.05	2027.49
369.26	1947.62
369.48	2023.39
369.69	2007.01
369.91	2068.45
370.12	2023.39
370.33	2158.56
370.55	1931.23
370.76	2033.63
370.98	2084.83
371.19	2070.50
371.41	2011.11
371.62	2060.26
371.84	2000.87
372.05	2269.15
372.27	2013.15
372.48	1988.58
372.69	2070.50
372.91	2248.67
373.12	2205.66
373.34	2111.46
373.55	2164.70
373.77	2113.50
373.98	2144.22
374.20	2162.66
374.41	2222.05
374.62	2101.22
374.84	2064.35
375.05	2252.77
375.27	2154.46
375.48	2172.89
375.70	2166.75
375.91	2195.42
376.12	2275.29
376.34	2181.09
376.55	2215.90
376.77	2224.09
376.98	2117.60
377.19	2107.36
377.41	2115.55
377.62	2150.37
377.84	2252.77
378.05	2410.46
378.27	2160.61
378.48	2289.63
378.69	2349.02
378.91	2281.44
379.12	2236.38
379.34	2328.54
379.55	2291.68
379.76	2322.40
379.98	2297.82
380.19	2199.52
380.41	2273.25
380.62	2248.67
380.83	2224.09
381.05	2222.05
381.26	2371.55
381.47	2162.66
381.69	2203.61
381.90	2389.98
382.12	2238.43
382.33	2289.63
382.54	2236.38
382.76	2295.77
382.97	2334.68
383.19	2248.67
383.40	2379.74
383.61	2338.78
383.83	2301.92
384.04	2306.01
384.25	2297.82
384.47	2412.51
384.68	2357.21
384.89	2238.43
385.11	2303.96
385.32	2281.44
385.54	2353.12
385.75	2256.86
385.96	2312.16
386.18	2387.93
386.39	2445.27
386.60	2344.92
386.82	2385.88
387.03	2389.98
387.24	2537.43
387.46	2453.47
387.67	2455.51
387.88	2557.91
388.10	2420.70
388.31	2375.64
388.52	2615.26
388.74	2457.56
388.95	2420.70
389.16	2514.91
389.38	2371.55
389.59	2510.81
389.80	2645.98
390.02	2514.91
390.23	2656.22
390.44	2574.30
390.66	2584.54
390.87	2478.04
391.08	2617.30
391.30	2658.26
391.51	2637.78
391.72	2633.69
391.94	2588.63
392.15	2527.19
392.36	2521.05
392.58	2473.95
392.79	2672.60
393.00	2715.61
393.22	2621.40
393.43	2752.47
393.64	2818.00
393.85	2789.33
394.07	2580.44
394.28	2695.13
394.49	2742.23
394.71	2826.20
394.92	2854.87
395.13	2670.55
395.35	2764.76
395.56	2674.65
395.77	2775.00
395.98	2815.96
396.20	2854.87
396.41	2916.31
396.62	2875.35
396.84	2875.35
397.05	2756.57
397.26	2818.00
397.47	2871.25
397.69	2881.49
397.90	2932.69
398.11	2887.64
398.32	2873.30
398.54	2901.97
398.75	2947.03
398.96	2852.82
399.18	3121.10
399.39	2969.55
399.60	3035.09
399.81	2965.46
400.03	2916.31
400.24	3209.17
400.45	3006.42
400.66	3104.72
400.88	2969.55
401.09	3213.26
401.30	3076.05
401.51	3133.39
401.73	3149.78
401.94	3080.14
402.15	3088.34
402.36	3160.02
402.58	3164.11
402.79	3188.69
403.00	3059.67
403.21	3164.11
403.43	3305.42
403.64	3270.61
403.85	3190.74
404.06	3262.41
404.27	3041.23
404.49	3252.17
404.70	3117.01
404.91	3309.52
405.12	3217.36
405.34	3260.37
405.55	3424.20
405.76	3182.54
405.97	3303.37
406.19	3334.09
406.40	3067.86
406.61	3295.18
406.82	3243.98
407.03	3289.04
407.25	3274.70
407.46	3338.19
407.67	3325.90
407.88	3471.31
408.09	3397.58
408.31	3338.19
408.52	3364.81
408.73	3278.80
408.94	3327.95
409.15	3377.10
409.37	3489.74
409.58	3413.96
409.79	3495.88
410.00	3542.99
410.21	3426.25
410.43	3469.26
410.64	3416.01
410.85	3510.22
411.06	3530.70
411.27	3571.66
411.48	3596.23
411.70	3373.00
411.91	3502.03
412.12	3678.15
412.33	3522.51
412.54	3536.84
412.76	3602.38
412.97	3665.86
413.18	3534.79
413.39	3571.66
413.60	3641.29
413.81	3651.53
414.03	3635.14
414.24	3612.62
414.45	3786.69
414.66	3522.51
414.87	3727.30
415.08	3672.01
415.30	3735.50
415.51	3817.41
415.72	3805.13
415.93	3710.92
416.14	3727.30
416.35	3805.13
416.56	3762.12
416.78	3825.61
416.99	3872.71
417.20	3729.35
417.41	3772.36
417.62	3846.09
417.83	3876.80
418.04	3837.89
418.26	3837.89
418.47	3882.95
418.68	3897.28
418.89	4018.11
419.10	4079.55
419.31	3960.77
419.52	3928.00
419.73	3958.72
419.95	4184.00
420.16	4014.02
420.37	4057.03
420.58	4112.32
420.79	3923.91
421.00	4108.23
421.21	4243.39
421.42	4083.65
421.63	4083.65
421.85	4136.90
422.06	4036.55
422.27	4208.58
422.48	4147.14
422.69	4284.35
422.90	4124.61
423.11	4272.06
423.32	4276.16
423.53	4284.35
423.75	4229.06
423.96	4380.61
424.17	4407.23
424.38	4429.76
424.59	4368.32
424.80	4517.82
425.01	4487.10
425.22	4427.71
425.43	4368.32
425.64	4612.03
425.85	4603.83
426.06	4487.10
426.28	4466.62
426.49	4452.28
426.70	4466.62
426.91	4573.11
427.12	4603.83
427.33	4571.07
427.54	4634.55
427.75	4681.66
427.96	4747.19
428.17	4775.86
428.38	4775.86
428.59	4782.01
428.80	4753.34
429.01	4882.36
429.23	4822.97
429.44	4911.03
429.65	4804.53
429.86	4874.17
430.07	4874.17
430.28	4882.36
430.49	4810.68
430.70	4951.99
430.91	5074.87
431.12	4859.83
431.33	5173.17
431.54	5107.63
431.75	5140.40
431.96	5017.52
432.17	5074.87
432.38	5128.11
432.59	5353.39
432.80	5343.15
433.01	5212.08
433.22	5277.62
433.43	5289.90
433.64	5351.34
433.85	5271.47
434.06	5439.40
434.27	5230.51
434.49	5402.54
434.70	5496.75
434.91	5480.36
435.12	5427.12
435.33	5578.67
435.54	5459.88
435.75	5302.19
435.96	5607.34
436.17	5296.05
436.38	5525.42
436.59	5541.80
436.80	5474.22
437.01	5621.67
437.22	5779.37
437.43	5580.71
437.64	5494.70
437.85	5664.68
438.06	5783.46
438.27	5609.39
438.48	5734.31
438.69	5767.08
438.90	5748.65
439.11	5590.95
439.32	5787.56
439.53	5842.85
439.74	5935.01
439.95	5877.67
440.16	5877.67
440.37	5781.42
440.57	5744.55
440.78	5922.73
440.99	5982.12
441.20	5926.82
441.41	5859.24
441.62	5828.52
441.83	5840.81
442.04	6072.23
442.25	6006.69
442.46	6084.52
442.67	6055.84
442.88	6502.30
443.09	6053.80
443.30	6008.74
443.51	6041.51
443.72	6438.81
443.93	6107.04
444.14	6322.08
444.35	6121.38
444.56	6197.15
444.77	6127.52
444.98	6373.28
445.19	6307.74
445.40	6348.70
445.61	6391.71
445.81	6367.13
446.02	6442.91
446.23	6215.59
446.44	6299.55
446.65	6627.23
446.86	6408.09
447.07	6483.87
447.28	6674.33
447.49	6711.19
447.70	6436.77
447.91	6508.44
448.12	6563.74
448.33	6584.22
448.54	6735.77
448.74	6666.14
448.95	6815.64
449.16	6721.43
449.37	6829.98
449.58	6743.96
449.79	6946.71
450.00	6752.15
450.21	6717.34
450.42	6864.79
450.63	7036.82
450.84	6684.57
451.05	6856.60
451.25	6983.57
451.46	6864.79
451.67	7049.11
451.88	7171.99
452.09	7155.60
452.30	6891.41
452.51	7120.79
452.72	7126.93
452.93	7487.37
453.13	7131.03
453.34	7231.38
453.55	7245.71
453.76	7395.22
453.97	7626.64
454.18	7384.98
454.39	7626.64
454.60	7323.54
454.81	7450.51
455.01	7647.12
455.22	7313.30
455.43	7600.01
455.64	7778.19
455.85	7743.37
456.06	7868.30
456.27	7729.03
456.48	7626.64
456.68	7825.29
456.89	7878.54
457.10	7823.24
457.31	7817.10
457.52	7647.12
457.73	7980.93
457.94	8318.85
458.14	7823.24
458.35	8138.63
458.56	8056.71
458.77	8044.42
458.98	8148.87
459.19	8275.84
459.39	8384.38
459.60	8433.54
459.81	8490.88
460.02	8462.21
460.23	8349.57
460.44	8628.09
460.65	8601.47
460.85	8697.72
461.06	8939.38
461.27	8619.90
461.48	8822.65
461.69	8951.67
461.89	8640.38
462.10	8877.94
462.31	8828.79
462.52	8828.79
462.73	8822.65
462.94	9097.08
463.14	9002.87
463.35	8925.05
463.56	9412.46
463.77	9267.06
463.98	9060.21
464.18	9244.53
464.39	9420.66
464.60	9613.17
464.81	9547.63
465.02	9381.74
465.23	9762.67
465.43	9594.73
465.64	9848.68
465.85	9641.84
466.06	9760.62
466.27	10227.56
466.47	9854.83
466.68	9852.78
466.89	10067.81
467.10	10121.06
467.30	9860.97
467.51	10250.08
467.72	10434.40
467.93	9963.37
468.14	10305.38
468.34	10563.42
468.55	10493.79
468.76	10602.33
468.97	10446.69
469.17	10706.78
469.38	10690.40
469.59	10942.30
469.80	10757.98
470.01	10723.16
470.21	10999.64
470.42	10954.58
470.63	11249.49
470.84	11071.32
471.04	11341.65
471.25	11163.48
471.46	11224.92
471.67	11614.03
471.87	11282.26
472.08	11689.81
472.29	11941.71
472.50	11224.92
472.70	11575.12
472.91	11759.44
473.12	11827.02
473.33	11892.55
473.53	12162.89
473.74	12183.37
473.95	12334.92
474.16	12312.39
474.36	12246.85
474.57	12572.48
474.78	12369.73
474.99	12402.50
475.19	12574.53
475.40	12857.15
475.61	12937.02
475.81	12906.30
476.02	13041.46
476.23	13096.76
476.44	13145.91
476.64	13473.59
476.85	13457.20
477.06	13469.49
477.27	13682.48
477.47	13813.55
477.68	13766.45
477.89	13791.02
478.09	13705.01
478.30	14028.59
478.51	13936.43
478.71	14231.33
478.92	14178.09
479.13	14231.33
479.34	14501.67
479.54	14331.69
479.75	14569.25
479.96	14538.53
480.16	14466.85
480.37	14802.72
480.58	14946.08
480.78	15304.47
480.99	15064.86
481.20	15243.03
481.41	15286.04
481.61	15523.60
481.82	15605.52
482.03	15578.90
482.23	15609.62
482.44	15804.17
482.65	15970.06
482.85	15943.44
483.06	15820.56
483.27	16011.02
483.47	16023.31
483.68	16078.60
483.89	16211.72
484.09	16301.83
484.30	16252.68
484.51	16473.86
484.71	16916.22
484.92	16590.59
485.13	16869.12
485.33	16920.32
485.54	16910.08
485.75	17291.00
485.95	17084.16
486.16	17358.58
486.37	17434.36
486.57	17432.31
486.78	17506.04
486.98	17514.23
487.19	17628.92
487.40	17960.69
487.60	17688.31
487.81	18054.89
488.02	17977.07
488.22	17917.68
488.43	18142.96
488.64	18155.24
488.84	18411.24
489.05	18458.34
489.25	18489.06
489.46	18591.46
489.67	18607.84
489.87	19007.20
490.08	18818.78
490.29	18970.33
490.49	19099.36
490.70	19181.28
490.90	19220.19
491.11	19244.76
491.32	19363.54
491.52	19400.41
491.73	19556.05
491.94	19621.59
492.14	19554.01
492.35	19754.71
492.55	19932.88
492.76	19934.93
492.97	20147.92
493.17	20365.00
493.38	20299.47
493.58	20350.67
493.79	20074.19
494.00	20420.30
494.20	20350.67
494.41	20592.33
494.61	20829.89
494.82	20899.52
495.02	20711.11
495.23	20979.39
495.44	20932.29
495.64	21204.67
495.85	21370.55
496.05	21405.37
496.26	21063.36
496.47	21567.16
496.67	21491.38
496.88	21659.32
497.08	21268.16
497.29	21991.09
497.49	21786.29
497.70	21587.64
497.91	22421.16
498.11	21984.94
498.32	22408.87
498.52	22247.08
498.73	22714.02
498.93	22453.93
499.14	22654.63
499.34	22884.00
499.55	22630.05
499.76	22615.72
499.96	22738.60
500.17	22986.40
500.37	23060.13
500.58	22877.86
500.78	22808.23
500.99	23170.72
501.19	23525.02
501.40	23441.05
501.60	23103.14
501.81	23475.87
502.02	23426.71
502.22	23375.52
502.43	23752.34
502.63	24137.36
502.84	23930.51
503.04	23797.40
503.25	23918.23
503.45	23948.95
503.66	24112.78
503.86	24209.04
504.07	24395.40
504.27	24209.04
504.48	24714.89
504.68	24389.26
504.89	24637.06
505.09	24436.36
505.30	24706.70
505.50	24907.40
505.71	24878.72
505.91	25108.10
506.12	25069.19
506.32	25075.33
506.53	25206.40
506.73	25149.06
506.94	25126.53
507.14	25368.19
507.35	25247.36
507.55	25468.54
507.76	25513.59
507.96	25349.76
508.17	25319.04
508.37	25747.06
508.58	25738.87
508.78	25861.75
508.99	26011.25
509.19	25908.85
509.40	26185.33
509.60	25958.00
509.81	26230.38
510.01	26191.47
510.22	26257.01
510.42	26347.12
510.63	26414.70
510.83	26529.39
511.04	26312.30
511.24	26402.41
511.44	26549.87
511.65	26531.44
511.85	26580.59
512.06	26734.18
512.26	26994.28
512.47	27065.96
512.67	26855.01
512.88	26941.03
513.08	26893.93
513.29	27172.45
513.49	26852.97
513.69	27035.24
513.90	27127.39
514.10	27217.50
514.31	27391.58
514.51	27440.73
514.72	27178.59
514.92	27117.15
515.13	27592.28
515.33	27768.41
515.53	27659.87
515.74	27580.00
515.94	28331.60
516.15	27860.57
516.35	27805.27
516.56	27835.99
516.76	27448.93
516.96	28151.38
517.17	28264.02
517.37	27934.29
517.58	28257.87
517.78	28335.70
517.99	28274.26
518.19	28651.08
518.39	28853.83
518.60	28765.77
518.80	28603.98
519.01	28632.65
519.21	28599.88
519.41	28835.40
519.62	28909.13
519.82	29025.86
520.03	29191.75
520.23	29105.73
520.43	29015.62
520.64	29439.55
520.84	29541.95
521.05	29183.55
521.25	29277.76
521.45	29322.82
521.66	29537.85
521.86	29394.50
522.07	29265.47
522.27	29611.58
522.47	29777.47
522.68	29992.50
522.88	29924.92
523.08	30121.52
523.29	30162.48
523.49	30242.35
523.70	30254.64
523.90	30613.04
524.10	30604.84
524.31	30561.84
524.51	30340.66
524.71	30977.58
524.92	30346.80
525.12	31073.83
525.33	30862.89
525.53	31012.39
525.73	31184.42
525.94	31096.36
526.14	30940.71
526.34	30975.53
526.55	31524.38
526.75	31249.96
526.95	31655.45
527.16	31559.20
527.36	31405.60
527.56	32183.83
527.77	31839.77
527.97	32005.66
528.17	32052.76
528.38	31952.41
528.58	32206.36
528.78	32218.64
528.99	32034.33
529.19	32153.11
529.39	32366.10
529.60	32552.46
529.80	32421.39
530.00	32654.86
530.21	32919.05
530.41	33129.99
530.61	32652.81
530.82	33095.18
531.02	32753.16
531.22	33357.32
531.43	33039.88
531.63	33046.02
531.83	33306.12
532.04	33463.81
532.24	33334.79
532.44	33758.72
532.64	33883.64
532.85	33687.04
533.05	33560.06
533.25	33988.09
533.46	34086.39
533.66	34319.86
533.86	34352.63
534.07	34319.86
534.27	34385.40
534.47	34364.92
534.67	34473.46
534.88	34502.13
535.08	34422.26
535.28	34674.16
535.49	34964.97
535.69	35257.83
535.89	35104.23
536.09	35444.20
536.30	35034.60
536.50	35616.22
536.70	35298.79
536.91	35268.07
537.11	35472.87
537.31	35743.20
537.51	35761.63
537.72	35993.05
537.92	36376.02
538.12	36566.48
538.32	36068.83
538.53	36142.55
538.73	35995.10
538.93	36099.55
539.13	36083.16
539.34	36400.60
539.54	36005.34
539.74	36558.29
539.94	36296.15
540.15	36771.28
540.35	36847.05
540.55	36660.69
540.75	36627.92
540.96	36836.81
541.16	36713.94
541.36	36945.36
541.56	37303.75
541.77	37447.11
541.97	37385.67
542.17	37232.07
542.37	37330.37
542.58	37514.69
542.78	37092.81
542.98	37633.47
543.18	37895.61
543.38	38000.06
543.59	37815.74
543.79	37612.99
543.99	37658.05
544.19	38008.25
544.40	37840.32
544.60	38260.15
544.80	38092.22
545.00	38204.86
545.20	38151.61
545.41	38417.85
545.61	38337.98
545.81	38892.97
546.01	38575.54
546.21	38380.98
546.42	38565.30
546.62	38974.89
546.82	38819.25
547.02	38634.93
547.22	39032.24
547.43	39058.86
547.63	38843.82
547.83	39357.86
548.03	39095.72
548.23	39388.58
548.44	39310.76
548.64	39427.49
548.84	39456.17
549.04	39443.88
549.24	39560.61
549.45	39953.82
549.65	39568.80
549.85	39777.70
550.05	39804.32
550.25	39937.44
550.45	40361.37
550.66	40121.76
550.86	39931.29
551.06	40600.98
551.26	40318.36
551.46	40277.40
551.66	40068.51
551.87	40351.13
552.07	40328.60
552.27	40400.28
552.47	40570.26
552.67	40908.18
552.87	40566.16
553.07	40703.38
553.28	40785.30
553.48	40979.85
553.68	40773.01
553.88	41149.84
554.08	41186.70
554.28	40883.60
554.48	40664.47
554.69	41051.53
554.89	41309.58
555.09	41543.05
555.29	41319.82
555.49	41491.85
555.69	41383.30
555.89	41684.36
556.10	41631.11
556.30	41471.37
556.50	41749.89
556.70	41555.33
556.90	42057.09
557.10	41792.90
557.30	41948.54
557.50	42524.02
557.70	42073.47
557.91	42489.21
558.11	42003.84
558.31	42372.47
558.51	42081.66
558.71	42077.57
558.91	42317.18
559.11	42489.21
559.31	42089.85
559.51	42235.26
559.72	42579.32
559.92	42460.54
560.12	42612.09
560.32	42628.47
560.52	42562.93
560.72	42739.06
560.92	42771.83
561.12	42866.03
561.32	43054.45
561.52	42698.10
561.72	43400.55
561.93	42759.54
562.13	43124.08
562.33	42757.49
562.53	43414.89
562.73	43056.50
562.93	42800.50
563.13	42960.24
563.33	43251.05
563.53	43591.01
563.73	43017.58
563.93	43285.87
564.13	44557.66
564.33	43464.04
564.53	43642.21
564.74	44045.66
564.94	43525.48
565.14	43677.03
565.34	43400.55
565.54	43472.23
565.74	43459.94
565.94	43953.51
566.14	44164.45
566.34	43926.88
566.54	44250.46
566.74	44033.38
566.94	44189.02
567.14	44096.86
567.34	43992.42
567.54	44250.46
567.74	44031.33
567.94	44422.49
568.14	44561.75
568.34	44875.09
568.54	44670.29
568.74	44412.25
568.94	44352.86
569.14	44934.48
569.34	44533.08
569.54	44729.69
569.75	44660.05
569.95	44543.32
570.15	44860.76
570.35	45069.65
570.55	44639.57
570.75	44907.86
570.95	44567.90
571.15	45235.53
571.35	45174.09
571.55	45323.60
571.75	45442.38
571.95	45514.06
572.15	45192.53
572.35	45382.99
572.55	45190.48
572.75	45231.44
572.95	45299.02
573.15	45331.79
573.35	45563.21
573.55	45436.23
573.75	45407.56
573.95	45735.24
574.15	45716.81
574.35	46085.44
574.55	45892.93
574.75	45808.96
574.95	45897.03
575.15	45671.75
575.34	45681.99
575.54	45970.75
575.74	46050.63
575.94	46110.02
576.14	45897.03
576.34	46761.27
576.54	46214.46
576.74	46366.01
576.94	46161.22
577.14	46359.87
577.34	47045.94
577.54	45505.87
577.74	46697.78
577.94	46789.94
578.14	46589.24
578.34	46806.33
578.54	46083.39
578.74	46650.68
578.94	46986.55
579.14	46521.66
579.34	46538.04
579.54	46818.61
579.74	47314.22
579.94	47220.02
580.13	47039.79
580.33	47052.08
580.53	47125.81
580.73	47177.01
580.93	47105.33
581.13	46824.76
581.33	46976.31
581.53	47668.52
581.73	47224.11
581.93	47355.18
582.13	47758.63
582.33	47596.84
582.53	47299.89
582.73	47351.09
582.92	47873.32
583.12	47680.81
583.32	47510.83
583.52	47547.69
583.72	47799.59
583.92	47799.59
584.12	48008.48
584.32	48063.78
584.52	47861.03
584.72	48137.51
584.92	48219.42
585.11	48411.93
585.31	48153.89
585.51	48231.71
585.71	48180.51
585.91	48725.27
586.11	48166.18
586.31	48258.34
586.51	48196.90
586.71	48356.64
586.91	48594.20
587.10	48622.87
587.30	48383.26
587.50	48755.99
587.70	48674.07
587.90	48870.68
588.10	48569.63
588.30	48543.00
588.50	49118.48
588.69	48629.02
588.89	48567.58
589.09	48819.48
589.29	48721.18
589.49	49222.93
589.69	48620.83
589.89	49169.68
590.08	49173.78
590.28	48825.62
590.48	49216.78
590.68	49052.95
590.88	49282.32
591.08	48811.29
591.28	49179.92
591.47	49157.39
591.67	49210.64
591.87	49339.66
592.07	49417.49
592.27	49126.67
592.47	49061.14
592.67	49218.83
592.86	49087.76
593.06	49620.23
593.26	49763.59
593.46	49810.70
593.66	49321.23
593.86	49763.59
594.05	50101.51
594.25	50013.44
594.45	49745.16
594.65	49650.95
594.85	49444.11
595.05	49831.18
595.24	50119.94
595.44	49722.63
595.64	50177.28
595.84	50195.71
596.04	49591.56
596.23	50328.83
596.43	49947.91
596.63	50271.49
596.83	50130.18
597.03	50429.18
597.22	50502.91
597.42	50599.16
597.62	50144.51
597.82	50318.59
598.02	49945.86
598.21	50459.90
598.41	50345.22
598.61	50494.72
598.81	50756.86
599.01	51016.95
599.20	50582.78
599.40	50795.77
599.60	50822.39
599.80	50877.69
600.00	50957.56
600.19	51172.60
600.39	50361.60
600.59	51537.13
600.79	51025.14
600.98	50951.41
601.18	51115.25
601.38	51328.24
601.58	51305.71
601.78	51578.09
601.97	50775.29
602.17	51666.16
602.37	51430.64
602.57	51252.47
602.76	51836.14
602.96	51070.20
603.16	51635.44
603.36	51942.63
603.55	52131.04
603.75	51846.38
603.95	51940.58
604.15	51696.88
604.34	52172.00
604.54	51993.83
604.74	51860.71
604.94	51999.97
605.13	52339.94
605.33	52149.48
605.53	51905.77
605.73	52628.70
605.92	52634.84
606.12	52360.42
606.32	52348.13
606.52	52368.61
606.71	52360.42
606.91	52634.84
607.11	52417.76
607.30	53241.04
607.50	52612.32
607.70	53042.39
607.90	52579.55
608.09	52923.61
608.29	52456.67
608.49	52942.04
608.68	53019.86
608.88	52968.66
609.08	52993.24
609.28	53021.91
609.47	52833.50
609.67	53636.30
609.87	53056.73
610.06	53290.19
610.26	53548.24
610.46	53327.06
610.66	52958.42
610.85	53449.94
611.05	53302.48
611.25	53265.62
611.44	53404.88
611.64	53429.46
611.84	53128.41
612.03	53386.45
612.23	53365.97
612.43	53632.21
612.62	53626.06
612.82	53818.57
613.02	53757.13
613.21	53425.36
613.41	53365.97
613.61	53753.04
613.80	53347.54
614.00	54109.38
614.20	53699.79
614.39	53714.12
614.59	53701.84
614.79	53744.84
614.98	53867.72
615.18	53615.82
615.38	53857.48
615.57	53740.75
615.77	54293.70
615.97	53978.31
616.16	54097.09
616.36	54015.18
616.56	54072.52
616.75	53894.35
616.95	53570.77
617.15	54172.87
617.34	53875.91
617.54	53994.70
617.74	54156.49
617.93	54351.04
618.13	53877.96
618.32	53892.30
618.52	53992.65
618.72	54330.56
618.91	54486.21
619.11	53619.92
619.31	54195.40
619.50	54093.00
619.70	54600.89
619.90	54101.19
620.09	54070.47
620.29	53966.02
620.48	54129.86
620.68	54308.04
620.88	53931.21
621.07	53986.50
621.27	54138.05
621.46	53996.74
621.66	54064.33
621.86	53873.87
622.05	54064.33
622.25	54627.52
622.44	53867.72
622.64	53845.19
622.84	54367.43
623.03	54265.03
623.23	54559.94
623.42	54322.37
623.62	54420.67
623.82	54529.22
624.01	54160.58
624.21	54848.70
624.40	54084.81
624.60	54326.47
624.80	53794.00
624.99	54269.12
625.19	54258.88
625.38	54506.69
625.58	54840.51
625.77	54602.94
625.97	54611.13
626.17	54058.18
626.36	54498.50
626.56	54211.78
626.75	54238.40
626.95	54561.98
627.14	54555.84
627.34	54701.25
627.54	54768.83
627.73	54422.72
627.93	54742.20
628.12	54588.61
628.32	54435.01
628.51	54817.98
628.71	54783.16
628.90	54654.14
629.10	55114.94
629.30	54822.08
629.49	54791.36
629.69	54353.09
629.88	54523.07
630.08	55061.69
630.27	54656.19
630.47	55272.63
630.66	54549.70
630.86	55286.96
631.05	54439.11
631.25	55227.57
631.44	55047.35
631.64	55225.53
631.84	54865.08
632.03	55667.89
632.23	55334.07
632.42	55325.88
632.62	55096.50
632.81	54615.23
633.01	55295.16
633.20	55475.38
633.40	55415.99
633.59	55334.07
633.79	55071.93
633.98	55098.55
634.18	55133.37
634.37	55352.50
634.57	55231.67
634.76	55119.03
634.96	55588.02
635.15	55293.11
635.35	55137.46
635.54	55415.99
635.74	55753.90
635.93	55014.58
636.13	55413.94
636.32	55456.95
636.52	55309.49
636.71	55514.29
636.91	55461.04
637.10	55588.02
637.30	55350.45
637.49	55606.45
637.69	55309.49
637.88	55563.44
638.08	55311.54
638.27	55915.69
638.46	55502.00
638.66	55502.00
638.85	55753.90
639.05	55870.64
639.24	55825.58
639.44	55604.40
639.63	55698.61
639.83	55493.81
640.02	55815.34
640.22	55917.74
640.41	55719.09
640.61	55125.17
640.80	55628.98
640.99	55403.70
641.19	55932.07
641.38	55469.23
641.58	55708.85
641.77	55510.19
641.97	55616.69
642.16	55688.37
642.36	55878.83
642.55	56581.28
642.74	55571.63
642.94	56177.83
643.13	55588.02
643.33	56165.54
643.52	56198.31
643.72	56274.09
643.91	55872.68
644.10	56151.21
644.30	56278.18
644.49	56145.06
644.69	56054.95
644.88	56237.22
645.08	56095.91
645.27	56089.77
645.46	55772.33
645.66	56083.62
645.85	55874.73
646.05	56153.26
646.24	56052.90
646.43	56329.38
646.63	56550.56
646.82	56243.37
647.02	55899.31
647.21	56243.37
647.40	56173.73
647.60	56497.31
647.79	56009.90
647.99	56562.85
648.18	56392.87
648.37	56497.31
648.57	56597.66
648.76	56589.47
648.96	56124.58
649.15	56548.51
649.34	56544.42
649.54	55915.69
649.73	56177.83
649.92	56521.89
650.12	56612.00
650.31	56624.29
650.51	56677.54
650.70	56829.08
650.89	56419.49
651.09	56947.87
651.28	56833.18
651.47	56693.92
651.67	56728.73
651.86	56652.96
652.06	56337.57
652.25	56929.44
652.44	56665.25
652.64	56329.38
652.83	56532.13
653.02	56286.37
653.22	56327.33
653.41	56212.65
653.60	56640.67
653.80	56243.37
653.99	56493.22
654.18	56261.80
654.38	56407.20
654.57	56433.83
654.76	56652.96
654.96	56581.28
655.15	56251.56
655.34	56509.60
655.54	56505.51
655.73	56360.10
655.92	56601.76
656.12	56319.14
656.31	56343.72
656.50	56220.84
656.70	56308.90
656.89	56714.40
657.08	56507.55
657.28	56906.91
657.47	56695.97
657.66	56728.73
657.86	56505.51
658.05	56353.96
658.24	56665.25
658.43	56325.28
658.63	56734.88
658.82	56693.92
659.01	56824.99
659.21	56769.69
659.40	56276.13
659.59	55993.51
659.79	56765.60
659.98	56411.30
660.17	56581.28
660.36	56063.14
660.56	56448.16
660.75	56388.77
660.94	56030.38
661.14	56542.37
661.33	56564.90
661.52	56083.62
661.71	56130.73
661.91	55923.88
662.10	56013.99
662.29	56612.00
662.49	56269.99
662.68	55805.10
662.87	55764.14
663.06	56489.12
663.26	56122.54
663.45	56882.33
663.64	56202.41
663.83	56257.70
664.03	56339.62
664.22	56190.12
664.41	56446.11
664.60	56132.78
664.80	56454.31
664.99	55833.77
665.18	55970.99
665.37	56378.53
665.57	56442.02
665.76	55596.21
665.95	56278.18
666.14	55751.85
666.34	56186.02
666.53	56198.31
666.72	56079.53
666.91	56059.05
667.11	55499.95
667.30	56382.63
667.49	55770.28
667.68	55927.98
667.87	55694.51
668.07	56226.98
668.26	56265.89
668.45	56280.23
668.64	55932.07
668.84	56837.28
669.03	56360.10
669.22	56243.37
669.41	56204.45
669.60	55676.08
669.80	56073.38
669.99	56071.34
670.18	55674.03
670.37	55993.51
670.57	56517.79
670.76	56169.64
670.95	55643.31
671.14	55585.97
671.33	55651.50
671.53	55747.76
671.72	56091.82
671.91	56020.14
672.10	55372.98
672.29	55680.17
672.48	55450.80
672.68	55997.61
672.87	55717.04
673.06	56030.38
673.25	55499.95
673.44	55721.13
673.64	55628.98
673.83	56081.58
674.02	55698.61
674.21	55547.06
674.40	55571.63
674.59	55604.40
674.79	55485.62
674.98	55768.24
675.17	55704.75
675.36	55399.60
675.55	55671.98
675.74	55375.03
675.94	55276.72
676.13	55942.31
676.32	55542.96
676.51	55903.40
676.70	55526.58
676.89	55250.10
677.08	55577.78
677.28	55313.59
677.47	55633.07
677.66	55483.57
677.85	55489.71
678.04	55442.61
678.23	55731.37
678.42	55645.36
678.62	55477.43
678.81	55628.98
679.00	55592.11
679.19	55506.10
679.38	55465.14
679.57	54977.72
679.76	55215.29
679.96	55579.82
680.15	55499.95
680.34	55465.14
680.53	55260.34
680.72	55403.70
680.91	55485.62
681.10	55145.65
681.29	55463.09
681.48	55270.58
681.68	54951.10
681.87	54871.23
682.06	55473.33
682.25	54596.80
682.44	54779.07
682.63	55174.33
682.82	54842.56
683.01	54789.31
683.20	54535.36
683.39	55270.58
683.59	55039.16
683.78	55084.22
683.97	54764.73
684.16	55106.74
684.35	54887.61
684.54	55047.35
684.73	54760.64
684.92	54613.18
685.11	54824.12
685.30	54568.13
685.49	54955.19
685.69	54748.35
685.88	54826.17
686.07	54668.48
686.26	54787.26
686.45	54617.28
686.64	54981.82
686.83	54779.07
687.02	54703.29
687.21	54940.86
687.40	54734.01
687.59	54637.76
687.78	54660.29
687.97	55022.78
688.16	54641.85
688.35	54641.85
688.54	54738.11
688.74	54734.01
688.93	54533.31
689.12	54176.97
689.31	54205.64
689.50	54346.95
689.69	54047.94
689.88	54420.67
690.07	54379.71
690.26	54367.43
690.45	54594.75
690.64	54058.18
690.83	54326.47
691.02	53851.34
691.21	54572.22
691.40	54326.47
691.59	54385.86
691.78	53755.08
691.97	54590.66
692.16	54351.04
692.35	54637.76
692.54	54031.56
692.73	54394.05
692.92	54463.68
693.11	53959.88
693.30	54471.87
693.49	54494.40
693.68	54312.13
693.87	54052.04
694.06	54035.66
694.25	53943.50
694.44	54031.56
694.63	54238.40
694.82	54314.18
695.01	53826.76
695.20	53886.15
695.39	53865.67
695.58	54252.74
695.77	54090.95
695.96	54195.40
696.15	54103.24
696.34	53497.04
696.53	54031.56
696.72	54056.14
696.91	53966.02
697.10	53517.52
697.29	53386.45
697.48	53753.04
697.67	53650.64
697.86	53624.01
698.05	53601.49
698.24	54381.76
698.43	53462.22
698.62	54115.53
698.81	53257.43
699.00	54222.02
699.19	53306.58
699.38	53263.57
699.57	53464.27
699.76	54031.56
699.95	53179.60
700.14	53083.35
700.32	53325.01
700.51	53179.60
700.70	53630.16
700.89	53454.03
701.08	53163.22
701.27	53191.89
701.46	53886.15
701.65	53015.77
701.84	53478.61
702.03	53355.73
702.22	53234.90
702.41	53636.30
702.60	53621.97
702.79	53331.15
702.98	53243.09
703.17	52991.19
703.35	53064.92
703.54	53187.80
703.73	53374.16
703.92	52911.32
704.11	53230.80
704.30	52929.75
704.49	53218.52
704.68	53050.58
704.87	53195.99
705.06	52767.96
705.25	52843.74
705.43	52991.19
705.62	53241.04
705.81	53105.88
706.00	52987.10
706.19	53050.58
706.38	52688.09
706.57	52718.81
706.76	52856.03
706.95	52710.62
707.14	52710.62
707.32	53097.69
707.51	52477.15
707.70	52450.53
707.89	52591.84
708.08	52534.49
708.27	52739.29
708.46	52602.08
708.65	52630.75
708.84	52557.02
709.02	52796.63
709.21	53026.01
709.40	52806.87
709.59	53269.72
709.78	52384.99
709.97	53206.23
710.16	52720.86
710.34	52198.63
710.53	52489.44
710.72	52270.31
710.91	52589.79
711.10	52354.27
711.29	52485.34
711.48	52258.02
711.66	52098.28
711.85	52090.09
712.04	51811.56
712.23	52063.46
712.42	52618.46
712.61	52274.40
712.80	52251.87
712.98	52393.18
713.17	51936.49
713.36	52227.30
713.55	52311.27
713.74	51924.20
713.93	52507.87
714.11	52034.79
714.30	51825.90
714.49	51547.37
714.68	52118.76
714.87	52352.23
715.06	52020.45
715.24	51797.23
715.43	51989.73
715.62	51809.51
715.81	51369.20
716.00	51963.11
716.18	51375.34
716.37	51506.41
716.56	51827.95
716.75	52016.36
716.94	51807.47
717.12	51369.20
717.31	51799.27
717.50	51264.75
717.69	51307.76
717.88	51842.28
718.06	51580.14
718.25	51571.95
718.44	51186.93
718.63	51524.85
718.82	51272.95
719.00	50975.99
719.19	51143.92
719.38	50660.60
719.57	50912.50
719.76	50726.14
719.94	51049.72
720.13	50517.25
720.32	50918.65
720.51	50932.98
720.69	50648.32
720.88	50707.71
721.07	50812.15
721.26	50584.83
721.44	50545.92
721.63	50353.41
721.82	50558.20
722.01	50361.60
722.20	50568.44
722.38	50052.36
722.57	49779.98
722.76	50427.13
722.95	50146.56
723.13	49728.78
723.32	50148.61
723.51	49657.10
723.70	49655.05
723.88	50107.65
724.07	49925.38
724.26	49806.60
724.44	49403.15
724.63	50025.73
724.82	49986.82
725.01	49501.45
725.19	49845.51
725.38	49450.25
725.57	49192.21
725.76	49980.68
725.94	49186.07
726.13	48891.16
726.32	49530.12
726.51	49349.90
726.69	49446.16
726.88	49773.83
727.07	49626.38
727.25	49247.50
727.44	49835.27
727.63	48784.66
727.82	49351.95
728.00	49480.97
728.19	49009.94
728.38	49075.48
728.56	48862.49
728.75	49372.43
728.94	49126.67
729.12	49603.85
729.31	49894.66
729.50	49192.21
729.69	49202.45
729.87	48948.50
730.06	49102.10
730.25	48479.52
730.43	49118.48
730.62	49095.95
730.81	49362.19
730.99	49005.84
731.18	48968.98
731.37	49558.80
731.55	49179.92
731.74	49382.67
731.93	49032.47
732.11	49102.10
732.30	49372.43
732.49	49124.63
732.67	49046.80
732.86	48712.98
733.05	48667.93
733.23	48928.02
733.42	48880.92
733.61	49052.95
733.79	48811.29
733.98	49450.25
734.17	49046.80
734.35	48629.02
734.54	48686.36
734.73	49046.80
734.91	48940.31
735.10	49120.53
735.29	48741.66
735.47	48229.66
735.66	48334.11
735.84	48665.88
736.03	48000.29
736.22	48917.78
736.40	48456.99
736.59	48559.39
736.78	48868.63
736.96	48620.83
737.15	48338.21
737.33	48313.63
737.52	48477.47
737.71	48465.18
737.89	48149.79
738.08	47807.78
738.27	48244.00
738.45	48481.56
738.64	48291.10
738.82	48317.73
739.01	48071.97
739.20	47994.15
739.38	48327.97
739.57	47985.96
739.75	48239.90
739.94	47797.54
740.13	47678.76
740.31	47666.47
740.50	47904.04
740.68	48031.01
740.87	47930.66
741.06	47988.00
741.24	47666.47
741.43	47433.00
741.61	47955.24
741.80	47461.68
741.99	47488.30
742.17	47428.91
742.36	47476.01
742.54	47353.13
742.73	47373.61
742.91	47760.68
743.10	47818.02
743.29	47488.30
743.47	48022.82
743.66	47535.40
743.84	47433.00
744.03	47435.05
744.21	47519.02
744.40	47674.66
744.59	46845.24
744.77	47064.37
744.96	47166.77
745.14	47224.11
745.33	47222.06
745.51	46957.88
745.70	47205.68
745.88	46699.83
746.07	46888.24
746.26	46626.10
746.44	46828.85
746.63	46572.86
746.81	46818.61
747.00	46503.23
747.18	46413.12
747.37	46724.41
747.55	46636.34
747.74	46716.22
747.92	46091.58
748.11	46402.88
748.29	46275.90
748.48	46472.51
748.66	46085.44
748.85	46146.88
749.03	46374.20
749.22	46318.91
749.41	46028.10
749.59	46167.36
749.78	45968.71
749.96	45679.94
750.15	46144.83
750.33	45802.82
750.52	45804.87
750.70	46003.52
750.89	45653.32
751.07	45481.29
751.26	45817.16
751.44	45649.22
751.63	45751.62
751.81	45575.50
752.00	45376.84
752.18	45651.27
752.37	45665.61
752.55	45542.73
752.74	45438.28
752.92	45096.27
753.10	45110.61
753.29	45405.52
753.47	45315.40
753.66	45004.11
753.84	45368.65
754.03	44866.90
754.21	45198.67
754.40	44887.38
754.58	44754.26
754.77	44680.53
754.95	44692.82
755.14	44553.56
755.32	44967.25
755.51	44481.88
755.69	44567.90
755.88	44672.34
756.06	44524.89
756.24	44842.32
756.43	44475.74
756.61	44596.57
756.80	44432.73
756.98	43742.56
757.17	44412.25
757.35	44160.35
757.54	44381.53
757.72	44934.48
757.90	44076.38
758.09	44344.67
758.27	44348.76
758.46	43988.32
758.64	43963.75
758.83	43918.69
759.01	43427.18
759.19	43738.47
759.38	43779.43
759.56	44031.33
759.75	43722.08
759.93	43636.07
760.12	43300.20
760.30	43699.56
760.48	43621.73
760.67	43486.57
760.85	43281.77
761.04	43623.78
761.22	43619.69
761.40	43310.44
761.59	43470.18
761.77	43029.87
761.96	43394.41
762.14	43193.71
762.32	42956.14
762.51	43107.69
762.69	43081.07
762.88	42859.89
763.06	43162.99
763.24	42909.04
763.43	42739.06
763.61	43003.25
763.80	43142.51
763.98	42390.91
764.16	42880.37
764.35	42472.82
764.53	41772.42
764.72	42474.87
764.90	42605.94
765.08	42145.15
765.27	42249.60
765.45	41932.16
765.63	41792.90
765.82	41979.26
766.00	41825.67
766.18	41801.09
766.37	42491.26
766.55	41768.32
766.74	41788.80
766.92	41678.21
767.10	41616.77
767.29	41354.63
767.47	41551.24
767.65	41602.44
767.84	41278.86
768.02	41661.83
768.20	41133.45
768.39	41624.96
768.57	41459.08
768.75	41000.33
768.94	41237.90
769.12	41094.54
769.30	40730.00
769.49	41121.16
769.67	40650.13
769.85	40793.49
770.04	40826.26
770.22	40615.32
770.40	40998.29
770.59	40701.33
770.77	40936.85
770.95	41094.54
771.14	40367.51
771.32	40861.07
771.50	40555.93
771.69	40344.98
771.87	40535.45
772.05	40525.21
772.24	39908.77
772.42	40584.60
772.60	40158.62
772.78	40101.28
772.97	40129.95
773.15	40334.74
773.33	40310.17
773.52	39849.38
773.70	40379.80
773.88	40416.66
774.07	39890.34
774.25	39855.52
774.43	40037.79
774.61	40234.39
774.80	40205.72
774.98	40002.97
775.16	39919.01
775.34	39910.82
775.53	40060.32
775.71	40328.60
775.89	40177.05
776.08	40191.39
776.26	40095.13
776.44	40263.07
776.62	39943.58
776.81	40156.57
776.99	40379.80
777.17	40039.84
777.35	39994.78
777.54	40615.32
777.72	40101.28
777.90	39980.45
778.08	40332.70
778.27	40074.65
778.45	40705.43
778.63	40498.58
778.81	39726.50
779.00	40469.91
779.18	40637.84
779.36	40580.50
779.54	40107.42
779.73	40465.81
779.91	40531.35
780.09	40721.81
780.27	40863.12
780.46	40506.77
780.64	40736.15
780.82	40502.68
781.00	40383.90
781.19	40775.06
781.37	40547.73
781.55	41059.73
781.73	40996.24
781.91	40695.19
782.10	40297.88
782.28	40764.82
782.46	40783.25
782.64	40955.28
782.82	40582.55
783.01	40617.36
783.19	40893.84
783.37	41121.16
783.55	40627.60
783.74	41145.74
783.92	40621.46
784.10	41082.25
784.28	40908.18
784.46	40463.77
784.64	40320.41
784.83	40603.03
785.01	40920.46
785.19	40824.21
785.37	40713.62
785.55	40596.88
785.74	40500.63
785.92	40768.91
786.10	40928.66
786.28	40998.29
786.46	40363.42
786.64	40015.26
786.83	40670.61
787.01	40734.10
787.19	40306.07
787.37	40557.97
787.55	40977.81
787.74	39976.35
787.92	39949.73
788.10	40107.42
788.28	39894.43
788.46	40043.93
788.64	39773.60
788.82	39988.64
789.01	40111.52
789.19	39888.29
789.37	40031.65
789.55	40142.24
789.73	39712.16
789.91	39456.17
790.09	39687.59
790.28	39757.22
790.46	39130.54
790.64	39828.90
790.82	39486.89
791.00	39331.24
791.18	39183.79
791.36	39314.86
791.55	38884.78
791.73	39316.90
791.91	38774.19
792.09	39259.56
792.27	39022.00
792.45	39200.17
792.63	39116.20
792.81	38880.69
793.00	38423.99
793.18	38682.03
793.36	38845.87
793.54	38487.48
793.72	38374.84
793.90	38583.73
794.08	37774.78
794.26	38421.94
794.44	37805.50
794.62	37739.97
794.81	38362.55
794.99	37780.93
795.17	38196.67
795.35	37828.03
795.53	37748.16
795.71	37678.53
795.89	37295.56
796.07	37496.26
796.25	37443.01
796.43	37279.18
796.61	37418.44
796.80	37057.99
796.98	37342.66
797.16	36799.95
797.34	37311.94
797.52	36507.09
797.70	37123.53
797.88	37010.89
798.06	36599.25
798.24	36623.83
798.42	36756.94
798.60	36632.02
798.78	36550.10
798.96	36474.32
799.14	36021.72
799.32	36679.12
799.51	35929.56
799.69	36439.51
799.87	36636.11
800.05	35861.98
800.23	35882.46
800.41	35810.78
800.59	35837.41
800.77	35689.95
800.95	35362.28
801.13	35644.90
801.31	35370.47
801.49	35255.78
801.67	35401.19
801.85	35296.74
802.03	35012.07
802.21	34977.26
802.39	34635.25
802.57	35055.08
802.75	34973.16
802.93	35151.34
803.11	34672.11
803.29	34422.26
803.47	34838.00
803.65	34280.95
803.83	34266.61
804.01	34393.59
804.19	34186.74
804.37	34276.85
804.55	34309.62
804.73	34186.74
804.91	34086.39
805.09	34153.97
805.27	33738.24
805.45	34237.94
805.63	34356.72
805.81	33981.95
805.99	33852.92
806.17	33701.37
806.35	33725.95
806.53	33594.88
806.71	33506.82
806.89	33449.47
807.07	33617.41
807.25	33551.87
807.43	33060.36
807.61	33144.33
807.79	33052.17
807.97	32810.51
808.15	33084.94
808.33	33119.75
808.51	32767.50
808.69	33242.63
808.87	32761.36
809.05	32677.39
809.23	32620.05
809.41	32343.57
809.59	32507.41
809.77	32693.77
809.95	32271.89
810.13	32269.84
810.31	32224.79
810.49	32429.59
810.67	32189.97
810.84	32380.43
811.02	32095.77
811.20	31976.98
811.38	31970.84
811.56	31667.74
811.74	31673.88
811.92	31319.59
812.10	31776.28
812.28	31856.15
812.46	31559.20
812.64	31774.24
812.82	31628.83
813.00	31548.96
813.18	31559.20
813.36	31282.72
813.53	31266.34
813.71	31127.08
813.89	31295.01
814.07	31249.96
814.25	31231.52
814.43	30783.02
814.61	31090.21
814.79	31053.35
814.97	30948.90
815.15	31028.77
815.33	30735.92
815.50	30275.12
815.68	30907.94
815.86	31032.87
816.04	30606.89
816.22	30658.09
816.40	30899.75
816.58	30430.77
816.76	30271.03
816.94	30264.88
817.11	30660.14
817.29	30117.43
817.47	30340.66
817.65	30148.15
817.83	30309.94
818.01	29877.82
818.19	30076.47
818.37	29699.64
818.54	29664.83
818.72	29627.96
818.90	29775.42
819.08	29974.07
819.26	29812.28
819.44	29799.99
819.62	29582.91
819.80	29517.37
819.97	29728.31
820.15	29554.24
820.33	29496.89
820.51	29718.07
820.69	29380.16
820.87	29541.95
821.05	29843.00
821.22	29630.01
821.40	29181.51
821.58	29496.89
821.76	29056.58
821.94	29148.74
822.12	29152.84
822.29	29218.37
822.47	28784.20
822.65	29349.44
822.83	29011.53
823.01	28700.23
823.19	28493.39
823.36	28763.72
823.54	28948.04
823.72	28616.27
823.90	28499.53
824.08	28145.23
824.25	28401.23
824.43	28354.13
824.61	28403.28
824.79	28724.81
824.97	28290.64
825.15	28534.35
825.32	28108.37
825.50	28110.42
825.68	28010.07
825.86	28735.05
826.04	28382.80
826.21	28345.94
826.39	27965.01
826.57	27909.72
826.75	28261.97
826.93	27770.46
827.10	27702.87
827.28	28100.18
827.46	28382.80
827.64	27897.43
827.81	28040.79
827.99	28083.80
828.17	27508.32
828.35	27868.76
828.53	27883.09
828.70	27651.67
828.88	27596.38
829.06	27659.87
829.24	27653.72
829.41	27678.30
829.59	27471.45
829.77	27332.19
829.95	27203.17
830.12	27283.04
830.30	27219.55
830.48	27563.61
830.66	26971.75
830.84	27436.64
831.01	27375.20
831.19	27162.21
831.37	26938.98
831.55	27221.60
831.72	27096.67
831.90	26959.46
832.08	27194.98
832.25	27145.83
832.43	26693.22
832.61	27213.41
832.79	26820.20
832.96	26912.36
833.14	27297.38
833.32	27041.38
833.50	26855.01
833.67	26981.99
833.85	26832.49
834.03	26705.51
834.20	26963.56
834.38	26769.00
834.56	26807.91
834.74	26439.28
834.91	26410.60
835.09	26625.64
835.27	26324.59
835.44	26377.84
835.62	25988.72
835.80	26269.30
835.98	26349.17
836.15	26250.86
836.33	26177.14
836.51	26125.94
836.68	25818.74
836.86	26119.79
837.04	26023.54
837.21	26154.61
837.39	25966.20
837.57	26181.23
837.75	26054.26
837.92	25683.58
838.10	25857.65
838.28	25386.62
838.45	25685.62
838.63	25814.65
838.81	25732.73
838.98	25706.10
839.16	25589.37
839.34	25413.24
839.51	25757.30
839.69	25321.09
839.87	25439.87
840.04	25503.35
840.22	25826.93
840.40	25489.02
840.57	25108.10
840.75	25421.44
840.93	25056.90
841.10	25398.91
841.28	25665.14
841.46	25157.25
841.63	25206.40
841.81	25224.83
841.98	25384.57
842.16	25302.65
842.34	25257.60
842.51	25071.23
842.69	25054.85
842.87	25089.67
843.04	25009.79
843.22	24997.51
843.40	24884.87
843.57	24843.91
843.75	25206.40
843.92	25097.86
844.10	24755.85
844.28	24821.38
844.45	24903.30
844.63	24686.22
844.81	24465.03
844.98	24721.03
845.16	24585.86
845.33	24635.02
845.51	24706.70
845.69	24639.11
845.86	24444.56
846.04	24520.33
846.21	24702.60
846.39	24530.57
846.57	24184.46
846.74	24444.56
846.92	24315.53
847.09	24245.90
847.27	24172.18
847.45	23959.19
847.62	24280.72
847.80	24239.76
847.97	24049.30
848.15	24026.77
848.32	23899.80
848.50	24190.61
848.68	24100.50
848.85	24116.88
849.03	23787.16
849.20	23918.23
849.38	23832.21
849.56	23887.51
849.73	23764.63
849.91	23762.58
850.08	23903.89
850.26	23572.12
850.43	23695.00
850.61	23586.46
850.78	23125.66
850.96	23686.81
851.14	23608.98
851.31	23721.62
851.49	23465.63
851.66	23994.00
851.84	23479.96
852.01	23692.95
852.19	23355.04
852.36	23215.77
852.54	23467.67
852.71	23305.88
852.89	23297.69
853.07	23305.88
853.24	23256.73
853.42	23033.50
853.59	22892.19
853.77	23090.85
853.94	23320.22
854.12	23260.83
854.29	22818.47
854.47	23150.24
854.64	23062.18
854.82	22832.80
854.99	22984.35
855.17	22822.56
855.34	22832.80
855.52	22625.96
855.69	22996.64
855.87	22531.75
856.04	22202.03
856.22	22777.51
856.39	22496.94
856.57	22521.51
856.74	22496.94
856.92	22779.56
857.09	22320.81
857.27	22382.25
857.44	22922.91
857.62	22521.51
857.79	22609.58
857.97	22541.99
858.14	22351.53
858.32	22326.96
858.49	22146.73
858.67	22118.06
858.84	21972.66
859.02	22107.82
859.19	22165.17
859.37	22064.82
859.54	22116.01
859.72	22228.65
859.89	21909.17
860.06	22339.24
860.24	21776.05
860.41	22068.91
860.59	21837.49
860.76	21870.26
860.94	21436.09
861.11	21943.99
861.29	21690.04
861.46	21749.43
861.64	21767.86
861.81	21792.44
861.98	21755.57
862.16	21431.99
862.33	21731.00
862.51	21464.76
862.68	21452.47
862.86	21253.82
863.03	21307.07
863.21	21315.26
863.38	21384.89
863.55	21300.92
863.73	21302.97
863.90	21382.84
864.08	21395.13
864.25	21266.11
864.43	21200.57
864.60	21284.54
864.77	21081.79
864.95	21219.00
865.12	21032.64
865.30	21231.29
865.47	21055.17
865.64	20852.42
865.82	20750.02
865.99	21096.13
866.17	20850.37
866.34	20760.26
866.51	20694.72
866.69	21186.24
866.86	20883.14
867.04	20569.80
867.21	20590.28
867.38	20414.15
867.56	20602.57
867.73	20401.86
867.91	20563.65
868.08	20594.37
868.25	20371.15
868.43	20610.76
868.60	20453.06
868.78	20397.77
868.95	20518.60
869.12	20270.79
869.30	20305.61
869.47	20567.75
869.64	20131.53
869.82	20082.38
869.99	19988.18
870.16	20383.43
870.34	20176.59
870.51	19949.26
870.69	19656.40
870.86	19783.38
871.03	19941.07
871.21	19658.45
871.38	19920.59
871.55	19807.95
871.73	19728.08
871.90	19844.82
872.07	19664.60
872.25	19392.22
872.42	19441.37
872.59	19416.79
872.77	19756.75
872.94	19293.91
873.11	19119.84
873.29	19371.74
873.46	19298.01
873.63	19201.76
873.81	19115.74
873.98	18917.09
874.15	19224.28
874.33	18945.76
874.50	18863.84
874.67	19138.27
874.85	19054.30
875.02	18738.91
875.19	19005.15
875.37	19015.39
875.54	18949.85
875.71	18724.58
875.88	18401.00
876.06	18685.67
876.23	18458.34
876.40	18429.67
876.58	18425.57
876.75	18695.91
876.92	18624.23
877.10	18583.27
877.27	18325.22
877.44	18337.51
877.61	18280.17
877.79	18145.00
877.96	18065.13
878.13	18294.50
878.31	18206.44
878.48	18108.14
878.65	17995.50
878.82	18181.87
879.00	18136.81
879.17	17940.21
879.34	18042.60
879.51	17684.21
879.69	17889.01
879.86	17772.27
880.03	17739.51
880.21	17579.76
880.38	17702.64
880.55	17497.84
880.72	17622.77
880.90	17889.01
881.07	17528.56
881.24	17729.27
881.41	17782.51
881.59	17483.51
881.76	17243.90
881.93	17321.72
882.10	17377.01
882.28	17116.92
882.45	17307.38
882.62	17319.67
882.79	17395.45
882.96	17018.62
883.14	17489.65
883.31	17493.75
883.48	17307.38
883.65	17065.72
883.83	17297.14
884.00	17182.46
884.17	17352.44
884.34	17315.58
884.51	17139.45
884.69	17020.67
884.86	17182.46
885.03	16953.09
885.20	16801.54
885.38	16776.96
885.55	17016.57
885.72	16850.69
885.89	16895.74
886.06	17030.91
886.24	16873.21
886.41	16682.75
886.58	16826.11
886.75	17112.83
886.92	16426.76
887.10	16746.24
887.27	16541.44
887.44	16656.13
887.61	16746.24
887.78	16668.42
887.95	16629.51
888.13	16420.61
888.30	16473.86
888.47	16342.79
888.64	16408.33
888.81	16355.08
888.99	16467.72
889.16	16316.17
889.33	16301.83
889.50	16162.57
889.67	16269.06
889.84	16066.31
890.01	16049.93
890.19	16146.19
890.36	16078.60
890.53	16211.72
890.70	15941.39
890.87	16033.55
891.04	15912.72
891.22	15619.86
891.39	15888.14
891.56	15640.34
891.73	15777.55
891.90	15791.89
892.07	15724.30
892.24	15777.55
892.42	15636.24
892.59	15806.22
892.76	15757.07
892.93	15521.56
893.10	15755.02
893.27	15626.00
893.44	15474.45
893.61	15652.63
893.79	15599.38
893.96	15509.27
894.13	15294.23
894.30	15482.64
894.47	15478.55
894.64	15550.23
894.81	15445.78
894.98	15273.75
895.15	15302.42
895.33	15265.56
895.50	15361.81
895.67	15562.51
895.84	15408.92
896.01	15308.57
896.18	15087.39
896.35	15572.75
896.52	15118.11
896.69	15453.97
896.86	15367.96
897.04	15257.37
897.21	15320.85
897.38	15322.90
897.55	15355.67
897.72	15357.72
897.89	15265.56
898.06	15374.10
898.23	15247.13
898.40	15130.39
898.57	15296.28
898.74	15279.89
898.91	14956.32
899.08	15195.93
899.26	15122.20
899.43	15251.22
899.60	15085.34
899.77	15060.76
899.94	15044.38
900.11	15048.47
900.28	14913.31
900.45	14933.79
900.62	14726.94
900.79	15195.93
900.96	15001.37
901.13	14999.32
901.30	14880.54
901.47	14946.08
901.64	15132.44
901.81	15183.64
901.98	15011.61
902.15	15363.86
902.32	15013.66
902.49	15114.01
902.66	15195.93
902.83	14976.80
903.01	14915.36
903.18	15027.99
903.35	15052.57
903.52	14978.84
903.69	15212.31
903.86	15109.91
904.03	14970.65
904.20	15386.39
904.37	15228.70
904.54	14921.50
904.71	14923.55
904.88	15204.12
905.05	14796.57
905.22	15222.55
905.39	14778.14
905.56	14927.64
905.73	15019.80
905.90	14849.82
906.07	14901.02
906.24	14903.07
906.41	14683.94
906.58	15025.95
906.75	14956.32
906.92	14731.04
907.09	14905.12
907.26	14829.34
907.43	14772.00
907.60	14737.18
907.77	15175.45
907.93	14667.55
908.10	14845.73
908.27	14937.88
908.44	14931.74
908.61	14634.78
908.78	14630.69
908.95	14886.68
909.12	14739.23
909.29	14765.85
909.46	14901.02
909.63	14731.04
909.80	14792.48
909.97	14722.85
910.14	14880.54
910.31	14837.53
910.48	14495.52
910.65	14640.93
910.82	14806.81
910.99	14634.78
911.16	14581.54
911.33	14440.23
911.50	14477.09
911.66	14493.47
911.83	14657.31
912.00	14372.64
912.17	14493.47
912.34	14098.22
912.51	14364.45
912.68	14178.09
912.85	14376.74
913.02	14186.28
913.19	14366.50
913.36	14370.60
913.53	14458.66
913.70	14245.67
913.86	14425.89
914.03	14051.11
914.20	14290.73
914.37	14284.58
914.54	14087.98
914.71	14087.98
914.88	14087.98
915.05	13868.84
915.22	13973.29
915.39	13815.60
915.55	14098.22
915.72	13668.14
915.89	13987.63
916.06	13825.84
916.23	13815.60
916.40	13786.93
916.57	13659.95
916.74	13496.11
916.91	13668.14
917.07	13604.66
917.24	13399.86
917.41	13479.73
917.58	13504.31
917.75	13623.09
917.92	13500.21
918.09	13629.23
918.26	13365.04
918.42	13238.07
918.59	13485.87
918.76	13213.49
918.93	13240.12
919.10	13199.16
919.27	13104.95
919.44	12971.83
919.60	12910.40
919.77	13125.43
919.94	13004.60
920.11	12973.88
920.28	12922.68
920.45	12859.20
920.61	12785.47
920.78	12588.86
920.95	12781.37
921.12	12668.73
921.29	12691.26
921.46	12689.21
921.62	12494.66
921.79	12646.21
921.96	12408.64
922.13	12566.34
922.30	12439.36
922.47	12418.88
922.63	12289.86
922.80	12285.76
922.97	12296.00
923.14	12183.37
923.31	12261.19
923.47	12103.50
923.64	12222.28
923.81	12009.29
923.98	12164.93
924.15	12025.67
924.32	12035.91
924.48	11915.08
924.65	11837.26
924.82	11978.57
924.99	11732.81
925.15	11671.37
925.32	11831.12
925.49	11460.43
925.66	11857.74
925.83	11523.92
925.99	11446.10
926.16	11568.98
926.33	11423.57
926.50	11276.12
926.67	11442.00
926.83	11370.32
927.00	11245.40
927.17	11081.56
927.34	11200.34
927.50	11210.58
927.67	11177.81
927.84	10831.71
928.01	11071.32
928.17	11056.98
928.34	10958.68
928.51	10891.10
928.68	10762.08
928.84	10782.56
929.01	10553.18
929.18	10651.49
929.35	10532.70
929.51	10604.38
929.68	10461.02
929.85	10346.34
930.02	10399.59
930.18	10354.53
930.35	10375.01
930.52	10409.83
930.69	10289.00
930.85	10338.15
931.02	10209.12
931.19	10155.88
931.36	10030.95
931.52	10143.59
931.69	10217.32
931.86	10006.38
932.02	9860.97
932.19	9973.61
932.36	9867.11
932.53	9994.09
932.69	9672.56
932.86	9899.88
933.03	9729.90
933.19	9580.40
933.36	9482.10
933.53	9627.50
933.70	9543.53
933.86	9391.98
934.03	9416.56
934.20	9355.12
934.36	9224.05
934.53	9152.37
934.70	9064.31
934.86	9047.93
935.03	9033.59
935.20	8765.31
935.36	9019.25
935.53	8851.32
935.70	8632.19
935.86	8865.66
936.03	8681.34
936.20	8695.68
936.36	8499.07
936.53	8513.41
936.70	8368.00
936.86	8458.11
937.03	8304.51
937.20	8083.33
937.36	8083.33
937.53	7841.67
937.70	7868.30
937.86	7810.95
938.03	7647.12
938.20	7835.53
938.36	7544.72
938.53	7622.54
938.70	7296.91
938.86	7532.43
939.03	7225.23
939.20	7167.89
939.36	7196.56
939.53	7135.12
939.70	7135.12
939.86	6868.89
940.03	6895.51
940.19	6791.06
940.36	6645.66
940.53	6690.71
940.69	6500.25
940.86	6508.44
941.03	6549.40
941.19	6201.25
941.36	6199.20
941.52	6309.79
941.69	6176.67
941.86	6104.99
942.02	6201.25
942.19	5951.40
942.35	6125.47
942.52	5969.83
942.69	5914.53
942.85	5810.09
943.02	5756.84
943.18	5810.09
943.35	5791.66
943.52	5762.98
943.68	5699.50
943.85	5689.26
944.01	5476.27
944.18	5550.00
944.35	5502.89
944.51	5498.80
944.68	5414.83
944.84	5345.20
945.01	5480.36
945.17	5457.84
945.34	5435.31
945.51	5474.22
945.67	5263.28
945.84	5441.45
946.00	5238.70
946.17	5351.34
946.33	5230.51
946.50	5371.82
946.67	5201.84
946.83	5261.23
947.00	5435.31
947.16	5138.35
947.33	5250.99
947.49	5236.66
947.66	5179.31
947.82	5326.77
947.99	5019.57
948.16	5312.43
948.32	5240.75
948.49	5351.34
948.65	5187.50
948.82	5189.55
948.98	5140.40
949.15	5248.94
949.31	5316.53
949.48	5218.22
949.64	5113.78
949.81	5289.90
949.97	5162.93
950.14	5349.29
950.30	5207.98
950.47	5296.05
950.63	5175.22
950.80	5388.21
950.96	5263.28
951.13	5423.02
951.30	5420.97
951.46	5218.22
951.63	5435.31
951.79	5343.15
951.96	5306.29
952.12	5359.53
952.29	5308.34
952.45	5298.10
952.62	5324.72
952.78	5349.29
952.94	5279.66
953.11	5285.81
953.27	5238.70
953.44	5353.39
953.60	5369.77
953.77	5457.84
953.93	5332.91
954.10	5435.31
954.26	5412.78
954.43	5347.25
954.59	5474.22
954.76	5472.17
954.92	5361.58
955.09	5339.05
955.25	5365.68
955.42	5332.91
955.58	5509.04
955.75	5468.08
955.91	5412.78
956.07	5558.19
956.24	5484.46
956.40	5418.93
956.57	5586.86
956.73	5494.70
956.90	5320.62
957.06	5351.34
957.23	5443.50
957.39	5431.21
957.56	5414.83
957.72	5375.92
957.88	5326.77
958.05	5466.03
958.21	5449.64
958.38	5369.77
958.54	5355.44
958.71	5543.85
958.87	5404.59
959.03	5427.12
959.20	5468.08
959.36	5400.49
959.53	5431.21
959.69	5414.83
959.85	5437.36
960.02	5341.10
960.18	5482.41
960.35	5506.99
960.51	5691.31
960.68	5261.23
960.84	5427.12
961.00	5353.39
961.17	5451.69
961.33	5492.65
961.50	5449.64
961.66	5515.18
961.82	5414.83
961.99	5326.77
962.15	5406.64
962.31	5453.74
962.48	5498.80
962.64	5484.46
962.81	5449.64
962.97	5248.94
963.13	5318.57
963.30	5394.35
963.46	5271.47
963.62	5386.16
963.79	5343.15
963.95	5296.05
964.12	5398.45
964.28	5394.35
964.44	5306.29
964.61	5404.59
964.77	5457.84
964.93	5560.24
965.10	5322.67
965.26	5369.77
965.42	5246.90
965.59	5126.07
965.75	5418.93
965.92	5394.35
966.08	5207.98
966.24	5271.47
966.41	5326.77
966.57	5377.97
966.73	5281.71
966.90	5281.71
967.06	5291.95
967.22	5167.03
967.39	5167.03
967.55	5068.72
967.71	5390.25
967.88	5279.66
968.04	5228.46
968.20	5154.74
968.37	5124.02
968.53	5240.75
968.69	5156.79
968.85	5261.23
969.02	5140.40
969.18	5160.88
969.34	5083.06
969.51	5124.02
969.67	5197.74
969.83	5095.35
970.00	5146.55
970.16	5134.26
970.32	5187.50
970.48	5277.62
970.65	5060.53
970.81	5050.29
970.97	4964.28
971.14	5009.33
971.30	5134.26
971.46	5076.91
971.63	5044.15
971.79	5101.49
971.95	4900.79
972.11	4863.93
972.28	5005.24
972.44	5021.62
972.60	5005.24
972.76	4927.41
972.93	4992.95
973.09	4870.07
973.25	4882.36
973.42	4827.06
973.58	4992.95
973.74	4892.60
973.90	5025.72
974.07	4929.46
974.23	4941.75
974.39	5011.38
974.55	4874.17
974.72	4825.01
974.88	4673.46
975.04	4935.60
975.20	4845.49
975.37	4919.22
975.53	4747.19
975.69	4833.21
975.85	4745.14
976.01	4724.66
976.18	4773.82
976.34	4779.96
976.50	4751.29
976.66	4886.45
976.83	4728.76
976.99	4663.22
977.15	4743.10
977.31	4605.88
977.47	4759.48
977.64	4728.76
977.80	4657.08
977.96	4679.61
978.12	4616.12
978.29	4710.33
978.45	4472.76
978.61	4489.15
978.77	4630.46
978.93	4603.83
979.10	4626.36
979.26	4564.92
979.42	4515.77
979.58	4437.95
979.74	4493.24
979.91	4433.85
980.07	4497.34
980.23	4523.96
980.39	4593.59
980.55	4476.86
980.71	4454.33
980.88	4462.52
981.04	4411.32
981.20	4313.02
981.36	4401.08
981.52	4329.41
981.68	4292.54
981.85	4489.15
982.01	4378.56
982.17	4454.33
982.33	4292.54
982.49	4335.55
982.65	4339.65
982.82	4392.89
982.98	4290.49
983.14	4143.04
983.30	4270.01
983.46	4272.06
983.62	4370.37
983.79	4151.23
983.95	4364.22
984.11	4143.04
984.27	4313.02
984.43	4267.97
984.59	4202.43
984.75	4270.01
984.91	4128.70
985.08	4247.49
985.24	4165.57
985.40	4132.80
985.56	4190.14
985.72	4284.35
985.88	4175.81
986.04	4034.50
986.20	4163.52
986.37	4190.14
986.53	3993.54
986.69	4114.37
986.85	4057.03
987.01	4202.43
987.17	4108.23
987.33	4145.09
987.49	3958.72
987.65	4089.79
987.82	4026.31
987.98	3837.89
988.14	4020.16
988.30	4014.02
988.46	3919.81
988.62	3966.92
988.78	3993.54
988.94	4005.83
989.10	3899.33
989.26	3868.61
989.42	3872.71
989.59	3739.59
989.75	3870.66
989.91	3868.61
990.07	3649.48
990.23	3786.69
990.39	3913.67
990.55	3954.63
990.71	3829.70
990.87	3835.85
991.03	3817.41
991.19	3801.03
991.35	3790.79
991.51	3850.18
991.67	3909.57
991.83	3835.85
992.00	3829.70
992.16	3805.13
992.32	3792.84
992.48	3645.38
992.64	3698.63
992.80	3764.17
992.96	3655.62
993.12	3821.51
993.28	3719.11
993.44	3688.39
993.60	3684.30
993.76	3641.29
993.92	3674.06
994.08	3725.26
994.24	3721.16
994.40	3534.79
994.56	3735.50
994.72	3620.81
994.88	3581.90
995.04	3579.85
995.20	3557.32
995.36	3559.37
995.52	3514.31
995.68	3571.66
995.84	3534.79
996.00	3624.90
996.16	3532.75
996.32	3504.07
996.48	3450.83
996.64	3551.18
996.80	3528.65
996.96	3463.12
997.12	3444.68
997.28	3411.92
997.44	3383.24
997.60	3426.25
997.76	3452.88
997.92	3463.12
998.08	3362.76
998.24	3379.15
998.40	3340.24
998.56	3416.01
998.72	3299.28
998.88	3362.76
999.04	3358.67
999.20	3346.38
999.36	3289.04
999.52	3461.07
999.68	3276.75
999.84	3411.92
1000.00	3340.24
1000.16	3381.20
1000.32	3239.89
1000.48	3368.91
1000.64	3260.37
1000.80	3215.31
1000.95	3104.72
1001.11	3289.04
1001.27	3221.45
1001.43	3270.61
1001.59	3172.30
1001.75	3170.26
1001.91	3227.60
1002.07	3215.31
1002.23	3114.96
1002.39	3174.35
1002.55	3147.73
1002.71	3205.07
1002.87	3020.75
1003.03	3084.24
1003.19	3063.76
1003.34	3178.45
1003.50	3188.69
1003.66	3153.87
1003.82	3155.92
1003.98	3088.34
1004.14	3131.34
1004.30	3022.80
1004.46	3039.19
1004.62	3133.39
1004.78	2998.23
1004.94	3129.30
1005.09	3098.58
1005.25	3123.15
1005.41	2985.94
1005.57	2955.22
1005.73	2998.23
1005.89	2926.55
1006.05	3000.27
1006.21	2961.36
1006.37	2899.92
1006.52	2955.22
1006.68	2951.12
1006.84	3147.73
1007.00	2842.58
1007.16	2973.65
1007.32	2930.64
1007.48	2887.64
1007.64	2924.50
1007.79	2867.16
1007.95	2867.16
1008.11	2953.17
1008.27	2936.79
1008.43	2852.82
1008.59	2846.68
1008.75	2895.83
1008.91	2969.55
1009.06	2830.29
1009.22	2967.51
1009.38	2977.75
1009.54	2924.50
1009.70	2701.27
1009.86	2779.09
1010.01	2795.48
1010.17	2750.42
1010.33	2813.91
1010.49	2828.24
1010.65	2873.30
1010.81	2658.26
1010.96	2807.77
1011.12	2734.04
1011.28	2699.22
1011.44	2838.48
1011.60	2699.22
1011.76	2719.70
1011.91	2805.72
1012.07	2715.61
1012.23	2574.30
1012.39	2654.17
1012.55	2731.99
1012.71	2691.03
1012.86	2654.17
1013.02	2762.71
1013.18	2637.78
1013.34	2598.87
1013.50	2727.89
1013.65	2674.65
1013.81	2512.86
1013.97	2613.21
1014.13	2633.69
1014.29	2586.58
1014.44	2551.77
1014.60	2494.43
1014.76	2594.78
1014.92	2588.63
1015.07	2613.21
1015.23	2576.34
1015.39	2541.53
1015.55	2527.19
1015.71	2609.11
1015.86	2588.63
1016.02	2469.85
1016.18	2455.51
1016.34	2482.14
1016.49	2465.75
1016.65	2580.44
1016.81	2553.82
1016.97	2516.95
1017.12	2539.48
1017.28	2416.60
1017.44	2473.95
1017.60	2471.90
1017.75	2463.71
1017.91	2535.39
1018.07	2478.04
1018.23	2437.08
1018.38	2502.62
1018.54	2422.75
1018.70	2443.23
1018.86	2412.51
1019.01	2389.98
1019.17	2394.08
1019.33	2455.51
1019.49	2457.56
1019.64	2443.23
1019.80	2443.23
1019.96	2412.51
1020.12	2439.13
1020.27	2287.58
1020.43	2338.78
1020.59	2371.55
1020.74	2396.12
1020.90	2428.89
1021.06	2344.92
1021.22	2387.93
1021.37	2351.07
1021.53	2353.12
1021.69	2396.12
1021.84	2224.09
1022.00	2301.92
1022.16	2306.01
1022.31	2295.77
1022.47	2428.89
1022.63	2369.50
1022.79	2263.01
1022.94	2228.19
1023.10	2445.27
1023.26	2242.53
1023.41	2283.49
1023.57	2207.71
1023.73	2316.25
1023.88	2314.20
1024.04	2150.37
1024.20	2277.34
1024.35	2201.57
1024.51	2312.16
1024.67	2306.01
1024.82	2273.25
1024.98	2113.50
1025.14	2254.81
1025.29	2252.77
1025.45	2340.83
1025.61	2187.23
1025.76	2207.71
1025.92	2236.38
1026.08	2248.67
1026.23	2158.56
1026.39	2248.67
1026.55	2191.33
1026.70	2187.23
1026.86	2240.48
1027.02	2224.09
1027.17	2133.98
1027.33	2107.36
1027.48	2136.03
1027.64	2133.98
1027.80	2189.28
1027.95	2101.22
1028.11	1974.24
1028.27	2168.80
1028.42	2152.42
1028.58	2115.55
1028.73	2027.49
1028.89	2119.65
1029.05	2154.46
1029.20	2193.37
>>>>>End Processed Spectral Data<<<<<
