SpectraSuite Data File
++++++++++++++++++++++++++++++++++++
Date: Fri Jun 02 14:47:56 CEST 2017
User: INFO_000
Dark Spectrum Present: No
Reference Spectrum Present: No
Number of Sampled Component Spectra: 1
Spectrometers: USB4H00879
Integration Time (usec): 80000 (USB4H00879)
Spectra Averaged: 1 (USB4H00879)
Boxcar Smoothing: 0 (USB4H00879)
Correct for Electrical Dark: No (USB4H00879)
Strobe/Lamp Enabled: No (USB4H00879)
Correct for Detector Non-linearity: No (USB4H00879)
Correct for Stray Light: No (USB4H00879)
Number of Pixels in Processed Spectrum: 3648
>>>>>Begin Processed Spectral Data<<<<<
345.13	1322.99
345.34	1322.99
345.56	1322.99
345.78	1279.98
345.99	1335.28
346.21	1683.43
346.42	1703.91
346.64	1652.71
346.86	1800.16
347.07	1722.34
347.29	1615.85
347.50	1626.09
347.72	1628.14
347.94	1744.87
348.15	1564.65
348.37	1615.85
348.59	1708.01
348.80	1734.63
349.02	1748.97
349.23	1902.56
349.45	1843.17
349.67	1847.27
349.88	1828.84
350.10	2019.30
350.31	1777.64
350.53	1826.79
350.75	1927.14
350.96	1787.88
351.18	1892.32
351.39	1896.42
351.61	1810.40
351.82	1929.19
352.04	1896.42
352.26	1888.23
352.47	1898.47
352.69	1933.28
352.90	1791.97
353.12	1853.41
353.34	1912.80
353.55	1996.77
353.77	1910.75
353.98	1796.07
354.20	1853.41
354.41	1826.79
354.63	1933.28
354.85	2011.11
355.06	1937.38
355.28	1783.78
355.49	1933.28
355.71	1849.32
355.92	1873.89
356.14	1957.86
356.35	1824.74
356.57	1861.60
356.79	1978.34
357.00	1943.52
357.22	1972.19
357.43	1910.75
357.65	1939.43
357.86	1787.88
358.08	1865.70
358.29	1972.19
358.51	2000.87
358.72	1914.85
358.94	1869.80
359.16	1935.33
359.37	1945.57
359.59	1841.12
359.80	2007.01
360.02	1900.52
360.23	2002.91
360.45	2019.30
360.66	1918.95
360.88	1859.56
361.09	1910.75
361.31	2015.20
361.52	1902.56
361.74	2066.40
361.95	2097.12
362.17	1916.90
362.38	2058.21
362.60	2033.63
362.81	1996.77
363.03	1949.67
363.24	1961.95
363.46	2047.97
363.67	2088.93
363.89	1953.76
364.10	2047.97
364.32	1890.28
364.53	2101.22
364.75	1941.47
364.96	2023.39
365.18	2011.11
365.39	1968.10
365.61	1974.24
365.82	2125.79
366.04	1947.62
366.25	2009.06
366.47	2068.45
366.68	1986.53
366.90	1880.04
367.11	2064.35
367.33	1998.82
367.54	2056.16
367.76	2002.91
367.97	2017.25
368.19	2099.17
368.40	2074.59
368.62	1964.00
368.83	1984.48
369.05	2131.94
369.26	1925.09
369.48	1959.91
369.69	2035.68
369.91	2056.16
370.12	2023.39
370.33	2117.60
370.55	2029.54
370.76	1974.24
370.98	2093.02
371.19	2060.26
371.41	2027.49
371.62	2080.74
371.84	2011.11
372.05	2123.74
372.27	2070.50
372.48	2099.17
372.69	2099.17
372.91	2103.26
373.12	2174.94
373.34	2045.92
373.55	2103.26
373.77	2158.56
373.98	2101.22
374.20	2176.99
374.41	2238.43
374.62	2123.74
374.84	2093.02
375.05	2123.74
375.27	2148.32
375.48	2121.70
375.70	2166.75
375.91	2244.57
376.12	2238.43
376.34	2131.94
376.55	2181.09
376.77	2158.56
376.98	2172.89
377.19	2099.17
377.41	2133.98
377.62	2183.13
377.84	2269.15
378.05	2328.54
378.27	2250.72
378.48	2215.90
378.69	2344.92
378.91	2353.12
379.12	2215.90
379.34	2254.81
379.55	2246.62
379.76	2332.64
379.98	2222.05
380.19	2310.11
380.41	2244.57
380.62	2293.72
380.83	2326.49
381.05	2181.09
381.26	2459.61
381.47	2150.37
381.69	2263.01
381.90	2416.60
382.12	2236.38
382.33	2246.62
382.54	2252.77
382.76	2289.63
382.97	2256.86
383.19	2183.13
383.40	2371.55
383.61	2295.77
383.83	2215.90
384.04	2377.69
384.25	2310.11
384.47	2320.35
384.68	2340.83
384.89	2330.59
385.11	2324.44
385.32	2308.06
385.54	2322.40
385.75	2287.58
385.96	2473.95
386.18	2441.18
386.39	2416.60
386.60	2340.83
386.82	2420.70
387.03	2394.08
387.24	2486.23
387.46	2555.86
387.67	2492.38
387.88	2428.89
388.10	2533.34
388.31	2469.85
388.52	2543.58
388.74	2551.77
388.95	2486.23
389.16	2537.43
389.38	2494.43
389.59	2559.96
389.80	2574.30
390.02	2523.10
390.23	2605.02
390.44	2568.15
390.66	2525.15
390.87	2508.76
391.08	2582.49
391.30	2641.88
391.51	2609.11
391.72	2658.26
391.94	2596.82
392.15	2549.72
392.36	2609.11
392.58	2707.41
392.79	2619.35
393.00	2727.89
393.22	2777.05
393.43	2764.76
393.64	2785.24
393.85	2818.00
394.07	2588.63
394.28	2707.41
394.49	2781.14
394.71	2811.86
394.92	2738.13
395.13	2693.08
395.35	2711.51
395.56	2695.13
395.77	2721.75
395.98	2838.48
396.20	2789.33
396.41	2793.43
396.62	2875.35
396.84	2830.29
397.05	2779.09
397.26	2877.40
397.47	2996.18
397.69	2807.77
397.90	2949.08
398.11	2918.36
398.32	2932.69
398.54	2875.35
398.75	2897.88
398.96	2953.17
399.18	3039.19
399.39	2942.93
399.60	2971.60
399.81	2875.35
400.03	2877.40
400.24	3280.85
400.45	2895.83
400.66	3012.56
400.88	3071.95
401.09	3205.07
401.30	2963.41
401.51	3170.26
401.73	3014.61
401.94	2994.13
402.15	3086.29
402.36	3043.28
402.58	3188.69
402.79	3188.69
403.00	3112.91
403.21	3274.70
403.43	3190.74
403.64	3207.12
403.85	3030.99
404.06	3223.50
404.27	3217.36
404.49	3133.39
404.70	3184.59
404.91	3248.08
405.12	3237.84
405.34	3203.02
405.55	3485.64
405.76	3231.69
405.97	3286.99
406.19	3387.34
406.40	3266.51
406.61	3397.58
406.82	3420.11
407.03	3291.09
407.25	3295.18
407.46	3383.24
407.67	3487.69
407.88	3420.11
408.09	3321.81
408.31	3405.77
408.52	3278.80
408.73	3274.70
408.94	3307.47
409.15	3426.25
409.37	3512.27
409.58	3522.51
409.79	3549.13
410.00	3534.79
410.21	3452.88
410.43	3422.16
410.64	3497.93
410.85	3518.41
411.06	3688.39
411.27	3444.68
411.48	3678.15
411.70	3583.95
411.91	3565.51
412.12	3700.68
412.33	3542.99
412.54	3655.62
412.76	3694.54
412.97	3600.33
413.18	3567.56
413.39	3629.00
413.60	3655.62
413.81	3768.26
414.03	3641.29
414.24	3610.57
414.45	3825.61
414.66	3542.99
414.87	3770.31
415.08	3598.28
415.30	3739.59
415.51	3710.92
415.72	3819.46
415.93	3698.63
416.14	3788.74
416.35	3772.36
416.56	3772.36
416.78	3868.61
416.99	3725.26
417.20	3803.08
417.41	3749.83
417.62	3925.96
417.83	4065.22
418.04	3936.20
418.26	3975.11
418.47	3778.50
418.68	3981.25
418.89	3854.28
419.10	3954.63
419.31	3964.87
419.52	4100.03
419.73	3985.35
419.95	4093.89
420.16	3882.95
420.37	4081.60
420.58	4097.99
420.79	3772.36
421.00	4065.22
421.21	3940.29
421.42	3901.38
421.63	4134.85
421.85	4054.98
422.06	4073.41
422.27	4204.48
422.48	4239.30
422.69	4100.03
422.90	4157.38
423.11	4294.59
423.32	4247.49
423.53	4356.03
423.75	4345.79
423.96	4380.61
424.17	4313.02
424.38	4485.05
424.59	4419.52
424.80	4573.11
425.01	4358.08
425.22	4292.54
425.43	4392.89
425.64	4507.58
425.85	4474.81
426.06	4507.58
426.28	4440.00
426.49	4390.84
426.70	4454.33
426.91	4429.76
427.12	4499.39
427.33	4509.63
427.54	4665.27
427.75	4550.59
427.96	4749.24
428.17	4841.40
428.38	4665.27
428.59	4720.57
428.80	4796.34
429.01	4790.20
429.23	4761.53
429.44	5027.76
429.65	4796.34
429.86	5017.52
430.07	4681.66
430.28	4876.21
430.49	4927.41
430.70	5146.55
430.91	5087.15
431.12	4935.60
431.33	5138.35
431.54	5007.28
431.75	4964.28
431.96	5038.00
432.17	5054.39
432.38	4935.60
432.59	5253.04
432.80	5316.53
433.01	5265.33
433.22	5255.09
433.43	5156.79
433.64	5384.11
433.85	5156.79
434.06	5523.37
434.27	5298.10
434.49	5382.06
434.70	5711.78
434.91	5392.30
435.12	5476.27
435.33	5560.24
435.54	5357.49
435.75	5318.57
435.96	5355.44
436.17	5343.15
436.38	5547.95
436.59	5543.85
436.80	5523.37
437.01	5814.18
437.22	5666.73
437.43	5742.50
437.64	5445.55
437.85	5742.50
438.06	5744.55
438.27	5762.98
438.48	5779.37
438.69	5767.08
438.90	5781.42
439.11	5668.78
439.32	5732.26
439.53	5836.71
439.74	5849.00
439.95	6059.94
440.16	5892.01
440.37	5787.56
440.57	5738.41
440.78	5926.82
440.99	6041.51
441.20	6121.38
441.41	5840.81
441.62	6072.23
441.83	5900.20
442.04	6078.37
442.25	6014.88
442.46	6150.05
442.67	6158.24
442.88	6551.45
443.09	6145.95
443.30	5996.45
443.51	6121.38
443.72	6453.15
443.93	6158.24
444.14	6520.73
444.35	6234.02
444.56	6244.26
444.77	6258.59
444.98	6424.48
445.19	6453.15
445.40	6430.62
445.61	6494.11
445.81	6514.59
446.02	6582.17
446.23	6272.93
446.44	6291.36
446.65	6518.68
446.86	6688.67
447.07	6647.71
447.28	6784.92
447.49	6662.04
447.70	6504.35
447.91	6508.44
448.12	6746.01
448.33	6719.39
448.54	6819.74
448.74	6549.40
448.95	6657.95
449.16	6629.27
449.37	7006.10
449.58	6655.90
449.79	7053.20
450.00	6750.10
450.21	6946.71
450.42	7022.48
450.63	7092.12
450.84	7096.21
451.05	6969.24
451.25	6899.61
451.46	6872.98
451.67	7139.22
451.88	7135.12
452.09	7135.12
452.30	7139.22
452.51	7169.94
452.72	7237.52
452.93	7624.59
453.13	7184.27
453.34	7176.08
453.55	7133.08
453.76	7143.32
453.97	7479.18
454.18	7229.33
454.39	7470.99
454.60	7462.80
454.81	7364.50
455.01	7518.09
455.22	7319.44
455.43	7577.48
455.64	7726.99
455.85	7784.33
456.06	7784.33
456.27	7591.82
456.48	7548.81
456.68	7761.80
456.89	7806.86
457.10	8042.37
457.31	7876.49
457.52	7864.20
457.73	7817.10
457.94	8028.04
458.14	7749.51
458.35	8298.37
458.56	8073.09
458.77	7954.31
458.98	8232.83
459.19	8148.87
459.39	8286.08
459.60	8413.06
459.81	8128.39
460.02	8458.11
460.23	8359.81
460.44	8537.98
460.65	8472.45
460.85	8464.25
461.06	8707.96
461.27	8355.71
461.48	8847.22
461.69	8759.16
461.89	8357.76
462.10	8818.55
462.31	8642.43
462.52	8779.64
462.73	8669.05
462.94	9076.60
463.14	8894.33
463.35	8759.16
463.56	9242.48
463.77	9351.03
463.98	9021.30
464.18	9187.19
464.39	9277.30
464.60	9467.76
464.81	9387.89
465.02	9437.04
465.23	9613.17
465.43	9625.45
465.64	9750.38
465.85	9670.51
466.06	9664.36
466.27	9924.46
466.47	9891.69
466.68	10088.29
466.89	9938.79
467.10	10067.81
467.30	9881.45
467.51	10037.09
467.72	10278.76
467.93	9860.97
468.14	10248.04
468.34	10338.15
468.55	10477.41
468.76	10456.93
468.97	10293.09
469.17	10415.97
469.38	10833.75
469.59	10884.95
469.80	10614.62
470.01	10501.98
470.21	10788.70
470.42	11024.22
470.63	10927.96
470.84	10913.63
471.04	11161.43
471.25	11163.48
471.46	11257.68
471.67	11671.37
471.87	11450.19
472.08	11634.51
472.29	11730.76
472.50	11298.64
472.70	11698.00
472.91	11571.02
473.12	11794.25
473.33	11784.01
473.53	12085.06
473.74	11906.89
473.95	12164.93
474.16	12365.64
474.36	12234.57
474.57	12412.74
474.78	12623.68
474.99	12558.14
475.19	12429.12
475.40	12926.78
475.61	12883.77
475.81	13061.94
476.02	13168.44
476.23	13092.66
476.44	13391.67
476.64	13610.80
476.85	13557.55
477.06	13455.15
477.27	13553.46
477.47	13969.19
477.68	13725.49
477.89	14024.49
478.09	14176.04
478.30	13817.65
478.51	14100.26
478.71	14264.10
478.92	14470.95
479.13	14384.93
479.34	14829.34
479.54	14556.96
479.75	14821.15
479.96	14675.74
480.16	14737.18
480.37	14831.39
480.58	15187.74
480.78	15327.00
480.99	15468.31
481.20	15601.43
481.41	15593.23
481.61	15570.71
481.82	15658.77
482.03	15456.02
482.23	15898.38
482.44	15988.49
482.65	16189.19
482.85	16209.67
483.06	16201.48
483.27	15992.59
483.47	16195.34
483.68	16570.12
483.89	16547.59
484.09	16459.52
484.30	16731.90
484.51	17258.23
484.71	16809.73
484.92	16879.36
485.13	17043.20
485.33	17104.64
485.54	17020.67
485.75	17180.41
485.95	17571.57
486.16	17487.61
486.37	17891.06
486.57	17467.13
486.78	17768.18
486.98	17839.86
487.19	17903.34
487.40	18110.19
487.60	17964.78
487.81	18251.50
488.02	18433.77
488.22	18284.26
488.43	18607.84
488.64	18343.66
488.84	18943.71
489.05	18759.39
489.25	18345.70
489.46	18910.94
489.67	19009.25
489.87	19238.62
490.08	18986.72
490.29	19130.08
490.49	19234.52
490.70	19453.66
490.90	19513.05
491.11	19312.35
491.32	19517.14
491.52	19525.33
491.73	19795.67
491.94	19941.07
492.14	19658.45
492.35	20002.51
492.55	19830.48
492.76	20096.72
492.97	20135.63
493.17	20129.48
493.38	20190.92
493.58	20561.61
493.79	20317.90
494.00	20479.69
494.20	20666.05
494.41	20565.70
494.61	20944.58
494.82	21014.21
495.02	20858.56
495.23	20801.22
495.44	20965.06
495.64	21157.57
495.85	21307.07
496.05	21382.84
496.26	21186.24
496.47	21696.18
496.67	21108.41
496.88	21704.37
497.08	21417.66
497.29	21681.85
497.49	21595.83
497.70	22177.45
497.91	21657.27
498.11	22079.15
498.32	21931.70
498.52	22300.33
498.73	22496.94
498.93	22419.11
499.14	22341.29
499.34	22382.25
499.55	22548.14
499.76	22439.59
499.96	22685.35
500.17	22582.95
500.37	22718.12
500.58	22806.18
500.78	22902.43
500.99	22810.28
501.19	23021.22
501.40	23133.86
501.60	23172.77
501.81	23223.97
502.02	23455.39
502.22	22785.70
502.43	23340.70
502.63	23766.68
502.84	23582.36
503.04	23434.91
503.25	23613.08
503.45	23647.90
503.66	23807.64
503.86	23938.71
504.07	24088.21
504.27	24174.22
504.48	24143.50
504.68	24153.74
504.89	24209.04
505.09	24538.76
505.30	24512.14
505.50	24534.67
505.71	24741.51
505.91	24710.79
506.12	24741.51
506.32	24747.65
506.53	24761.99
506.73	24794.76
506.94	24940.16
507.14	24891.01
507.35	25052.80
507.55	25067.14
507.76	25310.85
507.96	25157.25
508.17	25194.11
508.37	25079.43
508.58	25474.68
508.78	25507.45
508.99	25529.98
509.19	25566.84
509.40	25450.11
509.60	25726.58
509.81	25740.92
510.01	25665.14
510.22	25935.48
510.42	25937.52
510.63	26252.91
510.83	26166.90
511.04	26230.38
511.24	26547.82
511.44	26320.49
511.65	26361.45
511.85	26386.03
512.06	26605.16
512.26	26576.49
512.47	26492.52
512.67	26558.06
512.88	26666.60
513.08	26662.51
513.29	27082.34
513.49	27117.15
513.69	26912.36
513.90	27143.78
514.10	27063.91
514.31	27266.66
514.51	27389.53
514.72	27068.00
514.92	26824.29
515.13	27489.88
515.33	27711.07
515.53	27534.94
515.74	27586.14
515.94	27917.91
516.15	27905.62
516.35	27598.43
516.56	27895.38
516.76	27711.07
516.96	28112.47
517.17	27981.40
517.37	28100.18
517.58	28327.50
517.78	28188.24
517.99	28255.82
518.19	28675.66
518.39	28530.25
518.60	28415.57
518.80	28608.08
519.01	28952.13
519.21	28612.17
519.41	28952.13
519.62	29050.44
519.82	29107.78
520.03	29283.91
520.23	29230.66
520.43	29058.63
520.64	29384.26
520.84	29484.61
521.05	29568.57
521.25	29562.43
521.45	29566.52
521.66	29791.80
521.86	29615.68
522.07	30103.09
522.27	29855.29
522.47	29840.95
522.68	30572.08
522.88	30017.08
523.08	30455.34
523.29	30115.38
523.49	30635.56
523.70	30551.60
523.90	30670.38
524.10	30629.42
524.31	31047.21
524.51	30694.96
524.71	31172.13
524.92	31008.29
525.12	31161.89
525.33	31198.76
525.53	31397.41
525.73	31788.57
525.94	31751.71
526.14	31292.96
526.34	31600.16
526.55	31639.07
526.75	31794.71
526.95	32212.50
527.16	31671.84
527.36	31929.88
527.56	32228.88
527.77	32355.86
527.97	32267.80
528.17	32118.29
528.38	32618.00
528.58	32392.72
528.78	32804.36
528.99	32740.88
529.19	33041.93
529.39	32810.51
529.60	32990.73
529.80	32876.04
530.00	33086.98
530.21	32894.47
530.41	33207.81
530.61	33334.79
530.82	33218.05
531.02	33545.73
531.22	33840.64
531.43	33371.65
531.63	33625.60
531.83	34080.25
532.04	33928.70
532.24	33947.13
532.44	34371.06
532.64	33996.28
532.85	34377.20
533.05	34311.67
533.25	34211.32
533.46	34297.33
533.66	34788.85
533.86	34244.09
534.07	35028.46
534.27	34608.62
534.47	34903.53
534.67	35100.14
534.88	35077.61
535.08	35274.21
535.28	35544.55
535.49	35749.34
535.69	35603.94
535.89	35409.38
536.09	35790.30
536.30	35808.73
536.50	35814.88
536.70	35939.80
536.91	35628.51
537.11	36136.41
537.31	36068.83
537.51	35958.24
537.72	36576.72
537.92	36371.92
538.12	36578.77
538.32	36091.35
538.53	36713.94
538.73	36230.62
538.93	36662.74
539.13	36867.53
539.34	36802.00
539.54	36500.95
539.74	36877.77
539.94	36828.62
540.15	36627.92
540.35	37291.46
540.55	36926.92
540.75	37045.71
540.96	37154.25
541.16	36910.54
541.36	37510.60
541.56	37068.23
541.77	37713.34
541.97	37232.07
542.17	37465.54
542.37	37629.38
542.58	37742.02
542.78	37369.29
542.98	37893.57
543.18	37799.36
543.38	38116.79
543.59	37975.48
543.79	37752.26
543.99	37995.96
544.19	38200.76
544.40	38043.07
544.60	38241.72
544.80	38530.48
545.00	37907.90
545.20	38413.75
545.41	38428.09
545.61	38456.76
545.81	38895.02
546.01	38581.68
546.21	38675.89
546.42	38292.92
546.62	38657.46
546.82	38546.87
547.02	38714.80
547.22	39327.14
547.43	38684.08
547.63	39151.02
547.83	39245.23
548.03	38782.38
548.23	38892.97
548.44	38917.55
548.64	39220.65
548.84	39376.30
549.04	39562.66
549.24	39667.11
549.45	39499.17
549.65	39355.82
549.85	39212.46
550.05	39888.29
550.25	39218.60
550.45	39822.75
550.66	39706.02
550.86	39626.15
551.06	39906.72
551.26	39892.38
551.46	39945.63
551.66	39871.90
551.87	39994.78
552.07	39818.66
552.27	40285.59
552.47	40041.88
552.67	40109.47
552.87	40410.52
553.07	40474.01
553.28	40465.81
553.48	40381.85
553.68	40598.93
553.88	40490.39
554.08	40539.54
554.28	40191.39
554.48	40271.26
554.69	40310.17
554.89	40811.92
555.09	40897.94
555.29	40132.00
555.49	40920.46
555.69	40994.19
555.89	40740.24
556.10	40961.42
556.30	41002.38
556.50	41072.01
556.70	40955.28
556.90	41252.23
557.10	41588.10
557.30	40736.15
557.50	41276.81
557.70	41538.95
557.91	41457.03
558.11	41735.56
558.31	42022.27
558.51	41538.95
558.71	41557.38
558.91	42055.04
559.11	41686.40
559.31	41948.54
559.51	41401.74
559.72	41950.59
559.92	41948.54
560.12	41622.92
560.32	41934.21
560.52	41655.68
560.72	42235.26
560.92	41981.31
561.12	42151.29
561.32	42270.08
561.52	41907.58
561.72	42636.66
561.93	42237.31
562.13	42444.15
562.33	41883.01
562.53	42687.86
562.73	42218.88
562.93	42780.02
563.13	42872.18
563.33	42536.31
563.53	42714.48
563.73	42550.65
563.93	42798.45
564.13	43169.13
564.33	43347.31
564.53	43099.50
564.74	43095.41
564.94	42792.31
565.14	43302.25
565.34	42831.22
565.54	43425.13
565.74	43146.61
565.94	43691.37
566.14	43771.24
566.34	43441.51
566.54	44004.70
566.74	43097.45
566.94	43881.83
567.14	43779.43
567.34	43679.08
567.54	43969.89
567.74	43674.98
567.94	43414.89
568.14	44092.77
568.34	44322.14
568.54	44168.54
568.74	44469.59
568.94	44100.96
569.14	44397.91
569.34	44207.45
569.54	44365.15
569.75	44287.32
569.95	44635.48
570.15	44674.39
570.35	44395.87
570.55	44821.84
570.75	44535.13
570.95	44688.73
571.15	44701.01
571.35	44973.39
571.55	45143.38
571.75	44975.44
571.95	45256.01
572.15	45067.60
572.35	45415.76
572.55	45073.74
572.75	45258.06
572.95	44948.82
573.15	45372.75
573.35	45350.22
573.55	45288.78
573.75	45667.66
573.95	45886.79
574.15	45798.73
574.35	45757.77
574.55	45770.05
574.75	45997.38
574.95	45739.33
575.15	45864.26
575.34	45974.85
575.54	46112.06
575.74	46259.52
575.94	46073.15
576.14	46226.75
576.34	46447.93
576.54	46576.95
576.74	46587.19
576.94	46556.47
577.14	46701.88
577.34	46941.49
577.54	46619.96
577.74	46402.88
577.94	47039.79
578.14	46755.13
578.34	46697.78
578.54	46523.71
578.74	46980.40
578.94	47760.68
579.14	46798.13
579.34	46931.25
579.54	47222.06
579.74	47772.97
579.94	47199.54
580.13	47416.62
580.33	47756.58
580.53	47490.35
580.73	47803.69
580.93	47390.00
581.13	47543.59
581.33	47719.72
581.53	47971.62
581.73	47834.41
581.93	48059.68
582.13	47678.76
582.33	48383.26
582.53	48416.03
582.73	48086.31
582.92	48332.06
583.12	48438.56
583.32	48186.66
583.52	48108.83
583.72	48784.66
583.92	48456.99
584.12	48477.47
584.32	48977.17
584.52	48510.24
584.72	48487.71
584.92	48657.69
585.11	49100.05
585.31	49020.18
585.51	48643.35
585.71	48706.84
585.91	49505.55
586.11	49083.67
586.31	49231.12
586.51	49239.31
586.71	49194.26
586.91	49911.05
587.10	49693.96
587.30	49376.53
587.50	49542.41
587.70	49474.83
587.90	49716.49
588.10	49816.84
588.30	49517.84
588.50	49976.58
588.69	49659.15
588.89	49655.05
589.09	49822.98
589.29	49820.94
589.49	50074.88
589.69	49321.23
589.89	49745.16
590.08	50003.20
590.28	49560.84
590.48	49667.34
590.68	49800.46
590.88	49786.12
591.08	50187.52
591.28	49917.19
591.47	50380.03
591.67	50529.53
591.87	50179.33
592.07	49829.13
592.27	50337.02
592.47	49952.01
592.67	50695.42
592.86	50183.43
593.06	50656.51
593.26	50574.59
593.46	50064.64
593.66	50423.04
593.86	50707.71
594.05	50433.28
594.25	50730.23
594.45	50283.78
594.65	50603.26
594.85	49935.62
595.05	50771.19
595.24	50773.24
595.44	50674.94
595.64	50894.07
595.84	50605.31
596.04	51008.76
596.23	51176.69
596.43	51162.36
596.63	50951.41
596.83	50541.82
597.03	51461.36
597.22	51440.88
597.42	51227.89
597.62	51240.18
597.82	51336.43
598.02	51344.62
598.21	51430.64
598.41	50935.03
598.61	51248.37
598.81	51348.72
599.01	51358.96
599.20	51502.32
599.40	51315.95
599.60	51418.35
599.80	51283.19
600.00	51195.12
600.19	51582.19
600.39	51469.55
600.59	51655.92
600.79	51328.24
600.98	51887.34
601.18	52045.03
601.38	52047.08
601.58	51838.18
601.78	52065.51
601.97	51555.57
602.17	52192.48
602.37	51657.96
602.57	51389.68
602.76	52075.75
602.96	51606.76
603.16	52327.65
603.36	52217.06
603.55	52090.09
603.75	51903.72
603.95	52014.31
604.15	52270.31
604.34	52118.76
604.54	52380.90
604.74	52102.37
604.94	52325.60
605.13	52100.32
605.33	52612.32
605.53	51952.87
605.73	52540.64
605.92	52532.45
606.12	52245.73
606.32	52489.44
606.52	52444.38
606.71	52901.08
606.91	52950.23
607.11	52376.80
607.30	52976.86
607.50	52602.08
607.70	53109.97
607.90	52692.19
608.09	52704.48
608.29	52890.84
608.49	52538.59
608.68	52794.59
608.88	52626.65
609.08	53095.64
609.28	52708.57
609.47	53150.93
609.67	53282.00
609.87	53052.63
610.06	53392.59
610.26	52911.32
610.46	53490.90
610.66	52655.32
610.85	53062.87
611.05	52677.85
611.25	53013.72
611.44	52929.75
611.64	53126.36
611.84	53138.65
612.03	52610.27
612.23	53099.73
612.43	53449.94
612.62	53224.66
612.82	53236.95
613.02	52995.29
613.21	53159.12
613.41	52796.63
613.61	53228.76
613.80	52772.06
614.00	53130.45
614.20	53275.86
614.39	53286.10
614.59	53589.20
614.79	53064.92
614.98	53181.65
615.18	53105.88
615.38	53282.00
615.57	53060.82
615.77	53447.89
615.97	53009.62
616.16	53421.26
616.36	53781.71
616.56	53699.79
616.75	53503.18
616.95	53464.27
617.15	53851.34
617.34	53525.71
617.54	53595.34
617.74	53789.90
617.93	53513.42
618.13	52827.35
618.32	53687.50
618.52	53224.66
618.72	53327.06
618.91	53591.25
619.11	53343.44
619.31	53044.44
619.50	53277.91
619.70	52896.98
619.90	52985.05
620.09	53521.62
620.29	53554.38
620.48	53818.57
620.68	53427.41
620.88	53081.30
621.07	53413.07
621.27	53845.19
621.46	53159.12
621.66	53560.53
621.86	53564.62
622.05	52796.63
622.25	53576.91
622.44	53374.16
622.64	53304.53
622.84	53794.00
623.03	53232.85
623.23	53621.97
623.42	53329.11
623.62	53279.96
623.82	53828.81
624.01	53857.48
624.21	53662.93
624.40	53750.99
624.60	53374.16
624.80	53413.07
624.99	53630.16
625.19	53019.86
625.38	53798.09
625.58	53529.81
625.77	53769.42
625.97	53626.06
626.17	53652.69
626.36	53761.23
626.56	53830.86
626.75	53570.77
626.95	53691.60
627.14	53621.97
627.34	54203.59
627.54	53544.14
627.73	54187.21
627.93	53910.73
628.12	53497.04
628.32	53853.39
628.51	53861.58
628.71	53732.56
628.90	53800.14
629.10	53503.18
629.30	53566.67
629.49	53802.19
629.69	53744.84
629.88	53994.70
630.08	54451.39
630.27	54074.57
630.47	53955.78
630.66	53564.62
630.86	54228.16
631.05	53875.91
631.25	54240.45
631.44	54463.68
631.64	53812.43
631.84	54248.64
632.03	54547.65
632.23	54066.38
632.42	54334.66
632.62	54308.04
632.81	54240.45
633.01	54457.54
633.20	54607.04
633.40	54164.68
633.59	53949.64
633.79	54154.44
633.98	54344.90
634.18	54715.58
634.37	54815.93
634.57	54129.86
634.76	55162.04
634.96	54467.78
635.15	54811.84
635.35	54512.83
635.54	54639.81
635.74	54795.45
635.93	54568.13
636.13	55209.14
636.32	55012.54
636.52	54678.72
636.71	54596.80
636.91	54777.02
637.10	54695.10
637.30	55385.27
637.49	54695.10
637.69	54715.58
637.88	55102.65
638.08	54514.88
638.27	55475.38
638.46	55508.14
638.66	54908.09
638.85	55645.36
639.05	55844.01
639.24	55604.40
639.44	55284.92
639.63	55080.12
639.83	55592.11
640.02	55592.11
640.22	55129.27
640.41	55758.00
640.61	54744.25
640.80	55227.57
640.99	55577.78
641.19	55674.03
641.38	55205.05
641.58	55248.05
641.77	55475.38
641.97	55319.73
642.16	55518.38
642.36	55565.49
642.55	56120.49
642.74	55385.27
642.94	56360.10
643.13	55917.74
643.33	56243.37
643.52	56167.59
643.72	56259.75
643.91	55803.05
644.10	55719.09
644.30	56319.14
644.49	55915.69
644.69	55692.46
644.88	56057.00
645.08	56026.28
645.27	56362.15
645.46	55710.89
645.66	56396.96
645.85	56278.18
646.05	56372.39
646.24	56485.03
646.43	55917.74
646.63	56532.13
646.82	56564.90
647.02	56200.36
647.21	56552.61
647.40	56276.13
647.60	56749.21
647.79	56855.71
647.99	56951.96
648.18	56407.20
648.37	57095.32
648.57	56868.00
648.76	56906.91
648.96	56833.18
649.15	56841.37
649.34	56681.63
649.54	56648.86
649.73	56882.33
649.92	57152.66
650.12	56951.96
650.31	56992.92
650.51	56636.58
650.70	56616.10
650.89	56333.48
651.09	57760.91
651.28	57160.86
651.47	56939.68
651.67	57263.25
651.86	57640.08
652.06	56636.58
652.25	57425.04
652.44	57068.70
652.64	56939.68
652.83	56933.53
653.02	56990.87
653.22	56980.63
653.41	57074.84
653.60	56947.87
653.80	57017.50
653.99	57652.37
654.18	56904.86
654.38	56960.15
654.57	57373.84
654.76	57336.98
654.96	57187.48
655.15	57468.05
655.34	57336.98
655.54	57193.62
655.73	57115.80
655.92	57205.91
656.12	57466.00
656.31	57021.59
656.50	57359.51
656.70	57259.16
656.89	56880.28
657.08	57257.11
657.28	57498.77
657.47	57078.94
657.66	57322.65
657.86	57257.11
658.05	57529.49
658.24	57500.82
658.43	57296.02
658.63	57046.17
658.82	57652.37
659.01	57652.37
659.21	57195.67
659.40	57345.17
659.59	56745.12
659.79	57488.53
659.98	57480.34
660.17	57541.78
660.36	57126.04
660.56	57265.30
660.75	57717.90
660.94	57742.48
661.14	57717.90
661.33	57148.57
661.52	56827.04
661.71	57848.97
661.91	57087.13
662.10	56906.91
662.29	57263.25
662.49	57080.98
662.68	57349.27
662.87	57506.96
663.06	57627.79
663.26	57318.55
663.45	57765.01
663.64	57336.98
663.83	57781.39
664.03	57648.27
664.22	57138.33
664.41	57427.09
664.60	57197.72
664.80	57240.73
664.99	56956.06
665.18	57406.61
665.37	57320.60
665.57	56876.19
665.76	56679.58
665.95	57023.64
666.14	56966.30
666.34	57343.12
666.53	57361.56
666.72	57316.50
666.91	56687.78
667.11	57009.31
667.30	57582.74
667.49	56937.63
667.68	57173.14
667.87	57210.01
668.07	56947.87
668.26	56874.14
668.45	57224.34
668.64	56706.21
668.84	57461.91
669.03	57189.53
669.22	56808.61
669.41	57269.40
669.60	56800.41
669.80	56446.11
669.99	56743.07
670.18	56681.63
670.37	56970.39
670.57	57128.09
670.76	56689.82
670.95	57300.12
671.14	56431.78
671.33	56628.38
671.53	57410.71
671.72	56542.37
671.91	56661.15
672.10	56145.06
672.29	56693.92
672.48	56575.14
672.68	57160.86
672.87	56407.20
673.06	56749.21
673.25	56726.69
673.44	56741.02
673.64	56632.48
673.83	56392.87
674.02	56417.44
674.21	56317.09
674.40	56558.75
674.59	56450.21
674.79	56431.78
674.98	56255.65
675.17	56337.57
675.36	56091.82
675.55	56448.16
675.74	56204.45
675.94	56321.19
676.13	56341.67
676.32	56202.41
676.51	56794.27
676.70	56358.05
676.89	55829.68
677.08	56372.39
677.28	55966.89
677.47	56153.26
677.66	56573.09
677.85	56251.56
678.04	56550.56
678.23	56384.68
678.42	56482.98
678.62	55901.36
678.81	56048.81
679.00	56057.00
679.19	56378.53
679.38	56130.73
679.57	55702.70
679.76	55917.74
679.96	55891.12
680.15	56005.80
680.34	55837.87
680.53	55841.96
680.72	55835.82
680.91	55846.06
681.10	55399.60
681.29	55534.77
681.48	55338.16
681.68	55403.70
681.87	55471.28
682.06	55430.32
682.25	55055.54
682.44	55413.94
682.63	55440.56
682.82	55682.22
683.01	55135.41
683.20	55317.68
683.39	55585.97
683.59	55399.60
683.78	55334.07
683.97	55352.50
684.16	55063.74
684.35	55084.22
684.54	55375.03
684.73	55037.11
684.92	54785.21
685.11	54678.72
685.30	54916.28
685.49	54891.71
685.69	55106.74
685.88	54867.13
686.07	54695.10
686.26	54912.19
686.45	55190.71
686.64	54719.68
686.83	54762.68
687.02	54838.46
687.21	54803.64
687.40	54492.35
687.59	54424.77
687.78	54506.69
687.97	54869.18
688.16	54639.81
688.35	54516.93
688.54	54441.15
688.74	54756.54
688.93	54189.25
689.12	54772.92
689.31	54623.42
689.50	54832.32
689.69	54068.42
689.88	53947.59
690.07	54650.05
690.26	54392.00
690.45	54559.94
690.64	53935.30
690.83	53974.22
691.02	53820.62
691.21	53894.35
691.40	54152.39
691.59	54125.77
691.78	53982.41
691.97	54437.06
692.16	53957.83
692.35	54076.61
692.54	54265.03
692.73	54099.14
692.92	53699.79
693.11	54039.75
693.30	53671.12
693.49	54138.05
693.68	53535.95
693.87	53902.54
694.06	53699.79
694.25	53490.90
694.44	53292.24
694.63	53976.26
694.82	54019.27
695.01	53501.14
695.20	53716.17
695.39	53535.95
695.58	53339.35
695.77	53417.17
695.96	52944.09
696.15	53443.79
696.34	53099.73
696.53	53200.08
696.72	53318.87
696.91	53028.05
697.10	53499.09
697.29	53292.24
697.48	53621.97
697.67	52878.55
697.86	52993.24
698.05	52827.35
698.24	53646.54
698.43	52952.28
698.62	53134.55
698.81	52716.76
699.00	53468.37
699.19	52784.35
699.38	52962.52
699.57	52434.14
699.76	53177.56
699.95	52638.94
700.14	52532.45
700.32	52712.67
700.51	52358.37
700.70	52536.54
700.89	52724.96
701.08	52978.90
701.27	52395.23
701.46	52841.69
701.65	52413.66
701.84	52585.69
702.03	52518.11
702.22	52518.11
702.41	52442.34
702.60	52180.20
702.79	52454.62
702.98	52094.18
703.17	52778.20
703.35	52258.02
703.54	51813.61
703.73	52673.76
703.92	52266.21
704.11	52348.13
704.30	51952.87
704.49	51905.77
704.68	52348.13
704.87	52569.31
705.06	51868.90
705.25	52327.65
705.43	52362.46
705.62	52792.54
705.81	51909.86
706.00	52270.31
706.19	52016.36
706.38	52010.21
706.57	51981.54
706.76	51457.26
706.95	51707.12
707.14	52006.12
707.32	51537.13
707.51	51401.97
707.70	51682.54
707.89	51852.52
708.08	51508.46
708.27	51893.48
708.46	51903.72
708.65	51641.58
708.84	51852.52
709.02	52032.74
709.21	52016.36
709.40	51911.91
709.59	51893.48
709.78	51561.71
709.97	51979.49
710.16	51471.60
710.34	51713.26
710.53	51623.15
710.72	51096.82
710.91	51766.51
711.10	51279.09
711.29	51653.87
711.48	51434.74
711.66	51524.85
711.85	50935.03
712.04	51483.89
712.23	51606.76
712.42	51356.91
712.61	51330.29
712.80	51358.96
712.98	51107.06
713.17	50795.77
713.36	51320.05
713.55	51084.53
713.74	51262.71
713.93	51055.86
714.11	51090.68
714.30	50861.30
714.49	50648.32
714.68	51154.16
714.87	51430.64
715.06	51483.89
715.24	50689.27
715.43	50922.74
715.62	50771.19
715.81	51172.60
716.00	51150.07
716.18	50656.51
716.37	50713.85
716.56	50726.14
716.75	51643.63
716.94	50773.24
717.12	50562.30
717.31	51066.10
717.50	50937.08
717.69	50726.14
717.88	50763.00
718.06	50537.72
718.25	50812.15
718.44	50584.83
718.63	50785.53
718.82	50373.89
719.00	50576.64
719.19	50654.46
719.38	50769.15
719.57	50312.45
719.76	49876.23
719.94	49923.33
720.13	49890.57
720.32	50150.66
720.51	50459.90
720.69	50289.92
720.88	50054.40
721.07	50095.36
721.26	49325.33
721.44	49980.68
721.63	49755.40
721.82	49716.49
722.01	49431.82
722.20	49671.43
722.38	49659.15
722.57	48971.03
722.76	49749.26
722.95	49595.66
723.13	49345.81
723.32	49382.67
723.51	49333.52
723.70	49134.87
723.88	49530.12
724.07	49020.18
724.26	49517.84
724.44	48684.31
724.63	49749.26
724.82	49134.87
725.01	49222.93
725.19	48909.59
725.38	49014.04
725.57	49108.24
725.76	49028.37
725.94	48833.81
726.13	48946.45
726.32	49003.80
726.51	48557.34
726.69	49255.70
726.88	49337.62
727.07	49138.96
727.25	48622.87
727.44	48682.27
727.63	48934.17
727.82	48919.83
728.00	49050.90
728.19	48690.46
728.38	49138.96
728.56	48612.63
728.75	49091.86
728.94	48903.45
729.12	48629.02
729.31	48784.66
729.50	48473.37
729.69	49036.56
729.87	48624.92
730.06	48317.73
730.25	48782.62
730.43	49216.78
730.62	49065.24
730.81	49067.28
730.99	48653.59
731.18	48899.35
731.37	48700.70
731.55	49427.73
731.74	49079.57
731.93	49272.08
732.11	49212.69
732.30	49001.75
732.49	48684.31
732.67	48727.32
732.86	48731.42
733.05	49186.07
733.23	48442.65
733.42	48991.51
733.61	48807.19
733.79	48815.38
733.98	48942.36
734.17	48522.52
734.35	48821.53
734.54	48796.95
734.73	49014.04
734.91	48538.91
735.10	48772.38
735.29	48837.91
735.47	48172.32
735.66	48575.77
735.84	48592.15
736.03	48530.72
736.22	48778.52
736.40	48004.39
736.59	48629.02
736.78	48774.42
736.96	48729.37
737.15	48684.31
737.33	48739.61
737.52	48135.46
737.71	48264.48
737.89	48526.62
738.08	48233.76
738.27	48491.80
738.45	48774.42
738.64	48280.86
738.82	48196.90
739.01	48420.13
739.20	48317.73
739.38	48397.60
739.57	48461.08
739.75	48219.42
739.94	48047.39
740.13	48311.58
740.31	48164.13
740.50	48041.25
740.68	48297.25
740.87	48244.00
741.06	48280.86
741.24	48174.37
741.43	47541.55
741.61	47985.96
741.80	47643.94
741.99	47772.97
742.17	47893.80
742.36	48166.18
742.54	47990.05
742.73	47459.63
742.91	48256.29
743.10	47519.02
743.29	48291.10
743.47	48047.39
743.66	48153.89
743.84	47992.10
744.03	48223.52
744.21	47887.65
744.40	48123.17
744.59	47222.06
744.77	47220.02
744.96	47736.10
745.14	47447.34
745.33	47414.57
745.51	47322.41
745.70	47430.96
745.88	47043.89
746.07	47344.94
746.26	46785.85
746.44	47406.38
746.63	46970.16
746.81	47406.38
747.00	46847.29
747.18	47209.78
747.37	47201.58
747.55	46906.68
747.74	47359.28
747.92	46990.64
748.11	46951.73
748.29	46839.09
748.48	46746.93
748.66	46808.37
748.85	47174.96
749.03	46419.26
749.22	47279.41
749.41	46986.55
749.59	46964.02
749.78	46722.36
749.96	46572.86
750.15	46687.54
750.33	46660.92
750.52	46699.83
750.70	46535.99
750.89	46492.99
751.07	46253.37
751.26	46527.80
751.44	46306.62
751.63	46204.22
751.81	46024.00
752.00	46335.29
752.18	46400.83
752.37	45868.36
752.55	46040.39
752.74	45628.74
752.92	45974.85
753.10	45780.29
753.29	46325.05
753.47	45790.53
753.66	45702.47
753.84	45929.80
754.03	45792.58
754.21	45845.83
754.40	45925.70
754.58	45708.61
754.77	45792.58
754.95	45776.20
755.14	45776.20
755.32	45745.48
755.51	45045.07
755.69	45413.71
755.88	45512.01
756.06	45583.69
756.24	45167.95
756.43	45337.93
756.61	45213.01
756.80	44987.73
756.98	44885.33
757.17	44981.59
757.35	45059.41
757.54	44928.34
757.72	45274.45
757.90	44852.56
758.09	44782.93
758.27	44832.08
758.46	44850.52
758.64	44827.99
758.83	44780.88
759.01	44848.47
759.19	44678.49
759.38	44905.81
759.56	44510.55
759.75	44643.67
759.93	44197.21
760.12	44131.68
760.30	44873.04
760.48	43949.41
760.67	44184.93
760.85	44490.07
761.04	44217.69
761.22	44469.59
761.40	44258.65
761.59	44135.77
761.77	43953.51
761.96	44084.58
762.14	43720.04
762.32	43863.39
762.51	43894.11
762.69	43761.00
762.88	44090.72
763.06	44010.85
763.24	43742.56
763.43	43693.41
763.61	43953.51
763.80	43746.66
763.98	43412.84
764.16	43574.63
764.35	42818.93
764.53	42706.29
764.72	43015.54
764.90	43453.80
765.08	42937.71
765.27	43482.47
765.45	42933.62
765.63	43042.16
765.82	42952.05
766.00	42890.61
766.18	43253.10
766.37	43326.83
766.55	42343.80
766.74	42761.59
766.92	42315.13
767.10	42333.56
767.29	42313.08
767.47	41915.78
767.65	42534.26
767.84	42343.80
768.02	42481.02
768.20	42085.76
768.39	42280.31
768.57	42069.37
768.75	42036.61
768.94	42255.74
769.12	41645.44
769.30	41928.06
769.49	41758.08
769.67	41692.55
769.85	41350.54
770.04	41743.75
770.22	41766.27
770.40	41706.88
770.59	41360.78
770.77	41588.10
770.95	41233.80
771.14	40967.57
771.32	41268.62
771.50	40824.21
771.69	41014.67
771.87	41383.30
772.05	41053.58
772.24	40809.87
772.42	41024.91
772.60	40713.62
772.78	40748.43
772.97	40717.71
773.15	41018.77
773.33	40945.04
773.52	40789.39
773.70	40596.88
773.88	41039.25
774.07	40433.05
774.25	40707.47
774.43	40924.56
774.61	40609.17
774.80	40783.25
774.98	40830.35
775.16	40402.33
775.34	40928.66
775.53	40379.80
775.71	41137.55
775.89	40687.00
776.08	40662.42
776.26	40842.64
776.44	40828.30
776.62	40582.55
776.81	40361.37
776.99	40662.42
777.17	40453.53
777.35	40514.97
777.54	40990.09
777.72	40711.57
777.90	40725.91
778.08	40281.50
778.27	40643.99
778.45	41063.82
778.63	40838.54
778.81	40398.23
779.00	41280.91
779.18	40969.61
779.36	41459.08
779.54	40709.52
779.73	40856.98
779.91	40945.04
780.09	40760.72
780.27	41217.42
780.46	41278.86
780.64	41266.57
780.82	40713.62
781.00	41067.92
781.19	41293.19
781.37	41342.35
781.55	40996.24
781.73	41262.47
781.91	41211.28
782.10	41166.22
782.28	40930.70
782.46	41481.61
782.64	41588.10
782.82	41207.18
783.01	41776.51
783.19	41409.93
783.37	41000.33
783.55	40727.95
783.74	41264.52
783.92	41026.96
784.10	41627.01
784.28	41174.41
784.46	40957.33
784.64	40723.86
784.83	41205.13
785.01	41381.26
785.19	41061.77
785.37	41192.84
785.55	40912.27
785.74	40494.49
785.92	40922.51
786.10	41407.88
786.28	40809.87
786.46	40783.25
786.64	40435.10
786.83	40721.81
787.01	40842.64
787.19	40803.73
787.37	40580.50
787.55	40670.61
787.74	40326.55
787.92	40578.45
788.10	39904.67
788.28	40478.10
788.46	40484.25
788.64	39957.92
788.82	40265.11
789.01	40263.07
789.19	40355.22
789.37	40060.32
789.55	40119.71
789.73	39663.01
789.91	39656.87
790.09	39781.79
790.28	39497.13
790.46	39110.06
790.64	39884.19
790.82	39609.76
791.00	39482.79
791.18	39341.48
791.36	39282.09
791.55	39437.73
791.73	39255.46
791.91	39101.87
792.09	38993.32
792.27	38987.18
792.45	38960.56
792.63	39200.17
792.81	38942.13
793.00	38768.05
793.18	38403.51
793.36	38727.09
793.54	38315.45
793.72	38442.42
793.90	38550.96
794.08	38188.47
794.26	38426.04
794.44	37828.03
794.62	37723.58
794.81	37893.57
794.99	37989.82
795.17	37797.31
795.35	37488.07
795.53	37778.88
795.71	37619.14
795.89	37217.74
796.07	37033.42
796.25	37406.15
796.43	37275.08
796.61	37305.80
796.80	36900.30
796.98	37086.67
797.16	36529.62
797.34	36726.22
797.52	36793.81
797.70	36984.27
797.88	36177.37
798.06	36527.57
798.24	36425.17
798.42	36484.56
798.60	36236.76
798.78	36009.43
798.96	36642.26
799.14	36015.58
799.32	36290.01
799.51	35935.71
799.69	35780.06
799.87	35861.98
800.05	35536.35
800.23	35716.58
800.41	35626.46
800.59	35677.66
800.77	35354.08
800.95	35046.89
801.13	35360.23
801.31	34723.31
801.49	35335.65
801.67	35026.41
801.85	34702.83
802.03	34889.20
802.21	35098.09
802.39	34227.70
802.57	34469.36
802.75	34477.55
802.93	34055.67
803.11	34405.88
803.29	34092.54
803.47	34127.35
803.65	33998.33
803.83	34006.52
804.01	34119.16
804.19	34041.34
804.37	33814.01
804.55	33809.92
804.73	33859.07
804.91	33695.23
805.09	33340.93
805.27	33611.26
805.45	33695.23
805.63	33609.22
805.81	33515.01
805.99	33193.48
806.17	33828.35
806.35	33054.22
806.53	32972.30
806.71	33385.99
806.89	33123.85
807.07	32857.61
807.25	33043.98
807.43	32665.10
807.61	32904.71
807.79	32538.13
807.97	32343.57
808.15	32585.23
808.33	32376.34
808.51	32599.57
808.69	32372.24
808.87	32130.58
809.05	32050.71
809.23	32398.87
809.41	31909.40
809.59	31938.07
809.77	32169.49
809.95	31778.33
810.13	31774.24
810.31	31690.27
810.49	31821.34
810.67	31782.43
810.84	31647.26
811.02	31637.02
811.20	31356.45
811.38	31383.07
811.56	31057.45
811.74	31206.95
811.92	30903.85
812.10	31211.04
812.28	31221.28
812.46	30905.90
812.64	31075.88
812.82	31045.16
813.00	31301.15
813.18	31338.02
813.36	31073.83
813.53	30629.42
813.71	30719.53
813.89	30563.89
814.07	30465.58
814.25	30522.93
814.43	30383.66
814.61	30279.22
814.79	30432.82
814.97	30205.49
815.15	30580.27
815.33	30150.20
815.50	30176.82
815.68	30314.03
815.86	30111.28
816.04	30150.20
816.22	30010.93
816.40	29902.39
816.58	29933.11
816.76	29849.14
816.94	29810.23
817.11	29730.36
817.29	29670.97
817.47	29740.60
817.65	29476.41
817.83	29486.65
818.01	29570.62
818.19	29455.93
818.37	29347.39
818.54	29294.14
818.72	29296.19
818.90	29173.31
819.08	29515.33
819.26	29376.06
819.44	29048.39
819.62	29513.28
819.80	29175.36
819.97	29283.91
820.15	29204.03
820.33	29017.67
820.51	29193.79
820.69	28868.17
820.87	29011.53
821.05	28966.47
821.22	28821.06
821.40	28868.17
821.58	28462.67
821.76	28620.36
821.94	28358.22
822.12	28728.91
822.29	28454.48
822.47	28087.89
822.65	28616.27
822.83	28210.77
823.01	28151.38
823.19	28253.78
823.36	28178.00
823.54	28636.75
823.72	27889.24
823.90	28048.98
824.08	27610.71
824.25	27924.05
824.43	27709.02
824.61	27954.77
824.79	28192.34
824.97	27702.87
825.15	27977.30
825.32	27776.60
825.50	27520.60
825.68	27635.29
825.86	27645.53
826.04	27629.15
826.21	27541.08
826.39	27592.28
826.57	27250.27
826.75	27555.42
826.93	27082.34
827.10	27367.01
827.28	27563.61
827.46	27704.92
827.64	27467.36
827.81	27022.95
827.99	27559.52
828.17	27475.55
828.35	27043.43
828.53	27176.55
828.70	27119.20
828.88	27201.12
829.06	27424.35
829.24	27278.94
829.41	27057.76
829.59	27338.33
829.77	27154.02
829.95	27287.14
830.12	26789.48
830.30	27051.62
830.48	26936.93
830.66	27213.41
830.84	26539.63
831.01	26734.18
831.19	26701.42
831.37	26680.94
831.55	26363.50
831.72	26687.08
831.90	26545.77
832.08	26453.61
832.25	26525.29
832.43	26271.34
832.61	26238.58
832.79	26383.98
832.96	26300.01
833.14	26744.42
833.32	26613.35
833.50	26738.28
833.67	26461.80
833.85	26164.85
834.03	26084.98
834.20	26293.87
834.38	26334.83
834.56	26476.14
834.74	25816.69
834.91	25988.72
835.09	25898.61
835.27	26072.69
835.44	25763.45
835.62	25519.74
835.80	25792.12
835.98	25931.38
836.15	25788.02
836.33	25628.28
836.51	25816.69
836.68	25517.69
836.86	25532.03
837.04	25785.97
837.21	25702.01
837.39	25591.42
837.57	25810.55
837.75	25710.20
837.92	25495.16
838.10	25593.47
838.28	25286.27
838.45	25400.96
838.63	25478.78
838.81	25329.28
838.98	25089.67
839.16	25181.82
839.34	25319.04
839.51	25003.65
839.69	25171.58
839.87	25212.54
840.04	25405.05
840.22	25415.29
840.40	25030.27
840.57	24833.67
840.75	25165.44
840.93	24598.15
841.10	25071.23
841.28	25134.72
841.46	24940.16
841.63	25390.72
841.81	24985.22
841.98	24798.85
842.16	24831.62
842.34	24995.46
842.51	24596.10
842.69	24987.27
842.87	24888.96
843.04	25022.08
843.22	24862.34
843.40	24553.10
843.57	24835.72
843.75	25052.80
843.92	24839.81
844.10	24700.55
844.28	24673.93
844.45	24522.38
844.63	24555.15
844.81	24663.69
844.98	24182.42
845.16	24336.01
845.33	24319.63
845.51	24632.97
845.69	24227.47
845.86	24444.56
846.04	24104.59
846.21	24227.47
846.39	24270.48
846.57	24262.29
846.74	24200.85
846.92	24008.34
847.09	24145.55
847.27	23901.84
847.45	24434.32
847.62	24125.07
847.80	24075.92
847.97	24217.23
848.15	23971.47
848.32	23815.83
848.50	23842.45
848.68	23664.28
848.85	23953.04
849.03	23295.64
849.20	23877.27
849.38	23930.51
849.56	23776.92
849.73	23479.96
849.91	23817.88
850.08	23713.43
850.26	23615.13
850.43	23561.88
850.61	23742.10
850.78	23457.43
850.96	23580.31
851.14	23387.80
851.31	23662.23
851.49	23289.50
851.66	23443.10
851.84	23352.99
852.01	23402.14
852.19	23412.38
852.36	23379.61
852.54	23428.76
852.71	23092.90
852.89	23275.16
853.07	23295.64
853.24	22945.44
853.42	23043.74
853.59	22666.92
853.77	22851.24
853.94	23017.12
854.12	23183.01
854.29	22890.15
854.47	22990.50
854.64	22886.05
854.82	22810.28
854.99	23215.77
855.17	22894.24
855.34	22701.73
855.52	22951.59
855.69	22750.88
855.87	22683.30
856.04	22541.99
856.22	22832.80
856.39	22199.98
856.57	22566.57
856.74	22507.18
856.92	22531.75
857.09	22515.37
857.27	22585.00
857.44	22820.52
857.62	22441.64
857.79	22617.77
857.97	22568.62
858.14	22306.48
858.32	22310.57
858.49	22470.31
858.67	22140.59
858.84	22326.96
859.02	22283.95
859.19	22103.73
859.37	22042.29
859.54	21948.08
859.72	22236.84
859.89	22144.69
860.06	22361.77
860.24	21841.59
860.41	21982.90
860.59	21526.20
860.76	22019.76
860.94	22238.89
861.11	22214.32
861.29	21954.22
861.46	21655.22
861.64	21675.70
861.81	21835.44
861.98	21792.44
862.16	21911.22
862.33	21657.27
862.51	21585.59
862.68	21649.08
862.86	21302.97
863.03	21679.80
863.21	21556.92
863.38	21378.75
863.55	21466.81
863.73	21364.41
863.90	21657.27
864.08	21296.83
864.25	21642.93
864.43	21423.80
864.60	21089.98
864.77	20985.54
864.95	21237.44
865.12	21200.57
865.30	21409.47
865.47	21270.20
865.64	20991.68
865.82	21239.48
865.99	21538.49
866.17	21096.13
866.34	21262.01
866.51	20930.24
866.69	20969.15
866.86	20971.20
867.04	21001.92
867.21	20858.56
867.38	20819.65
867.56	20616.90
867.73	20946.62
867.91	20623.05
868.08	20680.39
868.25	20655.81
868.43	20840.13
868.60	20596.42
868.78	20567.75
868.95	20887.23
869.12	20500.17
869.30	20336.33
869.47	20700.87
869.64	20379.34
869.82	20383.43
869.99	19998.41
870.16	20182.73
870.34	20285.13
870.51	20434.63
870.69	19775.19
870.86	20268.75
871.03	20197.07
871.21	20102.86
871.38	20283.08
871.55	19936.98
871.73	19979.98
871.90	19992.27
872.07	19760.85
872.25	19357.40
872.42	19543.77
872.59	19709.65
872.77	19893.97
872.94	19803.86
873.11	19359.45
873.29	19398.36
873.46	19230.43
873.63	19453.66
873.81	19492.57
873.98	19267.29
874.15	19332.82
874.33	19195.61
874.50	18962.14
874.67	19216.09
874.85	19404.50
875.02	19179.23
875.19	19132.12
875.37	19185.37
875.54	19179.23
875.71	18919.14
875.88	18904.80
876.06	19005.15
876.23	18947.81
876.40	18851.55
876.58	19187.42
876.75	18898.66
876.92	18919.14
877.10	18867.94
877.27	18792.16
877.44	18423.53
877.61	18693.86
877.79	18558.69
877.96	18484.97
878.13	18515.69
878.31	18560.74
878.48	18314.98
878.65	18056.94
878.82	18216.68
879.00	18446.05
879.17	18298.60
879.34	18077.42
879.51	18077.42
879.69	18132.72
879.86	17686.26
880.03	17901.29
880.21	18069.23
880.38	17805.04
880.55	18114.28
880.72	17893.10
880.90	17743.60
881.07	17817.33
881.24	17678.07
881.41	17960.69
881.59	17716.98
881.76	17719.03
881.93	17678.07
882.10	17616.63
882.28	17802.99
882.45	17655.54
882.62	17553.14
882.79	17882.86
882.96	17442.55
883.14	17598.20
883.31	17714.93
883.48	17401.59
883.65	17467.13
883.83	17794.80
884.00	17428.21
884.17	17327.86
884.34	17635.06
884.51	17710.83
884.69	17372.92
884.86	17489.65
885.03	17321.72
885.20	16989.95
885.38	17624.82
885.55	17092.35
885.72	17166.07
885.89	17057.53
886.06	17270.52
886.24	17188.60
886.41	17028.86
886.58	17172.22
886.75	16987.90
886.92	17014.52
887.10	17200.89
887.27	16756.48
887.44	16930.56
887.61	17141.50
887.78	16965.37
887.95	17170.17
888.13	16787.20
888.30	16850.69
888.47	16756.48
888.64	16754.43
888.81	16649.99
888.99	16416.52
889.16	16598.79
889.33	16682.75
889.50	16391.94
889.67	16566.02
889.84	16365.32
890.01	16324.36
890.19	16400.13
890.36	16668.42
890.53	16410.37
890.70	16088.84
890.87	16355.08
891.04	16078.60
891.22	16154.38
891.39	16127.75
891.56	15957.77
891.73	16054.03
891.90	16115.47
892.07	15908.62
892.24	16195.34
892.42	15945.48
892.59	16013.07
892.76	16023.31
892.93	16000.78
893.10	16047.88
893.27	15767.31
893.44	15736.59
893.61	15855.37
893.79	15988.49
893.96	15902.48
894.13	15935.24
894.30	15580.95
894.47	15750.93
894.64	15988.49
894.81	15626.00
894.98	15609.62
895.15	15961.87
895.33	15873.81
895.50	15447.83
895.67	15857.42
895.84	15683.34
896.01	15607.57
896.18	15533.84
896.35	15916.81
896.52	15644.43
896.69	15484.69
896.86	15705.87
897.04	15427.35
897.21	15632.15
897.38	15662.86
897.55	15589.14
897.72	15626.00
897.89	15683.34
898.06	15638.29
898.23	15822.61
898.40	15509.27
898.57	15617.81
898.74	15490.84
898.91	15384.34
899.08	15660.82
899.26	15062.81
899.43	15666.96
899.60	15236.89
899.77	15265.56
899.94	15550.23
900.11	15306.52
900.28	15507.22
900.45	15269.66
900.62	15185.69
900.79	15396.63
900.96	15349.53
901.13	15107.87
901.30	15345.43
901.47	15120.15
901.64	15091.48
901.81	15376.15
901.98	15062.81
902.15	15316.76
902.32	15353.62
902.49	15288.09
902.66	15462.16
902.83	15492.88
903.01	15267.61
903.18	15365.91
903.35	15363.86
903.52	14976.80
903.69	15531.80
903.86	15527.70
904.03	15466.26
904.20	15480.60
904.37	15402.77
904.54	15179.54
904.71	15093.53
904.88	15359.77
905.05	15212.31
905.22	15421.20
905.39	15161.11
905.56	15355.67
905.73	14958.36
905.90	15249.18
906.07	15060.76
906.24	15132.44
906.41	15134.49
906.58	15171.35
906.75	15257.37
906.92	14917.40
907.09	15238.94
907.26	15240.98
907.43	15060.76
907.60	15015.71
907.77	15183.64
907.93	15396.63
908.10	15255.32
908.27	15193.88
908.44	15240.98
908.61	15071.00
908.78	15161.11
908.95	15044.38
909.12	15167.26
909.29	15048.47
909.46	14929.69
909.63	15136.54
909.80	15099.67
909.97	14925.60
910.14	14851.87
910.31	14788.38
910.48	14837.53
910.65	14874.40
910.82	14997.28
910.99	14880.54
911.16	14970.65
911.33	14767.90
911.50	14714.66
911.66	14673.70
911.83	14751.52
912.00	14790.43
912.17	14642.98
912.34	14751.52
912.51	14624.54
912.68	14141.22
912.85	14694.18
913.02	14753.57
913.19	14427.94
913.36	14495.52
913.53	14636.83
913.70	14487.33
913.86	14583.59
914.03	14434.08
914.20	14184.23
914.37	14421.80
914.54	14403.36
914.71	14350.12
914.88	14282.53
915.05	14214.95
915.22	14122.79
915.39	14413.60
915.55	14130.98
915.72	14018.35
915.89	14020.39
916.06	13887.28
916.23	14014.25
916.40	13709.10
916.57	13879.08
916.74	13784.88
916.91	13788.97
917.07	13575.98
917.24	13829.93
917.41	13655.86
917.58	13879.08
917.75	13588.27
917.92	13432.63
918.09	13616.94
918.26	13739.82
918.42	13705.01
918.59	13647.66
918.76	13379.38
918.93	13246.26
919.10	13256.50
919.27	13453.11
919.44	13399.86
919.60	13363.00
919.77	13233.97
919.94	13274.93
920.11	13397.81
920.28	13270.84
920.45	12977.98
920.61	12980.03
920.78	12969.79
920.95	13059.90
921.12	12830.52
921.29	12975.93
921.46	12828.48
921.62	12728.13
921.79	12615.49
921.96	12578.62
922.13	12463.94
922.30	12584.77
922.47	12410.69
922.63	12414.79
922.80	12257.09
922.97	12281.67
923.14	12121.93
923.31	12142.41
923.47	12183.37
923.64	12226.37
923.81	12017.48
923.98	12003.14
924.15	12146.50
924.32	12209.99
924.48	12156.74
924.65	12253.00
924.82	11939.66
924.99	11880.27
925.15	11716.43
925.32	11890.51
925.49	11515.73
925.66	11736.91
925.83	11564.88
925.99	11546.45
926.16	11519.82
926.33	11444.05
926.50	11249.49
926.67	11546.45
926.83	11360.08
927.00	11380.56
927.17	11269.97
927.34	11196.25
927.50	11251.54
927.67	11401.04
927.84	11102.04
928.01	11104.09
928.17	10887.00
928.34	10981.21
928.51	10823.51
928.68	10860.38
928.84	10882.91
929.01	10729.31
929.18	10755.93
929.35	10596.19
929.51	10649.44
929.68	10518.37
929.85	10385.25
930.02	10387.30
930.18	10481.50
930.35	10385.25
930.52	10315.62
930.69	10405.73
930.85	10219.36
931.02	10213.22
931.19	10123.11
931.36	10194.79
931.52	10301.28
931.69	10116.97
931.86	9946.98
932.02	10119.01
932.19	9961.32
932.36	9973.61
932.53	9942.89
932.69	9764.72
932.86	9875.31
933.03	9858.92
933.19	9650.03
933.36	9498.48
933.53	9604.97
933.70	9342.83
933.86	9543.53
934.03	9510.77
934.20	9451.38
934.36	9432.94
934.53	9049.97
934.70	9121.65
934.86	9125.75
935.03	9015.16
935.20	8894.33
935.36	8929.14
935.53	8898.42
935.70	8750.97
935.86	8705.92
936.03	8685.44
936.20	8359.81
936.36	8556.41
936.53	8447.87
936.70	8486.78
936.86	8335.23
937.03	8259.46
937.20	8138.63
937.36	8269.70
937.53	7911.30
937.70	7870.34
937.86	7888.78
938.03	7712.65
938.20	7819.14
938.36	7548.81
938.53	7454.61
938.70	7319.44
938.86	7335.82
939.03	7270.29
939.20	7274.38
939.36	7161.75
939.53	7085.97
939.70	7307.15
939.86	6834.07
940.03	6784.92
940.19	6735.77
940.36	6578.08
940.53	6692.76
940.69	6453.15
940.86	6684.57
941.03	6510.49
941.19	6231.97
941.36	6213.54
941.52	6184.87
941.69	6133.67
941.86	6184.87
942.02	6221.73
942.19	5986.21
942.35	5941.16
942.52	5971.88
942.69	5957.54
942.85	5871.53
943.02	5687.21
943.18	5797.80
943.35	5619.63
943.52	5627.82
943.68	5668.78
943.85	5500.84
944.01	5593.00
944.18	5556.14
944.35	5523.37
944.51	5513.13
944.68	5353.39
944.84	5490.60
945.01	5205.94
945.17	5431.21
945.34	5437.36
945.51	5322.67
945.67	5167.03
945.84	5365.68
946.00	5173.17
946.17	5185.46
946.33	5320.62
946.50	5324.72
946.67	5296.05
946.83	5107.63
947.00	5253.04
947.16	5218.22
947.33	5224.37
947.49	5214.13
947.66	5271.47
947.82	5285.81
947.99	5216.18
948.16	5228.46
948.32	5072.82
948.49	5281.71
948.65	5226.42
948.82	5193.65
948.98	5250.99
949.15	5072.82
949.31	5205.94
949.48	5201.84
949.64	5140.40
949.81	5244.85
949.97	5191.60
950.14	5361.58
950.30	5177.26
950.47	5222.32
950.63	5255.09
950.80	5214.13
950.96	5187.50
951.13	5177.26
951.30	5337.01
951.46	5119.92
951.63	5289.90
951.79	5246.90
951.96	5294.00
952.12	5287.86
952.29	5318.57
952.45	5322.67
952.62	5234.61
952.78	5427.12
952.94	5257.14
953.11	5228.46
953.27	5320.62
953.44	5394.35
953.60	5361.58
953.77	5222.32
953.93	5498.80
954.10	5275.57
954.26	5263.28
954.43	5363.63
954.59	5365.68
954.76	5449.64
954.92	5347.25
955.09	5394.35
955.25	5357.49
955.42	5330.86
955.58	5423.02
955.75	5318.57
955.91	5390.25
956.07	5466.03
956.24	5343.15
956.40	5509.04
956.57	5584.81
956.73	5275.57
956.90	5341.10
957.06	5369.77
957.23	5459.88
957.39	5392.30
957.56	5314.48
957.72	5296.05
957.88	5404.59
958.05	5449.64
958.21	5431.21
958.38	5400.49
958.54	5476.27
958.71	5496.75
958.87	5236.66
959.03	5400.49
959.20	5418.93
959.36	5316.53
959.53	5367.73
959.69	5355.44
959.85	5480.36
960.02	5279.66
960.18	5334.96
960.35	5384.11
960.51	5586.86
960.68	5420.97
960.84	5509.04
961.00	5267.38
961.17	5326.77
961.33	5367.73
961.50	5371.82
961.66	5359.53
961.82	5406.64
961.99	5324.72
962.15	5289.90
962.31	5279.66
962.48	5443.50
962.64	5443.50
962.81	5359.53
962.97	5396.40
963.13	5453.74
963.30	5410.73
963.46	5359.53
963.62	5404.59
963.79	5244.85
963.95	5308.34
964.12	5267.38
964.28	5382.06
964.44	5384.11
964.61	5371.82
964.77	5406.64
964.93	5328.81
965.10	5246.90
965.26	5226.42
965.42	5300.14
965.59	5160.88
965.75	5361.58
965.92	5242.80
966.08	5148.59
966.24	5222.32
966.41	5146.55
966.57	5265.33
966.73	5240.75
966.90	5320.62
967.06	5099.44
967.22	5230.51
967.39	5025.72
967.55	5074.87
967.71	5058.48
967.88	5203.89
968.04	5124.02
968.20	5140.40
968.37	5140.40
968.53	4968.37
968.69	5189.55
968.85	5095.35
969.02	5109.68
969.18	5070.77
969.34	4945.84
969.51	5156.79
969.67	5171.12
969.83	4878.26
970.00	5066.67
970.16	5005.24
970.32	5169.07
970.48	5119.92
970.65	4986.80
970.81	4974.52
970.97	5048.24
971.14	4874.17
971.30	5035.96
971.46	4921.27
971.63	4968.37
971.79	5097.39
971.95	4939.70
972.11	4935.60
972.28	4913.08
972.44	4884.41
972.60	4857.78
972.76	4749.24
972.93	4765.62
973.09	4933.56
973.25	4937.65
973.42	4720.57
973.58	4865.97
973.74	4898.74
973.90	4734.90
974.07	4853.69
974.23	4872.12
974.39	4837.30
974.55	4755.38
974.72	4935.60
974.88	4714.42
975.04	4841.40
975.20	4665.27
975.37	4726.71
975.53	4722.62
975.69	4753.34
975.85	4665.27
976.01	4882.36
976.18	4663.22
976.34	4771.77
976.50	4886.45
976.66	4728.76
976.83	4720.57
976.99	4657.08
977.15	4577.21
977.31	4507.58
977.47	4771.77
977.64	4679.61
977.80	4646.84
977.96	4517.82
978.12	4517.82
978.29	4534.20
978.45	4435.90
978.61	4499.39
978.77	4466.62
978.93	4487.10
979.10	4665.27
979.26	4511.68
979.42	4407.23
979.58	4419.52
979.74	4519.87
979.91	4370.37
980.07	4417.47
980.23	4485.05
980.39	4280.25
980.55	4360.13
980.71	4241.34
980.88	4298.69
981.04	4282.30
981.20	4253.63
981.36	4415.42
981.52	4321.21
981.68	4251.58
981.85	4474.81
982.01	4321.21
982.17	4284.35
982.33	4349.89
982.49	4308.93
982.65	4313.02
982.82	4276.16
982.98	4343.74
983.14	4224.96
983.30	4235.20
983.46	4292.54
983.62	4212.67
983.79	4190.14
983.95	4151.23
984.11	4071.36
984.27	4153.28
984.43	4177.86
984.59	4108.23
984.75	4126.66
984.91	4102.08
985.08	4288.45
985.24	4163.52
985.40	4014.02
985.56	4214.72
985.72	4112.32
985.88	4200.38
986.04	4095.94
986.20	4036.55
986.37	4044.74
986.53	4114.37
986.69	4034.50
986.85	3977.16
987.01	4024.26
987.17	4140.99
987.33	3950.53
987.49	3903.43
987.65	3993.54
987.82	3997.64
987.98	3960.77
988.14	4024.26
988.30	3973.06
988.46	3958.72
988.62	3966.92
988.78	3878.85
988.94	3856.33
989.10	3911.62
989.26	3862.47
989.42	3807.17
989.59	3727.30
989.75	3846.09
989.91	3913.67
990.07	3745.73
990.23	3758.02
990.39	3846.09
990.55	3764.17
990.71	3727.30
990.87	3805.13
991.03	3762.12
991.19	3829.70
991.35	3678.15
991.51	3805.13
991.67	3882.95
991.83	3792.84
992.00	3755.97
992.16	3821.51
992.32	3727.30
992.48	3784.65
992.64	3647.43
992.80	3676.10
992.96	3790.79
993.12	3682.25
993.28	3659.72
993.44	3762.12
993.60	3688.39
993.76	3612.62
993.92	3678.15
994.08	3690.44
994.24	3620.81
994.40	3495.88
994.56	3682.25
994.72	3526.60
994.88	3571.66
995.04	3522.51
995.20	3579.85
995.36	3524.55
995.52	3557.32
995.68	3518.41
995.84	3469.26
996.00	3669.96
996.16	3508.17
996.32	3530.70
996.48	3542.99
996.64	3499.98
996.80	3420.11
996.96	3526.60
997.12	3456.97
997.28	3307.47
997.44	3377.10
997.60	3385.29
997.76	3399.63
997.92	3411.92
998.08	3440.59
998.24	3299.28
998.40	3375.05
998.56	3407.82
998.72	3246.03
998.88	3336.14
999.04	3360.72
999.20	3391.44
999.36	3303.37
999.52	3299.28
999.68	3401.68
999.84	3309.52
1000.00	3299.28
1000.16	3358.67
1000.32	3301.33
1000.48	3407.82
1000.64	3180.50
1000.80	3254.22
1000.95	3166.16
1001.11	3243.98
1001.27	3215.31
1001.43	3252.17
1001.59	3141.58
1001.75	3203.02
1001.91	3190.74
1002.07	3088.34
1002.23	3227.60
1002.39	3108.82
1002.55	3301.33
1002.71	3117.01
1002.87	3110.86
1003.03	3043.28
1003.19	3006.42
1003.34	3135.44
1003.50	3100.62
1003.66	3160.02
1003.82	3141.58
1003.98	2985.94
1004.14	3088.34
1004.30	3039.19
1004.46	2969.55
1004.62	3035.09
1004.78	3065.81
1004.94	3100.62
1005.09	3067.86
1005.25	3035.09
1005.41	2899.92
1005.57	3078.10
1005.73	2969.55
1005.89	2904.02
1006.05	3069.91
1006.21	3041.23
1006.37	2899.92
1006.52	2953.17
1006.68	2834.39
1006.84	3143.63
1007.00	3035.09
1007.16	3026.90
1007.32	2899.92
1007.48	2838.48
1007.64	2953.17
1007.79	2904.02
1007.95	2854.87
1008.11	2938.84
1008.27	2822.10
1008.43	2840.53
1008.59	2887.64
1008.75	2836.44
1008.91	2940.88
1009.06	2854.87
1009.22	2871.25
1009.38	2834.39
1009.54	2744.28
1009.70	2775.00
1009.86	2848.72
1010.01	2836.44
1010.17	2772.95
1010.33	2768.85
1010.49	2887.64
1010.65	2877.40
1010.81	2701.27
1010.96	2793.43
1011.12	2658.26
1011.28	2787.29
1011.44	2668.50
1011.60	2869.20
1011.76	2688.98
1011.91	2826.20
1012.07	2592.73
1012.23	2701.27
1012.39	2691.03
1012.55	2731.99
1012.71	2631.64
1012.86	2602.97
1013.02	2592.73
1013.18	2625.50
1013.34	2592.73
1013.50	2744.28
1013.65	2691.03
1013.81	2510.81
1013.97	2717.65
1014.13	2557.91
1014.29	2621.40
1014.44	2633.69
1014.60	2590.68
1014.76	2529.24
1014.92	2529.24
1015.07	2645.98
1015.23	2584.54
1015.39	2478.04
1015.55	2598.87
1015.71	2516.95
1015.86	2523.10
1016.02	2502.62
1016.18	2396.12
1016.34	2594.78
1016.49	2549.72
1016.65	2650.07
1016.81	2420.70
1016.97	2504.67
1017.12	2545.63
1017.28	2455.51
1017.44	2484.19
1017.60	2473.95
1017.75	2519.00
1017.91	2344.92
1018.07	2406.36
1018.23	2508.76
1018.38	2441.18
1018.54	2445.27
1018.70	2455.51
1018.86	2334.68
1019.01	2326.49
1019.17	2453.47
1019.33	2510.81
1019.49	2461.66
1019.64	2471.90
1019.80	2332.64
1019.96	2494.43
1020.12	2437.08
1020.27	2371.55
1020.43	2353.12
1020.59	2361.31
1020.74	2449.37
1020.90	2428.89
1021.06	2387.93
1021.22	2396.12
1021.37	2297.82
1021.53	2346.97
1021.69	2373.60
1021.84	2295.77
1022.00	2398.17
1022.16	2258.91
1022.31	2371.55
1022.47	2389.98
1022.63	2363.36
1022.79	2238.43
1022.94	2285.53
1023.10	2416.60
1023.26	2297.82
1023.41	2301.92
1023.57	2314.20
1023.73	2301.92
1023.88	2310.11
1024.04	2187.23
1024.20	2232.29
1024.35	2232.29
1024.51	2240.48
1024.67	2265.05
1024.82	2195.42
1024.98	2152.42
1025.14	2195.42
1025.29	2176.99
1025.45	2252.77
1025.61	2183.13
1025.76	2133.98
1025.92	2277.34
1026.08	2306.01
1026.23	2174.94
1026.39	2193.37
1026.55	2209.76
1026.70	2176.99
1026.86	2152.42
1027.02	2242.53
1027.17	2197.47
1027.33	2183.13
1027.48	2207.71
1027.64	2144.22
1027.80	2062.30
1027.95	2220.00
1028.11	2131.94
1028.27	2109.41
1028.42	2215.90
1028.58	2166.75
1028.73	2078.69
1028.89	2080.74
1029.05	2271.20
1029.20	2129.89
>>>>>End Processed Spectral Data<<<<<
