SpectraSuite Data File
++++++++++++++++++++++++++++++++++++
Date: Fri Jun 02 14:47:57 CEST 2017
User: INFO_000
Dark Spectrum Present: No
Reference Spectrum Present: No
Number of Sampled Component Spectra: 1
Spectrometers: USB4H00879
Integration Time (usec): 80000 (USB4H00879)
Spectra Averaged: 1 (USB4H00879)
Boxcar Smoothing: 0 (USB4H00879)
Correct for Electrical Dark: No (USB4H00879)
Strobe/Lamp Enabled: No (USB4H00879)
Correct for Detector Non-linearity: No (USB4H00879)
Correct for Stray Light: No (USB4H00879)
Number of Pixels in Processed Spectrum: 3648
>>>>>Begin Processed Spectral Data<<<<<
345.13	1245.16
345.34	1245.16
345.56	1245.16
345.78	1273.84
345.99	1343.47
346.21	1748.97
346.42	1759.21
346.64	1597.42
346.86	1802.21
347.07	1679.33
347.29	1701.86
347.50	1703.91
347.72	1673.19
347.94	1744.87
348.15	1597.42
348.37	1634.28
348.59	1665.00
348.80	1617.90
349.02	1814.50
349.23	1859.56
349.45	1845.22
349.67	1892.32
349.88	1832.93
350.10	1959.91
350.31	1814.50
350.53	1837.03
350.75	1873.89
350.96	1755.11
351.18	1855.46
351.39	1898.47
351.61	1794.02
351.82	1914.85
352.04	1980.39
352.26	1853.41
352.47	1929.19
352.69	1964.00
352.90	1791.97
353.12	1802.21
353.34	1779.68
353.55	1920.99
353.77	1873.89
353.98	1871.84
354.20	1812.45
354.41	1978.34
354.63	1961.95
354.85	2043.87
355.06	1937.38
355.28	1744.87
355.49	1910.75
355.71	1931.23
355.92	1828.84
356.14	1937.38
356.35	1949.67
356.57	1877.99
356.79	1910.75
357.00	1843.17
357.22	1898.47
357.43	1845.22
357.65	1959.91
357.86	1849.32
358.08	1894.37
358.29	1968.10
358.51	1998.82
358.72	2004.96
358.94	1882.08
359.16	1929.19
359.37	1943.52
359.59	1953.76
359.80	1929.19
360.02	1931.23
360.23	1976.29
360.45	2000.87
360.66	1888.23
360.88	1806.31
361.09	1855.46
361.31	2021.35
361.52	1951.71
361.74	2037.73
361.95	2121.70
362.17	1916.90
362.38	2050.02
362.60	1988.58
362.81	2021.35
363.03	1976.29
363.24	1949.67
363.46	2033.63
363.67	1996.77
363.89	1943.52
364.10	1982.43
364.32	2035.68
364.53	2050.02
364.75	1830.88
364.96	2013.15
365.18	2105.31
365.39	2058.21
365.61	1951.71
365.82	2152.42
366.04	2078.69
366.25	1970.15
366.47	1920.99
366.68	2035.68
366.90	1980.39
367.11	2019.30
367.33	2107.36
367.54	2052.06
367.76	2045.92
367.97	2068.45
368.19	2078.69
368.40	2052.06
368.62	1968.10
368.83	1951.71
369.05	2021.35
369.26	2004.96
369.48	2025.44
369.69	1957.86
369.91	2064.35
370.12	1978.34
370.33	2119.65
370.55	1972.19
370.76	2009.06
370.98	2060.26
371.19	2023.39
371.41	1925.09
371.62	2011.11
371.84	2111.46
372.05	2207.71
372.27	2035.68
372.48	2035.68
372.69	2076.64
372.91	2074.59
373.12	2093.02
373.34	2050.02
373.55	2121.70
373.77	2172.89
373.98	2076.64
374.20	2213.85
374.41	2277.34
374.62	2052.06
374.84	2199.52
375.05	2191.33
375.27	2207.71
375.48	2158.56
375.70	2050.02
375.91	2162.66
376.12	2238.43
376.34	2109.41
376.55	2197.47
376.77	2209.76
376.98	2115.55
377.19	2150.37
377.41	2152.42
377.62	2244.57
377.84	2203.61
378.05	2279.39
378.27	2179.04
378.48	2240.48
378.69	2279.39
378.91	2334.68
379.12	2240.48
379.34	2246.62
379.55	2246.62
379.76	2246.62
379.98	2211.81
380.19	2318.30
380.41	2191.33
380.62	2269.15
380.83	2230.24
381.05	2199.52
381.26	2416.60
381.47	2269.15
381.69	2301.92
381.90	2394.08
382.12	2324.44
382.33	2330.59
382.54	2293.72
382.76	2322.40
382.97	2281.44
383.19	2285.53
383.40	2426.84
383.61	2285.53
383.83	2265.05
384.04	2248.67
384.25	2344.92
384.47	2402.27
384.68	2338.78
384.89	2324.44
385.11	2273.25
385.32	2301.92
385.54	2328.54
385.75	2400.22
385.96	2334.68
386.18	2361.31
386.39	2396.12
386.60	2299.87
386.82	2445.27
387.03	2332.64
387.24	2494.43
387.46	2463.71
387.67	2500.57
387.88	2465.75
388.10	2510.81
388.31	2482.14
388.52	2621.40
388.74	2496.47
388.95	2486.23
389.16	2484.19
389.38	2494.43
389.59	2549.72
389.80	2553.82
390.02	2469.85
390.23	2656.22
390.44	2588.63
390.66	2535.39
390.87	2482.14
391.08	2500.57
391.30	2619.35
391.51	2547.67
391.72	2592.73
391.94	2578.39
392.15	2574.30
392.36	2586.58
392.58	2609.11
392.79	2746.33
393.00	2717.65
393.22	2719.70
393.43	2734.04
393.64	2764.76
393.85	2764.76
394.07	2658.26
394.28	2709.46
394.49	2779.09
394.71	2770.90
394.92	2858.96
395.13	2648.02
395.35	2693.08
395.56	2695.13
395.77	2762.71
395.98	2813.91
396.20	2934.74
396.41	2830.29
396.62	2889.68
396.84	2803.67
397.05	2842.58
397.26	2838.48
397.47	2975.70
397.69	2789.33
397.90	3018.71
398.11	3016.66
398.32	2791.38
398.54	2869.20
398.75	2842.58
398.96	2983.89
399.18	2996.18
399.39	2985.94
399.60	2994.13
399.81	3039.19
400.03	2906.07
400.24	3299.28
400.45	2979.79
400.66	3067.86
400.88	3088.34
401.09	3295.18
401.30	3006.42
401.51	3090.38
401.73	3160.02
401.94	3145.68
402.15	3219.41
402.36	3160.02
402.58	3106.77
402.79	3219.41
403.00	3061.71
403.21	3203.02
403.43	3090.38
403.64	3219.41
403.85	3106.77
404.06	3219.41
404.27	3086.29
404.49	3071.95
404.70	2998.23
404.91	3284.94
405.12	3254.22
405.34	3260.37
405.55	3411.92
405.76	3194.83
405.97	3207.12
406.19	3264.46
406.40	3188.69
406.61	3256.27
406.82	3284.94
407.03	3336.14
407.25	3291.09
407.46	3348.43
407.67	3383.24
407.88	3422.16
408.09	3370.96
408.31	3346.38
408.52	3346.38
408.73	3389.39
408.94	3330.00
409.15	3508.17
409.37	3522.51
409.58	3411.92
409.79	3430.35
410.00	3551.18
410.21	3467.21
410.43	3467.21
410.64	3362.76
410.85	3641.29
411.06	3528.65
411.27	3516.36
411.48	3655.62
411.70	3469.26
411.91	3526.60
412.12	3696.58
412.33	3526.60
412.54	3655.62
412.76	3692.49
412.97	3536.84
413.18	3495.88
413.39	3579.85
413.60	3598.28
413.81	3700.68
414.03	3592.14
414.24	3508.17
414.45	3768.26
414.66	3588.04
414.87	3696.58
415.08	3667.91
415.30	3706.82
415.51	3686.34
415.72	3649.48
415.93	3846.09
416.14	3663.82
416.35	3815.37
416.56	3715.02
416.78	3772.36
416.99	3897.28
417.20	3747.78
417.41	3973.06
417.62	3934.15
417.83	3854.28
418.04	3893.19
418.26	3901.38
418.47	3735.50
418.68	3940.29
418.89	3923.91
419.10	4104.13
419.31	3909.57
419.52	4100.03
419.73	4009.92
419.95	4067.27
420.16	3977.16
420.37	4077.51
420.58	3932.10
420.79	3956.68
421.00	4073.41
421.21	4190.14
421.42	4030.40
421.63	4071.36
421.85	4120.51
422.06	4196.29
422.27	4149.18
422.48	4190.14
422.69	4155.33
422.90	4206.53
423.11	4253.63
423.32	4310.97
423.53	4421.56
423.75	4372.41
423.96	4390.84
424.17	4419.52
424.38	4509.63
424.59	4358.08
424.80	4599.74
425.01	4505.53
425.22	4411.32
425.43	4319.17
425.64	4601.79
425.85	4706.23
426.06	4511.68
426.28	4532.15
426.49	4489.15
426.70	4569.02
426.91	4599.74
427.12	4677.56
427.33	4687.80
427.54	4626.36
427.75	4583.35
427.96	4802.49
428.17	4720.57
428.38	4765.62
428.59	4681.66
428.80	4501.44
429.01	4870.07
429.23	4794.29
429.44	5066.67
429.65	4939.70
429.86	4820.92
430.07	4847.54
430.28	4868.02
430.49	4923.32
430.70	5136.31
430.91	5117.87
431.12	4923.32
431.33	5103.54
431.54	5103.54
431.75	5130.16
431.96	5109.68
432.17	5066.67
432.38	5099.44
432.59	5341.10
432.80	5316.53
433.01	5318.57
433.22	5322.67
433.43	5093.30
433.64	5156.79
433.85	5167.03
434.06	5334.96
434.27	5261.23
434.49	5406.64
434.70	5521.32
434.91	5392.30
435.12	5480.36
435.33	5435.31
435.54	5375.92
435.75	5253.04
435.96	5394.35
436.17	5384.11
436.38	5513.13
436.59	5572.52
436.80	5556.14
437.01	5785.51
437.22	5726.12
437.43	5719.98
437.64	5472.17
437.85	5599.15
438.06	5713.83
438.27	5558.19
438.48	5660.59
438.69	5789.61
438.90	5832.62
439.11	5785.51
439.32	5734.31
439.53	5736.36
439.74	5808.04
439.95	5980.07
440.16	5937.06
440.37	5799.85
440.57	5672.87
440.78	5902.25
440.99	5894.05
441.20	6049.70
441.41	5916.58
441.62	6029.22
441.83	5709.74
442.04	5965.73
442.25	5920.68
442.46	5961.64
442.67	6129.57
442.88	6506.40
443.09	5935.01
443.30	6143.91
443.51	6184.87
443.72	6344.61
443.93	6182.82
444.14	6326.18
444.35	6104.99
444.56	6301.60
444.77	6256.54
444.98	6330.27
445.19	6295.46
445.40	6375.33
445.61	6363.04
445.81	6320.03
446.02	6496.16
446.23	6360.99
446.44	6229.92
446.65	6459.29
446.86	6508.44
447.07	6598.56
447.28	6625.18
447.49	6645.66
447.70	6453.15
447.91	6657.95
448.12	6537.12
448.33	6795.16
448.54	6770.58
448.74	6567.84
448.95	6735.77
449.16	6674.33
449.37	6915.99
449.58	6680.47
449.79	7077.78
450.00	6752.15
450.21	6829.98
450.42	7024.53
450.63	7030.68
450.84	6971.29
451.05	6977.43
451.25	6772.63
451.46	6891.41
451.67	7214.99
451.88	7083.92
452.09	7098.26
452.30	6973.33
452.51	6942.61
452.72	7260.05
452.93	7546.76
453.13	7100.31
453.34	7128.98
453.55	7423.89
453.76	7184.27
453.97	7546.76
454.18	7434.13
454.39	7579.53
454.60	7450.51
454.81	7458.70
455.01	7571.34
455.22	7155.60
455.43	7522.19
455.64	7901.06
455.85	7769.99
456.06	8007.56
456.27	7856.01
456.48	7710.60
456.68	7788.43
456.89	7866.25
457.10	7913.35
457.31	7954.31
457.52	7851.91
457.73	7985.03
457.94	8247.17
458.14	8069.00
458.35	8429.44
458.56	8017.80
458.77	8169.35
458.98	8144.77
459.19	8411.01
459.39	8085.38
459.60	8570.75
459.81	8308.61
460.02	8515.45
460.23	8501.12
460.44	8705.92
460.65	8730.49
460.85	8675.20
461.06	8748.92
461.27	8521.60
461.48	8763.26
461.69	8990.58
461.89	8589.18
462.10	8826.75
462.31	8693.63
462.52	8687.48
462.73	8972.15
462.94	9242.48
463.14	9027.45
463.35	9164.66
463.56	9504.62
463.77	9406.32
463.98	9305.97
464.18	9242.48
464.39	9387.89
464.60	9502.58
464.81	9598.83
465.02	9529.20
465.23	9697.13
465.43	9635.69
465.64	9897.83
465.85	9822.06
466.06	9705.32
466.27	10116.97
466.47	9996.14
466.68	9897.83
466.89	9940.84
467.10	10022.76
467.30	9852.78
467.51	10004.33
467.72	10452.83
467.93	10006.38
468.14	10207.08
468.34	10194.79
468.55	10565.47
468.76	10538.85
468.97	10362.72
469.17	10612.57
469.38	10809.18
469.59	10964.82
469.80	10561.37
470.01	10704.73
470.21	10727.26
470.42	11243.35
470.63	11198.29
470.84	11007.83
471.04	11347.79
471.25	11261.78
471.46	11396.95
471.67	11525.97
471.87	11521.87
472.08	11550.54
472.29	11599.70
472.50	11626.32
472.70	11677.52
472.91	11366.23
473.12	11876.17
473.33	11919.18
473.53	12085.06
473.74	11857.74
473.95	12199.75
474.16	12250.95
474.36	12445.51
474.57	12275.52
474.78	12666.69
474.99	12468.03
475.19	12515.14
475.40	12721.98
475.61	12801.85
475.81	12908.35
476.02	13076.28
476.23	12910.40
476.44	13092.66
476.64	13174.58
476.85	13506.35
477.06	13188.92
477.27	13590.32
477.47	13686.58
477.68	13784.88
477.89	13864.75
478.09	13625.14
478.30	13850.41
478.51	13981.48
478.71	14157.61
478.92	14147.37
479.13	14233.38
479.34	14413.60
479.54	14417.70
479.75	14468.90
479.96	14640.93
480.16	14642.98
480.37	14819.10
480.58	14964.51
480.78	15333.14
480.99	14917.40
481.20	15218.46
481.41	15300.37
481.61	15408.92
481.82	15415.06
482.03	15550.23
482.23	15335.19
482.44	15597.33
482.65	15892.24
482.85	15669.01
483.06	15863.57
483.27	16047.88
483.47	16015.12
483.68	16033.55
483.89	16322.31
484.09	16310.02
484.30	16312.07
484.51	16766.72
484.71	16705.28
484.92	16768.77
485.13	17110.78
485.33	16910.08
485.54	16953.09
485.75	17291.00
485.95	17176.31
486.16	17485.56
486.37	17377.01
486.57	17454.84
486.78	17598.20
486.98	17334.01
487.19	17745.65
487.40	17831.66
487.60	17848.05
487.81	18056.94
488.02	17921.77
488.22	18089.71
488.43	18251.50
488.64	18132.72
488.84	18171.63
489.05	18374.38
489.25	18403.05
489.46	18714.34
489.67	18734.82
489.87	19078.88
490.08	18876.13
490.29	19107.55
490.49	19277.53
490.70	19279.58
490.90	19185.37
491.11	19295.96
491.32	19445.46
491.52	19664.60
491.73	19470.04
491.94	19680.98
492.14	19558.10
492.35	19826.39
492.55	19873.49
492.76	19994.32
492.97	20154.06
493.17	20063.95
493.38	20387.53
493.58	20600.52
493.79	20049.61
494.00	20362.95
494.20	20821.70
494.41	20876.99
494.61	20950.72
494.82	20668.10
495.02	20883.14
495.23	20885.19
495.44	21345.98
495.64	21356.22
495.85	21176.00
496.05	21591.73
496.26	21153.47
496.47	21929.65
496.67	21587.64
496.88	21708.47
497.08	21649.08
497.29	21876.40
497.49	21722.80
497.70	21927.60
497.91	21909.17
498.11	22365.87
498.32	22212.27
498.52	22468.27
498.73	22496.94
498.93	22247.08
499.14	22619.81
499.34	22648.49
499.55	23017.12
499.76	22619.81
499.96	22642.34
500.17	22910.63
500.37	22867.62
500.58	23324.32
500.78	22953.63
500.99	22986.40
501.19	23561.88
501.40	23350.94
501.60	23473.82
501.81	23412.38
502.02	23838.36
502.22	23379.61
502.43	23668.37
502.63	24129.17
502.84	23860.88
503.04	23733.91
503.25	24102.54
503.45	23971.47
503.66	24250.00
503.86	24180.37
504.07	24432.27
504.27	24354.44
504.48	24469.13
504.68	24422.03
504.89	24725.13
505.09	24587.91
505.30	24602.25
505.50	24772.23
505.71	25089.67
505.91	25087.62
506.12	24944.26
506.32	25175.68
506.53	25271.93
506.73	25153.15
506.94	25192.06
507.14	25153.15
507.35	25230.98
507.55	25312.89
507.76	25321.09
507.96	25566.84
508.17	25640.57
508.37	25761.40
508.58	25652.86
508.78	25659.00
508.99	25828.98
509.19	25790.07
509.40	26048.11
509.60	26093.17
509.81	25855.61
510.01	26052.21
510.22	26283.63
510.42	26211.95
510.63	26246.77
510.83	26459.76
511.04	26437.23
511.24	26375.79
511.44	26496.62
511.65	26365.55
511.85	26592.87
512.06	26637.93
512.26	26848.87
512.47	27086.43
512.67	26924.65
512.88	26920.55
513.08	26900.07
513.29	26871.40
513.49	27131.49
513.69	27078.24
513.90	27397.73
514.10	27377.25
514.31	27133.54
514.51	27231.84
514.72	27377.25
514.92	27137.63
515.13	27469.40
515.33	27524.70
515.53	27625.05
515.74	27631.19
515.94	27883.09
516.15	27872.85
516.35	27717.21
516.56	28063.32
516.76	27784.79
516.96	27739.74
517.17	27764.31
517.37	28083.80
517.58	27811.42
517.78	28157.52
517.99	28384.85
518.19	28587.60
518.39	28487.25
518.60	28325.46
518.80	28483.15
519.01	28776.01
519.21	28778.06
519.41	28995.14
519.62	28710.47
519.82	28819.02
520.03	29011.53
520.23	28909.13
520.43	29091.40
520.64	29066.82
520.84	29304.38
521.05	29087.30
521.25	29156.93
521.45	29638.20
521.66	29470.27
521.86	29451.84
522.07	29632.06
522.27	29840.95
522.47	29447.74
522.68	30084.66
522.88	29963.83
523.08	30338.61
523.29	30062.13
523.49	29767.23
523.70	30373.42
523.90	30250.55
524.10	30099.00
524.31	30582.32
524.51	30299.70
524.71	30639.66
524.92	30504.49
525.12	30875.18
525.33	30539.31
525.53	30694.96
525.73	31120.93
525.94	31004.20
526.14	31131.17
526.34	31108.65
526.55	31364.64
526.75	31356.45
526.95	31444.51
527.16	31458.85
527.36	31481.38
527.56	31553.05
527.77	31716.89
527.97	31626.78
528.17	31835.67
528.38	31950.36
528.58	32085.53
528.78	32318.99
528.99	31647.26
529.19	32478.74
529.39	32103.96
529.60	32828.94
529.80	32212.50
530.00	32493.07
530.21	32400.91
530.41	32837.13
530.61	32957.96
530.82	32861.71
531.02	33017.35
531.22	33076.74
531.43	32972.30
531.63	33248.77
531.83	33195.53
532.04	33838.59
532.24	33224.20
532.44	33650.17
532.64	33594.88
532.85	33910.27
533.05	33846.78
533.25	34067.96
533.46	33947.13
533.66	34268.66
533.86	34201.08
534.07	34387.44
534.27	34053.62
534.47	34557.42
534.67	34256.37
534.88	34426.35
535.08	34375.16
535.28	34573.81
535.49	34788.85
535.69	35063.27
535.89	35204.58
536.09	35225.06
536.30	35499.49
536.50	35616.22
536.70	35462.63
536.91	35497.44
537.11	35519.97
537.31	35753.44
537.51	35513.83
537.72	35812.83
537.92	35925.47
538.12	36134.36
538.32	36009.43
538.53	36265.43
538.73	36089.31
538.93	36513.23
539.13	35741.15
539.34	36335.06
539.54	36306.39
539.74	36754.90
539.94	36730.32
540.15	36705.74
540.35	36740.56
540.55	36552.15
540.75	36507.09
540.96	36871.63
541.16	36707.79
541.36	37144.01
541.56	37395.91
541.77	37574.08
541.97	37483.97
542.17	37397.96
542.37	37322.18
542.58	37811.65
542.78	37799.36
542.98	37553.60
543.18	37950.91
543.38	37944.76
543.59	38311.35
543.79	37821.89
543.99	38032.83
544.19	38507.96
544.40	38090.17
544.60	38192.57
544.80	38034.88
545.00	38192.57
545.20	38469.04
545.41	38622.64
545.61	38585.78
545.81	39269.80
546.01	38643.12
546.21	38993.32
546.42	38507.96
546.62	38978.99
546.82	38978.99
547.02	39253.42
547.22	39128.49
547.43	38712.75
547.63	39394.73
547.83	39048.62
548.03	39056.81
548.23	39472.55
548.44	39421.35
548.64	39712.16
548.84	39570.85
549.04	39544.23
549.24	39783.84
549.45	40248.73
549.65	39613.86
549.85	39824.80
550.05	39921.05
550.25	40023.45
550.45	40179.10
550.66	40220.06
550.86	40154.52
551.06	40648.08
551.26	40218.01
551.46	40394.14
551.66	40258.97
551.87	40641.94
552.07	40551.83
552.27	40768.91
552.47	40717.71
552.67	40983.95
552.87	40859.02
553.07	40666.52
553.28	40742.29
553.48	41340.30
553.68	40928.66
553.88	41039.25
554.08	41098.64
554.28	41260.43
554.48	41338.25
554.69	41735.56
554.89	41088.40
555.09	41489.80
555.29	41137.55
555.49	41387.40
555.69	41448.84
555.89	41633.16
556.10	42014.08
556.30	41416.07
556.50	41852.29
556.70	41629.06
556.90	41889.15
557.10	42077.57
557.30	41975.17
557.50	42067.33
557.70	41944.45
557.91	42012.03
558.11	42313.08
558.31	42630.52
558.51	42063.23
558.71	42192.25
558.91	42589.56
559.11	42130.81
559.31	42399.10
559.51	42235.26
559.72	42288.51
559.92	42845.55
560.12	42319.23
560.32	42634.61
560.52	42386.81
560.72	42857.84
560.92	42687.86
561.12	42599.80
561.32	42921.33
561.52	42448.25
561.72	43353.45
561.93	42751.35
562.13	42622.33
562.33	42945.90
562.53	43578.73
562.73	42720.63
562.93	43103.60
563.13	43054.45
563.33	43240.81
563.53	43230.57
563.73	43048.30
563.93	43382.12
564.13	43701.61
564.33	43707.75
564.53	43271.53
564.74	43588.97
564.94	43599.21
565.14	44088.67
565.34	43410.79
565.54	43785.57
565.74	43560.30
565.94	44191.07
566.14	43607.40
566.34	44311.90
566.54	44256.60
566.74	44143.97
566.94	44227.93
567.14	44111.20
567.34	44250.46
567.54	44021.09
567.74	44021.09
567.94	43734.37
568.14	44086.62
568.34	44356.96
568.54	44227.93
568.74	44791.12
568.94	44119.39
569.14	44508.50
569.34	44322.14
569.54	44758.36
569.75	44381.53
569.95	44782.93
570.15	44850.52
570.35	44758.36
570.55	44426.59
570.75	44682.58
570.95	44793.17
571.15	45061.46
571.35	44817.75
571.55	44971.35
571.75	45174.09
571.95	45145.42
572.15	45397.32
572.35	45385.04
572.55	45471.05
572.75	45219.15
572.95	45002.07
573.15	45409.61
573.35	45192.53
573.55	44952.91
573.75	45155.66
573.95	45438.28
574.15	45296.97
574.35	45702.47
574.55	45753.67
574.75	45444.43
574.95	45745.48
575.15	45413.71
575.34	45403.47
575.54	46024.00
575.74	46032.19
575.94	46228.80
576.14	45577.54
576.34	46212.41
576.54	46290.24
576.74	46048.58
576.94	45956.42
577.14	46302.53
577.34	46251.33
577.54	46396.73
577.74	46294.33
577.94	46525.75
578.14	46572.86
578.34	46402.88
578.54	46048.58
578.74	46380.35
578.94	46771.51
579.14	46716.22
579.34	46378.30
579.54	46591.29
579.74	47183.15
579.94	47064.37
580.13	46939.44
580.33	46691.64
580.53	46959.92
580.73	47127.86
580.93	47324.46
581.13	47029.55
581.33	47344.94
581.53	47476.01
581.73	47093.04
581.93	47404.33
582.13	47164.72
582.33	47658.28
582.53	47359.28
582.73	47299.89
582.92	47189.30
583.12	48014.63
583.32	47342.89
583.52	47781.16
583.72	47521.07
583.92	47744.30
584.12	47899.94
584.32	48110.88
584.52	47895.85
584.72	47346.99
584.92	48092.45
585.11	48332.06
585.31	48268.58
585.51	47752.49
585.71	47949.09
585.91	48497.95
586.11	48055.59
586.31	48117.03
586.51	48252.19
586.71	48571.67
586.91	48823.58
587.10	48674.07
587.30	48520.48
587.50	48395.55
587.70	48899.35
587.90	48639.26
588.10	48674.07
588.30	48461.08
588.50	48727.32
588.69	48790.81
588.89	48776.47
589.09	48876.82
589.29	48543.00
589.49	49341.71
589.69	48624.92
589.89	49153.30
590.08	48586.01
590.28	49294.61
590.48	48786.71
590.68	49130.77
590.88	49134.87
591.08	49362.19
591.28	48897.30
591.47	49310.99
591.67	49308.94
591.87	49169.68
592.07	49304.85
592.27	49255.70
592.47	49384.72
592.67	49505.55
592.86	49554.70
593.06	49736.97
593.26	49851.66
593.46	49714.44
593.66	49591.56
593.86	49736.97
594.05	49927.43
594.25	49829.13
594.45	49702.15
594.65	49689.87
594.85	49610.00
595.05	49886.47
595.24	50355.46
595.44	49884.42
595.64	49962.25
595.84	50046.21
596.04	49775.88
596.23	50420.99
596.43	50441.47
596.63	50248.96
596.83	50076.93
597.03	50457.85
597.22	50613.50
597.42	50595.07
597.62	50832.63
597.82	50550.01
598.02	50765.05
598.21	50832.63
598.41	50179.33
598.61	51152.12
598.81	50740.47
599.01	50814.20
599.20	50629.88
599.40	50803.96
599.60	50623.74
599.80	50937.08
600.00	50846.97
600.19	51238.13
600.39	50937.08
600.59	51234.03
600.79	51387.63
600.98	51047.67
601.18	51262.71
601.38	50998.52
601.58	51596.52
601.78	51676.40
601.97	51453.17
602.17	51877.10
602.37	51594.48
602.57	51451.12
602.76	51885.29
602.96	51164.40
603.16	51827.95
603.36	51864.81
603.55	51791.08
603.75	51832.04
603.95	52069.61
604.15	51680.49
604.34	51719.40
604.54	51971.30
604.74	52149.48
604.94	52243.68
605.13	52380.90
605.33	52575.45
605.53	52477.15
605.73	53038.29
605.92	52163.81
606.12	52458.72
606.32	52393.18
606.52	52866.27
606.71	52389.09
606.91	52759.77
607.11	52509.92
607.30	52643.04
607.50	52815.07
607.70	52819.16
607.90	52630.75
608.09	52552.93
608.29	53050.58
608.49	52991.19
608.68	53517.52
608.88	52749.53
609.08	53595.34
609.28	53322.96
609.47	53177.56
609.67	53511.38
609.87	53187.80
610.06	53675.21
610.26	53013.72
610.46	53425.36
610.66	53630.16
610.85	53554.38
611.05	53628.11
611.25	53593.29
611.44	53331.15
611.64	53490.90
611.84	53230.80
612.03	53581.01
612.23	53535.95
612.43	53804.24
612.62	53650.64
612.82	53501.14
613.02	53531.86
613.21	53626.06
613.41	53542.10
613.61	53843.15
613.80	53560.53
614.00	53912.78
614.20	53912.78
614.39	53800.14
614.59	53912.78
614.79	54004.94
614.98	53707.98
615.18	53820.62
615.38	54025.42
615.57	54015.18
615.77	54019.27
615.97	53949.64
616.16	53966.02
616.36	54101.19
616.56	54258.88
616.75	54023.37
616.95	54359.23
617.15	54070.47
617.34	53982.41
617.54	53861.58
617.74	54506.69
617.93	54465.73
618.13	54133.96
618.32	54377.67
618.52	54168.77
618.72	54058.18
618.91	54404.29
619.11	54148.29
619.31	54017.22
619.50	54205.64
619.70	53972.17
619.90	54170.82
620.09	54371.52
620.29	54551.74
620.48	54303.94
620.68	54357.19
620.88	54084.81
621.07	54179.01
621.27	54516.93
621.46	54031.56
621.66	54189.25
621.86	54213.83
622.05	54185.16
622.25	54858.94
622.44	53945.54
622.64	54228.16
622.84	54256.84
623.03	54097.09
623.23	54293.70
623.42	54097.09
623.62	54398.15
623.82	54518.98
624.01	54469.82
624.21	54473.92
624.40	54523.07
624.60	54549.70
624.80	54416.58
624.99	55063.74
625.19	54056.14
625.38	54523.07
625.58	54619.33
625.77	54832.32
625.97	54574.27
626.17	54269.12
626.36	54140.10
626.56	54643.90
626.75	54142.15
626.95	55014.58
627.14	54435.01
627.34	55260.34
627.54	54828.22
627.73	54516.93
627.93	54996.15
628.12	54465.73
628.32	54547.65
628.51	54498.50
628.71	54621.37
628.90	54811.84
629.10	54641.85
629.30	54932.67
629.49	54846.65
629.69	54832.32
629.88	54512.83
630.08	54705.34
630.27	54828.22
630.47	55188.66
630.66	54850.75
630.86	55071.93
631.05	54185.16
631.25	54918.33
631.44	55131.32
631.64	55135.41
631.84	54828.22
632.03	55237.81
632.23	54832.32
632.42	55264.44
632.62	55315.64
632.81	55022.78
633.01	55215.29
633.20	54797.50
633.40	55180.47
633.59	54926.52
633.79	54801.60
633.98	55145.65
634.18	55360.69
634.37	55604.40
634.57	55041.21
634.76	55190.71
634.96	54811.84
635.15	55119.03
635.35	54881.47
635.54	54779.07
635.74	55229.62
635.93	55194.81
636.13	55153.85
636.32	55473.33
636.52	54994.10
636.71	55282.87
636.91	54942.91
637.10	54994.10
637.30	55379.12
637.49	55286.96
637.69	55018.68
637.88	55801.00
638.08	54926.52
638.27	55405.75
638.46	55434.42
638.66	55393.46
638.85	55731.37
639.05	55448.75
639.24	55522.48
639.44	55260.34
639.63	55694.51
639.83	56044.71
640.02	55604.40
640.22	55788.72
640.41	56005.80
640.61	55311.54
640.80	55569.58
640.99	55061.69
641.19	55874.73
641.38	55506.10
641.58	55626.93
641.77	55682.22
641.97	55153.85
642.16	55571.63
642.36	55678.13
642.55	55745.71
642.74	55620.78
642.94	56415.40
643.13	55440.56
643.33	55876.78
643.52	55905.45
643.72	55667.89
643.91	55522.48
644.10	56446.11
644.30	56153.26
644.49	55983.27
644.69	55868.59
644.88	56194.21
645.08	55854.25
645.27	56167.59
645.46	55925.93
645.66	56054.95
645.85	55825.58
646.05	56140.97
646.24	56269.99
646.43	56016.04
646.63	56689.82
646.82	55960.75
647.02	56370.34
647.21	56136.87
647.40	56087.72
647.60	56280.23
647.79	56204.45
647.99	56360.10
648.18	55717.04
648.37	56954.01
648.57	56095.91
648.76	56044.71
648.96	56304.80
649.15	56169.64
649.34	56331.43
649.54	56573.09
649.73	56013.99
649.92	56267.94
650.12	56538.27
650.31	56609.95
650.51	56186.02
650.70	56548.51
650.89	56216.74
651.09	57087.13
651.28	56384.68
651.47	56169.64
651.67	56394.92
651.86	56612.00
652.06	56235.17
652.25	56243.37
652.44	56341.67
652.64	56364.20
652.83	56130.73
653.02	56231.08
653.22	56155.30
653.41	56331.43
653.60	55786.67
653.80	56386.72
653.99	56433.83
654.18	56515.75
654.38	56046.76
654.57	56890.52
654.76	56050.86
654.96	56013.99
655.15	56421.54
655.34	56439.97
655.54	56343.72
655.73	56208.55
655.92	56313.00
656.12	56210.60
656.31	56112.30
656.50	56394.92
656.70	56255.65
656.89	56304.80
657.08	56968.35
657.28	56239.27
657.47	56294.56
657.66	56612.00
657.86	56536.23
658.05	56083.62
658.24	56487.07
658.43	56128.68
658.63	56323.24
658.82	56669.34
659.01	56591.52
659.21	56241.32
659.40	56642.72
659.59	56415.40
659.79	56550.56
659.98	56235.17
660.17	56409.25
660.36	56050.86
660.56	56315.04
660.75	56439.97
660.94	56448.16
661.14	56013.99
661.33	56255.65
661.52	55979.18
661.71	56296.61
661.91	56429.73
662.10	55788.72
662.29	56743.07
662.49	56335.52
662.68	56544.42
662.87	56495.27
663.06	56097.96
663.26	56278.18
663.45	56800.41
663.64	56079.53
663.83	56960.15
664.03	56802.46
664.22	56169.64
664.41	56104.10
664.60	55895.21
664.80	56468.64
664.99	55940.27
665.18	56358.05
665.37	55909.55
665.57	56659.10
665.76	56243.37
665.95	56073.38
666.14	56280.23
666.34	55975.08
666.53	56296.61
666.72	56288.42
666.91	56190.12
667.11	55989.42
667.30	56300.71
667.49	56036.52
667.68	56038.57
667.87	55932.07
668.07	56243.37
668.26	56237.22
668.45	55968.94
668.64	55874.73
668.84	56755.36
669.03	56286.37
669.22	56302.76
669.41	55686.32
669.60	56165.54
669.80	55993.51
669.99	56224.93
670.18	55786.67
670.37	55702.70
670.57	55852.20
670.76	55653.55
670.95	56128.68
671.14	55991.47
671.33	56145.06
671.53	56435.87
671.72	56151.21
671.91	56005.80
672.10	55454.90
672.29	55821.48
672.48	55641.26
672.68	56220.84
672.87	55901.36
673.06	55897.26
673.25	55534.77
673.44	55553.20
673.64	55467.19
673.83	55579.82
674.02	55899.31
674.21	55456.95
674.40	55532.72
674.59	55559.34
674.79	55790.76
674.98	55135.41
675.17	55946.41
675.36	55215.29
675.55	56034.47
675.74	55452.85
675.94	55848.11
676.13	55211.19
676.32	55428.27
676.51	55620.78
676.70	55837.87
676.89	55596.21
677.08	55616.69
677.28	55346.36
677.47	55448.75
677.66	55680.17
677.85	55661.74
678.04	55602.35
678.23	55719.09
678.42	55942.31
678.62	55440.56
678.81	55897.26
679.00	55190.71
679.19	55919.79
679.38	55252.15
679.57	55401.65
679.76	55139.51
679.96	55542.96
680.15	55354.55
680.34	55555.25
680.53	55184.57
680.72	55166.13
680.91	55590.06
681.10	55252.15
681.29	55522.48
681.48	55301.30
681.68	55428.27
681.87	55321.78
682.06	55319.73
682.25	55147.70
682.44	55014.58
682.63	55538.86
682.82	55071.93
683.01	54797.50
683.20	54928.57
683.39	55055.54
683.59	54828.22
683.78	54885.56
683.97	54889.66
684.16	55182.52
684.35	54826.17
684.54	54768.83
684.73	55002.30
684.92	54394.05
685.11	54658.24
685.30	54852.80
685.49	54981.82
685.69	54506.69
685.88	55174.33
686.07	54619.33
686.26	54850.75
686.45	55329.97
686.64	54656.19
686.83	54586.56
687.02	54785.21
687.21	54633.66
687.40	54760.64
687.59	54623.42
687.78	54412.48
687.97	54934.71
688.16	54617.28
688.35	54555.84
688.54	54443.20
688.74	54432.96
688.93	54672.57
689.12	54385.86
689.31	54744.25
689.50	54615.23
689.69	54564.03
689.88	54019.27
690.07	54906.04
690.26	54082.76
690.45	54514.88
690.64	54414.53
690.83	54160.58
691.02	54117.57
691.21	54586.56
691.40	54287.56
691.59	54836.41
691.78	54461.63
691.97	54508.74
692.16	54107.33
692.35	54480.06
692.54	54555.84
692.73	54234.31
692.92	54330.56
693.11	54144.20
693.30	54164.68
693.49	54312.13
693.68	54568.13
693.87	53810.38
694.06	54072.52
694.25	54248.64
694.44	53963.98
694.63	53697.74
694.82	54355.14
695.01	54342.85
695.20	54117.57
695.39	54049.99
695.58	54113.48
695.77	53814.47
695.96	54019.27
696.15	54152.39
696.34	53816.52
696.53	54363.33
696.72	53923.02
696.91	54121.67
697.10	53867.72
697.29	53456.08
697.48	54295.75
697.67	53703.88
697.86	53646.54
698.05	53701.84
698.24	53916.87
698.43	53531.86
698.62	53720.27
698.81	53535.95
699.00	53675.21
699.19	53320.91
699.38	53742.80
699.57	53099.73
699.76	53929.16
699.95	53544.14
700.14	53189.84
700.32	53581.01
700.51	53157.08
700.70	53994.70
700.89	53912.78
701.08	53779.66
701.27	53335.25
701.46	53245.14
701.65	52864.22
701.84	53239.00
702.03	53519.57
702.22	53085.40
702.41	53265.62
702.60	53464.27
702.79	53425.36
702.98	53056.73
703.17	53345.49
703.35	53042.39
703.54	53286.10
703.73	53824.71
703.92	53449.94
704.11	53032.15
704.30	53066.97
704.49	52974.81
704.68	52950.23
704.87	53327.06
705.06	53032.15
705.25	52853.98
705.43	53316.82
705.62	53363.92
705.81	53093.59
706.00	53056.73
706.19	52407.52
706.38	52974.81
706.57	52890.84
706.76	52909.27
706.95	52759.77
707.14	53140.69
707.32	52483.30
707.51	52282.59
707.70	52985.05
707.89	52378.85
708.08	52153.57
708.27	52649.18
708.46	52827.35
708.65	52483.30
708.84	52892.89
709.02	53009.62
709.21	52978.90
709.40	52423.90
709.59	52720.86
709.78	52391.14
709.97	52882.65
710.16	52810.97
710.34	52557.02
710.53	52475.10
710.72	52462.82
710.91	52526.30
711.10	52442.34
711.29	52794.59
711.48	51993.83
711.66	52311.27
711.85	51954.92
712.04	52362.46
712.23	52061.41
712.42	52065.51
712.61	51954.92
712.80	52045.03
712.98	52491.49
713.17	51637.48
713.36	52327.65
713.55	52188.39
713.74	51993.83
713.93	51913.96
714.11	51895.53
714.30	51576.04
714.49	51418.35
714.68	51883.24
714.87	51877.10
715.06	52081.89
715.24	51660.01
715.43	51594.48
715.62	51825.90
715.81	51332.34
716.00	51997.93
716.18	51584.24
716.37	51320.05
716.56	51530.99
716.75	51682.54
716.94	51885.29
717.12	51299.57
717.31	51694.83
717.50	51438.83
717.69	51600.62
717.88	51324.14
718.06	51533.04
718.25	51741.93
718.44	51129.59
718.63	51463.41
718.82	51088.63
719.00	51432.69
719.19	50773.24
719.38	51444.98
719.57	50824.44
719.76	50670.84
719.94	50822.39
720.13	51156.21
720.32	50681.08
720.51	50615.55
720.69	50472.19
720.88	50541.82
721.07	50832.63
721.26	50181.38
721.44	50468.09
721.63	50279.68
721.82	50271.49
722.01	50158.85
722.20	50371.84
722.38	49904.90
722.57	49458.45
722.76	50392.32
722.95	50167.04
723.13	50033.92
723.32	50064.64
723.51	49599.76
723.70	49558.80
723.88	49855.75
724.07	49546.51
724.26	49700.11
724.44	49065.24
724.63	49513.74
724.82	49341.71
725.01	49354.00
725.19	49231.12
725.38	49644.81
725.57	49648.91
725.76	49523.98
725.94	49650.95
726.13	49280.27
726.32	49106.19
726.51	49315.09
726.69	49573.13
726.88	49577.23
727.07	49104.15
727.25	49476.88
727.44	49382.67
727.63	49110.29
727.82	49282.32
728.00	49132.82
728.19	49038.61
728.38	49521.93
728.56	48803.10
728.75	49444.11
728.94	48909.59
729.12	49028.37
729.31	48741.66
729.50	49018.13
729.69	48944.41
729.87	48696.60
730.06	49104.15
730.25	49048.85
730.43	49151.25
730.62	48301.34
730.81	49165.59
730.99	48930.07
731.18	48887.06
731.37	49851.66
731.55	49511.69
731.74	49329.42
731.93	49206.55
732.11	48940.31
732.30	48856.34
732.49	48610.59
732.67	48772.38
732.86	49018.13
733.05	49206.55
733.23	48426.27
733.42	48776.47
733.61	48891.16
733.79	48848.15
733.98	48940.31
734.17	49063.19
734.35	48377.12
734.54	48631.07
734.73	48700.70
734.91	48561.44
735.10	48430.36
735.29	48502.04
735.47	48108.83
735.66	48332.06
735.84	48248.10
736.03	48479.52
736.22	48645.40
736.40	48041.25
736.59	48338.21
736.78	48526.62
736.96	48387.36
737.15	48110.88
737.33	48669.98
737.52	48325.92
737.71	48211.23
737.89	48198.94
738.08	47770.92
738.27	48127.27
738.45	48635.16
738.64	47961.38
738.82	48080.16
739.01	47789.35
739.20	48039.20
739.38	47971.62
739.57	47945.00
739.75	48033.06
739.94	47543.59
740.13	47805.73
740.31	48119.07
740.50	47433.00
740.68	47830.31
740.87	48121.12
741.06	47811.88
741.24	47416.62
741.43	47756.58
741.61	47818.02
741.80	47523.11
741.99	47310.13
742.17	47635.75
742.36	47342.89
742.54	47678.76
742.73	47617.32
742.91	47412.52
743.10	46699.83
743.29	47551.79
743.47	47521.07
743.66	47289.65
743.84	47449.39
744.03	47199.54
744.21	46964.02
744.40	47390.00
744.59	46828.85
744.77	47043.89
744.96	46703.93
745.14	46794.04
745.33	46822.71
745.51	46753.08
745.70	47213.87
745.88	46607.67
746.07	46691.64
746.26	46615.86
746.44	46456.12
746.63	46679.35
746.81	46791.99
747.00	46361.92
747.18	46437.69
747.37	46433.60
747.55	46218.56
747.74	46630.20
747.92	46114.11
748.11	46298.43
748.29	46185.79
748.48	46462.27
748.66	45931.84
748.85	46015.81
749.03	46390.59
749.22	46435.64
749.41	45827.40
749.59	46112.06
749.78	45798.73
749.96	45593.93
750.15	45757.77
750.33	46087.49
750.52	45993.28
750.70	45643.08
750.89	45925.70
751.07	45600.07
751.26	45557.06
751.44	45444.43
751.63	45608.26
751.81	45540.68
752.00	45296.97
752.18	45536.59
752.37	45768.01
752.55	45344.08
752.74	45126.99
752.92	45266.25
753.10	45055.31
753.29	45139.28
753.47	45512.01
753.66	45219.15
753.84	45077.84
754.03	45213.01
754.21	44729.69
754.40	45495.63
754.58	44983.63
754.77	44848.47
754.95	45112.66
755.14	44576.09
755.32	44879.19
755.51	44383.58
755.69	44631.38
755.88	44580.18
756.06	44586.33
756.24	44395.87
756.43	44807.51
756.61	44602.71
756.80	44094.82
756.98	43840.87
757.17	44291.42
757.35	44213.60
757.54	44166.49
757.72	44395.87
757.90	43922.79
758.09	43885.92
758.27	43787.62
758.46	43744.61
758.64	43642.21
758.83	44223.84
759.01	43777.38
759.19	43890.02
759.38	43742.56
759.56	44006.75
759.75	43390.31
759.93	43566.44
760.12	43494.76
760.30	43638.12
760.48	43400.55
760.67	43171.18
760.85	43572.58
761.04	43402.60
761.22	43742.56
761.40	43715.94
761.59	43498.86
761.77	43388.27
761.96	43369.83
762.14	43177.33
762.32	42962.29
762.51	42806.64
762.69	42763.64
762.88	42618.23
763.06	43068.78
763.24	43093.36
763.43	43070.83
763.61	42710.39
763.80	42747.25
763.98	42599.80
764.16	42272.12
764.35	42302.84
764.53	41620.87
764.72	42841.46
764.90	42259.84
765.08	42327.42
765.27	42284.41
765.45	41899.39
765.63	41901.44
765.82	42235.26
766.00	41835.91
766.18	41934.21
766.37	41979.26
766.55	41710.98
766.74	41819.52
766.92	41557.38
767.10	41690.50
767.29	41366.92
767.47	41751.94
767.65	41737.60
767.84	41434.50
768.02	41381.26
768.20	41571.72
768.39	42026.37
768.57	41276.81
768.75	41358.73
768.94	41645.44
769.12	41747.84
769.30	41041.29
769.49	40793.49
769.67	41213.32
769.85	40918.42
770.04	40854.93
770.22	40990.09
770.40	40580.50
770.59	40887.70
770.77	41014.67
770.95	41231.75
771.14	40648.08
771.32	40228.25
771.50	40328.60
771.69	40725.91
771.87	40887.70
772.05	40535.45
772.24	39779.74
772.42	40164.76
772.60	40484.25
772.78	40076.70
772.97	39876.00
773.15	40699.28
773.33	40273.31
773.52	40095.13
773.70	40326.55
773.88	40039.84
774.07	40197.53
774.25	40433.05
774.43	39972.25
774.61	40365.46
774.80	40097.18
774.98	40367.51
775.16	40564.12
775.34	40127.90
775.53	39951.77
775.71	40209.82
775.89	40250.78
776.08	40193.43
776.26	40215.96
776.44	40033.69
776.62	40117.66
776.81	39898.53
776.99	40418.71
777.17	40091.04
777.35	40361.37
777.54	40672.66
777.72	40009.12
777.90	40072.60
778.08	40457.62
778.27	40301.98
778.45	40742.29
778.63	40848.78
778.81	40058.27
779.00	40621.46
779.18	40379.80
779.36	40826.26
779.54	40293.79
779.73	40412.57
779.91	41006.48
780.09	40990.09
780.27	40449.43
780.46	40543.64
780.64	40707.47
780.82	40541.59
781.00	40385.94
781.19	40654.23
781.37	40949.14
781.55	40758.67
781.73	40908.18
781.91	40379.80
782.10	40883.60
782.28	40969.61
782.46	41063.82
782.64	40879.50
782.82	40293.79
783.01	40938.90
783.19	40996.24
783.37	40981.90
783.55	40543.64
783.74	40965.52
783.92	40861.07
784.10	41201.04
784.28	41108.88
784.46	40725.91
784.64	40762.77
784.83	40539.54
785.01	40775.06
785.19	40744.34
785.37	40773.01
785.55	40723.86
785.74	40463.77
785.92	40662.42
786.10	40625.56
786.28	40770.96
786.46	40369.56
786.64	40549.78
786.83	40281.50
787.01	40377.75
787.19	40643.99
787.37	40654.23
787.55	40537.49
787.74	40220.06
787.92	40367.51
788.10	40310.17
788.28	40252.83
788.46	40392.09
788.64	39873.95
788.82	40560.02
789.01	40258.97
789.19	39992.73
789.37	39974.30
789.55	39665.06
789.73	39810.46
789.91	39699.87
790.09	39867.81
790.28	39695.78
790.46	39415.21
790.64	39566.76
790.82	39900.58
791.00	39210.41
791.18	39200.17
791.36	39529.89
791.55	39136.68
791.73	39116.20
791.91	38755.76
792.09	39165.35
792.27	38983.09
792.45	38892.97
792.63	39065.00
792.81	39155.11
793.00	39148.97
793.18	38739.38
793.36	38667.70
793.54	38786.48
793.72	38628.79
793.90	38423.99
794.08	38352.31
794.26	38561.20
794.44	38069.69
794.62	38004.16
794.81	38303.16
794.99	38219.19
795.17	37739.97
795.35	37885.37
795.53	38163.90
795.71	37828.03
795.89	37492.16
796.07	37357.00
796.25	37352.90
796.43	37647.81
796.61	37565.89
796.80	37309.89
796.98	37619.14
797.16	36969.93
797.34	37148.11
797.52	37066.19
797.70	36900.30
797.88	37107.15
798.06	36597.20
798.24	36629.97
798.42	36709.84
798.60	36797.90
798.78	36242.90
798.96	36492.76
799.14	36290.01
799.32	36322.77
799.51	36363.73
799.69	36429.27
799.87	36271.57
800.05	35804.64
800.23	36259.29
800.41	35743.20
800.59	35911.13
800.77	35505.63
800.95	35431.91
801.13	35538.40
801.31	35495.39
801.49	35349.99
801.67	35268.07
801.85	35374.56
802.03	35345.89
802.21	34954.73
802.39	34774.51
802.57	35261.93
802.75	35020.27
802.93	35059.18
803.11	34592.24
803.29	34471.41
803.47	34567.66
803.65	34749.93
803.83	34500.08
804.01	34838.00
804.19	34143.74
804.37	34270.71
804.55	34364.92
804.73	34108.92
804.91	33938.94
805.09	34276.85
805.27	34108.92
805.45	34131.45
805.63	33869.31
805.81	33656.32
805.99	34133.50
806.17	33588.74
806.35	33410.56
806.53	33418.75
806.71	33689.09
806.89	33574.40
807.07	33336.84
807.25	33357.32
807.43	33248.77
807.61	33486.34
807.79	33185.29
807.97	33086.98
808.15	33119.75
808.33	32757.26
808.51	32751.12
808.69	33125.89
808.87	32585.23
809.05	32523.79
809.23	32314.90
809.41	32529.94
809.59	32407.06
809.77	32517.65
809.95	32525.84
810.13	32079.38
810.31	32298.52
810.49	32169.49
810.67	32163.35
810.84	32097.81
811.02	32007.70
811.20	32054.81
811.38	31802.91
811.56	31946.26
811.74	31782.43
811.92	31630.88
812.10	31829.53
812.28	31680.03
812.46	31747.61
812.64	31538.72
812.82	31239.72
813.00	31669.79
813.18	31665.69
813.36	31573.53
813.53	31348.26
813.71	31315.49
813.89	31327.78
814.07	31233.57
814.25	31450.66
814.43	31034.92
814.61	30877.22
814.79	30924.33
814.97	31022.63
815.15	31403.55
815.33	30885.42
815.50	30742.06
815.68	30891.56
815.86	31047.21
816.04	30668.33
816.22	30502.45
816.40	30527.02
816.58	30547.50
816.76	30508.59
816.94	29996.60
817.11	30219.83
817.29	30266.93
817.47	30185.01
817.65	30088.76
817.83	30070.33
818.01	29607.48
818.19	29607.48
818.37	29824.57
818.54	29492.80
818.72	29527.61
818.90	30170.68
819.08	29994.55
819.26	29910.58
819.44	29476.41
819.62	29902.39
819.80	29810.23
819.97	29660.73
820.15	29705.79
820.33	29498.94
820.51	29836.86
820.69	29300.29
820.87	29685.31
821.05	29787.71
821.22	29445.69
821.40	29267.52
821.58	29171.27
821.76	29072.96
821.94	28948.04
822.12	28902.98
822.29	29236.80
822.47	28821.06
822.65	29187.65
822.83	28970.57
823.01	29023.81
823.19	28665.42
823.36	28788.30
823.54	28698.19
823.72	29054.53
823.90	28636.75
824.08	28401.23
824.25	28323.41
824.43	28161.62
824.61	28231.25
824.79	28401.23
824.97	28358.22
825.15	28612.17
825.32	28393.04
825.50	28094.04
825.68	28208.72
825.86	28612.17
826.04	28108.37
826.21	28352.08
826.39	28180.05
826.57	28063.32
826.75	27778.65
826.93	27881.05
827.10	28202.58
827.28	28085.84
827.46	28163.67
827.64	27917.91
827.81	27661.91
827.99	27944.53
828.17	27696.73
828.35	27334.24
828.53	27463.26
828.70	27706.97
828.88	27760.22
829.06	27475.55
829.24	27719.26
829.41	27485.79
829.59	27876.95
829.77	27354.72
829.95	27111.01
830.12	27276.90
830.30	27270.75
830.48	27377.25
830.66	27201.12
830.84	27235.94
831.01	26941.03
831.19	27221.60
831.37	27082.34
831.55	27115.11
831.72	26977.89
831.90	26863.21
832.08	27092.58
832.25	26832.49
832.43	26723.94
832.61	27031.14
832.79	26666.60
832.96	26842.73
833.14	27145.83
833.32	27010.66
833.50	26838.63
833.67	26885.73
833.85	26934.88
834.03	26521.20
834.20	26607.21
834.38	26740.33
834.56	26715.75
834.74	26521.20
834.91	26263.15
835.09	26533.48
835.27	26386.03
835.44	26455.66
835.62	26181.23
835.80	26234.48
835.98	26283.63
836.15	26127.99
836.33	26340.97
836.51	26340.97
836.68	26068.59
836.86	26338.93
837.04	26193.52
837.21	25759.35
837.39	25921.14
837.57	26248.82
837.75	25998.96
837.92	25861.75
838.10	25540.22
838.28	25435.77
838.45	25753.21
838.63	25568.89
838.81	25777.78
838.98	25548.41
839.16	25441.92
839.34	25552.51
839.51	25654.90
839.69	25337.47
839.87	25497.21
840.04	25374.33
840.22	25659.00
840.40	25536.12
840.57	25163.39
840.75	25609.85
840.93	25249.41
841.10	25124.48
841.28	25607.80
841.46	25310.85
841.63	25321.09
841.81	25165.44
841.98	25122.43
842.16	25046.66
842.34	25177.73
842.51	25108.10
842.69	25101.95
842.87	24993.41
843.04	25097.86
843.22	24542.86
843.40	24915.59
843.57	24802.95
843.75	25161.34
843.92	24870.53
844.10	24852.10
844.28	24532.62
844.45	24745.61
844.63	24837.76
844.81	24387.21
844.98	24934.02
845.16	24729.22
845.33	24428.17
845.51	24604.30
845.69	24471.18
845.86	24481.42
846.04	24606.34
846.21	24280.72
846.39	24426.12
846.57	24311.44
846.74	24538.76
846.92	24295.05
847.09	24309.39
847.27	24047.25
847.45	24225.42
847.62	24135.31
847.80	24301.20
847.97	24200.85
848.15	24028.82
848.32	23938.71
848.50	23889.56
848.68	23864.98
848.85	23918.23
849.03	23774.87
849.20	23957.14
849.38	23750.29
849.56	23731.86
849.73	23637.66
849.91	23946.90
850.08	23883.41
850.26	23600.79
850.43	23686.81
850.61	23490.20
850.78	23289.50
850.96	23551.64
851.14	23363.23
851.31	23631.51
851.49	23625.37
851.66	23666.33
851.84	23559.83
852.01	23611.03
852.19	23328.41
852.36	23490.20
852.54	23416.47
852.71	23453.34
852.89	23092.90
853.07	23283.36
853.24	23252.64
853.42	22748.84
853.59	23037.60
853.77	23180.96
853.94	22927.01
854.12	23176.86
854.29	22773.41
854.47	23144.09
854.64	22908.58
854.82	23142.05
854.99	23068.32
855.17	23029.41
855.34	22697.64
855.52	23021.22
855.69	22949.54
855.87	22308.52
856.04	22300.33
856.22	22415.02
856.39	22388.39
856.57	22646.44
856.74	22509.22
856.92	22808.23
857.09	22357.67
857.27	22589.10
857.44	22511.27
857.62	22476.46
857.79	22386.35
857.97	22521.51
858.14	22404.78
858.32	22339.24
858.49	22224.56
858.67	22326.96
858.84	22011.57
859.02	22218.41
859.19	21984.94
859.37	22034.10
859.54	21980.85
859.72	22122.16
859.89	22064.82
860.06	22019.76
860.24	21694.13
860.41	21980.85
860.59	21649.08
860.76	22118.06
860.94	21552.82
861.11	21698.23
861.29	21890.74
861.46	21720.76
861.64	21573.30
861.81	21550.78
861.98	21630.65
862.16	21448.38
862.33	21257.92
862.51	21290.68
862.68	21587.64
862.86	21544.63
863.03	21405.37
863.21	21219.00
863.38	21497.53
863.55	21194.43
863.73	21339.83
863.90	21425.85
864.08	21276.35
864.25	21413.56
864.43	21038.78
864.60	21278.40
864.77	21001.92
864.95	21057.21
865.12	20872.90
865.30	21204.67
865.47	20717.25
865.64	20803.27
865.82	21137.09
865.99	20876.99
866.17	20963.01
866.34	20813.51
866.51	20686.53
866.69	20960.96
866.86	20729.54
867.04	20827.84
867.21	20930.24
867.38	20922.05
867.56	20487.88
867.73	20616.90
867.91	20563.65
868.08	20494.02
868.25	20133.58
868.43	20287.18
868.60	20446.92
868.78	20229.84
868.95	20698.82
869.12	20139.72
869.30	20113.10
869.47	20135.63
869.64	19900.11
869.82	20143.82
869.99	19891.92
870.16	20100.81
870.34	19924.69
870.51	20518.60
870.69	19832.53
870.86	20045.52
871.03	20063.95
871.21	20025.04
871.38	20082.38
871.55	20016.85
871.73	19803.86
871.90	19611.35
872.07	19560.15
872.25	19461.85
872.42	19705.56
872.59	19511.00
872.77	19459.80
872.94	19496.66
873.11	19304.15
873.29	19488.47
873.46	19101.40
873.63	19283.67
873.81	19304.15
873.98	19080.92
874.15	19113.69
874.33	18902.75
874.50	18769.63
874.67	18876.13
874.85	19087.07
875.02	18841.31
875.19	18884.32
875.37	18798.31
875.54	18769.63
875.71	18804.45
875.88	18509.54
876.06	18732.77
876.23	18743.01
876.40	18456.29
876.58	18382.57
876.75	18532.07
876.92	18491.11
877.10	18464.49
877.27	18298.60
877.44	18188.01
877.61	18212.59
877.79	18200.30
877.96	18095.85
878.13	18011.89
878.31	17766.13
878.48	17995.50
878.65	18280.17
878.82	17637.11
879.00	17952.49
879.17	18009.84
879.34	18034.41
879.51	17770.22
879.69	17753.84
879.86	17618.68
880.03	17735.41
880.21	17667.83
880.38	17874.67
880.55	17802.99
880.72	17534.71
880.90	17323.77
881.07	17401.59
881.24	17694.45
881.41	17524.47
881.59	17637.11
881.76	17483.51
881.93	17497.84
882.10	17403.64
882.28	17235.70
882.45	17207.03
882.62	17338.10
882.79	17161.98
882.96	17258.23
883.14	17385.21
883.31	17241.85
883.48	17247.99
883.65	17125.11
883.83	17323.77
884.00	17213.18
884.17	17094.40
884.34	17217.27
884.51	16940.80
884.69	17012.48
884.86	17106.68
885.03	16942.85
885.20	16918.27
885.38	16936.70
885.55	16824.06
885.72	17086.20
885.89	16678.66
886.06	16805.63
886.24	16867.07
886.41	16611.07
886.58	16893.69
886.75	16989.95
886.92	16647.94
887.10	16852.73
887.27	16486.15
887.44	16637.70
887.61	16692.99
887.78	16711.42
887.95	16652.03
888.13	16723.71
888.30	16273.16
888.47	16264.97
888.64	16195.34
888.81	16232.20
888.99	15978.25
889.16	16068.36
889.33	16109.32
889.50	15998.73
889.67	16391.94
889.84	16101.13
890.01	16070.41
890.19	16142.09
890.36	16107.27
890.53	16049.93
890.70	16185.10
890.87	15978.25
891.04	15976.20
891.22	15877.90
891.39	15826.70
891.56	15666.96
891.73	15738.64
891.90	15482.64
892.07	15490.84
892.24	15986.44
892.42	15539.99
892.59	15568.66
892.76	15599.38
892.93	15517.46
893.10	15759.12
893.27	15548.18
893.44	15286.04
893.61	15447.83
893.79	15499.03
893.96	15527.70
894.13	15640.34
894.30	15552.27
894.47	15261.46
894.64	15503.12
894.81	15410.96
894.98	15417.11
895.15	15613.71
895.33	15550.23
895.50	15468.31
895.67	15632.15
895.84	15355.67
896.01	15191.83
896.18	15165.21
896.35	15388.44
896.52	15357.72
896.69	15343.38
896.86	15445.78
897.04	15263.51
897.21	15281.94
897.38	15327.00
897.55	15124.25
897.72	15421.20
897.89	15081.24
898.06	15355.67
898.23	15232.79
898.40	15163.16
898.57	15331.09
898.74	15068.95
898.91	15066.91
899.08	15392.53
899.26	15187.74
899.43	15292.18
899.60	14970.65
899.77	14978.84
899.94	15005.47
900.11	15046.43
900.28	15128.35
900.45	15048.47
900.62	15040.28
900.79	15314.71
900.96	15189.78
901.13	14974.75
901.30	14927.64
901.47	15382.29
901.64	15120.15
901.81	15146.78
901.98	14931.74
902.15	15097.63
902.32	14790.43
902.49	15144.73
902.66	15240.98
902.83	15030.04
903.01	15068.95
903.18	15204.12
903.35	14950.17
903.52	14964.51
903.69	14870.30
903.86	15343.38
904.03	15087.39
904.20	15341.33
904.37	15159.06
904.54	15216.41
904.71	15290.13
904.88	15097.63
905.05	14972.70
905.22	14958.36
905.39	14853.92
905.56	15007.52
905.73	14679.84
905.90	14874.40
906.07	15109.91
906.24	15066.91
906.41	14931.74
906.58	15087.39
906.75	14898.97
906.92	14798.62
907.09	14839.58
907.26	14993.18
907.43	14817.05
907.60	14901.02
907.77	15021.85
907.93	14915.36
908.10	14851.87
908.27	15136.54
908.44	15001.37
908.61	14638.88
908.78	14892.83
908.95	14804.77
909.12	15083.29
909.29	14708.51
909.46	14868.25
909.63	14661.41
909.80	14628.64
909.97	15011.61
910.14	14534.43
910.31	14823.20
910.48	14526.24
910.65	14970.65
910.82	14524.19
910.99	14554.91
911.16	14589.73
911.33	14565.15
911.50	14669.60
911.66	14477.09
911.83	14536.48
912.00	14479.14
912.17	14464.80
912.34	14501.67
912.51	14432.04
912.68	14239.53
912.85	14294.82
913.02	14464.80
913.19	14360.36
913.36	14421.80
913.53	14419.75
913.70	14200.62
913.86	14626.59
914.03	14210.86
914.20	14315.30
914.37	14360.36
914.54	14165.80
914.71	14231.33
914.88	13983.53
915.05	13936.43
915.22	14004.01
915.39	14092.07
915.55	13973.29
915.72	13813.55
915.89	13870.89
916.06	13543.22
916.23	14044.97
916.40	13702.96
916.57	13827.88
916.74	13784.88
916.91	13768.49
917.07	13692.72
917.24	13524.79
917.41	13659.95
917.58	13750.06
917.75	13666.10
917.92	13479.73
918.09	13434.68
918.26	13436.72
918.42	13389.62
918.59	13418.29
918.76	13252.41
918.93	13209.40
919.10	13121.34
919.27	13283.13
919.44	13219.64
919.60	13201.21
919.77	12932.92
919.94	12957.50
920.11	13225.78
920.28	12920.63
920.45	12881.72
920.61	12818.24
920.78	12961.59
920.95	12746.56
921.12	12773.18
921.29	12631.87
921.46	12623.68
921.62	12398.40
921.79	12627.78
921.96	12541.76
922.13	12554.05
922.30	12314.44
922.47	12267.33
922.63	12418.88
922.80	12218.18
922.97	12234.57
923.14	11939.66
923.31	12261.19
923.47	12193.61
923.64	12173.13
923.81	12011.34
923.98	12224.33
924.15	12021.58
924.32	11851.60
924.48	12037.96
924.65	11960.14
924.82	11679.57
924.99	11538.26
925.15	11532.11
925.32	11786.06
925.49	11450.19
925.66	11478.86
925.83	11583.31
925.99	11523.92
926.16	11460.43
926.33	11507.54
926.50	11237.20
926.67	11487.06
926.83	11425.62
927.00	11198.29
927.17	11130.71
927.34	11276.12
927.50	11130.71
927.67	11372.37
927.84	10981.21
928.01	11169.62
928.17	11054.94
928.34	10889.05
928.51	10698.59
928.68	10809.18
928.84	10858.33
929.01	10616.67
929.18	10557.28
929.35	10526.56
929.51	10645.34
929.68	10280.80
929.85	10309.47
930.02	10432.35
930.18	10313.57
930.35	10364.77
930.52	10366.82
930.69	10458.98
930.85	10321.76
931.02	10229.60
931.19	10112.87
931.36	10127.21
931.52	10278.76
931.69	10096.49
931.86	10094.44
932.02	9930.60
932.19	9727.85
932.36	9912.17
932.53	9834.35
932.69	9736.04
932.86	9854.83
933.03	9863.02
933.19	9631.60
933.36	9564.01
933.53	9645.93
933.70	9535.34
933.86	9461.62
934.03	9428.85
934.20	9219.96
934.36	9471.86
934.53	9338.74
934.70	8908.66
934.86	9144.18
935.03	9009.01
935.20	8949.62
935.36	9037.69
935.53	8763.26
935.70	8722.30
935.86	8726.39
936.03	8617.85
936.20	8642.43
936.36	8415.10
936.53	8497.02
936.70	8382.34
936.86	8460.16
937.03	8220.55
937.20	8140.68
937.36	7927.69
937.53	7733.13
937.70	7925.64
937.86	7632.78
938.03	7769.99
938.20	7745.42
938.36	7620.49
938.53	7589.77
938.70	7532.43
938.86	7489.42
939.03	7286.67
939.20	7135.12
939.36	7122.84
939.53	6985.62
939.70	7233.43
939.86	6866.84
940.03	6723.48
940.19	6643.61
940.36	6698.91
940.53	6725.53
940.69	6629.27
940.86	6551.45
941.03	6420.38
941.19	6365.09
941.36	6479.77
941.52	6391.71
941.69	6297.50
941.86	6123.43
942.02	6188.96
942.19	5980.07
942.35	5996.45
942.52	6047.65
942.69	5853.09
942.85	5912.49
943.02	5924.77
943.18	5687.21
943.35	5756.84
943.52	5705.64
943.68	5570.48
943.85	5660.59
944.01	5681.07
944.18	5392.30
944.35	5535.66
944.51	5468.08
944.68	5382.06
944.84	5402.54
945.01	5404.59
945.17	5375.92
945.34	5431.21
945.51	5435.31
945.67	5375.92
945.84	5302.19
946.00	5351.34
946.17	5404.59
946.33	5261.23
946.50	5392.30
946.67	5101.49
946.83	5244.85
947.00	5388.21
947.16	5205.94
947.33	5193.65
947.49	5216.18
947.66	5179.31
947.82	5242.80
947.99	5224.37
948.16	5244.85
948.32	5298.10
948.49	5232.56
948.65	5201.84
948.82	5169.07
948.98	5179.31
949.15	5140.40
949.31	5287.86
949.48	5240.75
949.64	5236.66
949.81	5162.93
949.97	5162.93
950.14	5244.85
950.30	5232.56
950.47	5334.96
950.63	5263.28
950.80	5380.01
950.96	5361.58
951.13	5398.45
951.30	5181.36
951.46	5312.43
951.63	5412.78
951.79	5406.64
951.96	5420.97
952.12	5351.34
952.29	5359.53
952.45	5136.31
952.62	5287.86
952.78	5355.44
952.94	5312.43
953.11	5324.72
953.27	5433.26
953.44	5498.80
953.60	5291.95
953.77	5463.98
953.93	5392.30
954.10	5410.73
954.26	5359.53
954.43	5291.95
954.59	5392.30
954.76	5531.56
954.92	5375.92
955.09	5382.06
955.25	5351.34
955.42	5447.60
955.58	5521.32
955.75	5492.65
955.91	5550.00
956.07	5431.21
956.24	5328.81
956.40	5492.65
956.57	5482.41
956.73	5455.79
956.90	5476.27
957.06	5646.25
957.23	5492.65
957.39	5437.36
957.56	5570.48
957.72	5402.54
957.88	5314.48
958.05	5363.63
958.21	5685.16
958.38	5463.98
958.54	5435.31
958.71	5564.33
958.87	5390.25
959.03	5449.64
959.20	5474.22
959.36	5332.91
959.53	5527.47
959.69	5468.08
959.85	5472.17
960.02	5300.14
960.18	5435.31
960.35	5369.77
960.51	5533.61
960.68	5457.84
960.84	5361.58
961.00	5343.15
961.17	5543.85
961.33	5390.25
961.50	5533.61
961.66	5506.99
961.82	5404.59
961.99	5466.03
962.15	5384.11
962.31	5359.53
962.48	5363.63
962.64	5429.17
962.81	5543.85
962.97	5476.27
963.13	5384.11
963.30	5349.29
963.46	5218.22
963.62	5394.35
963.79	5328.81
963.95	5316.53
964.12	5427.12
964.28	5400.49
964.44	5410.73
964.61	5355.44
964.77	5320.62
964.93	5527.47
965.10	5420.97
965.26	5341.10
965.42	5263.28
965.59	5326.77
965.75	5187.50
965.92	5201.84
966.08	5232.56
966.24	5285.81
966.41	5234.61
966.57	5384.11
966.73	5298.10
966.90	5414.83
967.06	5300.14
967.22	5156.79
967.39	5212.08
967.55	5296.05
967.71	5220.27
967.88	5250.99
968.04	5091.25
968.20	5259.18
968.37	5271.47
968.53	5177.26
968.69	5117.87
968.85	5171.12
969.02	5197.74
969.18	5171.12
969.34	5109.68
969.51	5197.74
969.67	5222.32
969.83	5158.83
970.00	5261.23
970.16	5113.78
970.32	5025.72
970.48	5271.47
970.65	5009.33
970.81	5103.54
970.97	5113.78
971.14	4966.32
971.30	5035.96
971.46	5160.88
971.63	4992.95
971.79	5103.54
971.95	5140.40
972.11	5033.91
972.28	5152.69
972.44	5054.39
972.60	4927.41
972.76	5015.48
972.93	4849.59
973.09	4951.99
973.25	5070.77
973.42	4945.84
973.58	5007.28
973.74	4892.60
973.90	5013.43
974.07	4827.06
974.23	4847.54
974.39	4886.45
974.55	4857.78
974.72	4878.26
974.88	4763.58
975.04	4917.17
975.20	4734.90
975.37	4814.77
975.53	4771.77
975.69	4745.14
975.85	4669.37
976.01	4833.21
976.18	4689.85
976.34	4706.23
976.50	4870.07
976.66	4718.52
976.83	4659.13
976.99	4753.34
977.15	4868.02
977.31	4591.55
977.47	4732.86
977.64	4671.42
977.80	4595.64
977.96	4677.56
978.12	4689.85
978.29	4566.97
978.45	4569.02
978.61	4515.77
978.77	4624.31
978.93	4575.16
979.10	4593.59
979.26	4626.36
979.42	4511.68
979.58	4493.24
979.74	4548.54
979.91	4581.31
980.07	4452.28
980.23	4599.74
980.39	4433.85
980.55	4575.16
980.71	4616.12
980.88	4394.94
981.04	4409.28
981.20	4306.88
981.36	4386.75
981.52	4353.98
981.68	4388.80
981.85	4503.48
982.01	4286.40
982.17	4382.65
982.33	4245.44
982.49	4409.28
982.65	4294.59
982.82	4374.46
982.98	4220.86
983.14	4310.97
983.30	4388.80
983.46	4343.74
983.62	4358.08
983.79	4138.94
983.95	4198.34
984.11	4198.34
984.27	4382.65
984.43	4245.44
984.59	4169.66
984.75	4292.54
984.91	4216.77
985.08	4218.82
985.24	4190.14
985.40	3999.68
985.56	4112.32
985.72	4149.18
985.88	4091.84
986.04	4014.02
986.20	4175.81
986.37	4124.61
986.53	4026.31
986.69	4032.45
986.85	4071.36
987.01	4032.45
987.17	4132.80
987.33	4118.47
987.49	4081.60
987.65	4177.86
987.82	3979.20
987.98	3995.59
988.14	4026.31
988.30	4022.21
988.46	3975.11
988.62	4046.79
988.78	3971.01
988.94	4011.97
989.10	4003.78
989.26	3839.94
989.42	3833.80
989.59	3862.47
989.75	3911.62
989.91	3889.09
990.07	3819.46
990.23	3809.22
990.39	3772.36
990.55	3934.15
990.71	3788.74
990.87	3864.52
991.03	3903.43
991.19	3811.27
991.35	3815.37
991.51	3829.70
991.67	3885.00
991.83	3860.42
992.00	3725.26
992.16	3751.88
992.32	3837.89
992.48	3829.70
992.64	3706.82
992.80	3805.13
992.96	3694.54
993.12	3696.58
993.28	3866.56
993.44	3690.44
993.60	3649.48
993.76	3672.01
993.92	3612.62
994.08	3684.30
994.24	3717.06
994.40	3614.66
994.56	3741.64
994.72	3616.71
994.88	3557.32
995.04	3565.51
995.20	3530.70
995.36	3551.18
995.52	3567.56
995.68	3569.61
995.84	3604.42
996.00	3698.63
996.16	3512.27
996.32	3487.69
996.48	3559.37
996.64	3553.23
996.80	3375.05
996.96	3471.31
997.12	3495.88
997.28	3454.92
997.44	3409.87
997.60	3368.91
997.76	3493.83
997.92	3348.43
998.08	3379.15
998.24	3344.33
998.40	3405.77
998.56	3477.45
998.72	3229.65
998.88	3397.58
999.04	3334.09
999.20	3407.82
999.36	3262.41
999.52	3477.45
999.68	3336.14
999.84	3307.47
1000.00	3354.57
1000.16	3375.05
1000.32	3221.45
1000.48	3436.49
1000.64	3207.12
1000.80	3147.73
1000.95	3217.36
1001.11	3336.14
1001.27	3155.92
1001.43	3211.22
1001.59	3168.21
1001.75	3078.10
1001.91	3243.98
1002.07	3192.78
1002.23	3137.49
1002.39	3194.83
1002.55	3164.11
1002.71	3194.83
1002.87	3260.37
1003.03	3162.06
1003.19	3098.58
1003.34	3291.09
1003.50	3194.83
1003.66	3153.87
1003.82	3170.26
1003.98	3035.09
1004.14	3117.01
1004.30	3088.34
1004.46	3037.14
1004.62	2961.36
1004.78	3051.47
1004.94	3028.95
1005.09	3139.54
1005.25	3092.43
1005.41	2977.75
1005.57	3043.28
1005.73	2977.75
1005.89	2975.70
1006.05	3049.43
1006.21	3030.99
1006.37	3030.99
1006.52	2936.79
1006.68	2928.60
1006.84	2990.03
1007.00	2908.12
1007.16	3037.14
1007.32	2932.69
1007.48	2944.98
1007.64	2934.74
1007.79	2938.84
1007.95	2801.62
1008.11	2832.34
1008.27	2908.12
1008.43	2936.79
1008.59	2869.20
1008.75	2879.44
1008.91	2846.68
1009.06	2883.54
1009.22	2875.35
1009.38	2850.77
1009.54	2793.43
1009.70	2772.95
1009.86	2818.00
1010.01	2983.89
1010.17	2799.57
1010.33	2805.72
1010.49	2762.71
1010.65	2854.87
1010.81	2672.60
1010.96	2848.72
1011.12	2705.37
1011.28	2627.54
1011.44	2731.99
1011.60	2703.32
1011.76	2775.00
1011.91	2760.66
1012.07	2623.45
1012.23	2590.68
1012.39	2641.88
1012.55	2666.46
1012.71	2648.02
1012.86	2711.51
1013.02	2729.94
1013.18	2684.89
1013.34	2668.50
1013.50	2633.69
1013.65	2633.69
1013.81	2555.86
1013.97	2711.51
1014.13	2654.17
1014.29	2582.49
1014.44	2719.70
1014.60	2584.54
1014.76	2605.02
1014.92	2596.82
1015.07	2574.30
1015.23	2701.27
1015.39	2461.66
1015.55	2521.05
1015.71	2639.83
1015.86	2516.95
1016.02	2508.76
1016.18	2461.66
1016.34	2533.34
1016.49	2545.63
1016.65	2641.88
1016.81	2525.15
1016.97	2502.62
1017.12	2543.58
1017.28	2523.10
1017.44	2459.61
1017.60	2447.32
1017.75	2467.80
1017.91	2562.01
1018.07	2473.95
1018.23	2416.60
1018.38	2461.66
1018.54	2412.51
1018.70	2453.47
1018.86	2369.50
1019.01	2418.65
1019.17	2410.46
1019.33	2494.43
1019.49	2447.32
1019.64	2484.19
1019.80	2455.51
1019.96	2402.27
1020.12	2392.03
1020.27	2379.74
1020.43	2408.41
1020.59	2387.93
1020.74	2465.75
1020.90	2389.98
1021.06	2385.88
1021.22	2369.50
1021.37	2301.92
1021.53	2344.92
1021.69	2449.37
1021.84	2308.06
1022.00	2330.59
1022.16	2232.29
1022.31	2322.40
1022.47	2379.74
1022.63	2338.78
1022.79	2228.19
1022.94	2279.39
1023.10	2383.84
1023.26	2318.30
1023.41	2228.19
1023.57	2385.88
1023.73	2353.12
1023.88	2396.12
1024.04	2256.86
1024.20	2232.29
1024.35	2275.29
1024.51	2273.25
1024.67	2158.56
1024.82	2260.96
1024.98	2228.19
1025.14	2203.61
1025.29	2174.94
1025.45	2263.01
1025.61	2093.02
1025.76	2201.57
1025.92	2160.61
1026.08	2238.43
1026.23	2207.71
1026.39	2275.29
1026.55	2195.42
1026.70	2136.03
1026.86	2199.52
1027.02	2240.48
1027.17	2168.80
1027.33	2174.94
1027.48	2193.37
1027.64	2076.64
1027.80	2115.55
1027.95	2211.81
1028.11	2039.78
1028.27	2140.13
1028.42	2152.42
1028.58	2133.98
1028.73	2150.37
1028.89	2058.21
1029.05	2269.15
1029.20	2209.76
>>>>>End Processed Spectral Data<<<<<
