SpectraSuite Data File
++++++++++++++++++++++++++++++++++++
Date: Fri Jun 02 14:47:59 CEST 2017
User: INFO_000
Dark Spectrum Present: No
Reference Spectrum Present: No
Number of Sampled Component Spectra: 1
Spectrometers: USB4H00879
Integration Time (usec): 80000 (USB4H00879)
Spectra Averaged: 1 (USB4H00879)
Boxcar Smoothing: 0 (USB4H00879)
Correct for Electrical Dark: No (USB4H00879)
Strobe/Lamp Enabled: No (USB4H00879)
Correct for Detector Non-linearity: No (USB4H00879)
Correct for Stray Light: No (USB4H00879)
Number of Pixels in Processed Spectrum: 3648
>>>>>Begin Processed Spectral Data<<<<<
345.13	1226.73
345.34	1226.73
345.56	1226.73
345.78	1294.32
345.99	1298.41
346.21	1740.77
346.42	1683.43
346.64	1632.23
346.86	1765.35
347.07	1673.19
347.29	1681.38
347.50	1585.13
347.72	1687.53
347.94	1748.97
348.15	1548.26
348.37	1626.09
348.59	1724.39
348.80	1642.47
349.02	1740.77
349.23	1884.13
349.45	1787.88
349.67	1896.42
349.88	1816.55
350.10	1918.95
350.31	1877.99
350.53	1847.27
350.75	1974.24
350.96	1751.01
351.18	1845.22
351.39	1820.64
351.61	1798.12
351.82	1886.18
352.04	1849.32
352.26	1908.71
352.47	1810.40
352.69	1923.04
352.90	1687.53
353.12	1857.51
353.34	1869.80
353.55	2002.91
353.77	1816.55
353.98	1732.58
354.20	1867.75
354.41	1884.13
354.63	1923.04
354.85	2050.02
355.06	1912.80
355.28	1781.73
355.49	1951.71
355.71	1855.46
355.92	1863.65
356.14	1886.18
356.35	1871.84
356.57	1855.46
356.79	1898.47
357.00	1847.27
357.22	2000.87
357.43	1826.79
357.65	1970.15
357.86	1888.23
358.08	1945.57
358.29	1978.34
358.51	1937.38
358.72	1947.62
358.94	1884.13
359.16	1935.33
359.37	1988.58
359.59	1920.99
359.80	2002.91
360.02	1927.14
360.23	1925.09
360.45	2045.92
360.66	1949.67
360.88	1867.75
361.09	1841.12
361.31	1978.34
361.52	1978.34
361.74	2041.82
361.95	2133.98
362.17	1953.76
362.38	2050.02
362.60	2060.26
362.81	1964.00
363.03	1949.67
363.24	1890.28
363.46	2097.12
363.67	1947.62
363.89	1939.43
364.10	1968.10
364.32	1959.91
364.53	2052.06
364.75	1914.85
364.96	2023.39
365.18	2031.58
365.39	1998.82
365.61	1871.84
365.82	2093.02
366.04	2068.45
366.25	1927.14
366.47	2023.39
366.68	1988.58
366.90	1964.00
367.11	2052.06
367.33	2033.63
367.54	2060.26
367.76	2031.58
367.97	2115.55
368.19	1943.52
368.40	1994.72
368.62	1910.75
368.83	1875.94
369.05	2086.88
369.26	1939.43
369.48	2009.06
369.69	2047.97
369.91	2009.06
370.12	2058.21
370.33	2160.61
370.55	1986.53
370.76	1998.82
370.98	2115.55
371.19	1990.63
371.41	2082.78
371.62	2037.73
371.84	2011.11
372.05	2133.98
372.27	2082.78
372.48	2078.69
372.69	2052.06
372.91	2142.18
373.12	2133.98
373.34	2056.16
373.55	2082.78
373.77	2152.42
373.98	2076.64
374.20	2222.05
374.41	2217.95
374.62	2045.92
374.84	2064.35
375.05	2156.51
375.27	2156.51
375.48	2197.47
375.70	2207.71
375.91	2103.26
376.12	2215.90
376.34	2275.29
376.55	2203.61
376.77	2222.05
376.98	2103.26
377.19	2105.31
377.41	2174.94
377.62	2174.94
377.84	2236.38
378.05	2371.55
378.27	2207.71
378.48	2314.20
378.69	2320.35
378.91	2312.16
379.12	2273.25
379.34	2138.08
379.55	2250.72
379.76	2232.29
379.98	2211.81
380.19	2295.77
380.41	2205.66
380.62	2344.92
380.83	2236.38
381.05	2213.85
381.26	2322.40
381.47	2187.23
381.69	2291.68
381.90	2379.74
382.12	2306.01
382.33	2265.05
382.54	2359.26
382.76	2283.49
382.97	2385.88
383.19	2277.34
383.40	2471.90
383.61	2269.15
383.83	2269.15
384.04	2240.48
384.25	2346.97
384.47	2398.17
384.68	2408.41
384.89	2277.34
385.11	2318.30
385.32	2332.64
385.54	2402.27
385.75	2363.36
385.96	2420.70
386.18	2396.12
386.39	2428.89
386.60	2389.98
386.82	2443.23
387.03	2394.08
387.24	2492.38
387.46	2412.51
387.67	2492.38
387.88	2475.99
388.10	2516.95
388.31	2559.96
388.52	2568.15
388.74	2609.11
388.95	2562.01
389.16	2478.04
389.38	2498.52
389.59	2631.64
389.80	2535.39
390.02	2541.53
390.23	2490.33
390.44	2645.98
390.66	2519.00
390.87	2508.76
391.08	2576.34
391.30	2723.80
391.51	2662.36
391.72	2617.30
391.94	2643.93
392.15	2672.60
392.36	2617.30
392.58	2613.21
392.79	2613.21
393.00	2658.26
393.22	2797.53
393.43	2785.24
393.64	2844.63
393.85	2789.33
394.07	2719.70
394.28	2764.76
394.49	2846.68
394.71	2762.71
394.92	2850.77
395.13	2664.41
395.35	2717.65
395.56	2695.13
395.77	2688.98
395.98	2867.16
396.20	2815.96
396.41	2785.24
396.62	2918.36
396.84	2760.66
397.05	2764.76
397.26	2940.88
397.47	3028.95
397.69	2764.76
397.90	3012.56
398.11	2957.27
398.32	2844.63
398.54	2865.11
398.75	2944.98
398.96	2973.65
399.18	3018.71
399.39	2934.74
399.60	2940.88
399.81	2942.93
400.03	2977.75
400.24	3147.73
400.45	3026.90
400.66	3063.76
400.88	2961.36
401.09	3098.58
401.30	3041.23
401.51	3006.42
401.73	3012.56
401.94	3125.20
402.15	3213.26
402.36	3090.38
402.58	3117.01
402.79	3053.52
403.00	3106.77
403.21	3293.13
403.43	3180.50
403.64	3270.61
403.85	3119.06
404.06	3149.78
404.27	3098.58
404.49	3198.93
404.70	3178.45
404.91	3198.93
405.12	3207.12
405.34	3221.45
405.55	3330.00
405.76	3196.88
405.97	3231.69
406.19	3289.04
406.40	3174.35
406.61	3289.04
406.82	3366.86
407.03	3350.48
407.25	3223.50
407.46	3461.07
407.67	3395.53
407.88	3389.39
408.09	3291.09
408.31	3387.34
408.52	3393.48
408.73	3332.05
408.94	3311.57
409.15	3411.92
409.37	3569.61
409.58	3622.86
409.79	3516.36
410.00	3493.83
410.21	3401.68
410.43	3467.21
410.64	3413.96
410.85	3448.78
411.06	3577.80
411.27	3588.04
411.48	3641.29
411.70	3401.68
411.91	3454.92
412.12	3604.42
412.33	3452.88
412.54	3530.70
412.76	3667.91
412.97	3700.68
413.18	3540.94
413.39	3583.95
413.60	3555.27
413.81	3770.31
414.03	3641.29
414.24	3549.13
414.45	3874.76
414.66	3547.08
414.87	3702.73
415.08	3743.69
415.30	3688.39
415.51	3710.92
415.72	3846.09
415.93	3624.90
416.14	3860.42
416.35	3790.79
416.56	3901.38
416.78	3780.55
416.99	3880.90
417.20	3825.61
417.41	3901.38
417.62	3825.61
417.83	3989.44
418.04	3868.61
418.26	3913.67
418.47	3854.28
418.68	3946.44
418.89	3921.86
419.10	3997.64
419.31	3958.72
419.52	4155.33
419.73	3952.58
419.95	4114.37
420.16	3968.96
420.37	3952.58
420.58	4059.07
420.79	4079.55
421.00	4112.32
421.21	4102.08
421.42	4030.40
421.63	4169.66
421.85	4202.43
422.06	4229.06
422.27	4253.63
422.48	4263.87
422.69	4247.49
422.90	4257.73
423.11	4255.68
423.32	4325.31
423.53	4399.04
423.75	4175.81
423.96	4460.48
424.17	4435.90
424.38	4507.58
424.59	4450.24
424.80	4540.35
425.01	4560.83
425.22	4392.89
425.43	4523.96
425.64	4573.11
425.85	4554.68
426.06	4581.31
426.28	4487.10
426.49	4399.04
426.70	4605.88
426.91	4550.59
427.12	4624.31
427.33	4675.51
427.54	4622.27
427.75	4700.09
427.96	4902.84
428.17	4790.20
428.38	4788.15
428.59	4777.91
428.80	4816.82
429.01	4712.38
429.23	4714.42
429.44	4941.75
429.65	4827.06
429.86	4972.47
430.07	4906.93
430.28	4845.49
430.49	4865.97
430.70	5119.92
430.91	5040.05
431.12	4986.80
431.33	5124.02
431.54	5189.55
431.75	5056.43
431.96	5050.29
432.17	4878.26
432.38	5095.35
432.59	5287.86
432.80	5109.68
433.01	5236.66
433.22	5382.06
433.43	5218.22
433.64	5312.43
433.85	5199.79
434.06	5373.87
434.27	5185.46
434.49	5230.51
434.70	5330.86
434.91	5322.67
435.12	5429.17
435.33	5459.88
435.54	5410.73
435.75	5162.93
435.96	5459.88
436.17	5369.77
436.38	5541.80
436.59	5619.63
436.80	5439.40
437.01	5658.54
437.22	5730.22
437.43	5525.42
437.64	5312.43
437.85	5752.74
438.06	5679.02
438.27	5570.48
438.48	5588.91
438.69	5689.26
438.90	5767.08
439.11	5568.43
439.32	5834.66
439.53	5638.06
439.74	5791.66
439.95	5935.01
440.16	5785.51
440.37	5771.18
440.57	5670.83
440.78	5685.16
440.99	5932.97
441.20	5965.73
441.41	5805.99
441.62	5982.12
441.83	5728.17
442.04	6031.27
442.25	5980.07
442.46	5935.01
442.67	6160.29
442.88	6416.29
443.09	5961.64
443.30	6008.74
443.51	6203.30
443.72	6324.13
443.93	5992.36
444.14	6354.85
444.35	6086.56
444.56	6328.22
444.77	6205.35
444.98	6309.79
445.19	6504.35
445.40	6344.61
445.61	6432.67
445.81	6533.02
446.02	6447.01
446.23	6412.19
446.44	6266.78
446.65	6481.82
446.86	6502.30
447.07	6666.14
447.28	6631.32
447.49	6573.98
447.70	6647.71
447.91	6635.42
448.12	6754.20
448.33	6864.79
448.54	6723.48
448.74	6573.98
448.95	6758.30
449.16	6741.91
449.37	7077.78
449.58	6729.63
449.79	6987.67
450.00	6645.66
450.21	6993.81
450.42	7063.44
450.63	6899.61
450.84	6920.09
451.05	7077.78
451.25	6952.85
451.46	6977.43
451.67	7270.29
451.88	7131.03
452.09	7313.30
452.30	7057.30
452.51	7163.79
452.72	7292.82
452.93	7544.72
453.13	7190.42
453.34	7210.90
453.55	7579.53
453.76	7407.50
453.97	7749.51
454.18	7540.62
454.39	7655.31
454.60	7442.32
454.81	7542.67
455.01	7708.55
455.22	7360.40
455.43	7673.74
455.64	7778.19
455.85	8066.95
456.06	8052.61
456.27	7853.96
456.48	7772.04
456.68	7919.50
456.89	8036.23
457.10	8017.80
457.31	7966.60
457.52	8071.04
457.73	8009.61
457.94	8306.56
458.14	8152.96
458.35	8400.77
458.56	8214.40
458.77	8267.65
458.98	8451.97
459.19	8202.11
459.39	8374.14
459.60	8572.80
459.81	8437.63
460.02	8701.82
460.23	8587.13
460.44	8847.22
460.65	8718.20
460.85	8753.02
461.06	8705.92
461.27	8537.98
461.48	9029.49
461.69	8931.19
461.89	8685.44
462.10	8947.58
462.31	8714.11
462.52	8841.08
462.73	9021.30
462.94	9156.47
463.14	9025.40
463.35	9000.82
463.56	9504.62
463.77	9439.09
463.98	9123.70
464.18	9279.35
464.39	9547.63
464.60	9582.45
464.81	9678.70
465.02	9561.97
465.23	9643.88
465.43	9631.60
465.64	9731.95
465.85	9600.88
466.06	9750.38
466.27	9924.46
466.47	9928.55
466.68	9934.70
466.89	9920.36
467.10	10145.64
467.30	9813.87
467.51	9981.80
467.72	10366.82
467.93	10063.72
468.14	10194.79
468.34	10286.95
468.55	10436.45
468.76	10409.83
468.97	10284.90
469.17	10737.50
469.38	10792.80
469.59	10796.89
469.80	10624.86
470.01	10751.84
470.21	10671.97
470.42	10991.45
470.63	11011.93
470.84	10766.17
471.04	11116.37
471.25	11179.86
471.46	10919.77
471.67	11341.65
471.87	11255.64
472.08	11628.37
472.29	11728.72
472.50	11306.84
472.70	11435.86
472.91	11732.81
473.12	11775.82
473.33	11982.67
473.53	12070.73
473.74	11863.88
473.95	11913.03
474.16	12070.73
474.36	12111.69
474.57	12484.42
474.78	12707.65
474.99	12291.91
475.19	12169.03
475.40	12535.62
475.61	12736.32
475.81	12644.16
476.02	12832.57
476.23	12750.65
476.44	13018.94
476.64	13080.38
476.85	13428.53
477.06	13244.21
477.27	13690.67
477.47	13598.51
477.68	13616.94
477.89	13780.78
478.09	13698.86
478.30	13604.66
478.51	13944.62
478.71	14098.22
478.92	13979.43
479.13	14182.18
479.34	14315.30
479.54	14231.33
479.75	14294.82
479.96	14339.88
480.16	14448.42
480.37	14509.86
480.58	14782.24
480.78	14866.21
480.99	14921.50
481.20	15251.22
481.41	15195.93
481.61	15396.63
481.82	15427.35
482.03	15349.53
482.23	15154.97
482.44	15845.13
482.65	15773.46
482.85	15685.39
483.06	16074.51
483.27	15871.76
483.47	15859.47
483.68	16021.26
483.89	16258.82
484.09	16137.99
484.30	16238.34
484.51	16264.97
484.71	16484.10
484.92	16613.12
485.13	16756.48
485.33	17006.33
485.54	16848.64
485.75	17112.83
485.95	17288.95
486.16	17264.38
486.37	17252.09
486.57	17532.66
486.78	17256.18
486.98	17303.29
487.19	17553.14
487.40	18003.69
487.60	17901.29
487.81	18206.44
488.02	18194.15
488.22	17983.21
488.43	18038.51
488.64	18130.67
488.84	18427.62
489.05	18681.57
489.25	18517.73
489.46	18953.95
489.67	18435.81
489.87	19123.93
490.08	19228.38
490.29	18859.74
490.49	19099.36
490.70	19402.46
490.90	19390.17
491.11	19470.04
491.32	19525.33
491.52	19637.97
491.73	19472.09
491.94	19785.43
492.14	20102.86
492.35	19947.22
492.55	20123.34
492.76	20321.99
492.97	20514.50
493.17	20422.34
493.38	20469.45
493.58	20963.01
493.79	20502.22
494.00	20793.03
494.20	20815.55
494.41	20981.44
494.61	20891.33
494.82	21450.42
495.02	21042.88
495.23	21388.99
495.44	21409.47
495.64	21659.32
495.85	21534.39
496.05	21683.89
496.26	22027.95
496.47	21890.74
496.67	21999.28
496.88	22204.08
497.08	21800.63
497.29	22353.58
497.49	21919.41
497.70	22302.38
497.91	22474.41
498.11	22875.81
498.32	22464.17
498.52	22734.50
498.73	22974.11
498.93	23004.83
499.14	22939.30
499.34	22937.25
499.55	23211.68
499.76	23152.29
499.96	23178.91
500.17	23314.08
500.37	23469.72
500.58	23549.59
500.78	23637.66
500.99	23619.22
501.19	24067.73
501.40	23656.09
501.60	23781.01
501.81	24086.16
502.02	24168.08
502.22	23709.33
502.43	24489.61
502.63	24395.40
502.84	24462.99
503.04	24170.13
503.25	24452.75
503.45	24407.69
503.66	24987.27
503.86	24860.29
504.07	24995.46
504.27	24870.53
504.48	24970.88
504.68	25132.67
504.89	25472.64
505.09	25118.34
505.30	24780.42
505.50	24927.88
505.71	25089.67
505.91	25255.55
506.12	25343.61
506.32	25190.02
506.53	25357.95
506.73	25587.32
506.94	25579.13
507.14	25665.14
507.35	25548.41
507.55	25656.95
507.76	25800.31
507.96	25771.64
508.17	25683.58
508.37	25939.57
508.58	25976.44
508.78	26013.30
508.99	26275.44
509.19	26183.28
509.40	25871.99
509.60	26297.97
509.81	26553.96
510.01	26089.07
510.22	26388.08
510.42	26062.45
510.63	26451.56
510.83	26562.15
511.04	26343.02
511.24	26627.69
511.44	26459.76
511.65	26596.97
511.85	26672.74
512.06	26629.74
512.26	26502.76
512.47	26857.06
512.67	26529.39
512.88	26777.19
513.08	26185.33
513.29	27225.70
513.49	26791.53
513.69	27229.79
513.90	26863.21
514.10	27348.57
514.31	27309.66
514.51	27436.64
514.72	27414.11
514.92	27268.70
515.13	27469.40
515.33	27600.47
515.53	27530.84
515.74	27534.94
515.94	27835.99
516.15	27483.74
516.35	27465.31
516.56	27674.20
516.76	27534.94
516.96	27676.25
517.17	27881.05
517.37	27930.20
517.58	28026.45
517.78	27924.05
517.99	28147.28
518.19	28149.33
518.39	28139.09
518.60	28417.61
518.80	28282.45
519.01	28479.05
519.21	28485.20
519.41	28163.67
519.62	28390.99
519.82	28665.42
520.03	28581.45
520.23	28542.54
520.43	28413.52
520.64	28845.64
520.84	28833.35
521.05	29007.43
521.25	28792.39
521.45	29197.89
521.66	29351.49
521.86	28937.80
522.07	29353.54
522.27	29316.67
522.47	29259.33
522.68	29656.64
522.88	29208.13
523.08	29345.34
523.29	29605.44
523.49	29650.49
523.70	29429.31
523.90	30055.99
524.10	29619.77
524.31	30066.23
524.51	29931.06
524.71	30631.47
524.92	30164.53
525.12	30178.87
525.33	30068.28
525.53	30271.03
525.73	30684.72
525.94	30772.78
526.14	30651.95
526.34	30613.04
526.55	30889.51
526.75	30772.78
526.95	31161.89
527.16	31014.44
527.36	31012.39
527.56	31200.80
527.77	31110.69
527.97	31221.28
528.17	31309.35
528.38	31428.13
528.58	31700.51
528.78	31508.00
528.99	31464.99
529.19	31809.05
529.39	31774.24
529.60	31966.74
529.80	31870.49
530.00	31794.71
530.21	32146.97
530.41	32230.93
530.61	31911.45
530.82	32470.54
531.02	31905.31
531.22	32925.19
531.43	32704.01
531.63	32937.48
531.83	33119.75
532.04	33213.96
532.24	33084.94
532.44	33408.51
532.64	33619.46
532.85	33441.28
533.05	33447.43
533.25	33400.32
533.46	33658.37
533.66	34252.28
533.86	33721.85
534.07	34293.24
534.27	34102.78
534.47	34020.86
534.67	34684.40
534.88	34113.02
535.08	34471.41
535.28	34690.54
535.49	34737.65
535.69	35134.95
535.89	35122.66
536.09	35087.85
536.30	35218.92
536.50	35261.93
536.70	35382.76
536.91	35157.48
537.11	35509.73
537.31	35759.58
537.51	35526.11
537.72	36025.82
537.92	36206.04
538.12	36109.78
538.32	35978.72
538.53	36335.06
538.73	36267.48
538.93	36509.14
539.13	36490.71
539.34	36742.61
539.54	36359.64
539.74	36802.00
539.94	36599.25
540.15	36546.00
540.35	37176.78
540.55	37289.42
540.75	37402.05
540.96	37326.28
541.16	37264.84
541.36	37342.66
541.56	37408.20
541.77	37744.06
541.97	37606.85
542.17	37860.80
542.37	38122.94
542.58	37936.57
542.78	37823.93
542.98	37846.46
543.18	38002.11
543.38	38266.30
543.59	38868.40
543.79	38532.53
543.99	38313.40
544.19	38694.32
544.40	38557.11
544.60	38776.24
544.80	38725.04
545.00	38915.50
545.20	39097.77
545.41	39245.23
545.61	38958.51
545.81	39314.86
546.01	39617.96
546.21	39691.68
546.42	39007.66
546.62	39429.54
546.82	39818.66
547.02	39726.50
547.22	40009.12
547.43	39691.68
547.63	40015.26
547.83	40007.07
548.03	39951.77
548.23	40127.90
548.44	40287.64
548.64	40351.13
548.84	40236.44
549.04	40338.84
549.24	40580.50
549.45	40961.42
549.65	40725.91
549.85	40568.21
550.05	40906.13
550.25	40752.53
550.45	40959.38
550.66	41063.82
550.86	40807.83
551.06	41252.23
551.26	41080.21
551.46	41072.01
551.66	41282.95
551.87	41074.06
552.07	41858.43
552.27	41164.17
552.47	41155.98
552.67	41600.39
552.87	41565.57
553.07	41817.47
553.28	41592.20
553.48	41758.08
553.68	41401.74
553.88	41928.06
554.08	41883.01
554.28	41762.18
554.48	41874.82
554.69	41936.26
554.89	41934.21
555.09	42292.60
555.29	41700.74
555.49	42466.68
555.69	42102.14
555.89	42304.89
556.10	42354.04
556.30	42282.36
556.50	42440.06
556.70	42378.62
556.90	42431.86
557.10	42761.59
557.30	42323.32
557.50	42896.75
557.70	42931.57
557.91	43044.21
558.11	42984.82
558.31	42993.01
558.51	42863.99
558.71	42810.74
558.91	43128.17
559.11	43074.93
559.31	43124.08
559.51	42794.36
559.72	43328.87
559.92	43361.64
560.12	42962.29
560.32	43328.87
560.52	43201.90
560.72	43345.26
560.92	43480.42
561.12	43402.60
561.32	43326.83
561.52	43361.64
561.72	43822.44
561.93	43498.86
562.13	43345.26
562.33	43265.39
562.53	43654.50
562.73	43081.07
562.93	43365.74
563.13	43431.27
563.33	43541.86
563.53	43576.68
563.73	43357.55
563.93	43859.30
564.13	43865.44
564.33	44154.21
564.53	43963.75
564.74	43824.48
564.94	43550.06
565.14	44098.91
565.34	43584.87
565.54	44215.65
565.74	44080.48
565.94	44098.91
566.14	43713.89
566.34	43773.28
566.54	44541.27
566.74	43789.67
566.94	44342.62
567.14	44270.94
567.34	43945.31
567.54	44393.82
567.74	44193.12
567.94	44121.44
568.14	44133.73
568.34	44303.71
568.54	44512.60
568.74	44643.67
568.94	44262.75
569.14	44596.57
569.34	44469.59
569.54	44506.46
569.75	44522.84
569.95	44500.31
570.15	44721.49
570.35	45069.65
570.55	45104.46
570.75	44492.12
570.95	44735.83
571.15	44975.44
571.35	44922.19
571.55	44916.05
571.75	44645.72
571.95	44827.99
572.15	44727.64
572.35	45094.22
572.55	44926.29
572.75	44615.00
572.95	44823.89
573.15	45129.04
573.35	44989.78
573.55	44750.17
573.75	44782.93
573.95	45198.67
574.15	44903.76
574.35	44924.24
574.55	45499.72
574.75	44871.00
574.95	45356.36
575.15	45309.26
575.34	45145.42
575.54	45176.14
575.74	45354.32
575.94	45598.02
576.14	45081.94
576.34	45667.66
576.54	45339.98
576.74	45270.35
576.94	45126.99
577.14	45802.82
577.34	45839.68
577.54	45280.59
577.74	45659.46
577.94	45622.60
578.14	45628.74
578.34	45657.42
578.54	45231.44
578.74	45573.45
578.94	45876.55
579.14	45464.91
579.34	45591.88
579.54	45929.80
579.74	46439.74
579.94	45753.67
580.13	46357.82
580.33	46249.28
580.53	46040.39
580.73	46460.22
580.93	46308.67
581.13	46499.13
581.33	46675.26
581.53	46574.91
581.73	46392.64
581.93	46480.70
582.13	46718.26
582.33	46593.34
582.53	46304.57
582.73	46628.15
582.92	46660.92
583.12	47072.56
583.32	46712.12
583.52	46097.73
583.72	46837.05
583.92	46773.56
584.12	46900.53
584.32	46896.44
584.52	47050.03
584.72	46884.15
584.92	47138.10
585.11	47564.07
585.31	47258.93
585.51	47404.33
585.71	47242.54
585.91	47707.43
586.11	47541.55
586.31	46996.79
586.51	47512.88
586.71	47576.36
586.91	47785.25
587.10	47496.49
587.30	47224.11
587.50	47619.37
587.70	47801.64
587.90	47981.86
588.10	48213.28
588.30	48071.97
588.50	47988.00
588.69	48207.14
588.89	47899.94
589.09	48051.49
589.29	48469.28
589.49	48297.25
589.69	47899.94
589.89	48215.33
590.08	48182.56
590.28	48225.57
590.48	48370.97
590.68	48182.56
590.88	48741.66
591.08	48244.00
591.28	48313.63
591.47	48829.72
591.67	48964.88
591.87	48543.00
592.07	48700.70
592.27	48569.63
592.47	48751.90
592.67	49331.47
592.86	49177.87
593.06	49190.16
593.26	49030.42
593.46	48948.50
593.66	49321.23
593.86	49333.52
594.05	49065.24
594.25	49528.08
594.45	49304.85
594.65	49511.69
594.85	49061.14
595.05	49464.59
595.24	49528.08
595.44	49515.79
595.64	49632.52
595.84	49747.21
596.04	49610.00
596.23	49765.64
596.43	50191.62
596.63	49829.13
596.83	50214.15
597.03	50660.60
597.22	50924.79
597.42	50435.33
597.62	50492.67
597.82	50554.11
598.02	50476.29
598.21	50255.11
598.41	50353.41
598.61	50775.29
598.81	50750.71
599.01	50969.85
599.20	50691.32
599.40	50806.01
599.60	50969.85
599.80	51193.07
600.00	50599.16
600.19	50865.40
600.39	51037.43
600.59	51408.11
600.79	51526.89
600.98	51041.53
601.18	51406.06
601.38	51657.96
601.58	51369.20
601.78	51516.65
601.97	51700.97
602.17	52106.47
602.37	51938.54
602.57	51983.59
602.76	52471.01
602.96	51791.08
603.16	52233.44
603.36	52057.32
603.55	52890.84
603.75	52526.30
603.95	52843.74
604.15	52450.53
604.34	52354.27
604.54	52577.50
604.74	52563.17
604.94	53015.77
605.13	52866.27
605.33	52452.58
605.53	52464.86
605.73	52927.70
605.92	52765.91
606.12	53124.31
606.32	53490.90
606.52	53286.10
606.71	53318.87
606.91	53431.50
607.11	53085.40
607.30	53349.59
607.50	53640.40
607.70	53425.36
607.90	53548.24
608.09	53302.48
608.29	53630.16
608.49	54068.42
608.68	53628.11
608.88	54144.20
609.08	54066.38
609.28	54322.37
609.47	53914.83
609.67	54394.05
609.87	54297.80
610.06	54523.07
610.26	54154.44
610.46	54670.53
610.66	54678.72
610.85	54357.19
611.05	54445.25
611.25	54267.08
611.44	54308.04
611.64	54469.82
611.84	53923.02
612.03	54361.28
612.23	54830.27
612.43	54703.29
612.62	54527.17
612.82	54975.67
613.02	54672.57
613.21	54858.94
613.41	54484.16
613.61	55067.83
613.80	54555.84
614.00	54641.85
614.20	54903.99
614.39	54697.15
614.59	55307.44
614.79	54736.06
614.98	54869.18
615.18	54588.61
615.38	54688.96
615.57	55067.83
615.77	55491.76
615.97	55143.61
616.16	54908.09
616.36	55444.66
616.56	55084.22
616.75	55223.48
616.95	55145.65
617.15	55100.60
617.34	55407.79
617.54	55049.40
617.74	55551.15
617.93	55561.39
618.13	55059.64
618.32	54979.77
618.52	54969.53
618.72	55612.59
618.91	55452.85
619.11	55334.07
619.31	55424.18
619.50	55231.67
619.70	55434.42
619.90	55422.13
620.09	55233.72
620.29	55162.04
620.48	55837.87
620.68	55669.93
620.88	55076.02
621.07	55033.02
621.27	55583.92
621.46	55043.26
621.66	55139.51
621.86	55184.57
622.05	54797.50
622.25	55676.08
622.44	55600.30
622.64	55145.65
622.84	55448.75
623.03	55186.61
623.23	55514.29
623.42	55317.68
623.62	55534.77
623.82	55661.74
624.01	55327.92
624.21	55686.32
624.40	55610.54
624.60	55164.09
624.80	55590.06
624.99	55121.08
625.19	55407.79
625.38	55655.60
625.58	55448.75
625.77	55057.59
625.97	55618.74
626.17	55280.82
626.36	55178.42
626.56	55383.22
626.75	55047.35
626.95	55532.72
627.14	55012.54
627.34	55760.05
627.54	55442.61
627.73	55604.40
627.93	55317.68
628.12	55020.73
628.32	55397.55
628.51	54936.76
628.71	55178.42
628.90	55571.63
629.10	54891.71
629.30	55448.75
629.49	55458.99
629.69	55432.37
629.88	55631.02
630.08	55770.28
630.27	55663.79
630.47	55303.35
630.66	55311.54
630.86	55655.60
631.05	55370.93
631.25	55940.27
631.44	55231.67
631.64	55182.52
631.84	55723.18
632.03	55964.84
632.23	55377.08
632.42	56394.92
632.62	55534.77
632.81	55227.57
633.01	55383.22
633.20	55399.60
633.40	55483.57
633.59	55352.50
633.79	55227.57
633.98	55108.79
634.18	55676.08
634.37	55598.26
634.57	55968.94
634.76	55758.00
634.96	55841.96
635.15	55334.07
635.35	54936.76
635.54	55643.31
635.74	55137.46
635.93	55424.18
636.13	55934.12
636.32	55276.72
636.52	55387.31
636.71	55461.04
636.91	55375.03
637.10	55415.99
637.30	55014.58
637.49	55159.99
637.69	55174.33
637.88	55436.47
638.08	55174.33
638.27	55706.80
638.46	55256.24
638.66	55655.60
638.85	55563.44
639.05	55792.81
639.24	55485.62
639.44	55491.76
639.63	55055.54
639.83	55659.69
640.02	55532.72
640.22	55030.97
640.41	55712.94
640.61	54785.21
640.80	55506.10
640.99	54949.05
641.19	55975.08
641.38	55358.64
641.58	54803.64
641.77	55026.87
641.97	55149.75
642.16	54940.86
642.36	55753.90
642.55	55655.60
642.74	54912.19
642.94	55321.78
643.13	55381.17
643.33	55364.79
643.52	55278.77
643.72	55276.72
643.91	55061.69
644.10	55266.48
644.30	55628.98
644.49	55375.03
644.69	55880.88
644.88	55444.66
645.08	55104.70
645.27	55616.69
645.46	54856.89
645.66	55628.98
645.85	55686.32
646.05	55444.66
646.24	55418.03
646.43	55332.02
646.63	55749.81
646.82	55962.79
647.02	55057.59
647.21	55571.63
647.40	55506.10
647.60	55850.16
647.79	55596.21
647.99	55565.49
648.18	55198.90
648.37	56057.00
648.57	56057.00
648.76	55540.91
648.96	55645.36
649.15	55530.67
649.34	55768.24
649.54	55555.25
649.73	54955.19
649.92	55743.66
650.12	55415.99
650.31	55415.99
650.51	55594.16
650.70	55710.89
650.89	55059.64
651.09	55784.62
651.28	55643.31
651.47	55395.51
651.67	55831.72
651.86	55807.15
652.06	55100.60
652.25	55745.71
652.44	55110.84
652.64	55223.48
652.83	55370.93
653.02	55262.39
653.22	55215.29
653.41	55606.45
653.60	55166.13
653.80	55385.27
653.99	55432.37
654.18	55665.84
654.38	55329.97
654.57	55624.88
654.76	55342.26
654.96	54936.76
655.15	55291.06
655.34	55649.45
655.54	55014.58
655.73	55223.48
655.92	55375.03
656.12	55532.72
656.31	55608.50
656.50	55426.23
656.70	55360.69
656.89	55547.06
657.08	55719.09
657.28	55338.16
657.47	55289.01
657.66	55901.36
657.86	54781.12
658.05	55415.99
658.24	55297.20
658.43	55063.74
658.63	55475.38
658.82	55575.73
659.01	55581.87
659.21	55661.74
659.40	55723.18
659.59	55188.66
659.79	55514.29
659.98	55268.53
660.17	55583.92
660.36	55745.71
660.56	55547.06
660.75	55485.62
660.94	55661.74
661.14	55622.83
661.33	55463.09
661.52	55194.81
661.71	55659.69
661.91	54824.12
662.10	55434.42
662.29	55960.75
662.49	55923.88
662.68	55143.61
662.87	55327.92
663.06	55702.70
663.26	54641.85
663.45	55555.25
663.64	55317.68
663.83	55903.40
664.03	55848.11
664.22	55483.57
664.41	55481.52
664.60	55512.24
664.80	55487.67
664.99	54789.31
665.18	55405.75
665.37	55135.41
665.57	55270.58
665.76	55342.26
665.95	55022.78
666.14	55491.76
666.34	55174.33
666.53	55383.22
666.72	55487.67
666.91	55262.39
667.11	55463.09
667.30	55299.25
667.49	55438.51
667.68	55291.06
667.87	55149.75
668.07	55594.16
668.26	55246.00
668.45	55561.39
668.64	54793.40
668.84	55958.70
669.03	55954.60
669.22	55512.24
669.41	55805.10
669.60	55233.72
669.80	55301.30
669.99	55415.99
670.18	55489.71
670.37	55411.89
670.57	55575.73
670.76	55229.62
670.95	55272.63
671.14	55358.64
671.33	55004.34
671.53	55526.58
671.72	55383.22
671.91	55448.75
672.10	55262.39
672.29	55368.88
672.48	55114.94
672.68	55745.71
672.87	55033.02
673.06	55260.34
673.25	54963.39
673.44	55403.70
673.64	55207.09
673.83	55803.05
674.02	55397.55
674.21	55260.34
674.40	55334.07
674.59	55338.16
674.79	55254.20
674.98	55239.86
675.17	55702.70
675.36	55241.91
675.55	55489.71
675.74	55473.33
675.94	55223.48
676.13	55342.26
676.32	55383.22
676.51	55688.37
676.70	55671.98
676.89	55418.03
677.08	55704.75
677.28	55547.06
677.47	55723.18
677.66	55385.27
677.85	55813.29
678.04	55219.38
678.23	55571.63
678.42	55426.23
678.62	55866.54
678.81	55686.32
679.00	55694.51
679.19	55813.29
679.38	55704.75
679.57	55545.01
679.76	55606.45
679.96	55532.72
680.15	55415.99
680.34	55803.05
680.53	55266.48
680.72	55594.16
680.91	55631.02
681.10	55166.13
681.29	55934.12
681.48	55661.74
681.68	55493.81
681.87	55545.01
682.06	55628.98
682.25	55176.37
682.44	55170.23
682.63	55680.17
682.82	55428.27
683.01	55129.27
683.20	55518.38
683.39	55604.40
683.59	55473.33
683.78	55022.78
683.97	55239.86
684.16	55540.91
684.35	55307.44
684.54	55252.15
684.73	55162.04
684.92	55293.11
685.11	55604.40
685.30	55157.94
685.49	55448.75
685.69	55647.41
685.88	55352.50
686.07	55428.27
686.26	55274.68
686.45	55387.31
686.64	55303.35
686.83	55563.44
687.02	55188.66
687.21	55252.15
687.40	55450.80
687.59	55434.42
687.78	55434.42
687.97	55434.42
688.16	55467.19
688.35	55512.24
688.54	55372.98
688.74	55205.05
688.93	55168.18
689.12	54979.77
689.31	55246.00
689.50	55934.12
689.69	55108.79
689.88	55241.91
690.07	55383.22
690.26	55022.78
690.45	55590.06
690.64	55035.06
690.83	55577.78
691.02	55114.94
691.21	55131.32
691.40	55010.49
691.59	55153.85
691.78	54863.03
691.97	55170.23
692.16	55647.41
692.35	55897.26
692.54	55403.70
692.73	55178.42
692.92	55495.86
693.11	55088.31
693.30	55350.45
693.49	55491.76
693.68	55352.50
693.87	55135.41
694.06	54897.85
694.25	55000.25
694.44	55295.16
694.63	55319.73
694.82	55080.12
695.01	54975.67
695.20	55211.19
695.39	54965.43
695.58	55168.18
695.77	54639.81
695.96	54662.33
696.15	55319.73
696.34	54594.75
696.53	54990.01
696.72	55125.17
696.91	54990.01
697.10	54746.30
697.29	54734.01
697.48	55377.08
697.67	54611.13
697.86	54222.02
698.05	54629.57
698.24	54951.10
698.43	54772.92
698.62	55225.53
698.81	54428.87
699.00	54992.06
699.19	54549.70
699.38	55078.07
699.57	54344.90
699.76	55028.92
699.95	54373.57
700.14	54119.62
700.32	54392.00
700.51	54387.91
700.70	54707.39
700.89	54613.18
701.08	54279.36
701.27	54326.47
701.46	54691.01
701.65	54080.71
701.84	54521.02
702.03	54922.43
702.22	54234.31
702.41	54088.90
702.60	54262.98
702.79	54500.54
702.98	53630.16
703.17	54320.32
703.35	53908.68
703.54	54109.38
703.73	54459.58
703.92	54639.81
704.11	54543.55
704.30	53859.53
704.49	54209.73
704.68	53896.39
704.87	54219.97
705.06	54138.05
705.25	53800.14
705.43	54172.87
705.62	54527.17
705.81	54316.23
706.00	54330.56
706.19	53470.42
706.38	53284.05
706.57	54367.43
706.76	53861.58
706.95	53896.39
707.14	53744.84
707.32	53902.54
707.51	53388.50
707.70	53787.85
707.89	53707.98
708.08	53677.26
708.27	53589.20
708.46	54029.51
708.65	53818.57
708.84	54197.44
709.02	53920.97
709.21	53736.65
709.40	53609.68
709.59	53677.26
709.78	53404.88
709.97	53597.39
710.16	53605.58
710.34	53554.38
710.53	53419.22
710.72	53365.97
710.91	52886.74
711.10	53544.14
711.29	53773.52
711.48	53159.12
711.66	53501.14
711.85	53107.93
712.04	53286.10
712.23	53030.10
712.42	52755.68
712.61	53204.18
712.80	53019.86
712.98	53359.83
713.17	52714.72
713.36	52843.74
713.55	53386.45
713.74	52833.50
713.93	52896.98
714.11	52845.79
714.30	52421.86
714.49	52788.44
714.68	52958.42
714.87	52702.43
715.06	52663.52
715.24	52352.23
715.43	52581.60
715.62	52462.82
715.81	52272.35
716.00	52358.37
716.18	52491.49
716.37	52069.61
716.56	51809.51
716.75	52600.03
716.94	52280.55
717.12	51973.35
717.31	52454.62
717.50	51969.26
717.69	52049.13
717.88	52452.58
718.06	52231.40
718.25	52077.80
718.44	51361.01
718.63	51637.48
718.82	51311.86
719.00	51748.07
719.19	51836.14
719.38	51430.64
719.57	51412.21
719.76	51211.51
719.94	50992.37
720.13	51295.47
720.32	51420.40
720.51	51234.03
720.69	51047.67
720.88	51096.82
721.07	51305.71
721.26	50599.16
721.44	50642.17
721.63	50437.37
721.82	50611.45
722.01	50789.62
722.20	50646.27
722.38	50513.15
722.57	49804.55
722.76	50472.19
722.95	50689.27
723.13	49792.26
723.32	50232.58
723.51	50107.65
723.70	49755.40
723.88	49810.70
724.07	49775.88
724.26	50111.75
724.44	49601.80
724.63	50138.37
724.82	49825.03
725.01	49581.32
725.19	49911.05
725.38	49749.26
725.57	49624.33
725.76	49657.10
725.94	49126.67
726.13	49769.74
726.32	49210.64
726.51	49313.04
726.69	49980.68
726.88	49450.25
727.07	49665.29
727.25	49263.89
727.44	49341.71
727.63	49327.38
727.82	49177.87
728.00	49241.36
728.19	48846.10
728.38	49184.02
728.56	48600.35
728.75	49018.13
728.94	48862.49
729.12	49011.99
729.31	48942.36
729.50	49153.30
729.69	49093.91
729.87	48680.22
730.06	48661.79
730.25	49011.99
730.43	49440.01
730.62	48876.82
730.81	49341.71
730.99	48903.45
731.18	48692.50
731.37	48917.78
731.55	48803.10
731.74	49333.52
731.93	49011.99
732.11	48823.58
732.30	49163.54
732.49	48739.61
732.67	49003.80
732.86	48340.25
733.05	48569.63
733.23	48375.07
733.42	48198.94
733.61	48334.11
733.79	48639.26
733.98	48895.25
734.17	48274.72
734.35	48149.79
734.54	48409.89
734.73	48655.64
734.91	48842.01
735.10	48342.30
735.29	48684.31
735.47	47879.46
735.66	47691.05
735.84	47877.41
736.03	47445.29
736.22	48207.14
736.40	47602.99
736.59	48061.73
736.78	47754.54
736.96	47961.38
737.15	47945.00
737.33	47881.51
737.52	47625.51
737.71	47822.12
737.89	47527.21
738.08	47621.42
738.27	47357.23
738.45	47723.82
738.64	47428.91
738.82	47433.00
739.01	47461.68
739.20	47336.75
739.38	47359.28
739.57	47535.40
739.75	47265.07
739.94	47021.36
740.13	47039.79
740.31	47078.71
740.50	46689.59
740.68	47150.38
740.87	47361.33
741.06	47084.85
741.24	46884.15
741.43	46966.07
741.61	46705.98
741.80	46871.86
741.99	46533.95
742.17	46642.49
742.36	46941.49
742.54	46818.61
742.73	46593.34
742.91	46896.44
743.10	46515.51
743.29	46531.90
743.47	46931.25
743.66	46701.88
743.84	46863.67
744.03	46497.08
744.21	45999.43
744.40	46822.71
744.59	46302.53
744.77	46067.01
744.96	46445.88
745.14	46282.05
745.33	46069.06
745.51	45702.47
745.70	46376.25
745.88	45729.09
746.07	45905.22
746.26	45718.85
746.44	45727.05
746.63	45401.42
746.81	46052.67
747.00	45559.11
747.18	45489.48
747.37	45671.75
747.55	45739.33
747.74	45860.16
747.92	45204.81
748.11	45327.69
748.29	45448.52
748.48	45317.45
748.66	45471.05
748.85	45534.54
749.03	45094.22
749.22	45442.38
749.41	45489.48
749.59	45446.47
749.78	45108.56
749.96	44590.42
750.15	45159.76
750.33	45622.60
750.52	45079.89
750.70	45278.54
750.89	44954.96
751.07	44485.98
751.26	44658.01
751.44	44815.70
751.63	44807.51
751.81	44582.23
752.00	44447.07
752.18	44893.52
752.37	44668.25
752.55	44199.26
752.74	44268.89
752.92	44293.47
753.10	44350.81
753.29	44516.70
753.47	44356.96
753.66	44356.96
753.84	44545.37
754.03	44289.37
754.21	44170.59
754.40	44451.16
754.58	44254.56
754.77	44305.76
754.95	43797.86
755.14	44152.16
755.32	44305.76
755.51	43781.48
755.69	43558.25
755.88	43658.60
756.06	43994.46
756.24	43865.44
756.43	43603.30
756.61	43701.61
756.80	43550.06
756.98	43529.58
757.17	43709.80
757.35	43355.50
757.54	43429.23
757.72	43527.53
757.90	43212.14
758.09	43160.94
758.27	43275.63
758.46	43136.37
758.64	43236.72
758.83	43488.62
759.01	43234.67
759.19	43160.94
759.38	43062.64
759.56	43165.04
759.75	43210.09
759.93	42794.36
760.12	42605.94
760.30	43044.21
760.48	42489.21
760.67	42624.37
760.85	42689.91
761.04	43226.48
761.22	42890.61
761.40	42804.59
761.59	42460.54
761.77	42370.43
761.96	42689.91
762.14	42595.70
762.32	42059.13
762.51	42147.20
762.69	42347.90
762.88	42386.81
763.06	42448.25
763.24	42433.91
763.43	42245.50
763.61	42220.92
763.80	42335.61
763.98	41981.31
764.16	41581.96
764.35	42096.00
764.53	41471.37
764.72	41723.27
764.90	41860.48
765.08	41547.14
765.27	41842.05
765.45	41704.84
765.63	41231.75
765.82	41602.44
766.00	41135.50
766.18	41237.90
766.37	41608.58
766.55	41248.14
766.74	41559.43
766.92	41555.33
767.10	41463.18
767.29	41229.71
767.47	40983.95
767.65	41239.95
767.84	40873.36
768.02	41104.78
768.20	41129.36
768.39	40975.76
768.57	40992.14
768.75	40637.84
768.94	40963.47
769.12	40613.27
769.30	40648.08
769.49	40867.22
769.67	40459.67
769.85	40275.35
770.04	40504.73
770.22	40607.12
770.40	40299.93
770.59	40678.80
770.77	40875.41
770.95	40611.22
771.14	40457.62
771.32	39929.25
771.50	39654.82
771.69	40170.91
771.87	40375.70
772.05	39878.05
772.24	39484.84
772.42	40121.76
772.60	40068.51
772.78	40035.74
772.97	39560.61
773.15	40056.22
773.33	39640.48
773.52	39681.44
773.70	40072.60
773.88	40007.07
774.07	39703.97
774.25	39767.46
774.43	40324.50
774.61	40027.55
774.80	39923.10
774.98	39574.95
775.16	39953.82
775.34	40056.22
775.53	40017.31
775.71	40103.32
775.89	39937.44
776.08	39767.46
776.26	40119.71
776.44	40211.87
776.62	39734.69
776.81	39663.01
776.99	39888.29
777.17	39962.01
777.35	39925.15
777.54	40197.53
777.72	39699.87
777.90	39908.77
778.08	40170.91
778.27	39943.58
778.45	40250.78
778.63	40717.71
778.81	39777.70
779.00	40707.47
779.18	40783.25
779.36	40826.26
779.54	40680.85
779.73	40594.84
779.91	40609.17
780.09	40717.71
780.27	40574.36
780.46	40363.42
780.64	40967.57
780.82	40400.28
781.00	40490.39
781.19	40738.19
781.37	41121.16
781.55	40738.19
781.73	41237.90
781.91	40875.41
782.10	40768.91
782.28	40734.10
782.46	41039.25
782.64	41178.51
782.82	40574.36
783.01	41170.32
783.19	40932.75
783.37	41084.30
783.55	40912.27
783.74	40945.04
783.92	40906.13
784.10	41366.92
784.28	40908.18
784.46	40908.18
784.64	40908.18
784.83	40770.96
785.01	41192.84
785.19	40881.55
785.37	41139.60
785.55	41233.80
785.74	40508.82
785.92	40920.46
786.10	41076.11
786.28	41497.99
786.46	40648.08
786.64	40824.21
786.83	40775.06
787.01	40820.11
787.19	40707.47
787.37	41133.45
787.55	40965.52
787.74	40660.37
787.92	40635.80
788.10	40400.28
788.28	40228.25
788.46	40521.11
788.64	40482.20
788.82	40498.58
789.01	40017.31
789.19	40619.41
789.37	40203.67
789.55	40027.55
789.73	40060.32
789.91	40138.14
790.09	39835.04
790.28	40170.91
790.46	39884.19
790.64	40029.60
790.82	39998.88
791.00	39994.78
791.18	39650.72
791.36	39771.55
791.55	39638.44
791.73	39591.33
791.91	39177.64
792.09	39689.63
792.27	39501.22
792.45	39577.00
792.63	39814.56
792.81	39478.69
793.00	39333.29
793.18	39138.73
793.36	39241.13
793.54	38972.85
793.72	38700.47
793.90	38927.79
794.08	39081.39
794.26	39122.35
794.44	38483.38
794.62	38587.83
794.81	38796.72
794.99	38606.26
795.17	38755.76
795.35	38358.45
795.53	38522.29
795.71	38489.52
795.89	38032.83
796.07	37875.13
796.25	37699.01
796.43	38059.45
796.61	37795.26
796.80	37891.52
796.98	38002.11
797.16	37785.02
797.34	37944.76
797.52	37518.79
797.70	37508.55
797.88	37541.32
798.06	37381.57
798.24	37182.92
798.42	37371.33
798.60	37760.45
798.78	37062.09
798.96	37141.96
799.14	36888.01
799.32	36773.33
799.51	36632.02
799.69	36894.16
799.87	36900.30
800.05	36672.98
800.23	36613.59
800.41	36677.07
800.59	36517.33
800.77	36488.66
800.95	35853.79
801.13	36081.11
801.31	36034.01
801.49	36072.92
801.67	35900.89
801.85	36175.32
802.03	35636.70
802.21	35577.31
802.39	35915.23
802.57	35677.66
802.75	35409.38
802.93	35530.21
803.11	35329.51
803.29	35223.01
803.47	34985.45
803.65	35261.93
803.83	35417.57
804.01	35157.48
804.19	34964.97
804.37	34729.45
804.55	34780.65
804.73	35075.56
804.91	34881.00
805.09	34919.92
805.27	34799.08
805.45	34502.13
805.63	34489.84
805.81	34733.55
805.99	34563.57
806.17	34348.53
806.35	34147.83
806.53	34412.02
806.71	34285.04
806.89	34207.22
807.07	34059.77
807.25	34467.31
807.43	33678.85
807.61	34395.64
807.79	33504.77
807.97	33689.09
808.15	33893.88
808.33	33832.44
808.51	33574.40
808.69	33725.95
808.87	33146.37
809.05	33394.18
809.23	32861.71
809.41	33433.09
809.59	32960.01
809.77	33138.18
809.95	33113.61
810.13	33402.37
810.31	33148.42
810.49	33232.39
810.67	33005.06
810.84	32982.54
811.02	33056.26
811.20	32351.76
811.38	32421.39
811.56	32171.54
811.74	32523.79
811.92	32761.36
812.10	32333.33
812.28	32439.82
812.46	32519.70
812.64	32423.44
812.82	32087.57
813.00	32331.28
813.18	32339.47
813.36	31852.06
813.53	32011.80
813.71	32204.31
813.89	31764.00
814.07	31942.17
814.25	31761.95
814.43	31739.42
814.61	31731.23
814.79	31608.35
814.97	31385.12
815.15	31561.25
815.33	31346.21
815.50	31469.09
815.68	31610.40
815.86	31616.54
816.04	31421.98
816.22	31028.77
816.40	31278.63
816.58	31165.99
816.76	31157.80
816.94	30844.46
817.11	30785.07
817.29	30815.79
817.47	30733.87
817.65	30680.62
817.83	30912.04
818.01	30625.32
818.19	30400.05
818.37	30510.64
818.54	30170.68
818.72	30160.44
818.90	30574.13
819.08	30436.91
819.26	30500.40
819.44	30236.21
819.62	30283.31
819.80	30303.79
819.97	30133.81
820.15	30400.05
820.33	30121.52
820.51	30217.78
820.69	29902.39
820.87	30025.27
821.05	30045.75
821.22	29785.66
821.40	30283.31
821.58	29666.88
821.76	29664.83
821.94	29611.58
822.12	29658.68
822.29	29564.48
822.47	29525.57
822.65	29701.69
822.83	29421.12
823.01	29261.38
823.19	29150.79
823.36	29404.74
823.54	29279.81
823.72	29146.69
823.90	29271.62
824.08	28890.70
824.25	29105.73
824.43	28841.54
824.61	29050.44
824.79	28862.02
824.97	29056.58
825.15	28769.86
825.32	28739.15
825.50	28696.14
825.68	28733.00
825.86	28902.98
826.04	28773.96
826.21	28853.83
826.39	28638.80
826.57	28536.40
826.75	28278.35
826.93	28198.48
827.10	28370.51
827.28	28597.84
827.46	28722.76
827.64	28554.83
827.81	28266.06
827.99	28522.06
828.17	28456.53
828.35	28163.67
828.53	28456.53
828.70	28038.74
828.88	27893.33
829.06	28350.03
829.24	28208.72
829.41	27946.58
829.59	27965.01
829.77	27795.03
829.95	27506.27
830.12	27862.61
830.30	27575.90
830.48	27844.18
830.66	27696.73
830.84	27639.39
831.01	27620.95
831.19	27649.63
831.37	27303.52
831.55	27389.53
831.72	27729.50
831.90	27344.48
832.08	27481.69
832.25	27350.62
832.43	27219.55
832.61	27436.64
832.79	27420.25
832.96	27188.83
833.14	27240.03
833.32	27627.10
833.50	27246.18
833.67	27317.86
833.85	26992.23
834.03	26758.76
834.20	26912.36
834.38	27100.77
834.56	27055.72
834.74	26599.02
834.91	26820.20
835.09	26445.42
835.27	26218.10
835.44	26601.07
835.62	26445.42
835.80	26578.54
835.98	26412.65
836.15	26545.77
836.33	26637.93
836.51	26625.64
836.68	26261.10
836.86	26021.49
837.04	26254.96
837.21	26390.13
837.39	26371.69
837.57	26281.58
837.75	26308.21
837.92	25683.58
838.10	26111.60
838.28	25638.52
838.45	26066.55
838.63	25443.96
838.81	26033.78
838.98	25628.28
839.16	25861.75
839.34	25677.43
839.51	25790.07
839.69	25489.02
839.87	25798.26
840.04	25628.28
840.22	26105.46
840.40	25556.60
840.57	25222.78
840.75	25564.79
840.93	25282.17
841.10	25411.20
841.28	25691.77
841.46	25458.30
841.63	25470.59
841.81	25347.71
841.98	25108.10
842.16	25683.58
842.34	25345.66
842.51	25251.45
842.69	25263.74
842.87	25435.77
843.04	24907.40
843.22	24950.40
843.40	24995.46
843.57	25165.44
843.75	25259.65
843.92	24741.51
844.10	24727.17
844.28	24878.72
844.45	25149.06
844.63	24727.17
844.81	24626.82
844.98	24874.63
845.16	24655.50
845.33	25163.39
845.51	24542.86
845.69	24794.76
845.86	24526.47
846.04	24213.13
846.21	24598.15
846.39	24487.56
846.57	24596.10
846.74	24542.86
846.92	24110.74
847.09	24178.32
847.27	23979.67
847.45	24274.57
847.62	24454.79
847.80	24329.87
847.97	24182.42
848.15	24088.21
848.32	23905.94
848.50	23985.81
848.68	23828.12
848.85	24077.97
849.03	23393.95
849.20	23838.36
849.38	23826.07
849.56	23690.90
849.73	23760.53
849.91	23488.15
850.08	23840.40
850.26	23226.01
850.43	23809.68
850.61	23514.78
850.78	23330.46
850.96	23553.69
851.14	23289.50
851.31	23604.89
851.49	23346.84
851.66	23578.26
851.84	23453.34
852.01	23164.57
852.19	23209.63
852.36	23342.75
852.54	23338.65
852.71	23314.08
852.89	23215.77
853.07	22916.77
853.24	23002.78
853.42	22761.12
853.59	22587.05
853.77	23105.18
853.94	23051.94
854.12	23094.94
854.29	22568.62
854.47	23006.88
854.64	22582.95
854.82	22818.47
854.99	22779.56
855.17	22886.05
855.34	22582.95
855.52	22597.29
855.69	22759.08
855.87	22529.70
856.04	22148.78
856.22	22359.72
856.39	22245.04
856.57	22427.31
856.74	22412.97
856.92	22331.05
857.09	21927.60
857.27	22353.58
857.44	22449.83
857.62	22447.79
857.79	22294.19
857.97	22345.39
858.14	21907.12
858.32	22048.43
858.49	22382.25
858.67	22152.88
858.84	22242.99
859.02	21935.79
859.19	21700.28
859.37	21618.36
859.54	21958.32
859.72	21745.33
859.89	21657.27
860.06	21722.80
860.24	21647.03
860.41	22056.62
860.59	21546.68
860.76	21878.45
860.94	21317.31
861.11	21903.03
861.29	21642.93
861.46	21354.17
861.64	21384.89
861.81	21186.24
861.98	21249.72
862.16	21450.42
862.33	21114.56
862.51	20790.98
862.68	21196.48
862.86	21042.88
863.03	21323.45
863.21	21102.27
863.38	20987.58
863.55	21036.74
863.73	21229.24
863.90	20940.48
864.08	21085.89
864.25	21132.99
864.43	20983.49
864.60	21008.06
864.77	20897.47
864.95	20989.63
865.12	20530.89
865.30	20907.71
865.47	20704.96
865.64	20680.39
865.82	20784.83
865.99	20731.59
866.17	20635.33
866.34	20768.45
866.51	20422.34
866.69	20815.55
866.86	20770.50
867.04	20393.67
867.21	20115.15
867.38	20379.34
867.56	20342.47
867.73	20266.70
867.91	20043.47
868.08	20170.44
868.25	20057.81
868.43	20227.79
868.60	20061.90
868.78	19844.82
868.95	20270.79
869.12	20111.05
869.30	19652.31
869.47	20180.68
869.64	19861.20
869.82	19676.88
869.99	19506.90
870.16	19902.16
870.34	19726.04
870.51	19693.27
870.69	19404.50
870.86	19576.53
871.03	19621.59
871.21	19402.46
871.38	19447.51
871.55	19261.15
871.73	19277.53
871.90	19404.50
872.07	19150.56
872.25	19146.46
872.42	18966.24
872.59	19341.02
872.77	18968.29
872.94	19183.32
873.11	18886.37
873.29	19351.26
873.46	18880.22
873.63	18589.41
873.81	18679.52
873.98	18964.19
874.15	18630.37
874.33	18611.94
874.50	18826.98
874.67	18826.98
874.85	18581.22
875.02	18730.72
875.19	18530.02
875.37	18517.73
875.54	18491.11
875.71	18618.08
875.88	18251.50
876.06	18478.82
876.23	18271.98
876.40	18478.82
876.58	18173.67
876.75	18312.94
876.92	18310.89
877.10	17964.78
877.27	18310.89
877.44	18185.96
877.61	18099.95
877.79	18073.32
877.96	17790.70
878.13	17774.32
878.31	17708.79
878.48	18061.04
878.65	17673.97
878.82	17915.63
879.00	17802.99
879.17	17880.82
879.34	17684.21
879.51	17524.47
879.69	17479.41
879.86	17551.09
880.03	17338.10
880.21	17383.16
880.38	17475.32
880.55	17608.44
880.72	17184.51
880.90	17383.16
881.07	17340.15
881.24	17217.27
881.41	17252.09
881.59	16899.84
881.76	17133.31
881.93	17125.11
882.10	17028.86
882.28	17028.86
882.45	17274.62
882.62	16867.07
882.79	17094.40
882.96	16918.27
883.14	17008.38
883.31	16840.45
883.48	17000.19
883.65	16959.23
883.83	16953.09
884.00	16897.79
884.17	16797.44
884.34	17204.99
884.51	17104.64
884.69	16733.95
884.86	16641.79
885.03	16828.16
885.20	16609.03
885.38	16711.42
885.55	16613.12
885.72	16574.21
885.89	16410.37
886.06	16742.14
886.24	16557.83
886.41	16527.11
886.58	16531.20
886.75	16516.87
886.92	16348.93
887.10	16658.18
887.27	16170.76
887.44	16563.97
887.61	16568.07
887.78	16246.54
887.95	16361.22
888.13	16187.14
888.30	16035.60
888.47	16101.13
888.64	16281.35
888.81	16379.65
888.99	15918.86
889.16	15781.65
889.33	15847.18
889.50	15763.22
889.67	15892.24
889.84	16092.94
890.01	15867.66
890.19	16023.31
890.36	16097.03
890.53	16107.27
890.70	15834.89
890.87	15714.06
891.04	15687.44
891.22	15681.30
891.39	15822.61
891.56	15628.05
891.73	15671.06
891.90	15527.70
892.07	15486.74
892.24	15695.63
892.42	15544.08
892.59	15570.71
892.76	15238.94
892.93	15468.31
893.10	15327.00
893.27	15298.33
893.44	15351.57
893.61	15417.11
893.79	15437.59
893.96	15490.84
894.13	15466.26
894.30	15189.78
894.47	15392.53
894.64	15361.81
894.81	15216.41
894.98	15179.54
895.15	15347.48
895.33	15130.39
895.50	15292.18
895.67	15320.85
895.84	15310.61
896.01	14890.78
896.18	15042.33
896.35	15312.66
896.52	15085.34
896.69	15257.37
896.86	14941.98
897.04	15281.94
897.21	15124.25
897.38	15191.83
897.55	15007.52
897.72	15064.86
897.89	15099.67
898.06	15093.53
898.23	15071.00
898.40	14966.56
898.57	14987.04
898.74	15146.78
898.91	14913.31
899.08	15040.28
899.26	14849.82
899.43	15132.44
899.60	14991.13
899.77	15030.04
899.94	14821.15
900.11	14845.73
900.28	14964.51
900.45	14788.38
900.62	14636.83
900.79	14997.28
900.96	14776.09
901.13	14903.07
901.30	14952.22
901.47	14804.77
901.64	14804.77
901.81	14905.12
901.98	14929.69
902.15	15044.38
902.32	14761.76
902.49	14855.97
902.66	14819.10
902.83	14755.61
903.01	15157.02
903.18	14915.36
903.35	14925.60
903.52	14819.10
903.69	15085.34
903.86	15154.97
904.03	14821.15
904.20	15036.19
904.37	15017.75
904.54	14786.33
904.71	14954.27
904.88	15027.99
905.05	14984.99
905.22	15243.03
905.39	14761.76
905.56	14884.64
905.73	14896.92
905.90	14817.05
906.07	14831.39
906.24	14886.68
906.41	14858.01
906.58	14825.25
906.75	14868.25
906.92	14622.50
907.09	14997.28
907.26	14941.98
907.43	14520.10
907.60	14700.32
907.77	14907.16
907.93	14853.92
908.10	14696.22
908.27	14726.94
908.44	14624.54
908.61	14661.41
908.78	14468.90
908.95	14802.72
909.12	14792.48
909.29	14728.99
909.46	14571.30
909.63	14823.20
909.80	14837.53
909.97	14548.77
910.14	14827.29
910.31	14645.02
910.48	14640.93
910.65	14319.40
910.82	14645.02
910.99	14571.30
911.16	14550.82
911.33	14333.73
911.50	14610.21
911.66	14434.08
911.83	14475.04
912.00	14380.84
912.17	14153.51
912.34	14382.88
912.51	14360.36
912.68	14067.50
912.85	14413.60
913.02	14565.15
913.19	14446.37
913.36	14434.08
913.53	14378.79
913.70	14176.04
913.86	14358.31
914.03	14069.55
914.20	14223.14
914.37	14315.30
914.54	14106.41
914.71	14104.36
914.88	14006.06
915.05	14202.66
915.22	13774.64
915.39	14098.22
915.55	14055.21
915.72	13786.93
915.89	13678.38
916.06	13633.33
916.23	13834.03
916.40	13731.63
916.57	13645.62
916.74	13561.65
916.91	13766.45
917.07	13401.91
917.24	13573.94
917.41	13623.09
917.58	13786.93
917.75	13381.43
917.92	13225.78
918.09	13266.74
918.26	13575.98
918.42	13467.44
918.59	13301.56
918.76	13416.24
918.93	13127.48
919.10	13043.51
919.27	13246.26
919.44	13324.08
919.60	13428.53
919.77	13154.10
919.94	13025.08
920.11	13029.18
920.28	13092.66
920.45	12961.59
920.61	12943.16
920.78	12992.31
920.95	12619.58
921.12	12836.67
921.29	12781.37
921.46	12603.20
921.62	12584.77
921.79	12619.58
921.96	12470.08
922.13	12439.36
922.30	12353.35
922.47	12334.92
922.63	12070.73
922.80	12257.09
922.97	12144.45
923.14	12162.89
923.31	12390.21
923.47	12060.49
923.64	12498.75
923.81	12193.61
923.98	11943.75
924.15	12042.06
924.32	12058.44
924.48	11964.23
924.65	12162.89
924.82	11972.43
924.99	11661.13
925.15	11654.99
925.32	11765.58
925.49	11685.71
925.66	11437.91
925.83	11618.13
925.99	11644.75
926.16	11460.43
926.33	11544.40
926.50	11284.31
926.67	11542.35
926.83	11300.69
927.00	11560.78
927.17	11255.64
927.34	11259.73
927.50	11296.60
927.67	11327.32
927.84	11278.16
928.01	11241.30
928.17	11138.90
928.34	10930.01
928.51	10823.51
928.68	10698.59
928.84	10891.10
929.01	10772.32
929.18	10686.30
929.35	10731.36
929.51	10671.97
929.68	10583.90
929.85	10524.51
930.02	10602.33
930.18	10442.59
930.35	10375.01
930.52	10446.69
930.69	10409.83
930.85	10258.28
931.02	10116.97
931.19	10162.02
931.36	10266.47
931.52	10137.45
931.69	10207.08
931.86	9924.46
932.02	10076.01
932.19	9969.51
932.36	10065.77
932.53	9830.25
932.69	9951.08
932.86	9725.80
933.03	9912.17
933.19	9680.75
933.36	9715.56
933.53	9887.59
933.70	9672.56
933.86	9461.62
934.03	9658.22
934.20	9242.48
934.36	9434.99
934.53	9131.89
934.70	9254.77
934.86	9222.00
935.03	9054.07
935.20	9049.97
935.36	8998.77
935.53	8822.65
935.70	8914.81
935.86	8781.69
936.03	8685.44
936.20	8488.83
936.36	8519.55
936.53	8513.41
936.70	8523.65
936.86	8388.48
937.03	8288.13
937.20	8234.88
937.36	8302.47
937.53	8005.51
937.70	8042.37
937.86	7858.06
938.03	7741.32
938.20	7878.54
938.36	7565.20
938.53	7661.45
938.70	7561.10
938.86	7528.33
939.03	7329.68
939.20	7200.66
939.36	7317.39
939.53	7157.65
939.70	7186.32
939.86	6797.21
940.03	6920.09
940.19	6944.66
940.36	6823.83
940.53	6852.50
940.69	6451.10
940.86	6729.63
941.03	6582.17
941.19	6391.71
941.36	6301.60
941.52	6262.69
941.69	6191.01
941.86	6248.35
942.02	6186.91
942.19	6213.54
942.35	6055.84
942.52	5951.40
942.69	5887.91
942.85	5971.88
943.02	5855.14
943.18	5828.52
943.35	5644.20
943.52	5629.87
943.68	5834.66
943.85	5928.87
944.01	5648.30
944.18	5666.73
944.35	5668.78
944.51	5545.90
944.68	5463.98
944.84	5478.32
945.01	5445.55
945.17	5439.40
945.34	5400.49
945.51	5474.22
945.67	5476.27
945.84	5486.51
946.00	5310.38
946.17	5513.13
946.33	5394.35
946.50	5400.49
946.67	5345.20
946.83	5445.55
947.00	5351.34
947.16	5449.64
947.33	5294.00
947.49	5322.67
947.66	5164.98
947.82	5316.53
947.99	5343.15
948.16	5316.53
948.32	5332.91
948.49	5160.88
948.65	5357.49
948.82	5203.89
948.98	5257.14
949.15	5281.71
949.31	5392.30
949.48	5486.51
949.64	5302.19
949.81	5191.60
949.97	5244.85
950.14	5384.11
950.30	5173.17
950.47	5392.30
950.63	5361.58
950.80	5361.58
950.96	5291.95
951.13	5246.90
951.30	5351.34
951.46	5439.40
951.63	5527.47
951.79	5386.16
951.96	5550.00
952.12	5363.63
952.29	5390.25
952.45	5287.86
952.62	5314.48
952.78	5500.84
952.94	5322.67
953.11	5363.63
953.27	5267.38
953.44	5496.75
953.60	5384.11
953.77	5410.73
953.93	5435.31
954.10	5470.12
954.26	5425.07
954.43	5394.35
954.59	5500.84
954.76	5402.54
954.92	5398.45
955.09	5478.32
955.25	5349.29
955.42	5343.15
955.58	5490.60
955.75	5539.76
955.91	5646.25
956.07	5353.39
956.24	5480.36
956.40	5410.73
956.57	5537.71
956.73	5439.40
956.90	5619.63
957.06	5345.20
957.23	5451.69
957.39	5468.08
957.56	5597.10
957.72	5435.31
957.88	5320.62
958.05	5541.80
958.21	5664.68
958.38	5623.72
958.54	5459.88
958.71	5779.37
958.87	5595.05
959.03	5533.61
959.20	5511.08
959.36	5343.15
959.53	5496.75
959.69	5533.61
959.85	5488.56
960.02	5353.39
960.18	5599.15
960.35	5552.04
960.51	5386.16
960.68	5562.28
960.84	5578.67
961.00	5328.81
961.17	5582.76
961.33	5425.07
961.50	5459.88
961.66	5674.92
961.82	5394.35
961.99	5590.95
962.15	5484.46
962.31	5496.75
962.48	5525.42
962.64	5685.16
962.81	5552.04
962.97	5480.36
963.13	5418.93
963.30	5623.72
963.46	5357.49
963.62	5390.25
963.79	5304.24
963.95	5433.26
964.12	5439.40
964.28	5533.61
964.44	5451.69
964.61	5459.88
964.77	5345.20
964.93	5574.57
965.10	5468.08
965.26	5425.07
965.42	5527.47
965.59	5367.73
965.75	5466.03
965.92	5210.03
966.08	5396.40
966.24	5435.31
966.41	5294.00
966.57	5361.58
966.73	5382.06
966.90	5402.54
967.06	5377.97
967.22	5365.68
967.39	5261.23
967.55	5396.40
967.71	5238.70
967.88	5263.28
968.04	5316.53
968.20	5238.70
968.37	5224.37
968.53	5212.08
968.69	5316.53
968.85	5332.91
969.02	5259.18
969.18	5226.42
969.34	5195.70
969.51	5445.55
969.67	5162.93
969.83	4997.04
970.00	5216.18
970.16	5160.88
970.32	5203.89
970.48	5240.75
970.65	5074.87
970.81	5144.50
970.97	5072.82
971.14	5132.21
971.30	5197.74
971.46	5072.82
971.63	5097.39
971.79	5115.83
971.95	5130.16
972.11	5025.72
972.28	5158.83
972.44	4984.76
972.60	5062.58
972.76	5076.91
972.93	4964.28
973.09	4976.56
973.25	5017.52
973.42	4937.65
973.58	4956.08
973.74	5003.19
973.90	4949.94
974.07	4960.18
974.23	5093.30
974.39	5001.14
974.55	4894.65
974.72	4960.18
974.88	4841.40
975.04	4886.45
975.20	4704.18
975.37	4908.98
975.53	4794.29
975.69	4958.13
975.85	4753.34
976.01	4782.01
976.18	4812.73
976.34	4931.51
976.50	4908.98
976.66	4888.50
976.83	4874.17
976.99	4761.53
977.15	4825.01
977.31	4652.98
977.47	4849.59
977.64	4767.67
977.80	4790.20
977.96	4599.74
978.12	4671.42
978.29	4736.95
978.45	4575.16
978.61	4640.70
978.77	4712.38
978.93	4591.55
979.10	4511.68
979.26	4612.03
979.42	4659.13
979.58	4470.72
979.74	4517.82
979.91	4626.36
980.07	4595.64
980.23	4546.49
980.39	4513.72
980.55	4552.63
980.71	4544.44
980.88	4431.80
981.04	4571.07
981.20	4452.28
981.36	4476.86
981.52	4372.41
981.68	4366.27
981.85	4456.38
982.01	4382.65
982.17	4407.23
982.33	4409.28
982.49	4409.28
982.65	4399.04
982.82	4495.29
982.98	4448.19
983.14	4300.73
983.30	4364.22
983.46	4485.05
983.62	4239.30
983.79	4411.32
983.95	4282.30
984.11	4206.53
984.27	4437.95
984.43	4253.63
984.59	4292.54
984.75	4444.09
984.91	4317.12
985.08	4409.28
985.24	4149.18
985.40	4169.66
985.56	4112.32
985.72	4337.60
985.88	4259.78
986.04	4122.56
986.20	4134.85
986.37	4173.76
986.53	4038.59
986.69	4140.99
986.85	4050.88
987.01	4116.42
987.17	4165.57
987.33	4083.65
987.49	3934.15
987.65	4143.04
987.82	3956.68
987.98	3901.38
988.14	4046.79
988.30	4124.61
988.46	4020.16
988.62	3999.68
988.78	3944.39
988.94	4057.03
989.10	3848.13
989.26	3919.81
989.42	3895.24
989.59	3833.80
989.75	3917.76
989.91	3899.33
990.07	3844.04
990.23	3862.47
990.39	3801.03
990.55	3782.60
990.71	3856.33
990.87	3878.85
991.03	3903.43
991.19	3852.23
991.35	3723.21
991.51	3923.91
991.67	3831.75
991.83	3874.76
992.00	3841.99
992.16	3862.47
992.32	3762.12
992.48	3854.28
992.64	3600.33
992.80	3768.26
992.96	3852.23
993.12	3747.78
993.28	3690.44
993.44	3796.93
993.60	3682.25
993.76	3696.58
993.92	3712.97
994.08	3690.44
994.24	3663.82
994.40	3622.86
994.56	3721.16
994.72	3608.52
994.88	3559.37
995.04	3585.99
995.20	3573.71
995.36	3622.86
995.52	3631.05
995.68	3600.33
995.84	3542.99
996.00	3715.02
996.16	3540.94
996.32	3502.03
996.48	3428.30
996.64	3649.48
996.80	3567.56
996.96	3557.32
997.12	3368.91
997.28	3409.87
997.44	3438.54
997.60	3487.69
997.76	3354.57
997.92	3436.49
998.08	3416.01
998.24	3307.47
998.40	3387.34
998.56	3428.30
998.72	3295.18
998.88	3356.62
999.04	3323.85
999.20	3405.77
999.36	3295.18
999.52	3440.59
999.68	3387.34
999.84	3377.10
1000.00	3311.57
1000.16	3344.33
1000.32	3284.94
1000.48	3411.92
1000.64	3241.93
1000.80	3207.12
1000.95	3223.50
1001.11	3231.69
1001.27	3225.55
1001.43	3282.89
1001.59	3231.69
1001.75	3168.21
1001.91	3198.93
1002.07	3170.26
1002.23	3211.22
1002.39	3041.23
1002.55	3272.65
1002.71	3239.89
1002.87	3092.43
1003.03	3141.58
1003.19	3104.72
1003.34	3180.50
1003.50	3164.11
1003.66	3241.93
1003.82	3190.74
1003.98	3041.23
1004.14	3151.82
1004.30	3100.62
1004.46	2965.46
1004.62	3088.34
1004.78	3033.04
1004.94	3074.00
1005.09	3061.71
1005.25	3012.56
1005.41	3022.80
1005.57	3059.67
1005.73	3024.85
1005.89	2906.07
1006.05	3010.51
1006.21	3004.37
1006.37	2891.73
1006.52	2930.64
1006.68	2936.79
1006.84	3028.95
1007.00	2926.55
1007.16	3014.61
1007.32	2854.87
1007.48	3002.32
1007.64	2910.16
1007.79	2908.12
1007.95	2852.82
1008.11	2901.97
1008.27	2924.50
1008.43	2908.12
1008.59	2914.26
1008.75	2883.54
1008.91	2875.35
1009.06	2760.66
1009.22	2836.44
1009.38	2836.44
1009.54	2822.10
1009.70	2848.72
1009.86	2811.86
1010.01	2838.48
1010.17	2836.44
1010.33	2822.10
1010.49	2840.53
1010.65	2863.06
1010.81	2740.18
1010.96	2797.53
1011.12	2820.05
1011.28	2711.51
1011.44	2777.05
1011.60	2734.04
1011.76	2613.21
1011.91	2787.29
1012.07	2738.13
1012.23	2688.98
1012.39	2609.11
1012.55	2738.13
1012.71	2656.22
1012.86	2564.06
1013.02	2748.37
1013.18	2699.22
1013.34	2570.20
1013.50	2670.55
1013.65	2717.65
1013.81	2494.43
1013.97	2609.11
1014.13	2639.83
1014.29	2715.61
1014.44	2756.57
1014.60	2475.99
1014.76	2598.87
1014.92	2641.88
1015.07	2615.26
1015.23	2576.34
1015.39	2564.06
1015.55	2660.31
1015.71	2568.15
1015.86	2525.15
1016.02	2471.90
1016.18	2510.81
1016.34	2584.54
1016.49	2498.52
1016.65	2535.39
1016.81	2494.43
1016.97	2510.81
1017.12	2580.44
1017.28	2486.23
1017.44	2445.27
1017.60	2377.69
1017.75	2514.91
1017.91	2400.22
1018.07	2504.67
1018.23	2557.91
1018.38	2428.89
1018.54	2389.98
1018.70	2418.65
1018.86	2445.27
1019.01	2344.92
1019.17	2469.85
1019.33	2514.91
1019.49	2510.81
1019.64	2439.13
1019.80	2467.80
1019.96	2496.47
1020.12	2379.74
1020.27	2322.40
1020.43	2385.88
1020.59	2432.99
1020.74	2412.51
1020.90	2447.32
1021.06	2312.16
1021.22	2404.32
1021.37	2346.97
1021.53	2379.74
1021.69	2250.72
1021.84	2146.27
1022.00	2242.53
1022.16	2277.34
1022.31	2291.68
1022.47	2351.07
1022.63	2412.51
1022.79	2250.72
1022.94	2195.42
1023.10	2387.93
1023.26	2389.98
1023.41	2275.29
1023.57	2232.29
1023.73	2344.92
1023.88	2254.81
1024.04	2193.37
1024.20	2160.61
1024.35	2242.53
1024.51	2328.54
1024.67	2217.95
1024.82	2332.64
1024.98	2256.86
1025.14	2336.73
1025.29	2213.85
1025.45	2265.05
1025.61	2164.70
1025.76	2260.96
1025.92	2260.96
1026.08	2246.62
1026.23	2234.33
1026.39	2244.57
1026.55	2160.61
1026.70	2101.22
1026.86	2090.98
1027.02	2254.81
1027.17	2187.23
1027.33	2170.85
1027.48	2148.32
1027.64	2093.02
1027.80	2154.46
1027.95	2174.94
1028.11	2041.82
1028.27	2164.70
1028.42	2158.56
1028.58	2070.50
1028.73	2064.35
1028.89	1951.71
1029.05	2209.76
1029.20	2121.70
>>>>>End Processed Spectral Data<<<<<
