SpectraSuite Data File
++++++++++++++++++++++++++++++++++++
Date: Fri Jun 02 14:48:00 CEST 2017
User: INFO_000
Dark Spectrum Present: No
Reference Spectrum Present: No
Number of Sampled Component Spectra: 1
Spectrometers: USB4H00879
Integration Time (usec): 80000 (USB4H00879)
Spectra Averaged: 1 (USB4H00879)
Boxcar Smoothing: 0 (USB4H00879)
Correct for Electrical Dark: No (USB4H00879)
Strobe/Lamp Enabled: No (USB4H00879)
Correct for Detector Non-linearity: No (USB4H00879)
Correct for Stray Light: No (USB4H00879)
Number of Pixels in Processed Spectrum: 3648
>>>>>Begin Processed Spectral Data<<<<<
345.13	1284.08
345.34	1284.08
345.56	1284.08
345.78	1218.54
345.99	1255.40
346.21	1705.96
346.42	1667.05
346.64	1560.55
346.86	1724.39
347.07	1679.33
347.29	1685.48
347.50	1587.18
347.72	1656.81
347.94	1777.64
348.15	1583.08
348.37	1646.57
348.59	1732.58
348.80	1654.76
349.02	1736.68
349.23	1869.80
349.45	1777.64
349.67	1816.55
349.88	1802.21
350.10	1968.10
350.31	1886.18
350.53	1839.08
350.75	2007.01
350.96	1763.30
351.18	1904.61
351.39	1929.19
351.61	1798.12
351.82	1896.42
352.04	1972.19
352.26	1812.45
352.47	1941.47
352.69	1937.38
352.90	1705.96
353.12	1843.17
353.34	1898.47
353.55	1925.09
353.77	1820.64
353.98	1779.68
354.20	1875.94
354.41	1925.09
354.63	1894.37
354.85	2060.26
355.06	1937.38
355.28	1691.62
355.49	1877.99
355.71	1912.80
355.92	1877.99
356.14	1892.32
356.35	1916.90
356.57	1812.45
356.79	1964.00
357.00	1855.46
357.22	2031.58
357.43	1896.42
357.65	1990.63
357.86	1855.46
358.08	1832.93
358.29	1951.71
358.51	1939.43
358.72	1931.23
358.94	1871.84
359.16	1851.36
359.37	1929.19
359.59	1959.91
359.80	2007.01
360.02	2027.49
360.23	2023.39
360.45	1951.71
360.66	1982.43
360.88	1847.27
361.09	1968.10
361.31	1978.34
361.52	2037.73
361.74	2035.68
361.95	2011.11
362.17	1920.99
362.38	2093.02
362.60	1970.15
362.81	1947.62
363.03	1978.34
363.24	1918.95
363.46	1998.82
363.67	1986.53
363.89	2060.26
364.10	2021.35
364.32	1929.19
364.53	2070.50
364.75	1984.48
364.96	2052.06
365.18	2009.06
365.39	1935.33
365.61	2002.91
365.82	2054.11
366.04	2002.91
366.25	1918.95
366.47	2050.02
366.68	2058.21
366.90	1976.29
367.11	2033.63
367.33	2082.78
367.54	2088.93
367.76	1998.82
367.97	2125.79
368.19	1992.67
368.40	2113.50
368.62	1923.04
368.83	1955.81
369.05	2095.07
369.26	1990.63
369.48	1914.85
369.69	2052.06
369.91	2074.59
370.12	2027.49
370.33	2093.02
370.55	1986.53
370.76	2039.78
370.98	2052.06
371.19	2052.06
371.41	1941.47
371.62	2004.96
371.84	2050.02
372.05	2213.85
372.27	2029.54
372.48	2084.83
372.69	2066.40
372.91	2142.18
373.12	2117.60
373.34	2133.98
373.55	2107.36
373.77	2140.13
373.98	2113.50
374.20	2213.85
374.41	2273.25
374.62	2129.89
374.84	2176.99
375.05	2125.79
375.27	2195.42
375.48	2160.61
375.70	2150.37
375.91	2129.89
376.12	2256.86
376.34	2123.74
376.55	2209.76
376.77	2166.75
376.98	2172.89
377.19	2140.13
377.41	2189.28
377.62	2185.18
377.84	2236.38
378.05	2303.96
378.27	2240.48
378.48	2279.39
378.69	2387.93
378.91	2267.10
379.12	2209.76
379.34	2236.38
379.55	2263.01
379.76	2222.05
379.98	2228.19
380.19	2277.34
380.41	2246.62
380.62	2363.36
380.83	2224.09
381.05	2230.24
381.26	2406.36
381.47	2203.61
381.69	2306.01
381.90	2404.32
382.12	2303.96
382.33	2273.25
382.54	2371.55
382.76	2338.78
382.97	2316.25
383.19	2209.76
383.40	2404.32
383.61	2299.87
383.83	2232.29
384.04	2355.16
384.25	2359.26
384.47	2349.02
384.68	2267.10
384.89	2301.92
385.11	2312.16
385.32	2346.97
385.54	2301.92
385.75	2426.84
385.96	2340.83
386.18	2389.98
386.39	2467.80
386.60	2422.75
386.82	2443.23
387.03	2404.32
387.24	2519.00
387.46	2389.98
387.67	2541.53
387.88	2576.34
388.10	2500.57
388.31	2523.10
388.52	2510.81
388.74	2566.10
388.95	2498.52
389.16	2484.19
389.38	2430.94
389.59	2531.29
389.80	2607.06
390.02	2600.92
390.23	2660.31
390.44	2519.00
390.66	2600.92
390.87	2432.99
391.08	2586.58
391.30	2613.21
391.51	2639.83
391.72	2666.46
391.94	2615.26
392.15	2580.44
392.36	2650.07
392.58	2572.25
392.79	2658.26
393.00	2613.21
393.22	2680.79
393.43	2779.09
393.64	2727.89
393.85	2807.77
394.07	2707.41
394.28	2779.09
394.49	2758.61
394.71	2797.53
394.92	2926.55
395.13	2777.05
395.35	2662.36
395.56	2670.55
395.77	2719.70
395.98	2760.66
396.20	2826.20
396.41	2889.68
396.62	2891.73
396.84	2844.63
397.05	2662.36
397.26	2805.72
397.47	2942.93
397.69	2801.62
397.90	3100.62
398.11	2973.65
398.32	2826.20
398.54	2908.12
398.75	2826.20
398.96	2944.98
399.18	3012.56
399.39	2942.93
399.60	3043.28
399.81	2924.50
400.03	2955.22
400.24	3198.93
400.45	2965.46
400.66	3127.25
400.88	2977.75
401.09	3198.93
401.30	3028.95
401.51	3061.71
401.73	3141.58
401.94	3178.45
402.15	3160.02
402.36	2996.18
402.58	3061.71
402.79	3221.45
403.00	3133.39
403.21	3190.74
403.43	3246.03
403.64	3282.89
403.85	3143.63
404.06	3252.17
404.27	3055.57
404.49	3141.58
404.70	3198.93
404.91	3348.43
405.12	3309.52
405.34	3198.93
405.55	3385.29
405.76	3051.47
405.97	3223.50
406.19	3366.86
406.40	3176.40
406.61	3309.52
406.82	3321.81
407.03	3317.71
407.25	3264.46
407.46	3332.05
407.67	3330.00
407.88	3561.42
408.09	3280.85
408.31	3262.41
408.52	3289.04
408.73	3391.44
408.94	3284.94
409.15	3477.45
409.37	3557.32
409.58	3608.52
409.79	3424.20
410.00	3567.56
410.21	3403.72
410.43	3520.46
410.64	3375.05
410.85	3491.79
411.06	3456.97
411.27	3657.67
411.48	3686.34
411.70	3549.13
411.91	3602.38
412.12	3641.29
412.33	3502.03
412.54	3567.56
412.76	3708.87
412.97	3571.66
413.18	3557.32
413.39	3649.48
413.60	3645.38
413.81	3622.86
414.03	3661.77
414.24	3688.39
414.45	3755.97
414.66	3649.48
414.87	3737.54
415.08	3729.35
415.30	3682.25
415.51	3700.68
415.72	3706.82
415.93	3786.69
416.14	3753.93
416.35	3833.80
416.56	3655.62
416.78	3778.50
416.99	3966.92
417.20	3891.14
417.41	3889.09
417.62	3938.24
417.83	3930.05
418.04	3839.94
418.26	3975.11
418.47	3954.63
418.68	4003.78
418.89	3923.91
419.10	4085.70
419.31	4036.55
419.52	4007.87
419.73	4024.26
419.95	4040.64
420.16	3975.11
420.37	3999.68
420.58	4149.18
420.79	3798.98
421.00	4001.73
421.21	4212.67
421.42	4106.18
421.63	4136.90
421.85	4130.75
422.06	4296.64
422.27	4114.37
422.48	4159.42
422.69	4194.24
422.90	4259.78
423.11	4212.67
423.32	4317.12
423.53	4345.79
423.75	4425.66
423.96	4470.72
424.17	4388.80
424.38	4614.07
424.59	4564.92
424.80	4671.42
425.01	4603.83
425.22	4431.80
425.43	4419.52
425.64	4609.98
425.85	4573.11
426.06	4476.86
426.28	4425.66
426.49	4450.24
426.70	4558.78
426.91	4505.53
427.12	4616.12
427.33	4587.45
427.54	4569.02
427.75	4710.33
427.96	4794.29
428.17	4810.68
428.38	4792.25
428.59	4917.17
428.80	4763.58
429.01	4845.49
429.23	4986.80
429.44	4962.23
429.65	5031.86
429.86	4947.89
430.07	4927.41
430.28	4827.06
430.49	5048.24
430.70	5136.31
430.91	4999.09
431.12	5070.77
431.33	5238.70
431.54	5095.35
431.75	5150.64
431.96	5296.05
432.17	5132.21
432.38	5218.22
432.59	5257.14
432.80	5246.90
433.01	5224.37
433.22	5261.23
433.43	5324.72
433.64	5255.09
433.85	5191.60
434.06	5324.72
434.27	5334.96
434.49	5416.88
434.70	5455.79
434.91	5466.03
435.12	5443.50
435.33	5500.84
435.54	5396.40
435.75	5337.01
435.96	5468.08
436.17	5539.76
436.38	5595.05
436.59	5523.37
436.80	5443.50
437.01	5789.61
437.22	5713.83
437.43	5605.29
437.64	5504.94
437.85	5705.64
438.06	5738.41
438.27	5679.02
438.48	5582.76
438.69	5705.64
438.90	5846.95
439.11	5932.97
439.32	5939.11
439.53	5908.39
439.74	5865.38
439.95	5906.34
440.16	5902.25
440.37	5816.23
440.57	5840.81
440.78	5990.31
440.99	6041.51
441.20	6090.66
441.41	5873.57
441.62	5855.14
441.83	5660.59
442.04	6098.85
442.25	6115.23
442.46	5849.00
442.67	6180.77
442.88	6455.20
443.09	6152.10
443.30	6053.80
443.51	6045.60
443.72	6518.68
443.93	6176.67
444.14	6453.15
444.35	6043.56
444.56	6432.67
444.77	6293.41
444.98	6453.15
445.19	6317.98
445.40	6393.76
445.61	6346.66
445.81	6453.15
446.02	6479.77
446.23	6455.20
446.44	6305.70
446.65	6487.96
446.86	6508.44
447.07	6541.21
447.28	6729.63
447.49	6778.78
447.70	6541.21
447.91	6719.39
448.12	6662.04
448.33	6729.63
448.54	6768.54
448.74	6807.45
448.95	6725.53
449.16	6746.01
449.37	7038.87
449.58	6770.58
449.79	6965.14
450.00	6477.73
450.21	7014.29
450.42	7034.77
450.63	6967.19
450.84	6987.67
451.05	7100.31
451.25	6997.91
451.46	6987.67
451.67	7133.08
451.88	7180.18
452.09	7212.95
452.30	7088.02
452.51	7030.68
452.72	7352.21
452.93	7458.70
453.13	7116.69
453.34	7208.85
453.55	7339.92
453.76	7270.29
453.97	7450.51
454.18	7516.05
454.39	7499.66
454.60	7468.94
454.81	7595.92
455.01	7767.95
455.22	7374.74
455.43	7729.03
455.64	7696.27
455.85	7993.22
456.06	8206.21
456.27	7886.73
456.48	7837.58
456.68	7780.23
456.89	7712.65
457.10	8034.18
457.31	7944.07
457.52	7858.06
457.73	7901.06
457.94	8390.53
458.14	8097.67
458.35	8404.86
458.56	8030.09
458.77	8062.85
458.98	8173.44
459.19	8304.51
459.39	8324.99
459.60	8445.82
459.81	8286.08
460.02	8519.55
460.23	8546.17
460.44	8703.87
460.65	8746.87
460.85	8822.65
461.06	8781.69
461.27	8523.65
461.48	9103.22
461.69	8939.38
461.89	8703.87
462.10	8839.03
462.31	8828.79
462.52	8834.94
462.73	9002.87
462.94	9191.28
463.14	9205.62
463.35	9193.33
463.56	9566.06
463.77	9424.75
463.98	9277.30
464.18	9238.39
464.39	9512.81
464.60	9592.69
464.81	9340.79
465.02	9498.48
465.23	9766.76
465.43	9815.91
465.64	10043.24
465.85	10012.52
466.06	9705.32
466.27	10039.14
466.47	10049.38
466.68	10047.33
466.89	9989.99
467.10	10082.15
467.30	9979.75
467.51	10225.51
467.72	10415.97
467.93	10207.08
468.14	10368.87
468.34	10432.35
468.55	10674.01
468.76	10446.69
468.97	10495.84
469.17	10817.37
469.38	10762.08
469.59	10760.03
469.80	10680.16
470.01	10682.20
470.21	10999.64
470.42	11079.51
470.63	11253.59
470.84	11013.98
471.04	10985.30
471.25	11315.03
471.46	11112.28
471.67	11267.92
471.87	11638.61
472.08	11603.79
472.29	11652.94
472.50	11423.57
472.70	11597.65
472.91	11640.65
473.12	11917.13
473.33	11992.90
473.53	12109.64
473.74	11945.80
473.95	12175.17
474.16	12283.72
474.36	12138.31
474.57	12560.19
474.78	12515.14
474.99	12570.43
475.19	12465.99
475.40	12848.96
475.61	12801.85
475.81	12965.69
476.02	13256.50
476.23	12908.35
476.44	13229.88
476.64	13315.89
476.85	13496.11
477.06	13453.11
477.27	13537.07
477.47	13686.58
477.68	13731.63
477.89	13934.38
478.09	13950.76
478.30	13840.17
478.51	13911.85
478.71	14280.49
478.92	14274.34
479.13	14348.07
479.34	14585.63
479.54	14571.30
479.75	14702.37
479.96	14724.90
480.16	14794.53
480.37	14774.05
480.58	14872.35
480.78	14989.08
480.99	15247.13
481.20	15494.93
481.41	15351.57
481.61	15347.48
481.82	15451.92
482.03	15499.03
482.23	15429.40
482.44	15861.52
482.65	16062.22
482.85	16101.13
483.06	15820.56
483.27	16170.76
483.47	16283.40
483.68	16246.54
483.89	16269.06
484.09	16375.56
484.30	16619.27
484.51	16934.65
484.71	16572.16
484.92	16817.92
485.13	16893.69
485.33	16865.02
485.54	16955.13
485.75	17264.38
485.95	17342.20
486.16	17475.32
486.37	17587.96
486.57	17450.74
486.78	17389.30
486.98	17741.55
487.19	17729.27
487.40	17645.30
487.60	17929.97
487.81	18267.88
488.02	18130.67
488.22	18069.23
488.43	18331.37
488.64	18507.49
488.84	18738.91
489.05	18738.91
489.25	18484.97
489.46	18890.46
489.67	19007.20
489.87	18921.18
490.08	18941.66
490.29	19158.75
490.49	19719.89
490.70	19437.27
490.90	19422.94
491.11	19408.60
491.32	19773.14
491.52	19969.74
491.73	19928.78
491.94	19998.41
492.14	19619.54
492.35	20360.91
492.55	20072.14
492.76	20377.29
492.97	20487.88
493.17	20551.37
493.38	20569.80
493.58	20811.46
493.79	20756.16
494.00	20651.72
494.20	20721.35
494.41	20803.27
494.61	20971.20
494.82	21335.74
495.02	20975.30
495.23	21409.47
495.44	21632.69
495.64	21532.34
495.85	21413.56
496.05	21681.85
496.26	21614.26
496.47	21929.65
496.67	21761.72
496.88	22140.59
497.08	21860.02
497.29	22054.58
497.49	22161.07
497.70	22523.56
497.91	22548.14
498.11	22329.00
498.32	22675.11
498.52	22615.72
498.73	23334.56
498.93	22695.59
499.14	22781.60
499.34	22941.35
499.55	23631.51
499.76	23066.27
499.96	23207.58
500.17	23303.84
500.37	23471.77
500.58	23492.25
500.78	23439.00
500.99	23725.72
501.19	23789.20
501.40	23656.09
501.60	23725.72
501.81	23658.14
502.02	24055.44
502.22	23873.17
502.43	23975.57
502.63	24280.72
502.84	24284.81
503.04	24374.92
503.25	24333.96
503.45	24462.99
503.66	24530.57
503.86	24682.12
504.07	24780.42
504.27	24868.48
504.48	25038.47
504.68	24960.64
504.89	25036.42
505.09	25206.40
505.30	25101.95
505.50	25355.90
505.71	25556.60
505.91	25376.38
506.12	25081.47
506.32	24913.54
506.53	25304.70
506.73	25642.62
506.94	25802.36
507.14	25306.75
507.35	25613.95
507.55	25622.14
507.76	25589.37
507.96	25587.32
508.17	25767.54
508.37	26050.16
508.58	25736.82
508.78	26398.32
508.99	26175.09
509.19	26261.10
509.40	26142.32
509.60	26021.49
509.81	26418.80
510.01	26386.03
510.22	26404.46
510.42	26695.27
510.63	26709.61
510.83	26535.53
511.04	26492.52
511.24	26971.75
511.44	26869.35
511.65	26797.67
511.85	26904.17
512.06	27031.14
512.26	26713.70
512.47	27008.61
512.67	27010.66
512.88	27285.09
513.08	26949.22
513.29	27336.29
513.49	27143.78
513.69	27088.48
513.90	27352.67
514.10	27170.40
514.31	27344.48
514.51	27504.22
514.72	27500.12
514.92	27395.68
515.13	27735.64
515.33	27655.77
515.53	27872.85
515.74	27981.40
515.94	27868.76
516.15	27985.49
516.35	27860.57
516.56	28085.84
516.76	27817.56
516.96	28061.27
517.17	28182.10
517.37	28120.66
517.58	28134.99
517.78	28149.33
517.99	28294.74
518.19	28464.72
518.39	28616.27
518.60	28534.35
518.80	28728.91
519.01	28634.70
519.21	28577.36
519.41	28956.23
519.62	28845.64
519.82	28698.19
520.03	29212.23
520.23	29019.72
520.43	28839.50
520.64	29429.31
520.84	29597.24
521.05	29509.18
521.25	29331.01
521.45	29650.49
521.66	29318.72
521.86	29439.55
522.07	29218.37
522.27	30043.70
522.47	29601.34
522.68	30160.44
522.88	29898.30
523.08	30359.09
523.29	29707.83
523.49	30135.86
523.70	30148.15
523.90	30354.99
524.10	30260.79
524.31	30516.78
524.51	30602.80
524.71	30783.02
524.92	30645.80
525.12	30862.89
525.33	31127.08
525.53	31110.69
525.73	31215.14
525.94	31301.15
526.14	30744.11
526.34	31331.87
526.55	31389.22
526.75	31225.38
526.95	31497.76
527.16	31516.19
527.36	31774.24
527.56	31659.55
527.77	31823.39
527.97	32032.28
528.17	31645.21
528.38	31819.29
528.58	32183.83
528.78	31790.62
528.99	32153.11
529.19	32556.56
529.39	32226.84
529.60	32337.43
529.80	32484.88
530.00	32329.23
530.21	32763.40
530.41	32929.29
530.61	33013.26
530.82	32740.88
531.02	33166.85
531.22	33478.15
531.43	33156.61
531.63	33281.54
531.83	33467.91
532.04	33826.30
532.24	33625.60
532.44	33848.83
532.64	33865.21
532.85	34027.00
533.05	34117.11
533.25	34008.57
533.46	33930.75
533.66	34557.42
533.86	34291.19
534.07	34952.68
534.27	34317.81
534.47	34821.61
534.67	34526.71
534.88	34682.35
535.08	34733.55
535.28	34876.91
535.49	35259.88
535.69	35595.74
535.89	35495.39
536.09	35442.15
536.30	35757.53
536.50	35505.63
536.70	35808.73
536.91	35966.43
537.11	35866.08
537.31	35929.56
537.51	36183.51
537.72	36322.77
537.92	36357.59
538.12	36744.66
538.32	36324.82
538.53	36740.56
538.73	36464.08
538.93	36586.96
539.13	36816.33
539.34	36584.91
539.54	36902.35
539.74	37154.25
539.94	37053.90
540.15	37146.06
540.35	37299.65
540.55	37367.24
540.75	37680.58
540.96	37500.36
541.16	37457.35
541.36	37459.40
541.56	37981.63
541.77	38157.75
541.97	37709.25
542.17	38270.39
542.37	38581.68
542.58	38241.72
542.78	37912.00
542.98	38079.93
543.18	38516.15
543.38	38761.90
543.59	38915.50
543.79	38335.93
543.99	38475.19
544.19	38651.31
544.40	38739.38
544.60	39189.93
544.80	38854.06
545.00	38647.22
545.20	39220.65
545.41	39185.83
545.61	39024.04
545.81	39531.94
546.01	39869.86
546.21	39237.03
546.42	39359.91
546.62	39656.87
546.82	39466.41
547.02	39828.90
547.22	39835.04
547.43	39718.31
547.63	39970.21
547.83	40066.46
548.03	39404.97
548.23	39966.11
548.44	39996.83
548.64	40252.83
548.84	40154.52
549.04	40265.11
549.24	40379.80
549.45	40816.02
549.65	40371.61
549.85	40709.52
550.05	40600.98
550.25	40588.69
550.45	41141.64
550.66	40918.42
550.86	40826.26
551.06	41115.02
551.26	40959.38
551.46	41184.65
551.66	41110.92
551.87	41184.65
552.07	41436.55
552.27	41676.16
552.47	41614.72
552.67	41475.46
552.87	41762.18
553.07	41407.88
553.28	41676.16
553.48	41743.75
553.68	41805.19
553.88	42026.37
554.08	41899.39
554.28	41721.22
554.48	41502.09
554.69	41952.64
554.89	42093.95
555.09	42255.74
555.29	41866.63
555.49	41983.36
555.69	42005.89
555.89	42216.83
556.10	42263.93
556.30	42302.84
556.50	42521.98
556.70	42331.51
556.90	42370.43
557.10	42511.74
557.30	42096.00
557.50	42495.35
557.70	42923.38
557.91	43031.92
558.11	43136.37
558.31	43162.99
558.51	42620.28
558.71	42784.12
558.91	42691.96
559.11	42657.14
559.31	42612.09
559.51	42415.48
559.72	43095.41
559.92	43410.79
560.12	42845.55
560.32	43244.91
560.52	42694.00
560.72	43308.40
560.92	43085.17
561.12	43144.56
561.32	44023.14
561.52	43040.11
561.72	43425.13
561.93	43380.07
562.13	43236.72
562.33	43435.37
562.53	43914.59
562.73	43150.70
562.93	43767.14
563.13	43791.72
563.33	43545.96
563.53	44182.88
563.73	43648.36
563.93	43472.23
564.13	43965.79
564.33	43494.76
564.53	43464.04
564.74	43961.70
564.94	43742.56
565.14	43980.13
565.34	44051.81
565.54	44307.80
565.74	44297.56
565.94	44690.77
566.14	44023.14
566.34	44092.77
566.54	44326.24
566.74	44301.66
566.94	44555.61
567.14	44318.04
567.34	44180.83
567.54	44533.08
567.74	44850.52
567.94	44135.77
568.14	44528.98
568.34	44598.62
568.54	44641.62
568.74	44508.50
568.94	44496.22
569.14	44975.44
569.34	45098.32
569.54	44234.08
569.75	44418.39
569.95	44590.42
570.15	45065.55
570.35	44850.52
570.55	44989.78
570.75	44795.22
570.95	44475.74
571.15	45012.31
571.35	44764.50
571.55	45471.05
571.75	45151.57
571.95	45561.16
572.15	45032.78
572.35	45505.87
572.55	44957.01
572.75	45200.72
572.95	45143.38
573.15	45233.49
573.35	45587.78
573.55	45219.15
573.75	45499.72
573.95	45448.52
574.15	45796.68
574.35	45565.26
574.55	45595.98
574.75	45301.07
574.95	45679.94
575.15	45655.37
575.34	45681.99
575.54	45823.30
575.74	46064.96
575.94	45600.07
576.14	45862.21
576.34	46243.13
576.54	46200.13
576.74	46048.58
576.94	46249.28
577.14	46048.58
577.34	46484.79
577.54	45790.53
577.74	46095.68
577.94	46531.90
578.14	46456.12
578.34	46443.84
578.54	46165.31
578.74	46550.33
578.94	46603.58
579.14	46347.58
579.34	46669.11
579.54	46826.81
579.74	46826.81
579.94	46497.08
580.13	46929.20
580.33	47066.42
580.53	46853.43
580.73	47148.34
580.93	46767.41
581.13	47289.65
581.33	47422.76
581.53	47390.00
581.73	47090.99
581.93	47215.92
582.13	47463.72
582.33	47467.82
582.53	47019.31
582.73	47349.04
582.92	47453.48
583.12	47658.28
583.32	47697.19
583.52	47557.93
583.72	47512.88
583.92	47625.51
584.12	47777.06
584.32	48223.52
584.52	47770.92
584.72	47988.00
584.92	48127.27
585.11	48235.81
585.31	48155.94
585.51	48235.81
585.71	47852.84
585.91	48362.78
586.11	48094.50
586.31	48284.96
586.51	48002.34
586.71	47973.67
586.91	48461.08
587.10	48284.96
587.30	48543.00
587.50	48426.27
587.70	48469.28
587.90	48698.65
588.10	48917.78
588.30	48637.21
588.50	48866.58
588.69	48991.51
588.89	48731.42
589.09	49108.24
589.29	49374.48
589.49	49423.63
589.69	48870.68
589.89	49390.86
590.08	49354.00
590.28	48727.32
590.48	48934.17
590.68	49149.20
590.88	49370.38
591.08	49620.23
591.28	49231.12
591.47	49861.90
591.67	49511.69
591.87	49599.76
592.07	49544.46
592.27	49515.79
592.47	49329.42
592.67	49689.87
592.86	49476.88
593.06	49886.47
593.26	49849.61
593.46	49917.19
593.66	50144.51
593.86	50203.91
594.05	50167.04
594.25	50244.87
594.45	50275.58
594.65	49986.82
594.85	49954.05
595.05	50185.47
595.24	50091.27
595.44	50287.87
595.64	50451.71
595.84	50216.19
596.04	50328.83
596.23	50920.70
596.43	50853.11
596.63	50863.35
596.83	50715.90
597.03	51045.62
597.22	51565.81
597.42	51057.91
597.62	51248.37
597.82	50906.36
598.02	51062.00
598.21	51180.79
598.41	51051.76
598.61	50953.46
598.81	51504.37
599.01	51246.32
599.20	51145.97
599.40	51352.82
599.60	51246.32
599.80	51492.08
600.00	51440.88
600.19	52045.03
600.39	51786.99
600.59	51924.20
600.79	51807.47
600.98	51662.06
601.18	51602.67
601.38	51778.79
601.58	51813.61
601.78	52509.92
601.97	51817.71
602.17	52716.76
602.37	52581.60
602.57	52198.63
602.76	52968.66
602.96	52536.54
603.16	52376.80
603.36	52653.28
603.55	52976.86
603.75	53011.67
603.95	52843.74
604.15	52706.52
604.34	52712.67
604.54	53161.17
604.74	53134.55
604.94	53155.03
605.13	53075.16
605.33	52964.57
605.53	53095.64
605.73	53538.00
605.92	53646.54
606.12	53529.81
606.32	52878.55
606.52	53220.56
606.71	53466.32
606.91	53454.03
607.11	53331.15
607.30	53679.31
607.50	54047.94
607.70	53781.71
607.90	53298.39
608.09	54420.67
608.29	53769.42
608.49	54174.92
608.68	53824.71
608.88	54480.06
609.08	54045.90
609.28	54553.79
609.47	54076.61
609.67	54662.33
609.87	54179.01
610.06	54404.29
610.26	54387.91
610.46	54400.19
610.66	54715.58
610.85	54504.64
611.05	54113.48
611.25	54824.12
611.44	54414.53
611.64	54383.81
611.84	54322.37
612.03	54396.10
612.23	54539.46
612.43	55084.22
612.62	54355.14
612.82	54897.85
613.02	54826.17
613.21	54541.50
613.41	54328.52
613.61	54807.74
613.80	54557.89
614.00	54752.44
614.20	54580.42
614.39	55024.82
614.59	54998.20
614.79	54783.16
614.98	54908.09
615.18	55207.09
615.38	54885.56
615.57	54852.80
615.77	55489.71
615.97	55090.36
616.16	55028.92
616.36	54985.91
616.56	55256.24
616.75	55203.00
616.95	55043.26
617.15	54998.20
617.34	55342.26
617.54	55268.53
617.74	55590.06
617.93	55057.59
618.13	54867.13
618.32	55166.13
618.52	54875.32
618.72	55229.62
618.91	55577.78
619.11	54899.90
619.31	54891.71
619.50	55217.33
619.70	54334.66
619.90	55305.40
620.09	55540.91
620.29	54873.27
620.48	55434.42
620.68	55444.66
620.88	54801.60
621.07	55088.31
621.27	55424.18
621.46	54629.57
621.66	55166.13
621.86	55004.34
622.05	54711.49
622.25	55211.19
622.44	55241.91
622.64	54869.18
622.84	55022.78
623.03	54777.02
623.23	55243.96
623.42	55377.08
623.62	55471.28
623.82	55493.81
624.01	55360.69
624.21	55641.26
624.40	55229.62
624.60	55026.87
624.80	55170.23
624.99	54990.01
625.19	54711.49
625.38	55258.29
625.58	55411.89
625.77	55014.58
625.97	55712.94
626.17	55186.61
626.36	55309.49
626.56	55379.12
626.75	55266.48
626.95	55467.19
627.14	55131.32
627.34	55377.08
627.54	54998.20
627.73	55252.15
627.93	55411.89
628.12	55059.64
628.32	55342.26
628.51	55162.04
628.71	55100.60
628.90	55121.08
629.10	54987.96
629.30	55434.42
629.49	55399.60
629.69	54949.05
629.88	55067.83
630.08	55137.46
630.27	55198.90
630.47	55346.36
630.66	55358.64
630.86	55731.37
631.05	55123.13
631.25	55704.75
631.44	55542.96
631.64	55444.66
631.84	55403.70
632.03	56116.39
632.23	55471.28
632.42	55430.32
632.62	55108.79
632.81	55370.93
633.01	55526.58
633.20	56153.26
633.40	55516.34
633.59	55653.55
633.79	55041.21
633.98	55594.16
634.18	55581.87
634.37	55794.86
634.57	55622.83
634.76	55647.41
634.96	55764.14
635.15	55399.60
635.35	55018.68
635.54	55129.27
635.74	55667.89
635.93	55342.26
636.13	55833.77
636.32	55624.88
636.52	55121.08
636.71	55608.50
636.91	55489.71
637.10	55403.70
637.30	55473.33
637.49	55555.25
637.69	55133.37
637.88	56050.86
638.08	55370.93
638.27	55850.16
638.46	55377.08
638.66	55889.07
638.85	55919.79
639.05	55970.99
639.24	55616.69
639.44	55129.27
639.63	55473.33
639.83	55555.25
640.02	55803.05
640.22	55690.41
640.41	56194.21
640.61	55174.33
640.80	55436.47
640.99	55166.13
641.19	56212.65
641.38	55223.48
641.58	55159.99
641.77	55076.02
641.97	55604.40
642.16	55510.19
642.36	55669.93
642.55	56079.53
642.74	55442.61
642.94	55751.85
643.13	55809.20
643.33	55948.46
643.52	55801.00
643.72	55981.23
643.91	55895.21
644.10	56194.21
644.30	56095.91
644.49	56085.67
644.69	56145.06
644.88	55944.36
645.08	55786.67
645.27	55813.29
645.46	55747.76
645.66	56104.10
645.85	55778.48
646.05	55710.89
646.24	55891.12
646.43	56059.05
646.63	56059.05
646.82	56218.79
647.02	55229.62
647.21	56181.93
647.40	55993.51
647.60	56140.97
647.79	56329.38
647.99	56024.23
648.18	55833.77
648.37	56384.68
648.57	56405.16
648.76	56544.42
648.96	56163.50
649.15	56474.79
649.34	56143.02
649.54	56114.34
649.73	55833.77
649.92	55958.70
650.12	56145.06
650.31	56116.39
650.51	56061.10
650.70	56190.12
650.89	56157.35
651.09	56399.01
651.28	56325.28
651.47	56284.33
651.67	56212.65
651.86	56417.44
652.06	55975.08
652.25	56581.28
652.44	56372.39
652.64	55864.49
652.83	56499.36
653.02	56134.82
653.22	56097.96
653.41	56022.19
653.60	55569.58
653.80	55721.13
653.99	56669.34
654.18	55706.80
654.38	56126.63
654.57	56452.26
654.76	56384.68
654.96	55913.64
655.15	56093.86
655.34	56407.20
655.54	55970.99
655.73	56050.86
655.92	56122.54
656.12	56263.85
656.31	55966.89
656.50	56435.87
656.70	56245.41
656.89	56358.05
657.08	56396.96
657.28	56353.96
657.47	55991.47
657.66	55934.12
657.86	56345.76
658.05	56239.27
658.24	56669.34
658.43	56210.60
658.63	56298.66
658.82	56757.41
659.01	56554.66
659.21	56466.59
659.40	56472.74
659.59	56024.23
659.79	56458.40
659.98	56882.33
660.17	56597.66
660.36	56421.54
660.56	56138.92
660.75	56585.38
660.94	56452.26
661.14	56251.56
661.33	56620.19
661.52	56210.60
661.71	56870.04
661.91	56390.82
662.10	55792.81
662.29	56663.20
662.49	56515.75
662.68	56722.59
662.87	56548.51
663.06	56714.40
663.26	56392.87
663.45	56544.42
663.64	56448.16
663.83	56513.70
664.03	56816.80
664.22	56409.25
664.41	56689.82
664.60	56261.80
664.80	56472.74
664.99	56218.79
665.18	56177.83
665.37	56718.49
665.57	56652.96
665.76	56265.89
665.95	56208.55
666.14	56485.03
666.34	56290.47
666.53	56427.68
666.72	56519.84
666.91	55981.23
667.11	55944.36
667.30	56530.08
667.49	56251.56
667.68	56829.08
667.87	56372.39
668.07	56513.70
668.26	56456.35
668.45	56165.54
668.64	56038.57
668.84	56931.48
669.03	56585.38
669.22	56116.39
669.41	56442.02
669.60	56501.41
669.80	56693.92
669.99	56448.16
670.18	56403.11
670.37	56251.56
670.57	56833.18
670.76	56333.48
670.95	56534.18
671.14	56618.14
671.33	55909.55
671.53	56239.27
671.72	56419.49
671.91	56218.79
672.10	56075.43
672.29	56329.38
672.48	56257.70
672.68	56485.03
672.87	56149.16
673.06	56339.62
673.25	56333.48
673.44	55911.59
673.64	56255.65
673.83	56071.34
674.02	56384.68
674.21	56149.16
674.40	56478.88
674.59	56054.95
674.79	56057.00
674.98	56417.44
675.17	56057.00
675.36	55979.18
675.55	56480.93
675.74	56374.44
675.94	56548.51
676.13	55975.08
676.32	56464.55
676.51	56734.88
676.70	56472.74
676.89	56421.54
677.08	56431.78
677.28	56087.72
677.47	56474.79
677.66	56452.26
677.85	56335.52
678.04	56067.24
678.23	56687.78
678.42	56376.48
678.62	56368.29
678.81	56712.35
679.00	56003.75
679.19	56661.15
679.38	56229.03
679.57	56431.78
679.76	56018.09
679.96	56310.95
680.15	56546.47
680.34	56310.95
680.53	56284.33
680.72	56302.76
680.91	56751.26
681.10	55966.89
681.29	56151.21
681.48	56247.46
681.68	56020.14
681.87	56245.41
682.06	56345.76
682.25	55727.28
682.44	56007.85
682.63	56136.87
682.82	56116.39
683.01	55905.45
683.20	55688.37
683.39	56190.12
683.59	55964.84
683.78	55936.17
683.97	55768.24
684.16	56380.58
684.35	56116.39
684.54	55573.68
684.73	55905.45
684.92	55491.76
685.11	55915.69
685.30	55846.06
685.49	56085.67
685.69	55819.44
685.88	56362.15
686.07	55479.47
686.26	55774.38
686.45	55940.27
686.64	56143.02
686.83	55739.57
687.02	55864.49
687.21	55835.82
687.40	55418.03
687.59	56122.54
687.78	55809.20
687.97	56259.75
688.16	55856.30
688.35	55606.45
688.54	55948.46
688.74	55751.85
688.93	55434.42
689.12	55585.97
689.31	55891.12
689.50	56284.33
689.69	55833.77
689.88	55012.54
690.07	55604.40
690.26	55717.04
690.45	55862.44
690.64	55524.53
690.83	55313.59
691.02	55256.24
691.21	55272.63
691.40	55364.79
691.59	55358.64
691.78	55506.10
691.97	55514.29
692.16	55854.25
692.35	55567.54
692.54	55741.61
692.73	55628.98
692.92	55616.69
693.11	55424.18
693.30	55424.18
693.49	55452.85
693.68	55516.34
693.87	55379.12
694.06	55516.34
694.25	55309.49
694.44	55280.82
694.63	54947.00
694.82	55344.31
695.01	54906.04
695.20	55432.37
695.39	55076.02
695.58	55383.22
695.77	54910.14
695.96	55024.82
696.15	54932.67
696.34	54901.95
696.53	54961.34
696.72	55018.68
696.91	54627.52
697.10	54613.18
697.29	54766.78
697.48	55502.00
697.67	55020.73
697.86	54981.82
698.05	54326.47
698.24	54656.19
698.43	54158.53
698.62	55174.33
698.81	54729.92
699.00	55422.13
699.19	54586.56
699.38	54510.78
699.57	54285.51
699.76	55082.17
699.95	54561.98
700.14	54355.14
700.32	54508.74
700.51	54187.21
700.70	54944.95
700.89	54551.74
701.08	54441.15
701.27	54435.01
701.46	54559.94
701.65	54236.36
701.84	54281.41
702.03	54293.70
702.22	54467.78
702.41	54219.97
702.60	54545.60
702.79	54512.83
702.98	53918.92
703.17	54625.47
703.35	53837.00
703.54	53722.32
703.73	54492.35
703.92	54432.96
704.11	54506.69
704.30	53802.19
704.49	54215.88
704.68	53699.79
704.87	53949.64
705.06	54260.93
705.25	54039.75
705.43	54088.90
705.62	54023.37
705.81	53863.63
706.00	54121.67
706.19	53607.63
706.38	54078.66
706.57	53634.25
706.76	53904.59
706.95	53912.78
707.14	53441.74
707.32	53732.56
707.51	53146.84
707.70	53839.05
707.89	53482.70
708.08	53165.27
708.27	53691.60
708.46	54035.66
708.65	53648.59
708.84	53951.69
709.02	53894.35
709.21	53974.22
709.40	53722.32
709.59	53732.56
709.78	53097.69
709.97	53535.95
710.16	53413.07
710.34	53337.30
710.53	53376.21
710.72	52958.42
710.91	53245.14
711.10	53075.16
711.29	53048.53
711.48	52786.39
711.66	52903.13
711.85	52528.35
712.04	52706.52
712.23	53177.56
712.42	52661.47
712.61	52946.14
712.80	52892.89
712.98	53155.03
713.17	52722.91
713.36	52671.71
713.55	52921.56
713.74	53437.65
713.93	52438.24
714.11	52698.33
714.30	52452.58
714.49	52708.57
714.68	52743.39
714.87	52802.78
715.06	52806.87
715.24	52565.21
715.43	52202.72
715.62	52327.65
715.81	52344.03
716.00	52460.77
716.18	51684.59
716.37	51770.60
716.56	52036.84
716.75	52360.42
716.94	51885.29
717.12	52223.20
717.31	52393.18
717.50	51705.07
717.69	51682.54
717.88	51854.57
718.06	52315.36
718.25	51844.33
718.44	51774.70
718.63	51844.33
718.82	51379.44
719.00	51682.54
719.19	51623.15
719.38	51397.87
719.57	51019.00
719.76	50918.65
719.94	51041.53
720.13	51090.68
720.32	51156.21
720.51	51160.31
720.69	51123.44
720.88	50877.69
721.07	50785.53
721.26	50654.46
721.44	50296.06
721.63	50719.99
721.82	50728.19
722.01	50271.49
722.20	50545.92
722.38	50238.72
722.57	50103.56
722.76	50193.67
722.95	50361.60
723.13	50216.19
723.32	49845.51
723.51	49456.40
723.70	49550.60
723.88	49970.44
724.07	49628.43
724.26	49704.20
724.44	49628.43
724.63	50087.17
724.82	49753.35
725.01	49265.94
725.19	49478.92
725.38	49503.50
725.57	49347.86
725.76	49974.53
725.94	49341.71
726.13	49186.07
726.32	49347.86
726.51	49390.86
726.69	49364.24
726.88	49497.36
727.07	49446.16
727.25	49366.29
727.44	49132.82
727.63	49124.63
727.82	49089.81
728.00	49057.04
728.19	48811.29
728.38	49706.25
728.56	49048.85
728.75	49341.71
728.94	48915.73
729.12	48966.93
729.31	49214.74
729.50	48821.53
729.69	49200.40
729.87	48919.83
730.06	48702.74
730.25	48876.82
730.43	48919.83
730.62	48696.60
730.81	48821.53
730.99	49102.10
731.18	48682.27
731.37	48993.56
731.55	49288.46
731.74	48831.77
731.93	49188.11
732.11	48887.06
732.30	49001.75
732.49	48526.62
732.67	48821.53
732.86	48530.72
733.05	48801.05
733.23	48661.79
733.42	48901.40
733.61	48653.59
733.79	48534.81
733.98	48860.44
734.17	48432.41
734.35	48735.51
734.54	49104.15
734.73	48731.42
734.91	48669.98
735.10	48514.33
735.29	48413.98
735.47	47959.33
735.66	48180.51
735.84	48184.61
736.03	47957.28
736.22	48362.78
736.40	47990.05
736.59	48551.20
736.78	48577.82
736.96	48098.59
737.15	48217.38
737.33	48123.17
737.52	48377.12
737.71	47895.85
737.89	47602.99
738.08	47983.91
738.27	48022.82
738.45	48235.81
738.64	47891.75
738.82	47758.63
739.01	47693.10
739.20	47254.83
739.38	47637.80
739.57	47879.46
739.75	47953.19
739.94	47633.71
740.13	47713.58
740.31	47459.63
740.50	47559.98
740.68	47629.61
740.87	47764.78
741.06	47756.58
741.24	47273.26
741.43	47162.67
741.61	47416.62
741.80	47144.24
741.99	47256.88
742.17	47099.19
742.36	47209.78
742.54	46830.90
742.73	47099.19
742.91	47039.79
743.10	47232.30
743.29	47205.68
743.47	47097.14
743.66	47187.25
743.84	47224.11
744.03	46994.74
744.21	47050.03
744.40	47611.18
744.59	47461.68
744.77	46550.33
744.96	46703.93
745.14	46765.37
745.33	47072.56
745.51	46464.32
745.70	46863.67
745.88	46511.42
746.07	46681.40
746.26	46345.53
746.44	46394.68
746.63	46126.40
746.81	46794.04
747.00	46155.07
747.18	46546.23
747.37	46259.52
747.55	46062.91
747.74	46603.58
747.92	45790.53
748.11	46011.71
748.29	46259.52
748.48	45665.61
748.66	46015.81
748.85	46056.77
749.03	46159.17
749.22	45888.84
749.41	45798.73
749.59	45913.41
749.78	45354.32
749.96	45430.09
750.15	45632.84
750.33	45903.17
750.52	45751.62
750.70	45768.01
750.89	45555.02
751.07	44957.01
751.26	45602.12
751.44	44961.11
751.63	45163.85
751.81	45047.12
752.00	45118.80
752.18	45602.12
752.37	44983.63
752.55	44959.06
752.74	45200.72
752.92	44889.43
753.10	44373.34
753.29	44809.56
753.47	45059.41
753.66	44895.57
753.84	45006.16
754.03	44840.28
754.21	44571.99
754.40	45155.66
754.58	45110.61
754.77	44692.82
754.95	44631.38
755.14	44979.54
755.32	44676.44
755.51	44574.04
755.69	44627.29
755.88	44768.60
756.06	44455.26
756.24	44508.50
756.43	44469.59
756.61	44588.38
756.80	44408.15
756.98	44316.00
757.17	44344.67
757.35	44391.77
757.54	43984.22
757.72	44164.45
757.90	44203.36
758.09	44127.58
758.27	43898.21
758.46	43892.07
758.64	43930.98
758.83	43902.31
759.01	44016.99
759.19	43943.27
759.38	43464.04
759.56	44131.68
759.75	43720.04
759.93	43367.79
760.12	43537.77
760.30	43752.80
760.48	43693.41
760.67	43160.94
760.85	43466.09
761.04	43711.84
761.22	43310.44
761.40	43572.58
761.59	43337.07
761.77	43214.19
761.96	43218.28
762.14	43244.91
762.32	43529.58
762.51	42823.03
762.69	42847.60
762.88	43351.40
763.06	43392.36
763.24	42872.18
763.43	43486.57
763.61	43062.64
763.80	42691.96
763.98	42890.61
764.16	42808.69
764.35	42464.63
764.53	42139.00
764.72	42222.97
764.90	42564.98
765.08	42351.99
765.27	42300.79
765.45	42247.55
765.63	42132.86
765.82	42290.55
766.00	41983.36
766.18	42255.74
766.37	42423.67
766.55	41778.56
766.74	42157.44
766.92	41817.47
767.10	41651.59
767.29	41934.21
767.47	41657.73
767.65	42083.71
767.84	41522.57
768.02	41893.25
768.20	41514.37
768.39	41737.60
768.57	41610.63
768.75	41776.51
768.94	41430.41
769.12	41608.58
769.30	41076.11
769.49	41557.38
769.67	41299.34
769.85	41162.12
770.04	41581.96
770.22	41074.06
770.40	40793.49
770.59	41424.26
770.77	40979.85
770.95	41106.83
771.14	41123.21
771.32	41067.92
771.50	40983.95
771.69	40605.08
771.87	40705.43
772.05	40822.16
772.24	40613.27
772.42	40285.59
772.60	40578.45
772.78	40805.78
772.97	40551.83
773.15	40639.89
773.33	40701.33
773.52	40699.28
773.70	40478.10
773.88	40740.24
774.07	40416.66
774.25	40461.72
774.43	40707.47
774.61	40289.69
774.80	40809.87
774.98	40562.07
775.16	40654.23
775.34	40779.15
775.53	40463.77
775.71	40842.64
775.89	40527.25
776.08	40807.83
776.26	40920.46
776.44	40287.64
776.62	40422.81
776.81	40162.72
776.99	40824.21
777.17	40934.80
777.35	40738.19
777.54	40918.42
777.72	40598.93
777.90	40955.28
778.08	40959.38
778.27	40480.15
778.45	40936.85
778.63	40918.42
778.81	40404.38
779.00	41684.36
779.18	41289.10
779.36	41297.29
779.54	40945.04
779.73	40600.98
779.91	41272.71
780.09	40959.38
780.27	41344.39
780.46	41323.91
780.64	41473.42
780.82	40736.15
781.00	40922.51
781.19	41364.87
781.37	41418.12
781.55	41493.89
781.73	41661.83
781.91	41323.91
782.10	41252.23
782.28	41301.39
782.46	41551.24
782.64	41606.53
782.82	41397.64
783.01	41858.43
783.19	41512.33
783.37	41393.54
783.55	41373.06
783.74	41756.03
783.92	41121.16
784.10	42251.64
784.28	41741.70
784.46	41426.31
784.64	41581.96
784.83	41411.98
785.01	41844.10
785.19	41368.97
785.37	41387.40
785.55	41385.35
785.74	41293.19
785.92	41219.47
786.10	41864.58
786.28	41792.90
786.46	41129.36
786.64	41133.45
786.83	41162.12
787.01	41682.31
787.19	41776.51
787.37	41411.98
787.55	41119.12
787.74	41057.68
787.92	41430.41
788.10	40867.22
788.28	41022.86
788.46	41080.21
788.64	40502.68
788.82	41274.76
789.01	40965.52
789.19	41108.88
789.37	40523.16
789.55	40670.61
789.73	40420.76
789.91	40357.27
790.09	40461.72
790.28	40437.14
790.46	40189.34
790.64	40832.40
790.82	40306.07
791.00	40181.15
791.18	39822.75
791.36	40134.04
791.55	40027.55
791.73	39746.98
791.91	39818.66
792.09	39867.81
792.27	40060.32
792.45	40207.77
792.63	39744.93
792.81	39720.35
793.00	39445.93
793.18	40060.32
793.36	39515.56
793.54	39521.70
793.72	39220.65
793.90	39085.48
794.08	39206.31
794.26	39429.54
794.44	39222.70
794.62	38700.47
794.81	38886.83
794.99	38819.25
795.17	38940.08
795.35	39120.30
795.53	38886.83
795.71	38600.12
795.89	38264.25
796.07	38231.48
796.25	38127.03
796.43	38350.26
796.61	38004.16
796.80	38225.34
796.98	38294.97
797.16	38194.62
797.34	38165.95
797.52	38084.03
797.70	38280.63
797.88	37821.89
798.06	37871.04
798.24	37266.89
798.42	37270.98
798.60	37297.61
798.78	37387.72
798.96	37526.98
799.14	36996.56
799.32	37647.81
799.51	36865.49
799.69	37285.32
799.87	37201.35
800.05	36689.36
800.23	37172.68
800.41	36861.39
800.59	36836.81
800.77	36365.78
800.95	36025.82
801.13	36294.10
801.31	35669.47
801.49	36068.83
801.67	35874.27
801.85	36111.83
802.03	35896.80
802.21	35630.56
802.39	35595.74
802.57	35786.21
802.75	35927.52
802.93	35698.14
803.11	35507.68
803.29	35247.59
803.47	35288.55
803.65	35319.27
803.83	35620.32
804.01	35384.80
804.19	34862.57
804.37	34805.23
804.55	35120.62
804.73	35042.79
804.91	34622.96
805.09	34715.12
805.27	34688.49
805.45	34559.47
805.63	34917.87
805.81	34721.26
805.99	34729.45
806.17	34827.76
806.35	34295.28
806.53	33938.94
806.71	34342.39
806.89	34262.52
807.07	34330.10
807.25	33957.37
807.43	33930.75
807.61	34090.49
807.79	33857.02
807.97	33891.83
808.15	33758.72
808.33	33625.60
808.51	33504.77
808.69	33752.57
808.87	33146.37
809.05	33320.45
809.23	33043.98
809.41	33187.33
809.59	33476.10
809.77	33551.87
809.95	33265.16
810.13	33218.05
810.31	33289.73
810.49	33064.46
810.67	32740.88
810.84	32992.78
811.02	32900.62
811.20	32896.52
811.38	32536.08
811.56	32699.92
811.74	32747.02
811.92	32134.68
812.10	32255.51
812.28	32392.72
812.46	32167.45
812.64	32284.18
812.82	32310.80
813.00	32247.32
813.18	32065.05
813.36	31913.50
813.53	31893.02
813.71	31972.89
813.89	31792.67
814.07	31958.55
814.25	32232.98
814.43	31663.64
814.61	31616.54
814.79	31542.81
814.97	31692.32
815.15	31598.11
815.33	31350.31
815.50	31303.20
815.68	31608.35
815.86	31499.81
816.04	31100.45
816.22	31401.50
816.40	30940.71
816.58	31125.03
816.76	31077.93
816.94	30983.72
817.11	30948.90
817.29	30983.72
817.47	30729.77
817.65	30737.96
817.83	30905.90
818.01	30377.52
818.19	30258.74
818.37	30299.70
818.54	30017.08
818.72	30361.14
818.90	30375.47
819.08	30182.96
819.26	30391.86
819.44	30330.42
819.62	30080.56
819.80	30230.07
819.97	30256.69
820.15	30125.62
820.33	29883.96
820.51	30023.22
820.69	29539.90
820.87	30019.13
821.05	30279.22
821.22	29996.60
821.40	29830.71
821.58	29724.22
821.76	29638.20
821.94	29605.44
822.12	29546.05
822.29	29662.78
822.47	29265.47
822.65	29568.57
822.83	29865.53
823.01	29142.60
823.19	29384.26
823.36	29154.88
823.54	29230.66
823.72	28997.19
823.90	28886.60
824.08	28771.91
824.25	29183.55
824.43	28888.65
824.61	28939.85
824.79	28796.49
824.97	28595.79
825.15	28917.32
825.32	28898.89
825.50	28696.14
825.68	28436.05
825.86	28620.36
826.04	28812.87
826.21	28356.18
826.39	28548.68
826.57	28520.01
826.75	28393.04
826.93	28169.81
827.10	28139.09
827.28	28243.54
827.46	28444.24
827.64	28218.96
827.81	28335.70
827.99	28206.67
828.17	27903.57
828.35	27764.31
828.53	28126.80
828.70	27934.29
828.88	27995.73
829.06	27913.81
829.24	28073.56
829.41	28005.97
829.59	28030.55
829.77	27803.22
829.95	27706.97
830.12	27919.96
830.30	27356.77
830.48	27600.47
830.66	27479.64
830.84	27555.42
831.01	27301.47
831.19	27342.43
831.37	27389.53
831.55	27375.20
831.72	27309.66
831.90	27395.68
832.08	27098.72
832.25	27289.18
832.43	26783.34
832.61	27033.19
832.79	27293.28
832.96	27043.43
833.14	27235.94
833.32	27358.81
833.50	27500.12
833.67	27104.87
833.85	27248.22
834.03	26791.53
834.20	27045.48
834.38	27014.76
834.56	26859.11
834.74	26445.42
834.91	26764.90
835.09	26639.98
835.27	26584.68
835.44	26582.63
835.62	26463.85
835.80	26388.08
835.98	26312.30
836.15	26383.98
836.33	26228.34
836.51	26519.15
836.68	26148.46
836.86	26123.89
837.04	26453.61
837.21	25869.94
837.39	26304.11
837.57	26195.57
837.75	26357.36
837.92	25587.32
838.10	25722.49
838.28	25659.00
838.45	25998.96
838.63	25767.54
838.81	25837.17
838.98	25876.09
839.16	25564.79
839.34	25458.30
839.51	25679.48
839.69	25372.28
839.87	25386.62
840.04	25398.91
840.22	25800.31
840.40	25677.43
840.57	25237.12
840.75	25429.63
840.93	25245.31
841.10	25390.72
841.28	25736.82
841.46	25333.37
841.63	25370.24
841.81	25292.41
841.98	25253.50
842.16	25190.02
842.34	25474.68
842.51	24931.97
842.69	25560.70
842.87	24884.87
843.04	25419.39
843.22	25017.99
843.40	25138.82
843.57	24860.29
843.75	25224.83
843.92	24872.58
844.10	24755.85
844.28	24815.24
844.45	24923.78
844.63	24745.61
844.81	24594.06
844.98	24819.33
845.16	24884.87
845.33	24692.36
845.51	24630.92
845.69	24571.53
845.86	24516.23
846.04	24487.56
846.21	24415.88
846.39	24546.95
846.57	24163.98
846.74	24229.52
846.92	24327.82
847.09	24491.66
847.27	24229.52
847.45	24321.68
847.62	24417.93
847.80	24411.79
847.97	24336.01
848.15	23957.14
848.32	23973.52
848.50	23819.92
848.68	23862.93
848.85	23860.88
849.03	23764.63
849.20	23873.17
849.38	24145.55
849.56	23905.94
849.73	23752.34
849.91	23449.24
850.08	24004.24
850.26	23199.39
850.43	23482.01
850.61	23709.33
850.78	23570.07
850.96	23598.74
851.14	23441.05
851.31	23576.22
851.49	23512.73
851.66	23576.22
851.84	23463.58
852.01	23608.98
852.19	23486.11
852.36	23092.90
852.54	23281.31
852.71	23479.96
852.89	22941.35
853.07	23135.90
853.24	23131.81
853.42	22937.25
853.59	22957.73
853.77	22916.77
853.94	23250.59
854.12	23207.58
854.29	22765.22
854.47	23015.07
854.64	22902.43
854.82	22884.00
854.99	23096.99
855.17	22957.73
855.34	22822.56
855.52	22855.33
855.69	22701.73
855.87	22650.53
856.04	22300.33
856.22	22478.50
856.39	22419.11
856.57	22427.31
856.74	22578.86
856.92	22564.52
857.09	22394.54
857.27	22087.34
857.44	22488.74
857.62	22496.94
857.79	22312.62
857.97	22552.23
858.14	22396.59
858.32	22165.17
858.49	22247.08
858.67	22054.58
858.84	21999.28
859.02	21923.51
859.19	21935.79
859.37	21800.63
859.54	21829.30
859.72	21892.79
859.89	21925.55
860.06	22027.95
860.24	21763.76
860.41	21796.53
860.59	21520.06
860.76	21948.08
860.94	21567.16
861.11	21749.43
861.29	21718.71
861.46	21540.54
861.64	21626.55
861.81	21495.48
861.98	21552.82
862.16	21434.04
862.33	21169.85
862.51	21114.56
862.68	21272.25
862.86	21190.33
863.03	21421.75
863.21	21374.65
863.38	21098.17
863.55	21006.02
863.73	21323.45
863.90	21081.79
864.08	21063.36
864.25	20874.95
864.43	21126.85
864.60	20780.74
864.77	20950.72
864.95	21038.78
865.12	20905.66
865.30	20870.85
865.47	20838.08
865.64	20827.84
865.82	20840.13
865.99	21008.06
866.17	21028.54
866.34	21006.02
866.51	20453.06
866.69	20698.82
866.86	20766.40
867.04	20823.75
867.21	20377.29
867.38	20573.89
867.56	20291.27
867.73	20235.98
867.91	20594.37
868.08	20336.33
868.25	20231.88
868.43	20131.53
868.60	20160.20
868.78	20174.54
868.95	20412.10
869.12	20186.83
869.30	20133.58
869.47	20285.13
869.64	19795.67
869.82	20139.72
869.99	19787.47
870.16	20035.28
870.34	19709.65
870.51	19939.02
870.69	19803.86
870.86	19838.67
871.03	19971.79
871.21	19406.55
871.38	19859.15
871.55	19343.06
871.73	19631.83
871.90	19476.18
872.07	19128.03
872.25	19513.05
872.42	19558.10
872.59	19355.35
872.77	19361.50
872.94	19128.03
873.11	19367.64
873.29	19242.71
873.46	19121.88
873.63	19066.59
873.81	18988.77
873.98	19013.34
874.15	19027.68
874.33	18878.18
874.50	18839.26
874.67	19003.10
874.85	18790.11
875.02	18917.09
875.19	18634.47
875.37	18732.77
875.54	18773.73
875.71	18783.97
875.88	18360.04
876.06	18626.28
876.23	18409.19
876.40	18245.35
876.58	18331.37
876.75	18499.30
876.92	18575.08
877.10	18302.70
877.27	18345.70
877.44	18018.03
877.61	17966.83
877.79	18177.77
877.96	18271.98
878.13	17999.60
878.31	17970.93
878.48	18015.98
878.65	17960.69
878.82	18009.84
879.00	17958.64
879.17	17772.27
879.34	18020.08
879.51	17712.88
879.69	17723.12
879.86	17690.35
880.03	17739.51
880.21	17340.15
880.38	17800.94
880.55	17796.85
880.72	17583.86
880.90	17657.59
881.07	17329.91
881.24	17516.28
881.41	17497.84
881.59	17501.94
881.76	17254.14
881.93	17260.28
882.10	17123.07
882.28	17286.90
882.45	17479.41
882.62	17155.83
882.79	17338.10
882.96	16695.04
883.14	17141.50
883.31	17254.14
883.48	17053.44
883.65	17247.99
883.83	17174.27
884.00	16959.23
884.17	17313.53
884.34	17127.16
884.51	17088.25
884.69	16805.63
884.86	16793.34
885.03	17123.07
885.20	16824.06
885.38	17088.25
885.55	17067.77
885.72	16860.93
885.89	16613.12
886.06	16897.79
886.24	16834.30
886.41	16781.06
886.58	16975.61
886.75	16983.80
886.92	16541.44
887.10	16828.16
887.27	16293.64
887.44	16600.83
887.61	16770.82
887.78	16508.68
887.95	16533.25
888.13	16525.06
888.30	16361.22
888.47	16422.66
888.64	16371.46
888.81	16389.89
888.99	16346.89
889.16	16391.94
889.33	16088.84
889.50	16217.86
889.67	15943.44
889.84	15978.25
890.01	16060.17
890.19	15937.29
890.36	16039.69
890.53	15972.11
890.70	15916.81
890.87	15896.33
891.04	16019.21
891.22	15994.64
891.39	15855.37
891.56	15603.47
891.73	15685.39
891.90	15861.52
892.07	15615.76
892.24	15847.18
892.42	15818.51
892.59	15759.12
892.76	15529.75
892.93	15478.55
893.10	15673.10
893.27	15669.01
893.44	15392.53
893.61	15501.08
893.79	15494.93
893.96	15697.68
894.13	15619.86
894.30	15748.88
894.47	15474.45
894.64	15537.94
894.81	15310.61
894.98	15566.61
895.15	15456.02
895.33	15478.55
895.50	15449.88
895.67	15306.52
895.84	15318.81
896.01	15425.30
896.18	15181.59
896.35	15509.27
896.52	15425.30
896.69	15372.05
896.86	15320.85
897.04	15159.06
897.21	15404.82
897.38	15304.47
897.55	15552.27
897.72	15488.79
897.89	15386.39
898.06	15310.61
898.23	15048.47
898.40	15451.92
898.57	15376.15
898.74	15398.68
898.91	15066.91
899.08	15265.56
899.26	15357.72
899.43	15302.42
899.60	15138.58
899.77	15159.06
899.94	15298.33
900.11	15171.35
900.28	15300.37
900.45	15161.11
900.62	14976.80
900.79	15163.16
900.96	15097.63
901.13	15038.23
901.30	14948.12
901.47	15009.56
901.64	15019.80
901.81	15046.43
901.98	14999.32
902.15	15265.56
902.32	15136.54
902.49	15120.15
902.66	15218.46
902.83	15101.72
903.01	15224.60
903.18	15134.49
903.35	15320.85
903.52	15105.82
903.69	15187.74
903.86	15431.44
904.03	15382.29
904.20	15339.29
904.37	15247.13
904.54	15027.99
904.71	15154.97
904.88	15322.90
905.05	14960.41
905.22	15073.05
905.39	15087.39
905.56	15075.10
905.73	15056.67
905.90	15077.15
906.07	14995.23
906.24	14970.65
906.41	14944.03
906.58	15073.05
906.75	15021.85
906.92	14933.79
907.09	14907.16
907.26	15075.10
907.43	14864.16
907.60	15005.47
907.77	15107.87
907.93	15075.10
908.10	15007.52
908.27	15034.14
908.44	14868.25
908.61	14903.07
908.78	14870.30
908.95	15109.91
909.12	14812.96
909.29	14708.51
909.46	14679.84
909.63	15073.05
909.80	14958.36
909.97	15169.30
910.14	14958.36
910.31	14880.54
910.48	14880.54
910.65	14901.02
910.82	14761.76
910.99	14823.20
911.16	14815.01
911.33	14956.32
911.50	14685.98
911.66	14272.29
911.83	14659.36
912.00	14665.50
912.17	14548.77
912.34	14341.93
912.51	14579.49
912.68	14702.37
912.85	14432.04
913.02	14470.95
913.19	14356.26
913.36	14380.84
913.53	14470.95
913.70	14354.21
913.86	14456.61
914.03	14425.89
914.20	14319.40
914.37	14264.10
914.54	14321.45
914.71	14212.90
914.88	14479.14
915.05	14077.74
915.22	14255.91
915.39	14176.04
915.55	14130.98
915.72	14040.87
915.89	13899.56
916.06	13791.02
916.23	13944.62
916.40	14100.26
916.57	13950.76
916.74	14008.11
916.91	13762.35
917.07	13698.86
917.24	13881.13
917.41	13594.42
917.58	13729.58
917.75	13727.53
917.92	13422.39
918.09	13522.74
918.26	13633.33
918.42	13532.98
918.59	13549.36
918.76	13479.73
918.93	13555.51
919.10	13459.25
919.27	13385.52
919.44	13451.06
919.60	13289.27
919.77	13463.35
919.94	13141.82
920.11	13182.77
920.28	13336.37
920.45	13012.79
920.61	13006.65
920.78	12971.83
920.95	13135.67
921.12	12951.35
921.29	12877.63
921.46	12752.70
921.62	12748.61
921.79	12746.56
921.96	12775.23
922.13	12767.04
922.30	12537.66
922.47	12629.82
922.63	12443.46
922.80	12535.62
922.97	12373.83
923.14	12097.35
923.31	12400.45
923.47	12128.07
923.64	12584.77
923.81	12302.15
923.98	12050.25
924.15	12197.70
924.32	12162.89
924.48	12095.30
924.65	12205.89
924.82	12025.67
924.99	11974.47
925.15	11917.13
925.32	12037.96
925.49	11781.96
925.66	11806.54
925.83	11736.91
925.99	11927.37
926.16	11792.20
926.33	11784.01
926.50	11431.76
926.67	11765.58
926.83	11702.09
927.00	11403.09
927.17	11431.76
927.34	11358.03
927.50	11378.51
927.67	11476.82
927.84	11384.66
928.01	11431.76
928.17	11024.22
928.34	11163.48
928.51	11108.18
928.68	11016.02
928.84	11124.57
929.01	10784.60
929.18	10770.27
929.35	11013.98
929.51	10766.17
929.68	10696.54
929.85	10692.44
930.02	10825.56
930.18	10481.50
930.35	10723.16
930.52	10510.18
930.69	10516.32
930.85	10270.56
931.02	10364.77
931.19	10282.85
931.36	10254.18
931.52	10250.08
931.69	10372.96
931.86	10170.21
932.02	10121.06
932.19	10139.49
932.36	10063.72
932.53	10162.02
932.69	9998.18
932.86	9989.99
933.03	9985.90
933.19	9924.46
933.36	9715.56
933.53	9764.72
933.70	9736.04
933.86	9734.00
934.03	9688.94
934.20	9625.45
934.36	9668.46
934.53	9273.20
934.70	9285.49
934.86	9305.97
935.03	9097.08
935.20	9062.26
935.36	9052.02
935.53	8882.04
935.70	9062.26
935.86	8978.30
936.03	8742.78
936.20	8621.95
936.36	8681.34
936.53	8695.68
936.70	8585.08
936.86	8658.81
937.03	8464.25
937.20	8144.77
937.36	8560.51
937.53	8003.46
937.70	8050.57
937.86	7915.40
938.03	7786.38
938.20	8159.11
938.36	7741.32
938.53	7788.43
938.70	7600.01
938.86	7448.46
939.03	7313.30
939.20	7262.10
939.36	7337.87
939.53	7171.99
939.70	7305.10
939.86	7008.15
940.03	6877.08
940.19	6809.50
940.36	6950.81
940.53	6721.43
940.69	6678.43
940.86	6746.01
941.03	6541.21
941.19	6424.48
941.36	6567.84
941.52	6344.61
941.69	6369.18
941.86	6295.46
942.02	6229.92
942.19	5984.16
942.35	6172.58
942.52	6188.96
942.69	5945.25
942.85	5906.34
943.02	5969.83
943.18	5953.45
943.35	5826.47
943.52	5894.05
943.68	5644.20
943.85	5617.58
944.01	5736.36
944.18	5621.67
944.35	5691.31
944.51	5599.15
944.68	5554.09
944.84	5320.62
945.01	5550.00
945.17	5478.32
945.34	5425.07
945.51	5439.40
945.67	5517.23
945.84	5466.03
946.00	5394.35
946.17	5427.12
946.33	5351.34
946.50	5398.45
946.67	5398.45
946.83	5408.69
947.00	5347.25
947.16	5271.47
947.33	5296.05
947.49	5271.47
947.66	5294.00
947.82	5412.78
947.99	5408.69
948.16	5449.64
948.32	5285.81
948.49	5353.39
948.65	5433.26
948.82	5466.03
948.98	5332.91
949.15	5250.99
949.31	5285.81
949.48	5287.86
949.64	5320.62
949.81	5384.11
949.97	5334.96
950.14	5377.97
950.30	5105.59
950.47	5523.37
950.63	5291.95
950.80	5451.69
950.96	5291.95
951.13	5392.30
951.30	5308.34
951.46	5564.33
951.63	5443.50
951.79	5375.92
951.96	5496.75
952.12	5566.38
952.29	5492.65
952.45	5443.50
952.62	5498.80
952.78	5476.27
952.94	5396.40
953.11	5382.06
953.27	5312.43
953.44	5627.82
953.60	5332.91
953.77	5496.75
953.93	5492.65
954.10	5447.60
954.26	5402.54
954.43	5527.47
954.59	5474.22
954.76	5590.95
954.92	5509.04
955.09	5533.61
955.25	5478.32
955.42	5488.56
955.58	5537.71
955.75	5480.36
955.91	5445.55
956.07	5552.04
956.24	5566.38
956.40	5552.04
956.57	5633.96
956.73	5490.60
956.90	5676.97
957.06	5457.84
957.23	5545.90
957.39	5441.45
957.56	5607.34
957.72	5416.88
957.88	5459.88
958.05	5648.30
958.21	5679.02
958.38	5521.32
958.54	5566.38
958.71	5578.67
958.87	5506.99
959.03	5529.52
959.20	5523.37
959.36	5560.24
959.53	5515.18
959.69	5406.64
959.85	5670.83
960.02	5433.26
960.18	5636.01
960.35	5621.67
960.51	5517.23
960.68	5517.23
960.84	5615.53
961.00	5431.21
961.17	5537.71
961.33	5488.56
961.50	5492.65
961.66	5656.49
961.82	5431.21
961.99	5451.69
962.15	5509.04
962.31	5506.99
962.48	5525.42
962.64	5588.91
962.81	5539.76
962.97	5492.65
963.13	5447.60
963.30	5509.04
963.46	5484.46
963.62	5472.17
963.79	5406.64
963.95	5447.60
964.12	5513.13
964.28	5451.69
964.44	5390.25
964.61	5404.59
964.77	5605.29
964.93	5394.35
965.10	5371.82
965.26	5287.86
965.42	5341.10
965.59	5408.69
965.75	5359.53
965.92	5513.13
966.08	5371.82
966.24	5353.39
966.41	5359.53
966.57	5406.64
966.73	5351.34
966.90	5347.25
967.06	5396.40
967.22	5328.81
967.39	5308.34
967.55	5269.42
967.71	5226.42
967.88	5195.70
968.04	5277.62
968.20	5238.70
968.37	5140.40
968.53	5130.16
968.69	5201.84
968.85	5273.52
969.02	5207.98
969.18	5267.38
969.34	5285.81
969.51	5255.09
969.67	5183.41
969.83	5038.00
970.00	5320.62
970.16	5126.07
970.32	5197.74
970.48	5263.28
970.65	5117.87
970.81	5152.69
970.97	5136.31
971.14	5078.96
971.30	5162.93
971.46	5056.43
971.63	5091.25
971.79	5220.27
971.95	4997.04
972.11	5005.24
972.28	5093.30
972.44	5046.20
972.60	4990.90
972.76	5162.93
972.93	5031.86
973.09	5068.72
973.25	4892.60
973.42	4878.26
973.58	4962.23
973.74	4888.50
973.90	5087.15
974.07	4960.18
974.23	4919.22
974.39	4941.75
974.55	4917.17
974.72	5054.39
974.88	4825.01
975.04	4945.84
975.20	4777.91
975.37	4874.17
975.53	4771.77
975.69	4814.77
975.85	4913.08
976.01	4784.06
976.18	4782.01
976.34	4931.51
976.50	4775.86
976.66	4788.15
976.83	4814.77
976.99	4870.07
977.15	4720.57
977.31	4548.54
977.47	4851.64
977.64	4739.00
977.80	4784.06
977.96	4741.05
978.12	4644.79
978.29	4605.88
978.45	4638.65
978.61	4532.15
978.77	4726.71
978.93	4628.41
979.10	4636.60
979.26	4644.79
979.42	4708.28
979.58	4526.01
979.74	4665.27
979.91	4573.11
980.07	4448.19
980.23	4509.63
980.39	4487.10
980.55	4569.02
980.71	4503.48
980.88	4495.29
981.04	4442.04
981.20	4499.39
981.36	4431.80
981.52	4478.91
981.68	4429.76
981.85	4448.19
982.01	4353.98
982.17	4347.84
982.33	4440.00
982.49	4382.65
982.65	4419.52
982.82	4429.76
982.98	4396.99
983.14	4290.49
983.30	4483.00
983.46	4468.67
983.62	4353.98
983.79	4356.03
983.95	4261.82
984.11	4204.48
984.27	4276.16
984.43	4208.58
984.59	4257.73
984.75	4327.36
984.91	4222.91
985.08	4308.93
985.24	4208.58
985.40	4136.90
985.56	4239.30
985.72	4310.97
985.88	4272.06
986.04	4263.87
986.20	4124.61
986.37	4163.52
986.53	4057.03
986.69	4181.95
986.85	4048.83
987.01	4075.46
987.17	4155.33
987.33	4040.64
987.49	3956.68
987.65	4022.21
987.82	4163.52
987.98	4067.27
988.14	4046.79
988.30	4044.74
988.46	4054.98
988.62	4126.66
988.78	4044.74
988.94	3923.91
989.10	3895.24
989.26	3919.81
989.42	3903.43
989.59	3833.80
989.75	3805.13
989.91	3962.82
990.07	3907.52
990.23	3932.10
990.39	3934.15
990.55	3903.43
990.71	3907.52
990.87	3762.12
991.03	3827.65
991.19	3825.61
991.35	3768.26
991.51	3708.87
991.67	3925.96
991.83	3866.56
992.00	3821.51
992.16	3762.12
992.32	3837.89
992.48	3764.17
992.64	3729.35
992.80	3727.30
992.96	3776.45
993.12	3706.82
993.28	3659.72
993.44	3672.01
993.60	3669.96
993.76	3641.29
993.92	3682.25
994.08	3766.21
994.24	3796.93
994.40	3538.89
994.56	3725.26
994.72	3551.18
994.88	3522.51
995.04	3508.17
995.20	3479.50
995.36	3604.42
995.52	3600.33
995.68	3545.03
995.84	3530.70
996.00	3686.34
996.16	3440.59
996.32	3524.55
996.48	3510.22
996.64	3518.41
996.80	3485.64
996.96	3459.02
997.12	3483.59
997.28	3444.68
997.44	3522.51
997.60	3479.50
997.76	3510.22
997.92	3524.55
998.08	3526.60
998.24	3327.95
998.40	3395.53
998.56	3479.50
998.72	3301.33
998.88	3354.57
999.04	3420.11
999.20	3360.72
999.36	3291.09
999.52	3389.39
999.68	3395.53
999.84	3362.76
1000.00	3358.67
1000.16	3270.61
1000.32	3157.97
1000.48	3436.49
1000.64	3205.07
1000.80	3254.22
1000.95	3149.78
1001.11	3387.34
1001.27	3215.31
1001.43	3297.23
1001.59	3114.96
1001.75	3157.97
1001.91	3184.59
1002.07	3198.93
1002.23	3100.62
1002.39	3264.46
1002.55	3264.46
1002.71	3135.44
1002.87	3192.78
1003.03	3127.25
1003.19	3037.14
1003.34	3217.36
1003.50	3026.90
1003.66	3141.58
1003.82	3117.01
1003.98	3104.72
1004.14	3088.34
1004.30	3094.48
1004.46	3110.86
1004.62	3076.05
1004.78	3026.90
1004.94	3108.82
1005.09	3082.19
1005.25	3035.09
1005.41	3020.75
1005.57	3024.85
1005.73	3018.71
1005.89	3063.76
1006.05	2979.79
1006.21	2967.51
1006.37	2971.60
1006.52	3104.72
1006.68	2908.12
1006.84	3012.56
1007.00	2922.45
1007.16	2920.40
1007.32	2836.44
1007.48	2998.23
1007.64	2957.27
1007.79	2885.59
1007.95	2938.84
1008.11	2901.97
1008.27	2830.29
1008.43	2910.16
1008.59	2795.48
1008.75	2953.17
1008.91	2893.78
1009.06	2908.12
1009.22	2926.55
1009.38	2815.96
1009.54	2807.77
1009.70	2822.10
1009.86	2828.24
1010.01	2897.88
1010.17	2701.27
1010.33	2801.62
1010.49	2856.92
1010.65	2893.78
1010.81	2736.09
1010.96	2711.51
1011.12	2723.80
1011.28	2658.26
1011.44	2777.05
1011.60	2701.27
1011.76	2605.02
1011.91	2727.89
1012.07	2750.42
1012.23	2633.69
1012.39	2682.84
1012.55	2813.91
1012.71	2645.98
1012.86	2590.68
1013.02	2703.32
1013.18	2611.16
1013.34	2662.36
1013.50	2631.64
1013.65	2670.55
1013.81	2598.87
1013.97	2582.49
1014.13	2578.39
1014.29	2619.35
1014.44	2682.84
1014.60	2564.06
1014.76	2568.15
1014.92	2631.64
1015.07	2609.11
1015.23	2645.98
1015.39	2529.24
1015.55	2568.15
1015.71	2598.87
1015.86	2586.58
1016.02	2564.06
1016.18	2414.56
1016.34	2588.63
1016.49	2553.82
1016.65	2570.20
1016.81	2504.67
1016.97	2551.77
1017.12	2572.25
1017.28	2473.95
1017.44	2408.41
1017.60	2467.80
1017.75	2475.99
1017.91	2508.76
1018.07	2500.57
1018.23	2490.33
1018.38	2371.55
1018.54	2445.27
1018.70	2404.32
1018.86	2394.08
1019.01	2412.51
1019.17	2371.55
1019.33	2539.48
1019.49	2465.75
1019.64	2494.43
1019.80	2328.54
1019.96	2453.47
1020.12	2437.08
1020.27	2355.16
1020.43	2408.41
1020.59	2455.51
1020.74	2441.18
1020.90	2484.19
1021.06	2246.62
1021.22	2355.16
1021.37	2457.56
1021.53	2291.68
1021.69	2316.25
1021.84	2246.62
1022.00	2234.33
1022.16	2224.09
1022.31	2361.31
1022.47	2334.68
1022.63	2353.12
1022.79	2129.89
1022.94	2263.01
1023.10	2394.08
1023.26	2299.87
1023.41	2277.34
1023.57	2252.77
1023.73	2328.54
1023.88	2271.20
1024.04	2203.61
1024.20	2213.85
1024.35	2265.05
1024.51	2297.82
1024.67	2097.12
1024.82	2324.44
1024.98	2248.67
1025.14	2271.20
1025.29	2236.38
1025.45	2297.82
1025.61	2148.32
1025.76	2242.53
1025.92	2189.28
1026.08	2193.37
1026.23	2236.38
1026.39	2281.44
1026.55	2207.71
1026.70	2146.27
1026.86	2265.05
1027.02	2301.92
1027.17	2154.46
1027.33	2248.67
1027.48	2224.09
1027.64	2060.26
1027.80	2191.33
1027.95	2211.81
1028.11	2037.73
1028.27	2093.02
1028.42	2070.50
1028.58	2185.18
1028.73	2115.55
1028.89	2035.68
1029.05	2090.98
1029.20	2109.41
>>>>>End Processed Spectral Data<<<<<
