SpectraSuite Data File
++++++++++++++++++++++++++++++++++++
Date: Fri Jun 02 14:47:54 CEST 2017
User: INFO_000
Dark Spectrum Present: No
Reference Spectrum Present: No
Number of Sampled Component Spectra: 1
Spectrometers: USB4H00879
Integration Time (usec): 80000 (USB4H00879)
Spectra Averaged: 1 (USB4H00879)
Boxcar Smoothing: 0 (USB4H00879)
Correct for Electrical Dark: No (USB4H00879)
Strobe/Lamp Enabled: No (USB4H00879)
Correct for Detector Non-linearity: No (USB4H00879)
Correct for Stray Light: No (USB4H00879)
Number of Pixels in Processed Spectrum: 3648
>>>>>Begin Processed Spectral Data<<<<<
345.13	1245.16
345.34	1245.16
345.56	1245.16
345.78	1265.64
345.99	1304.56
346.21	1730.53
346.42	1685.48
346.64	1732.58
346.86	1818.60
347.07	1656.81
347.29	1736.68
347.50	1679.33
347.72	1695.72
347.94	1761.25
348.15	1654.76
348.37	1617.90
348.59	1685.48
348.80	1572.84
349.02	1683.43
349.23	1837.03
349.45	1744.87
349.67	1837.03
349.88	1808.36
350.10	1896.42
350.31	1783.78
350.53	1775.59
350.75	1982.43
350.96	1771.49
351.18	1765.35
351.39	1804.26
351.61	1781.73
351.82	1894.37
352.04	1865.70
352.26	1820.64
352.47	1902.56
352.69	1880.04
352.90	1724.39
353.12	1847.27
353.34	1880.04
353.55	1923.04
353.77	1884.13
353.98	1847.27
354.20	1820.64
354.41	1896.42
354.63	1880.04
354.85	1966.05
355.06	1841.12
355.28	1822.69
355.49	1863.65
355.71	1855.46
355.92	1851.36
356.14	1904.61
356.35	1871.84
356.57	1834.98
356.79	1978.34
357.00	1773.54
357.22	1986.53
357.43	1845.22
357.65	1941.47
357.86	1806.31
358.08	1937.38
358.29	1898.47
358.51	1970.15
358.72	1951.71
358.94	1888.23
359.16	1849.32
359.37	1900.52
359.59	1859.56
359.80	2002.91
360.02	1986.53
360.23	2007.01
360.45	1957.86
360.66	1923.04
360.88	1847.27
361.09	1863.65
361.31	1943.52
361.52	1992.67
361.74	2084.83
361.95	2076.64
362.17	1986.53
362.38	2060.26
362.60	2011.11
362.81	1947.62
363.03	1929.19
363.24	1925.09
363.46	2088.93
363.67	1949.67
363.89	1945.57
364.10	1966.05
364.32	2000.87
364.53	2027.49
364.75	1875.94
364.96	2066.40
365.18	2074.59
365.39	1927.14
365.61	2021.35
365.82	2093.02
366.04	1947.62
366.25	1972.19
366.47	2070.50
366.68	2088.93
366.90	2002.91
367.11	2082.78
367.33	2125.79
367.54	2148.32
367.76	2033.63
367.97	2074.59
368.19	2021.35
368.40	2021.35
368.62	1918.95
368.83	1937.38
369.05	1978.34
369.26	1943.52
369.48	2033.63
369.69	2011.11
369.91	2066.40
370.12	1966.05
370.33	2154.46
370.55	1877.99
370.76	2027.49
370.98	2080.74
371.19	2019.30
371.41	2023.39
371.62	2037.73
371.84	1980.39
372.05	2142.18
372.27	2113.50
372.48	2107.36
372.69	2099.17
372.91	2095.07
373.12	2174.94
373.34	2045.92
373.55	2174.94
373.77	2119.65
373.98	2101.22
374.20	2170.85
374.41	2281.44
374.62	2103.26
374.84	2183.13
375.05	2160.61
375.27	2160.61
375.48	2238.43
375.70	2199.52
375.91	2185.18
376.12	2279.39
376.34	2193.37
376.55	2113.50
376.77	2205.66
376.98	2103.26
377.19	2144.22
377.41	2123.74
377.62	2172.89
377.84	2328.54
378.05	2273.25
378.27	2166.75
378.48	2273.25
378.69	2404.32
378.91	2240.48
379.12	2260.96
379.34	2228.19
379.55	2303.96
379.76	2312.16
379.98	2236.38
380.19	2209.76
380.41	2230.24
380.62	2248.67
380.83	2176.99
381.05	2222.05
381.26	2365.40
381.47	2164.70
381.69	2277.34
381.90	2365.40
382.12	2344.92
382.33	2230.24
382.54	2265.05
382.76	2322.40
382.97	2246.62
383.19	2232.29
383.40	2430.94
383.61	2260.96
383.83	2301.92
384.04	2322.40
384.25	2334.68
384.47	2449.37
384.68	2316.25
384.89	2281.44
385.11	2459.61
385.32	2353.12
385.54	2289.63
385.75	2344.92
385.96	2324.44
386.18	2410.46
386.39	2453.47
386.60	2465.75
386.82	2410.46
387.03	2459.61
387.24	2365.40
387.46	2475.99
387.67	2471.90
387.88	2467.80
388.10	2480.09
388.31	2412.51
388.52	2449.37
388.74	2525.15
388.95	2480.09
389.16	2525.15
389.38	2486.23
389.59	2572.25
389.80	2594.78
390.02	2484.19
390.23	2596.82
390.44	2498.52
390.66	2564.06
390.87	2414.56
391.08	2547.67
391.30	2645.98
391.51	2688.98
391.72	2631.64
391.94	2637.78
392.15	2494.43
392.36	2598.87
392.58	2625.50
392.79	2697.17
393.00	2658.26
393.22	2682.84
393.43	2699.22
393.64	2793.43
393.85	2805.72
394.07	2658.26
394.28	2691.03
394.49	2658.26
394.71	2744.28
394.92	2942.93
395.13	2729.94
395.35	2748.37
395.56	2775.00
395.77	2785.24
395.98	2795.48
396.20	2826.20
396.41	2813.91
396.62	2971.60
396.84	2762.71
397.05	2811.86
397.26	2873.30
397.47	2985.94
397.69	2818.00
397.90	3008.47
398.11	2844.63
398.32	2914.26
398.54	2861.01
398.75	2926.55
398.96	2904.02
399.18	3086.29
399.39	2887.64
399.60	2934.74
399.81	2936.79
400.03	2977.75
400.24	3246.03
400.45	2920.40
400.66	3016.66
400.88	3020.75
401.09	3147.73
401.30	3053.52
401.51	3123.15
401.73	3071.95
401.94	3141.58
402.15	3215.31
402.36	3088.34
402.58	3102.67
402.79	3188.69
403.00	3198.93
403.21	3137.49
403.43	3190.74
403.64	3254.22
403.85	3196.88
404.06	3184.59
404.27	3096.53
404.49	3194.83
404.70	3200.98
404.91	3252.17
405.12	3233.74
405.34	3256.27
405.55	3409.87
405.76	3141.58
405.97	3192.78
406.19	3305.42
406.40	3170.26
406.61	3452.88
406.82	3358.67
407.03	3368.91
407.25	3321.81
407.46	3346.38
407.67	3321.81
407.88	3317.71
408.09	3336.14
408.31	3291.09
408.52	3489.74
408.73	3315.66
408.94	3436.49
409.15	3497.93
409.37	3411.92
409.58	3516.36
409.79	3481.55
410.00	3461.07
410.21	3356.62
410.43	3614.66
410.64	3475.40
410.85	3534.79
411.06	3583.95
411.27	3440.59
411.48	3659.72
411.70	3489.74
411.91	3551.18
412.12	3502.03
412.33	3549.13
412.54	3491.79
412.76	3604.42
412.97	3633.10
413.18	3559.37
413.39	3602.38
413.60	3727.30
413.81	3665.86
414.03	3592.14
414.24	3686.34
414.45	3717.06
414.66	3600.33
414.87	3760.07
415.08	3690.44
415.30	3762.12
415.51	3719.11
415.72	3839.94
415.93	3862.47
416.14	3788.74
416.35	3833.80
416.56	3817.41
416.78	3803.08
416.99	3862.47
417.20	3739.59
417.41	3966.92
417.62	3846.09
417.83	4024.26
418.04	3917.76
418.26	3950.53
418.47	3821.51
418.68	3942.34
418.89	3950.53
419.10	4202.43
419.31	3915.72
419.52	3940.29
419.73	3997.64
419.95	4063.17
420.16	3940.29
420.37	3985.35
420.58	4040.64
420.79	3854.28
421.00	4065.22
421.21	4097.99
421.42	4052.93
421.63	4198.34
421.85	4040.64
422.06	4153.28
422.27	4188.10
422.48	4218.82
422.69	4255.68
422.90	4237.25
423.11	4278.21
423.32	4313.02
423.53	4376.51
423.75	4360.13
423.96	4388.80
424.17	4339.65
424.38	4530.11
424.59	4351.93
424.80	4622.27
425.01	4519.87
425.22	4399.04
425.43	4452.28
425.64	4597.69
425.85	4483.00
426.06	4521.92
426.28	4517.82
426.49	4472.76
426.70	4474.81
426.91	4509.63
427.12	4554.68
427.33	4552.63
427.54	4691.90
427.75	4689.85
427.96	4730.81
428.17	4691.90
428.38	4732.86
428.59	4835.25
428.80	4712.38
429.01	4847.54
429.23	4708.28
429.44	5025.72
429.65	4986.80
429.86	4771.77
430.07	4882.36
430.28	4782.01
430.49	5062.58
430.70	5056.43
430.91	5066.67
431.12	4892.60
431.33	5083.06
431.54	5201.84
431.75	5038.00
431.96	4925.36
432.17	5103.54
432.38	4986.80
432.59	5226.42
432.80	5189.55
433.01	5232.56
433.22	5246.90
433.43	5257.14
433.64	5281.71
433.85	5296.05
434.06	5386.16
434.27	5263.28
434.49	5394.35
434.70	5404.59
434.91	5502.89
435.12	5513.13
435.33	5453.74
435.54	5474.22
435.75	5320.62
435.96	5566.38
436.17	5328.81
436.38	5576.62
436.59	5586.86
436.80	5474.22
437.01	5785.51
437.22	5748.65
437.43	5685.16
437.64	5541.80
437.85	5738.41
438.06	5732.26
438.27	5703.59
438.48	5736.36
438.69	5869.48
438.90	5828.52
439.11	5621.67
439.32	5846.95
439.53	5664.68
439.74	5877.67
439.95	5777.32
440.16	5851.05
440.37	5918.63
440.57	5722.02
440.78	6066.08
440.99	5998.50
441.20	5918.63
441.41	5904.29
441.62	6115.23
441.83	5955.49
442.04	6090.66
442.25	6080.42
442.46	6008.74
442.67	6285.22
442.88	6449.05
443.09	5885.86
443.30	6115.23
443.51	6061.99
443.72	6256.54
443.93	6123.43
444.14	6352.80
444.35	6176.67
444.56	6307.74
444.77	6254.50
444.98	6307.74
445.19	6358.94
445.40	6184.87
445.61	6322.08
445.81	6563.74
446.02	6510.49
446.23	6479.77
446.44	6346.66
446.65	6492.06
446.86	6442.91
447.07	6635.42
447.28	6596.51
447.49	6590.36
447.70	6639.51
447.91	6623.13
448.12	6522.78
448.33	6680.47
448.54	6850.46
448.74	6463.39
448.95	6748.06
449.16	6672.28
449.37	6854.55
449.58	6764.44
449.79	6922.13
450.00	6645.66
450.21	6887.32
450.42	6995.86
450.63	6891.41
450.84	6973.33
451.05	7118.74
451.25	6999.96
451.46	6743.96
451.67	7206.80
451.88	7153.55
452.09	7088.02
452.30	6838.17
452.51	7135.12
452.72	7079.83
452.93	7409.55
453.13	7120.79
453.34	7063.44
453.55	7348.11
453.76	7245.71
453.97	7497.61
454.18	7366.54
454.39	7454.61
454.60	7339.92
454.81	7423.89
455.01	7542.67
455.22	7253.91
455.43	7448.46
455.64	7735.18
455.85	7716.75
456.06	7929.74
456.27	7819.14
456.48	7557.00
456.68	7712.65
456.89	7653.26
457.10	7821.19
457.31	7839.62
457.52	7856.01
457.73	7681.93
457.94	8050.57
458.14	8042.37
458.35	8204.16
458.56	8142.72
458.77	8032.13
458.98	8241.03
459.19	8349.57
459.39	8351.62
459.60	8374.14
459.81	8195.97
460.02	8460.16
460.23	8376.19
460.44	8576.89
460.65	8566.65
460.85	8451.97
461.06	8630.14
461.27	8478.59
461.48	8847.22
461.69	8929.14
461.89	8591.23
462.10	8855.42
462.31	8587.13
462.52	8644.48
462.73	8867.70
462.94	9123.70
463.14	9117.56
463.35	9023.35
463.56	9492.34
463.77	9258.87
463.98	9217.91
464.18	9316.21
464.39	9351.03
464.60	9471.86
464.81	9465.71
465.02	9400.18
465.23	9736.04
465.43	9643.88
465.64	9738.09
465.85	9789.29
466.06	9662.32
466.27	10006.38
466.47	9979.75
466.68	10018.66
466.89	9912.17
467.10	9899.88
467.30	10010.47
467.51	10157.92
467.72	10524.51
467.93	10102.63
468.14	10385.25
468.34	10434.40
468.55	10571.61
468.76	10346.34
468.97	10557.28
469.17	10843.99
469.38	10985.30
469.59	11022.17
469.80	10626.91
470.01	10807.13
470.21	10813.28
470.42	11143.00
470.63	11257.68
470.84	10909.53
471.04	11054.94
471.25	11192.15
471.46	11417.43
471.67	11808.59
471.87	11413.33
472.08	11540.30
472.29	11902.79
472.50	11657.04
472.70	11554.64
472.91	11706.19
473.12	11958.09
473.33	12109.64
473.53	12267.33
473.74	11984.71
473.95	12390.21
474.16	12201.80
474.36	12111.69
474.57	12693.31
474.78	12717.89
474.99	12502.85
475.19	12437.31
475.40	12738.37
475.61	12828.48
475.81	13070.14
476.02	13119.29
476.23	12894.01
476.44	13244.21
476.64	13344.56
476.85	13528.88
477.06	13289.27
477.27	13768.49
477.47	13858.60
477.68	13586.22
477.89	13881.13
478.09	13891.37
478.30	13731.63
478.51	13856.56
478.71	14173.99
478.92	14440.23
479.13	14331.69
479.34	14470.95
479.54	14460.71
479.75	14503.71
479.96	14520.10
480.16	14688.03
480.37	14753.57
480.58	14724.90
480.78	15075.10
480.99	15191.83
481.20	15079.19
481.41	15324.95
481.61	15281.94
481.82	15408.92
482.03	15548.18
482.23	15896.33
482.44	15941.39
482.65	15703.82
482.85	16019.21
483.06	16064.27
483.27	15953.68
483.47	16066.31
483.68	16066.31
483.89	15990.54
484.09	16258.82
484.30	16342.79
484.51	16643.84
484.71	16731.90
484.92	16672.51
485.13	16813.82
485.33	16877.31
485.54	16948.99
485.75	16957.18
485.95	17102.59
486.16	17264.38
486.37	17567.48
486.57	17276.66
486.78	17458.93
486.98	17518.32
487.19	17618.68
487.40	17721.07
487.60	17831.66
487.81	18097.90
488.02	17966.83
488.22	17960.69
488.43	18126.57
488.64	18398.95
488.84	18181.87
489.05	18231.02
489.25	18378.47
489.46	18814.69
489.67	18882.27
489.87	18779.87
490.08	18626.28
490.29	18810.59
490.49	19109.60
490.70	19255.00
490.90	19326.68
491.11	19191.52
491.32	19347.16
491.52	19252.95
491.73	19500.76
491.94	19531.48
492.14	19699.41
492.35	19635.92
492.55	19887.82
492.76	20109.01
492.97	20192.97
493.17	20229.84
493.38	20186.83
493.58	20440.78
493.79	20453.06
494.00	20268.75
494.20	20289.23
494.41	20700.87
494.61	20674.24
494.82	20932.29
495.02	20864.71
495.23	20809.41
495.44	21317.31
495.64	20999.87
495.85	21163.71
496.05	21479.10
496.26	21341.88
496.47	21681.85
496.67	21393.08
496.88	21978.80
497.08	21585.59
497.29	21958.32
497.49	21733.04
497.70	22146.73
497.91	22294.19
498.11	22431.40
498.32	22361.77
498.52	22113.97
498.73	22286.00
498.93	22654.63
499.14	22484.65
499.34	22859.43
499.55	22797.99
499.76	22906.53
499.96	22947.49
500.17	22982.31
500.37	23060.13
500.58	23418.52
500.78	23297.69
500.99	23230.11
501.19	23527.06
501.40	23350.94
501.60	23340.70
501.81	23561.88
502.02	23563.93
502.22	23633.56
502.43	23934.61
502.63	24022.67
502.84	24346.25
503.04	23965.33
503.25	24307.34
503.45	23975.57
503.66	24278.67
503.86	24188.56
504.07	24600.20
504.27	24311.44
504.48	24530.57
504.68	24897.16
504.89	24950.40
505.09	25118.34
505.30	24796.81
505.50	25204.35
505.71	24985.22
505.91	25175.68
506.12	25233.02
506.32	25249.41
506.53	25337.47
506.73	25255.55
506.94	25740.92
507.14	25577.08
507.35	25525.88
507.55	25577.08
507.76	25736.82
507.96	25702.01
508.17	25869.94
508.37	25962.10
508.58	25790.07
508.78	25855.61
508.99	25980.53
509.19	26060.40
509.40	26211.95
509.60	26252.91
509.81	26152.56
510.01	26308.21
510.22	26560.11
510.42	26543.72
510.63	26603.11
510.83	26502.76
511.04	26596.97
511.24	26756.71
511.44	26709.61
511.65	26711.66
511.85	26793.58
512.06	26627.69
512.26	27100.77
512.47	27205.22
512.67	27154.02
512.88	26809.96
513.08	26795.62
513.29	27182.69
513.49	27186.79
513.69	27223.65
513.90	26975.84
514.10	27225.70
514.31	27242.08
514.51	27561.56
514.72	27700.83
514.92	27655.77
515.13	27336.29
515.33	27702.87
515.53	27594.33
515.74	27856.47
515.94	28223.06
516.15	27860.57
516.35	27995.73
516.56	27872.85
516.76	27754.07
516.96	28104.28
517.17	28141.14
517.37	28063.32
517.58	28157.52
517.78	27883.09
517.99	27960.92
518.19	28526.16
518.39	28520.01
518.60	28571.21
518.80	28427.85
519.01	28669.51
519.21	28442.19
519.41	28819.02
519.62	28556.88
519.82	28425.81
520.03	28669.51
520.23	28749.39
520.43	28819.02
520.64	29138.50
520.84	29367.87
521.05	28855.88
521.25	29290.05
521.45	29423.17
521.66	29269.57
521.86	29605.44
522.07	29283.91
522.27	29648.44
522.47	29460.03
522.68	29634.11
522.88	29457.98
523.08	30158.39
523.29	29822.52
523.49	29967.93
523.70	30230.07
523.90	30223.92
524.10	30062.13
524.31	30131.76
524.51	29957.69
524.71	30324.27
524.92	30025.27
525.12	30488.11
525.33	30348.85
525.53	30363.18
525.73	30815.79
525.94	30862.89
526.14	30850.60
526.34	30678.57
526.55	31041.06
526.75	30776.87
526.95	31125.03
527.16	30764.59
527.36	31372.83
527.56	31290.91
527.77	31551.01
527.97	31413.79
528.17	31059.49
528.38	31632.93
528.58	31612.45
528.78	32026.14
528.99	31766.04
529.19	32163.35
529.39	31788.57
529.60	31813.15
529.80	31901.21
530.00	32515.60
530.21	32501.26
530.41	32734.73
530.61	32390.67
530.82	32456.21
531.02	32531.98
531.22	32632.33
531.43	32904.71
531.63	33164.81
531.83	32859.66
532.04	33191.43
532.24	33007.11
532.44	33545.73
532.64	33670.65
532.85	33805.82
533.05	33572.35
533.25	33586.69
533.46	33703.42
533.66	34018.81
533.86	34000.38
534.07	34309.62
534.27	34346.48
534.47	34588.14
534.67	34309.62
534.88	34477.55
535.08	34565.62
535.28	34790.89
535.49	34776.56
535.69	35266.02
535.89	34678.25
536.09	35141.10
536.30	35261.93
536.50	35251.69
536.70	35481.06
536.91	35468.77
537.11	35161.58
537.31	35558.88
537.51	35780.06
537.72	35833.31
537.92	36029.91
538.12	36203.99
538.32	35929.56
538.53	36556.24
538.73	35904.99
538.93	36601.30
539.13	36414.93
539.34	36410.84
539.54	36312.53
539.74	36863.44
539.94	36679.12
540.15	36980.17
540.35	37066.19
540.55	37307.85
540.75	37041.61
540.96	37119.43
541.16	37586.37
541.36	37283.27
541.56	37250.50
541.77	37807.55
541.97	37590.47
542.17	37963.20
542.37	37684.67
542.58	37680.58
542.78	37713.34
542.98	37938.62
543.18	38065.60
543.38	38165.95
543.59	38241.72
543.79	38086.07
543.99	38333.88
544.19	38710.71
544.40	38534.58
544.60	38682.03
544.80	38872.49
545.00	38542.77
545.20	39069.10
545.41	39314.86
545.61	39124.40
545.81	39407.01
546.01	39396.77
546.21	38960.56
546.42	39386.54
546.62	39380.39
546.82	39441.83
547.02	39521.70
547.22	39601.57
547.43	39183.79
547.63	39828.90
547.83	40060.32
548.03	39902.62
548.23	40017.31
548.44	39884.19
548.64	39783.84
548.84	40107.42
549.04	40314.26
549.24	40306.07
549.45	40580.50
549.65	40293.79
549.85	40603.03
550.05	40799.63
550.25	40199.58
550.45	41053.58
550.66	40676.76
550.86	40643.99
551.06	41129.36
551.26	40560.02
551.46	40828.30
551.66	41201.04
551.87	41043.34
552.07	41397.64
552.27	41131.40
552.47	41364.87
552.67	41272.71
552.87	41506.18
553.07	41428.36
553.28	41485.70
553.48	41786.75
553.68	41682.31
553.88	41723.27
554.08	41932.16
554.28	41708.93
554.48	41598.34
554.69	41747.84
554.89	41647.49
555.09	41579.91
555.29	41655.68
555.49	42104.19
555.69	41891.20
555.89	42071.42
556.10	42300.79
556.30	41989.50
556.50	42173.82
556.70	42175.87
556.90	42030.46
557.10	42544.50
557.30	42149.24
557.50	42237.31
557.70	42325.37
557.91	42841.46
558.11	42530.17
558.31	42605.94
558.51	42784.12
558.71	42644.85
558.91	42884.47
559.11	42374.52
559.31	42614.13
559.51	42612.09
559.72	42747.25
559.92	42857.84
560.12	42634.61
560.32	43097.45
560.52	42866.03
560.72	42853.75
560.92	42589.56
561.12	43167.09
561.32	43339.11
561.52	43011.44
561.72	43494.76
561.93	42870.13
562.13	43304.30
562.33	43066.73
562.53	43296.11
562.73	43054.45
562.93	43136.37
563.13	43242.86
563.33	42831.22
563.53	43337.07
563.73	42923.38
563.93	43656.55
564.13	43603.30
564.33	43476.33
564.53	43461.99
564.74	44107.10
564.94	43169.13
565.14	43586.92
565.34	43332.97
565.54	43505.00
565.74	43644.26
565.94	44021.09
566.14	43408.75
566.34	43433.32
566.54	44084.58
566.74	43752.80
566.94	43599.21
567.14	43773.28
567.34	43208.04
567.54	43867.49
567.74	43439.47
567.94	43679.08
568.14	43930.98
568.34	44090.72
568.54	43818.34
568.74	43873.63
568.94	43933.03
569.14	43955.55
569.34	44057.95
569.54	44111.20
569.75	44137.82
569.95	43930.98
570.15	44002.66
570.35	44029.28
570.55	43767.14
570.75	44160.35
570.95	44348.76
571.15	44346.72
571.35	44602.71
571.55	44754.26
571.75	44299.61
571.95	44252.51
572.15	44125.53
572.35	44465.50
572.55	44301.66
572.75	44739.93
572.95	44479.83
573.15	44735.83
573.35	44774.74
573.55	44191.07
573.75	44827.99
573.95	44653.91
574.15	44571.99
574.35	44807.51
574.55	44801.36
574.75	44623.19
574.95	44660.05
575.15	44598.62
575.34	44651.86
575.54	45133.14
575.74	45149.52
575.94	45030.74
576.14	45159.76
576.34	45366.60
576.54	45446.47
576.74	45018.45
576.94	44883.28
577.14	45165.90
577.34	45761.86
577.54	45071.70
577.74	45364.56
577.94	45634.89
578.14	45462.86
578.34	45808.96
578.54	44977.49
578.74	45389.13
578.94	46069.06
579.14	45497.67
579.34	45692.23
579.54	46406.97
579.74	46398.78
579.94	45976.90
580.13	46443.84
580.33	45983.04
580.53	46304.57
580.73	46021.95
580.93	46052.67
581.13	45966.66
581.33	46476.60
581.53	46757.17
581.73	46869.81
581.93	46241.09
582.13	46740.79
582.33	46718.26
582.53	46626.10
582.73	46665.02
582.92	46748.98
583.12	46808.37
583.32	46941.49
583.52	46968.12
583.72	46751.03
583.92	47162.67
584.12	47215.92
584.32	47396.14
584.52	47363.37
584.72	47207.73
584.92	47224.11
585.11	47572.27
585.31	47549.74
585.51	47764.78
585.71	47410.48
585.91	48074.02
586.11	48061.73
586.31	47633.71
586.51	47789.35
586.71	48235.81
586.91	47990.05
587.10	48518.43
587.30	48223.52
587.50	48170.27
587.70	48332.06
587.90	48399.65
588.10	48534.81
588.30	48551.20
588.50	48659.74
588.69	48559.39
588.89	48598.30
589.09	48600.35
589.29	48715.03
589.49	49323.28
589.69	48870.68
589.89	48975.12
590.08	49011.99
590.28	49052.95
590.48	48610.59
590.68	48688.41
590.88	48801.05
591.08	49407.25
591.28	48833.81
591.47	49788.17
591.67	49528.08
591.87	49296.66
592.07	49689.87
592.27	49257.74
592.47	49538.32
592.67	49405.20
592.86	49210.64
593.06	49732.87
593.26	50234.63
593.46	49847.56
593.66	50003.20
593.86	50052.36
594.05	50218.24
594.25	50887.93
594.45	50279.68
594.65	50136.32
594.85	49763.59
595.05	50392.32
595.24	50408.70
595.44	50228.48
595.64	50291.97
595.84	50992.37
596.04	51027.19
596.23	50953.46
596.43	51127.54
596.63	50736.38
596.83	50830.58
597.03	51297.52
597.22	51506.41
597.42	50851.06
597.62	51625.20
597.82	51324.14
598.02	51207.41
598.21	51576.04
598.41	51496.17
598.61	51748.07
598.81	51662.06
599.01	51803.37
599.20	51877.10
599.40	51717.35
599.60	51660.01
599.80	52204.77
600.00	51475.69
600.19	52409.57
600.39	51700.97
600.59	52321.51
600.79	52018.41
600.98	51842.28
601.18	52309.22
601.38	52557.02
601.58	52675.80
601.78	52552.93
601.97	52915.42
602.17	53003.48
602.37	52731.10
602.57	52706.52
602.76	53195.99
602.96	52749.53
603.16	53062.87
603.36	53034.20
603.55	53163.22
603.75	53114.07
603.95	53603.53
604.15	53204.18
604.34	53382.35
604.54	53220.56
604.74	53388.50
604.94	53400.79
605.13	53515.47
605.33	53605.58
605.53	53562.57
605.73	53759.18
605.92	53404.88
606.12	53578.96
606.32	53798.09
606.52	53771.47
606.71	53880.01
606.91	53984.46
607.11	53689.55
607.30	54160.58
607.50	54185.16
607.70	54262.98
607.90	54211.78
608.09	53746.89
608.29	54193.35
608.49	54252.74
608.68	54287.56
608.88	54658.24
609.08	54170.82
609.28	54762.68
609.47	54228.16
609.67	54777.02
609.87	54752.44
610.06	54832.32
610.26	54273.22
610.46	54785.21
610.66	54056.14
610.85	54629.57
611.05	54211.78
611.25	54459.58
611.44	54361.28
611.64	54684.86
611.84	54299.84
612.03	54392.00
612.23	54531.26
612.43	54967.48
612.62	54760.64
612.82	54445.25
613.02	54654.14
613.21	54883.51
613.41	54678.72
613.61	54885.56
613.80	54416.58
614.00	54801.60
614.20	54478.02
614.39	55055.54
614.59	54887.61
614.79	54844.60
614.98	54670.53
615.18	54746.30
615.38	54592.70
615.57	54439.11
615.77	55096.50
615.97	54686.91
616.16	54600.89
616.36	54711.49
616.56	54500.54
616.75	54867.13
616.95	54424.77
617.15	54654.14
617.34	54666.43
617.54	54613.18
617.74	54482.11
617.93	54856.89
618.13	54416.58
618.32	54260.93
618.52	54430.91
618.72	54834.36
618.91	54705.34
619.11	54596.80
619.31	54285.51
619.50	54506.69
619.70	54385.86
619.90	54645.95
620.09	54041.80
620.29	54371.52
620.48	54465.73
620.68	54695.10
620.88	54213.83
621.07	54467.78
621.27	54373.57
621.46	54342.85
621.66	54236.36
621.86	54084.81
622.05	53974.22
622.25	54359.23
622.44	53982.41
622.64	54172.87
622.84	54584.51
623.03	53910.73
623.23	54416.58
623.42	54361.28
623.62	54609.09
623.82	54664.38
624.01	54269.12
624.21	54381.76
624.40	53877.96
624.60	54215.88
624.80	54129.86
624.99	54009.03
625.19	53877.96
625.38	54199.49
625.58	54328.52
625.77	54314.18
625.97	54217.92
626.17	54111.43
626.36	53767.37
626.56	54564.03
626.75	54097.09
626.95	54166.73
627.14	53687.50
627.34	54369.47
627.54	53480.66
627.73	54078.66
627.93	54074.57
628.12	53683.40
628.32	54215.88
628.51	53691.60
628.71	54136.01
628.90	53916.87
629.10	53720.27
629.30	53566.67
629.49	54158.53
629.69	53765.32
629.88	53773.52
630.08	53832.91
630.27	54133.96
630.47	53912.78
630.66	53519.57
630.86	54222.02
631.05	53400.79
631.25	54076.61
631.44	53435.60
631.64	53947.59
631.84	53564.62
632.03	54375.62
632.23	53798.09
632.42	54416.58
632.62	53763.28
632.81	53916.87
633.01	53415.12
633.20	53996.74
633.40	54023.37
633.59	53822.67
633.79	53392.59
633.98	54156.49
634.18	53986.50
634.37	53744.84
634.57	53791.95
634.76	54129.86
634.96	53832.91
635.15	54043.85
635.35	53662.93
635.54	53998.79
635.74	53978.31
635.93	53525.71
636.13	54340.80
636.32	54174.92
636.52	53550.29
636.71	53535.95
636.91	53771.47
637.10	53968.07
637.30	53755.08
637.49	53703.88
637.69	54148.29
637.88	54035.66
638.08	53939.40
638.27	54449.35
638.46	53933.26
638.66	54093.00
638.85	54299.84
639.05	54271.17
639.24	54164.68
639.44	54052.04
639.63	54088.90
639.83	54260.93
640.02	54338.75
640.22	54006.98
640.41	54432.96
640.61	54371.52
640.80	53724.36
640.99	54033.61
641.19	54469.82
641.38	54095.05
641.58	54244.55
641.77	54056.14
641.97	53798.09
642.16	54271.17
642.36	54742.20
642.55	54320.32
642.74	54201.54
642.94	54744.25
643.13	53861.58
643.33	54848.70
643.52	54799.55
643.72	54518.98
643.91	54293.70
644.10	54678.72
644.30	54793.40
644.49	54809.79
644.69	54430.91
644.88	54424.77
645.08	54918.33
645.27	54633.66
645.46	54404.29
645.66	55418.03
645.85	54695.10
646.05	54801.60
646.24	54940.86
646.43	55026.87
646.63	55573.68
646.82	54752.44
647.02	55194.81
647.21	55307.44
647.40	54901.95
647.60	55268.53
647.79	55438.51
647.99	55325.88
648.18	55178.42
648.37	55362.74
648.57	55522.48
648.76	54994.10
648.96	55219.38
649.15	55350.45
649.34	55344.31
649.54	55358.64
649.73	55305.40
649.92	55518.38
650.12	55362.74
650.31	55430.32
650.51	55379.12
650.70	55334.07
650.89	55657.65
651.09	55940.27
651.28	55827.63
651.47	56102.06
651.67	55923.88
651.86	56288.42
652.06	55301.30
652.25	56020.14
652.44	55788.72
652.64	55749.81
652.83	55815.34
653.02	55764.14
653.22	55801.00
653.41	55864.49
653.60	55506.10
653.80	55983.27
653.99	55854.25
654.18	56077.48
654.38	55618.74
654.57	55905.45
654.76	56192.17
654.96	56345.76
655.15	56304.80
655.34	55952.55
655.54	55508.14
655.73	56069.29
655.92	56671.39
656.12	56532.13
656.31	56089.77
656.50	56325.28
656.70	56204.45
656.89	56255.65
657.08	56947.87
657.28	56272.04
657.47	56595.62
657.66	56489.12
657.86	56452.26
658.05	56507.55
658.24	56882.33
658.43	56372.39
658.63	56482.98
658.82	56523.94
659.01	56480.93
659.21	57066.65
659.40	56814.75
659.59	56390.82
659.79	56921.24
659.98	56745.12
660.17	57060.51
660.36	57140.38
660.56	56951.96
660.75	56994.97
660.94	56849.56
661.14	56970.39
661.33	56790.17
661.52	56730.78
661.71	57439.38
661.91	56738.97
662.10	56919.20
662.29	57103.51
662.49	57556.11
662.68	56997.02
662.87	57369.75
663.06	57210.01
663.26	56911.00
663.45	57304.21
663.64	57007.26
663.83	57263.25
664.03	57070.75
664.22	57136.28
664.41	57085.08
664.60	56958.11
664.80	57216.15
664.99	56630.43
665.18	57261.21
665.37	57533.59
665.57	57633.94
665.76	56812.70
665.95	57109.66
666.14	57150.62
666.34	57070.75
666.53	57617.55
666.72	57449.62
666.91	57070.75
667.11	56794.27
667.30	57054.36
667.49	57431.19
667.68	56956.06
667.87	57275.54
668.07	57549.97
668.26	57349.27
668.45	57726.10
668.64	57328.79
668.84	57554.07
669.03	57511.06
669.22	57674.90
669.41	57486.48
669.60	57392.28
669.80	57621.65
669.99	57746.57
670.18	57361.56
670.37	57234.58
670.57	57705.62
670.76	57363.60
670.95	57324.69
671.14	57298.07
671.33	56970.39
671.53	57877.64
671.72	57277.59
671.91	57250.97
672.10	56931.48
672.29	57212.06
672.48	57216.15
672.68	57597.07
672.87	57513.11
673.06	57062.55
673.25	57515.15
673.44	57048.22
673.64	57357.46
673.83	57078.94
674.02	57343.12
674.21	57146.52
674.40	57547.92
674.59	56863.90
674.79	57152.66
674.98	56802.46
675.17	57080.98
675.36	57107.61
675.55	57509.01
675.74	56927.39
675.94	57109.66
676.13	57226.39
676.32	57263.25
676.51	57371.80
676.70	57105.56
676.89	57021.59
677.08	57044.12
677.28	56841.37
677.47	57386.13
677.66	57447.57
677.85	57037.98
678.04	57668.75
678.23	57345.17
678.42	57214.10
678.62	56857.76
678.81	57029.79
679.00	57078.94
679.19	57169.05
679.38	56880.28
679.57	57087.13
679.76	56724.64
679.96	57185.43
680.15	56425.64
680.34	56857.76
680.53	56833.18
680.72	56738.97
680.91	57037.98
681.10	56435.87
681.29	57144.47
681.48	56458.40
681.68	56546.47
681.87	56829.08
682.06	56669.34
682.25	56648.86
682.44	56669.34
682.63	56779.93
682.82	56550.56
683.01	56386.72
683.20	56075.43
683.39	56648.86
683.59	56024.23
683.78	56382.63
683.97	55936.17
684.16	56417.44
684.35	56399.01
684.54	56763.55
684.73	55530.67
684.92	56134.82
685.11	55930.03
685.30	56046.76
685.49	56343.72
685.69	55829.68
685.88	56175.78
686.07	55887.02
686.26	55801.00
686.45	55833.77
686.64	56161.45
686.83	55481.52
687.02	55956.65
687.21	56046.76
687.40	55710.89
687.59	56079.53
687.78	55934.12
687.97	56009.90
688.16	55571.63
688.35	55225.53
688.54	55614.64
688.74	55461.04
688.93	55540.91
689.12	55506.10
689.31	55446.71
689.50	55702.70
689.69	54326.47
689.88	55321.78
690.07	55166.13
690.26	55495.86
690.45	55276.72
690.64	54813.88
690.83	54908.09
691.02	54891.71
691.21	54899.90
691.40	55022.78
691.59	55209.14
691.78	54957.24
691.97	55313.59
692.16	54871.23
692.35	54875.32
692.54	54910.14
692.73	55243.96
692.92	54756.54
693.11	54893.75
693.30	54199.49
693.49	54652.09
693.68	54615.23
693.87	55248.05
694.06	54312.13
694.25	54166.73
694.44	54668.48
694.63	54373.57
694.82	54596.80
695.01	54248.64
695.20	54127.81
695.39	54045.90
695.58	54084.81
695.77	53935.30
695.96	54076.61
696.15	53826.76
696.34	53724.36
696.53	53767.37
696.72	53695.69
696.91	53454.03
697.10	54031.56
697.29	53617.87
697.48	54168.77
697.67	53474.51
697.86	53294.29
698.05	53654.73
698.24	53368.02
698.43	53034.20
698.62	53712.08
698.81	53593.29
699.00	53576.91
699.19	53394.64
699.38	53707.98
699.57	53083.35
699.76	53253.33
699.95	53236.95
700.14	52757.72
700.32	52866.27
700.51	53030.10
700.70	53329.11
700.89	53224.66
701.08	53062.87
701.27	52937.94
701.46	52890.84
701.65	52444.38
701.84	52880.60
702.03	53296.34
702.22	52813.02
702.41	52659.42
702.60	53028.05
702.79	52684.00
702.98	52561.12
703.17	52393.18
703.35	52573.41
703.54	51995.88
703.73	52731.10
703.92	52622.56
704.11	52810.97
704.30	52458.72
704.49	52782.30
704.68	51963.11
704.87	52280.55
705.06	52290.79
705.25	51995.88
705.43	52202.72
705.62	52419.81
705.81	52180.20
706.00	52200.68
706.19	51950.82
706.38	51557.61
706.57	51965.16
706.76	51922.15
706.95	51930.34
707.14	51860.71
707.32	51819.75
707.51	51639.53
707.70	51696.88
707.89	51651.82
708.08	51690.73
708.27	51999.97
708.46	52055.27
708.65	51393.78
708.84	51885.29
709.02	51690.73
709.21	51891.43
709.40	51477.74
709.59	51582.19
709.78	51463.41
709.97	51352.82
710.16	51502.32
710.34	51832.04
710.53	51627.24
710.72	51219.70
710.91	51156.21
711.10	51049.72
711.29	51485.93
711.48	51205.36
711.66	51209.46
711.85	51047.67
712.04	51264.75
712.23	51328.24
712.42	50992.37
712.61	50869.50
712.80	50930.93
712.98	51274.99
713.17	50480.38
713.36	50726.14
713.55	50873.59
713.74	50619.64
713.93	50808.06
714.11	50822.39
714.30	50263.30
714.49	50615.55
714.68	50154.75
714.87	50543.87
715.06	50760.95
715.24	50615.55
715.43	50427.13
715.62	50478.33
715.81	50273.54
716.00	50357.50
716.18	50365.70
716.37	50402.56
716.56	50128.13
716.75	50420.99
716.94	50136.32
717.12	50220.29
717.31	50351.36
717.50	50248.96
717.69	50244.87
717.88	49956.10
718.06	50126.08
718.25	50138.37
718.44	49822.98
718.63	50011.40
718.82	49810.70
719.00	49798.41
719.19	49472.78
719.38	49825.03
719.57	49931.53
719.76	49712.39
719.94	49136.91
720.13	49739.02
720.32	49349.90
720.51	49521.93
720.69	49362.19
720.88	49382.67
721.07	49474.83
721.26	48629.02
721.44	48979.22
721.63	48809.24
721.82	49198.35
722.01	48911.64
722.20	48694.55
722.38	48762.14
722.57	48608.54
722.76	48862.49
722.95	49147.15
723.13	48723.22
723.32	48596.25
723.51	48516.38
723.70	48504.09
723.88	48516.38
724.07	48350.49
724.26	48526.62
724.44	48379.17
724.63	48911.64
724.82	48995.60
725.01	48221.47
725.19	48313.63
725.38	48534.81
725.57	47981.86
725.76	48588.06
725.94	47994.15
726.13	48182.56
726.32	48309.53
726.51	47955.24
726.69	48608.54
726.88	48209.18
727.07	48182.56
727.25	47965.48
727.44	48108.83
727.63	48266.53
727.82	47977.76
728.00	48135.46
728.19	48045.35
728.38	48436.51
728.56	47781.16
728.75	48092.45
728.94	48350.49
729.12	48295.20
729.31	47938.85
729.50	48026.92
729.69	48110.88
729.87	48166.18
730.06	48149.79
730.25	48125.22
730.43	48682.27
730.62	47670.57
730.81	48241.95
730.99	48233.76
731.18	48248.10
731.37	48252.19
731.55	48426.27
731.74	48624.92
731.93	48657.69
732.11	48289.06
732.30	48448.80
732.49	48413.98
732.67	48166.18
732.86	48317.73
733.05	48293.15
733.23	47830.31
733.42	48250.14
733.61	48088.35
733.79	48420.13
733.98	48434.46
734.17	48084.26
734.35	48246.05
734.54	48479.52
734.73	48418.08
734.91	48301.34
735.10	47871.27
735.29	48227.62
735.47	47858.98
735.66	48010.53
735.84	48143.65
736.03	47828.26
736.22	48413.98
736.40	47695.14
736.59	48313.63
736.78	48248.10
736.96	47897.89
737.15	47967.52
737.33	48629.02
737.52	48321.82
737.71	48127.27
737.89	47881.51
738.08	47848.74
738.27	47871.27
738.45	48125.22
738.64	48057.63
738.82	48209.18
739.01	48405.79
739.20	47545.64
739.38	48055.59
739.57	48309.53
739.75	48022.82
739.94	47934.76
740.13	47656.23
740.31	47672.62
740.50	47568.17
740.68	47985.96
740.87	47834.41
741.06	47719.72
741.24	47387.95
741.43	47615.27
741.61	47711.53
741.80	47332.65
741.99	46912.82
742.17	47805.73
742.36	47568.17
742.54	47592.75
742.73	47607.08
742.91	47781.16
743.10	46959.92
743.29	47934.76
743.47	47846.69
743.66	47635.75
743.84	47396.14
744.03	47764.78
744.21	47512.88
744.40	47494.44
744.59	47004.98
744.77	47289.65
744.96	47494.44
745.14	47236.40
745.33	47015.22
745.51	47113.52
745.70	47297.84
745.88	46916.92
746.07	47019.31
746.26	46376.25
746.44	47150.38
746.63	47142.19
746.81	47009.07
747.00	46495.03
747.18	47353.13
747.37	46937.40
747.55	46931.25
747.74	47146.29
747.92	46622.01
748.11	46667.06
748.29	46994.74
748.48	46738.74
748.66	46822.71
748.85	46437.69
749.03	46941.49
749.22	47136.05
749.41	46708.02
749.59	46863.67
749.78	46662.97
749.96	46210.37
750.15	46331.20
750.33	46630.20
750.52	46421.31
750.70	45856.07
750.89	46626.10
751.07	46083.39
751.26	46163.26
751.44	45978.95
751.63	46353.72
751.81	46167.36
752.00	45948.23
752.18	46607.67
752.37	46183.74
752.55	46357.82
752.74	45782.34
752.92	46007.62
753.10	45976.90
753.29	45989.19
753.47	45643.08
753.66	45933.89
753.84	45886.79
754.03	45509.96
754.21	45720.90
754.40	45749.57
754.58	45944.13
754.77	45727.05
754.95	45798.73
755.14	45382.99
755.32	45634.89
755.51	45141.33
755.69	45577.54
755.88	45671.75
756.06	45745.48
756.24	45126.99
756.43	45012.31
756.61	45348.17
756.80	45464.91
756.98	44594.52
757.17	45045.07
757.35	45204.81
757.54	44838.23
757.72	45356.36
757.90	44914.00
758.09	44883.28
758.27	45036.88
758.46	44717.40
758.64	44754.26
758.83	45038.93
759.01	44868.95
759.19	44789.08
759.38	44997.97
759.56	45307.21
759.75	44658.01
759.93	44604.76
760.12	44301.66
760.30	44485.98
760.48	44354.91
760.67	44549.46
760.85	44830.04
761.04	44610.90
761.22	44236.12
761.40	44719.45
761.59	44268.89
761.77	44266.84
761.96	43873.63
762.14	44227.93
762.32	44068.19
762.51	44049.76
762.69	43945.31
762.88	44021.09
763.06	44168.54
763.24	43922.79
763.43	44010.85
763.61	43541.86
763.80	43844.96
763.98	43597.16
764.16	43789.67
764.35	43314.54
764.53	43484.52
764.72	43345.26
764.90	43361.64
765.08	43160.94
765.27	42898.80
765.45	43064.69
765.63	42845.55
765.82	43156.85
766.00	42585.46
766.18	42554.74
766.37	43234.67
766.55	42808.69
766.74	42988.91
766.92	42497.40
767.10	42431.86
767.29	42751.35
767.47	42626.42
767.65	42581.37
767.84	42585.46
768.02	42564.98
768.20	42096.00
768.39	42227.07
768.57	42261.88
768.75	41940.35
768.94	42407.29
769.12	42026.37
769.30	42218.88
769.49	42229.12
769.67	41723.27
769.85	41665.92
770.04	41915.78
770.22	42114.43
770.40	41778.56
770.59	41571.72
770.77	42284.41
770.95	41594.25
771.14	41618.82
771.32	41366.92
771.50	41477.51
771.69	41672.07
771.87	41756.03
772.05	41397.64
772.24	40998.29
772.42	41149.84
772.60	41020.81
772.78	40889.74
772.97	40658.32
773.15	41514.37
773.33	41026.96
773.52	40758.67
773.70	40736.15
773.88	41166.22
774.07	40543.64
774.25	40977.81
774.43	41053.58
774.61	40828.30
774.80	40899.98
774.98	40904.08
775.16	41067.92
775.34	40897.94
775.53	40703.38
775.71	40861.07
775.89	41160.08
776.08	41112.97
776.26	40891.79
776.44	40732.05
776.62	40598.93
776.81	40449.43
776.99	41379.21
777.17	40746.39
777.35	40887.70
777.54	40742.29
777.72	40869.26
777.90	40826.26
778.08	41051.53
778.27	40576.40
778.45	41051.53
778.63	40998.29
778.81	40830.35
779.00	41256.33
779.18	40682.90
779.36	41627.01
779.54	41465.22
779.73	40936.85
779.91	41469.32
780.09	40920.46
780.27	41344.39
780.46	41031.05
780.64	41604.49
780.82	40813.97
781.00	41184.65
781.19	40949.14
781.37	40910.22
781.55	41336.20
781.73	41553.29
781.91	40977.81
782.10	41205.13
782.28	41188.75
782.46	41282.95
782.64	41809.28
782.82	40969.61
783.01	41229.71
783.19	41674.12
783.37	41457.03
783.55	41256.33
783.74	41557.38
783.92	40996.24
784.10	41555.33
784.28	41321.87
784.46	41063.82
784.64	41180.56
784.83	41203.08
785.01	41379.21
785.19	41119.12
785.37	41285.00
785.55	41223.56
785.74	40940.94
785.92	40617.36
786.10	40551.83
786.28	41080.21
786.46	40607.12
786.64	40783.25
786.83	40836.50
787.01	41151.88
787.19	40818.07
787.37	41110.92
787.55	40789.39
787.74	40226.20
787.92	40650.13
788.10	40723.86
788.28	39974.30
788.46	40689.04
788.64	40109.47
788.82	40523.16
789.01	40263.07
789.19	40250.78
789.37	40166.81
789.55	40209.82
789.73	39689.63
789.91	39781.79
790.09	39638.44
790.28	39523.75
790.46	39505.32
790.64	39814.56
790.82	39871.90
791.00	39716.26
791.18	39470.50
791.36	39290.28
791.55	39253.42
791.73	39161.26
791.91	39073.20
792.09	39304.62
792.27	38993.32
792.45	39271.85
792.63	39046.57
792.81	38993.32
793.00	38784.43
793.18	38864.30
793.36	38704.56
793.54	38665.65
793.72	38370.74
793.90	38415.80
794.08	38438.33
794.26	38161.85
794.44	38067.64
794.62	37926.33
794.81	38321.59
794.99	37907.90
795.17	37912.00
795.35	37893.57
795.53	37854.65
795.71	37641.67
795.89	37447.11
796.07	36980.17
796.25	37070.28
796.43	37146.06
796.61	37141.96
796.80	37260.74
796.98	37180.87
797.16	37057.99
797.34	36883.92
797.52	36679.12
797.70	37043.66
797.88	36597.20
798.06	36353.49
798.24	36470.23
798.42	36255.19
798.60	35978.72
798.78	36414.93
798.96	36117.98
799.14	36083.16
799.32	36316.63
799.51	36099.55
799.69	36034.01
799.87	36117.98
800.05	35653.09
800.23	35595.74
800.41	35587.55
800.59	35331.56
800.77	35073.51
800.95	35055.08
801.13	35309.03
801.31	34952.68
801.49	35050.99
801.67	34522.61
801.85	35118.57
802.03	34792.94
802.21	34819.56
802.39	34559.47
802.57	34725.36
802.75	34477.55
802.93	34467.31
803.11	34317.81
803.29	33922.55
803.47	34250.23
803.65	34346.48
803.83	34315.76
804.01	34235.89
804.19	33904.12
804.37	33787.39
804.55	33693.18
804.73	33596.93
804.91	33732.09
805.09	33832.44
805.27	33541.63
805.45	33564.16
805.63	33635.84
805.81	33588.74
805.99	33232.39
806.17	33428.99
806.35	33121.80
806.53	33023.50
806.71	33230.34
806.89	33101.32
807.07	32949.77
807.25	33091.08
807.43	32728.59
807.61	33039.88
807.79	32540.18
807.97	32284.18
808.15	32783.88
808.33	32509.46
808.51	32630.29
808.69	32771.60
808.87	32294.42
809.05	32282.13
809.23	32198.16
809.41	31972.89
809.59	31923.74
809.77	32024.09
809.95	31708.70
810.13	31895.07
810.31	31966.74
810.49	31618.59
810.67	31718.94
810.84	31757.85
811.02	31362.59
811.20	31514.14
811.38	31813.15
811.56	30967.34
811.74	31192.61
811.92	30801.45
812.10	31086.12
812.28	31227.43
812.46	31053.35
812.64	31065.64
812.82	31055.40
813.00	30889.51
813.18	31088.17
813.36	31141.41
813.53	30625.32
813.71	30983.72
813.89	30758.44
814.07	30740.01
814.25	30658.09
814.43	30492.21
814.61	30533.17
814.79	30107.19
814.97	30090.80
815.15	30248.50
815.33	30152.24
815.50	30379.57
815.68	30359.09
815.86	30729.77
816.04	29904.44
816.22	30373.42
816.40	30139.96
816.58	30158.39
816.76	29834.81
816.94	29816.38
817.11	29924.92
817.29	29959.73
817.47	29503.04
817.65	29666.88
817.83	29517.37
818.01	29605.44
818.19	29183.55
818.37	29683.26
818.54	29439.55
818.72	29214.27
818.90	29750.84
819.08	29222.47
819.26	29281.86
819.44	29312.58
819.62	29111.88
819.80	29439.55
819.97	29453.89
820.15	29091.40
820.33	29218.37
820.51	29525.57
820.69	28390.99
820.87	28948.04
821.05	29195.84
821.22	28708.43
821.40	29052.48
821.58	28806.73
821.76	28724.81
821.94	28733.00
822.12	28616.27
822.29	28708.43
822.47	28569.16
822.65	28911.17
822.83	28544.59
823.01	28407.37
823.19	28466.77
823.36	27774.55
823.54	28059.22
823.72	28343.89
823.90	28063.32
824.08	28040.79
824.25	28079.70
824.43	27858.52
824.61	28051.03
824.79	28276.30
824.97	27852.38
825.15	27999.83
825.32	27967.06
825.50	27965.01
825.68	27758.17
825.86	28180.05
826.04	27817.56
826.21	27797.08
826.39	27932.25
826.57	27666.01
826.75	27659.87
826.93	27567.71
827.10	27553.37
827.28	27438.69
827.46	27467.36
827.64	27657.82
827.81	27078.24
827.99	27516.51
828.17	27496.03
828.35	27418.21
828.53	27123.30
828.70	27373.15
828.88	27324.00
829.06	27428.45
829.24	27700.83
829.41	26984.04
829.59	27518.56
829.77	27387.49
829.95	27184.74
830.12	26928.74
830.30	26994.28
830.48	27194.98
830.66	27072.10
830.84	27094.63
831.01	26900.07
831.19	26883.69
831.37	26981.99
831.55	26805.86
831.72	26529.39
831.90	26603.11
832.08	26926.69
832.25	26771.05
832.43	26568.30
832.61	26596.97
832.79	26318.45
832.96	26633.83
833.14	26693.22
833.32	26875.49
833.50	26781.29
833.67	26730.09
833.85	26488.43
834.03	26390.13
834.20	26373.74
834.38	26394.22
834.56	26281.58
834.74	26080.88
834.91	26347.12
835.09	26242.67
835.27	26066.55
835.44	25964.15
835.62	25763.45
835.80	25851.51
835.98	25953.91
836.15	26031.73
836.33	25847.41
836.51	26426.99
836.68	26072.69
836.86	25871.99
837.04	26019.44
837.21	25955.96
837.39	25718.39
837.57	25638.52
837.75	26052.21
837.92	25521.79
838.10	25871.99
838.28	25157.25
838.45	25499.26
838.63	25728.63
838.81	25478.78
838.98	25329.28
839.16	25390.72
839.34	25419.39
839.51	25183.87
839.69	24993.41
839.87	25398.91
840.04	25540.22
840.22	25529.98
840.40	25345.66
840.57	25167.49
840.75	25138.82
840.93	24911.49
841.10	25390.72
841.28	25323.13
841.46	25233.02
841.63	24934.02
841.81	25204.35
841.98	25230.98
842.16	25122.43
842.34	24837.76
842.51	24645.26
842.69	25300.61
842.87	25120.38
843.04	25212.54
843.22	24839.81
843.40	25167.49
843.57	24970.88
843.75	24854.15
843.92	24952.45
844.10	24796.81
844.28	24899.20
844.45	24934.02
844.63	24592.01
844.81	24964.74
844.98	24639.11
845.16	24751.75
845.33	24663.69
845.51	24366.73
845.69	24497.80
845.86	24213.13
846.04	24393.36
846.21	24293.01
846.39	24350.35
846.57	24039.06
846.74	24485.51
846.92	24350.35
847.09	23885.46
847.27	24186.51
847.45	24104.59
847.62	24254.09
847.80	24002.19
847.97	24209.04
848.15	23873.17
848.32	23879.32
848.50	24059.54
848.68	23807.64
848.85	23842.45
849.03	23713.43
849.20	23981.71
849.38	23989.91
849.56	23867.03
849.73	23699.09
849.91	23867.03
850.08	24053.39
850.26	23137.95
850.43	23645.85
850.61	23563.93
850.78	23428.76
850.96	23697.05
851.14	23330.46
851.31	23844.50
851.49	23660.18
851.66	23649.94
851.84	23529.11
852.01	23545.50
852.19	23948.95
852.36	23258.78
852.54	23340.70
852.71	23352.99
852.89	23219.87
853.07	22961.83
853.24	22955.68
853.42	23015.07
853.59	23217.82
853.77	23219.87
853.94	23140.00
854.12	23242.40
854.29	22927.01
854.47	22662.82
854.64	23148.19
854.82	22972.07
854.99	23068.32
855.17	22773.41
855.34	22898.34
855.52	22834.85
855.69	22998.69
855.87	22779.56
856.04	22552.23
856.22	22697.64
856.39	22716.07
856.57	22820.52
856.74	22656.68
856.92	22857.38
857.09	22652.58
857.27	22877.86
857.44	22650.53
857.62	22638.25
857.79	22650.53
857.97	22619.81
858.14	22429.35
858.32	22449.83
858.49	22486.70
858.67	22232.75
858.84	22466.22
859.02	22159.02
859.19	22378.15
859.37	22017.71
859.54	21980.85
859.72	22199.98
859.89	22283.95
860.06	21845.68
860.24	21921.46
860.41	21864.11
860.59	21896.88
860.76	22056.62
860.94	21675.70
861.11	22081.20
861.29	22007.47
861.46	21851.83
861.64	21565.11
861.81	21747.38
861.98	21954.22
862.16	21835.44
862.33	21675.70
862.51	21556.92
862.68	21470.90
862.86	21679.80
863.03	21479.10
863.21	21663.41
863.38	21548.73
863.55	21462.71
863.73	21475.00
863.90	21251.77
864.08	21401.27
864.25	21132.99
864.43	21544.63
864.60	21098.17
864.77	21171.90
864.95	21296.83
865.12	21089.98
865.30	21135.04
865.47	21345.98
865.64	21163.71
865.82	21010.11
865.99	21292.73
866.17	20903.62
866.34	21141.18
866.51	20528.84
866.69	20934.34
866.86	20891.33
867.04	20782.79
867.21	20844.23
867.38	20702.92
867.56	20768.45
867.73	20653.76
867.91	20494.02
868.08	20532.93
868.25	20711.11
868.43	20649.67
868.60	20332.23
868.78	20365.00
868.95	20602.57
869.12	20514.50
869.30	20377.29
869.47	20448.97
869.64	20471.50
869.82	20397.77
869.99	20121.29
870.16	20324.04
870.34	20035.28
870.51	20399.82
870.69	19994.32
870.86	20074.19
871.03	20047.57
871.21	19908.30
871.38	19818.19
871.55	19742.42
871.73	19836.63
871.90	19865.30
872.07	19691.22
872.25	19799.76
872.42	19527.38
872.59	19685.08
872.77	19592.92
872.94	19343.06
873.11	19285.72
873.29	19515.09
873.46	19248.86
873.63	19367.64
873.81	19103.45
873.98	19117.79
874.15	19476.18
874.33	18994.91
874.50	19068.64
874.67	19066.59
874.85	19207.90
875.02	19158.75
875.19	19142.36
875.37	18808.54
875.54	18851.55
875.71	18978.53
875.88	18822.88
876.06	18788.07
876.23	18818.78
876.40	18839.26
876.58	18755.30
876.75	18814.69
876.92	18544.36
877.10	18675.43
877.27	18638.56
877.44	18360.04
877.61	18374.38
877.79	18476.77
877.96	18357.99
878.13	18335.46
878.31	18278.12
878.48	18188.01
878.65	18177.77
878.82	18054.89
879.00	18173.67
879.17	17966.83
879.34	18032.36
879.51	17944.30
879.69	18042.60
879.86	17915.63
880.03	17731.31
880.21	17647.35
880.38	18013.93
880.55	17960.69
880.72	17633.01
880.90	17780.46
881.07	17610.48
881.24	17645.30
881.41	17694.45
881.59	17676.02
881.76	17510.13
881.93	17510.13
882.10	17442.55
882.28	17084.16
882.45	17446.65
882.62	17245.94
882.79	17444.60
882.96	17172.22
883.14	17270.52
883.31	17450.74
883.48	17428.21
883.65	17223.42
883.83	17549.04
884.00	17272.57
884.17	17346.30
884.34	17510.13
884.51	17368.82
884.69	17309.43
884.86	17159.93
885.03	17315.58
885.20	16838.40
885.38	17209.08
885.55	17061.63
885.72	17121.02
885.89	17030.91
886.06	16885.50
886.24	16774.91
886.41	16826.11
886.58	16895.74
886.75	16895.74
886.92	16776.96
887.10	16805.63
887.27	16729.86
887.44	16736.00
887.61	17002.24
887.78	16631.55
887.95	16770.82
888.13	16277.26
888.30	16549.64
888.47	16475.91
888.64	16492.29
888.81	16244.49
888.99	16418.57
889.16	16221.96
889.33	16344.84
889.50	16242.44
889.67	16125.71
889.84	16039.69
890.01	16219.91
890.19	16082.70
890.36	16264.97
890.53	15931.15
890.70	15986.44
890.87	15998.73
891.04	15986.44
891.22	15888.14
891.39	15925.00
891.56	15769.36
891.73	15683.34
891.90	15900.43
892.07	15724.30
892.24	15742.74
892.42	15675.15
892.59	15736.59
892.76	15626.00
892.93	15703.82
893.10	15642.39
893.27	15867.66
893.44	15716.11
893.61	15550.23
893.79	15572.75
893.96	15478.55
894.13	15431.44
894.30	15427.35
894.47	15589.14
894.64	15658.77
894.81	15456.02
894.98	15550.23
895.15	15509.27
895.33	15396.63
895.50	15394.58
895.67	15415.06
895.84	15384.34
896.01	15275.80
896.18	15292.18
896.35	15808.27
896.52	15310.61
896.69	15472.40
896.86	15529.75
897.04	15404.82
897.21	15511.32
897.38	15439.64
897.55	15267.61
897.72	15361.81
897.89	15337.24
898.06	15374.10
898.23	15439.64
898.40	15288.09
898.57	15390.49
898.74	15220.50
898.91	15421.20
899.08	15247.13
899.26	15197.98
899.43	15392.53
899.60	15073.05
899.77	15343.38
899.94	14929.69
900.11	14968.60
900.28	15007.52
900.45	15165.21
900.62	15058.71
900.79	15279.89
900.96	15009.56
901.13	15140.63
901.30	15206.17
901.47	15091.48
901.64	15195.93
901.81	15107.87
901.98	14815.01
902.15	15015.71
902.32	15273.75
902.49	15005.47
902.66	15154.97
902.83	14772.00
903.01	15122.20
903.18	14978.84
903.35	15183.64
903.52	14802.72
903.69	15036.19
903.86	15148.82
904.03	14772.00
904.20	15275.80
904.37	15161.11
904.54	15050.52
904.71	15030.04
904.88	15152.92
905.05	14984.99
905.22	14948.12
905.39	14798.62
905.56	15083.29
905.73	15040.28
905.90	14903.07
906.07	15013.66
906.24	14984.99
906.41	14892.83
906.58	14964.51
906.75	14993.18
906.92	14837.53
907.09	14954.27
907.26	15011.61
907.43	14599.97
907.60	14774.05
907.77	14870.30
907.93	14829.34
908.10	14929.69
908.27	14964.51
908.44	14835.49
908.61	14661.41
908.78	14980.89
908.95	14974.75
909.12	14790.43
909.29	14825.25
909.46	14626.59
909.63	15025.95
909.80	14722.85
909.97	14495.52
910.14	14790.43
910.31	14532.39
910.48	14583.59
910.65	14671.65
910.82	14384.93
910.99	14624.54
911.16	14640.93
911.33	14518.05
911.50	14411.56
911.66	14382.88
911.83	14454.56
912.00	14501.67
912.17	14413.60
912.34	14303.01
912.51	14270.25
912.68	14473.00
912.85	14473.00
913.02	14552.87
913.19	14108.46
913.36	14296.87
913.53	14077.74
913.70	14202.66
913.86	14544.67
914.03	14257.96
914.20	14061.35
914.37	14133.03
914.54	14153.51
914.71	14116.65
914.88	14036.78
915.05	14028.59
915.22	13991.72
915.39	14053.16
915.55	13840.17
915.72	13799.21
915.89	13825.84
916.06	13797.17
916.23	13702.96
916.40	13829.93
916.57	13567.79
916.74	13592.37
916.91	13639.47
917.07	13520.69
917.24	13449.01
917.41	13485.87
917.58	13623.09
917.75	13596.46
917.92	13276.98
918.09	13240.12
918.26	13489.97
918.42	13461.30
918.59	13606.70
918.76	13313.84
918.93	13256.50
919.10	13227.83
919.27	13256.50
919.44	13217.59
919.60	13143.86
919.77	13111.10
919.94	12988.22
920.11	13166.39
920.28	13129.53
920.45	13068.09
920.61	12656.45
920.78	12939.07
920.95	12672.83
921.12	12652.35
921.29	12697.41
921.46	12586.82
921.62	12404.55
921.79	12508.99
921.96	12371.78
922.13	12447.55
922.30	12330.82
922.47	12373.83
922.63	12166.98
922.80	12298.05
922.97	12224.33
923.14	12164.93
923.31	12332.87
923.47	12031.82
923.64	12355.40
923.81	12023.62
923.98	12119.88
924.15	11972.43
924.32	11849.55
924.48	11906.89
924.65	11775.82
924.82	11900.75
924.99	11618.13
925.15	11474.77
925.32	11624.27
925.49	11409.23
925.66	11398.99
925.83	11497.30
925.99	11462.48
926.16	11415.38
926.33	11442.00
926.50	11274.07
926.67	11505.49
926.83	11202.39
927.00	11239.25
927.17	11069.27
927.34	10923.87
927.50	11319.12
927.67	11265.88
927.84	11120.47
928.01	11024.22
928.17	10913.63
928.34	10975.06
928.51	10987.35
928.68	10762.08
928.84	10665.82
929.01	10594.14
929.18	10491.74
929.35	10628.96
929.51	10782.56
929.68	10393.44
929.85	10432.35
930.02	10551.14
930.18	10608.48
930.35	10356.58
930.52	10463.07
930.69	10252.13
930.85	10166.12
931.02	10147.69
931.19	10004.33
931.36	10151.78
931.52	10168.16
931.69	10026.86
931.86	10045.29
932.02	9838.44
932.19	9922.41
932.36	9926.50
932.53	10008.42
932.69	9582.45
932.86	9854.83
933.03	9871.21
933.19	9656.17
933.36	9498.48
933.53	9529.20
933.70	9416.56
933.86	9482.10
934.03	9658.22
934.20	9197.43
934.36	9404.27
934.53	9164.66
934.70	9025.40
934.86	9154.42
935.03	9021.30
935.20	8908.66
935.36	8834.94
935.53	8804.22
935.70	8826.75
935.86	8601.47
936.03	8693.63
936.20	8318.85
936.36	8304.51
936.53	8392.58
936.70	8478.59
936.86	8544.13
937.03	8226.69
937.20	7933.83
937.36	8150.92
937.53	7966.60
937.70	7802.76
937.86	7671.69
938.03	7683.98
938.20	7757.71
938.36	7600.01
938.53	7645.07
938.70	7339.92
938.86	7591.82
939.03	7303.06
939.20	7165.84
939.36	7155.60
939.53	7014.29
939.70	7198.61
939.86	6786.97
940.03	6901.65
940.19	6506.40
940.36	6750.10
940.53	6786.97
940.69	6633.37
940.86	6528.92
941.03	6338.46
941.19	6279.07
941.36	6391.71
941.52	6234.02
941.69	6158.24
941.86	6082.47
942.02	6309.79
942.19	6154.15
942.35	6041.51
942.52	6066.08
942.69	5859.24
942.85	5762.98
943.02	5783.46
943.18	5853.09
943.35	5582.76
943.52	5873.57
943.68	5722.02
943.85	5644.20
944.01	5492.65
944.18	5423.02
944.35	5656.49
944.51	5384.11
944.68	5404.59
944.84	5568.43
945.01	5316.53
945.17	5324.72
945.34	5334.96
945.51	5400.49
945.67	5341.10
945.84	5222.32
946.00	5154.74
946.17	5199.79
946.33	5275.57
946.50	5244.85
946.67	5210.03
946.83	5226.42
947.00	5259.18
947.16	5248.94
947.33	5248.94
947.49	5310.38
947.66	5115.83
947.82	5306.29
947.99	5310.38
948.16	5154.74
948.32	5212.08
948.49	5394.35
948.65	5220.27
948.82	5287.86
948.98	5025.72
949.15	5328.81
949.31	5310.38
949.48	5263.28
949.64	5218.22
949.81	5222.32
949.97	5345.20
950.14	5328.81
950.30	5171.12
950.47	5273.52
950.63	5201.84
950.80	5482.41
950.96	5291.95
951.13	5250.99
951.30	5351.34
951.46	5386.16
951.63	5468.08
951.79	5345.20
951.96	5384.11
952.12	5388.21
952.29	5363.63
952.45	5226.42
952.62	5496.75
952.78	5504.94
952.94	5255.09
953.11	5328.81
953.27	5175.22
953.44	5517.23
953.60	5371.82
953.77	5435.31
953.93	5242.80
954.10	5369.77
954.26	5361.58
954.43	5466.03
954.59	5365.68
954.76	5459.88
954.92	5486.51
955.09	5339.05
955.25	5404.59
955.42	5324.72
955.58	5693.35
955.75	5455.79
955.91	5402.54
956.07	5453.74
956.24	5529.52
956.40	5519.28
956.57	5410.73
956.73	5486.51
956.90	5582.76
957.06	5396.40
957.23	5423.02
957.39	5478.32
957.56	5423.02
957.72	5470.12
957.88	5414.83
958.05	5474.22
958.21	5552.04
958.38	5459.88
958.54	5441.45
958.71	5603.24
958.87	5394.35
959.03	5437.36
959.20	5451.69
959.36	5425.07
959.53	5447.60
959.69	5451.69
959.85	5476.27
960.02	5427.12
960.18	5466.03
960.35	5525.42
960.51	5470.12
960.68	5418.93
960.84	5402.54
961.00	5562.28
961.17	5453.74
961.33	5564.33
961.50	5545.90
961.66	5513.13
961.82	5429.17
961.99	5476.27
962.15	5334.96
962.31	5367.73
962.48	5328.81
962.64	5480.36
962.81	5402.54
962.97	5541.80
963.13	5326.77
963.30	5412.78
963.46	5339.05
963.62	5371.82
963.79	5369.77
963.95	5529.52
964.12	5394.35
964.28	5506.99
964.44	5334.96
964.61	5484.46
964.77	5193.65
964.93	5531.56
965.10	5363.63
965.26	5337.01
965.42	5384.11
965.59	5255.09
965.75	5261.23
965.92	5298.10
966.08	5359.53
966.24	5427.12
966.41	5195.70
966.57	5406.64
966.73	5357.49
966.90	5494.70
967.06	5326.77
967.22	5261.23
967.39	5187.50
967.55	5173.17
967.71	5230.51
967.88	5052.34
968.04	5203.89
968.20	5375.92
968.37	5087.15
968.53	5300.14
968.69	5267.38
968.85	5173.17
969.02	5183.41
969.18	5265.33
969.34	5210.03
969.51	5083.06
969.67	5134.26
969.83	5076.91
970.00	5291.95
970.16	5294.00
970.32	5226.42
970.48	5189.55
970.65	5099.44
970.81	5171.12
970.97	5121.97
971.14	4972.47
971.30	5193.65
971.46	5091.25
971.63	4919.22
971.79	5060.53
971.95	5068.72
972.11	4974.52
972.28	4984.76
972.44	5140.40
972.60	5050.29
972.76	5001.14
972.93	5027.76
973.09	4941.75
973.25	4839.35
973.42	4865.97
973.58	5042.10
973.74	5083.06
973.90	4894.65
974.07	4939.70
974.23	4984.76
974.39	4822.97
974.55	4853.69
974.72	4984.76
974.88	4706.23
975.04	4923.32
975.20	4726.71
975.37	5003.19
975.53	4755.38
975.69	4904.89
975.85	4825.01
976.01	4753.34
976.18	4777.91
976.34	4691.90
976.50	4845.49
976.66	4835.25
976.83	4757.43
976.99	4872.12
977.15	4790.20
977.31	4708.28
977.47	4784.06
977.64	4665.27
977.80	4628.41
977.96	4669.37
978.12	4655.03
978.29	4708.28
978.45	4566.97
978.61	4556.73
978.77	4714.42
978.93	4501.44
979.10	4505.53
979.26	4558.78
979.42	4646.84
979.58	4444.09
979.74	4597.69
979.91	4573.11
980.07	4468.67
980.23	4591.55
980.39	4489.15
980.55	4310.97
980.71	4493.24
980.88	4437.95
981.04	4349.89
981.20	4386.75
981.36	4405.18
981.52	4433.85
981.68	4390.84
981.85	4526.01
982.01	4345.79
982.17	4345.79
982.33	4253.63
982.49	4425.66
982.65	4313.02
982.82	4308.93
982.98	4290.49
983.14	4229.06
983.30	4386.75
983.46	4403.13
983.62	4460.48
983.79	4386.75
983.95	4255.68
984.11	4186.05
984.27	4231.10
984.43	4368.32
984.59	4157.38
984.75	4339.65
984.91	4138.94
985.08	4257.73
985.24	4120.51
985.40	4116.42
985.56	4130.75
985.72	4222.91
985.88	4194.24
986.04	4114.37
986.20	4184.00
986.37	4206.53
986.53	4030.40
986.69	4128.70
986.85	4028.35
987.01	4159.42
987.17	4274.11
987.33	4018.11
987.49	4044.74
987.65	4161.47
987.82	4138.94
987.98	3928.00
988.14	3848.13
988.30	4061.12
988.46	3973.06
988.62	3934.15
988.78	4102.08
988.94	4054.98
989.10	3891.14
989.26	3807.17
989.42	3788.74
989.59	3690.44
989.75	3856.33
989.91	4005.83
990.07	3837.89
990.23	3811.27
990.39	3813.32
990.55	3817.41
990.71	3817.41
990.87	3866.56
991.03	3930.05
991.19	3815.37
991.35	3735.50
991.51	3805.13
991.67	3776.45
991.83	3764.17
992.00	3805.13
992.16	3715.02
992.32	3815.37
992.48	3762.12
992.64	3704.78
992.80	3790.79
992.96	3811.27
993.12	3772.36
993.28	3755.97
993.44	3606.47
993.60	3743.69
993.76	3629.00
993.92	3618.76
994.08	3647.43
994.24	3735.50
994.40	3635.14
994.56	3663.82
994.72	3532.75
994.88	3557.32
995.04	3669.96
995.20	3610.57
995.36	3565.51
995.52	3579.85
995.68	3588.04
995.84	3557.32
996.00	3594.19
996.16	3491.79
996.32	3520.46
996.48	3532.75
996.64	3608.52
996.80	3459.02
996.96	3493.83
997.12	3413.96
997.28	3469.26
997.44	3448.78
997.60	3557.32
997.76	3391.44
997.92	3395.53
998.08	3354.57
998.24	3375.05
998.40	3377.10
998.56	3635.14
998.72	3286.99
998.88	3399.63
999.04	3293.13
999.20	3528.65
999.36	3405.77
999.52	3393.48
999.68	3295.18
999.84	3293.13
1000.00	3340.24
1000.16	3342.28
1000.32	3280.85
1000.48	3454.92
1000.64	3258.32
1000.80	3237.84
1000.95	3274.70
1001.11	3303.37
1001.27	3162.06
1001.43	3207.12
1001.59	3125.20
1001.75	3241.93
1001.91	3286.99
1002.07	3188.69
1002.23	3026.90
1002.39	3246.03
1002.55	3241.93
1002.71	3170.26
1002.87	3213.26
1003.03	3055.57
1003.19	3030.99
1003.34	3170.26
1003.50	3137.49
1003.66	3252.17
1003.82	3143.63
1003.98	3004.37
1004.14	3082.19
1004.30	3026.90
1004.46	2957.27
1004.62	2985.94
1004.78	3110.86
1004.94	3028.95
1005.09	3076.05
1005.25	3131.34
1005.41	3024.85
1005.57	3008.47
1005.73	3096.53
1005.89	2965.46
1006.05	2987.99
1006.21	2936.79
1006.37	3002.32
1006.52	2893.78
1006.68	2820.05
1006.84	3041.23
1007.00	2990.03
1007.16	2912.21
1007.32	2858.96
1007.48	3035.09
1007.64	2987.99
1007.79	2840.53
1007.95	2877.40
1008.11	2998.23
1008.27	2830.29
1008.43	2983.89
1008.59	2764.76
1008.75	2971.60
1008.91	2856.92
1009.06	2795.48
1009.22	2842.58
1009.38	2803.67
1009.54	2877.40
1009.70	2789.33
1009.86	2799.57
1010.01	2924.50
1010.17	2717.65
1010.33	2807.77
1010.49	2797.53
1010.65	2916.31
1010.81	2768.85
1010.96	2758.61
1011.12	2715.61
1011.28	2701.27
1011.44	2736.09
1011.60	2795.48
1011.76	2678.74
1011.91	2805.72
1012.07	2787.29
1012.23	2629.59
1012.39	2650.07
1012.55	2693.08
1012.71	2598.87
1012.86	2693.08
1013.02	2703.32
1013.18	2701.27
1013.34	2633.69
1013.50	2705.37
1013.65	2678.74
1013.81	2592.73
1013.97	2637.78
1014.13	2609.11
1014.29	2564.06
1014.44	2666.46
1014.60	2527.19
1014.76	2508.76
1014.92	2691.03
1015.07	2648.02
1015.23	2533.34
1015.39	2566.10
1015.55	2521.05
1015.71	2482.14
1015.86	2658.26
1016.02	2541.53
1016.18	2416.60
1016.34	2588.63
1016.49	2527.19
1016.65	2510.81
1016.81	2478.04
1016.97	2529.24
1017.12	2564.06
1017.28	2389.98
1017.44	2426.84
1017.60	2490.33
1017.75	2521.05
1017.91	2547.67
1018.07	2549.72
1018.23	2467.80
1018.38	2443.23
1018.54	2389.98
1018.70	2471.90
1018.86	2387.93
1019.01	2396.12
1019.17	2418.65
1019.33	2463.71
1019.49	2494.43
1019.64	2451.42
1019.80	2416.60
1019.96	2422.75
1020.12	2357.21
1020.27	2299.87
1020.43	2426.84
1020.59	2426.84
1020.74	2435.03
1020.90	2559.96
1021.06	2332.64
1021.22	2338.78
1021.37	2330.59
1021.53	2295.77
1021.69	2383.84
1021.84	2306.01
1022.00	2414.56
1022.16	2289.63
1022.31	2324.44
1022.47	2363.36
1022.63	2308.06
1022.79	2211.81
1022.94	2322.40
1023.10	2396.12
1023.26	2217.95
1023.41	2248.67
1023.57	2228.19
1023.73	2301.92
1023.88	2283.49
1024.04	2156.51
1024.20	2230.24
1024.35	2246.62
1024.51	2260.96
1024.67	2246.62
1024.82	2273.25
1024.98	2197.47
1025.14	2301.92
1025.29	2322.40
1025.45	2142.18
1025.61	2187.23
1025.76	2183.13
1025.92	2226.14
1026.08	2269.15
1026.23	2170.85
1026.39	2197.47
1026.55	2205.66
1026.70	2154.46
1026.86	2109.41
1027.02	2291.68
1027.17	2205.66
1027.33	2152.42
1027.48	2150.37
1027.64	2191.33
1027.80	2133.98
1027.95	2226.14
1028.11	2064.35
1028.27	2217.95
1028.42	2189.28
1028.58	2150.37
1028.73	2095.07
1028.89	2052.06
1029.05	2246.62
1029.20	2133.98
>>>>>End Processed Spectral Data<<<<<
