SpectraSuite Data File
++++++++++++++++++++++++++++++++++++
Date: Fri Jun 02 14:47:57 CEST 2017
User: INFO_000
Dark Spectrum Present: No
Reference Spectrum Present: No
Number of Sampled Component Spectra: 1
Spectrometers: USB4H00879
Integration Time (usec): 80000 (USB4H00879)
Spectra Averaged: 1 (USB4H00879)
Boxcar Smoothing: 0 (USB4H00879)
Correct for Electrical Dark: No (USB4H00879)
Strobe/Lamp Enabled: No (USB4H00879)
Correct for Detector Non-linearity: No (USB4H00879)
Correct for Stray Light: No (USB4H00879)
Number of Pixels in Processed Spectrum: 3648
>>>>>Begin Processed Spectral Data<<<<<
345.13	1329.13
345.34	1329.13
345.56	1329.13
345.78	1333.23
345.99	1279.98
346.21	1708.01
346.42	1650.66
346.64	1621.99
346.86	1738.73
347.07	1712.10
347.29	1722.34
347.50	1640.42
347.72	1648.61
347.94	1746.92
348.15	1607.66
348.37	1681.38
348.59	1701.86
348.80	1626.09
349.02	1777.64
349.23	1841.12
349.45	1822.69
349.67	1892.32
349.88	1759.21
350.10	1966.05
350.31	1804.26
350.53	1744.87
350.75	1957.86
350.96	1820.64
351.18	1830.88
351.39	1839.08
351.61	1810.40
351.82	1888.23
352.04	1892.32
352.26	1875.94
352.47	1912.80
352.69	1937.38
352.90	1769.44
353.12	1816.55
353.34	1853.41
353.55	1957.86
353.77	1869.80
353.98	1816.55
354.20	1765.35
354.41	1943.52
354.63	1923.04
354.85	1994.72
355.06	1834.98
355.28	1755.11
355.49	1853.41
355.71	1884.13
355.92	1875.94
356.14	1908.71
356.35	1888.23
356.57	1851.36
356.79	1902.56
357.00	1910.75
357.22	1943.52
357.43	1828.84
357.65	1904.61
357.86	1834.98
358.08	1865.70
358.29	1955.81
358.51	1998.82
358.72	1974.24
358.94	1947.62
359.16	1890.28
359.37	1912.80
359.59	1992.67
359.80	2013.15
360.02	1892.32
360.23	2009.06
360.45	1996.77
360.66	1880.04
360.88	1814.50
361.09	1955.81
361.31	1910.75
361.52	1908.71
361.74	2041.82
361.95	2050.02
362.17	1978.34
362.38	2066.40
362.60	2000.87
362.81	1931.23
363.03	1923.04
363.24	1992.67
363.46	2121.70
363.67	2068.45
363.89	2043.87
364.10	1970.15
364.32	1943.52
364.53	2103.26
364.75	1923.04
364.96	2009.06
365.18	2039.78
365.39	2023.39
365.61	1923.04
365.82	2019.30
366.04	2019.30
366.25	1888.23
366.47	2039.78
366.68	2058.21
366.90	2033.63
367.11	2017.25
367.33	2052.06
367.54	2066.40
367.76	1980.39
367.97	2002.91
368.19	2035.68
368.40	2183.13
368.62	1980.39
368.83	1914.85
369.05	2076.64
369.26	2019.30
369.48	1955.81
369.69	1943.52
369.91	2041.82
370.12	1998.82
370.33	2142.18
370.55	1949.67
370.76	2004.96
370.98	2084.83
371.19	2150.37
371.41	2037.73
371.62	2047.97
371.84	2000.87
372.05	2181.09
372.27	2068.45
372.48	2090.98
372.69	2035.68
372.91	2058.21
373.12	2123.74
373.34	2007.01
373.55	2105.31
373.77	2205.66
373.98	2125.79
374.20	2138.08
374.41	2236.38
374.62	2117.60
374.84	2201.57
375.05	2131.94
375.27	2131.94
375.48	2121.70
375.70	2185.18
375.91	2244.57
376.12	2269.15
376.34	2131.94
376.55	2133.98
376.77	2220.00
376.98	2111.46
377.19	2152.42
377.41	2123.74
377.62	2215.90
377.84	2293.72
378.05	2281.44
378.27	2144.22
378.48	2252.77
378.69	2344.92
378.91	2271.20
379.12	2238.43
379.34	2201.57
379.55	2330.59
379.76	2306.01
379.98	2179.04
380.19	2240.48
380.41	2269.15
380.62	2236.38
380.83	2232.29
381.05	2154.46
381.26	2326.49
381.47	2217.95
381.69	2330.59
381.90	2463.71
382.12	2279.39
382.33	2215.90
382.54	2291.68
382.76	2387.93
382.97	2271.20
383.19	2248.67
383.40	2375.64
383.61	2330.59
383.83	2340.83
384.04	2312.16
384.25	2277.34
384.47	2410.46
384.68	2361.31
384.89	2349.02
385.11	2428.89
385.32	2342.88
385.54	2283.49
385.75	2365.40
385.96	2332.64
386.18	2377.69
386.39	2437.08
386.60	2355.16
386.82	2437.08
387.03	2455.51
387.24	2447.32
387.46	2408.41
387.67	2441.18
387.88	2502.62
388.10	2494.43
388.31	2539.48
388.52	2547.67
388.74	2502.62
388.95	2445.27
389.16	2568.15
389.38	2453.47
389.59	2611.16
389.80	2592.73
390.02	2484.19
390.23	2658.26
390.44	2490.33
390.66	2574.30
390.87	2586.58
391.08	2590.68
391.30	2740.18
391.51	2602.97
391.72	2607.06
391.94	2676.70
392.15	2652.12
392.36	2695.13
392.58	2523.10
392.79	2729.94
393.00	2693.08
393.22	2707.41
393.43	2744.28
393.64	2762.71
393.85	2824.15
394.07	2590.68
394.28	2652.12
394.49	2746.33
394.71	2740.18
394.92	2748.37
395.13	2703.32
395.35	2834.39
395.56	2783.19
395.77	2744.28
395.98	2758.61
396.20	2901.97
396.41	2793.43
396.62	2850.77
396.84	2740.18
397.05	2787.29
397.26	2836.44
397.47	2951.12
397.69	2789.33
397.90	2908.12
398.11	2910.16
398.32	2965.46
398.54	2801.62
398.75	2965.46
398.96	2834.39
399.18	3049.43
399.39	2973.65
399.60	2985.94
399.81	2944.98
400.03	2893.78
400.24	3153.87
400.45	2990.03
400.66	2992.08
400.88	3008.47
401.09	3135.44
401.30	3014.61
401.51	3059.67
401.73	3166.16
401.94	3100.62
402.15	3106.77
402.36	3207.12
402.58	3135.44
402.79	3119.06
403.00	3127.25
403.21	3166.16
403.43	3184.59
403.64	3239.89
403.85	3108.82
404.06	3219.41
404.27	3076.05
404.49	3155.92
404.70	3096.53
404.91	3264.46
405.12	3241.93
405.34	3192.78
405.55	3352.52
405.76	3213.26
405.97	3182.54
406.19	3456.97
406.40	3246.03
406.61	3434.44
406.82	3393.48
407.03	3233.74
407.25	3301.33
407.46	3506.12
407.67	3471.31
407.88	3508.17
408.09	3459.02
408.31	3332.05
408.52	3477.45
408.73	3350.48
408.94	3428.30
409.15	3405.77
409.37	3403.72
409.58	3471.31
409.79	3379.15
410.00	3411.92
410.21	3352.52
410.43	3538.89
410.64	3342.28
410.85	3456.97
411.06	3557.32
411.27	3606.47
411.48	3526.60
411.70	3559.37
411.91	3635.14
412.12	3659.72
412.33	3665.86
412.54	3526.60
412.76	3612.62
412.97	3592.14
413.18	3624.90
413.39	3700.68
413.60	3717.06
413.81	3694.54
414.03	3581.90
414.24	3512.27
414.45	3786.69
414.66	3526.60
414.87	3831.75
415.08	3635.14
415.30	3692.49
415.51	3743.69
415.72	3760.07
415.93	3786.69
416.14	3755.97
416.35	3825.61
416.56	3764.17
416.78	3778.50
416.99	3809.22
417.20	3805.13
417.41	3841.99
417.62	3831.75
417.83	3987.40
418.04	3745.73
418.26	3860.42
418.47	3913.67
418.68	3903.43
418.89	3997.64
419.10	4116.42
419.31	3938.24
419.52	3899.33
419.73	3956.68
419.95	4020.16
420.16	3821.51
420.37	3940.29
420.58	4077.51
420.79	3905.48
421.00	4054.98
421.21	4046.79
421.42	4005.83
421.63	4122.56
421.85	4097.99
422.06	4122.56
422.27	4112.32
422.48	4196.29
422.69	4155.33
422.90	4118.47
423.11	4241.34
423.32	4251.58
423.53	4501.44
423.75	4335.55
423.96	4407.23
424.17	4253.63
424.38	4411.32
424.59	4374.46
424.80	4487.10
425.01	4399.04
425.22	4345.79
425.43	4343.74
425.64	4511.68
425.85	4581.31
426.06	4470.72
426.28	4571.07
426.49	4380.61
426.70	4464.57
426.91	4509.63
427.12	4560.83
427.33	4616.12
427.54	4644.79
427.75	4773.82
427.96	4726.71
428.17	4646.84
428.38	4745.14
428.59	4919.22
428.80	4689.85
429.01	4839.35
429.23	4677.56
429.44	4849.59
429.65	5009.33
429.86	4861.88
430.07	4802.49
430.28	4868.02
430.49	4876.21
430.70	5074.87
430.91	5218.22
431.12	4880.31
431.33	5173.17
431.54	5089.20
431.75	5158.83
431.96	5058.48
432.17	5119.92
432.38	5132.21
432.59	5400.49
432.80	5234.61
433.01	5107.63
433.22	5388.21
433.43	5169.07
433.64	5232.56
433.85	5277.62
434.06	5384.11
434.27	5255.09
434.49	5431.21
434.70	5580.71
434.91	5435.31
435.12	5523.37
435.33	5306.29
435.54	5443.50
435.75	5248.94
435.96	5576.62
436.17	5388.21
436.38	5654.44
436.59	5590.95
436.80	5599.15
437.01	5797.80
437.22	5697.45
437.43	5541.80
437.64	5519.28
437.85	5619.63
438.06	5803.94
438.27	5656.49
438.48	5744.55
438.69	5781.42
438.90	5726.12
439.11	5666.73
439.32	5914.53
439.53	5975.97
439.74	5894.05
439.95	5787.56
440.16	5898.15
440.37	5963.68
440.57	5832.62
440.78	5996.45
440.99	6068.13
441.20	5894.05
441.41	5887.91
441.62	6064.04
441.83	6008.74
442.04	6205.35
442.25	6041.51
442.46	6115.23
442.67	6236.06
442.88	6518.68
443.09	6072.23
443.30	6023.08
443.51	6098.85
443.72	6348.70
443.93	6186.91
444.14	6438.81
444.35	6291.36
444.56	6360.99
444.77	6434.72
444.98	6244.26
445.19	6254.50
445.40	6410.14
445.61	6338.46
445.81	6440.86
446.02	6590.36
446.23	6350.75
446.44	6352.80
446.65	6387.61
446.86	6608.80
447.07	6598.56
447.28	6743.96
447.49	6713.24
447.70	6588.32
447.91	6696.86
448.12	6754.20
448.33	6950.81
448.54	6659.99
448.74	6604.70
448.95	6809.50
449.16	6696.86
449.37	7057.30
449.58	6766.49
449.79	6918.04
450.00	6731.67
450.21	6819.74
450.42	6997.91
450.63	7112.60
450.84	6821.78
451.05	7133.08
451.25	6963.09
451.46	7018.39
451.67	7120.79
451.88	7092.12
452.09	6983.57
452.30	7161.75
452.51	6995.86
452.72	7141.27
452.93	7335.82
453.13	7110.55
453.34	7063.44
453.55	7204.75
453.76	7163.79
453.97	7679.88
454.18	7294.86
454.39	7462.80
454.60	7268.24
454.81	7419.79
455.01	7485.33
455.22	7153.55
455.43	7466.89
455.64	7790.47
455.85	7880.58
456.06	7696.27
456.27	7731.08
456.48	7724.94
456.68	7729.03
456.89	7677.83
457.10	7968.65
457.31	7939.97
457.52	7864.20
457.73	7790.47
457.94	8179.59
458.14	7876.49
458.35	8394.62
458.56	8152.96
458.77	7950.21
458.98	8417.15
459.19	8310.66
459.39	8343.42
459.60	8173.44
459.81	8120.20
460.02	8439.68
460.23	8392.58
460.44	8562.56
460.65	8589.18
460.85	8439.68
461.06	8638.33
461.27	8425.34
461.48	8890.23
461.69	8945.53
461.89	8609.66
462.10	8712.06
462.31	8607.61
462.52	8523.65
462.73	8765.31
462.94	9060.21
463.14	8853.37
463.35	9080.69
463.56	9404.27
463.77	9387.89
463.98	9023.35
464.18	9293.68
464.39	9326.45
464.60	9529.20
464.81	9396.08
465.02	9338.74
465.23	9774.95
465.43	9439.09
465.64	9721.71
465.85	9484.14
466.06	9705.32
466.27	9836.39
466.47	9899.88
466.68	9885.55
466.89	9629.55
467.10	10116.97
467.30	9891.69
467.51	9957.22
467.72	10188.64
467.93	10162.02
468.14	10157.92
468.34	10350.43
468.55	10397.54
468.76	10248.04
468.97	10252.13
469.17	10540.90
469.38	10585.95
469.59	10706.78
469.80	10534.75
470.01	10653.53
470.21	10884.95
470.42	11063.13
470.63	10895.19
470.84	10889.05
471.04	11290.45
471.25	11122.52
471.46	11036.50
471.67	11358.03
471.87	11466.58
472.08	11505.49
472.29	11646.80
472.50	11405.14
472.70	11493.20
472.91	11773.77
473.12	11820.88
473.33	11917.13
473.53	12212.04
473.74	11839.31
473.95	11927.37
474.16	12238.66
474.36	12169.03
474.57	12386.12
474.78	12597.06
474.99	12306.24
475.19	12607.30
475.40	12595.01
475.61	12947.26
475.81	13225.78
476.02	13317.94
476.23	12996.41
476.44	12957.50
476.64	13543.22
476.85	13446.96
477.06	13539.12
477.27	13682.48
477.47	13762.35
477.68	13696.82
477.89	14004.01
478.09	14118.70
478.30	14092.07
478.51	13805.36
478.71	14253.86
478.92	14274.34
479.13	14319.40
479.34	14458.66
479.54	14589.73
479.75	14685.98
479.96	14802.72
480.16	14972.70
480.37	14782.24
480.58	14997.28
480.78	15107.87
480.99	15435.54
481.20	15470.36
481.41	15568.66
481.61	15533.84
481.82	15576.85
482.03	15632.15
482.23	15378.20
482.44	16088.84
482.65	15875.85
482.85	16152.33
483.06	16150.28
483.27	15992.59
483.47	16248.58
483.68	16365.32
483.89	16426.76
484.09	16649.99
484.30	16729.86
484.51	16819.97
484.71	16795.39
484.92	16828.16
485.13	17075.96
485.33	17147.64
485.54	17006.33
485.75	17565.43
485.95	17696.50
486.16	17671.92
486.37	17762.03
486.57	17540.85
486.78	17678.07
486.98	17612.53
487.19	17942.25
487.40	17899.25
487.60	17960.69
487.81	18319.08
488.02	18165.48
488.22	18005.74
488.43	18130.67
488.64	18370.28
488.84	18357.99
489.05	18689.76
489.25	18902.75
489.46	18796.26
489.67	18855.65
489.87	19171.04
490.08	19222.23
490.29	19216.09
490.49	19465.94
490.70	19371.74
490.90	19650.26
491.11	19259.10
491.32	19635.92
491.52	19549.91
491.73	19807.95
491.94	19779.28
492.14	19758.80
492.35	20039.37
492.55	19984.08
492.76	19994.32
492.97	20365.00
493.17	20131.53
493.38	20319.95
493.58	20758.21
493.79	20629.19
494.00	20838.08
494.20	20702.92
494.41	20893.38
494.61	20883.14
494.82	20846.27
495.02	20799.17
495.23	21075.65
495.44	21429.94
495.64	21382.84
495.85	21339.83
496.05	21499.58
496.26	21401.27
496.47	21870.26
496.67	21552.82
496.88	21817.01
497.08	21421.75
497.29	21919.41
497.49	21866.16
497.70	21771.96
497.91	22052.53
498.11	22105.77
498.32	22435.50
498.52	22337.20
498.73	22394.54
498.93	22570.66
499.14	22343.34
499.34	22509.22
499.55	22634.15
499.76	22386.35
499.96	22589.10
500.17	22705.83
500.37	22619.81
500.58	22822.56
500.78	22845.09
500.99	23070.37
501.19	23105.18
501.40	23105.18
501.60	22787.75
501.81	23293.60
502.02	23305.88
502.22	23213.73
502.43	23535.26
502.63	23668.37
502.84	23781.01
503.04	23312.03
503.25	23549.59
503.45	23746.20
503.66	23762.58
503.86	23893.65
504.07	23875.22
504.27	23883.41
504.48	24503.95
504.68	24094.35
504.89	24628.87
505.09	24401.55
505.30	24379.02
505.50	24479.37
505.71	24669.83
505.91	24665.74
506.12	24645.26
506.32	24794.76
506.53	24899.20
506.73	25050.75
506.94	24759.94
507.14	24792.71
507.35	24473.23
507.55	25255.55
507.76	25108.10
507.96	25310.85
508.17	25341.57
508.37	25476.73
508.58	25296.51
508.78	25515.64
508.99	25497.21
509.19	25857.65
509.40	25845.37
509.60	25495.16
509.81	25982.58
510.01	25720.44
510.22	25630.33
510.42	25978.48
510.63	25843.32
510.83	26095.22
511.04	26074.74
511.24	26144.37
511.44	26123.89
511.65	26431.08
511.85	26599.02
512.06	26271.34
512.26	26556.01
512.47	26480.24
512.67	26590.83
512.88	26916.45
513.08	26441.32
513.29	26795.62
513.49	26875.49
513.69	27018.85
513.90	26881.64
514.10	26936.93
514.31	27086.43
514.51	27092.58
514.72	27039.33
514.92	27059.81
515.13	27283.04
515.33	27600.47
515.53	27342.43
515.74	27524.70
515.94	27493.98
516.15	27610.71
516.35	27473.50
516.56	27864.66
516.76	27770.46
516.96	27711.07
517.17	28087.89
517.37	27909.72
517.58	28143.19
517.78	27991.64
517.99	28008.02
518.19	28489.29
518.39	28556.88
518.60	28327.50
518.80	28417.61
519.01	28706.38
519.21	28630.60
519.41	28898.89
519.62	28782.15
519.82	28700.23
520.03	29206.08
520.23	28761.67
520.43	28689.99
520.64	29144.64
520.84	29453.89
521.05	29077.06
521.25	29656.64
521.45	29466.17
521.66	29625.92
521.86	29576.76
522.07	29486.65
522.27	29832.76
522.47	29752.89
522.68	30088.76
522.88	30127.67
523.08	29976.12
523.29	30537.26
523.49	30449.20
523.70	30367.28
523.90	30852.65
524.10	30662.19
524.31	30838.31
524.51	30287.41
524.71	30631.47
524.92	30778.92
525.12	30557.74
525.33	30864.94
525.53	31022.63
525.73	31213.09
525.94	31551.01
526.14	31254.05
526.34	31405.60
526.55	31684.12
526.75	31688.22
526.95	31497.76
527.16	31901.21
527.36	31796.76
527.56	31970.84
527.77	32259.60
527.97	32067.09
528.17	32364.05
528.38	32235.03
528.58	32382.48
528.78	32572.94
528.99	32478.74
529.19	32775.69
529.39	32206.36
529.60	33037.83
529.80	32912.91
530.00	33019.40
530.21	33117.70
530.41	33408.51
530.61	33347.08
530.82	33488.38
531.02	33474.05
531.22	33476.10
531.43	33545.73
531.63	33760.76
531.83	34203.13
532.04	34354.68
532.24	33646.08
532.44	34133.50
532.64	34383.35
532.85	34305.52
533.05	34354.68
533.25	34172.41
533.46	33977.85
533.66	34790.89
533.86	34278.90
534.07	35200.49
534.27	34829.80
534.47	34809.32
534.67	34668.02
534.88	34792.94
535.08	35087.85
535.28	35100.14
535.49	35476.96
535.69	35522.02
535.89	35366.37
536.09	35337.70
536.30	35847.64
536.50	35892.70
536.70	35853.79
536.91	35366.37
537.11	36042.20
537.31	36214.23
537.51	35921.37
537.72	36658.64
537.92	36290.01
538.12	36558.29
538.32	36349.40
538.53	36376.02
538.73	36660.69
538.93	36408.79
539.13	36330.97
539.34	36748.75
539.54	36515.28
539.74	37268.94
539.94	37082.57
540.15	36687.31
540.35	37148.11
540.55	37637.57
540.75	37264.84
540.96	37103.05
541.16	37287.37
541.36	37545.41
541.56	37430.72
541.77	37633.47
541.97	37549.51
542.17	37662.15
542.37	37574.08
542.58	37838.27
542.78	37737.92
542.98	37881.28
543.18	37809.60
543.38	38188.47
543.59	38065.60
543.79	37733.82
543.99	38034.88
544.19	38458.81
544.40	38329.78
544.60	38352.31
544.80	38139.32
545.00	38419.89
545.20	38720.95
545.41	38786.48
545.61	38565.30
545.81	38743.47
546.01	38628.79
546.21	38530.48
546.42	38702.51
546.62	39148.97
546.82	38700.47
547.02	38692.27
547.22	38753.71
547.43	38874.54
547.63	39435.69
547.83	39124.40
548.03	39024.04
548.23	39169.45
548.44	39450.02
548.64	39458.21
548.84	39335.34
549.04	39660.96
549.24	39583.14
549.45	39654.82
549.65	39472.55
549.85	39568.80
550.05	39663.01
550.25	39736.74
550.45	39968.16
550.66	39816.61
550.86	39515.56
551.06	39894.43
551.26	39679.39
551.46	39962.01
551.66	40179.10
551.87	40197.53
552.07	40048.03
552.27	40230.30
552.47	40211.87
552.67	40033.69
552.87	40441.24
553.07	40025.50
553.28	40121.76
553.48	39998.88
553.68	40641.94
553.88	40480.15
554.08	40357.27
554.28	40924.56
554.48	40338.84
554.69	41076.11
554.89	40424.86
555.09	40641.94
555.29	40555.93
555.49	41024.91
555.69	41035.15
555.89	41065.87
556.10	41026.96
556.30	40785.30
556.50	41211.28
556.70	41235.85
556.90	41596.29
557.10	41153.93
557.30	41397.64
557.50	41368.97
557.70	41569.67
557.91	41502.09
558.11	41334.15
558.31	41708.93
558.51	41469.32
558.71	41471.37
558.91	42100.09
559.11	41536.90
559.31	41952.64
559.51	41575.81
559.72	41608.58
559.92	41991.55
560.12	41631.11
560.32	41880.96
560.52	41878.91
560.72	41782.66
560.92	42118.53
561.12	42139.00
561.32	42628.47
561.52	42175.87
561.72	42384.76
561.93	42034.56
562.13	42321.27
562.33	42200.44
562.53	43011.44
562.73	42366.33
562.93	42548.60
563.13	42472.82
563.33	42233.21
563.53	42806.64
563.73	42503.54
563.93	42655.09
564.13	43255.15
564.33	42937.71
564.53	43093.36
564.74	42982.77
564.94	43072.88
565.14	43101.55
565.34	43171.18
565.54	43218.28
565.74	43083.12
565.94	43521.38
566.14	43193.71
566.34	43408.75
566.54	43605.35
566.74	42882.42
566.94	43640.17
567.14	43771.24
567.34	43677.03
567.54	43396.46
567.74	43478.38
567.94	43474.28
568.14	43726.18
568.34	44096.86
568.54	43586.92
568.74	44209.50
568.94	44004.70
569.14	44479.83
569.34	44217.69
569.54	44266.84
569.75	43967.84
569.95	44414.30
570.15	45004.11
570.35	44580.18
570.55	44725.59
570.75	44451.16
570.95	44449.11
571.15	44713.30
571.35	44602.71
571.55	45604.17
571.75	44879.19
571.95	45233.49
572.15	44713.30
572.35	45208.91
572.55	44930.39
572.75	45264.21
572.95	45385.04
573.15	45446.47
573.35	45088.08
573.55	45278.54
573.75	45034.83
573.95	45452.62
574.15	45350.22
574.35	45565.26
574.55	45524.30
574.75	45380.94
574.95	45704.52
575.15	45376.84
575.34	45897.03
575.54	45845.83
575.74	45813.06
575.94	45761.86
576.14	45940.04
576.34	46097.73
576.54	46290.24
576.74	46456.12
576.94	45794.63
577.14	46294.33
577.34	46552.38
577.54	46230.85
577.74	46753.08
577.94	46515.51
578.14	46587.19
578.34	46902.58
578.54	45919.56
578.74	46921.01
578.94	47047.99
579.14	46787.89
579.34	46822.71
579.54	46800.18
579.74	47203.63
579.94	47256.88
580.13	47482.16
580.33	47473.96
580.53	47441.20
580.73	47420.72
580.93	47371.57
581.13	47390.00
581.33	47990.05
581.53	47904.04
581.73	47559.98
581.93	48270.62
582.13	47564.07
582.33	48055.59
582.53	47856.93
582.73	47990.05
582.92	47770.92
583.12	47852.84
583.32	47977.76
583.52	47689.00
583.72	48948.50
583.92	47951.14
584.12	48497.95
584.32	48653.59
584.52	48645.40
584.72	48760.09
584.92	48620.83
585.11	49222.93
585.31	49009.94
585.51	48956.69
585.71	48799.00
585.91	49130.77
586.11	48786.71
586.31	49214.74
586.51	48776.47
586.71	49104.15
586.91	49321.23
587.10	49181.97
587.30	49120.53
587.50	49394.96
587.70	49386.77
587.90	49267.98
588.10	49470.73
588.30	49210.64
588.50	49663.24
588.69	49270.03
588.89	49743.11
589.09	49890.57
589.29	50117.89
589.49	50261.25
589.69	49210.64
589.89	49456.40
590.08	49736.97
590.28	49829.13
590.48	49771.78
590.68	49988.87
590.88	49786.12
591.08	49835.27
591.28	49919.24
591.47	50531.58
591.67	50072.84
591.87	50119.94
592.07	50294.02
592.27	50240.77
592.47	50144.51
592.67	50017.54
592.86	49777.93
593.06	50158.85
593.26	50627.84
593.46	50453.76
593.66	50291.97
593.86	50461.95
594.05	50521.34
594.25	51053.81
594.45	50218.24
594.65	50748.67
594.85	50382.08
595.05	50943.22
595.24	50650.36
595.44	50875.64
595.64	50765.05
595.84	50642.17
596.04	51166.45
596.23	50656.51
596.43	50930.93
596.63	50951.41
596.83	50930.93
597.03	51100.92
597.22	51324.14
597.42	51045.62
597.62	51139.83
597.82	51236.08
598.02	51027.19
598.21	51305.71
598.41	50971.89
598.61	51225.84
598.81	51164.40
599.01	51401.97
599.20	51416.30
599.40	51524.85
599.60	51739.88
599.80	51504.37
600.00	51467.50
600.19	52004.07
600.39	51133.68
600.59	51766.51
600.79	51807.47
600.98	51885.29
601.18	51897.58
601.38	52311.27
601.58	51766.51
601.78	52344.03
601.97	52157.67
602.17	52032.74
602.37	52188.39
602.57	52253.92
602.76	52172.00
602.96	51713.26
603.16	52024.55
603.36	52372.70
603.55	52557.02
603.75	52229.35
603.95	52704.48
604.15	52247.78
604.34	52413.66
604.54	52305.12
604.74	52577.50
604.94	52481.25
605.13	52735.20
605.33	52581.60
605.53	52538.59
605.73	52727.00
605.92	52870.36
606.12	52845.79
606.32	52952.28
606.52	52849.88
606.71	52548.83
606.91	53062.87
607.11	52796.63
607.30	52880.60
607.50	53282.00
607.70	53103.83
607.90	53105.88
608.09	52796.63
608.29	52894.94
608.49	53003.48
608.68	53073.11
608.88	53392.59
609.08	53155.03
609.28	53109.97
609.47	52927.70
609.67	53474.51
609.87	53249.24
610.06	53312.72
610.26	53347.54
610.46	53302.48
610.66	52952.28
610.85	53294.29
611.05	52884.70
611.25	53370.07
611.44	52972.76
611.64	53511.38
611.84	52868.31
612.03	52720.86
612.23	53615.82
612.43	53456.08
612.62	53501.14
612.82	53435.60
613.02	53169.36
613.21	53664.97
613.41	53255.38
613.61	53263.57
613.80	53054.68
614.00	53155.03
614.20	53046.49
614.39	53531.86
614.59	53687.50
614.79	53112.02
614.98	53187.80
615.18	53355.73
615.38	53370.07
615.57	53351.63
615.77	53556.43
615.97	53435.60
616.16	53253.33
616.36	53869.77
616.56	53931.21
616.75	53769.42
616.95	53245.14
617.15	53392.59
617.34	52851.93
617.54	53441.74
617.74	53585.10
617.93	53605.58
618.13	53062.87
618.32	53376.21
618.52	53107.93
618.72	53460.18
618.91	53654.73
619.11	53269.72
619.31	53703.88
619.50	53204.18
619.70	53320.91
619.90	53208.28
620.09	53734.60
620.29	53306.58
620.48	53902.54
620.68	53859.53
620.88	52868.31
621.07	53732.56
621.27	53314.77
621.46	53284.05
621.66	53060.82
621.86	53527.76
622.05	53376.21
622.25	53746.89
622.44	53494.99
622.64	52878.55
622.84	53269.72
623.03	53564.62
623.23	53863.63
623.42	53304.53
623.62	53540.05
623.82	53990.60
624.01	53693.64
624.21	53703.88
624.40	53738.70
624.60	53560.53
624.80	53312.72
624.99	53654.73
625.19	53069.01
625.38	53474.51
625.58	53380.31
625.77	53763.28
625.97	53589.20
626.17	53198.04
626.36	53386.45
626.56	53507.28
626.75	53368.02
626.95	53990.60
627.14	53834.95
627.34	54027.46
627.54	53480.66
627.73	53282.00
627.93	53736.65
628.12	53615.82
628.32	53683.40
628.51	53740.75
628.71	53720.27
628.90	53691.60
629.10	53896.39
629.30	53822.67
629.49	53742.80
629.69	53742.80
629.88	53783.76
630.08	54187.21
630.27	54015.18
630.47	53353.68
630.66	53904.59
630.86	53642.45
631.05	53435.60
631.25	54152.39
631.44	53959.88
631.64	54238.40
631.84	54185.16
632.03	54473.92
632.23	54002.89
632.42	54215.88
632.62	54002.89
632.81	53826.76
633.01	54351.04
633.20	54654.14
633.40	54664.38
633.59	54082.76
633.79	53972.17
633.98	54183.11
634.18	54435.01
634.37	54531.26
634.57	54195.40
634.76	54543.55
634.96	54484.16
635.15	54572.22
635.35	54375.62
635.54	54611.13
635.74	54615.23
635.93	54557.89
636.13	54633.66
636.32	54875.32
636.52	54260.93
636.71	54408.39
636.91	54455.49
637.10	54549.70
637.30	54832.32
637.49	54779.07
637.69	54156.49
637.88	54947.00
638.08	54568.13
638.27	54940.86
638.46	54697.15
638.66	55004.34
638.85	54805.69
639.05	55108.79
639.24	55104.70
639.44	54965.43
639.63	55071.93
639.83	55014.58
640.02	55203.00
640.22	54779.07
640.41	55231.67
640.61	55129.27
640.80	55454.90
640.99	54500.54
641.19	55092.41
641.38	54779.07
641.58	55153.85
641.77	55268.53
641.97	55030.97
642.16	55444.66
642.36	55284.92
642.55	55735.47
642.74	55219.38
642.94	56194.21
643.13	55213.24
643.33	55463.09
643.52	56030.38
643.72	55426.23
643.91	55694.51
644.10	55895.21
644.30	56159.40
644.49	55893.16
644.69	55780.52
644.88	55731.37
645.08	55739.57
645.27	55909.55
645.46	55772.33
645.66	56038.57
645.85	55731.37
646.05	56224.93
646.24	55911.59
646.43	55985.32
646.63	56552.61
646.82	56435.87
647.02	56157.35
647.21	56247.46
647.40	56386.72
647.60	56480.93
647.79	56591.52
647.99	56470.69
648.18	55964.84
648.37	56716.45
648.57	56675.49
648.76	56448.16
648.96	56376.48
649.15	56781.98
649.34	56616.10
649.54	57037.98
649.73	56353.96
649.92	56882.33
650.12	56319.14
650.31	56480.93
650.51	56878.24
650.70	56620.19
650.89	56544.42
651.09	57463.96
651.28	56956.06
651.47	57267.35
651.67	56646.82
651.86	57160.86
652.06	56743.07
652.25	57277.59
652.44	57132.18
652.64	56358.05
652.83	56605.86
653.02	56446.11
653.22	56620.19
653.41	56929.44
653.60	56718.49
653.80	56640.67
653.99	57316.50
654.18	57164.95
654.38	56818.84
654.57	57947.28
654.76	57207.96
654.96	56515.75
655.15	57025.69
655.34	57089.18
655.54	57093.27
655.73	57269.40
655.92	57242.77
656.12	57058.46
656.31	57005.21
656.50	56788.13
656.70	57275.54
656.89	56755.36
657.08	57455.76
657.28	57097.37
657.47	57033.88
657.66	57351.32
657.86	56964.25
658.05	57250.97
658.24	57201.82
658.43	57210.01
658.63	57351.32
658.82	57226.39
659.01	57701.52
659.21	57427.09
659.40	57169.05
659.59	56951.96
659.79	57037.98
659.98	57748.62
660.17	57683.09
660.36	57236.63
660.56	57203.86
660.75	57525.39
660.94	57463.96
661.14	56839.32
661.33	57250.97
661.52	57111.70
661.71	57549.97
661.91	56902.81
662.10	57134.23
662.29	57515.15
662.49	57234.58
662.68	57150.62
662.87	57064.60
663.06	57339.03
663.26	57040.03
663.45	57435.28
663.64	57009.31
663.83	57695.38
664.03	57345.17
664.22	57103.51
664.41	57500.82
664.60	57160.86
664.80	57697.42
664.99	57291.93
665.18	56949.92
665.37	57146.52
665.57	57025.69
665.76	56853.66
665.95	57349.27
666.14	57113.75
666.34	57371.80
666.53	57119.90
666.72	57160.86
666.91	57253.01
667.11	56816.80
667.30	56896.67
667.49	57046.17
667.68	57160.86
667.87	56833.18
668.07	57218.20
668.26	57093.27
668.45	57588.88
668.64	56718.49
668.84	57103.51
669.03	57050.27
669.22	57226.39
669.41	57207.96
669.60	56902.81
669.80	56442.02
669.99	57119.90
670.18	56304.80
670.37	56728.73
670.57	57377.94
670.76	56968.35
670.95	57201.82
671.14	56661.15
671.33	57205.91
671.53	57040.03
671.72	57339.03
671.91	56800.41
672.10	56587.42
672.29	56771.74
672.48	56460.45
672.68	57046.17
672.87	56851.61
673.06	56466.59
673.25	56423.59
673.44	56368.29
673.64	56499.36
673.83	56390.82
674.02	56566.94
674.21	56247.46
674.40	56632.48
674.59	56212.65
674.79	56294.56
674.98	56456.35
675.17	56407.20
675.36	56276.13
675.55	56419.49
675.74	56720.54
675.94	56325.28
676.13	56562.85
676.32	56358.05
676.51	56566.94
676.70	56448.16
676.89	56214.69
677.08	56470.69
677.28	56097.96
677.47	56417.44
677.66	56571.04
677.85	55887.02
678.04	56353.96
678.23	56407.20
678.42	55966.89
678.62	56022.19
678.81	56482.98
679.00	56140.97
679.19	56382.63
679.38	56122.54
679.57	56003.75
679.76	55749.81
679.96	56333.48
680.15	55952.55
680.34	55674.03
680.53	55977.13
680.72	55723.18
680.91	56091.82
681.10	55585.97
681.29	55973.03
681.48	55667.89
681.68	55973.03
681.87	55622.83
682.06	55649.45
682.25	55383.22
682.44	55399.60
682.63	55483.57
682.82	55579.82
683.01	55489.71
683.20	54686.91
683.39	55610.54
683.59	55282.87
683.78	55458.99
683.97	55121.08
684.16	55233.72
684.35	55055.54
684.54	55358.64
684.73	54756.54
684.92	54719.68
685.11	55149.75
685.30	54654.14
685.49	55221.43
685.69	54695.10
685.88	55053.50
686.07	54770.88
686.26	54688.96
686.45	54883.51
686.64	55073.98
686.83	54342.85
687.02	54885.56
687.21	55061.69
687.40	54824.12
687.59	54875.32
687.78	54760.64
687.97	54949.05
688.16	54578.37
688.35	54701.25
688.54	54379.71
688.74	54478.02
688.93	54756.54
689.12	54709.44
689.31	54394.05
689.50	54971.58
689.69	54269.12
689.88	54031.56
690.07	54899.90
690.26	54084.81
690.45	54328.52
690.64	54211.78
690.83	54035.66
691.02	54060.23
691.21	54033.61
691.40	54093.00
691.59	54207.68
691.78	54392.00
691.97	54019.27
692.16	54115.53
692.35	54052.04
692.54	54160.58
692.73	53896.39
692.92	53931.21
693.11	53925.07
693.30	53523.66
693.49	53701.84
693.68	53877.96
693.87	53525.71
694.06	53359.83
694.25	53777.61
694.44	53654.73
694.63	53832.91
694.82	53929.16
695.01	53259.48
695.20	53404.88
695.39	53312.72
695.58	53785.80
695.77	53591.25
695.96	53093.59
696.15	53750.99
696.34	53374.16
696.53	53122.26
696.72	53681.36
696.91	53253.33
697.10	53097.69
697.29	52815.07
697.48	53519.57
697.67	52847.83
697.86	52901.08
698.05	53116.12
698.24	53312.72
698.43	52524.25
698.62	53191.89
698.81	52708.57
699.00	53253.33
699.19	52978.90
699.38	52993.24
699.57	52372.70
699.76	53087.45
699.95	52583.65
700.14	52397.28
700.32	52532.45
700.51	52559.07
700.70	52944.09
700.89	52688.09
701.08	52806.87
701.27	52034.79
701.46	52772.06
701.65	52401.38
701.84	52458.72
702.03	52651.23
702.22	52024.55
702.41	52813.02
702.60	52688.09
702.79	52339.94
702.98	51971.30
703.17	51959.02
703.35	52020.45
703.54	52079.85
703.73	52069.61
703.92	52247.78
704.11	52157.67
704.30	52225.25
704.49	52073.70
704.68	52040.93
704.87	52147.43
705.06	52040.93
705.25	51789.03
705.43	52458.72
705.62	51995.88
705.81	52178.15
706.00	51817.71
706.19	51537.13
706.38	51748.07
706.57	51703.02
706.76	51772.65
706.95	51989.73
707.14	51864.81
707.32	51705.07
707.51	51590.38
707.70	51418.35
707.89	52446.43
708.08	51344.62
708.27	51614.96
708.46	52006.12
708.65	51305.71
708.84	52270.31
709.02	51553.52
709.21	51422.45
709.40	51485.93
709.59	51952.87
709.78	51246.32
709.97	51819.75
710.16	51272.95
710.34	51250.42
710.53	51600.62
710.72	50992.37
710.91	51373.30
711.10	51436.78
711.29	51365.10
711.48	51516.65
711.66	51250.42
711.85	51182.84
712.04	51444.98
712.23	51307.76
712.42	51313.90
712.61	51148.02
712.80	50742.52
712.98	51391.73
713.17	50906.36
713.36	51184.88
713.55	51361.01
713.74	50799.86
713.93	50959.61
714.11	51121.40
714.30	50771.19
714.49	50728.19
714.68	51021.05
714.87	50939.13
715.06	51166.45
715.24	50502.91
715.43	50742.52
715.62	51066.10
715.81	50697.47
716.00	51162.36
716.18	50476.29
716.37	50304.26
716.56	50464.00
716.75	50814.20
716.94	50601.21
717.12	50889.98
717.31	50662.65
717.50	50537.72
717.69	50584.83
717.88	50263.30
718.06	50543.87
718.25	51086.58
718.44	50537.72
718.63	50298.11
718.82	50339.07
719.00	50347.26
719.19	50152.71
719.38	50298.11
719.57	50083.08
719.76	49829.13
719.94	49730.83
720.13	49730.83
720.32	49980.68
720.51	49759.50
720.69	49956.10
720.88	49757.45
721.07	49943.81
721.26	48942.36
721.44	49689.87
721.63	49505.55
721.82	49386.77
722.01	49429.77
722.20	49466.64
722.38	49456.40
722.57	48880.92
722.76	49777.93
722.95	49057.04
723.13	49210.64
723.32	49118.48
723.51	49100.05
723.70	48770.33
723.88	49028.37
724.07	48751.90
724.26	49292.56
724.44	48964.88
724.63	49206.55
724.82	49132.82
725.01	48852.25
725.19	48739.61
725.38	48952.60
725.57	48760.09
725.76	49014.04
725.94	48678.17
726.13	48604.44
726.32	48655.64
726.51	48602.39
726.69	48856.34
726.88	49048.85
727.07	48760.09
727.25	49278.22
727.44	48837.91
727.63	48616.73
727.82	48641.31
728.00	48762.14
728.19	48858.39
728.38	48829.72
728.56	47959.33
728.75	48981.27
728.94	48235.81
729.12	48647.45
729.31	48915.73
729.50	48571.67
729.69	48698.65
729.87	48440.60
730.06	48567.58
730.25	48762.14
730.43	49055.00
730.62	48481.56
730.81	48807.19
730.99	48899.35
731.18	48401.69
731.37	48899.35
731.55	49118.48
731.74	49370.38
731.93	48782.62
732.11	48753.94
732.30	48809.24
732.49	48559.39
732.67	48672.03
732.86	48831.77
733.05	48469.28
733.23	48278.82
733.42	48549.15
733.61	48432.41
733.79	48848.15
733.98	48534.81
734.17	48606.49
734.35	48635.16
734.54	48774.42
734.73	48672.03
734.91	48583.96
735.10	48370.97
735.29	48645.40
735.47	48022.82
735.66	48516.38
735.84	48459.04
736.03	48190.75
736.22	48854.29
736.40	48104.74
736.59	48749.85
736.78	48360.73
736.96	48747.80
737.15	48479.52
737.33	48436.51
737.52	48479.52
737.71	48661.79
737.89	48272.67
738.08	48196.90
738.27	48207.14
738.45	48786.71
738.64	48493.85
738.82	48090.40
739.01	48307.49
739.20	48182.56
739.38	48352.54
739.57	48551.20
739.75	47783.21
739.94	47914.28
740.13	47998.24
740.31	47990.05
740.50	48391.45
740.68	48039.20
740.87	48506.14
741.06	48125.22
741.24	47920.42
741.43	47758.63
741.61	47920.42
741.80	47668.52
741.99	47732.01
742.17	47998.24
742.36	47732.01
742.54	47940.90
742.73	48084.26
742.91	47725.86
743.10	47818.02
743.29	48100.64
743.47	48289.06
743.66	47559.98
743.84	47881.51
744.03	47713.58
744.21	47645.99
744.40	47719.72
744.59	47367.47
744.77	47154.48
744.96	47557.93
745.14	47336.75
745.33	47545.64
745.51	47400.24
745.70	47394.09
745.88	47275.31
746.07	47488.30
746.26	46828.85
746.44	47537.45
746.63	47205.68
746.81	47179.06
747.00	47076.66
747.18	47248.69
747.37	47056.18
747.55	47027.51
747.74	47381.80
747.92	46456.12
748.11	46857.52
748.29	46724.41
748.48	47125.81
748.66	46540.09
748.85	47045.94
749.03	46757.17
749.22	47160.62
749.41	46832.95
749.59	47043.89
749.78	46271.81
749.96	46519.61
750.15	46183.74
750.33	46611.77
750.52	46900.53
750.70	46671.16
750.89	46296.38
751.07	46357.82
751.26	46560.57
751.44	46343.48
751.63	46093.63
751.81	46308.67
752.00	46222.65
752.18	46183.74
752.37	46288.19
752.55	46062.91
752.74	45831.49
752.92	45743.43
753.10	45714.76
753.29	46101.82
753.47	45851.97
753.66	45843.78
753.84	45899.08
754.03	45983.04
754.21	45497.67
754.40	45770.05
754.58	46140.74
754.77	46271.81
754.95	45495.63
755.14	45309.26
755.32	45804.87
755.51	45249.87
755.69	45456.71
755.88	45325.64
756.06	45471.05
756.24	45274.45
756.43	45213.01
756.61	45180.24
756.80	45217.10
756.98	44862.80
757.17	45296.97
757.35	45157.71
757.54	45174.09
757.72	45186.38
757.90	44934.48
758.09	44793.17
758.27	44938.58
758.46	44809.56
758.64	44959.06
758.83	44817.75
759.01	45016.40
759.19	44688.73
759.38	44778.84
759.56	44705.11
759.75	44836.18
759.93	45086.03
760.12	44604.76
760.30	44371.29
760.48	44391.77
760.67	44275.04
760.85	44445.02
761.04	44766.55
761.22	44610.90
761.40	44643.67
761.59	43959.65
761.77	43789.67
761.96	44049.76
762.14	44195.17
762.32	43746.66
762.51	43779.43
762.69	44123.49
762.88	44074.34
763.06	43928.93
763.24	43631.97
763.43	44412.25
763.61	43828.58
763.80	43498.86
763.98	43517.29
764.16	43709.80
764.35	42759.54
764.53	43079.02
764.72	43474.28
764.90	43300.20
765.08	42882.42
765.27	43277.68
765.45	42896.75
765.63	42571.13
765.82	43287.92
766.00	42759.54
766.18	43046.26
766.37	42700.15
766.55	42976.62
766.74	42906.99
766.92	42712.44
767.10	42360.19
767.29	42902.90
767.47	42151.29
767.65	42501.50
767.84	41776.51
768.02	42780.02
768.20	42341.75
768.39	42648.95
768.57	42110.33
768.75	42038.65
768.94	42186.11
769.12	42151.29
769.30	41594.25
769.49	41753.99
769.67	41993.60
769.85	41581.96
770.04	41905.54
770.22	41321.87
770.40	41733.51
770.59	41831.81
770.77	41635.20
770.95	41577.86
771.14	41061.77
771.32	41440.65
771.50	41137.55
771.69	41338.25
771.87	41530.76
772.05	40986.00
772.24	41172.36
772.42	41278.86
772.60	41061.77
772.78	41108.88
772.97	40990.09
773.15	41063.82
773.33	40701.33
773.52	40641.94
773.70	40721.81
773.88	40682.90
774.07	40619.41
774.25	40664.47
774.43	40961.42
774.61	40891.79
774.80	40852.88
774.98	41217.42
775.16	40904.08
775.34	40715.67
775.53	40301.98
775.71	40873.36
775.89	40711.57
776.08	40566.16
776.26	40605.08
776.44	40359.32
776.62	40709.52
776.81	40566.16
776.99	40932.75
777.17	40727.95
777.35	40596.88
777.54	40936.85
777.72	40461.72
777.90	40586.64
778.08	41008.53
778.27	40547.73
778.45	41006.48
778.63	40838.54
778.81	40514.97
779.00	41274.76
779.18	41301.39
779.36	41018.77
779.54	40793.49
779.73	40773.01
779.91	41344.39
780.09	41137.55
780.27	41026.96
780.46	41153.93
780.64	41295.24
780.82	40838.54
781.00	41473.42
781.19	41158.03
781.37	41348.49
781.55	41215.37
781.73	41710.98
781.91	41059.73
782.10	41018.77
782.28	41043.34
782.46	41391.50
782.64	41315.72
782.82	40932.75
783.01	41239.95
783.19	41260.43
783.37	41209.23
783.55	41043.34
783.74	41520.52
783.92	41289.10
784.10	41803.14
784.28	41356.68
784.46	40773.01
784.64	41299.34
784.83	41274.76
785.01	41510.28
785.19	40840.59
785.37	41385.35
785.55	40908.18
785.74	40838.54
785.92	40803.73
786.10	41315.72
786.28	40551.83
786.46	40406.42
786.64	40103.32
786.83	40967.57
787.01	40867.22
787.19	40457.62
787.37	40687.00
787.55	40711.57
787.74	40439.19
787.92	40768.91
788.10	40400.28
788.28	40179.10
788.46	40367.51
788.64	40082.84
788.82	40428.95
789.01	40168.86
789.19	40119.71
789.37	39962.01
789.55	40125.85
789.73	39638.44
789.91	39775.65
790.09	39898.53
790.28	39669.15
790.46	39493.03
790.64	39441.83
790.82	39443.88
791.00	39867.81
791.18	39359.91
791.36	39034.28
791.55	39714.21
791.73	39257.51
791.91	38958.51
792.09	39486.89
792.27	39218.60
792.45	39525.80
792.63	39079.34
792.81	38956.46
793.00	38876.59
793.18	38540.72
793.36	38559.16
793.54	38383.03
793.72	38407.61
793.90	38188.47
794.08	38282.68
794.26	38364.60
794.44	38065.60
794.62	38010.30
794.81	38182.33
794.99	37969.34
795.17	37903.81
795.35	37789.12
795.53	37903.81
795.71	37840.32
795.89	37432.77
796.07	37354.95
796.25	37250.50
796.43	37268.94
796.61	36918.73
796.80	37084.62
796.98	36699.60
797.16	36660.69
797.34	36892.11
797.52	36607.44
797.70	36902.35
797.88	36662.74
798.06	36322.77
798.24	36558.29
798.42	36439.51
798.60	36406.74
798.78	36267.48
798.96	36279.77
799.14	36046.30
799.32	36038.11
799.51	35892.70
799.69	36070.87
799.87	35528.16
800.05	35438.05
800.23	35978.72
800.41	35415.52
800.59	35335.65
800.77	35108.33
800.95	35151.34
801.13	35239.40
801.31	34774.51
801.49	35470.82
801.67	35012.07
801.85	35003.88
802.03	34758.13
802.21	34514.42
802.39	34409.97
802.57	34690.54
802.75	34565.62
802.93	34350.58
803.11	34266.61
803.29	34125.30
803.47	34018.81
803.65	33920.51
803.83	34074.10
804.01	34039.29
804.19	33555.97
804.37	33582.59
804.55	33654.27
804.73	33537.54
804.91	33558.02
805.09	33586.69
805.27	33631.74
805.45	33502.72
805.63	33580.54
805.81	33195.53
805.99	33707.52
806.17	33654.27
806.35	33089.03
806.53	33166.85
806.71	32888.33
806.89	32884.23
807.07	32796.17
807.25	33060.36
807.43	32464.40
807.61	33084.94
807.79	32640.53
807.97	32261.65
808.15	32384.53
808.33	32534.03
808.51	32437.78
808.69	32202.26
808.87	32200.21
809.05	32103.96
809.23	32017.94
809.41	31809.05
809.59	31962.65
809.77	32185.88
809.95	31989.27
810.13	31708.70
810.31	31729.18
810.49	31895.07
810.67	31890.97
810.84	31811.10
811.02	31546.91
811.20	31170.08
811.38	31391.26
811.56	31438.37
811.74	31022.63
811.92	30748.20
812.10	31391.26
812.28	31174.18
812.46	31546.91
812.64	30840.36
812.82	30948.90
813.00	30848.55
813.18	30578.22
813.36	31307.30
813.53	30821.93
813.71	30858.79
813.89	30905.90
814.07	30512.69
814.25	30864.94
814.43	30223.92
814.61	30565.93
814.79	30354.99
814.97	30033.46
815.15	30164.53
815.33	30232.11
815.50	29838.90
815.68	30080.56
815.86	30156.34
816.04	30193.20
816.22	30180.92
816.40	29886.01
816.58	29570.62
816.76	29861.43
816.94	29636.16
817.11	30021.17
817.29	29935.16
817.47	29617.72
817.65	29683.26
817.83	29388.35
818.01	29044.29
818.19	29134.40
818.37	29451.84
818.54	29300.29
818.72	28917.32
818.90	29244.99
819.08	29191.75
819.26	29068.87
819.44	29490.75
819.62	29238.85
819.80	29058.63
819.97	29044.29
820.15	28788.30
820.33	28755.53
820.51	29132.36
820.69	28692.04
820.87	28728.91
821.05	29036.10
821.22	28501.58
821.40	28661.32
821.58	28622.41
821.76	28632.65
821.94	28358.22
822.12	28221.01
822.29	28790.34
822.47	28434.00
822.65	28784.20
822.83	28370.51
823.01	28284.50
823.19	28010.07
823.36	27993.68
823.54	28075.60
823.72	27668.06
823.90	28100.18
824.08	27829.85
824.25	28044.88
824.43	27762.26
824.61	27756.12
824.79	27932.25
824.97	27666.01
825.15	28255.82
825.32	27590.24
825.50	27389.53
825.68	27598.43
825.86	28030.55
826.04	27889.24
826.21	27401.82
826.39	27326.05
826.57	27387.49
826.75	27463.26
826.93	27586.14
827.10	27297.38
827.28	27336.29
827.46	27436.64
827.64	27395.68
827.81	26879.59
827.99	27223.65
828.17	27053.67
828.35	27129.44
828.53	27373.15
828.70	27100.77
828.88	27059.81
829.06	27176.55
829.24	27131.49
829.41	27336.29
829.59	27213.41
829.77	27020.90
829.95	26850.92
830.12	26738.28
830.30	26709.61
830.48	26981.99
830.66	26687.08
830.84	27115.11
831.01	26771.05
831.19	26670.70
831.37	26439.28
831.55	26412.65
831.72	26926.69
831.90	26451.56
832.08	26711.66
832.25	26814.05
832.43	26320.49
832.61	26560.11
832.79	26361.45
832.96	26117.75
833.14	26506.86
833.32	26547.82
833.50	26254.96
833.67	26347.12
833.85	26181.23
834.03	25966.20
834.20	26191.47
834.38	26263.15
834.56	26193.52
834.74	26023.54
834.91	26062.45
835.09	25955.96
835.27	25831.03
835.44	26048.11
835.62	25575.03
835.80	25833.08
835.98	25755.26
836.15	25904.76
836.33	25857.65
836.51	25962.10
836.68	25542.27
836.86	25515.64
837.04	25765.49
837.21	25724.54
837.39	25562.75
837.57	25581.18
837.75	25435.77
837.92	25298.56
838.10	25585.27
838.28	25056.90
838.45	25730.68
838.63	25321.09
838.81	25437.82
838.98	25108.10
839.16	24786.57
839.34	25294.46
839.51	25134.72
839.69	24776.33
839.87	25065.09
840.04	24893.06
840.22	25091.71
840.40	24958.60
840.57	24784.52
840.75	24848.00
840.93	24321.68
841.10	24909.44
841.28	25292.41
841.46	24854.15
841.63	25147.01
841.81	24827.53
841.98	25050.75
842.16	25120.38
842.34	24985.22
842.51	24708.74
842.69	25036.42
842.87	24772.23
843.04	24684.17
843.22	24802.95
843.40	24911.49
843.57	24510.09
843.75	24581.77
843.92	24692.36
844.10	24938.12
844.28	24501.90
844.45	24598.15
844.63	24497.80
844.81	24436.36
844.98	24250.00
845.16	24176.27
845.33	24495.75
845.51	24526.47
845.69	24313.48
845.86	24276.62
846.04	24215.18
846.21	24321.68
846.39	24108.69
846.57	23748.25
846.74	24266.38
846.92	24166.03
847.09	23957.14
847.27	23907.99
847.45	23989.91
847.62	23940.75
847.80	24141.46
847.97	24014.48
848.15	23731.86
848.32	23594.65
848.50	23568.02
848.68	23654.04
848.85	23783.06
849.03	23836.31
849.20	23844.50
849.38	23682.71
849.56	23561.88
849.73	23729.81
849.91	23836.31
850.08	23996.05
850.26	23363.23
850.43	23547.54
850.61	23492.25
850.78	23121.57
850.96	23604.89
851.14	23559.83
851.31	23643.80
851.49	23305.88
851.66	23469.72
851.84	23539.35
852.01	23637.66
852.19	23449.24
852.36	23211.68
852.54	23592.60
852.71	23178.91
852.89	23064.22
853.07	22974.11
853.24	22972.07
853.42	23203.49
853.59	22918.82
853.77	23056.03
853.94	23094.94
854.12	23111.33
854.29	22793.89
854.47	22845.09
854.64	22736.55
854.82	22570.66
854.99	23189.15
855.17	22877.86
855.34	22730.41
855.52	22662.82
855.69	22900.39
855.87	22582.95
856.04	22179.50
856.22	22597.29
856.39	22357.67
856.57	22451.88
856.74	22634.15
856.92	22726.31
857.09	22548.14
857.27	22202.03
857.44	22525.61
857.62	22410.92
857.79	22429.35
857.97	22183.60
858.14	22515.37
858.32	22351.53
858.49	22222.51
858.67	22324.91
858.84	22150.83
859.02	22339.24
859.19	22001.33
859.37	22077.10
859.54	22040.24
859.72	22283.95
859.89	22218.41
860.06	22202.03
860.24	22091.44
860.41	22013.62
860.59	21642.93
860.76	21790.39
860.94	21593.78
861.11	22122.16
861.29	21700.28
861.46	21835.44
861.64	21630.65
861.81	21696.18
861.98	21896.88
862.16	21595.83
862.33	21427.90
862.51	21192.38
862.68	21872.31
862.86	21714.61
863.03	21425.85
863.21	21333.69
863.38	21673.65
863.55	21503.67
863.73	21397.18
863.90	21526.20
864.08	21462.71
864.25	21196.48
864.43	21178.04
864.60	21251.77
864.77	21118.65
864.95	21382.84
865.12	21186.24
865.30	20954.82
865.47	20920.00
865.64	21180.09
865.82	21270.20
865.99	21337.79
866.17	20803.27
866.34	21225.15
866.51	20946.62
866.69	20993.73
866.86	20864.71
867.04	20840.13
867.21	21012.16
867.38	20680.39
867.56	20653.76
867.73	20649.67
867.91	20688.58
868.08	20623.05
868.25	20588.23
868.43	20659.91
868.60	20412.10
868.78	20569.80
868.95	20653.76
869.12	20520.65
869.30	20534.98
869.47	20653.76
869.64	20182.73
869.82	20494.02
869.99	20285.13
870.16	20342.47
870.34	20213.45
870.51	20432.58
870.69	20164.30
870.86	19936.98
871.03	20188.88
871.21	19805.91
871.38	20057.81
871.55	19945.17
871.73	19883.73
871.90	19617.49
872.07	19963.60
872.25	19730.13
872.42	19676.88
872.59	19723.99
872.77	19670.74
872.94	19500.76
873.11	19627.73
873.29	19588.82
873.46	19490.52
873.63	19621.59
873.81	19676.88
873.98	19273.43
874.15	19478.23
874.33	19355.35
874.50	19087.07
874.67	19396.31
874.85	19218.14
875.02	19291.87
875.19	19283.67
875.37	19042.01
875.54	18872.03
875.71	19199.71
875.88	18808.54
876.06	18953.95
876.23	18966.24
876.40	18745.06
876.58	18855.65
876.75	18843.36
876.92	18796.26
877.10	18738.91
877.27	18515.69
877.44	18441.96
877.61	18665.19
877.79	18534.12
877.96	18517.73
878.13	18566.88
878.31	18171.63
878.48	18523.88
878.65	18357.99
878.82	18333.42
879.00	18489.06
879.17	18243.31
879.34	18482.92
879.51	18265.83
879.69	18052.84
879.86	17852.14
880.03	17872.62
880.21	17807.09
880.38	18034.41
880.55	18159.34
880.72	17827.57
880.90	18005.74
881.07	17989.36
881.24	17944.30
881.41	17850.10
881.59	17772.27
881.76	17471.22
881.93	17723.12
882.10	17594.10
882.28	17544.95
882.45	17671.92
882.62	17415.93
882.79	17802.99
882.96	17198.84
883.14	17524.47
883.31	17714.93
883.48	17704.69
883.65	17506.04
883.83	17610.48
884.00	17508.08
884.17	17807.09
884.34	17434.36
884.51	17532.66
884.69	17405.69
884.86	17237.75
885.03	17377.01
885.20	17135.35
885.38	17348.34
885.55	17405.69
885.72	17176.31
885.89	17166.07
886.06	17254.14
886.24	16971.52
886.41	17164.03
886.58	17055.48
886.75	17317.62
886.92	16908.03
887.10	16936.70
887.27	16709.38
887.44	17010.43
887.61	17073.92
887.78	17245.94
887.95	16867.07
888.13	16721.66
888.30	16666.37
888.47	16783.10
888.64	16547.59
888.81	16787.20
888.99	16736.00
889.16	16633.60
889.33	16742.14
889.50	16486.15
889.67	16437.00
889.84	16617.22
890.01	16641.79
890.19	16518.92
890.36	16287.50
890.53	16441.09
890.70	16287.50
890.87	15994.64
891.04	16332.55
891.22	16183.05
891.39	16240.39
891.56	16092.94
891.73	15972.11
891.90	16017.16
892.07	15996.68
892.24	15947.53
892.42	15908.62
892.59	15976.20
892.76	15795.98
892.93	15935.24
893.10	16090.89
893.27	15955.72
893.44	15810.32
893.61	15931.15
893.79	15986.44
893.96	15746.83
894.13	15869.71
894.30	15822.61
894.47	15808.27
894.64	16039.69
894.81	15953.68
894.98	15611.67
895.15	15771.41
895.33	15787.79
895.50	15611.67
895.67	15767.31
895.84	15722.26
896.01	15599.38
896.18	15560.47
896.35	15765.26
896.52	15486.74
896.69	15603.47
896.86	15613.71
897.04	15793.94
897.21	15757.07
897.38	15709.97
897.55	15611.67
897.72	15867.66
897.89	15499.03
898.06	15740.69
898.23	15521.56
898.40	15300.37
898.57	15380.25
898.74	15410.96
898.91	15576.85
899.08	15451.92
899.26	15425.30
899.43	15691.54
899.60	15513.36
899.77	15521.56
899.94	15331.09
900.11	15253.27
900.28	15193.88
900.45	15216.41
900.62	15204.12
900.79	15505.17
900.96	15281.94
901.13	15222.55
901.30	15413.01
901.47	15232.79
901.64	15257.37
901.81	15468.31
901.98	15240.98
902.15	15542.03
902.32	15159.06
902.49	15208.22
902.66	15404.82
902.83	15386.39
903.01	15251.22
903.18	15382.29
903.35	15234.84
903.52	15118.11
903.69	15605.52
903.86	15314.71
904.03	15331.09
904.20	15617.81
904.37	15181.59
904.54	15275.80
904.71	15372.05
904.88	15230.74
905.05	15224.60
905.22	15347.48
905.39	14995.23
905.56	15003.42
905.73	15157.02
905.90	15396.63
906.07	15036.19
906.24	15228.70
906.41	15148.82
906.58	15107.87
906.75	15234.84
906.92	15003.42
907.09	15015.71
907.26	15066.91
907.43	15085.34
907.60	15214.36
907.77	15290.13
907.93	15216.41
908.10	14984.99
908.27	15161.11
908.44	15062.81
908.61	15025.95
908.78	15013.66
908.95	14972.70
909.12	15118.11
909.29	15058.71
909.46	15066.91
909.63	14929.69
909.80	15193.88
909.97	15107.87
910.14	14894.88
910.31	14993.18
910.48	14843.68
910.65	14997.28
910.82	14769.95
910.99	14685.98
911.16	14714.66
911.33	14790.43
911.50	14653.22
911.66	14661.41
911.83	14763.81
912.00	14589.73
912.17	14645.02
912.34	14595.87
912.51	14446.37
912.68	14499.62
912.85	14769.95
913.02	14581.54
913.19	14374.69
913.36	14450.47
913.53	14659.36
913.70	14151.46
913.86	14700.32
914.03	14354.21
914.20	14382.88
914.37	14427.94
914.54	14313.25
914.71	14153.51
914.88	14200.62
915.05	14208.81
915.22	13946.67
915.39	14188.33
915.55	14067.50
915.72	13936.43
915.89	13788.97
916.06	14032.68
916.23	13991.72
916.40	13897.52
916.57	13979.43
916.74	13934.38
916.91	13846.32
917.07	13674.29
917.24	13911.85
917.41	13817.65
917.58	13692.72
917.75	13596.46
917.92	13471.54
918.09	13885.23
918.26	13639.47
918.42	13465.39
918.59	13571.89
918.76	13477.68
918.93	13348.66
919.10	13371.19
919.27	13315.89
919.44	13391.67
919.60	13559.60
919.77	13420.34
919.94	13150.01
920.11	13367.09
920.28	13307.70
920.45	13029.18
920.61	13027.13
920.78	12877.63
920.95	12832.57
921.12	12889.92
921.29	12732.22
921.46	12791.61
921.62	12547.90
921.79	12676.93
921.96	12519.23
922.13	12455.75
922.30	12326.72
922.47	12521.28
922.63	12302.15
922.80	12437.31
922.97	12242.76
923.14	12064.58
923.31	12349.25
923.47	12070.73
923.64	12447.55
923.81	12126.02
923.98	12095.30
924.15	11890.51
924.32	12091.21
924.48	11988.81
924.65	12015.43
924.82	11857.74
924.99	12029.77
925.15	11812.68
925.32	12042.06
925.49	11716.43
925.66	11673.42
925.83	11437.91
925.99	11355.99
926.16	11476.82
926.33	11423.57
926.50	11149.14
926.67	11564.88
926.83	11382.61
927.00	11265.88
927.17	11495.25
927.34	11130.71
927.50	11239.25
927.67	11439.95
927.84	11028.31
928.01	11259.73
928.17	10993.50
928.34	11046.74
928.51	10874.71
928.68	10948.44
928.84	10751.84
929.01	10649.44
929.18	10678.11
929.35	10723.16
929.51	10567.52
929.68	10581.85
929.85	10409.83
930.02	10397.54
930.18	10440.54
930.35	10614.62
930.52	10235.75
930.69	10567.52
930.85	10477.41
931.02	10190.69
931.19	10135.40
931.36	10098.53
931.52	10131.30
931.69	9963.37
931.86	9891.69
932.02	9953.13
932.19	10053.48
932.36	9801.58
932.53	9705.32
932.69	9799.53
932.86	9838.44
933.03	9633.64
933.19	9572.21
933.36	9455.47
933.53	9684.84
933.70	9492.34
933.86	9443.18
934.03	9434.99
934.20	9238.39
934.36	9391.98
934.53	9140.08
934.70	9099.13
934.86	9170.80
935.03	9056.12
935.20	8927.10
935.36	8845.18
935.53	8767.35
935.70	8736.63
935.86	8695.68
936.03	8589.18
936.20	8486.78
936.36	8523.65
936.53	8365.95
936.70	8206.21
936.86	8290.18
937.03	8126.34
937.20	8058.76
937.36	7976.84
937.53	7743.37
937.70	8095.62
937.86	7802.76
938.03	7587.72
938.20	7794.57
938.36	7624.59
938.53	7638.92
938.70	7339.92
938.86	7339.92
939.03	7237.52
939.20	7167.89
939.36	7104.40
939.53	7053.20
939.70	7227.28
939.86	6721.43
940.03	6860.70
940.19	6498.20
940.36	6752.15
940.53	6797.21
940.69	6612.89
940.86	6508.44
941.03	6483.87
941.19	6238.11
941.36	6246.30
941.52	6148.00
941.69	6135.71
941.86	6139.81
942.02	6168.48
942.19	5932.97
942.35	6125.47
942.52	5869.48
942.69	5820.33
942.85	5859.24
943.02	5773.22
943.18	5853.09
943.35	5724.07
943.52	5760.94
943.68	5652.39
943.85	5523.37
944.01	5513.13
944.18	5504.94
944.35	5537.71
944.51	5339.05
944.68	5461.93
944.84	5400.49
945.01	5312.43
945.17	5472.17
945.34	5353.39
945.51	5412.78
945.67	5371.82
945.84	5214.13
946.00	5345.20
946.17	5228.46
946.33	5085.11
946.50	5396.40
946.67	5279.66
946.83	5167.03
947.00	5142.45
947.16	5107.63
947.33	5187.50
947.49	5183.41
947.66	5181.36
947.82	5316.53
947.99	5185.46
948.16	5205.94
948.32	5197.74
948.49	5160.88
948.65	5242.80
948.82	5259.18
948.98	5177.26
949.15	5156.79
949.31	5146.55
949.48	5197.74
949.64	5167.03
949.81	5169.07
949.97	5261.23
950.14	5246.90
950.30	5140.40
950.47	5250.99
950.63	5132.21
950.80	5189.55
950.96	5128.11
951.13	5189.55
951.30	5205.94
951.46	5212.08
951.63	5279.66
951.79	5271.47
951.96	5334.96
952.12	5255.09
952.29	5328.81
952.45	5230.51
952.62	5203.89
952.78	5382.06
952.94	5359.53
953.11	5230.51
953.27	5099.44
953.44	5369.77
953.60	5396.40
953.77	5470.12
953.93	5414.83
954.10	5306.29
954.26	5363.63
954.43	5314.48
954.59	5550.00
954.76	5554.09
954.92	5349.29
955.09	5320.62
955.25	5275.57
955.42	5255.09
955.58	5443.50
955.75	5412.78
955.91	5146.55
956.07	5451.69
956.24	5382.06
956.40	5375.92
956.57	5441.45
956.73	5371.82
956.90	5396.40
957.06	5316.53
957.23	5412.78
957.39	5298.10
957.56	5443.50
957.72	5244.85
957.88	5205.94
958.05	5371.82
958.21	5441.45
958.38	5463.98
958.54	5425.07
958.71	5601.19
958.87	5334.96
959.03	5406.64
959.20	5441.45
959.36	5380.01
959.53	5400.49
959.69	5253.04
959.85	5453.74
960.02	5279.66
960.18	5408.69
960.35	5496.75
960.51	5396.40
960.68	5343.15
960.84	5259.18
961.00	5433.26
961.17	5330.86
961.33	5351.34
961.50	5351.34
961.66	5337.01
961.82	5525.42
961.99	5437.36
962.15	5326.77
962.31	5298.10
962.48	5312.43
962.64	5402.54
962.81	5384.11
962.97	5287.86
963.13	5365.68
963.30	5418.93
963.46	5334.96
963.62	5181.36
963.79	5197.74
963.95	5357.49
964.12	5275.57
964.28	5423.02
964.44	5199.79
964.61	5347.25
964.77	5240.75
964.93	5445.55
965.10	5212.08
965.26	5179.31
965.42	5230.51
965.59	5207.98
965.75	5261.23
965.92	5267.38
966.08	5179.31
966.24	5267.38
966.41	5304.24
966.57	5253.04
966.73	5373.87
966.90	5173.17
967.06	5240.75
967.22	5074.87
967.39	5259.18
967.55	5097.39
967.71	5193.65
967.88	5117.87
968.04	5117.87
968.20	5181.36
968.37	5017.52
968.53	5046.20
968.69	5216.18
968.85	5027.76
969.02	5042.10
969.18	5250.99
969.34	5042.10
969.51	5056.43
969.67	4995.00
969.83	4999.09
970.00	5138.35
970.16	5003.19
970.32	5105.59
970.48	5033.91
970.65	5099.44
970.81	5058.48
970.97	5119.92
971.14	4900.79
971.30	5017.52
971.46	4937.65
971.63	4896.69
971.79	5025.72
971.95	5031.86
972.11	4894.65
972.28	4927.41
972.44	4976.56
972.60	4806.58
972.76	4841.40
972.93	4777.91
973.09	4968.37
973.25	4888.50
973.42	4894.65
973.58	4888.50
973.74	4896.69
973.90	4863.93
974.07	4816.82
974.23	4831.16
974.39	4913.08
974.55	4771.77
974.72	4739.00
974.88	4728.76
975.04	4853.69
975.20	4827.06
975.37	4822.97
975.53	4630.46
975.69	4720.57
975.85	4638.65
976.01	4728.76
976.18	4517.82
976.34	4624.31
976.50	4751.29
976.66	4874.17
976.83	4708.28
976.99	4622.27
977.15	4679.61
977.31	4515.77
977.47	4587.45
977.64	4702.14
977.80	4560.83
977.96	4607.93
978.12	4550.59
978.29	4546.49
978.45	4499.39
978.61	4595.64
978.77	4669.37
978.93	4562.87
979.10	4542.39
979.26	4564.92
979.42	4480.96
979.58	4433.85
979.74	4448.19
979.91	4343.74
980.07	4376.51
980.23	4411.32
980.39	4417.47
980.55	4450.24
980.71	4444.09
980.88	4431.80
981.04	4296.64
981.20	4360.13
981.36	4386.75
981.52	4337.60
981.68	4288.45
981.85	4306.88
982.01	4274.11
982.17	4270.01
982.33	4235.20
982.49	4327.36
982.65	4278.21
982.82	4263.87
982.98	4253.63
983.14	4138.94
983.30	4296.64
983.46	4198.34
983.62	4306.88
983.79	4255.68
983.95	4186.05
984.11	4073.41
984.27	4231.10
984.43	4188.10
984.59	4104.13
984.75	4120.51
984.91	4081.60
985.08	4218.82
985.24	4071.36
985.40	3989.44
985.56	4247.49
985.72	4091.84
985.88	4157.38
986.04	3946.44
986.20	4024.26
986.37	4046.79
986.53	3872.71
986.69	4030.40
986.85	3981.25
987.01	3973.06
987.17	4136.90
987.33	3954.63
987.49	4007.87
987.65	4052.93
987.82	4020.16
987.98	3938.24
988.14	3962.82
988.30	3921.86
988.46	3874.76
988.62	3960.77
988.78	3944.39
988.94	3956.68
989.10	3784.65
989.26	3813.32
989.42	3792.84
989.59	3749.83
989.75	3887.04
989.91	3887.04
990.07	3719.11
990.23	3706.82
990.39	3747.78
990.55	3854.28
990.71	3768.26
990.87	3778.50
991.03	3796.93
991.19	3690.44
991.35	3770.31
991.51	3706.82
991.67	3854.28
991.83	3729.35
992.00	3774.41
992.16	3825.61
992.32	3747.78
992.48	3698.63
992.64	3663.82
992.80	3643.34
992.96	3710.92
993.12	3776.45
993.28	3733.45
993.44	3573.71
993.60	3594.19
993.76	3583.95
993.92	3583.95
994.08	3712.97
994.24	3569.61
994.40	3624.90
994.56	3639.24
994.72	3522.51
994.88	3557.32
995.04	3524.55
995.20	3571.66
995.36	3448.78
995.52	3522.51
995.68	3571.66
995.84	3518.41
996.00	3649.48
996.16	3469.26
996.32	3483.59
996.48	3438.54
996.64	3647.43
996.80	3422.16
996.96	3510.22
997.12	3456.97
997.28	3426.25
997.44	3360.72
997.60	3387.34
997.76	3327.95
997.92	3387.34
998.08	3444.68
998.24	3405.77
998.40	3336.14
998.56	3426.25
998.72	3342.28
998.88	3239.89
999.04	3360.72
999.20	3387.34
999.36	3282.89
999.52	3452.88
999.68	3315.66
999.84	3354.57
1000.00	3428.30
1000.16	3379.15
1000.32	3178.45
1000.48	3313.61
1000.64	3166.16
1000.80	3196.88
1000.95	3215.31
1001.11	3229.65
1001.27	3063.76
1001.43	3340.24
1001.59	3125.20
1001.75	3215.31
1001.91	3205.07
1002.07	3137.49
1002.23	3168.21
1002.39	3145.68
1002.55	3074.00
1002.71	3092.43
1002.87	3119.06
1003.03	3049.43
1003.19	3055.57
1003.34	3153.87
1003.50	3174.35
1003.66	3186.64
1003.82	3248.08
1003.98	3114.96
1004.14	3127.25
1004.30	3041.23
1004.46	3041.23
1004.62	3135.44
1004.78	3024.85
1004.94	3035.09
1005.09	3037.14
1005.25	3098.58
1005.41	3049.43
1005.57	2936.79
1005.73	2987.99
1005.89	2879.44
1006.05	2990.03
1006.21	2949.08
1006.37	2928.60
1006.52	2809.81
1006.68	2869.20
1006.84	3133.39
1007.00	2820.05
1007.16	2961.36
1007.32	2961.36
1007.48	2897.88
1007.64	2891.73
1007.79	2854.87
1007.95	2775.00
1008.11	3035.09
1008.27	2863.06
1008.43	2901.97
1008.59	2850.77
1008.75	2779.09
1008.91	2848.72
1009.06	2858.96
1009.22	2832.34
1009.38	2858.96
1009.54	2822.10
1009.70	2772.95
1009.86	2871.25
1010.01	2797.53
1010.17	2721.75
1010.33	2756.57
1010.49	2770.90
1010.65	2811.86
1010.81	2711.51
1010.96	2752.47
1011.12	2656.22
1011.28	2648.02
1011.44	2820.05
1011.60	2703.32
1011.76	2719.70
1011.91	2785.24
1012.07	2684.89
1012.23	2631.64
1012.39	2680.79
1012.55	2666.46
1012.71	2684.89
1012.86	2660.31
1013.02	2598.87
1013.18	2615.26
1013.34	2617.30
1013.50	2697.17
1013.65	2658.26
1013.81	2607.06
1013.97	2533.34
1014.13	2637.78
1014.29	2506.71
1014.44	2701.27
1014.60	2586.58
1014.76	2637.78
1014.92	2641.88
1015.07	2592.73
1015.23	2641.88
1015.39	2576.34
1015.55	2490.33
1015.71	2582.49
1015.86	2506.71
1016.02	2535.39
1016.18	2473.95
1016.34	2574.30
1016.49	2539.48
1016.65	2598.87
1016.81	2502.62
1016.97	2482.14
1017.12	2547.67
1017.28	2480.09
1017.44	2435.03
1017.60	2457.56
1017.75	2514.91
1017.91	2412.51
1018.07	2488.28
1018.23	2504.67
1018.38	2381.79
1018.54	2426.84
1018.70	2533.34
1018.86	2400.22
1019.01	2369.50
1019.17	2416.60
1019.33	2504.67
1019.49	2371.55
1019.64	2445.27
1019.80	2502.62
1019.96	2443.23
1020.12	2334.68
1020.27	2308.06
1020.43	2428.89
1020.59	2355.16
1020.74	2387.93
1020.90	2475.99
1021.06	2318.30
1021.22	2426.84
1021.37	2394.08
1021.53	2342.88
1021.69	2336.73
1021.84	2260.96
1022.00	2299.87
1022.16	2340.83
1022.31	2316.25
1022.47	2363.36
1022.63	2320.35
1022.79	2265.05
1022.94	2328.54
1023.10	2342.88
1023.26	2287.58
1023.41	2269.15
1023.57	2359.26
1023.73	2406.36
1023.88	2320.35
1024.04	2191.33
1024.20	2297.82
1024.35	2297.82
1024.51	2355.16
1024.67	2263.01
1024.82	2349.02
1024.98	2215.90
1025.14	2346.97
1025.29	2222.05
1025.45	2238.43
1025.61	2142.18
1025.76	2154.46
1025.92	2189.28
1026.08	2148.32
1026.23	2199.52
1026.39	2258.91
1026.55	2224.09
1026.70	2150.37
1026.86	2181.09
1027.02	2330.59
1027.17	2121.70
1027.33	2293.72
1027.48	2105.31
1027.64	2199.52
1027.80	2168.80
1027.95	2166.75
1028.11	2054.11
1028.27	2166.75
1028.42	2142.18
1028.58	2158.56
1028.73	2039.78
1028.89	2023.39
1029.05	2277.34
1029.20	2148.32
>>>>>End Processed Spectral Data<<<<<
