SpectraSuite Data File
++++++++++++++++++++++++++++++++++++
Date: Fri Jun 02 14:47:59 CEST 2017
User: INFO_000
Dark Spectrum Present: No
Reference Spectrum Present: No
Number of Sampled Component Spectra: 1
Spectrometers: USB4H00879
Integration Time (usec): 80000 (USB4H00879)
Spectra Averaged: 1 (USB4H00879)
Boxcar Smoothing: 0 (USB4H00879)
Correct for Electrical Dark: No (USB4H00879)
Strobe/Lamp Enabled: No (USB4H00879)
Correct for Detector Non-linearity: No (USB4H00879)
Correct for Stray Light: No (USB4H00879)
Number of Pixels in Processed Spectrum: 3648
>>>>>Begin Processed Spectral Data<<<<<
345.13	1273.84
345.34	1273.84
345.56	1273.84
345.78	1224.69
345.99	1294.32
346.21	1701.86
346.42	1656.81
346.64	1691.62
346.86	1781.73
347.07	1665.00
347.29	1671.14
347.50	1597.42
347.72	1619.94
347.94	1685.48
348.15	1589.22
348.37	1665.00
348.59	1685.48
348.80	1607.66
349.02	1796.07
349.23	1798.12
349.45	1802.21
349.67	1855.46
349.88	1777.64
350.10	2007.01
350.31	1849.32
350.53	1781.73
350.75	1992.67
350.96	1808.36
351.18	1912.80
351.39	1853.41
351.61	1763.30
351.82	1863.65
352.04	1976.29
352.26	1837.03
352.47	1910.75
352.69	1939.43
352.90	1683.43
353.12	1839.08
353.34	1882.08
353.55	1929.19
353.77	1869.80
353.98	1855.46
354.20	1751.01
354.41	1908.71
354.63	2013.15
354.85	2011.11
355.06	1857.51
355.28	1765.35
355.49	1898.47
355.71	1882.08
355.92	1902.56
356.14	1947.62
356.35	1818.60
356.57	1867.75
356.79	1953.76
357.00	1863.65
357.22	1957.86
357.43	1949.67
357.65	1931.23
357.86	1888.23
358.08	2019.30
358.29	1923.04
358.51	2011.11
358.72	1957.86
358.94	1914.85
359.16	1941.47
359.37	1978.34
359.59	1925.09
359.80	1961.95
360.02	1961.95
360.23	1966.05
360.45	1873.89
360.66	1892.32
360.88	1753.06
361.09	1910.75
361.31	1976.29
361.52	1880.04
361.74	1974.24
361.95	2013.15
362.17	1951.71
362.38	1980.39
362.60	2068.45
362.81	1966.05
363.03	1941.47
363.24	2023.39
363.46	1998.82
363.67	2035.68
363.89	1945.57
364.10	2004.96
364.32	1996.77
364.53	2121.70
364.75	1949.67
364.96	2033.63
365.18	1959.91
365.39	2047.97
365.61	2027.49
365.82	2174.94
366.04	2017.25
366.25	1941.47
366.47	2033.63
366.68	2115.55
366.90	2004.96
367.11	2103.26
367.33	2109.41
367.54	1988.58
367.76	2054.11
367.97	2066.40
368.19	2039.78
368.40	2088.93
368.62	1964.00
368.83	1951.71
369.05	2107.36
369.26	1951.71
369.48	2031.58
369.69	2074.59
369.91	2002.91
370.12	2043.87
370.33	2113.50
370.55	1912.80
370.76	2015.20
370.98	2142.18
371.19	2066.40
371.41	2074.59
371.62	2066.40
371.84	1980.39
372.05	2193.37
372.27	2084.83
372.48	2029.54
372.69	2041.82
372.91	2123.74
373.12	2078.69
373.34	2052.06
373.55	2211.81
373.77	2174.94
373.98	2068.45
374.20	2207.71
374.41	2217.95
374.62	2099.17
374.84	2150.37
375.05	2123.74
375.27	2174.94
375.48	2138.08
375.70	2123.74
375.91	2152.42
376.12	2275.29
376.34	2156.51
376.55	2148.32
376.77	2189.28
376.98	2031.58
377.19	2027.49
377.41	2107.36
377.62	2215.90
377.84	2179.04
378.05	2361.31
378.27	2252.77
378.48	2291.68
378.69	2310.11
378.91	2308.06
379.12	2193.37
379.34	2205.66
379.55	2263.01
379.76	2306.01
379.98	2248.67
380.19	2248.67
380.41	2185.18
380.62	2346.97
380.83	2234.33
381.05	2166.75
381.26	2469.85
381.47	2211.81
381.69	2310.11
381.90	2400.22
382.12	2287.58
382.33	2222.05
382.54	2242.53
382.76	2291.68
382.97	2234.33
383.19	2252.77
383.40	2377.69
383.61	2283.49
383.83	2318.30
384.04	2238.43
384.25	2330.59
384.47	2426.84
384.68	2379.74
384.89	2404.32
385.11	2332.64
385.32	2375.64
385.54	2338.78
385.75	2351.07
385.96	2400.22
386.18	2465.75
386.39	2496.47
386.60	2301.92
386.82	2502.62
387.03	2473.95
387.24	2461.66
387.46	2467.80
387.67	2437.08
387.88	2519.00
388.10	2502.62
388.31	2498.52
388.52	2484.19
388.74	2545.63
388.95	2500.57
389.16	2510.81
389.38	2490.33
389.59	2545.63
389.80	2658.26
390.02	2584.54
390.23	2592.73
390.44	2498.52
390.66	2572.25
390.87	2523.10
391.08	2607.06
391.30	2619.35
391.51	2648.02
391.72	2725.85
391.94	2656.22
392.15	2568.15
392.36	2672.60
392.58	2627.54
392.79	2664.41
393.00	2699.22
393.22	2668.50
393.43	2764.76
393.64	2748.37
393.85	2723.80
394.07	2811.86
394.28	2631.64
394.49	2688.98
394.71	2721.75
394.92	2793.43
395.13	2697.17
395.35	2795.48
395.56	2699.22
395.77	2717.65
395.98	2754.52
396.20	2830.29
396.41	2746.33
396.62	2797.53
396.84	2809.81
397.05	2854.87
397.26	2875.35
397.47	2883.54
397.69	2793.43
397.90	2992.08
398.11	2895.83
398.32	2885.59
398.54	2904.02
398.75	2836.44
398.96	2930.64
399.18	2940.88
399.39	2973.65
399.60	3057.62
399.81	2994.13
400.03	2838.48
400.24	3319.76
400.45	2959.31
400.66	3082.19
400.88	3059.67
401.09	3149.78
401.30	3022.80
401.51	3102.67
401.73	3133.39
401.94	3114.96
402.15	3033.04
402.36	3149.78
402.58	3071.95
402.79	3051.47
403.00	3114.96
403.21	3209.17
403.43	3215.31
403.64	3205.07
403.85	3119.06
404.06	3278.80
404.27	3090.38
404.49	3172.30
404.70	3127.25
404.91	3217.36
405.12	3223.50
405.34	3155.92
405.55	3334.09
405.76	3059.67
405.97	3248.08
406.19	3379.15
406.40	3155.92
406.61	3260.37
406.82	3344.33
407.03	3286.99
407.25	3254.22
407.46	3194.83
407.67	3307.47
407.88	3420.11
408.09	3360.72
408.31	3344.33
408.52	3395.53
408.73	3336.14
408.94	3352.52
409.15	3444.68
409.37	3618.76
409.58	3459.02
409.79	3469.26
410.00	3502.03
410.21	3342.28
410.43	3338.19
410.64	3540.94
410.85	3495.88
411.06	3389.39
411.27	3510.22
411.48	3612.62
411.70	3481.55
411.91	3575.75
412.12	3596.23
412.33	3536.84
412.54	3522.51
412.76	3686.34
412.97	3620.81
413.18	3502.03
413.39	3618.76
413.60	3536.84
413.81	3659.72
414.03	3600.33
414.24	3559.37
414.45	3784.65
414.66	3637.19
414.87	3762.12
415.08	3629.00
415.30	3715.02
415.51	3657.67
415.72	3901.38
415.93	3755.97
416.14	3835.85
416.35	3778.50
416.56	3794.89
416.78	3686.34
416.99	3743.69
417.20	3960.77
417.41	3909.57
417.62	3710.92
417.83	3975.11
418.04	3960.77
418.26	3903.43
418.47	3958.72
418.68	3991.49
418.89	3934.15
419.10	4014.02
419.31	4069.31
419.52	4083.65
419.73	4048.83
419.95	4083.65
420.16	3905.48
420.37	4050.88
420.58	4095.94
420.79	3930.05
421.00	4108.23
421.21	4063.17
421.42	4159.42
421.63	4143.04
421.85	4110.27
422.06	4161.47
422.27	4181.95
422.48	4202.43
422.69	4274.11
422.90	4218.82
423.11	4317.12
423.32	4419.52
423.53	4392.89
423.75	4376.51
423.96	4298.69
424.17	4474.81
424.38	4558.78
424.59	4394.94
424.80	4632.51
425.01	4368.32
425.22	4458.43
425.43	4503.48
425.64	4724.66
425.85	4687.80
426.06	4612.03
426.28	4526.01
426.49	4476.86
426.70	4597.69
426.91	4526.01
427.12	4782.01
427.33	4673.46
427.54	4503.48
427.75	4773.82
427.96	4943.80
428.17	4755.38
428.38	4704.18
428.59	4730.81
428.80	4761.53
429.01	4872.12
429.23	4845.49
429.44	4951.99
429.65	5001.14
429.86	4933.56
430.07	4802.49
430.28	4798.39
430.49	4921.27
430.70	5097.39
430.91	5140.40
431.12	4820.92
431.33	5138.35
431.54	5148.59
431.75	5085.11
431.96	5240.75
432.17	5064.63
432.38	5056.43
432.59	5267.38
432.80	5214.13
433.01	5169.07
433.22	5287.86
433.43	5369.77
433.64	5337.01
433.85	5103.54
434.06	5404.59
434.27	5296.05
434.49	5377.97
434.70	5468.08
434.91	5394.35
435.12	5525.42
435.33	5265.33
435.54	5472.17
435.75	5250.99
435.96	5328.81
436.17	5261.23
436.38	5535.66
436.59	5488.56
436.80	5328.81
437.01	5789.61
437.22	5752.74
437.43	5509.04
437.64	5418.93
437.85	5597.10
438.06	5568.43
438.27	5545.90
438.48	5660.59
438.69	5597.10
438.90	5683.11
439.11	5502.89
439.32	5744.55
439.53	5697.45
439.74	5777.32
439.95	5693.35
440.16	5691.31
440.37	5762.98
440.57	5754.79
440.78	5859.24
440.99	5830.57
441.20	5814.18
441.41	5793.70
441.62	5775.27
441.83	5697.45
442.04	5990.31
442.25	5996.45
442.46	6006.69
442.67	6066.08
442.88	6401.95
443.09	5982.12
443.30	6037.41
443.51	6025.12
443.72	6211.49
443.93	6123.43
444.14	6297.50
444.35	5973.92
444.56	6197.15
444.77	6227.87
444.98	6293.41
445.19	6262.69
445.40	6221.73
445.61	6348.70
445.81	6455.20
446.02	6420.38
446.23	6240.16
446.44	6223.78
446.65	6354.85
446.86	6457.25
447.07	6455.20
447.28	6707.10
447.49	6723.48
447.70	6463.39
447.91	6666.14
448.12	6643.61
448.33	6602.65
448.54	6676.38
448.74	6588.32
448.95	6776.73
449.16	6621.08
449.37	6963.09
449.58	6664.09
449.79	6944.66
450.00	6678.43
450.21	6864.79
450.42	6854.55
450.63	7090.07
450.84	6989.72
451.05	6954.90
451.25	6989.72
451.46	7028.63
451.67	7153.55
451.88	7237.52
452.09	7167.89
452.30	7110.55
452.51	7090.07
452.72	7319.44
452.93	7546.76
453.13	7174.03
453.34	7309.20
453.55	7264.15
453.76	7378.83
453.97	7640.97
454.18	7454.61
454.39	7505.81
454.60	7448.46
454.81	7626.64
455.01	7704.46
455.22	7315.34
455.43	7647.12
455.64	7804.81
455.85	7913.35
456.06	8034.18
456.27	7810.95
456.48	7792.52
456.68	7872.39
456.89	8009.61
457.10	8087.43
457.31	7888.78
457.52	7950.21
457.73	8118.15
457.94	8120.20
458.14	8001.41
458.35	8456.06
458.56	8269.70
458.77	8175.49
458.98	8308.61
459.19	8365.95
459.39	8302.47
459.60	8423.30
459.81	8417.15
460.02	8546.17
460.23	8548.22
460.44	8824.70
460.65	8640.38
460.85	8824.70
461.06	8853.37
461.27	8658.81
461.48	9080.69
461.69	8974.20
461.89	8533.89
462.10	9031.54
462.31	8705.92
462.52	8927.10
462.73	9039.73
462.94	9219.96
463.14	9023.35
463.35	9193.33
463.56	9498.48
463.77	9367.41
463.98	9260.91
464.18	9287.54
464.39	9572.21
464.60	9604.97
464.81	9674.60
465.02	9377.65
465.23	9787.24
465.43	9607.02
465.64	9975.66
465.85	9787.24
466.06	9555.82
466.27	10020.71
466.47	10039.14
466.68	9834.35
466.89	9865.07
467.10	10073.96
467.30	9742.19
467.51	10125.16
467.72	10305.38
467.93	10078.05
468.14	10110.82
468.34	10639.20
468.55	10577.76
468.76	10467.17
468.97	10372.96
469.17	10846.04
469.38	10874.71
469.59	10784.60
469.80	10665.82
470.01	10909.53
470.21	10620.77
470.42	10841.95
470.63	11143.00
470.84	10989.40
471.04	10946.39
471.25	11190.10
471.46	11259.73
471.67	11433.81
471.87	11198.29
472.08	11507.54
472.29	11657.04
472.50	11290.45
472.70	11560.78
472.91	11720.53
473.12	11798.35
473.33	11859.79
473.53	12109.64
473.74	11988.81
473.95	12197.70
474.16	12214.09
474.36	12095.30
474.57	12377.92
474.78	12541.76
474.99	12199.75
475.19	12486.47
475.40	12590.91
475.61	12529.47
475.81	12830.52
476.02	12984.12
476.23	13176.63
476.44	12857.15
476.64	12951.35
476.85	13399.86
477.06	13031.23
477.27	13549.36
477.47	13551.41
477.68	13623.09
477.89	13670.19
478.09	13631.28
478.30	13891.37
478.51	13850.41
478.71	13838.12
478.92	14092.07
479.13	14190.38
479.34	14069.55
479.54	14180.14
479.75	14286.63
479.96	14217.00
480.16	14542.63
480.37	14599.97
480.58	14606.11
480.78	14847.77
480.99	15011.61
481.20	14970.65
481.41	15138.58
481.61	15197.98
481.82	15370.01
482.03	15357.72
482.23	15232.79
482.44	15755.02
482.65	15810.32
482.85	15802.13
483.06	15886.09
483.27	15826.70
483.47	15976.20
483.68	15927.05
483.89	16185.10
484.09	16080.65
484.30	16246.54
484.51	16551.68
484.71	16541.44
484.92	16391.94
485.13	16852.73
485.33	16830.21
485.54	16844.54
485.75	16922.37
485.95	17125.11
486.16	17354.49
486.37	17145.59
486.57	17219.32
486.78	17362.68
486.98	17620.72
487.19	17581.81
487.40	17669.87
487.60	17661.68
487.81	17938.16
488.02	17882.86
488.22	17823.47
488.43	18007.79
488.64	18188.01
488.84	18337.51
489.05	18509.54
489.25	18628.32
489.46	18700.00
489.67	18595.56
489.87	18681.57
490.08	18751.20
490.29	18943.71
490.49	19314.39
490.70	19377.88
490.90	19488.47
491.11	19252.95
491.32	19427.03
491.52	19496.66
491.73	19662.55
491.94	19656.40
492.14	19805.91
492.35	19824.34
492.55	20074.19
492.76	20496.07
492.97	20188.88
493.17	20377.29
493.38	20604.61
493.58	20743.88
493.79	20577.99
494.00	20752.07
494.20	20592.33
494.41	20815.55
494.61	20713.16
494.82	21157.57
495.02	21102.27
495.23	21292.73
495.44	21395.13
495.64	21395.13
495.85	21397.18
496.05	21386.94
496.26	21739.19
496.47	21778.10
496.67	21499.58
496.88	22240.94
497.08	21925.55
497.29	22197.93
497.49	22144.69
497.70	22046.38
497.91	22359.72
498.11	22453.93
498.32	22728.36
498.52	22693.54
498.73	23017.12
498.93	22695.59
499.14	22929.06
499.34	23355.04
499.55	23385.76
499.76	22939.30
499.96	23385.76
500.17	23258.78
500.37	23402.14
500.58	23314.08
500.78	23477.91
500.99	23686.81
501.19	23871.12
501.40	23643.80
501.60	23735.96
501.81	24137.36
502.02	23940.75
502.22	23828.12
502.43	24145.55
502.63	24170.13
502.84	24262.29
503.04	24301.20
503.25	24297.10
503.45	24374.92
503.66	24647.30
503.86	24469.13
504.07	24716.93
504.27	24696.46
504.48	24977.03
504.68	25085.57
504.89	25030.27
505.09	25099.90
505.30	25153.15
505.50	25314.94
505.71	25331.33
505.91	25448.06
506.12	25218.69
506.32	25290.37
506.53	25366.14
506.73	25601.66
506.94	25435.77
507.14	25288.32
507.35	26035.83
507.55	25439.87
507.76	25456.25
507.96	25783.93
508.17	25679.48
508.37	25867.89
508.58	26039.92
508.78	26041.97
508.99	26273.39
509.19	26039.92
509.40	26093.17
509.60	26130.03
509.81	26519.15
510.01	26207.86
510.22	26533.48
510.42	26781.29
510.63	26648.17
510.83	26420.84
511.04	26732.14
511.24	26572.39
511.44	26564.20
511.65	26625.64
511.85	26676.84
512.06	26926.69
512.26	26838.63
512.47	26906.21
512.67	26812.01
512.88	27205.22
513.08	26998.37
513.29	27209.31
513.49	27065.96
513.69	26840.68
513.90	27610.71
514.10	27387.49
514.31	27182.69
514.51	27223.65
514.72	27151.97
514.92	27301.47
515.13	27524.70
515.33	27192.93
515.53	27547.23
515.74	27770.46
515.94	27813.46
516.15	27838.04
516.35	27676.25
516.56	27948.63
516.76	27618.91
516.96	27829.85
517.17	27942.49
517.37	28063.32
517.58	28118.61
517.78	27885.14
517.99	28112.47
518.19	28368.46
518.39	28309.07
518.60	28155.47
518.80	28477.01
519.01	28409.42
519.21	28290.64
519.41	28733.00
519.62	28294.74
519.82	28499.53
520.03	28743.24
520.23	28872.26
520.43	28212.82
520.64	28683.85
520.84	28982.85
521.05	28737.10
521.25	29064.77
521.45	29355.58
521.66	29089.35
521.86	29249.09
522.07	29140.55
522.27	29314.62
522.47	29109.83
522.68	29345.34
522.88	29517.37
523.08	29881.91
523.29	29720.12
523.49	29591.10
523.70	29906.49
523.90	30135.86
524.10	29681.21
524.31	29902.39
524.51	29881.91
524.71	30340.66
524.92	29795.90
525.12	30465.58
525.33	30412.34
525.53	30590.51
525.73	30496.30
525.94	30410.29
526.14	30645.80
526.34	30424.62
526.55	30909.99
526.75	30606.89
526.95	30973.48
527.16	31114.79
527.36	30838.31
527.56	31374.88
527.77	31274.53
527.97	31161.89
528.17	31301.15
528.38	31434.27
528.58	31426.08
528.78	31413.79
528.99	31688.22
529.19	32175.64
529.39	31667.74
529.60	32013.85
529.80	32212.50
530.00	31931.93
530.21	32327.19
530.41	32425.49
530.61	32071.19
530.82	32321.04
531.02	32228.88
531.22	32960.01
531.43	32611.85
531.63	32681.49
531.83	33080.84
532.04	33297.92
532.24	32777.74
532.44	33410.56
532.64	33373.70
532.85	33394.18
533.05	33637.89
533.25	33713.66
533.46	33525.25
533.66	33619.46
533.86	33936.89
534.07	34176.50
534.27	33850.88
534.47	34399.73
534.67	34301.43
534.88	34145.78
535.08	34381.30
535.28	34360.82
535.49	34518.51
535.69	35145.19
535.89	35073.51
536.09	34907.63
536.30	35093.99
536.50	35415.52
536.70	35014.12
536.91	35388.90
537.11	35538.40
537.31	35653.09
537.51	35253.73
537.72	36193.75
537.92	35765.73
538.12	36011.48
538.32	35659.23
538.53	36042.20
538.73	36062.68
538.93	35765.73
539.13	36068.83
539.34	35915.23
539.54	36306.39
539.74	36715.98
539.94	36543.95
540.15	36675.02
540.35	37268.94
540.55	36867.53
540.75	36468.18
540.96	37170.63
541.16	37320.13
541.36	37193.16
541.56	37379.53
541.77	37766.59
541.97	37565.89
542.17	37772.74
542.37	37727.68
542.58	37909.95
542.78	37776.83
542.98	37344.71
543.18	37926.33
543.38	38536.63
543.59	38010.30
543.79	37946.81
543.99	37832.13
544.19	38389.17
544.40	38464.95
544.60	38489.52
544.80	38653.36
545.00	38796.72
545.20	39175.59
545.41	38811.06
545.61	38815.15
545.81	39347.62
546.01	39441.83
546.21	39130.54
546.42	39343.53
546.62	39609.76
546.82	39243.18
547.02	39638.44
547.22	39505.32
547.43	39454.12
547.63	39407.01
547.83	40101.28
548.03	39400.87
548.23	39691.68
548.44	39757.22
548.64	39966.11
548.84	40293.79
549.04	40232.35
549.24	40498.58
549.45	40738.19
549.65	40277.40
549.85	40252.83
550.05	40453.53
550.25	40048.03
550.45	40732.05
550.66	40766.87
550.86	40848.78
551.06	41043.34
551.26	40942.99
551.46	41063.82
551.66	40910.22
551.87	40881.55
552.07	41457.03
552.27	41315.72
552.47	41203.08
552.67	41450.89
552.87	41246.09
553.07	41526.66
553.28	41708.93
553.48	41600.39
553.68	41614.72
553.88	41833.86
554.08	41780.61
554.28	41840.00
554.48	41835.91
554.69	42173.82
554.89	41985.41
555.09	42083.71
555.29	42059.13
555.49	42329.47
555.69	42460.54
555.89	42366.33
556.10	42452.34
556.30	42225.02
556.50	42687.86
556.70	42071.42
556.90	42599.80
557.10	42450.30
557.30	42362.23
557.50	42900.85
557.70	42581.37
557.91	42915.19
558.11	42513.78
558.31	42933.62
558.51	42823.03
558.71	42880.37
558.91	42962.29
559.11	42745.20
559.31	42710.39
559.51	43199.85
559.72	42882.42
559.92	43124.08
560.12	43081.07
560.32	43629.93
560.52	42653.05
560.72	43169.13
560.92	43206.00
561.12	43070.83
561.32	43398.51
561.52	43505.00
561.72	43767.14
561.93	43236.72
562.13	43519.34
562.33	43130.22
562.53	44088.67
562.73	43310.44
562.93	43480.42
563.13	43738.47
563.33	44193.12
563.53	44242.27
563.73	43099.50
563.93	44146.01
564.13	44100.96
564.33	43783.52
564.53	43906.40
564.74	44246.36
564.94	43756.90
565.14	44041.57
565.34	43892.07
565.54	44109.15
565.74	43763.04
565.94	44518.74
566.14	44139.87
566.34	44215.65
566.54	44561.75
566.74	44103.01
566.94	44223.84
567.14	44203.36
567.34	44027.23
567.54	44094.82
567.74	44418.39
567.94	43945.31
568.14	44737.88
568.34	45090.13
568.54	44930.39
568.74	44371.29
568.94	44103.01
569.14	44590.42
569.34	44756.31
569.54	44760.40
569.75	44184.93
569.95	44805.46
570.15	45057.36
570.35	44760.40
570.55	44801.36
570.75	44875.09
570.95	44866.90
571.15	44891.48
571.35	45145.42
571.55	44985.68
571.75	44858.71
571.95	45086.03
572.15	44981.59
572.35	44995.92
572.55	44832.08
572.75	44987.73
572.95	44752.21
573.15	45014.35
573.35	45200.72
573.55	44586.33
573.75	45088.08
573.95	45116.75
574.15	45473.10
574.35	45385.04
574.55	45452.62
574.75	45108.56
574.95	45350.22
575.15	45337.93
575.34	45784.39
575.54	45706.57
575.74	45522.25
575.94	45520.20
576.14	45425.99
576.34	45813.06
576.54	45528.39
576.74	45702.47
576.94	45778.25
577.14	46056.77
577.34	46318.91
577.54	45929.80
577.74	46007.62
577.94	45743.43
578.14	45481.29
578.34	45899.08
578.54	45557.06
578.74	45860.16
578.94	46056.77
579.14	45567.30
579.34	45962.56
579.54	45897.03
579.74	46380.35
579.94	46171.46
580.13	46492.99
580.33	46521.66
580.53	46138.69
580.73	46490.94
580.93	46265.66
581.13	46568.76
581.33	47027.51
581.53	46708.02
581.73	46486.84
581.93	46478.65
582.13	46540.09
582.33	46849.33
582.53	46656.82
582.73	46736.69
582.92	46552.38
583.12	47150.38
583.32	47035.70
583.52	46798.13
583.72	47273.26
583.92	46941.49
584.12	47099.19
584.32	47422.76
584.52	47021.36
584.72	47033.65
584.92	47297.84
585.11	47711.53
585.31	47373.61
585.51	47346.99
585.71	47514.92
585.91	48063.78
586.11	47476.01
586.31	47346.99
586.51	47643.94
586.71	47447.34
586.91	47863.08
587.10	47936.80
587.30	48055.59
587.50	47684.90
587.70	47797.54
587.90	47488.30
588.10	47940.90
588.30	47650.09
588.50	48061.73
588.69	47945.00
588.89	47965.48
589.09	48637.21
589.29	48260.38
589.49	48350.49
589.69	48182.56
589.89	48035.11
590.08	48833.81
590.28	48022.82
590.48	48262.43
590.68	48596.25
590.88	48053.54
591.08	48235.81
591.28	48330.01
591.47	48624.92
591.67	48760.09
591.87	48475.42
592.07	48796.95
592.27	48860.44
592.47	48358.69
592.67	48284.96
592.86	49014.04
593.06	48426.27
593.26	48725.27
593.46	49175.83
593.66	49274.13
593.86	49673.48
594.05	49208.59
594.25	49331.47
594.45	49079.57
594.65	49427.73
594.85	49192.21
595.05	49831.18
595.24	49661.19
595.44	49585.42
595.64	49661.19
595.84	49673.48
596.04	49634.57
596.23	49528.08
596.43	49763.59
596.63	49679.63
596.83	49577.23
597.03	49843.46
597.22	50394.37
597.42	49849.61
597.62	50283.78
597.82	50345.22
598.02	50228.48
598.21	50715.90
598.41	50142.47
598.61	50132.23
598.81	50468.09
599.01	50404.61
599.20	50640.12
599.40	50464.00
599.60	50717.95
599.80	50418.94
600.00	50953.46
600.19	51264.75
600.39	50681.08
600.59	50756.86
600.79	51068.15
600.98	50988.28
601.18	51606.76
601.38	51342.58
601.58	51356.91
601.78	51467.50
601.97	51467.50
602.17	51547.37
602.37	51606.76
602.57	51614.96
602.76	51602.67
602.96	51608.81
603.16	51893.48
603.36	52253.92
603.55	51942.63
603.75	51909.86
603.95	52122.85
604.15	52188.39
604.34	51856.62
604.54	52178.15
604.74	52337.89
604.94	52573.41
605.13	52870.36
605.33	52722.91
605.53	52540.64
605.73	52866.27
605.92	52837.59
606.12	52939.99
606.32	52954.33
606.52	52720.86
606.71	52935.90
606.91	52860.12
607.11	52796.63
607.30	53236.95
607.50	53101.78
607.70	53081.30
607.90	53257.43
608.09	53152.98
608.29	53470.42
608.49	53470.42
608.68	53019.86
608.88	53277.91
609.08	53648.59
609.28	53589.20
609.47	53146.84
609.67	53925.07
609.87	54113.48
610.06	54025.42
610.26	53834.95
610.46	54148.29
610.66	53789.90
610.85	53785.80
611.05	53818.57
611.25	54219.97
611.44	54019.27
611.64	54260.93
611.84	53671.12
612.03	54006.98
612.23	54076.61
612.43	54363.33
612.62	53818.57
612.82	54465.73
613.02	54367.43
613.21	54387.91
613.41	54047.94
613.61	54983.86
613.80	54312.13
614.00	54785.21
614.20	54772.92
614.39	54359.23
614.59	54641.85
614.79	54617.28
614.98	54482.11
615.18	54600.89
615.38	54604.99
615.57	54516.93
615.77	54736.06
615.97	54662.33
616.16	54975.67
616.36	54944.95
616.56	54961.34
616.75	55063.74
616.95	54584.51
617.15	54738.11
617.34	55153.85
617.54	54729.92
617.74	55067.83
617.93	54686.91
618.13	54865.08
618.32	55084.22
618.52	54613.18
618.72	55198.90
618.91	54969.53
619.11	54633.66
619.31	55551.15
619.50	55002.30
619.70	54547.65
619.90	55379.12
620.09	55452.85
620.29	55041.21
620.48	55037.11
620.68	55616.69
620.88	54813.88
621.07	55135.41
621.27	55409.84
621.46	54934.71
621.66	54887.61
621.86	55422.13
622.05	55108.79
622.25	55147.70
622.44	55159.99
622.64	55092.41
622.84	55622.83
623.03	54975.67
623.23	55219.38
623.42	55319.73
623.62	55352.50
623.82	55784.62
624.01	55168.18
624.21	55329.97
624.40	55268.53
624.60	55594.16
624.80	55344.31
624.99	55190.71
625.19	55188.66
625.38	55119.03
625.58	55473.33
625.77	54908.09
625.97	55180.47
626.17	55108.79
626.36	55149.75
626.56	55700.65
626.75	55162.04
626.95	55702.70
627.14	55151.80
627.34	55934.12
627.54	55295.16
627.73	55680.17
627.93	55266.48
628.12	55143.61
628.32	55397.55
628.51	55239.86
628.71	55366.84
628.90	55379.12
629.10	55381.17
629.30	55372.98
629.49	55336.12
629.69	55454.90
629.88	55153.85
630.08	55751.85
630.27	55260.34
630.47	55252.15
630.66	54992.06
630.86	55571.63
631.05	54916.28
631.25	55964.84
631.44	55581.87
631.64	55610.54
631.84	55256.24
632.03	56071.34
632.23	55477.43
632.42	55600.30
632.62	55295.16
632.81	55327.92
633.01	55684.27
633.20	55346.36
633.40	55547.06
633.59	55579.82
633.79	55350.45
633.98	55538.86
634.18	55989.42
634.37	55598.26
634.57	55225.53
634.76	55934.12
634.96	55821.48
635.15	55592.11
635.35	55383.22
635.54	55188.66
635.74	56173.73
635.93	55575.73
636.13	55907.50
636.32	56028.33
636.52	55041.21
636.71	55770.28
636.91	55649.45
637.10	55454.90
637.30	55563.44
637.49	55583.92
637.69	55342.26
637.88	55782.57
638.08	55121.08
638.27	55631.02
638.46	55452.85
638.66	55297.20
638.85	55497.91
639.05	55995.56
639.24	55717.04
639.44	55448.75
639.63	55794.86
639.83	55563.44
640.02	55651.50
640.22	55493.81
640.41	55661.74
640.61	54869.18
640.80	55628.98
640.99	55510.19
641.19	55432.37
641.38	55651.50
641.58	55786.67
641.77	55702.70
641.97	55305.40
642.16	55610.54
642.36	55682.22
642.55	55774.38
642.74	55727.28
642.94	55762.09
643.13	55315.64
643.33	55616.69
643.52	55895.21
643.72	55415.99
643.91	55739.57
644.10	55753.90
644.30	55733.42
644.49	55979.18
644.69	55774.38
644.88	55764.14
645.08	55665.84
645.27	55801.00
645.46	55655.60
645.66	55686.32
645.85	55407.79
646.05	55882.92
646.24	55733.42
646.43	55835.82
646.63	55860.40
646.82	56030.38
647.02	55866.54
647.21	55815.34
647.40	55569.58
647.60	55923.88
647.79	55764.14
647.99	56059.05
648.18	55327.92
648.37	56079.53
648.57	55919.79
648.76	55413.94
648.96	55608.50
649.15	55735.47
649.34	55913.64
649.54	55782.57
649.73	55502.00
649.92	56143.02
650.12	55487.67
650.31	56095.91
650.51	55798.96
650.70	55921.83
650.89	55751.85
651.09	56130.73
651.28	56116.39
651.47	55848.11
651.67	55901.36
651.86	56007.85
652.06	55346.36
652.25	56038.57
652.44	55688.37
652.64	55989.42
652.83	55647.41
653.02	55231.67
653.22	56149.16
653.41	55768.24
653.60	55401.65
653.80	55350.45
653.99	55934.12
654.18	55565.49
654.38	55430.32
654.57	55782.57
654.76	55815.34
654.96	55583.92
655.15	55878.83
655.34	55415.99
655.54	55461.04
655.73	55831.72
655.92	55473.33
656.12	55725.23
656.31	55669.93
656.50	55753.90
656.70	55731.37
656.89	55456.95
657.08	55237.81
657.28	55624.88
657.47	55827.63
657.66	55577.78
657.86	55696.56
658.05	55528.62
658.24	55745.71
658.43	55368.88
658.63	55760.05
658.82	56106.15
659.01	55592.11
659.21	55702.70
659.40	55653.55
659.59	55702.70
659.79	55774.38
659.98	55559.34
660.17	55704.75
660.36	55737.52
660.56	55702.70
660.75	55477.43
660.94	55686.32
661.14	55823.53
661.33	55211.19
661.52	54953.15
661.71	55956.65
661.91	55227.57
662.10	55129.27
662.29	55872.68
662.49	55530.67
662.68	55487.67
662.87	55608.50
663.06	55671.98
663.26	55704.75
663.45	55780.52
663.64	55622.83
663.83	56188.07
664.03	55766.19
664.22	55557.30
664.41	55712.94
664.60	55385.27
664.80	55727.28
664.99	54832.32
665.18	55624.88
665.37	55837.87
665.57	55489.71
665.76	55221.43
665.95	55420.08
666.14	55483.57
666.34	55827.63
666.53	55448.75
666.72	55375.03
666.91	55297.20
667.11	55145.65
667.30	55381.17
667.49	55659.69
667.68	55321.78
667.87	55289.01
668.07	55639.22
668.26	55530.67
668.45	55082.17
668.64	55008.44
668.84	56124.58
669.03	55694.51
669.22	55436.47
669.41	55305.40
669.60	55383.22
669.80	55502.00
669.99	55325.88
670.18	55127.22
670.37	55301.30
670.57	55911.59
670.76	55047.35
670.95	55207.09
671.14	55512.24
671.33	55211.19
671.53	55784.62
671.72	55946.41
671.91	55151.80
672.10	55332.02
672.29	55884.97
672.48	55039.16
672.68	55305.40
672.87	55286.96
673.06	55522.48
673.25	55010.49
673.44	55071.93
673.64	55657.65
673.83	55088.31
674.02	55319.73
674.21	55026.87
674.40	55432.37
674.59	54983.86
674.79	54985.91
674.98	55270.58
675.17	55534.77
675.36	55395.51
675.55	55284.92
675.74	55014.58
675.94	55133.37
676.13	55465.14
676.32	55368.88
676.51	55528.62
676.70	55608.50
676.89	55370.93
677.08	55420.08
677.28	55172.28
677.47	55575.73
677.66	55467.19
677.85	55502.00
678.04	55266.48
678.23	55774.38
678.42	55590.06
678.62	55321.78
678.81	55311.54
679.00	55440.56
679.19	55780.52
679.38	55035.06
679.57	55583.92
679.76	55743.66
679.96	55542.96
680.15	55286.96
680.34	54834.36
680.53	55235.77
680.72	55616.69
680.91	55690.41
681.10	55551.15
681.29	55260.34
681.48	55162.04
681.68	55260.34
681.87	55563.44
682.06	55061.69
682.25	55162.04
682.44	55381.17
682.63	55153.85
682.82	54695.10
683.01	55465.14
683.20	54625.47
683.39	55313.59
683.59	55227.57
683.78	54772.92
683.97	55325.88
684.16	55041.21
684.35	54846.65
684.54	55393.46
684.73	55059.64
684.92	55022.78
685.11	54576.32
685.30	54889.66
685.49	55149.75
685.69	54774.97
685.88	55317.68
686.07	55098.55
686.26	55063.74
686.45	55076.02
686.64	55456.95
686.83	54940.86
687.02	55076.02
687.21	54901.95
687.40	55325.88
687.59	54858.94
687.78	55102.65
687.97	55266.48
688.16	54715.58
688.35	54770.88
688.54	55196.85
688.74	55377.08
688.93	54953.15
689.12	54895.80
689.31	55045.30
689.50	55379.12
689.69	54711.49
689.88	54977.72
690.07	55020.73
690.26	54756.54
690.45	55248.05
690.64	54891.71
690.83	54772.92
691.02	54934.71
691.21	54506.69
691.40	54858.94
691.59	55022.78
691.78	54955.19
691.97	55071.93
692.16	54934.71
692.35	54860.99
692.54	55352.50
692.73	54879.42
692.92	54516.93
693.11	54924.47
693.30	54348.99
693.49	54742.20
693.68	55028.92
693.87	54987.96
694.06	54490.30
694.25	54584.51
694.44	54435.01
694.63	54998.20
694.82	55131.32
695.01	54432.96
695.20	54762.68
695.39	54414.53
695.58	54342.85
695.77	54695.10
695.96	54547.65
696.15	54748.35
696.34	54416.58
696.53	54342.85
696.72	54734.01
696.91	54281.41
697.10	54469.82
697.29	54719.68
697.48	54944.95
697.67	54230.21
697.86	54027.46
698.05	54285.51
698.24	55037.11
698.43	54086.85
698.62	54424.77
698.81	54281.41
699.00	54695.10
699.19	54131.91
699.38	54555.84
699.57	54101.19
699.76	54756.54
699.95	54002.89
700.14	53906.63
700.32	54258.88
700.51	54056.14
700.70	54392.00
700.89	54090.95
701.08	54330.56
701.27	53785.80
701.46	54252.74
701.65	53880.01
701.84	54604.99
702.03	54260.93
702.22	53994.70
702.41	53535.95
702.60	54322.37
702.79	54049.99
702.98	53484.75
703.17	53951.69
703.35	53707.98
703.54	53497.04
703.73	54154.44
703.92	53867.72
704.11	54039.75
704.30	53785.80
704.49	53941.45
704.68	53765.32
704.87	54095.05
705.06	53705.93
705.25	53816.52
705.43	53652.69
705.62	54303.94
705.81	53908.68
706.00	53499.09
706.19	53810.38
706.38	53738.70
706.57	53603.53
706.76	53890.25
706.95	53728.46
707.14	53345.49
707.32	53193.94
707.51	53386.45
707.70	53556.43
707.89	53236.95
708.08	52927.70
708.27	53959.88
708.46	53773.52
708.65	53613.77
708.84	53382.35
709.02	53353.68
709.21	53349.59
709.40	53548.24
709.59	53669.07
709.78	53564.62
709.97	53679.31
710.16	53447.89
710.34	53091.54
710.53	52886.74
710.72	52960.47
710.91	53171.41
711.10	53372.11
711.29	53273.81
711.48	53298.39
711.66	52749.53
711.85	53001.43
712.04	52968.66
712.23	52749.53
712.42	53048.53
712.61	52786.39
712.80	52935.90
712.98	53103.83
713.17	52356.32
713.36	52823.26
713.55	52643.04
713.74	52714.72
713.93	52716.76
714.11	52696.28
714.30	52407.52
714.49	52436.19
714.68	52593.89
714.87	52856.03
715.06	52870.36
715.24	52843.74
715.43	52382.94
715.62	52147.43
715.81	52368.61
716.00	52008.17
716.18	51993.83
716.37	52096.23
716.56	52053.22
716.75	52477.15
716.94	52339.94
717.12	51619.05
717.31	52339.94
717.50	51674.35
717.69	51858.66
717.88	51819.75
718.06	51815.66
718.25	52012.26
718.44	51447.02
718.63	51737.83
718.82	51688.68
719.00	51647.72
719.19	51721.45
719.38	51422.45
719.57	51131.64
719.76	50961.65
719.94	51371.25
720.13	51229.94
720.32	51533.04
720.51	50853.11
720.69	50787.58
720.88	51123.44
721.07	51082.48
721.26	50173.19
721.44	50877.69
721.63	50715.90
721.82	50447.61
722.01	50332.93
722.20	50732.28
722.38	50429.18
722.57	50058.50
722.76	50898.17
722.95	50343.17
723.13	50320.64
723.32	50441.47
723.51	49372.43
723.70	49943.81
723.88	49878.28
724.07	49749.26
724.26	50160.90
724.44	49589.52
724.63	50185.47
724.82	49818.89
725.01	49454.35
725.19	49739.02
725.38	49714.44
725.57	49253.65
725.76	49622.28
725.94	49546.51
726.13	49181.97
726.32	49558.80
726.51	49239.31
726.69	50009.35
726.88	49573.13
727.07	49657.10
727.25	49597.71
727.44	49632.52
727.63	49110.29
727.82	48964.88
728.00	49610.00
728.19	49153.30
728.38	49419.53
728.56	49231.12
728.75	49249.55
728.94	49116.43
729.12	49249.55
729.31	49204.50
729.50	49251.60
729.69	49618.19
729.87	48799.00
730.06	48919.83
730.25	48971.03
730.43	49284.37
730.62	48985.36
730.81	48960.79
730.99	49034.52
731.18	48907.54
731.37	48887.06
731.55	48991.51
731.74	49296.66
731.93	48915.73
732.11	49415.44
732.30	48817.43
732.49	49073.43
732.67	49050.90
732.86	48995.60
733.05	48497.95
733.23	48348.45
733.42	48444.70
733.61	48477.47
733.79	48545.05
733.98	48921.88
734.17	48452.89
734.35	48108.83
734.54	48522.52
734.73	48989.46
734.91	48665.88
735.10	48399.65
735.29	48782.62
735.47	48383.26
735.66	48219.42
735.84	47992.10
736.03	48022.82
736.22	48461.08
736.40	47764.78
736.59	48401.69
736.78	48149.79
736.96	48276.77
737.15	48149.79
737.33	47752.49
737.52	47832.36
737.71	47822.12
737.89	47721.77
738.08	47744.30
738.27	47353.13
738.45	47834.41
738.64	47770.92
738.82	47930.66
739.01	47809.83
739.20	47129.90
739.38	47781.16
739.57	47486.25
739.75	47752.49
739.94	47514.92
740.13	47328.56
740.31	47379.76
740.50	47519.02
740.68	47643.94
740.87	47406.38
741.06	47549.74
741.24	47166.77
741.43	47295.79
741.61	47109.43
741.80	46837.05
741.99	47009.07
742.17	46912.82
742.36	46970.16
742.54	46599.48
742.73	46830.90
742.91	47277.36
743.10	46921.01
743.29	47375.66
743.47	47293.74
743.66	47142.19
743.84	47314.22
744.03	46871.86
744.21	46751.03
744.40	46992.69
744.59	46431.55
744.77	46464.32
744.96	46404.92
745.14	46343.48
745.33	46501.18
745.51	46236.99
745.70	46499.13
745.88	46103.87
746.07	46363.96
746.26	46294.33
746.44	46120.26
746.63	46075.20
746.81	46085.44
747.00	45720.90
747.18	45972.80
747.37	45745.48
747.55	46046.53
747.74	46159.17
747.92	45716.81
748.11	45860.16
748.29	45759.81
748.48	45804.87
748.66	45569.35
748.85	46017.86
749.03	46003.52
749.22	45524.30
749.41	45847.88
749.59	45727.05
749.78	45245.77
749.96	44787.03
750.15	45335.88
750.33	45522.25
750.52	45442.38
750.70	45057.36
750.89	45200.72
751.07	45210.96
751.26	45194.57
751.44	44727.64
751.63	45061.46
751.81	44717.40
752.00	45270.35
752.18	45364.56
752.37	44871.00
752.55	44612.95
752.74	44635.48
752.92	44877.14
753.10	44334.43
753.29	44827.99
753.47	44430.68
753.66	44490.07
753.84	44809.56
754.03	44766.55
754.21	44250.46
754.40	44359.00
754.58	44623.19
754.77	44766.55
754.95	44160.35
755.14	44019.04
755.32	44213.60
755.51	43740.52
755.69	44027.23
755.88	43955.55
756.06	43867.49
756.24	44164.45
756.43	43715.94
756.61	43961.70
756.80	44057.95
756.98	43148.65
757.17	43978.08
757.35	43806.05
757.54	43228.52
757.72	43816.29
757.90	43345.26
758.09	43330.92
758.27	43451.75
758.46	43441.51
758.64	43349.35
758.83	43765.09
759.01	43412.84
759.19	43326.83
759.38	43031.92
759.56	43601.25
759.75	43144.56
759.93	43302.25
760.12	43236.72
760.30	43023.73
760.48	42990.96
760.67	43040.11
760.85	43044.21
761.04	42982.77
761.22	42747.25
761.40	42841.46
761.59	42704.24
761.77	42753.40
761.96	42759.54
762.14	42386.81
762.32	42220.92
762.51	42423.67
762.69	43015.54
762.88	42517.88
763.06	42374.52
763.24	42839.41
763.43	42601.85
763.61	42476.92
763.80	41928.06
763.98	42276.22
764.16	42317.18
764.35	41827.71
764.53	41385.35
764.72	41602.44
764.90	42069.37
765.08	41510.28
765.27	41432.46
765.45	42194.30
765.63	41428.36
765.82	42081.66
766.00	41309.58
766.18	41649.54
766.37	41663.88
766.55	41092.49
766.74	41409.93
766.92	41194.89
767.10	41280.91
767.29	41229.71
767.47	41225.61
767.65	41301.39
767.84	40949.14
768.02	41262.47
768.20	40850.83
768.39	41342.35
768.57	41088.40
768.75	41112.97
768.94	40687.00
769.12	41002.38
769.30	40719.76
769.49	40746.39
769.67	40930.70
769.85	40299.93
770.04	40701.33
770.22	40512.92
770.40	40564.12
770.59	40480.15
770.77	40611.22
770.95	40254.87
771.14	40498.58
771.32	40459.67
771.50	40041.88
771.69	40136.09
771.87	40156.57
772.05	40066.46
772.24	39998.88
772.42	40086.94
772.60	40058.27
772.78	39310.76
772.97	40072.60
773.15	40390.04
773.33	39919.01
773.52	39607.72
773.70	39951.77
773.88	40093.08
774.07	39816.61
774.25	39908.77
774.43	40064.41
774.61	39470.50
774.80	40113.56
774.98	39916.96
775.16	40154.52
775.34	39957.92
775.53	39964.06
775.71	40002.97
775.89	40035.74
776.08	39851.42
776.26	40097.18
776.44	39431.59
776.62	39871.90
776.81	39808.42
776.99	40132.00
777.17	39818.66
777.35	40009.12
777.54	40482.20
777.72	39955.87
777.90	40088.99
778.08	40304.02
778.27	39925.15
778.45	40242.59
778.63	40265.11
778.81	39894.43
779.00	40549.78
779.18	40480.15
779.36	40619.41
779.54	40197.53
779.73	40412.57
779.91	40625.56
780.09	40185.24
780.27	40588.69
780.46	40457.62
780.64	40848.78
780.82	40422.81
781.00	40240.54
781.19	40643.99
781.37	40883.60
781.55	40478.10
781.73	40859.02
781.91	40449.43
782.10	40830.35
782.28	40826.26
782.46	40820.11
782.64	41115.02
782.82	40588.69
783.01	40758.67
783.19	40861.07
783.37	40986.00
783.55	40482.20
783.74	41059.73
783.92	40506.77
784.10	41244.04
784.28	41457.03
784.46	40494.49
784.64	40895.89
784.83	40682.90
785.01	41131.40
785.19	40547.73
785.37	40631.70
785.55	40793.49
785.74	40351.13
785.92	40664.47
786.10	40666.52
786.28	40727.95
786.46	40824.21
786.64	40607.12
786.83	40648.08
787.01	40580.50
787.19	40523.16
787.37	40549.78
787.55	40025.50
787.74	40523.16
787.92	40474.01
788.10	40228.25
788.28	40277.40
788.46	40566.16
788.64	40074.65
788.82	40760.72
789.01	40172.96
789.19	40205.72
789.37	39759.27
789.55	39753.12
789.73	40005.02
789.91	40015.26
790.09	39957.92
790.28	39830.94
790.46	39345.58
790.64	39638.44
790.82	39851.42
791.00	39640.48
791.18	39433.64
791.36	39409.06
791.55	39685.54
791.73	39351.72
791.91	39249.32
792.09	39349.67
792.27	39433.64
792.45	39159.21
792.63	39226.79
792.81	39065.00
793.00	38720.95
793.18	39290.28
793.36	38659.51
793.54	39069.10
793.72	38411.70
793.90	38909.36
794.08	38706.61
794.26	38698.42
794.44	38344.12
794.62	38342.07
794.81	38464.95
794.99	38284.73
795.17	37891.52
795.35	38094.27
795.53	38415.80
795.71	38254.01
795.89	38165.95
796.07	37658.05
796.25	37696.96
796.43	37633.47
796.61	37565.89
796.80	37422.53
796.98	37225.93
797.16	37133.77
797.34	37180.87
797.52	37201.35
797.70	37328.33
797.88	37207.50
798.06	36963.79
798.24	37074.38
798.42	37203.40
798.60	36935.12
798.78	36949.45
798.96	36900.30
799.14	36668.88
799.32	36699.60
799.51	36181.46
799.69	36828.62
799.87	36625.87
800.05	36447.70
800.23	36736.46
800.41	35972.57
800.59	35988.95
800.77	35927.52
800.95	36103.64
801.13	35993.05
801.31	35698.14
801.49	35876.32
801.67	35560.93
801.85	35507.68
802.03	35255.78
802.21	35460.58
802.39	35483.11
802.57	35401.19
802.75	35198.44
802.93	35175.91
803.11	35065.32
803.29	35309.03
803.47	34461.17
803.65	34997.74
803.83	35198.44
804.01	34842.09
804.19	34409.97
804.37	34536.94
804.55	34377.20
804.73	34321.91
804.91	34338.29
805.09	34471.41
805.27	34467.31
805.45	34348.53
805.63	34422.26
805.81	34303.48
805.99	34055.67
806.17	34289.14
806.35	34119.16
806.53	33586.69
806.71	33908.22
806.89	33996.28
807.07	33793.53
807.25	33641.98
807.43	33428.99
807.61	33953.27
807.79	33664.51
807.97	33316.36
808.15	33478.15
808.33	32927.24
808.51	33261.06
808.69	33115.65
808.87	32886.28
809.05	32878.09
809.23	32955.91
809.41	33015.30
809.59	32761.36
809.77	33048.07
809.95	32712.20
810.13	32751.12
810.31	32560.66
810.49	32773.64
810.67	32392.72
810.84	32519.70
811.02	32599.57
811.20	32228.88
811.38	32554.51
811.56	31880.73
811.74	32089.62
811.92	32032.28
812.10	32306.71
812.28	32212.50
812.46	32370.19
812.64	32146.97
812.82	31950.36
813.00	32093.72
813.18	32063.00
813.36	31491.62
813.53	31821.34
813.71	31452.70
813.89	31548.96
814.07	31759.90
814.25	31407.65
814.43	31524.38
814.61	31299.11
814.79	31567.39
814.97	31241.76
815.15	31419.94
815.33	30983.72
815.50	30946.86
815.68	31428.13
815.86	31430.18
816.04	31292.96
816.22	30955.05
816.40	30543.41
816.58	30481.97
816.76	30584.37
816.94	30723.63
817.11	30512.69
817.29	30463.54
817.47	30402.10
817.65	30254.64
817.83	30449.20
818.01	30510.64
818.19	30045.75
818.37	30453.30
818.54	30037.56
818.72	29883.96
818.90	30430.77
819.08	30225.97
819.26	29959.73
819.44	30066.23
819.62	29812.28
819.80	29969.97
819.97	30381.62
820.15	30191.16
820.33	30033.46
820.51	30027.32
820.69	29746.75
820.87	29673.02
821.05	30113.33
821.22	29642.30
821.40	29752.89
821.58	29589.05
821.76	29554.24
821.94	29734.46
822.12	29494.85
822.29	29404.74
822.47	29460.03
822.65	29617.72
822.83	29419.07
823.01	29394.50
823.19	29189.70
823.36	29136.45
823.54	28945.99
823.72	28935.75
823.90	29048.39
824.08	28851.78
824.25	29161.03
824.43	28749.39
824.61	29060.68
824.79	28722.76
824.97	28624.46
825.15	28829.26
825.32	28925.51
825.50	28505.68
825.68	28692.04
825.86	28382.80
826.04	28632.65
826.21	28612.17
826.39	28608.08
826.57	28546.64
826.75	28497.49
826.93	28206.67
827.10	28335.70
827.28	28286.54
827.46	28296.78
827.64	28208.72
827.81	28030.55
827.99	28223.06
828.17	28038.74
828.35	27842.14
828.53	28145.23
828.70	27715.16
828.88	27801.18
829.06	28323.41
829.24	28108.37
829.41	27854.42
829.59	27649.63
829.77	27829.85
829.95	27844.18
830.12	27631.19
830.30	27956.82
830.48	27627.10
830.66	27629.15
830.84	27850.33
831.01	27686.49
831.19	27389.53
831.37	27213.41
831.55	27166.31
831.72	27493.98
831.90	27512.41
832.08	27733.59
832.25	27256.42
832.43	27397.73
832.61	26973.80
832.79	27055.72
832.96	27082.34
833.14	27194.98
833.32	27340.38
833.50	27227.74
833.67	27350.62
833.85	27035.24
834.03	26560.11
834.20	27405.92
834.38	27000.42
834.56	26836.58
834.74	26447.47
834.91	26965.60
835.09	26572.39
835.27	26383.98
835.44	26572.39
835.62	26230.38
835.80	26510.96
835.98	26545.77
836.15	26218.10
836.33	26289.77
836.51	26470.00
836.68	26087.03
836.86	26191.47
837.04	26277.49
837.21	26306.16
837.39	26388.08
837.57	26209.90
837.75	26248.82
837.92	25941.62
838.10	26117.75
838.28	25570.94
838.45	26117.75
838.63	26226.29
838.81	25937.52
838.98	25896.56
839.16	25761.40
839.34	25654.90
839.51	25708.15
839.69	25382.52
839.87	25462.40
840.04	25560.70
840.22	25996.92
840.40	25446.01
840.57	25413.24
840.75	25792.12
840.93	25241.21
841.10	25517.69
841.28	25644.66
841.46	25339.52
841.63	25691.77
841.81	25288.32
841.98	25521.79
842.16	25554.55
842.34	25106.05
842.51	24915.59
842.69	25462.40
842.87	25081.47
843.04	25288.32
843.22	25304.70
843.40	25265.79
843.57	25069.19
843.75	25101.95
843.92	25104.00
844.10	24954.50
844.28	25116.29
844.45	25095.81
844.63	24805.00
844.81	24534.67
844.98	25011.84
845.16	24876.68
845.33	25026.18
845.51	24718.98
845.69	24761.99
845.86	24477.32
846.04	24381.07
846.21	24606.34
846.39	24675.98
846.57	24460.94
846.74	24346.25
846.92	24196.75
847.09	24362.64
847.27	23973.52
847.45	24194.70
847.62	24321.68
847.80	24239.76
847.97	23926.42
848.15	24039.06
848.32	23950.99
848.50	23953.04
848.68	24026.77
848.85	24047.25
849.03	23867.03
849.20	23811.73
849.38	24141.46
849.56	23795.35
849.73	23426.71
849.91	23776.92
850.08	23899.80
850.26	23408.28
850.43	23668.37
850.61	23615.13
850.78	23680.66
850.96	23801.49
851.14	23371.42
851.31	23602.84
851.49	23375.52
851.66	23580.31
851.84	23613.08
852.01	23568.02
852.19	23463.58
852.36	23232.16
852.54	23250.59
852.71	23068.32
852.89	23199.39
853.07	23420.57
853.24	22961.83
853.42	23146.14
853.59	22810.28
853.77	22869.67
853.94	23006.88
854.12	23096.99
854.29	22980.26
854.47	23076.51
854.64	22877.86
854.82	23070.37
854.99	23164.57
855.17	22763.17
855.34	22677.16
855.52	22771.36
855.69	22765.22
855.87	22544.04
856.04	22470.31
856.22	22560.42
856.39	22402.73
856.57	22793.89
856.74	22382.25
856.92	22681.25
857.09	22279.85
857.27	22562.47
857.44	22671.01
857.62	22580.90
857.79	22372.01
857.97	22197.93
858.14	22273.71
858.32	22400.68
858.49	22376.11
858.67	22189.74
858.84	22214.32
859.02	21995.18
859.19	22091.44
859.37	21661.37
859.54	21675.70
859.72	22142.64
859.89	21931.70
860.06	21886.64
860.24	21675.70
860.41	21900.98
860.59	21460.66
860.76	21751.48
860.94	21747.38
861.11	21907.12
861.29	21864.11
861.46	21776.05
861.64	21694.13
861.81	21669.56
861.98	21542.58
862.16	21499.58
862.33	21384.89
862.51	21192.38
862.68	21743.28
862.86	21243.58
863.03	21300.92
863.21	21366.46
863.38	21280.44
863.55	21284.54
863.73	21202.62
863.90	21360.31
864.08	20983.49
864.25	21262.01
864.43	21028.54
864.60	20942.53
864.77	20719.30
864.95	20926.14
865.12	21038.78
865.30	20629.19
865.47	20967.10
865.64	20917.95
865.82	21010.11
865.99	21040.83
866.17	20491.98
866.34	20704.96
866.51	20453.06
866.69	20829.89
866.86	20471.50
867.04	20633.29
867.21	20508.36
867.38	20268.75
867.56	20231.88
867.73	20293.32
867.91	20350.67
868.08	20307.66
868.25	20352.71
868.43	20317.90
868.60	20375.24
868.78	20166.35
868.95	20203.21
869.12	20037.33
869.30	20033.23
869.47	20092.62
869.64	19893.97
869.82	19994.32
869.99	19902.16
870.16	19926.74
870.34	20090.57
870.51	20127.44
870.69	19451.61
870.86	19680.98
871.03	19752.66
871.21	19513.05
871.38	19812.05
871.55	19482.33
871.73	19570.39
871.90	19443.42
872.07	19386.07
872.25	19420.89
872.42	19211.99
872.59	19285.72
872.77	19400.41
872.94	19283.67
873.11	19205.85
873.29	19498.71
873.46	19224.28
873.63	18894.56
873.81	19154.65
873.98	18708.19
874.15	18896.61
874.33	18714.34
874.50	18710.24
874.67	18915.04
874.85	18859.74
875.02	18659.04
875.19	18589.41
875.37	18734.82
875.54	18865.89
875.71	18628.32
875.88	18415.34
876.06	18517.73
876.23	18413.29
876.40	18251.50
876.58	18126.57
876.75	18370.28
876.92	18108.14
877.10	18196.20
877.27	18114.28
877.44	18202.35
877.61	18030.32
877.79	17985.26
877.96	17864.43
878.13	18216.68
878.31	18032.36
878.48	17997.55
878.65	17729.27
878.82	17987.31
879.00	18005.74
879.17	17809.14
879.34	17723.12
879.51	17680.11
879.69	17553.14
879.86	17559.28
880.03	17561.33
880.21	17395.45
880.38	17469.17
880.55	17573.62
880.72	17409.78
880.90	17370.87
881.07	17352.44
881.24	17454.84
881.41	17327.86
881.59	17407.73
881.76	17307.38
881.93	17078.01
882.10	17086.20
882.28	17069.82
882.45	17213.18
882.62	17057.53
882.79	17245.94
882.96	16912.13
883.14	17024.76
883.31	17049.34
883.48	17035.00
883.65	17084.16
883.83	17073.92
884.00	16903.93
884.17	16873.21
884.34	17219.32
884.51	17049.34
884.69	16807.68
884.86	16936.70
885.03	16826.11
885.20	16707.33
885.38	16938.75
885.55	16633.60
885.72	16664.32
885.89	16367.37
886.06	16795.39
886.24	16477.96
886.41	16449.28
886.58	16764.67
886.75	16729.86
886.92	16189.19
887.10	16766.72
887.27	16279.30
887.44	16549.64
887.61	16604.93
887.78	16600.83
887.95	16287.50
888.13	16504.58
888.30	16058.12
888.47	16264.97
888.64	16236.30
888.81	16299.78
888.99	16201.48
889.16	16074.51
889.33	15875.85
889.50	16156.43
889.67	15970.06
889.84	16023.31
890.01	16158.47
890.19	15953.68
890.36	15965.96
890.53	16172.81
890.70	15763.22
890.87	15632.15
891.04	15910.67
891.22	15832.85
891.39	15554.32
891.56	15611.67
891.73	15630.10
891.90	15574.80
892.07	15316.76
892.24	15605.52
892.42	15490.84
892.59	15658.77
892.76	15374.10
892.93	15582.99
893.10	15517.46
893.27	15468.31
893.44	15210.26
893.61	15093.53
893.79	15515.41
893.96	15095.58
894.13	15382.29
894.30	15550.23
894.47	15300.37
894.64	15327.00
894.81	15398.68
894.98	15439.64
895.15	15294.23
895.33	15298.33
895.50	15181.59
895.67	15281.94
895.84	15415.06
896.01	15226.65
896.18	15042.33
896.35	15167.26
896.52	15040.28
896.69	15265.56
896.86	15265.56
897.04	15300.37
897.21	15304.47
897.38	14917.40
897.55	15200.02
897.72	15380.25
897.89	15273.75
898.06	15030.04
898.23	15107.87
898.40	15318.81
898.57	15052.57
898.74	15087.39
898.91	15101.72
899.08	15161.11
899.26	14946.08
899.43	15075.10
899.60	14823.20
899.77	15021.85
899.94	14921.50
900.11	15122.20
900.28	14837.53
900.45	15005.47
900.62	14974.75
900.79	15101.72
900.96	14892.83
901.13	15187.74
901.30	14868.25
901.47	14858.01
901.64	15120.15
901.81	15025.95
901.98	14933.79
902.15	15097.63
902.32	14817.05
902.49	14995.23
902.66	15183.64
902.83	14802.72
903.01	14964.51
903.18	14903.07
903.35	14890.78
903.52	14593.83
903.69	14819.10
903.86	14984.99
904.03	14853.92
904.20	14874.40
904.37	15001.37
904.54	14901.02
904.71	14765.85
904.88	14913.31
905.05	14692.13
905.22	15120.15
905.39	14956.32
905.56	14815.01
905.73	14884.64
905.90	14718.75
906.07	14782.24
906.24	14993.18
906.41	14544.67
906.58	14884.64
906.75	14737.18
906.92	14718.75
907.09	14688.03
907.26	14767.90
907.43	14653.22
907.60	14894.88
907.77	14872.35
907.93	14892.83
908.10	14790.43
908.27	14884.64
908.44	14724.90
908.61	14892.83
908.78	14645.02
908.95	14800.67
909.12	14784.29
909.29	14669.60
909.46	14423.84
909.63	14575.39
909.80	14604.07
909.97	14651.17
910.14	14798.62
910.31	14563.11
910.48	14698.27
910.65	14524.19
910.82	14544.67
910.99	14550.82
911.16	14425.89
911.33	14692.13
911.50	14542.63
911.66	14495.52
911.83	14552.87
912.00	14362.40
912.17	14288.68
912.34	14581.54
912.51	14516.00
912.68	14235.43
912.85	14335.78
913.02	14303.01
913.19	14284.58
913.36	14153.51
913.53	14429.99
913.70	14122.79
913.86	14266.15
914.03	14092.07
914.20	14098.22
914.37	14038.83
914.54	14190.38
914.71	14096.17
914.88	14157.61
915.05	14032.68
915.22	13942.57
915.39	13864.75
915.55	14020.39
915.72	13860.65
915.89	13668.14
916.06	13772.59
916.23	13662.00
916.40	13741.87
916.57	13596.46
916.74	13776.69
916.91	13709.10
917.07	13608.75
917.24	13481.78
917.41	13516.59
917.58	13479.73
917.75	13387.57
917.92	13606.70
918.09	13483.83
918.26	13166.39
918.42	13565.74
918.59	13350.71
918.76	13252.41
918.93	13260.60
919.10	13084.47
919.27	13201.21
919.44	13313.84
919.60	13174.58
919.77	13209.40
919.94	12767.04
920.11	12959.55
920.28	13068.09
920.45	12873.53
920.61	12769.09
920.78	12975.93
920.95	12914.49
921.12	12607.30
921.29	12754.75
921.46	12668.73
921.62	12527.42
921.79	12615.49
921.96	12508.99
922.13	12545.86
922.30	12363.59
922.47	12289.86
922.63	12214.09
922.80	11988.81
922.97	12197.70
923.14	11997.00
923.31	12107.59
923.47	12095.30
923.64	12253.00
923.81	12035.91
923.98	12056.39
924.15	11829.07
924.32	12218.18
924.48	11865.93
924.65	11857.74
924.82	11702.09
924.99	11659.09
925.15	11749.20
925.32	11630.41
925.49	11487.06
925.66	11665.23
925.83	11472.72
925.99	11568.98
926.16	11675.47
926.33	11345.75
926.50	11360.08
926.67	11439.95
926.83	11282.26
927.00	11427.67
927.17	11077.46
927.34	11257.68
927.50	11325.27
927.67	11245.40
927.84	11007.83
928.01	11136.85
928.17	10938.20
928.34	10979.16
928.51	10895.19
928.68	10641.25
928.84	10915.67
929.01	10448.74
929.18	10620.77
929.35	10696.54
929.51	10571.61
929.68	10481.50
929.85	10501.98
930.02	10530.66
930.18	10334.05
930.35	10469.22
930.52	10338.15
930.69	10458.98
930.85	10323.81
931.02	10239.84
931.19	10112.87
931.36	10200.93
931.52	10211.17
931.69	10176.36
931.86	10030.95
932.02	9875.31
932.19	9949.03
932.36	9848.68
932.53	9934.70
932.69	9846.63
932.86	10022.76
933.03	9803.63
933.19	9678.70
933.36	9774.95
933.53	9656.17
933.70	9461.62
933.86	9529.20
934.03	9486.19
934.20	9226.10
934.36	9359.22
934.53	9142.13
934.70	9183.09
934.86	9125.75
935.03	8949.62
935.20	9076.60
935.36	8892.28
935.53	8914.81
935.70	8812.41
935.86	8826.75
936.03	8673.15
936.20	8544.13
936.36	8474.49
936.53	8527.74
936.70	8306.56
936.86	8415.10
937.03	8157.06
937.20	8173.44
937.36	8204.16
937.53	7870.34
937.70	7927.69
937.86	7634.83
938.03	7931.78
938.20	7853.96
938.36	7536.52
938.53	7610.25
938.70	7397.26
938.86	7460.75
939.03	7544.72
939.20	7358.35
939.36	7206.80
939.53	7133.08
939.70	7368.59
939.86	6909.85
940.03	6733.72
940.19	6776.73
940.36	6768.54
940.53	6576.03
940.69	6514.59
940.86	6580.12
941.03	6535.07
941.19	6371.23
941.36	6481.82
941.52	6221.73
941.69	6115.23
941.86	6268.83
942.02	6191.01
942.19	6051.75
942.35	6088.61
942.52	5975.97
942.69	5975.97
942.85	5836.71
943.02	5859.24
943.18	5984.16
943.35	5803.94
943.52	5791.66
943.68	5717.93
943.85	5558.19
944.01	5556.14
944.18	5627.82
944.35	5658.54
944.51	5453.74
944.68	5418.93
944.84	5521.32
945.01	5474.22
945.17	5504.94
945.34	5490.60
945.51	5312.43
945.67	5271.47
945.84	5392.30
946.00	5425.07
946.17	5242.80
946.33	5341.10
946.50	5242.80
946.67	5259.18
946.83	5353.39
947.00	5318.57
947.16	5322.67
947.33	5318.57
947.49	5361.58
947.66	5267.38
947.82	5185.46
947.99	5244.85
948.16	5287.86
948.32	5287.86
948.49	5353.39
948.65	5373.87
948.82	5214.13
948.98	5337.01
949.15	5326.77
949.31	5250.99
949.48	5257.14
949.64	5148.59
949.81	5316.53
949.97	5332.91
950.14	5443.50
950.30	5326.77
950.47	5353.39
950.63	5191.60
950.80	5203.89
950.96	5255.09
951.13	5150.64
951.30	5298.10
951.46	5306.29
951.63	5363.63
951.79	5205.94
951.96	5463.98
952.12	5468.08
952.29	5355.44
952.45	5330.86
952.62	5392.30
952.78	5470.12
952.94	5398.45
953.11	5402.54
953.27	5386.16
953.44	5443.50
953.60	5451.69
953.77	5445.55
953.93	5400.49
954.10	5386.16
954.26	5425.07
954.43	5427.12
954.59	5492.65
954.76	5556.14
954.92	5484.46
955.09	5423.02
955.25	5263.28
955.42	5369.77
955.58	5509.04
955.75	5486.51
955.91	5453.74
956.07	5427.12
956.24	5545.90
956.40	5500.84
956.57	5560.24
956.73	5320.62
956.90	5502.89
957.06	5500.84
957.23	5500.84
957.39	5476.27
957.56	5365.68
957.72	5373.87
957.88	5361.58
958.05	5550.00
958.21	5640.11
958.38	5629.87
958.54	5627.82
958.71	5593.00
958.87	5480.36
959.03	5480.36
959.20	5517.23
959.36	5490.60
959.53	5423.02
959.69	5509.04
959.85	5453.74
960.02	5420.97
960.18	5500.84
960.35	5478.32
960.51	5566.38
960.68	5435.31
960.84	5420.97
961.00	5490.60
961.17	5363.63
961.33	5484.46
961.50	5539.76
961.66	5550.00
961.82	5488.56
961.99	5552.04
962.15	5423.02
962.31	5304.24
962.48	5431.21
962.64	5525.42
962.81	5498.80
962.97	5412.78
963.13	5492.65
963.30	5365.68
963.46	5347.25
963.62	5418.93
963.79	5347.25
963.95	5349.29
964.12	5334.96
964.28	5556.14
964.44	5294.00
964.61	5480.36
964.77	5375.92
964.93	5443.50
965.10	5369.77
965.26	5425.07
965.42	5326.77
965.59	5302.19
965.75	5468.08
965.92	5390.25
966.08	5359.53
966.24	5377.97
966.41	5250.99
966.57	5468.08
966.73	5181.36
966.90	5357.49
967.06	5332.91
967.22	5332.91
967.39	5283.76
967.55	5234.61
967.71	5384.11
967.88	5404.59
968.04	5224.37
968.20	5169.07
968.37	5171.12
968.53	5326.77
968.69	5218.22
968.85	5214.13
969.02	5310.38
969.18	5324.72
969.34	5203.89
969.51	5310.38
969.67	5107.63
969.83	5175.22
970.00	5197.74
970.16	5214.13
970.32	5234.61
970.48	5281.71
970.65	5005.24
970.81	5058.48
970.97	4999.09
971.14	5097.39
971.30	5171.12
971.46	5091.25
971.63	5044.15
971.79	5060.53
971.95	4951.99
972.11	5074.87
972.28	5011.38
972.44	5023.67
972.60	4878.26
972.76	4935.60
972.93	4904.89
973.09	4941.75
973.25	4972.47
973.42	4890.55
973.58	5021.62
973.74	5015.48
973.90	4937.65
974.07	4841.40
974.23	4966.32
974.39	4919.22
974.55	4818.87
974.72	4829.11
974.88	4716.47
975.04	4917.17
975.20	4687.80
975.37	4816.82
975.53	4753.34
975.69	4704.18
975.85	4706.23
976.01	4951.99
976.18	4702.14
976.34	4777.91
976.50	4927.41
976.66	4818.87
976.83	4874.17
976.99	4745.14
977.15	4876.21
977.31	4726.71
977.47	4779.96
977.64	4757.43
977.80	4650.94
977.96	4761.53
978.12	4626.36
978.29	4671.42
978.45	4607.93
978.61	4648.89
978.77	4687.80
978.93	4632.51
979.10	4577.21
979.26	4652.98
979.42	4566.97
979.58	4489.15
979.74	4534.20
979.91	4538.30
980.07	4585.40
980.23	4519.87
980.39	4394.94
980.55	4405.18
980.71	4583.35
980.88	4358.08
981.04	4370.37
981.20	4513.72
981.36	4472.76
981.52	4362.17
981.68	4224.96
981.85	4526.01
982.01	4405.18
982.17	4317.12
982.33	4356.03
982.49	4435.90
982.65	4446.14
982.82	4351.93
982.98	4407.23
983.14	4345.79
983.30	4286.40
983.46	4358.08
983.62	4306.88
983.79	4284.35
983.95	4274.11
984.11	4231.10
984.27	4413.37
984.43	4159.42
984.59	4315.07
984.75	4237.25
984.91	4386.75
985.08	4159.42
985.24	4140.99
985.40	4020.16
985.56	4296.64
985.72	4239.30
985.88	4276.16
986.04	4181.95
986.20	4128.70
986.37	4188.10
986.53	4132.80
986.69	4214.72
986.85	4126.66
987.01	4069.31
987.17	4116.42
987.33	4038.59
987.49	4026.31
987.65	4130.75
987.82	4054.98
987.98	4020.16
988.14	4052.93
988.30	3950.53
988.46	3944.39
988.62	3887.04
988.78	3854.28
988.94	3895.24
989.10	3854.28
989.26	3903.43
989.42	3948.48
989.59	3854.28
989.75	3907.52
989.91	3870.66
990.07	3889.09
990.23	3821.51
990.39	3850.18
990.55	3880.90
990.71	3768.26
990.87	3710.92
991.03	3852.23
991.19	3872.71
991.35	3844.04
991.51	3878.85
991.67	3985.35
991.83	3831.75
992.00	3805.13
992.16	3893.19
992.32	3805.13
992.48	3715.02
992.64	3778.50
992.80	3667.91
992.96	3813.32
993.12	3827.65
993.28	3782.60
993.44	3741.64
993.60	3762.12
993.76	3684.30
993.92	3686.34
994.08	3665.86
994.24	3702.73
994.40	3715.02
994.56	3712.97
994.72	3610.57
994.88	3579.85
995.04	3542.99
995.20	3653.58
995.36	3649.48
995.52	3540.94
995.68	3663.82
995.84	3526.60
996.00	3663.82
996.16	3545.03
996.32	3479.50
996.48	3542.99
996.64	3649.48
996.80	3502.03
996.96	3569.61
997.12	3547.08
997.28	3403.72
997.44	3465.16
997.60	3411.92
997.76	3456.97
997.92	3461.07
998.08	3508.17
998.24	3395.53
998.40	3411.92
998.56	3401.68
998.72	3270.61
998.88	3323.85
999.04	3428.30
999.20	3469.26
999.36	3252.17
999.52	3418.06
999.68	3387.34
999.84	3391.44
1000.00	3254.22
1000.16	3346.38
1000.32	3235.79
1000.48	3354.57
1000.64	3186.64
1000.80	3182.54
1000.95	3293.13
1001.11	3231.69
1001.27	3151.82
1001.43	3354.57
1001.59	3229.65
1001.75	3227.60
1001.91	3282.89
1002.07	3268.56
1002.23	3207.12
1002.39	3182.54
1002.55	3211.22
1002.71	3270.61
1002.87	3164.11
1003.03	3100.62
1003.19	3110.86
1003.34	3276.75
1003.50	3127.25
1003.66	3174.35
1003.82	3020.75
1003.98	3028.95
1004.14	3162.06
1004.30	3100.62
1004.46	3082.19
1004.62	3088.34
1004.78	3108.82
1004.94	3049.43
1005.09	3043.28
1005.25	3018.71
1005.41	3016.66
1005.57	2990.03
1005.73	3006.42
1005.89	2981.84
1006.05	3076.05
1006.21	2934.74
1006.37	2885.59
1006.52	2938.84
1006.68	2809.81
1006.84	2944.98
1007.00	2928.60
1007.16	3016.66
1007.32	2895.83
1007.48	2836.44
1007.64	2861.01
1007.79	2863.06
1007.95	2901.97
1008.11	3086.29
1008.27	2914.26
1008.43	2822.10
1008.59	2912.21
1008.75	2852.82
1008.91	2938.84
1009.06	2809.81
1009.22	2897.88
1009.38	2852.82
1009.54	2852.82
1009.70	2748.37
1009.86	2807.77
1010.01	2832.34
1010.17	2815.96
1010.33	2994.13
1010.49	2928.60
1010.65	2887.64
1010.81	2654.17
1010.96	2688.98
1011.12	2693.08
1011.28	2795.48
1011.44	2820.05
1011.60	2838.48
1011.76	2711.51
1011.91	2695.13
1012.07	2725.85
1012.23	2652.12
1012.39	2719.70
1012.55	2707.41
1012.71	2729.94
1012.86	2654.17
1013.02	2643.93
1013.18	2633.69
1013.34	2748.37
1013.50	2680.79
1013.65	2717.65
1013.81	2658.26
1013.97	2633.69
1014.13	2742.23
1014.29	2615.26
1014.44	2568.15
1014.60	2605.02
1014.76	2617.30
1014.92	2609.11
1015.07	2600.92
1015.23	2576.34
1015.39	2455.51
1015.55	2420.70
1015.71	2566.10
1015.86	2586.58
1016.02	2557.91
1016.18	2430.94
1016.34	2578.39
1016.49	2496.47
1016.65	2619.35
1016.81	2557.91
1016.97	2529.24
1017.12	2562.01
1017.28	2527.19
1017.44	2465.75
1017.60	2539.48
1017.75	2535.39
1017.91	2545.63
1018.07	2402.27
1018.23	2488.28
1018.38	2480.09
1018.54	2480.09
1018.70	2473.95
1018.86	2369.50
1019.01	2406.36
1019.17	2482.14
1019.33	2465.75
1019.49	2402.27
1019.64	2541.53
1019.80	2381.79
1019.96	2465.75
1020.12	2631.64
1020.27	2361.31
1020.43	2338.78
1020.59	2361.31
1020.74	2338.78
1020.90	2428.89
1021.06	2398.17
1021.22	2379.74
1021.37	2437.08
1021.53	2289.63
1021.69	2334.68
1021.84	2365.40
1022.00	2359.26
1022.16	2320.35
1022.31	2265.05
1022.47	2392.03
1022.63	2377.69
1022.79	2240.48
1022.94	2285.53
1023.10	2316.25
1023.26	2289.63
1023.41	2254.81
1023.57	2306.01
1023.73	2369.50
1023.88	2293.72
1024.04	2291.68
1024.20	2240.48
1024.35	2275.29
1024.51	2217.95
1024.67	2238.43
1024.82	2240.48
1024.98	2160.61
1025.14	2271.20
1025.29	2242.53
1025.45	2260.96
1025.61	2125.79
1025.76	2174.94
1025.92	2293.72
1026.08	2279.39
1026.23	2263.01
1026.39	2322.40
1026.55	2162.66
1026.70	2158.56
1026.86	2113.50
1027.02	2244.57
1027.17	2263.01
1027.33	2111.46
1027.48	2099.17
1027.64	2166.75
1027.80	2123.74
1027.95	2273.25
1028.11	2136.03
1028.27	2181.09
1028.42	2148.32
1028.58	2101.22
1028.73	2097.12
1028.89	2072.54
1029.05	2150.37
1029.20	2099.17
>>>>>End Processed Spectral Data<<<<<
