SpectraSuite Data File
++++++++++++++++++++++++++++++++++++
Date: Fri Jun 02 14:47:56 CEST 2017
User: INFO_000
Dark Spectrum Present: No
Reference Spectrum Present: No
Number of Sampled Component Spectra: 1
Spectrometers: USB4H00879
Integration Time (usec): 80000 (USB4H00879)
Spectra Averaged: 1 (USB4H00879)
Boxcar Smoothing: 0 (USB4H00879)
Correct for Electrical Dark: No (USB4H00879)
Strobe/Lamp Enabled: No (USB4H00879)
Correct for Detector Non-linearity: No (USB4H00879)
Correct for Stray Light: No (USB4H00879)
Number of Pixels in Processed Spectrum: 3648
>>>>>Begin Processed Spectral Data<<<<<
345.13	1335.28
345.34	1335.28
345.56	1335.28
345.78	1312.75
345.99	1316.84
346.21	1603.56
346.42	1732.58
346.64	1591.27
346.86	1779.68
347.07	1687.53
347.29	1810.40
347.50	1669.09
347.72	1603.56
347.94	1759.21
348.15	1548.26
348.37	1689.57
348.59	1691.62
348.80	1697.77
349.02	1777.64
349.23	1847.27
349.45	1796.07
349.67	1966.05
349.88	1779.68
350.10	1974.24
350.31	1851.36
350.53	1834.98
350.75	1947.62
350.96	1781.73
351.18	1794.02
351.39	1847.27
351.61	1769.44
351.82	1943.52
352.04	1974.24
352.26	1830.88
352.47	1839.08
352.69	1912.80
352.90	1767.40
353.12	1849.32
353.34	1769.44
353.55	1939.43
353.77	1890.28
353.98	1855.46
354.20	1865.70
354.41	1970.15
354.63	1820.64
354.85	2009.06
355.06	1920.99
355.28	1765.35
355.49	1916.90
355.71	1931.23
355.92	1832.93
356.14	1884.13
356.35	1910.75
356.57	1900.52
356.79	1953.76
357.00	1888.23
357.22	1925.09
357.43	1902.56
357.65	1951.71
357.86	1851.36
358.08	1920.99
358.29	1912.80
358.51	1918.95
358.72	1990.63
358.94	1863.65
359.16	1920.99
359.37	1951.71
359.59	1992.67
359.80	1927.14
360.02	1931.23
360.23	1908.71
360.45	1972.19
360.66	1896.42
360.88	1902.56
361.09	2019.30
361.31	2002.91
361.52	1988.58
361.74	1994.72
361.95	2111.46
362.17	1935.33
362.38	2119.65
362.60	2039.78
362.81	1923.04
363.03	1935.33
363.24	2007.01
363.46	2058.21
363.67	1978.34
363.89	2017.25
364.10	2027.49
364.32	1980.39
364.53	2019.30
364.75	1951.71
364.96	2000.87
365.18	1966.05
365.39	1972.19
365.61	1982.43
365.82	2142.18
366.04	1943.52
366.25	1904.61
366.47	2105.31
366.68	2033.63
366.90	1990.63
367.11	2037.73
367.33	2078.69
367.54	1998.82
367.76	2027.49
367.97	2109.41
368.19	2068.45
368.40	2023.39
368.62	1939.43
368.83	2017.25
369.05	2101.22
369.26	2021.35
369.48	1953.76
369.69	1947.62
369.91	2076.64
370.12	1959.91
370.33	2129.89
370.55	1920.99
370.76	2052.06
370.98	2078.69
371.19	2080.74
371.41	2074.59
371.62	2123.74
371.84	2027.49
372.05	2101.22
372.27	2058.21
372.48	2043.87
372.69	2115.55
372.91	2199.52
373.12	2160.61
373.34	2066.40
373.55	2080.74
373.77	2140.13
373.98	2146.27
374.20	2138.08
374.41	2207.71
374.62	2133.98
374.84	2117.60
375.05	2113.50
375.27	2176.99
375.48	2088.93
375.70	2217.95
375.91	2226.14
376.12	2187.23
376.34	2158.56
376.55	2152.42
376.77	2293.72
376.98	2123.74
377.19	2144.22
377.41	2123.74
377.62	2156.51
377.84	2250.72
378.05	2269.15
378.27	2174.94
378.48	2283.49
378.69	2410.46
378.91	2303.96
379.12	2295.77
379.34	2269.15
379.55	2244.57
379.76	2197.47
379.98	2228.19
380.19	2185.18
380.41	2287.58
380.62	2377.69
380.83	2277.34
381.05	2123.74
381.26	2367.45
381.47	2150.37
381.69	2279.39
381.90	2418.65
382.12	2189.28
382.33	2240.48
382.54	2281.44
382.76	2392.03
382.97	2312.16
383.19	2252.77
383.40	2322.40
383.61	2289.63
383.83	2277.34
384.04	2324.44
384.25	2363.36
384.47	2463.71
384.68	2459.61
384.89	2306.01
385.11	2318.30
385.32	2396.12
385.54	2449.37
385.75	2314.20
385.96	2437.08
386.18	2430.94
386.39	2414.56
386.60	2318.30
386.82	2379.74
387.03	2484.19
387.24	2469.85
387.46	2508.76
387.67	2525.15
387.88	2486.23
388.10	2445.27
388.31	2506.71
388.52	2490.33
388.74	2461.66
388.95	2535.39
389.16	2547.67
389.38	2365.40
389.59	2566.10
389.80	2641.88
390.02	2535.39
390.23	2633.69
390.44	2484.19
390.66	2543.58
390.87	2443.23
391.08	2564.06
391.30	2609.11
391.51	2674.65
391.72	2631.64
391.94	2691.03
392.15	2664.41
392.36	2662.36
392.58	2605.02
392.79	2594.78
393.00	2721.75
393.22	2795.48
393.43	2799.57
393.64	2785.24
393.85	2750.42
394.07	2637.78
394.28	2715.61
394.49	2750.42
394.71	2762.71
394.92	2815.96
395.13	2764.76
395.35	2674.65
395.56	2734.04
395.77	2738.13
395.98	2818.00
396.20	2936.79
396.41	2791.38
396.62	2867.16
396.84	2777.05
397.05	2762.71
397.26	2875.35
397.47	2934.74
397.69	2789.33
397.90	2967.51
398.11	2842.58
398.32	2830.29
398.54	2785.24
398.75	2822.10
398.96	2912.21
399.18	3041.23
399.39	2899.92
399.60	2975.70
399.81	2969.55
400.03	2990.03
400.24	3256.27
400.45	2967.51
400.66	2987.99
400.88	3076.05
401.09	3149.78
401.30	3051.47
401.51	3172.30
401.73	3125.20
401.94	3098.58
402.15	3100.62
402.36	3090.38
402.58	3104.72
402.79	3227.60
403.00	3131.34
403.21	3106.77
403.43	3106.77
403.64	3196.88
403.85	3076.05
404.06	3184.59
404.27	3145.68
404.49	3219.41
404.70	3200.98
404.91	3325.90
405.12	3289.04
405.34	3362.76
405.55	3377.10
405.76	3139.54
405.97	3221.45
406.19	3393.48
406.40	3135.44
406.61	3272.65
406.82	3254.22
407.03	3207.12
407.25	3186.64
407.46	3319.76
407.67	3405.77
407.88	3444.68
408.09	3299.28
408.31	3250.13
408.52	3461.07
408.73	3446.73
408.94	3403.72
409.15	3424.20
409.37	3479.50
409.58	3497.93
409.79	3491.79
410.00	3479.50
410.21	3280.85
410.43	3510.22
410.64	3502.03
410.85	3467.21
411.06	3534.79
411.27	3643.34
411.48	3684.30
411.70	3456.97
411.91	3682.25
412.12	3626.95
412.33	3643.34
412.54	3649.48
412.76	3733.45
412.97	3698.63
413.18	3561.42
413.39	3616.71
413.60	3823.56
413.81	3661.77
414.03	3575.75
414.24	3704.78
414.45	3825.61
414.66	3608.52
414.87	3860.42
415.08	3788.74
415.30	3633.10
415.51	3809.22
415.72	3690.44
415.93	3649.48
416.14	3852.23
416.35	3837.89
416.56	3796.93
416.78	3813.32
416.99	3878.85
417.20	3819.46
417.41	3958.72
417.62	3788.74
417.83	4024.26
418.04	3878.85
418.26	3899.33
418.47	3850.18
418.68	4077.51
418.89	3975.11
419.10	4065.22
419.31	4001.73
419.52	4040.64
419.73	4083.65
419.95	4009.92
420.16	3977.16
420.37	4061.12
420.58	4034.50
420.79	4093.89
421.00	4036.55
421.21	4220.86
421.42	4112.32
421.63	4079.55
421.85	4192.19
422.06	4212.67
422.27	4204.48
422.48	4212.67
422.69	4245.44
422.90	4145.09
423.11	4210.62
423.32	4294.59
423.53	4368.32
423.75	4290.49
423.96	4372.41
424.17	4374.46
424.38	4542.39
424.59	4267.97
424.80	4528.06
425.01	4415.42
425.22	4333.50
425.43	4333.50
425.64	4700.09
425.85	4591.55
426.06	4614.07
426.28	4519.87
426.49	4401.08
426.70	4425.66
426.91	4454.33
427.12	4622.27
427.33	4597.69
427.54	4573.11
427.75	4575.16
427.96	4683.70
428.17	4657.08
428.38	4712.38
428.59	4820.92
428.80	4716.47
429.01	4753.34
429.23	4741.05
429.44	4956.08
429.65	5038.00
429.86	4898.74
430.07	4923.32
430.28	4831.16
430.49	4896.69
430.70	5162.93
430.91	5040.05
431.12	4861.88
431.33	5109.68
431.54	5146.55
431.75	4964.28
431.96	5115.83
432.17	5068.72
432.38	4962.23
432.59	5420.97
432.80	5162.93
433.01	5111.73
433.22	5232.56
433.43	5287.86
433.64	5267.38
433.85	5119.92
434.06	5207.98
434.27	5224.37
434.49	5242.80
434.70	5363.63
434.91	5320.62
435.12	5455.79
435.33	5310.38
435.54	5466.03
435.75	5214.13
435.96	5410.73
436.17	5363.63
436.38	5593.00
436.59	5599.15
436.80	5478.32
437.01	5810.09
437.22	5629.87
437.43	5703.59
437.64	5418.93
437.85	5666.73
438.06	5662.63
438.27	5461.93
438.48	5750.70
438.69	5889.96
438.90	5799.85
439.11	5611.43
439.32	5885.86
439.53	5783.46
439.74	5861.29
439.95	5967.78
440.16	5939.11
440.37	5935.01
440.57	5808.04
440.78	5935.01
440.99	5973.92
441.20	6127.52
441.41	5912.49
441.62	6205.35
441.83	6000.55
442.04	6129.57
442.25	6172.58
442.46	5914.53
442.67	6234.02
442.88	6545.31
443.09	6092.71
443.30	6154.15
443.51	6184.87
443.72	6557.60
443.93	6158.24
444.14	6457.25
444.35	6094.76
444.56	6440.86
444.77	6326.18
444.98	6399.90
445.19	6348.70
445.40	6211.49
445.61	6344.61
445.81	6567.84
446.02	6594.46
446.23	6434.72
446.44	6266.78
446.65	6490.01
446.86	6518.68
447.07	6553.50
447.28	6868.89
447.49	6631.32
447.70	6645.66
447.91	6703.00
448.12	6651.80
448.33	6676.38
448.54	6821.78
448.74	6662.04
448.95	6774.68
449.16	6682.52
449.37	7083.92
449.58	6778.78
449.79	7008.15
450.00	6678.43
450.21	6991.77
450.42	7155.60
450.63	6991.77
450.84	6856.60
451.05	6913.94
451.25	6922.13
451.46	7014.29
451.67	7167.89
451.88	7307.15
452.09	7133.08
452.30	7047.06
452.51	6985.62
452.72	7327.63
452.93	7495.57
453.13	7192.47
453.34	7210.90
453.55	7448.46
453.76	7348.11
453.97	7622.54
454.18	7636.88
454.39	7440.27
454.60	7460.75
454.81	7460.75
455.01	7698.31
455.22	7313.30
455.43	7671.69
455.64	7733.13
455.85	7853.96
456.06	7886.73
456.27	7860.10
456.48	7661.45
456.68	7757.71
456.89	7872.39
457.10	7899.02
457.31	7847.82
457.52	7950.21
457.73	8101.76
457.94	8255.36
458.14	8038.28
458.35	8361.86
458.56	8228.74
458.77	8083.33
458.98	8132.48
459.19	8286.08
459.39	8144.77
459.60	8443.78
459.81	8069.00
460.02	8368.00
460.23	8411.01
460.44	8669.05
460.65	8458.11
460.85	8693.63
461.06	8546.17
461.27	8515.45
461.48	8800.12
461.69	8953.72
461.89	8386.43
462.10	8818.55
462.31	8685.44
462.52	8802.17
462.73	8728.44
462.94	9084.79
463.14	8984.44
463.35	8908.66
463.56	9295.73
463.77	9471.86
463.98	8863.61
464.18	9152.37
464.39	9371.50
464.60	9414.51
464.81	9652.08
465.02	9496.43
465.23	9590.64
465.43	9457.52
465.64	9635.69
465.85	9637.74
466.06	9443.18
466.27	9951.08
466.47	9852.78
466.68	9791.34
466.89	9785.19
467.10	10022.76
467.30	9647.98
467.51	10065.77
467.72	10123.11
467.93	9856.87
468.14	10184.55
468.34	10194.79
468.55	10358.63
468.76	10391.39
468.97	10344.29
469.17	10628.96
469.38	10508.13
469.59	10778.46
469.80	10573.66
470.01	10841.95
470.21	10645.34
470.42	11003.74
470.63	11136.85
470.84	10798.94
471.04	10977.11
471.25	11038.55
471.46	11099.99
471.67	11360.08
471.87	11456.34
472.08	11593.55
472.29	11669.33
472.50	11444.05
472.70	11599.70
472.91	11638.61
473.12	11716.43
473.33	11933.51
473.53	12099.40
473.74	11853.64
473.95	12089.16
474.16	12203.85
474.36	12183.37
474.57	12240.71
474.78	12527.42
474.99	12422.98
475.19	12449.60
475.40	12760.89
475.61	12803.90
475.81	12900.16
476.02	13219.64
476.23	12947.26
476.44	13129.53
476.64	13295.41
476.85	13838.12
477.06	13190.97
477.27	13420.34
477.47	13866.80
477.68	13616.94
477.89	13776.69
478.09	13811.50
478.30	14163.75
478.51	13965.10
478.71	14276.39
478.92	14128.94
479.13	14141.22
479.34	14403.36
479.54	14673.70
479.75	14524.19
479.96	14604.07
480.16	15042.33
480.37	14966.56
480.58	15038.23
480.78	15437.59
480.99	15171.35
481.20	15341.33
481.41	15521.56
481.61	15490.84
481.82	15691.54
482.03	15634.19
482.23	15722.26
482.44	15732.50
482.65	15890.19
482.85	16183.05
483.06	16047.88
483.27	16248.58
483.47	16121.61
483.68	16310.02
483.89	16441.09
484.09	16510.72
484.30	16492.29
484.51	16955.13
484.71	16752.38
484.92	17049.34
485.13	16944.89
485.33	17266.42
485.54	17123.07
485.75	17198.84
485.95	17426.17
486.16	17483.51
486.37	17712.88
486.57	17499.89
486.78	17633.01
486.98	17745.65
487.19	17805.04
487.40	18097.90
487.60	18163.43
487.81	18280.17
488.02	18112.24
488.22	18325.22
488.43	18476.77
488.64	18288.36
488.84	18575.08
489.05	18851.55
489.25	18697.95
489.46	18765.54
489.67	19197.66
489.87	19130.08
490.08	19175.13
490.29	19250.91
490.49	19627.73
490.70	19633.88
490.90	19601.11
491.11	19545.81
491.32	19713.75
491.52	19746.51
491.73	19502.81
491.94	19807.95
492.14	19805.91
492.35	20305.61
492.55	20123.34
492.76	20321.99
492.97	20422.34
493.17	20268.75
493.38	20520.65
493.58	20539.08
493.79	20895.43
494.00	20496.07
494.20	21006.02
494.41	20928.19
494.61	21118.65
494.82	21356.22
495.02	20958.91
495.23	21522.10
495.44	21358.27
495.64	21354.17
495.85	21184.19
496.05	21917.36
496.26	21487.29
496.47	21923.51
496.67	21366.46
496.88	21825.20
497.08	21429.94
497.29	21993.14
497.49	21812.92
497.70	22179.50
497.91	22238.89
498.11	22173.36
498.32	22294.19
498.52	22320.81
498.73	22718.12
498.93	22474.41
499.14	22546.09
499.34	22910.63
499.55	23019.17
499.76	22486.70
499.96	22705.83
500.17	23096.99
500.37	22709.93
500.58	22853.28
500.78	22838.95
500.99	23135.90
501.19	23314.08
501.40	22908.58
501.60	22888.10
501.81	23285.40
502.02	23326.36
502.22	23226.01
502.43	23385.76
502.63	23754.39
502.84	23766.68
503.04	23871.12
503.25	23871.12
503.45	23801.49
503.66	24258.19
503.86	24026.77
504.07	23940.75
504.27	24059.54
504.48	24460.94
504.68	24258.19
504.89	24524.43
505.09	24573.58
505.30	24477.32
505.50	24489.61
505.71	24704.65
505.91	24481.42
506.12	24567.43
506.32	24602.25
506.53	24929.92
506.73	25069.19
506.94	24880.77
507.14	24856.20
507.35	24823.43
507.55	25079.43
507.76	25142.91
507.96	25351.81
508.17	25009.79
508.37	25247.36
508.58	25069.19
508.78	25409.15
508.99	25652.86
509.19	25607.80
509.40	25732.73
509.60	25622.14
509.81	25847.41
510.01	25699.96
510.22	25835.13
510.42	25935.48
510.63	25955.96
510.83	26013.30
511.04	26011.25
511.24	26070.64
511.44	26134.13
511.65	26455.66
511.85	26306.16
512.06	26189.42
512.26	26326.64
512.47	26463.85
512.67	26359.41
512.88	26447.47
513.08	26359.41
513.29	26717.80
513.49	26926.69
513.69	26756.71
513.90	26666.60
514.10	26971.75
514.31	27117.15
514.51	27270.75
514.72	27117.15
514.92	27199.07
515.13	27303.52
515.33	27278.94
515.53	27582.04
515.74	27250.27
515.94	27797.08
516.15	27653.72
516.35	27305.57
516.56	27575.90
516.76	27864.66
516.96	27711.07
517.17	28278.35
517.37	27973.21
517.58	27969.11
517.78	27932.25
517.99	27831.90
518.19	28415.57
518.39	28304.98
518.60	28614.22
518.80	28591.69
519.01	28657.23
519.21	28640.84
519.41	28761.67
519.62	28882.50
519.82	29115.97
520.03	28644.94
520.23	28823.11
520.43	28821.06
520.64	29408.83
520.84	29576.76
521.05	29240.90
521.25	29453.89
521.45	29271.62
521.66	29939.26
521.86	29429.31
522.07	29476.41
522.27	29732.41
522.47	29601.34
522.68	29892.15
522.88	29947.45
523.08	30168.63
523.29	30154.29
523.49	30307.89
523.70	30246.45
523.90	30752.30
524.10	30428.72
524.31	30793.26
524.51	30287.41
524.71	31053.35
524.92	30613.04
525.12	31202.85
525.33	30934.57
525.53	30838.31
525.73	31217.19
525.94	31094.31
526.14	31397.41
526.34	31432.22
526.55	31403.55
526.75	31669.79
526.95	31931.93
527.16	32108.05
527.36	31970.84
527.56	32089.62
527.77	32017.94
527.97	32024.09
528.17	32359.95
528.38	32284.18
528.58	32331.28
528.78	32480.78
528.99	32620.05
529.19	32767.50
529.39	32607.76
529.60	33099.27
529.80	32822.80
530.00	33211.91
530.21	33365.51
530.41	33136.13
530.61	33259.01
530.82	33547.78
531.02	33379.84
531.22	33734.14
531.43	33486.34
531.63	33562.11
531.83	33947.13
532.04	34006.52
532.24	33521.15
532.44	34223.61
532.64	34231.80
532.85	34280.95
533.05	34137.59
533.25	34809.32
533.46	34385.40
533.66	34657.78
533.86	34534.90
534.07	35075.56
534.27	35032.55
534.47	35220.97
534.67	34840.04
534.88	35040.75
535.08	35208.68
535.28	35214.82
535.49	35567.07
535.69	35880.41
535.89	35665.38
536.09	35681.76
536.30	35796.45
536.50	35737.05
536.70	36034.01
536.91	36132.31
537.11	36097.50
537.31	36163.03
537.51	36369.88
537.72	36693.46
537.92	36623.83
538.12	36718.03
538.32	36670.93
538.53	36881.87
538.73	36527.57
538.93	36728.27
539.13	36881.87
539.34	37019.08
539.54	36799.95
539.74	37000.65
539.94	36988.36
540.15	36939.21
540.35	37150.15
540.55	37236.17
540.75	37459.40
540.96	37584.32
541.16	37785.02
541.36	37811.65
541.56	37774.78
541.77	37948.86
541.97	37959.10
542.17	37952.96
542.37	38266.30
542.58	37881.28
542.78	38028.73
542.98	37791.17
543.18	38348.21
543.38	37975.48
543.59	38401.46
543.79	38368.69
543.99	38313.40
544.19	38075.84
544.40	38397.37
544.60	38636.98
544.80	38297.02
545.00	38573.49
545.20	38925.74
545.41	38716.85
545.61	38460.85
545.81	38786.48
546.01	38874.54
546.21	38989.23
546.42	38596.02
546.62	39151.02
546.82	39058.86
547.02	38927.79
547.22	39210.41
547.43	39187.88
547.63	39232.94
547.83	39347.62
548.03	38929.84
548.23	39839.14
548.44	39505.32
548.64	39630.24
548.84	39923.10
549.04	39644.58
549.24	39744.93
549.45	39818.66
549.65	39450.02
549.85	39957.92
550.05	40033.69
550.25	40007.07
550.45	40132.00
550.66	39927.20
550.86	40103.32
551.06	40549.78
551.26	40142.24
551.46	40363.42
551.66	40172.96
551.87	40140.19
552.07	40191.39
552.27	40342.94
552.47	40584.60
552.67	40431.00
552.87	40449.43
553.07	40646.04
553.28	40691.09
553.48	40639.89
553.68	40125.85
553.88	40844.69
554.08	40404.38
554.28	40691.09
554.48	40414.62
554.69	40476.05
554.89	40942.99
555.09	41321.87
555.29	40705.43
555.49	40883.60
555.69	40836.50
555.89	41272.71
556.10	41328.01
556.30	40805.78
556.50	41813.38
556.70	41147.79
556.90	41174.41
557.10	41315.72
557.30	41176.46
557.50	41608.58
557.70	41637.25
557.91	41674.12
558.11	41616.77
558.31	41747.84
558.51	40887.70
558.71	41536.90
558.91	42128.77
559.11	41592.20
559.31	41805.19
559.51	41766.27
559.72	42388.86
559.92	41743.75
560.12	41407.88
560.32	42349.95
560.52	41930.11
560.72	42145.15
560.92	42429.82
561.12	42308.99
561.32	42456.44
561.52	42077.57
561.72	42769.78
561.93	42438.01
562.13	42648.95
562.33	42100.09
562.53	43271.53
562.73	42464.63
562.93	42157.44
563.13	42755.44
563.33	42786.16
563.53	42988.91
563.73	41964.93
563.93	42780.02
564.13	42993.01
564.33	42706.29
564.53	42468.73
564.74	43156.85
564.94	42841.46
565.14	42956.14
565.34	42947.95
565.54	43251.05
565.74	42939.76
565.94	43304.30
566.14	43013.49
566.34	43156.85
566.54	43795.81
566.74	43056.50
566.94	43679.08
567.14	43476.33
567.34	43509.10
567.54	43808.10
567.74	43554.15
567.94	43664.74
568.14	43652.45
568.34	44496.22
568.54	43783.52
568.74	44016.99
568.94	43935.07
569.14	44152.16
569.34	43973.98
569.54	43871.59
569.75	44143.97
569.95	44078.43
570.15	44512.60
570.35	44612.95
570.55	44662.10
570.75	44281.18
570.95	44369.24
571.15	44412.25
571.35	44787.03
571.55	44737.88
571.75	44725.59
571.95	44938.58
572.15	44881.24
572.35	44971.35
572.55	45282.64
572.75	45204.81
572.95	45102.42
573.15	45335.88
573.35	45122.90
573.55	45081.94
573.75	45243.73
573.95	45223.25
574.15	45073.74
574.35	45722.95
574.55	45425.99
574.75	45374.80
574.95	45344.08
575.15	45036.88
575.34	45618.50
575.54	45841.73
575.74	45768.01
575.94	45974.85
576.14	45833.54
576.34	46087.49
576.54	46073.15
576.74	46071.10
576.94	45919.56
577.14	46382.40
577.34	46515.51
577.54	45935.94
577.74	46447.93
577.94	46722.36
578.14	46685.50
578.34	46781.75
578.54	46447.93
578.74	46525.75
578.94	47113.52
579.14	47035.70
579.34	46538.04
579.54	46990.64
579.74	47467.82
579.94	47088.95
580.13	47101.23
580.33	47252.78
580.53	47060.27
580.73	47437.10
580.93	46949.68
581.13	47224.11
581.33	47748.39
581.53	47865.13
581.73	47406.38
581.93	47643.94
582.13	48063.78
582.33	48164.13
582.53	47801.64
582.73	48192.80
582.92	48047.39
583.12	48035.11
583.32	48053.54
583.52	47914.28
583.72	48334.11
583.92	48698.65
584.12	48698.65
584.32	49044.76
584.52	48192.80
584.72	48755.99
584.92	48719.13
585.11	49399.05
585.31	48942.36
585.51	48715.03
585.71	48600.35
585.91	49083.67
586.11	49007.89
586.31	49126.67
586.51	48952.60
586.71	49163.54
586.91	49734.92
587.10	49530.12
587.30	49550.60
587.50	49259.79
587.70	49370.38
587.90	49403.15
588.10	49616.14
588.30	49476.88
588.50	49786.12
588.69	49802.50
588.89	49308.94
589.09	49405.20
589.29	49876.23
589.49	49777.93
589.69	49814.79
589.89	49720.59
590.08	49825.03
590.28	49798.41
590.48	49913.09
590.68	49956.10
590.88	49753.35
591.08	50375.94
591.28	49798.41
591.47	50603.26
591.67	50230.53
591.87	50320.64
592.07	50410.75
592.27	50332.93
592.47	50310.40
592.67	50406.65
592.86	49939.72
593.06	50429.18
593.26	50337.02
593.46	51053.81
593.66	50588.92
593.86	50791.67
594.05	50873.59
594.25	50775.29
594.45	50502.91
594.65	50795.77
594.85	50181.38
595.05	51019.00
595.24	50943.22
595.44	51219.70
595.64	50828.54
595.84	51318.00
596.04	51115.25
596.23	51170.55
596.43	51256.56
596.63	50922.74
596.83	51287.28
597.03	51614.96
597.22	52020.45
597.42	51115.25
597.62	51946.73
597.82	51502.32
598.02	51526.89
598.21	51746.03
598.41	51199.22
598.61	51557.61
598.81	51115.25
599.01	51817.71
599.20	52012.26
599.40	51168.50
599.60	51909.86
599.80	51315.95
600.00	51891.43
600.19	51893.48
600.39	51592.43
600.59	52045.03
600.79	52298.98
600.98	52083.94
601.18	52325.60
601.38	52151.52
601.58	52155.62
601.78	52010.21
601.97	52200.68
602.17	52430.05
602.37	52499.68
602.57	51866.86
602.76	52823.26
602.96	52151.52
603.16	52141.28
603.36	52298.98
603.55	52892.89
603.75	52149.48
603.95	52692.19
604.15	52774.11
604.34	52589.79
604.54	52860.12
604.74	52632.80
604.94	52843.74
605.13	52724.96
605.33	53101.78
605.53	52813.02
605.73	53218.52
605.92	52993.24
606.12	53112.02
606.32	53021.91
606.52	53105.88
606.71	52798.68
606.91	53103.83
607.11	52688.09
607.30	53271.76
607.50	53386.45
607.70	53191.89
607.90	52903.13
608.09	53392.59
608.29	53179.60
608.49	53351.63
608.68	53490.90
608.88	53171.41
609.08	53341.39
609.28	53562.57
609.47	53028.05
609.67	53714.12
609.87	53507.28
610.06	53044.44
610.26	53355.73
610.46	53599.44
610.66	53267.67
610.85	53236.95
611.05	53189.84
611.25	53658.83
611.44	53173.46
611.64	53449.94
611.84	53464.27
612.03	53236.95
612.23	53130.45
612.43	53529.81
612.62	53036.25
612.82	54103.24
613.02	53464.27
613.21	53298.39
613.41	53189.84
613.61	53400.79
613.80	52745.44
614.00	53445.84
614.20	53499.09
614.39	53519.57
614.59	53843.15
614.79	53263.57
614.98	53355.73
615.18	53552.33
615.38	53818.57
615.57	53138.65
615.77	53570.77
615.97	53408.98
616.16	53773.52
616.36	53503.18
616.56	53710.03
616.75	53245.14
616.95	53583.05
617.15	53509.33
617.34	53746.89
617.54	53265.62
617.74	53798.09
617.93	53488.85
618.13	53073.11
618.32	53394.64
618.52	53411.02
618.72	53544.14
618.91	53282.00
619.11	53081.30
619.31	53714.12
619.50	53515.47
619.70	53146.84
619.90	53538.00
620.09	53470.42
620.29	53839.05
620.48	53490.90
620.68	53728.46
620.88	52923.61
621.07	53372.11
621.27	53513.42
621.46	53392.59
621.66	53245.14
621.86	53372.11
622.05	53019.86
622.25	54056.14
622.44	53333.20
622.64	53535.95
622.84	53689.55
623.03	53392.59
623.23	53370.07
623.42	53404.88
623.62	53468.37
623.82	53755.08
624.01	53640.40
624.21	54031.56
624.40	53871.82
624.60	53169.36
624.80	53427.41
624.99	53882.06
625.19	53193.94
625.38	53460.18
625.58	53501.14
625.77	53476.56
625.97	53578.96
626.17	53218.52
626.36	53839.05
626.56	54064.33
626.75	52909.27
626.95	53957.83
627.14	53177.56
627.34	53968.07
627.54	53347.54
627.73	54228.16
627.93	53822.67
628.12	53519.57
628.32	53503.18
628.51	53499.09
628.71	53621.97
628.90	53601.49
629.10	53650.64
629.30	53794.00
629.49	53662.93
629.69	53683.40
629.88	53591.25
630.08	53847.24
630.27	54285.51
630.47	53574.86
630.66	53880.01
630.86	54023.37
631.05	53896.39
631.25	54334.66
631.44	53826.76
631.64	53980.36
631.84	53638.35
632.03	54086.85
632.23	54023.37
632.42	54179.01
632.62	54101.19
632.81	54305.99
633.01	53851.34
633.20	54607.04
633.40	54516.93
633.59	54166.73
633.79	53894.35
633.98	54312.13
634.18	54662.33
634.37	54490.30
634.57	54383.81
634.76	54392.00
634.96	54478.02
635.15	54412.48
635.35	54131.91
635.54	54394.05
635.74	55129.27
635.93	54109.38
636.13	54465.73
636.32	54621.37
636.52	54213.83
636.71	54541.50
636.91	54574.27
637.10	54371.52
637.30	54420.67
637.49	54656.19
637.69	54543.55
637.88	54979.77
638.08	55002.30
638.27	55452.85
638.46	55039.16
638.66	54873.27
638.85	54865.08
639.05	55645.36
639.24	54994.10
639.44	54928.57
639.63	55342.26
639.83	55217.33
640.02	55145.65
640.22	54963.39
640.41	55301.30
640.61	54576.32
640.80	55114.94
640.99	55004.34
641.19	55766.19
641.38	55153.85
641.58	55352.50
641.77	55055.54
641.97	55280.82
642.16	55172.28
642.36	55174.33
642.55	55788.72
642.74	55405.75
642.94	56136.87
643.13	55035.06
643.33	55499.95
643.52	55661.74
643.72	55270.58
643.91	55440.56
644.10	55682.22
644.30	56292.52
644.49	55284.92
644.69	55999.66
644.88	55502.00
645.08	55786.67
645.27	56280.23
645.46	55626.93
645.66	55817.39
645.85	55653.55
646.05	56448.16
646.24	55868.59
646.43	56169.64
646.63	56149.16
646.82	56153.26
647.02	56095.91
647.21	56284.33
647.40	55975.08
647.60	56501.41
647.79	56378.53
647.99	56130.73
648.18	56261.80
648.37	56489.12
648.57	56530.08
648.76	57089.18
648.96	56497.31
649.15	56868.00
649.34	56597.66
649.54	56841.37
649.73	56425.64
649.92	56841.37
650.12	56462.50
650.31	56857.76
650.51	56720.54
650.70	56882.33
650.89	56196.26
651.09	57246.87
651.28	56738.97
651.47	57291.93
651.67	57035.93
651.86	57509.01
652.06	56163.50
652.25	56976.54
652.44	56523.94
652.64	57091.22
652.83	56915.10
653.02	56843.42
653.22	56933.53
653.41	56665.25
653.60	56816.80
653.80	57009.31
653.99	57046.17
654.18	56964.25
654.38	56997.02
654.57	57037.98
654.76	56810.65
654.96	57015.45
655.15	56859.80
655.34	57136.28
655.54	56685.73
655.73	56691.87
655.92	57087.13
656.12	57234.58
656.31	57406.61
656.50	56652.96
656.70	56767.65
656.89	57283.73
657.08	57195.67
657.28	57244.82
657.47	57255.06
657.66	57627.79
657.86	57054.36
658.05	57302.17
658.24	57392.28
658.43	56755.36
658.63	57490.58
658.82	57463.96
659.01	57527.44
659.21	57668.75
659.40	57484.43
659.59	57054.36
659.79	57515.15
659.98	57427.09
660.17	57613.46
660.36	57195.67
660.56	57652.37
660.75	57443.48
660.94	57236.63
661.14	57382.04
661.33	56978.59
661.52	57328.79
661.71	57480.34
661.91	57103.51
662.10	57128.09
662.29	57978.00
662.49	57154.71
662.68	57316.50
662.87	57678.99
663.06	57257.11
663.26	57658.51
663.45	58004.62
663.64	57162.90
663.83	57775.25
664.03	57697.42
664.22	57400.47
664.41	57308.31
664.60	57222.29
664.80	57414.80
664.99	56999.07
665.18	57316.50
665.37	57326.74
665.57	57375.89
665.76	56956.06
665.95	57400.47
666.14	57537.68
666.34	57343.12
666.53	57386.13
666.72	57097.37
666.91	57087.13
667.11	57277.59
667.30	57470.10
667.49	57457.81
667.68	57257.11
667.87	57269.40
668.07	57345.17
668.26	57599.12
668.45	57269.40
668.64	56865.95
668.84	57513.11
669.03	57404.56
669.22	56868.00
669.41	57117.85
669.60	57072.79
669.80	57050.27
669.99	57308.31
670.18	56777.89
670.37	57119.90
670.57	57549.97
670.76	56874.14
670.95	57072.79
671.14	57070.75
671.33	56835.23
671.53	57183.38
671.72	57046.17
671.91	57210.01
672.10	56593.57
672.29	56935.58
672.48	56814.75
672.68	57193.62
672.87	56661.15
673.06	56538.27
673.25	56413.35
673.44	56812.70
673.64	56695.97
673.83	56220.84
674.02	56497.31
674.21	56669.34
674.40	56712.35
674.59	56851.61
674.79	56630.43
674.98	56177.83
675.17	56898.72
675.36	56513.70
675.55	56947.87
675.74	56456.35
675.94	56323.24
676.13	56263.85
676.32	56917.15
676.51	56992.92
676.70	56581.28
676.89	56525.99
677.08	56687.78
677.28	56433.83
677.47	56456.35
677.66	56800.41
677.85	56155.30
678.04	56335.52
678.23	57099.42
678.42	56824.99
678.62	56108.20
678.81	56568.99
679.00	56272.04
679.19	56978.59
679.38	56327.33
679.57	56179.88
679.76	56054.95
679.96	56308.90
680.15	56067.24
680.34	55823.53
680.53	56024.23
680.72	56239.27
680.91	56083.62
681.10	56214.69
681.29	56368.29
681.48	55704.75
681.68	56114.34
681.87	55635.12
682.06	56020.14
682.25	55497.91
682.44	55622.83
682.63	55714.99
682.82	55819.44
683.01	55688.37
683.20	55395.51
683.39	55940.27
683.59	55530.67
683.78	55469.23
683.97	54883.51
684.16	55200.95
684.35	55084.22
684.54	55360.69
684.73	55530.67
684.92	55358.64
685.11	55219.38
685.30	55364.79
685.49	55456.95
685.69	55436.47
685.88	54793.40
686.07	55219.38
686.26	54754.49
686.45	55618.74
686.64	55172.28
686.83	55248.05
687.02	55258.29
687.21	54992.06
687.40	55119.03
687.59	54561.98
687.78	54688.96
687.97	55340.21
688.16	54959.29
688.35	55055.54
688.54	54629.57
688.74	54516.93
688.93	54725.82
689.12	54750.40
689.31	54817.98
689.50	54863.03
689.69	54402.24
689.88	54088.90
690.07	54797.50
690.26	54424.77
690.45	54924.47
690.64	54697.15
690.83	54254.79
691.02	54424.77
691.21	54125.77
691.40	53914.83
691.59	54668.48
691.78	54453.44
691.97	54160.58
692.16	54482.11
692.35	54015.18
692.54	53851.34
692.73	54510.78
692.92	54179.01
693.11	54455.49
693.30	53916.87
693.49	54082.76
693.68	53591.25
693.87	53834.95
694.06	53773.52
694.25	53800.14
694.44	53396.69
694.63	54035.66
694.82	53853.39
695.01	53277.91
695.20	53804.24
695.39	53849.29
695.58	53470.42
695.77	53615.82
695.96	53494.99
696.15	53558.48
696.34	53603.53
696.53	53292.24
696.72	53636.30
696.91	53451.98
697.10	53583.05
697.29	52571.36
697.48	53275.86
697.67	53109.97
697.86	52892.89
698.05	52702.43
698.24	53519.57
698.43	53091.54
698.62	53071.06
698.81	52925.66
699.00	53337.30
699.19	52606.17
699.38	53036.25
699.57	52731.10
699.76	53490.90
699.95	53046.49
700.14	52661.47
700.32	52948.18
700.51	52587.74
700.70	53347.54
700.89	52921.56
701.08	52675.80
701.27	52315.36
701.46	53134.55
701.65	52040.93
701.84	52919.51
702.03	52647.13
702.22	52741.34
702.41	52378.85
702.60	52147.43
702.79	52337.89
702.98	51909.86
703.17	52423.90
703.35	52176.10
703.54	52008.17
703.73	52561.12
703.92	52008.17
704.11	52391.14
704.30	52264.16
704.49	52356.32
704.68	52024.55
704.87	52262.11
705.06	52237.54
705.25	52288.74
705.43	52260.07
705.62	52124.90
705.81	52157.67
706.00	51692.78
706.19	51576.04
706.38	51422.45
706.57	51924.20
706.76	51950.82
706.95	51733.74
707.14	51832.04
707.32	51842.28
707.51	50961.65
707.70	52221.16
707.89	51623.15
708.08	51541.23
708.27	51797.23
708.46	52051.17
708.65	51522.80
708.84	51991.78
709.02	52079.85
709.21	51987.69
709.40	51772.65
709.59	51549.42
709.78	51610.86
709.97	51686.64
710.16	51795.18
710.34	51565.81
710.53	51598.57
710.72	51746.03
710.91	51442.93
711.10	51291.38
711.29	51139.83
711.48	51225.84
711.66	51668.20
711.85	51092.72
712.04	51193.07
712.23	51272.95
712.42	51115.25
712.61	51156.21
712.80	51105.01
712.98	51391.73
713.17	51213.55
713.36	51250.42
713.55	51293.43
713.74	51004.66
713.93	50939.13
714.11	51320.05
714.30	50676.99
714.49	50994.42
714.68	51236.08
714.87	51066.10
715.06	51635.44
715.24	50713.85
715.43	50695.42
715.62	51025.14
715.81	50357.50
716.00	50961.65
716.18	50521.34
716.37	50474.24
716.56	50447.61
716.75	50779.39
716.94	50570.49
717.12	50689.27
717.31	50838.78
717.50	50318.59
717.69	50380.03
717.88	50466.05
718.06	50416.89
718.25	50660.60
718.44	50195.71
718.63	50572.54
718.82	50226.43
719.00	50013.44
719.19	50246.91
719.38	49939.72
719.57	49847.56
719.76	49575.18
719.94	49739.02
720.13	50091.27
720.32	49947.91
720.51	50068.74
720.69	49857.80
720.88	49526.03
721.07	49847.56
721.26	49566.99
721.44	49374.48
721.63	49886.47
721.82	49306.90
722.01	49278.22
722.20	49304.85
722.38	49108.24
722.57	48854.29
722.76	49073.43
722.95	49317.14
723.13	49286.42
723.32	49190.16
723.51	49030.42
723.70	48983.32
723.88	48981.27
724.07	49098.00
724.26	49173.78
724.44	48479.52
724.63	49245.46
724.82	49401.10
725.01	49167.63
725.19	49069.33
725.38	48878.87
725.57	49030.42
725.76	48739.61
725.94	48706.84
726.13	48784.66
726.32	48506.14
726.51	48600.35
726.69	49161.49
726.88	48895.25
727.07	49001.75
727.25	48727.32
727.44	48747.80
727.63	48981.27
727.82	48760.09
728.00	48839.96
728.19	48915.73
728.38	48876.82
728.56	48262.43
728.75	48887.06
728.94	48602.39
729.12	48612.63
729.31	48422.17
729.50	48657.69
729.69	48725.27
729.87	48454.94
730.06	48721.18
730.25	48452.89
730.43	48719.13
730.62	48774.42
730.81	49048.85
730.99	48442.65
731.18	48649.50
731.37	48977.17
731.55	48700.70
731.74	48821.53
731.93	48629.02
732.11	48712.98
732.30	48733.46
732.49	48289.06
732.67	48608.54
732.86	49077.52
733.05	48620.83
733.23	48508.19
733.42	48610.59
733.61	48590.11
733.79	48981.27
733.98	49001.75
734.17	48346.40
734.35	48653.59
734.54	48735.51
734.73	48794.90
734.91	48493.85
735.10	48338.21
735.29	48620.83
735.47	48008.48
735.66	48239.90
735.84	48504.09
736.03	48157.99
736.22	48516.38
736.40	48330.01
736.59	48456.99
736.78	48731.42
736.96	48360.73
737.15	48135.46
737.33	48289.06
737.52	48332.06
737.71	48356.64
737.89	48536.86
738.08	48303.39
738.27	48010.53
738.45	48692.50
738.64	48219.42
738.82	48504.09
739.01	47965.48
739.20	47592.75
739.38	48405.79
739.57	48301.34
739.75	48004.39
739.94	47977.76
740.13	47723.82
740.31	48043.30
740.50	48459.04
740.68	48026.92
740.87	48149.79
741.06	48098.59
741.24	47768.87
741.43	47658.28
741.61	47873.32
741.80	47342.89
741.99	47895.85
742.17	47783.21
742.36	48100.64
742.54	47617.32
742.73	47926.56
742.91	48246.05
743.10	47570.22
743.29	47811.88
743.47	47781.16
743.66	47516.97
743.84	47867.17
744.03	47908.13
744.21	47705.38
744.40	47969.57
744.59	47467.82
744.77	47455.53
744.96	47228.21
745.14	47441.20
745.33	47203.63
745.51	47258.93
745.70	47449.39
745.88	46939.44
746.07	47260.97
746.26	47060.27
746.44	46880.05
746.63	47244.59
746.81	47441.20
747.00	46929.20
747.18	47379.76
747.37	47285.55
747.55	46867.76
747.74	47373.61
747.92	46765.37
748.11	46732.60
748.29	46761.27
748.48	46503.23
748.66	46409.02
748.85	47039.79
749.03	47334.70
749.22	46970.16
749.41	46781.75
749.59	47285.55
749.78	46681.40
749.96	46044.48
750.15	46667.06
750.33	46619.96
750.52	47011.12
750.70	46660.92
750.89	46548.28
751.07	46576.95
751.26	46699.83
751.44	46263.61
751.63	46503.23
751.81	45843.78
752.00	46271.81
752.18	46656.82
752.37	45929.80
752.55	45925.70
752.74	46390.59
752.92	46171.46
753.10	45788.49
753.29	46550.33
753.47	45851.97
753.66	45759.81
753.84	46091.58
754.03	46071.10
754.21	45458.76
754.40	46257.47
754.58	45913.41
754.77	45610.31
754.95	45544.78
755.14	45548.87
755.32	45565.26
755.51	45569.35
755.69	45100.37
755.88	45417.80
756.06	45466.95
756.24	45399.37
756.43	45299.02
756.61	45524.30
756.80	45086.03
756.98	44987.73
757.17	45141.33
757.35	45352.27
757.54	45280.59
757.72	45411.66
757.90	44881.24
758.09	44815.70
758.27	44928.34
758.46	44741.97
758.64	44725.59
758.83	45139.28
759.01	44645.72
759.19	44680.53
759.38	44862.80
759.56	45094.22
759.75	44782.93
759.93	44891.48
760.12	44559.70
760.30	44766.55
760.48	44580.18
760.67	44219.74
760.85	44557.66
761.04	44725.59
761.22	44717.40
761.40	44432.73
761.59	44285.28
761.77	43904.35
761.96	44309.85
762.14	44377.43
762.32	44270.94
762.51	43820.39
762.69	43853.15
762.88	43867.49
763.06	43902.31
763.24	44236.12
763.43	44094.82
763.61	43656.55
763.80	43607.40
763.98	43627.88
764.16	43476.33
764.35	43308.40
764.53	43222.38
764.72	43042.16
764.90	43390.31
765.08	43066.73
765.27	42786.16
765.45	43107.69
765.63	43119.98
765.82	42847.60
766.00	42970.48
766.18	42763.64
766.37	43146.61
766.55	42685.81
766.74	42521.98
766.92	42669.43
767.10	42671.48
767.29	42562.93
767.47	42255.74
767.65	42540.41
767.84	42171.77
768.02	42235.26
768.20	42126.72
768.39	42784.12
768.57	42335.61
768.75	42169.72
768.94	42288.51
769.12	41899.39
769.30	41690.50
769.49	41962.88
769.67	41899.39
769.85	41598.34
770.04	42083.71
770.22	41649.54
770.40	41557.38
770.59	41581.96
770.77	41702.79
770.95	41823.62
771.14	41282.95
771.32	41092.49
771.50	40936.85
771.69	41344.39
771.87	41444.74
772.05	41362.82
772.24	40990.09
772.42	41000.33
772.60	40852.88
772.78	41018.77
772.97	41014.67
773.15	41164.17
773.33	40834.45
773.52	40945.04
773.70	40746.39
773.88	41227.66
774.07	40605.08
774.25	40592.79
774.43	40861.07
774.61	41198.99
774.80	40736.15
774.98	40560.02
775.16	41332.11
775.34	40615.32
775.53	40621.46
775.71	40971.66
775.89	41031.05
776.08	40756.63
776.26	40969.61
776.44	41049.49
776.62	40977.81
776.81	40570.26
776.99	41223.56
777.17	41067.92
777.35	41121.16
777.54	41043.34
777.72	40742.29
777.90	40912.27
778.08	40998.29
778.27	40658.32
778.45	41246.09
778.63	41145.74
778.81	40600.98
779.00	41217.42
779.18	40881.55
779.36	41588.10
779.54	41737.60
779.73	41217.42
779.91	41514.37
780.09	41121.16
780.27	41278.86
780.46	41123.21
780.64	41233.80
780.82	41416.07
781.00	40992.14
781.19	41057.68
781.37	41100.68
781.55	41461.13
781.73	41350.54
781.91	41026.96
782.10	41348.49
782.28	41428.36
782.46	41465.22
782.64	41772.42
782.82	41465.22
783.01	41291.15
783.19	41170.32
783.37	41350.54
783.55	41051.53
783.74	41348.49
783.92	40967.57
784.10	41936.26
784.28	41676.16
784.46	41389.45
784.64	40910.22
784.83	41278.86
785.01	41108.88
785.19	41174.41
785.37	41362.82
785.55	41526.66
785.74	41094.54
785.92	40740.24
786.10	41248.14
786.28	41264.52
786.46	40820.11
786.64	40719.76
786.83	40830.35
787.01	40871.31
787.19	40859.02
787.37	40893.84
787.55	40895.89
787.74	40560.02
787.92	40592.79
788.10	40451.48
788.28	40191.39
788.46	40371.61
788.64	40152.48
788.82	40781.20
789.01	40320.41
789.19	39968.16
789.37	39777.70
789.55	39470.50
789.73	39697.83
789.91	40019.36
790.09	39724.45
790.28	39751.07
790.46	39447.97
790.64	39761.31
790.82	39919.01
791.00	39531.94
791.18	39259.56
791.36	39538.08
791.55	39435.69
791.73	39267.75
791.91	39060.91
792.09	38995.37
792.27	38933.93
792.45	39306.66
792.63	38989.23
792.81	39200.17
793.00	38905.26
793.18	39077.29
793.36	38782.38
793.54	38682.03
793.72	38440.37
793.90	38237.62
794.08	38286.78
794.26	38809.01
794.44	38002.11
794.62	38131.13
794.81	37713.34
794.99	38204.86
795.17	37885.37
795.35	37795.26
795.53	37928.38
795.71	37643.71
795.89	37494.21
796.07	37627.33
796.25	37078.47
796.43	37180.87
796.61	37184.97
796.80	36799.95
796.98	37297.61
797.16	37193.16
797.34	36971.98
797.52	36924.88
797.70	37029.32
797.88	36824.53
798.06	36062.68
798.24	36652.50
798.42	36017.63
798.60	36259.29
798.78	36140.50
798.96	36562.39
799.14	35730.91
799.32	36267.48
799.51	35888.60
799.69	36345.30
799.87	36107.74
800.05	35855.84
800.23	35730.91
800.41	35640.80
800.59	35622.37
800.77	35393.00
800.95	35263.97
801.13	35114.47
801.31	34594.29
801.49	35014.12
801.67	35007.98
801.85	35026.41
802.03	35081.70
802.21	34668.02
802.39	34510.32
802.57	34780.65
802.75	34473.46
802.93	34516.47
803.11	34244.09
803.29	34352.63
803.47	34379.25
803.65	34233.85
803.83	34188.79
804.01	33994.23
804.19	33617.41
804.37	34102.78
804.55	33474.05
804.73	33824.25
804.91	33918.46
805.09	33783.29
805.27	33619.46
805.45	33732.09
805.63	33426.95
805.81	33461.76
805.99	33527.30
806.17	33482.24
806.35	33428.99
806.53	33129.99
806.71	33117.70
806.89	32943.63
807.07	33238.53
807.25	33177.09
807.43	32892.43
807.61	33086.98
807.79	32837.13
807.97	32704.01
808.15	32499.22
808.33	32392.72
808.51	32337.43
808.69	32044.57
808.87	32112.15
809.05	32065.05
809.23	32267.80
809.41	31911.45
809.59	31976.98
809.77	32159.25
809.95	31594.01
810.13	31999.51
810.31	31800.86
810.49	31649.31
810.67	31553.05
810.84	31764.00
811.02	31850.01
811.20	31305.25
811.38	31327.78
811.56	31493.66
811.74	31389.22
811.92	31215.14
812.10	31137.32
812.28	31190.56
812.46	31168.04
812.64	31036.97
812.82	30750.25
813.00	30893.61
813.18	31190.56
813.36	30828.07
813.53	30367.28
813.71	30742.06
813.89	30522.93
814.07	30400.05
814.25	30533.17
814.43	30289.46
814.61	30240.31
814.79	30301.75
814.97	30352.94
815.15	30101.04
815.33	29918.78
815.50	30250.55
815.68	30273.07
815.86	30309.94
816.04	29951.54
816.22	30051.89
816.40	29802.04
816.58	29859.38
816.76	29888.06
816.94	29851.19
817.11	30023.22
817.29	29877.82
817.47	29662.78
817.65	29552.19
817.83	29711.93
818.01	29474.37
818.19	29109.83
818.37	29249.09
818.54	29187.65
818.72	29105.73
818.90	29249.09
819.08	29214.27
819.26	29322.82
819.44	29128.26
819.62	29449.79
819.80	29218.37
819.97	29140.55
820.15	28978.76
820.33	29021.77
820.51	28935.75
820.69	29064.77
820.87	29085.25
821.05	28917.32
821.22	28915.27
821.40	28896.84
821.58	28358.22
821.76	28427.85
821.94	28214.87
822.12	28796.49
822.29	28784.20
822.47	28096.08
822.65	28782.15
822.83	28364.37
823.01	28087.89
823.19	28120.66
823.36	28235.35
823.54	28190.29
823.72	28378.70
823.90	28153.43
824.08	27790.94
824.25	27932.25
824.43	27840.09
824.61	28016.21
824.79	27942.49
824.97	27729.50
825.15	27629.15
825.32	27749.98
825.50	27690.59
825.68	27526.75
825.86	27795.03
826.04	27668.06
826.21	27721.30
826.39	27463.26
826.57	27752.02
826.75	27692.63
826.93	27080.29
827.10	27426.40
827.28	27528.80
827.46	27469.40
827.64	27383.39
827.81	27262.56
827.99	27266.66
828.17	27043.43
828.35	27143.78
828.53	27174.50
828.70	27051.62
828.88	27254.37
829.06	26984.04
829.24	27319.90
829.41	26846.82
829.59	27313.76
829.77	26855.01
829.95	26945.12
830.12	26760.81
830.30	27080.29
830.48	27012.71
830.66	26824.29
830.84	26467.95
831.01	26449.52
831.19	26797.67
831.37	26330.73
831.55	26293.87
831.72	26535.53
831.90	26558.06
832.08	26605.16
832.25	26769.00
832.43	26510.96
832.61	26494.57
832.79	26369.65
832.96	26773.10
833.14	26494.57
833.32	26486.38
833.50	26478.19
833.67	26410.60
833.85	26267.25
834.03	25826.93
834.20	26226.29
834.38	26121.84
834.56	26625.64
834.74	25730.68
834.91	26123.89
835.09	25906.80
835.27	25689.72
835.44	25732.73
835.62	25554.55
835.80	25683.58
835.98	26025.59
836.15	26007.16
836.33	25581.18
836.51	26044.02
836.68	25458.30
836.86	25843.32
837.04	25599.61
837.21	25820.79
837.39	25673.34
837.57	25529.98
837.75	25771.64
837.92	25130.62
838.10	25431.68
838.28	25204.35
838.45	25421.44
838.63	25001.60
838.81	25228.93
838.98	25323.13
839.16	25099.90
839.34	25253.50
839.51	25355.90
839.69	25089.67
839.87	24888.96
840.04	25202.30
840.22	25214.59
840.40	24915.59
840.57	24964.74
840.75	25269.89
840.93	24858.24
841.10	24993.41
841.28	24917.64
841.46	24901.25
841.63	25081.47
841.81	24741.51
841.98	24972.93
842.16	24981.12
842.34	24606.34
842.51	24716.93
842.69	24964.74
842.87	24884.87
843.04	24671.88
843.22	24596.10
843.40	24684.17
843.57	24766.09
843.75	24618.63
843.92	24639.11
844.10	24389.26
844.28	24505.99
844.45	24546.95
844.63	24583.82
844.81	24399.50
844.98	24479.37
845.16	24479.37
845.33	24602.25
845.51	24184.46
845.69	24479.37
845.86	24008.34
846.04	24397.45
846.21	24639.11
846.39	24401.55
846.57	23940.75
846.74	24131.22
846.92	23862.93
847.09	23967.38
847.27	24188.56
847.45	23957.14
847.62	24086.16
847.80	24073.87
847.97	24211.09
848.15	23670.42
848.32	23656.09
848.50	24051.34
848.68	23819.92
848.85	23901.84
849.03	23518.87
849.20	23846.55
849.38	23662.23
849.56	23672.47
849.73	23731.86
849.91	23672.47
850.08	23631.51
850.26	23570.07
850.43	23506.59
850.61	23695.00
850.78	23359.13
850.96	23547.54
851.14	23115.42
851.31	23688.85
851.49	23426.71
851.66	23568.02
851.84	23252.64
852.01	23555.74
852.19	23439.00
852.36	23213.73
852.54	23400.09
852.71	22898.34
852.89	23254.69
853.07	22922.91
853.24	22851.24
853.42	23017.12
853.59	23025.31
853.77	23101.09
853.94	22994.59
854.12	23221.92
854.29	22716.07
854.47	23027.36
854.64	22697.64
854.82	22970.02
854.99	22990.50
855.17	22906.53
855.34	22795.94
855.52	22834.85
855.69	22894.24
855.87	22638.25
856.04	22402.73
856.22	22501.03
856.39	22359.72
856.57	22605.48
856.74	22720.17
856.92	22515.37
857.09	22224.56
857.27	22390.44
857.44	22630.05
857.62	22523.56
857.79	22455.98
857.97	22406.83
858.14	22343.34
858.32	22212.27
858.49	22075.06
858.67	22116.01
858.84	21898.93
859.02	22476.46
859.19	22290.09
859.37	22376.11
859.54	21886.64
859.72	22148.78
859.89	22429.35
860.06	22281.90
860.24	21911.22
860.41	22132.40
860.59	21917.36
860.76	21954.22
860.94	21876.40
861.11	22226.60
861.29	21794.48
861.46	21769.91
861.64	21503.67
861.81	21558.97
861.98	21606.07
862.16	21577.40
862.33	21511.86
862.51	21614.26
862.68	21812.92
862.86	21497.53
863.03	21567.16
863.21	21405.37
863.38	21380.79
863.55	21501.62
863.73	21534.39
863.90	21391.03
864.08	21513.91
864.25	21434.04
864.43	21354.17
864.60	21231.29
864.77	21274.30
864.95	21319.35
865.12	20967.10
865.30	21200.57
865.47	21034.69
865.64	21014.21
865.82	21307.07
865.99	21071.55
866.17	21020.35
866.34	21055.17
866.51	20815.55
866.69	20983.49
866.86	20940.48
867.04	21169.85
867.21	20932.29
867.38	20817.60
867.56	20543.17
867.73	20696.77
867.91	20694.72
868.08	20743.88
868.25	20666.05
868.43	20534.98
868.60	20496.07
868.78	20403.91
868.95	20821.70
869.12	20625.09
869.30	20596.42
869.47	20424.39
869.64	20184.78
869.82	20276.94
869.99	20184.78
870.16	20266.70
870.34	20031.18
870.51	20428.49
870.69	19975.89
870.86	20250.32
871.03	20106.96
871.21	19846.87
871.38	20084.43
871.55	20000.46
871.73	19713.75
871.90	19992.27
872.07	19738.32
872.25	19853.01
872.42	19816.15
872.59	20006.61
872.77	19703.51
872.94	19607.25
873.11	19455.70
873.29	19803.86
873.46	19390.17
873.63	19445.46
873.81	19560.15
873.98	19287.77
874.15	19103.45
874.33	19179.23
874.50	19080.92
874.67	19427.03
874.85	19177.18
875.02	19390.17
875.19	19097.31
875.37	19177.18
875.54	19097.31
875.71	19259.10
875.88	18859.74
876.06	19089.12
876.23	18798.31
876.40	19142.36
876.58	18835.17
876.75	18900.70
876.92	18964.19
877.10	18980.57
877.27	18743.01
877.44	18765.54
877.61	18622.18
877.79	18515.69
877.96	18411.24
878.13	18368.23
878.31	18325.22
878.48	18312.94
878.65	18327.27
878.82	18351.85
879.00	18411.24
879.17	18349.80
879.34	18052.84
879.51	18429.67
879.69	18071.28
879.86	18118.38
880.03	17960.69
880.21	17968.88
880.38	18001.65
880.55	18091.76
880.72	17882.86
880.90	17889.01
881.07	17637.11
881.24	17743.60
881.41	17942.25
881.59	18069.23
881.76	17780.46
881.93	17743.60
882.10	17815.28
882.28	17518.32
882.45	17633.01
882.62	17694.45
882.79	17856.24
882.96	17133.31
883.14	17665.78
883.31	17592.05
883.48	17352.44
883.65	17575.67
883.83	17952.49
884.00	17559.28
884.17	17641.20
884.34	17538.80
884.51	17547.00
884.69	17475.32
884.86	17114.87
885.03	17397.49
885.20	17204.99
885.38	17452.79
885.55	17211.13
885.72	17022.72
885.89	17133.31
886.06	17278.71
886.24	17157.88
886.41	17061.63
886.58	16965.37
886.75	17098.49
886.92	16758.53
887.10	17110.78
887.27	17141.50
887.44	16971.52
887.61	17075.96
887.78	16928.51
887.95	16860.93
888.13	16799.49
888.30	16588.55
888.47	16654.08
888.64	16885.50
888.81	16643.84
888.99	16492.29
889.16	16353.03
889.33	16619.27
889.50	16543.49
889.67	16692.99
889.84	16441.09
890.01	16555.78
890.19	16664.32
890.36	16711.42
890.53	16176.91
890.70	16332.55
890.87	16334.60
891.04	16185.10
891.22	16133.90
891.39	16109.32
891.56	16252.68
891.73	15845.13
891.90	15916.81
892.07	16008.97
892.24	16207.62
892.42	16090.89
892.59	16211.72
892.76	15957.77
892.93	15931.15
893.10	15957.77
893.27	16121.61
893.44	15761.17
893.61	15863.57
893.79	15861.52
893.96	15816.46
894.13	16058.12
894.30	15830.80
894.47	15847.18
894.64	15996.68
894.81	15828.75
894.98	15888.14
895.15	15830.80
895.33	15562.51
895.50	15521.56
895.67	15857.42
895.84	15501.08
896.01	15687.44
896.18	15689.49
896.35	15789.84
896.52	15648.53
896.69	15634.19
896.86	15716.11
897.04	15771.41
897.21	15521.56
897.38	15626.00
897.55	15529.75
897.72	15830.80
897.89	15648.53
898.06	15775.50
898.23	15568.66
898.40	15693.58
898.57	15458.07
898.74	15546.13
898.91	15435.54
899.08	15490.84
899.26	15746.83
899.43	15664.91
899.60	15488.79
899.77	15550.23
899.94	15521.56
900.11	15363.86
900.28	15542.03
900.45	15222.55
900.62	15372.05
900.79	15343.38
900.96	15281.94
901.13	15423.25
901.30	15292.18
901.47	15068.95
901.64	15374.10
901.81	15161.11
901.98	15378.20
902.15	15300.37
902.32	15202.07
902.49	15486.74
902.66	15300.37
902.83	15548.18
903.01	15245.08
903.18	15597.33
903.35	15517.46
903.52	15376.15
903.69	15496.98
903.86	15646.48
904.03	15302.42
904.20	15339.29
904.37	15458.07
904.54	15417.11
904.71	15449.88
904.88	15558.42
905.05	15310.61
905.22	15312.66
905.39	15144.73
905.56	15312.66
905.73	15224.60
905.90	15152.92
906.07	15222.55
906.24	15150.87
906.41	15136.54
906.58	15286.04
906.75	15142.68
906.92	15142.68
907.09	15148.82
907.26	15216.41
907.43	14995.23
907.60	15265.56
907.77	15386.39
907.93	15240.98
908.10	14964.51
908.27	15025.95
908.44	15064.86
908.61	14968.60
908.78	15046.43
908.95	15064.86
909.12	15226.65
909.29	14948.12
909.46	15023.90
909.63	15038.23
909.80	15034.14
909.97	15187.74
910.14	15150.87
910.31	14923.55
910.48	15062.81
910.65	14765.85
910.82	14751.52
910.99	14894.88
911.16	14665.50
911.33	14954.27
911.50	14690.08
911.66	14745.38
911.83	14782.24
912.00	14534.43
912.17	14548.77
912.34	14352.16
912.51	14688.03
912.68	14473.00
912.85	14706.46
913.02	14962.46
913.19	14534.43
913.36	14683.94
913.53	14479.14
913.70	14657.31
913.86	14624.54
914.03	14538.53
914.20	14763.81
914.37	14366.50
914.54	14436.13
914.71	14419.75
914.88	14167.85
915.05	14149.42
915.22	14272.29
915.39	14165.80
915.55	14034.73
915.72	13997.87
915.89	13907.76
916.06	14053.16
916.23	13954.86
916.40	13856.56
916.57	13985.58
916.74	13774.64
916.91	14008.11
917.07	13797.17
917.24	13657.90
917.41	13768.49
917.58	13848.36
917.75	13758.25
917.92	13422.39
918.09	13698.86
918.26	13502.26
918.42	13946.67
918.59	13721.39
918.76	13561.65
918.93	13451.06
919.10	13324.08
919.27	13498.16
919.44	13389.62
919.60	13307.70
919.77	13201.21
919.94	13080.38
920.11	12996.41
920.28	13238.07
920.45	13117.24
920.61	12963.64
920.78	12941.11
920.95	13150.01
921.12	13012.79
921.29	12738.37
921.46	12826.43
921.62	12721.98
921.79	12748.61
921.96	12656.45
922.13	12556.10
922.30	12476.23
922.47	12414.79
922.63	12543.81
922.80	12351.30
922.97	12275.52
923.14	12244.81
923.31	12373.83
923.47	12189.51
923.64	12474.18
923.81	12197.70
923.98	12013.38
924.15	11818.83
924.32	11972.43
924.48	12011.34
924.65	12132.17
924.82	11835.21
924.99	11714.38
925.15	11755.34
925.32	11900.75
925.49	11691.85
925.66	11661.13
925.83	11749.20
925.99	11669.33
926.16	11691.85
926.33	11562.83
926.50	11315.03
926.67	11386.71
926.83	11317.08
927.00	11349.84
927.17	11091.80
927.34	11364.18
927.50	11292.50
927.67	11257.68
927.84	11243.35
928.01	11173.72
928.17	11067.22
928.34	10981.21
928.51	10923.87
928.68	10671.97
928.84	10946.39
929.01	10647.39
929.18	10626.91
929.35	10569.57
929.51	10469.22
929.68	10622.81
929.85	10504.03
930.02	10430.30
930.18	10346.34
930.35	10514.27
930.52	10391.39
930.69	10495.84
930.85	10407.78
931.02	10184.55
931.19	10313.57
931.36	10364.77
931.52	10233.70
931.69	10256.23
931.86	10010.47
932.02	10065.77
932.19	10162.02
932.36	9961.32
932.53	9965.42
932.69	9850.73
932.86	10047.33
933.03	9797.48
933.19	9498.48
933.36	9686.89
933.53	9600.88
933.70	9525.10
933.86	9267.06
934.03	9469.81
934.20	9443.18
934.36	9271.15
934.53	9226.10
934.70	9099.13
934.86	9201.52
935.03	9150.32
935.20	8916.86
935.36	8830.84
935.53	8757.11
935.70	8652.67
935.86	8771.45
936.03	8632.19
936.20	8376.19
936.36	8363.90
936.53	8433.54
936.70	8361.86
936.86	8421.25
937.03	8324.99
937.20	8038.28
937.36	8202.11
937.53	7880.58
937.70	7808.90
937.86	7671.69
938.03	7823.24
938.20	7851.91
938.36	7591.82
938.53	7569.29
938.70	7309.20
938.86	7419.79
939.03	7319.44
939.20	7214.99
939.36	7094.16
939.53	6987.67
939.70	7337.87
939.86	6866.84
940.03	6676.38
940.19	6791.06
940.36	6780.82
940.53	6651.80
940.69	6522.78
940.86	6338.46
941.03	6475.68
941.19	6320.03
941.36	6352.80
941.52	6148.00
941.69	6059.94
941.86	6115.23
942.02	6059.94
942.19	6088.61
942.35	6061.99
942.52	6023.08
942.69	5941.16
942.85	5736.36
943.02	5760.94
943.18	5834.66
943.35	5490.60
943.52	5664.68
943.68	5593.00
943.85	5605.29
944.01	5486.51
944.18	5533.61
944.35	5496.75
944.51	5427.12
944.68	5244.85
944.84	5355.44
945.01	5496.75
945.17	5294.00
945.34	5390.25
945.51	5396.40
945.67	5339.05
945.84	5347.25
946.00	5099.44
946.17	5271.47
946.33	5201.84
946.50	5263.28
946.67	5285.81
946.83	5339.05
947.00	5339.05
947.16	5253.04
947.33	5314.48
947.49	5308.34
947.66	5222.32
947.82	5269.42
947.99	5105.59
948.16	5332.91
948.32	5119.92
948.49	5226.42
948.65	5128.11
948.82	5173.17
948.98	5263.28
949.15	5124.02
949.31	5396.40
949.48	5242.80
949.64	5173.17
949.81	5177.26
949.97	5183.41
950.14	5267.38
950.30	5058.48
950.47	5255.09
950.63	5218.22
950.80	5388.21
950.96	5201.84
951.13	5181.36
951.30	5154.74
951.46	5128.11
951.63	5357.49
951.79	5197.74
951.96	5222.32
952.12	5326.77
952.29	5150.64
952.45	5064.63
952.62	5396.40
952.78	5375.92
952.94	5298.10
953.11	5177.26
953.27	5101.49
953.44	5519.28
953.60	5310.38
953.77	5414.83
953.93	5240.75
954.10	5369.77
954.26	5355.44
954.43	5271.47
954.59	5377.97
954.76	5482.41
954.92	5380.01
955.09	5220.27
955.25	5341.10
955.42	5396.40
955.58	5443.50
955.75	5392.30
955.91	5382.06
956.07	5355.44
956.24	5412.78
956.40	5420.97
956.57	5332.91
956.73	5373.87
956.90	5427.12
957.06	5320.62
957.23	5484.46
957.39	5384.11
957.56	5359.53
957.72	5253.04
957.88	5183.41
958.05	5455.79
958.21	5504.94
958.38	5310.38
958.54	5300.14
958.71	5576.62
958.87	5423.02
959.03	5431.21
959.20	5375.92
959.36	5334.96
959.53	5302.19
959.69	5259.18
959.85	5232.56
960.02	5255.09
960.18	5396.40
960.35	5445.55
960.51	5349.29
960.68	5377.97
960.84	5439.40
961.00	5277.62
961.17	5463.98
961.33	5296.05
961.50	5564.33
961.66	5425.07
961.82	5427.12
961.99	5523.37
962.15	5402.54
962.31	5230.51
962.48	5414.83
962.64	5425.07
962.81	5314.48
962.97	5250.99
963.13	5328.81
963.30	5283.76
963.46	5220.27
963.62	5158.83
963.79	5255.09
963.95	5279.66
964.12	5408.69
964.28	5222.32
964.44	5189.55
964.61	5390.25
964.77	5257.14
964.93	5324.72
965.10	5218.22
965.26	5128.11
965.42	5263.28
965.59	5164.98
965.75	5195.70
965.92	5253.04
966.08	5412.78
966.24	5154.74
966.41	5169.07
966.57	5179.31
966.73	5287.86
966.90	5267.38
967.06	5138.35
967.22	5187.50
967.39	5175.22
967.55	5115.83
967.71	5234.61
967.88	5081.01
968.04	5095.35
968.20	5175.22
968.37	4988.85
968.53	4954.04
968.69	5011.38
968.85	5019.57
969.02	5035.96
969.18	5103.54
969.34	5011.38
969.51	5099.44
969.67	5154.74
969.83	4986.80
970.00	5081.01
970.16	4954.04
970.32	5234.61
970.48	5205.94
970.65	5085.11
970.81	5011.38
970.97	4843.45
971.14	4970.42
971.30	5013.43
971.46	5017.52
971.63	5078.96
971.79	5066.67
971.95	4872.12
972.11	4902.84
972.28	4933.56
972.44	5058.48
972.60	4878.26
972.76	4847.54
972.93	4935.60
973.09	5023.67
973.25	4964.28
973.42	4888.50
973.58	4792.25
973.74	4720.57
973.90	4790.20
974.07	4851.64
974.23	4724.66
974.39	4849.59
974.55	4818.87
974.72	4732.86
974.88	4601.79
975.04	4935.60
975.20	4816.82
975.37	4765.62
975.53	4775.86
975.69	4630.46
975.85	4698.04
976.01	4710.33
976.18	4677.56
976.34	4607.93
976.50	4822.97
976.66	4677.56
976.83	4784.06
976.99	4695.99
977.15	4614.07
977.31	4614.07
977.47	4638.65
977.64	4659.13
977.80	4435.90
977.96	4573.11
978.12	4650.94
978.29	4597.69
978.45	4550.59
978.61	4562.87
978.77	4581.31
978.93	4433.85
979.10	4577.21
979.26	4493.24
979.42	4503.48
979.58	4325.31
979.74	4456.38
979.91	4456.38
980.07	4360.13
980.23	4407.23
980.39	4456.38
980.55	4276.16
980.71	4360.13
980.88	4368.32
981.04	4341.69
981.20	4456.38
981.36	4300.73
981.52	4304.83
981.68	4227.01
981.85	4423.61
982.01	4347.84
982.17	4313.02
982.33	4315.07
982.49	4374.46
982.65	4253.63
982.82	4323.26
982.98	4220.86
983.14	4163.52
983.30	4319.17
983.46	4310.97
983.62	4220.86
983.79	4159.42
983.95	4255.68
984.11	4083.65
984.27	4100.03
984.43	4216.77
984.59	4140.99
984.75	4304.83
984.91	4179.90
985.08	4067.27
985.24	4007.87
985.40	4104.13
985.56	4120.51
985.72	4157.38
985.88	4190.14
986.04	4057.03
986.20	4030.40
986.37	4169.66
986.53	4018.11
986.69	3968.96
986.85	3993.54
987.01	4050.88
987.17	4022.21
987.33	4028.35
987.49	4042.69
987.65	3936.20
987.82	4132.80
987.98	3983.30
988.14	3903.43
988.30	3991.49
988.46	3868.61
988.62	3891.14
988.78	3893.19
988.94	3995.59
989.10	3829.70
989.26	3782.60
989.42	3817.41
989.59	3780.55
989.75	3751.88
989.91	3891.14
990.07	3698.63
990.23	3819.46
990.39	3753.93
990.55	3805.13
990.71	3735.50
990.87	3735.50
991.03	3796.93
991.19	3852.23
991.35	3784.65
991.51	3749.83
991.67	3831.75
991.83	3721.16
992.00	3772.36
992.16	3850.18
992.32	3719.11
992.48	3698.63
992.64	3639.24
992.80	3678.15
992.96	3639.24
993.12	3639.24
993.28	3643.34
993.44	3573.71
993.60	3639.24
993.76	3592.14
993.92	3694.54
994.08	3696.58
994.24	3696.58
994.40	3571.66
994.56	3653.58
994.72	3594.19
994.88	3600.33
995.04	3530.70
995.20	3530.70
995.36	3477.45
995.52	3575.75
995.68	3579.85
995.84	3440.59
996.00	3598.28
996.16	3557.32
996.32	3401.68
996.48	3399.63
996.64	3502.03
996.80	3360.72
996.96	3459.02
997.12	3395.53
997.28	3354.57
997.44	3448.78
997.60	3350.48
997.76	3264.46
997.92	3383.24
998.08	3430.35
998.24	3330.00
998.40	3393.48
998.56	3446.73
998.72	3358.67
998.88	3338.19
999.04	3346.38
999.20	3334.09
999.36	3227.60
999.52	3405.77
999.68	3313.61
999.84	3360.72
1000.00	3272.65
1000.16	3317.71
1000.32	3166.16
1000.48	3350.48
1000.64	3319.76
1000.80	3174.35
1000.95	3186.64
1001.11	3221.45
1001.27	3143.63
1001.43	3157.97
1001.59	3102.67
1001.75	3094.48
1001.91	3248.08
1002.07	3033.04
1002.23	3215.31
1002.39	3121.10
1002.55	3153.87
1002.71	3104.72
1002.87	3041.23
1003.03	3104.72
1003.19	3145.68
1003.34	3209.17
1003.50	3051.47
1003.66	3104.72
1003.82	2985.94
1003.98	3039.19
1004.14	3049.43
1004.30	3088.34
1004.46	2973.65
1004.62	3053.52
1004.78	3092.43
1004.94	3028.95
1005.09	2996.18
1005.25	3008.47
1005.41	2981.84
1005.57	2971.60
1005.73	3086.29
1005.89	3035.09
1006.05	2992.08
1006.21	2920.40
1006.37	2932.69
1006.52	2967.51
1006.68	2795.48
1006.84	3061.71
1007.00	2858.96
1007.16	3014.61
1007.32	2887.64
1007.48	2922.45
1007.64	2947.03
1007.79	2895.83
1007.95	2830.29
1008.11	2910.16
1008.27	2873.30
1008.43	2885.59
1008.59	2838.48
1008.75	2959.31
1008.91	2848.72
1009.06	2744.28
1009.22	2811.86
1009.38	2869.20
1009.54	2777.05
1009.70	2762.71
1009.86	2854.87
1010.01	2834.39
1010.17	2715.61
1010.33	2762.71
1010.49	2768.85
1010.65	2834.39
1010.81	2658.26
1010.96	2738.13
1011.12	2756.57
1011.28	2621.40
1011.44	2752.47
1011.60	2748.37
1011.76	2693.08
1011.91	2725.85
1012.07	2627.54
1012.23	2744.28
1012.39	2576.34
1012.55	2631.64
1012.71	2729.94
1012.86	2688.98
1013.02	2643.93
1013.18	2594.78
1013.34	2557.91
1013.50	2719.70
1013.65	2709.46
1013.81	2621.40
1013.97	2576.34
1014.13	2699.22
1014.29	2623.45
1014.44	2723.80
1014.60	2650.07
1014.76	2582.49
1014.92	2580.44
1015.07	2625.50
1015.23	2625.50
1015.39	2564.06
1015.55	2543.58
1015.71	2508.76
1015.86	2533.34
1016.02	2498.52
1016.18	2469.85
1016.34	2484.19
1016.49	2494.43
1016.65	2562.01
1016.81	2566.10
1016.97	2568.15
1017.12	2615.26
1017.28	2453.47
1017.44	2394.08
1017.60	2459.61
1017.75	2494.43
1017.91	2486.23
1018.07	2525.15
1018.23	2623.45
1018.38	2451.42
1018.54	2377.69
1018.70	2467.80
1018.86	2465.75
1019.01	2498.52
1019.17	2432.99
1019.33	2580.44
1019.49	2445.27
1019.64	2383.84
1019.80	2504.67
1019.96	2398.17
1020.12	2441.18
1020.27	2320.35
1020.43	2402.27
1020.59	2351.07
1020.74	2449.37
1020.90	2414.56
1021.06	2293.72
1021.22	2369.50
1021.37	2400.22
1021.53	2299.87
1021.69	2349.02
1021.84	2310.11
1022.00	2332.64
1022.16	2351.07
1022.31	2314.20
1022.47	2357.21
1022.63	2385.88
1022.79	2217.95
1022.94	2238.43
1023.10	2373.60
1023.26	2285.53
1023.41	2322.40
1023.57	2277.34
1023.73	2293.72
1023.88	2222.05
1024.04	2209.76
1024.20	2322.40
1024.35	2314.20
1024.51	2240.48
1024.67	2240.48
1024.82	2277.34
1024.98	2308.06
1025.14	2287.58
1025.29	2197.47
1025.45	2258.91
1025.61	2293.72
1025.76	2326.49
1025.92	2185.18
1026.08	2201.57
1026.23	2220.00
1026.39	2295.77
1026.55	2176.99
1026.70	2146.27
1026.86	2181.09
1027.02	2226.14
1027.17	2150.37
1027.33	2285.53
1027.48	2191.33
1027.64	2199.52
1027.80	2154.46
1027.95	2289.63
1028.11	2031.58
1028.27	2265.05
1028.42	2133.98
1028.58	2148.32
1028.73	2154.46
1028.89	1970.15
1029.05	2195.42
1029.20	2181.09
>>>>>End Processed Spectral Data<<<<<
