SpectraSuite Data File
++++++++++++++++++++++++++++++++++++
Date: Fri Jun 02 14:47:58 CEST 2017
User: INFO_000
Dark Spectrum Present: No
Reference Spectrum Present: No
Number of Sampled Component Spectra: 1
Spectrometers: USB4H00879
Integration Time (usec): 80000 (USB4H00879)
Spectra Averaged: 1 (USB4H00879)
Boxcar Smoothing: 0 (USB4H00879)
Correct for Electrical Dark: No (USB4H00879)
Strobe/Lamp Enabled: No (USB4H00879)
Correct for Detector Non-linearity: No (USB4H00879)
Correct for Stray Light: No (USB4H00879)
Number of Pixels in Processed Spectrum: 3648
>>>>>Begin Processed Spectral Data<<<<<
345.13	1218.54
345.34	1218.54
345.56	1218.54
345.78	1275.88
345.99	1290.22
346.21	1683.43
346.42	1652.71
346.64	1601.51
346.86	1728.49
347.07	1716.20
347.29	1712.10
347.50	1632.23
347.72	1662.95
347.94	1693.67
348.15	1572.84
348.37	1634.28
348.59	1718.25
348.80	1646.57
349.02	1843.17
349.23	1841.12
349.45	1843.17
349.67	1863.65
349.88	1818.60
350.10	1978.34
350.31	1798.12
350.53	1732.58
350.75	1931.23
350.96	1859.56
351.18	1941.47
351.39	1843.17
351.61	1851.36
351.82	1896.42
352.04	1957.86
352.26	1816.55
352.47	1855.46
352.69	1929.19
352.90	1765.35
353.12	1855.46
353.34	1855.46
353.55	1920.99
353.77	1802.21
353.98	1826.79
354.20	1820.64
354.41	1888.23
354.63	1920.99
354.85	1978.34
355.06	1970.15
355.28	1863.65
355.49	1847.27
355.71	1892.32
355.92	1845.22
356.14	1925.09
356.35	1818.60
356.57	1822.69
356.79	1886.18
357.00	1871.84
357.22	1812.45
357.43	1855.46
357.65	1949.67
357.86	1812.45
358.08	1929.19
358.29	1937.38
358.51	1964.00
358.72	1869.80
358.94	2000.87
359.16	1935.33
359.37	1959.91
359.59	1884.13
359.80	2056.16
360.02	1888.23
360.23	1974.24
360.45	2031.58
360.66	1972.19
360.88	1892.32
361.09	1851.36
361.31	2013.15
361.52	2019.30
361.74	2047.97
361.95	2113.50
362.17	1992.67
362.38	2136.03
362.60	2045.92
362.81	1914.85
363.03	1925.09
363.24	1964.00
363.46	1984.48
363.67	2039.78
363.89	2125.79
364.10	2043.87
364.32	2017.25
364.53	2045.92
364.75	1783.78
364.96	1974.24
365.18	2035.68
365.39	2037.73
365.61	2004.96
365.82	2082.78
366.04	2023.39
366.25	1949.67
366.47	1982.43
366.68	1953.76
366.90	2002.91
367.11	2107.36
367.33	2117.60
367.54	2039.78
367.76	2004.96
367.97	2072.54
368.19	2033.63
368.40	2088.93
368.62	1980.39
368.83	1966.05
369.05	2056.16
369.26	1918.95
369.48	1968.10
369.69	2029.54
369.91	2052.06
370.12	1992.67
370.33	2150.37
370.55	1959.91
370.76	2021.35
370.98	2076.64
371.19	1986.53
371.41	2074.59
371.62	2045.92
371.84	1982.43
372.05	2230.24
372.27	2050.02
372.48	2019.30
372.69	2099.17
372.91	2152.42
373.12	2144.22
373.34	2084.83
373.55	2066.40
373.77	2215.90
373.98	2172.89
374.20	2211.81
374.41	2234.33
374.62	2082.78
374.84	2150.37
375.05	2205.66
375.27	2228.19
375.48	2140.13
375.70	2213.85
375.91	2199.52
376.12	2148.32
376.34	2119.65
376.55	2131.94
376.77	2160.61
376.98	2052.06
377.19	2111.46
377.41	2088.93
377.62	2217.95
377.84	2275.29
378.05	2275.29
378.27	2215.90
378.48	2289.63
378.69	2353.12
378.91	2299.87
379.12	2236.38
379.34	2199.52
379.55	2357.21
379.76	2244.57
379.98	2234.33
380.19	2230.24
380.41	2226.14
380.62	2279.39
380.83	2295.77
381.05	2240.48
381.26	2387.93
381.47	2271.20
381.69	2238.43
381.90	2408.41
382.12	2320.35
382.33	2308.06
382.54	2283.49
382.76	2287.58
382.97	2334.68
383.19	2310.11
383.40	2346.97
383.61	2332.64
383.83	2291.68
384.04	2363.36
384.25	2351.07
384.47	2469.85
384.68	2342.88
384.89	2412.51
385.11	2359.26
385.32	2326.49
385.54	2336.73
385.75	2344.92
385.96	2398.17
386.18	2340.83
386.39	2398.17
386.60	2412.51
386.82	2432.99
387.03	2416.60
387.24	2516.95
387.46	2418.65
387.67	2482.14
387.88	2551.77
388.10	2506.71
388.31	2484.19
388.52	2572.25
388.74	2510.81
388.95	2510.81
389.16	2549.72
389.38	2461.66
389.59	2426.84
389.80	2605.02
390.02	2562.01
390.23	2574.30
390.44	2541.53
390.66	2570.20
390.87	2525.15
391.08	2559.96
391.30	2713.56
391.51	2658.26
391.72	2654.17
391.94	2666.46
392.15	2605.02
392.36	2514.91
392.58	2568.15
392.79	2664.41
393.00	2650.07
393.22	2729.94
393.43	2691.03
393.64	2807.77
393.85	2723.80
394.07	2740.18
394.28	2713.56
394.49	2736.09
394.71	2723.80
394.92	2848.72
395.13	2703.32
395.35	2705.37
395.56	2711.51
395.77	2826.20
395.98	2865.11
396.20	2785.24
396.41	2801.62
396.62	2883.54
396.84	2754.52
397.05	2801.62
397.26	2910.16
397.47	2883.54
397.69	2803.67
397.90	3065.81
398.11	2901.97
398.32	2891.73
398.54	2869.20
398.75	2848.72
398.96	2820.05
399.18	3147.73
399.39	2947.03
399.60	3010.51
399.81	2944.98
400.03	2926.55
400.24	3178.45
400.45	2920.40
400.66	3065.81
400.88	2981.84
401.09	3129.30
401.30	3102.67
401.51	3065.81
401.73	3186.64
401.94	3057.62
402.15	3106.77
402.36	3233.74
402.58	3155.92
402.79	3215.31
403.00	3162.06
403.21	3211.22
403.43	3151.82
403.64	3272.65
403.85	3194.83
404.06	3211.22
404.27	3211.22
404.49	3215.31
404.70	3063.76
404.91	3248.08
405.12	3258.32
405.34	3166.16
405.55	3397.58
405.76	3141.58
405.97	3110.86
406.19	3391.44
406.40	3330.00
406.61	3377.10
406.82	3274.70
407.03	3252.17
407.25	3272.65
407.46	3358.67
407.67	3467.21
407.88	3420.11
408.09	3352.52
408.31	3266.51
408.52	3286.99
408.73	3428.30
408.94	3448.78
409.15	3426.25
409.37	3514.31
409.58	3524.55
409.79	3522.51
410.00	3456.97
410.21	3452.88
410.43	3411.92
410.64	3479.50
410.85	3614.66
411.06	3645.38
411.27	3596.23
411.48	3676.10
411.70	3602.38
411.91	3581.90
412.12	3655.62
412.33	3506.12
412.54	3551.18
412.76	3624.90
412.97	3735.50
413.18	3516.36
413.39	3608.52
413.60	3727.30
413.81	3641.29
414.03	3618.76
414.24	3569.61
414.45	3778.50
414.66	3594.19
414.87	3659.72
415.08	3682.25
415.30	3667.91
415.51	3870.66
415.72	3715.02
415.93	3813.32
416.14	3819.46
416.35	3858.37
416.56	3776.45
416.78	3725.26
416.99	3774.41
417.20	3784.65
417.41	3880.90
417.62	3827.65
417.83	3860.42
418.04	3917.76
418.26	3835.85
418.47	3833.80
418.68	3952.58
418.89	3885.00
419.10	4054.98
419.31	3971.01
419.52	4116.42
419.73	4050.88
419.95	4020.16
420.16	3878.85
420.37	3962.82
420.58	4063.17
420.79	3948.48
421.00	4030.40
421.21	4067.27
421.42	4024.26
421.63	4136.90
421.85	4138.94
422.06	4222.91
422.27	4048.83
422.48	4057.03
422.69	4200.38
422.90	4200.38
423.11	4198.34
423.32	4220.86
423.53	4353.98
423.75	4239.30
423.96	4532.15
424.17	4347.84
424.38	4417.47
424.59	4237.25
424.80	4446.14
425.01	4386.75
425.22	4317.12
425.43	4403.13
425.64	4630.46
425.85	4513.72
426.06	4521.92
426.28	4513.72
426.49	4380.61
426.70	4394.94
426.91	4552.63
427.12	4675.51
427.33	4456.38
427.54	4556.73
427.75	4736.95
427.96	4743.10
428.17	4706.23
428.38	4857.78
428.59	4788.15
428.80	4683.70
429.01	4786.10
429.23	4812.73
429.44	4898.74
429.65	4851.64
429.86	4894.65
430.07	4798.39
430.28	4868.02
430.49	4964.28
430.70	4861.88
430.91	4964.28
431.12	4949.94
431.33	5195.70
431.54	5142.45
431.75	5035.96
431.96	5099.44
432.17	5105.59
432.38	5015.48
432.59	5334.96
432.80	5158.83
433.01	5314.48
433.22	5255.09
433.43	5191.60
433.64	5101.49
433.85	5300.14
434.06	5367.73
434.27	5263.28
434.49	5271.47
434.70	5412.78
434.91	5431.21
435.12	5312.43
435.33	5447.60
435.54	5500.84
435.75	5306.29
435.96	5418.93
436.17	5302.19
436.38	5642.15
436.59	5558.19
436.80	5394.35
437.01	5685.16
437.22	5719.98
437.43	5736.36
437.64	5410.73
437.85	5724.07
438.06	5691.31
438.27	5486.51
438.48	5636.01
438.69	5861.29
438.90	5814.18
439.11	5832.62
439.32	5863.33
439.53	5793.70
439.74	5947.30
439.95	5787.56
440.16	5818.28
440.37	5937.06
440.57	5699.50
440.78	5887.91
440.99	6037.41
441.20	6025.12
441.41	5844.90
441.62	5793.70
441.83	5849.00
442.04	6076.32
442.25	5951.40
442.46	5953.45
442.67	6055.84
442.88	6571.93
443.09	6049.70
443.30	6164.39
443.51	6315.94
443.72	6322.08
443.93	6168.48
444.14	6471.58
444.35	6139.81
444.56	6444.96
444.77	6311.84
444.98	6242.21
445.19	6289.31
445.40	6424.48
445.61	6426.53
445.81	6551.45
446.02	6614.94
446.23	6397.85
446.44	6371.23
446.65	6510.49
446.86	6518.68
447.07	6410.14
447.28	6811.54
447.49	6649.75
447.70	6475.68
447.91	6668.19
448.12	6666.14
448.33	6807.45
448.54	6840.22
448.74	6557.60
448.95	6780.82
449.16	6614.94
449.37	6903.70
449.58	6819.74
449.79	7038.87
450.00	6842.26
450.21	6887.32
450.42	6858.65
450.63	6948.76
450.84	6987.67
451.05	6911.89
451.25	6862.74
451.46	6866.84
451.67	7174.03
451.88	7131.03
452.09	7128.98
452.30	7022.48
452.51	7077.78
452.72	7258.00
452.93	7612.30
453.13	7088.02
453.34	7184.27
453.55	7083.92
453.76	7358.35
453.97	7677.83
454.18	7491.47
454.39	7462.80
454.60	7407.50
454.81	7319.44
455.01	7749.51
455.22	7325.58
455.43	7475.09
455.64	7630.73
455.85	7853.96
456.06	7942.02
456.27	7735.18
456.48	7714.70
456.68	7872.39
456.89	7841.67
457.10	7853.96
457.31	7726.99
457.52	7860.10
457.73	7942.02
457.94	8163.20
458.14	7772.04
458.35	8404.86
458.56	8071.04
458.77	8226.69
458.98	8085.38
459.19	8138.63
459.39	8259.46
459.60	8437.63
459.81	8259.46
460.02	8519.55
460.23	8343.42
460.44	8671.10
460.65	8425.34
460.85	8529.79
461.06	8646.52
461.27	8322.94
461.48	8720.25
461.69	8888.18
461.89	8513.41
462.10	8765.31
462.31	8736.63
462.52	8867.70
462.73	8904.57
462.94	8935.29
463.14	9045.88
463.35	8929.14
463.56	9504.62
463.77	9267.06
463.98	9068.41
464.18	9039.73
464.39	9373.55
464.60	9490.29
464.81	9500.53
465.02	9344.88
465.23	9635.69
465.43	9455.47
465.64	9734.00
465.85	9756.52
466.06	9549.68
466.27	9785.19
466.47	9926.50
466.68	9746.28
466.89	9914.22
467.10	10076.01
467.30	9801.58
467.51	10043.24
467.72	10229.60
467.93	9791.34
468.14	10215.27
468.34	10360.67
468.55	10456.93
468.76	10344.29
468.97	10323.81
469.17	10440.54
469.38	10680.16
469.59	10921.82
469.80	10532.70
470.01	10835.80
470.21	10731.36
470.42	11083.61
470.63	11126.61
470.84	10989.40
471.04	11292.50
471.25	11276.12
471.46	11231.06
471.67	11442.00
471.87	11339.60
472.08	11546.45
472.29	11700.05
472.50	11382.61
472.70	11470.67
472.91	11616.08
473.12	11894.60
473.33	12056.39
473.53	12060.49
473.74	11902.79
473.95	12240.71
474.16	12574.53
474.36	12222.28
474.57	12224.33
474.78	12564.29
474.99	12511.04
475.19	12605.25
475.40	12666.69
475.61	12832.57
475.81	13033.27
476.02	13121.34
476.23	12801.85
476.44	13162.30
476.64	13428.53
476.85	13473.59
477.06	13344.56
477.27	13645.62
477.47	13745.97
477.68	13750.06
477.89	13844.27
478.09	14079.79
478.30	13911.85
478.51	14147.37
478.71	14243.62
478.92	14042.92
479.13	14294.82
479.34	14272.29
479.54	14634.78
479.75	14509.86
479.96	14540.58
480.16	14841.63
480.37	14905.12
480.58	14993.18
480.78	15101.72
480.99	15191.83
481.20	15097.63
481.41	15128.35
481.61	15449.88
481.82	15712.02
482.03	15726.35
482.23	15771.41
482.44	15834.89
482.65	16131.85
482.85	16148.23
483.06	16035.60
483.27	16131.85
483.47	16162.57
483.68	16094.99
483.89	16572.16
484.09	16361.22
484.30	16654.08
484.51	16690.95
484.71	16963.33
484.92	16764.67
485.13	16801.54
485.33	17071.87
485.54	17127.16
485.75	17415.93
485.95	17467.13
486.16	17450.74
486.37	17782.51
486.57	17669.87
486.78	17544.95
486.98	17735.41
487.19	17848.05
487.40	18050.80
487.60	17946.35
487.81	18157.29
488.02	18054.89
488.22	17942.25
488.43	18433.77
488.64	18401.00
488.84	18499.30
489.05	18685.67
489.25	18423.53
489.46	18970.33
489.67	18898.66
489.87	19238.62
490.08	19246.81
490.29	19281.63
490.49	19414.74
490.70	19384.02
490.90	19547.86
491.11	19502.81
491.32	19457.75
491.52	19394.26
491.73	19754.71
491.94	19771.09
492.14	19840.72
492.35	20143.82
492.55	20063.95
492.76	20256.46
492.97	20475.59
493.17	20350.67
493.38	20371.15
493.58	20758.21
493.79	20375.24
494.00	20731.59
494.20	20491.98
494.41	20833.99
494.61	20768.45
494.82	20866.75
495.02	21003.97
495.23	21202.62
495.44	21216.96
495.64	21464.76
495.85	21190.33
496.05	21257.92
496.26	21194.43
496.47	21794.48
496.67	21409.47
496.88	21825.20
497.08	21651.13
497.29	22083.25
497.49	21917.36
497.70	22058.67
497.91	21954.22
498.11	22073.01
498.32	22099.63
498.52	22451.88
498.73	22503.08
498.93	22357.67
499.14	22736.55
499.34	22609.58
499.55	22623.91
499.76	22539.94
499.96	22640.29
500.17	22701.73
500.37	23101.09
500.58	22703.78
500.78	23015.07
500.99	23226.01
501.19	23207.58
501.40	23383.71
501.60	23185.05
501.81	23158.43
502.02	23434.91
502.22	23164.57
502.43	23461.53
502.63	24028.82
502.84	23760.53
503.04	23654.04
503.25	23815.83
503.45	23824.02
503.66	23654.04
503.86	23901.84
504.07	24256.14
504.27	24170.13
504.48	24221.33
504.68	24176.27
504.89	24458.89
505.09	24573.58
505.30	24352.40
505.50	24297.10
505.71	24608.39
505.91	24852.10
506.12	24383.12
506.32	24698.50
506.53	24845.96
506.73	24735.37
506.94	25155.20
507.14	25138.82
507.35	25048.71
507.55	25173.63
507.76	25331.33
507.96	25056.90
508.17	25085.57
508.37	25284.22
508.58	25544.31
508.78	25706.10
508.99	25650.81
509.19	25636.47
509.40	25699.96
509.60	25751.16
509.81	25888.37
510.01	25888.37
510.22	25982.58
510.42	25929.33
510.63	25953.91
510.83	26252.91
511.04	26113.65
511.24	26109.55
511.44	26269.30
511.65	26531.44
511.85	26224.24
512.06	26541.68
512.26	26402.41
512.47	26642.03
512.67	26732.14
512.88	26826.34
513.08	26648.17
513.29	26822.25
513.49	26693.22
513.69	27158.11
513.90	26842.73
514.10	27063.91
514.31	27182.69
514.51	27250.27
514.72	27063.91
514.92	26838.63
515.13	27141.73
515.33	27356.77
515.53	27493.98
515.74	27342.43
515.94	27653.72
516.15	27741.78
516.35	27461.21
516.56	27989.59
516.76	27485.79
516.96	27848.28
517.17	28186.19
517.37	28024.40
517.58	28134.99
517.78	28075.60
517.99	28313.17
518.19	28520.01
518.39	28560.97
518.60	28517.96
518.80	28536.40
519.01	28681.80
519.21	28636.75
519.41	28739.15
519.62	28898.89
519.82	28923.46
520.03	29226.56
520.23	29054.53
520.43	28726.86
520.64	29183.55
520.84	29494.85
521.05	29095.49
521.25	29431.36
521.45	29369.92
521.66	29859.38
521.86	29865.53
522.07	29713.98
522.27	29963.83
522.47	29824.57
522.68	30002.74
522.88	30010.93
523.08	30078.52
523.29	30137.91
523.49	30637.61
523.70	30185.01
523.90	30776.87
524.10	30268.98
524.31	30633.52
524.51	30398.00
524.71	31223.33
524.92	30535.21
525.12	31184.42
525.33	30916.14
525.53	30998.06
525.73	31413.79
525.94	31448.61
526.14	31342.11
526.34	31399.46
526.55	31694.36
526.75	31667.74
526.95	31976.98
527.16	31579.68
527.36	31690.27
527.56	32058.90
527.77	32220.69
527.97	32407.06
528.17	32106.01
528.38	32288.28
528.58	32194.07
528.78	32730.64
528.99	32407.06
529.19	32988.68
529.39	32605.71
529.60	32980.49
529.80	32923.15
530.00	32562.70
530.21	33191.43
530.41	33330.69
530.61	33076.74
530.82	33306.12
531.02	33412.61
531.22	33666.56
531.43	33705.47
531.63	33619.46
531.83	34022.90
532.04	33936.89
532.24	33959.42
532.44	33986.04
532.64	34395.64
532.85	34481.65
533.05	34231.80
533.25	34133.50
533.46	34315.76
533.66	34903.53
533.86	34627.06
534.07	34893.29
534.27	35139.05
534.47	35042.79
534.67	35018.22
534.88	34930.16
535.08	35042.79
535.28	35186.15
535.49	35253.73
535.69	35610.08
535.89	35536.35
536.09	35804.64
536.30	35747.29
536.50	35769.82
536.70	35771.87
536.91	35853.79
537.11	35782.11
537.31	35872.22
537.51	36060.63
537.72	36318.68
537.92	36353.49
538.12	36636.11
538.32	36333.01
538.53	36453.84
538.73	36249.05
538.93	36623.83
539.13	36838.86
539.34	36738.51
539.54	36777.42
539.74	36881.87
539.94	36799.95
540.15	36812.24
540.35	37447.11
540.55	37068.23
540.75	37121.48
540.96	37234.12
541.16	37182.92
541.36	37594.56
541.56	37549.51
541.77	37557.70
541.97	37762.50
542.17	37995.96
542.37	37723.58
542.58	37633.47
542.78	37379.53
542.98	37707.20
543.18	38247.86
543.38	38479.28
543.59	38522.29
543.79	37944.76
543.99	38053.31
544.19	38581.68
544.40	38501.81
544.60	38784.43
544.80	38129.08
545.00	38170.04
545.20	38577.59
545.41	38426.04
545.61	38591.92
545.81	39142.83
546.01	38569.40
546.21	38952.37
546.42	38501.81
546.62	38864.30
546.82	38591.92
547.02	38989.23
547.22	39247.27
547.43	39130.54
547.63	39202.22
547.83	39372.20
548.03	38862.26
548.23	39165.35
548.44	39366.06
548.64	39464.36
548.84	39624.10
549.04	39640.48
549.24	39589.28
549.45	39650.72
549.65	39638.44
549.85	39583.14
550.05	39505.32
550.25	39865.76
550.45	40301.98
550.66	39824.80
550.86	40080.80
551.06	40383.90
551.26	40023.45
551.46	40095.13
551.66	40285.59
551.87	40136.09
552.07	40406.42
552.27	40330.65
552.47	40336.79
552.67	40392.09
552.87	40164.76
553.07	40355.22
553.28	40469.91
553.48	40603.03
553.68	40164.76
553.88	40854.93
554.08	40891.79
554.28	40877.46
554.48	40476.05
554.69	40527.25
554.89	40854.93
555.09	40899.98
555.29	40684.95
555.49	40969.61
555.69	40738.19
555.89	40873.36
556.10	41147.79
556.30	41115.02
556.50	41172.36
556.70	41127.31
556.90	41418.12
557.10	41278.86
557.30	41545.09
557.50	41311.63
557.70	41276.81
557.91	42057.09
558.11	41352.58
558.31	41721.22
558.51	41194.89
558.71	41803.14
558.91	42014.08
559.11	41596.29
559.31	41584.01
559.51	41596.29
559.72	41622.92
559.92	41997.70
560.12	41758.08
560.32	42212.73
560.52	41710.98
560.72	42161.53
560.92	42106.24
561.12	42202.49
561.32	42554.74
561.52	41827.71
561.72	42792.31
561.93	41946.50
562.13	42444.15
562.33	42005.89
562.53	43019.63
562.73	42460.54
562.93	42556.79
563.13	42382.71
563.33	42517.88
563.53	42642.81
563.73	42931.57
563.93	43046.26
564.13	43081.07
564.33	42915.19
564.53	42749.30
564.74	43072.88
564.94	42386.81
565.14	42939.76
565.34	42720.63
565.54	42843.51
565.74	43298.16
565.94	43400.55
566.14	43253.10
566.34	43263.34
566.54	43599.21
566.74	43478.38
566.94	43814.24
567.14	43636.07
567.34	43218.28
567.54	43750.76
567.74	43685.22
567.94	43750.76
568.14	43906.40
568.34	44021.09
568.54	43916.64
568.74	44082.53
568.94	43873.63
569.14	44352.86
569.34	44500.31
569.54	44408.15
569.75	44164.45
569.95	44266.84
570.15	45081.94
570.35	44692.82
570.55	44707.16
570.75	44553.56
570.95	44502.36
571.15	44799.32
571.35	44588.38
571.55	44916.05
571.75	44680.53
571.95	44967.25
572.15	44488.03
572.35	44893.52
572.55	44844.37
572.75	45200.72
572.95	45034.83
573.15	44944.72
573.35	45221.20
573.55	45083.98
573.75	45176.14
573.95	45335.88
574.15	45473.10
574.35	45749.57
574.55	45532.49
574.75	45909.32
574.95	45528.39
575.15	45299.02
575.34	45911.36
575.54	46058.82
575.74	46124.35
575.94	46171.46
576.14	45888.84
576.34	46413.12
576.54	46501.18
576.74	46030.15
576.94	45987.14
577.14	46351.68
577.34	46742.84
577.54	45808.96
577.74	46282.05
577.94	46320.96
578.14	46613.82
578.34	46705.98
578.54	46138.69
578.74	46705.98
578.94	47072.56
579.14	46699.83
579.34	47199.54
579.54	47168.82
579.74	47199.54
579.94	47252.78
580.13	47484.20
580.33	47242.54
580.53	47166.77
580.73	47699.24
580.93	47713.58
581.13	47732.01
581.33	47600.94
581.53	48141.60
581.73	48069.92
581.93	47828.26
582.13	47643.94
582.33	47846.69
582.53	47768.87
582.73	47996.20
582.92	48047.39
583.12	48334.11
583.32	48332.06
583.52	47793.45
583.72	47850.79
583.92	48272.67
584.12	48205.09
584.32	48925.97
584.52	48489.76
584.72	48596.25
584.92	48149.79
585.11	49091.86
585.31	48424.22
585.51	48631.07
585.71	48872.73
585.91	49263.89
586.11	48633.11
586.31	48725.27
586.51	48821.53
586.71	49304.85
586.91	49370.38
587.10	49081.62
587.30	49415.44
587.50	49743.11
587.70	49194.26
587.90	49333.52
588.10	49603.85
588.30	48852.25
588.50	49661.19
588.69	49456.40
588.89	49267.98
589.09	49569.04
589.29	49577.23
589.49	50113.80
589.69	49556.75
589.89	49736.97
590.08	49900.81
590.28	49607.95
590.48	50038.02
590.68	49876.23
590.88	50130.18
591.08	49806.60
591.28	50130.18
591.47	50615.55
591.67	50226.43
591.87	49943.81
592.07	50056.45
592.27	49853.70
592.47	50341.12
592.67	50251.01
592.86	50199.81
593.06	50294.02
593.26	50482.43
593.46	50281.73
593.66	50091.27
593.86	50570.49
594.05	50423.04
594.25	50660.60
594.45	50152.71
594.65	50844.92
594.85	50136.32
595.05	50410.75
595.24	50406.65
595.44	50961.65
595.64	50615.55
595.84	50531.58
596.04	50595.07
596.23	51127.54
596.43	50791.67
596.63	50824.44
596.83	50554.11
597.03	51238.13
597.22	51301.62
597.42	50963.70
597.62	51324.14
597.82	50822.39
598.02	51051.76
598.21	51295.47
598.41	51012.85
598.61	51631.34
598.81	51361.01
599.01	51721.45
599.20	51680.49
599.40	51166.45
599.60	51326.19
599.80	51623.15
600.00	51770.60
600.19	51553.52
600.39	51297.52
600.59	51633.39
600.79	51596.52
600.98	52045.03
601.18	51985.64
601.38	52055.27
601.58	51909.86
601.78	51909.86
601.97	51983.59
602.17	52360.42
602.37	52036.84
602.57	52274.40
602.76	52466.91
602.96	51653.87
603.16	52139.24
603.36	51950.82
603.55	52356.32
603.75	51967.21
603.95	52606.17
604.15	52335.84
604.34	52475.10
604.54	52477.15
604.74	52790.49
604.94	52511.97
605.13	52671.71
605.33	52712.67
605.53	52507.87
605.73	52571.36
605.92	52567.26
606.12	53210.32
606.32	52667.61
606.52	53404.88
606.71	52909.27
606.91	53116.12
607.11	52622.56
607.30	52997.34
607.50	52751.58
607.70	53105.88
607.90	52995.29
608.09	52925.66
608.29	52327.65
608.49	52767.96
608.68	52978.90
608.88	53189.84
609.08	53001.43
609.28	52827.35
609.47	53318.87
609.67	53681.36
609.87	53286.10
610.06	53671.12
610.26	53179.60
610.46	53607.63
610.66	53542.10
610.85	53396.69
611.05	53198.04
611.25	53548.24
611.44	53308.63
611.64	53341.39
611.84	52704.48
612.03	52921.56
612.23	53646.54
612.43	53515.47
612.62	53300.43
612.82	53605.58
613.02	52983.00
613.21	53474.51
613.41	53144.79
613.61	53603.53
613.80	52978.90
614.00	53550.29
614.20	53331.15
614.39	52999.38
614.59	53380.31
614.79	53306.58
614.98	53499.09
615.18	53464.27
615.38	53716.17
615.57	53089.49
615.77	53783.76
615.97	53892.30
616.16	53431.50
616.36	53322.96
616.56	54021.32
616.75	53720.27
616.95	53413.07
617.15	53744.84
617.34	53671.12
617.54	53701.84
617.74	53875.91
617.93	53447.89
618.13	52800.73
618.32	53601.49
618.52	52999.38
618.72	53419.22
618.91	53630.16
619.11	53028.05
619.31	53648.59
619.50	53449.94
619.70	52985.05
619.90	53568.72
620.09	53417.17
620.29	53570.77
620.48	53359.83
620.68	53486.80
620.88	53390.55
621.07	53513.42
621.27	53912.78
621.46	53118.17
621.66	53337.30
621.86	53501.14
622.05	53794.00
622.25	53523.66
622.44	53177.56
622.64	53019.86
622.84	53355.73
623.03	53257.43
623.23	53089.49
623.42	53540.05
623.62	53841.10
623.82	54107.33
624.01	53224.66
624.21	53544.14
624.40	53351.63
624.60	53830.86
624.80	53382.35
624.99	53902.54
625.19	53298.39
625.38	53785.80
625.58	54076.61
625.77	53605.58
625.97	53736.65
626.17	53378.26
626.36	53386.45
626.56	53552.33
626.75	53077.21
626.95	53849.29
627.14	53873.87
627.34	53894.35
627.54	53331.15
627.73	53843.15
627.93	53794.00
628.12	53523.66
628.32	53959.88
628.51	53476.56
628.71	53740.75
628.90	53728.46
629.10	53722.32
629.30	53644.49
629.49	53779.66
629.69	54084.81
629.88	53535.95
630.08	54093.00
630.27	54052.04
630.47	54097.09
630.66	53554.38
630.86	53904.59
631.05	53748.94
631.25	54312.13
631.44	54219.97
631.64	53998.79
631.84	54451.39
632.03	54557.89
632.23	53986.50
632.42	54832.32
632.62	54500.54
632.81	53861.58
633.01	54512.83
633.20	54787.26
633.40	54488.26
633.59	54316.23
633.79	54140.10
633.98	54285.51
634.18	54211.78
634.37	54533.31
634.57	54084.81
634.76	54478.02
634.96	54359.23
635.15	54056.14
635.35	54346.95
635.54	54357.19
635.74	54951.10
635.93	54478.02
636.13	54793.40
636.32	54580.42
636.52	54142.15
636.71	54502.59
636.91	54492.35
637.10	54740.16
637.30	54738.11
637.49	54684.86
637.69	54375.62
637.88	54932.67
638.08	54826.17
638.27	54940.86
638.46	55061.69
638.66	54670.53
638.85	54865.08
639.05	55030.97
639.24	55370.93
639.44	54942.91
639.63	55153.85
639.83	55338.16
640.02	54729.92
640.22	54791.36
640.41	55366.84
640.61	55033.02
640.80	54977.72
640.99	55065.78
641.19	55981.23
641.38	55194.81
641.58	55119.03
641.77	54975.67
641.97	55176.37
642.16	55598.26
642.36	55637.17
642.55	56016.04
642.74	55471.28
642.94	56341.67
643.13	55604.40
643.33	55604.40
643.52	55942.31
643.72	55731.37
643.91	55551.15
644.10	55669.93
644.30	56067.24
644.49	55813.29
644.69	55882.92
644.88	56186.02
645.08	55991.47
645.27	55831.72
645.46	55458.99
645.66	56028.33
645.85	55786.67
646.05	56044.71
646.24	56343.72
646.43	56143.02
646.63	56370.34
646.82	56536.23
647.02	56104.10
647.21	56401.06
647.40	56276.13
647.60	56356.00
647.79	56472.74
647.99	56669.34
648.18	56327.33
648.37	56759.45
648.57	56681.63
648.76	56779.93
648.96	56413.35
649.15	56808.61
649.34	56693.92
649.54	56315.04
649.73	56331.43
649.92	56558.75
650.12	56464.55
650.31	56915.10
650.51	56781.98
650.70	56970.39
650.89	56657.06
651.09	57289.88
651.28	57443.48
651.47	56798.37
651.67	56734.88
651.86	57181.34
652.06	56448.16
652.25	57361.56
652.44	57087.13
652.64	56827.04
652.83	56843.42
653.02	56595.62
653.22	56923.29
653.41	56587.42
653.60	56448.16
653.80	57003.16
653.99	57066.65
654.18	56972.44
654.38	57205.91
654.57	57078.94
654.76	57074.84
654.96	56868.00
655.15	56820.89
655.34	56802.46
655.54	56573.09
655.73	57371.80
655.92	57017.50
656.12	57392.28
656.31	57126.04
656.50	57236.63
656.70	57316.50
656.89	56935.58
657.08	57279.64
657.28	57267.35
657.47	57070.75
657.66	57525.39
657.86	57027.74
658.05	57150.62
658.24	57001.11
658.43	56972.44
658.63	57769.10
658.82	57250.97
659.01	56997.02
659.21	56947.87
659.40	57289.88
659.59	57037.98
659.79	57574.55
659.98	57330.84
660.17	57517.20
660.36	57273.49
660.56	56988.83
660.75	57556.11
660.94	57560.21
661.14	57101.46
661.33	57359.51
661.52	57115.80
661.71	57379.99
661.91	57191.58
662.10	57195.67
662.29	57744.53
662.49	57304.21
662.68	57459.86
662.87	57457.81
663.06	57971.85
663.26	57230.49
663.45	57547.92
663.64	57121.94
663.83	57597.07
664.03	57365.65
664.22	57201.82
664.41	57289.88
664.60	56980.63
664.80	57447.57
664.99	56824.99
665.18	57382.04
665.37	57291.93
665.57	57670.80
665.76	56726.69
665.95	57150.62
666.14	56824.99
666.34	57441.43
666.53	56956.06
666.72	57138.33
666.91	57005.21
667.11	56886.43
667.30	57156.76
667.49	56804.51
667.68	57099.42
667.87	57341.08
668.07	57244.82
668.26	57105.56
668.45	57197.72
668.64	56753.31
668.84	57316.50
669.03	56796.32
669.22	57119.90
669.41	57093.27
669.60	56638.62
669.80	56644.77
669.99	56894.62
670.18	56724.64
670.37	56568.99
670.57	57197.72
670.76	56964.25
670.95	56824.99
671.14	56669.34
671.33	56507.55
671.53	57226.39
671.72	56695.97
671.91	56827.04
672.10	56601.76
672.29	56904.86
672.48	56618.14
672.68	56724.64
672.87	56849.56
673.06	56374.44
673.25	56335.52
673.44	56497.31
673.64	56732.83
673.83	56493.22
674.02	56362.15
674.21	56241.32
674.40	56652.96
674.59	56243.37
674.79	56581.28
674.98	55923.88
675.17	56788.13
675.36	55989.42
675.55	56382.63
675.74	56192.17
675.94	56396.96
676.13	56181.93
676.32	56620.19
676.51	56804.51
676.70	56468.64
676.89	56292.52
677.08	56677.54
677.28	56235.17
677.47	56341.67
677.66	56587.42
677.85	55919.79
678.04	56186.02
678.23	56577.18
678.42	55991.47
678.62	56054.95
678.81	56390.82
679.00	56108.20
679.19	56681.63
679.38	56407.20
679.57	56278.18
679.76	56112.30
679.96	56239.27
680.15	55837.87
680.34	55678.13
680.53	55561.39
680.72	56114.34
680.91	56403.11
681.10	55446.71
681.29	55801.00
681.48	55604.40
681.68	55741.61
681.87	55710.89
682.06	55553.20
682.25	55241.91
682.44	55545.01
682.63	55579.82
682.82	55452.85
683.01	55454.90
683.20	55186.61
683.39	55893.16
683.59	55203.00
683.78	55325.88
683.97	55551.15
684.16	55569.58
684.35	55065.78
684.54	55661.74
684.73	55327.92
684.92	54815.93
685.11	54744.25
685.30	55293.11
685.49	55153.85
685.69	54967.48
685.88	54738.11
686.07	54781.12
686.26	54990.01
686.45	54949.05
686.64	55108.79
686.83	54961.34
687.02	54834.36
687.21	55076.02
687.40	54625.47
687.59	54801.60
687.78	54435.01
687.97	54973.63
688.16	54473.92
688.35	54666.43
688.54	54158.53
688.74	54236.36
688.93	54154.44
689.12	54582.46
689.31	53984.46
689.50	54922.43
689.69	54174.92
689.88	54420.67
690.07	54191.30
690.26	54164.68
690.45	54557.89
690.64	54342.85
690.83	54181.06
691.02	53890.25
691.21	54459.58
691.40	53892.30
691.59	54572.22
691.78	54113.48
691.97	53949.64
692.16	53988.55
692.35	54588.61
692.54	54097.09
692.73	53611.73
692.92	53873.87
693.11	53812.43
693.30	53818.57
693.49	53990.60
693.68	53703.88
693.87	53830.86
694.06	53603.53
694.25	53474.51
694.44	53650.64
694.63	53662.93
694.82	53816.52
695.01	53730.51
695.20	53658.83
695.39	53748.94
695.58	53454.03
695.77	53400.79
695.96	53277.91
696.15	53548.24
696.34	53529.81
696.53	53253.33
696.72	53150.93
696.91	52987.10
697.10	53249.24
697.29	53243.09
697.48	53449.94
697.67	53134.55
697.86	53011.67
698.05	53085.40
698.24	53413.07
698.43	52888.79
698.62	53093.59
698.81	52980.95
699.00	53193.94
699.19	52417.76
699.38	53408.98
699.57	52413.66
699.76	53171.41
699.95	52999.38
700.14	52378.85
700.32	52380.90
700.51	52696.28
700.70	52896.98
700.89	53064.92
701.08	52573.41
701.27	52268.26
701.46	53073.11
701.65	52141.28
701.84	52665.56
702.03	52778.20
702.22	52286.69
702.41	52817.11
702.60	52272.35
702.79	52526.30
702.98	52221.16
703.17	51631.34
703.35	52227.30
703.54	52198.63
703.73	52684.00
703.92	52313.31
704.11	52344.03
704.30	52079.85
704.49	52542.69
704.68	52374.75
704.87	51819.75
705.06	52202.72
705.25	51889.38
705.43	52085.99
705.62	52303.07
705.81	52141.28
706.00	52163.81
706.19	51922.15
706.38	51786.99
706.57	52026.60
706.76	51612.91
706.95	51651.82
707.14	51703.02
707.32	51842.28
707.51	51670.25
707.70	51782.89
707.89	52049.13
708.08	51762.41
708.27	52049.13
708.46	52124.90
708.65	51950.82
708.84	52034.79
709.02	51930.34
709.21	51868.90
709.40	51705.07
709.59	51705.07
709.78	51248.37
709.97	52036.84
710.16	51467.50
710.34	51500.27
710.53	51477.74
710.72	51352.82
710.91	51623.15
711.10	51791.08
711.29	51954.92
711.48	51307.76
711.66	51660.01
711.85	51547.37
712.04	51344.62
712.23	51307.76
712.42	51506.41
712.61	51107.06
712.80	51703.02
712.98	51463.41
713.17	51277.04
713.36	50830.58
713.55	51010.81
713.74	51463.41
713.93	50947.32
714.11	51401.97
714.30	51098.87
714.49	50459.90
714.68	50988.28
714.87	50859.26
715.06	51092.72
715.24	51211.51
715.43	50916.60
715.62	50685.18
715.81	50945.27
716.00	50861.30
716.18	50294.02
716.37	50607.36
716.56	50492.67
716.75	50808.06
716.94	50570.49
717.12	50427.13
717.31	50873.59
717.50	50648.32
717.69	50744.57
717.88	50445.57
718.06	51035.38
718.25	51000.57
718.44	50232.58
718.63	50414.85
718.82	50220.29
719.00	50187.52
719.19	50222.34
719.38	50496.77
719.57	50191.62
719.76	49952.01
719.94	50189.57
720.13	50138.37
720.32	50181.38
720.51	49943.81
720.69	49870.09
720.88	49671.43
721.07	49747.21
721.26	49726.73
721.44	49687.82
721.63	49751.30
721.82	49374.48
722.01	49513.74
722.20	49601.80
722.38	49290.51
722.57	49460.49
722.76	49362.19
722.95	49648.91
723.13	49106.19
723.32	49104.15
723.51	48971.03
723.70	49247.50
723.88	48936.21
724.07	48577.82
724.26	49345.81
724.44	48561.44
724.63	49267.98
724.82	49411.34
725.01	48907.54
725.19	49679.63
725.38	49349.90
725.57	48880.92
725.76	49034.52
725.94	48633.11
726.13	48813.34
726.32	48672.03
726.51	48741.66
726.69	49298.70
726.88	49143.06
727.07	48626.97
727.25	48844.05
727.44	49126.67
727.63	48778.52
727.82	48684.31
728.00	48545.05
728.19	48526.62
728.38	48842.01
728.56	48592.15
728.75	49112.34
728.94	48833.81
729.12	49093.91
729.31	48637.21
729.50	48209.18
729.69	48444.70
729.87	48180.51
730.06	48706.84
730.25	48989.46
730.43	49282.32
730.62	48491.80
730.81	48661.79
730.99	49208.59
731.18	48223.52
731.37	48968.98
731.55	49153.30
731.74	49130.77
731.93	48919.83
732.11	48981.27
732.30	48751.90
732.49	48454.94
732.67	48872.73
732.86	48354.59
733.05	48635.16
733.23	48413.98
733.42	48940.31
733.61	48579.87
733.79	48745.75
733.98	49136.91
734.17	48698.65
734.35	48799.00
734.54	48330.01
734.73	48780.57
734.91	48842.01
735.10	48370.97
735.29	48971.03
735.47	48416.03
735.66	48778.52
735.84	48381.21
736.03	48477.47
736.22	48661.79
736.40	48313.63
736.59	48604.44
736.78	48596.25
736.96	48639.26
737.15	48571.67
737.33	48411.93
737.52	47985.96
737.71	48375.07
737.89	48237.86
738.08	48239.90
738.27	48321.82
738.45	48860.44
738.64	48403.74
738.82	48383.26
739.01	48186.66
739.20	48289.06
739.38	48502.04
739.57	48698.65
739.75	48287.01
739.94	48127.27
740.13	48106.79
740.31	48071.97
740.50	48035.11
740.68	48258.34
740.87	47924.52
741.06	48375.07
741.24	48125.22
741.43	47557.93
741.61	47818.02
741.80	47930.66
741.99	47901.99
742.17	47557.93
742.36	47768.87
742.54	48119.07
742.73	47557.93
742.91	48149.79
743.10	47535.40
743.29	47979.81
743.47	47949.09
743.66	47746.34
743.84	48053.54
744.03	47887.65
744.21	47723.82
744.40	47805.73
744.59	47488.30
744.77	47453.48
744.96	47478.06
745.14	47252.78
745.33	47342.89
745.51	47377.71
745.70	47537.45
745.88	47494.44
746.07	47684.90
746.26	46921.01
746.44	46974.26
746.63	47131.95
746.81	47240.50
747.00	46832.95
747.18	47129.90
747.37	47320.37
747.55	47117.62
747.74	47134.00
747.92	46972.21
748.11	46957.88
748.29	46722.36
748.48	46703.93
748.66	46662.97
748.85	46955.83
749.03	46736.69
749.22	46957.88
749.41	46800.18
749.59	46806.33
749.78	46912.82
749.96	46044.48
750.15	46716.22
750.33	46357.82
750.52	46552.38
750.70	46714.17
750.89	46325.05
751.07	46564.67
751.26	46564.67
751.44	45976.90
751.63	46280.00
751.81	46294.33
752.00	46280.00
752.18	46626.10
752.37	46024.00
752.55	46009.67
752.74	45888.84
752.92	45788.49
753.10	45622.60
753.29	46480.70
753.47	45864.26
753.66	45679.94
753.84	46085.44
754.03	45798.73
754.21	45546.82
754.40	45595.98
754.58	45792.58
754.77	45753.67
754.95	45294.92
755.14	45710.66
755.32	45458.76
755.51	45258.06
755.69	45405.52
755.88	45278.54
756.06	45354.32
756.24	45409.61
756.43	45368.65
756.61	45497.67
756.80	45233.49
756.98	45030.74
757.17	45086.03
757.35	45028.69
757.54	45024.59
757.72	45020.50
757.90	45129.04
758.09	44643.67
758.27	44926.29
758.46	44653.91
758.64	44791.12
758.83	45190.48
759.01	44856.66
759.19	44803.41
759.38	44451.16
759.56	44387.67
759.75	44320.09
759.93	44070.24
760.12	44592.47
760.30	44379.48
760.48	44029.28
760.67	44279.13
760.85	44418.39
761.04	44555.61
761.22	44557.66
761.40	44412.25
761.59	44434.78
761.77	43922.79
761.96	43994.46
762.14	44062.05
762.32	43779.43
762.51	43695.46
762.69	43859.30
762.88	43957.60
763.06	44072.29
763.24	43748.71
763.43	43912.55
763.61	43640.17
763.80	43810.15
763.98	43949.41
764.16	43521.38
764.35	43171.18
764.53	43105.65
764.72	42802.55
764.90	43394.41
765.08	43119.98
765.27	43498.86
765.45	42978.67
765.63	42509.69
765.82	43101.55
766.00	42569.08
766.18	42528.12
766.37	43132.27
766.55	42734.96
766.74	42612.09
766.92	42341.75
767.10	42319.23
767.29	42526.07
767.47	42431.86
767.65	42489.21
767.84	42065.28
768.02	42603.89
768.20	41985.41
768.39	42118.53
768.57	42775.92
768.75	42116.48
768.94	42112.38
769.12	42268.03
769.30	42057.09
769.49	41641.35
769.67	41801.09
769.85	41545.09
770.04	41753.99
770.22	41250.19
770.40	41700.74
770.59	41487.75
770.77	41637.25
770.95	41545.09
771.14	41059.73
771.32	41321.87
771.50	41049.49
771.69	41235.85
771.87	41303.43
772.05	41014.67
772.24	40885.65
772.42	41147.79
772.60	40662.42
772.78	40914.32
772.97	41260.43
773.15	41160.08
773.33	40666.52
773.52	40453.53
773.70	40781.20
773.88	40666.52
774.07	40576.40
774.25	40773.01
774.43	41059.73
774.61	40668.56
774.80	40830.35
774.98	40852.88
775.16	40730.00
775.34	40551.83
775.53	40721.81
775.71	41078.16
775.89	40486.29
776.08	40502.68
776.26	40564.12
776.44	40732.05
776.62	40402.33
776.81	40326.55
776.99	40801.68
777.17	40641.94
777.35	40490.39
777.54	40924.56
777.72	40289.69
777.90	40529.30
778.08	40777.11
778.27	40742.29
778.45	40869.26
778.63	41088.40
778.81	40463.77
779.00	41416.07
779.18	41119.12
779.36	41063.82
779.54	40975.76
779.73	41041.29
779.91	41473.42
780.09	41260.43
780.27	40986.00
780.46	40807.83
780.64	41321.87
780.82	40867.22
781.00	40822.16
781.19	40983.95
781.37	41485.70
781.55	41381.26
781.73	41393.54
781.91	40897.94
782.10	41375.11
782.28	41225.61
782.46	41010.57
782.64	41237.90
782.82	41131.40
783.01	41272.71
783.19	41598.34
783.37	41305.48
783.55	40889.74
783.74	41119.12
783.92	41057.68
784.10	41530.76
784.28	41125.26
784.46	41358.73
784.64	41110.92
784.83	41100.68
785.01	41332.11
785.19	41379.21
785.37	41133.45
785.55	41377.16
785.74	40936.85
785.92	40779.15
786.10	40975.76
786.28	40994.19
786.46	40803.73
786.64	40209.82
786.83	40875.41
787.01	40625.56
787.19	40744.34
787.37	40809.87
787.55	40797.59
787.74	40265.11
787.92	40517.01
788.10	40261.02
788.28	40048.03
788.46	40320.41
788.64	40082.84
788.82	40379.80
789.01	40152.48
789.19	40332.70
789.37	40080.80
789.55	39935.39
789.73	39663.01
789.91	39964.06
790.09	40109.47
790.28	40007.07
790.46	39607.72
790.64	39804.32
790.82	39701.92
791.00	39443.88
791.18	39284.14
791.36	39366.06
791.55	39400.87
791.73	39181.74
791.91	38675.89
792.09	39075.24
792.27	39003.56
792.45	39523.75
792.63	38999.47
792.81	38823.34
793.00	38809.01
793.18	38839.73
793.36	38505.91
793.54	38473.14
793.72	38260.15
793.90	38313.40
794.08	38131.13
794.26	38208.95
794.44	38151.61
794.62	37848.51
794.81	38004.16
794.99	37625.28
795.17	38247.86
795.35	37643.71
795.53	37770.69
795.71	37492.16
795.89	37612.99
796.07	37336.52
796.25	37492.16
796.43	37043.66
796.61	36949.45
796.80	37072.33
796.98	37090.76
797.16	36939.21
797.34	37021.13
797.52	36703.70
797.70	37141.96
797.88	36668.88
798.06	36273.62
798.24	36296.15
798.42	36222.42
798.60	36492.76
798.78	35997.15
798.96	36394.45
799.14	36242.90
799.32	36173.27
799.51	35745.25
799.69	36265.43
799.87	36189.66
800.05	35933.66
800.23	35571.17
800.41	35415.52
800.59	35925.47
800.77	35397.09
800.95	35194.34
801.13	35313.13
801.31	34794.99
801.49	34911.72
801.67	35108.33
801.85	34897.39
802.03	34737.65
802.21	34446.83
802.39	34698.73
802.57	34549.23
802.75	34346.48
802.93	34481.65
803.11	34295.28
803.29	34309.62
803.47	34196.98
803.65	34360.82
803.83	34205.17
804.01	34151.93
804.19	33492.48
804.37	33998.33
804.55	33762.81
804.73	33672.70
804.91	33893.88
805.09	33584.64
805.27	33482.24
805.45	33746.43
805.63	33666.56
805.81	33441.28
805.99	33404.42
806.17	33498.62
806.35	33220.10
806.53	32747.02
806.71	33388.03
806.89	32980.49
807.07	32726.54
807.25	32804.36
807.43	32634.38
807.61	33373.70
807.79	32818.70
807.97	32529.94
808.15	32355.86
808.33	32640.53
808.51	32224.79
808.69	32452.11
808.87	32128.53
809.05	32206.36
809.23	31921.69
809.41	31940.12
809.59	31796.76
809.77	32224.79
809.95	31817.24
810.13	32177.68
810.31	32046.62
810.49	31884.83
810.67	31751.71
810.84	31852.06
811.02	32038.42
811.20	31684.12
811.38	31331.87
811.56	30957.10
811.74	31424.03
811.92	31209.00
812.10	31505.95
812.28	31424.03
812.46	31096.36
812.64	31266.34
812.82	31161.89
813.00	30897.70
813.18	30936.62
813.36	30758.44
813.53	30572.08
813.71	30846.51
813.89	30328.37
814.07	30844.46
814.25	30760.49
814.43	30705.20
814.61	30283.31
814.79	30324.27
814.97	30404.14
815.15	30457.39
815.33	30127.67
815.50	30049.85
815.68	30176.82
815.86	30217.78
816.04	30191.16
816.22	30072.37
816.40	30092.85
816.58	29650.49
816.76	29693.50
816.94	29836.86
817.11	29986.36
817.29	29498.94
817.47	29611.58
817.65	29652.54
817.83	29562.43
818.01	29283.91
818.19	29079.11
818.37	29425.22
818.54	29218.37
818.72	29179.46
818.90	29378.11
819.08	29097.54
819.26	29431.36
819.44	29169.22
819.62	29242.95
819.80	29154.88
819.97	28786.25
820.15	28894.79
820.33	28966.47
820.51	29077.06
820.69	28790.34
820.87	29113.92
821.05	29449.79
821.22	28966.47
821.40	28735.05
821.58	28620.36
821.76	28677.71
821.94	28681.80
822.12	28485.20
822.29	28462.67
822.47	28429.90
822.65	28776.01
822.83	28405.33
823.01	28466.77
823.19	28376.66
823.36	28028.50
823.54	27956.82
823.72	28450.38
823.90	28171.86
824.08	27725.40
824.25	27815.51
824.43	27758.17
824.61	28016.21
824.79	28153.43
824.97	27747.93
825.15	28194.39
825.32	27749.98
825.50	27326.05
825.68	27842.14
825.86	27981.40
826.04	27498.08
826.21	27475.55
826.39	27551.32
826.57	27547.23
826.75	27356.77
826.93	27389.53
827.10	27096.67
827.28	27766.36
827.46	27416.16
827.64	27405.92
827.81	27358.81
827.99	27438.69
828.17	27285.09
828.35	27367.01
828.53	26926.69
828.70	27334.24
828.88	26920.55
829.06	26932.84
829.24	27432.54
829.41	27082.34
829.59	27211.36
829.77	27104.87
829.95	26787.43
830.12	27113.06
830.30	27012.71
830.48	27025.00
830.66	26846.82
830.84	26895.97
831.01	26414.70
831.19	26580.59
831.37	26723.94
831.55	26322.54
831.72	26687.08
831.90	26658.41
832.08	26295.92
832.25	26664.55
832.43	26451.56
832.61	26502.76
832.79	26048.11
832.96	26541.68
833.14	26576.49
833.32	26619.50
833.50	26621.55
833.67	26416.75
833.85	26338.93
834.03	25874.04
834.20	26238.58
834.38	26357.36
834.56	26093.17
834.74	26179.18
834.91	25935.48
835.09	25906.80
835.27	25702.01
835.44	26257.01
835.62	25446.01
835.80	25638.52
835.98	25927.28
836.15	25779.83
836.33	26054.26
836.51	25788.02
836.68	25558.65
836.86	25775.73
837.04	25853.56
837.21	25601.66
837.39	25534.07
837.57	25570.94
837.75	25859.70
837.92	25321.09
838.10	25527.93
838.28	25294.46
838.45	25263.74
838.63	25521.79
838.81	25067.14
838.98	25278.08
839.16	25233.02
839.34	25087.62
839.51	24987.27
839.69	25120.38
839.87	25073.28
840.04	25259.65
840.22	25310.85
840.40	25257.60
840.57	24893.06
840.75	25128.58
840.93	24856.20
841.10	25163.39
841.28	25228.93
841.46	25013.89
841.63	24944.26
841.81	25013.89
841.98	25026.18
842.16	25097.86
842.34	24884.87
842.51	24649.35
842.69	24819.33
842.87	24669.83
843.04	24874.63
843.22	24690.31
843.40	24886.92
843.57	24739.46
843.75	24958.60
843.92	24770.18
844.10	24626.82
844.28	24655.50
844.45	24852.10
844.63	24432.27
844.81	24127.12
844.98	24673.93
845.16	24434.32
845.33	24446.60
845.51	24549.00
845.69	24440.46
845.86	24065.68
846.04	24120.98
846.21	24163.98
846.39	24544.91
846.57	24307.34
846.74	24127.12
846.92	24223.37
847.09	24368.78
847.27	23969.43
847.45	23975.57
847.62	24125.07
847.80	23950.99
847.97	23912.08
848.15	23772.82
848.32	23651.99
848.50	23963.28
848.68	23862.93
848.85	23735.96
849.03	23561.88
849.20	23631.51
849.38	23690.90
849.56	23961.23
849.73	23363.23
849.91	23635.61
850.08	23715.48
850.26	23426.71
850.43	23363.23
850.61	23717.53
850.78	23271.07
850.96	23535.26
851.14	23123.62
851.31	23848.60
851.49	23140.00
851.66	23381.66
851.84	23453.34
852.01	23512.73
852.19	23369.37
852.36	23467.67
852.54	23379.61
852.71	23203.49
852.89	23066.27
853.07	23371.42
853.24	22924.96
853.42	23070.37
853.59	23234.21
853.77	23111.33
853.94	23074.46
854.12	23144.09
854.29	22859.43
854.47	23088.80
854.64	22738.60
854.82	22910.63
854.99	22900.39
855.17	22572.71
855.34	22671.01
855.52	22986.40
855.69	22892.19
855.87	22947.49
856.04	22331.05
856.22	22544.04
856.39	22445.74
856.57	22677.16
856.74	22650.53
856.92	22718.12
857.09	22435.50
857.27	22458.03
857.44	22638.25
857.62	22238.89
857.79	22566.57
857.97	22435.50
858.14	22484.65
858.32	22226.60
858.49	22312.62
858.67	22230.70
858.84	22396.59
859.02	22355.63
859.19	22333.10
859.37	22167.21
859.54	22222.51
859.72	22163.12
859.89	22058.67
860.06	22214.32
860.24	21892.79
860.41	22451.88
860.59	21823.16
860.76	21968.56
860.94	21966.51
861.11	22009.52
861.29	22007.47
861.46	21886.64
861.64	21692.08
861.81	21751.48
861.98	21731.00
862.16	21919.41
862.33	21640.89
862.51	21679.80
862.68	21745.33
862.86	21663.41
863.03	21534.39
863.21	21431.99
863.38	21599.93
863.55	21442.23
863.73	21421.75
863.90	21464.76
864.08	21436.09
864.25	21407.42
864.43	21513.91
864.60	21421.75
864.77	21049.02
864.95	21419.71
865.12	21237.44
865.30	21382.84
865.47	21380.79
865.64	21075.65
865.82	21507.77
865.99	21378.75
866.17	20893.38
866.34	21208.76
866.51	20770.50
866.69	21124.80
866.86	21044.93
867.04	21055.17
867.21	20942.53
867.38	20674.24
867.56	20979.39
867.73	20561.61
867.91	20854.47
868.08	20467.40
868.25	20655.81
868.43	20491.98
868.60	20547.27
868.78	20694.72
868.95	20747.97
869.12	20526.79
869.30	20526.79
869.47	20690.63
869.64	20178.64
869.82	20537.03
869.99	20086.48
870.16	20367.05
870.34	20270.79
870.51	20369.10
870.69	20000.46
870.86	20291.27
871.03	20248.27
871.21	19949.26
871.38	20018.89
871.55	19902.16
871.73	19926.74
871.90	19846.87
872.07	19859.15
872.25	19601.11
872.42	19744.47
872.59	19662.55
872.77	19836.63
872.94	19592.92
873.11	19719.89
873.29	19322.59
873.46	19463.90
873.63	19564.25
873.81	19515.09
873.98	19166.94
874.15	19408.60
874.33	19293.91
874.50	19072.73
874.67	19332.82
874.85	19117.79
875.02	19390.17
875.19	19080.92
875.37	19394.26
875.54	18781.92
875.71	18994.91
875.88	18994.91
876.06	19029.73
876.23	18757.35
876.40	18804.45
876.58	18781.92
876.75	18728.67
876.92	18687.71
877.10	18845.41
877.27	18835.17
877.44	18515.69
877.61	18472.68
877.79	18521.83
877.96	18839.26
878.13	18552.55
878.31	18573.03
878.48	18345.70
878.65	18536.17
878.82	18411.24
879.00	18263.79
879.17	18126.57
879.34	18448.10
879.51	18058.99
879.69	18063.08
879.86	18087.66
880.03	17958.64
880.21	18007.79
880.38	18058.99
880.55	17893.10
880.72	17897.20
880.90	17874.67
881.07	17985.26
881.24	17964.78
881.41	17889.01
881.59	17704.69
881.76	17641.20
881.93	17626.87
882.10	17551.09
882.28	17452.79
882.45	17780.46
882.62	17538.80
882.79	17770.22
882.96	17284.86
883.14	17612.53
883.31	17714.93
883.48	17645.30
883.65	17192.70
883.83	17549.04
884.00	17684.21
884.17	17471.22
884.34	17639.15
884.51	17368.82
884.69	17354.49
884.86	17344.25
885.03	17600.24
885.20	17233.66
885.38	17338.10
885.55	17346.30
885.72	17100.54
885.89	16889.60
886.06	17108.73
886.24	17133.31
886.41	17057.53
886.58	17241.85
886.75	17454.84
886.92	16834.30
887.10	16973.56
887.27	16879.36
887.44	16764.67
887.61	17037.05
887.78	16928.51
887.95	16985.85
888.13	16539.40
888.30	16678.66
888.47	16828.16
888.64	16785.15
888.81	16725.76
888.99	16758.53
889.16	16314.12
889.33	16314.12
889.50	16314.12
889.67	16369.41
889.84	16453.38
890.01	16441.09
890.19	16539.40
890.36	16504.58
890.53	16373.51
890.70	16217.86
890.87	16170.76
891.04	16353.03
891.22	16129.80
891.39	16125.71
891.56	16178.95
891.73	15951.63
891.90	15959.82
892.07	15980.30
892.24	15984.40
892.42	15773.46
892.59	15863.57
892.76	15890.19
892.93	15929.10
893.10	16244.49
893.27	15824.65
893.44	15873.81
893.61	15970.06
893.79	15910.67
893.96	15855.37
894.13	15742.74
894.30	15685.39
894.47	15787.79
894.64	15943.44
894.81	15902.48
894.98	15892.24
895.15	15820.56
895.33	15783.70
895.50	15576.85
895.67	15904.53
895.84	15501.08
896.01	15611.67
896.18	15453.97
896.35	15740.69
896.52	15494.93
896.69	15632.15
896.86	15535.89
897.04	15736.59
897.21	15746.83
897.38	15517.46
897.55	15695.63
897.72	15693.58
897.89	15572.75
898.06	15593.23
898.23	15402.77
898.40	15404.82
898.57	15585.04
898.74	15521.56
898.91	15277.85
899.08	15400.72
899.26	15484.69
899.43	15214.36
899.60	15308.57
899.77	15482.64
899.94	15132.44
900.11	15310.61
900.28	15370.01
900.45	15339.29
900.62	15189.78
900.79	15595.28
900.96	15396.63
901.13	15271.70
901.30	15447.83
901.47	15206.17
901.64	15423.25
901.81	15302.42
901.98	15345.43
902.15	15441.68
902.32	15206.17
902.49	15279.89
902.66	15400.72
902.83	15171.35
903.01	15191.83
903.18	15449.88
903.35	15286.04
903.52	15179.54
903.69	15556.37
903.86	15386.39
904.03	15177.50
904.20	15105.82
904.37	15486.74
904.54	15286.04
904.71	15111.96
904.88	15351.57
905.05	15263.51
905.22	15054.62
905.39	15302.42
905.56	15097.63
905.73	14890.78
905.90	15152.92
906.07	15458.07
906.24	15298.33
906.41	15040.28
906.58	15386.39
906.75	15290.13
906.92	14984.99
907.09	14896.92
907.26	14991.13
907.43	15068.95
907.60	15189.78
907.77	15261.46
907.93	15021.85
908.10	14980.89
908.27	15079.19
908.44	14950.17
908.61	14745.38
908.78	14927.64
908.95	15099.67
909.12	15019.80
909.29	14903.07
909.46	14874.40
909.63	15044.38
909.80	14810.91
909.97	15136.54
910.14	14817.05
910.31	14735.14
910.48	14903.07
910.65	14892.83
910.82	14810.91
910.99	14833.44
911.16	14931.74
911.33	14755.61
911.50	14571.30
911.66	14722.85
911.83	14632.74
912.00	14585.63
912.17	14507.81
912.34	14376.74
912.51	14593.83
912.68	14423.84
912.85	14499.62
913.02	14651.17
913.19	14636.83
913.36	14317.35
913.53	14577.44
913.70	14436.13
913.86	14565.15
914.03	14475.04
914.20	14323.49
914.37	14483.24
914.54	14311.21
914.71	14288.68
914.88	14286.63
915.05	14169.90
915.22	14044.97
915.39	14214.95
915.55	14030.63
915.72	13954.86
915.89	13913.90
916.06	13776.69
916.23	13952.81
916.40	13860.65
916.57	13967.15
916.74	13752.11
916.91	13762.35
917.07	13766.45
917.24	13748.01
917.41	13770.54
917.58	13735.73
917.75	13721.39
917.92	13481.78
918.09	13741.87
918.26	13457.20
918.42	13551.41
918.59	13260.60
918.76	13387.57
918.93	13553.46
919.10	13272.89
919.27	13305.65
919.44	13399.86
919.60	13510.45
919.77	13332.28
919.94	13229.88
920.11	13115.19
920.28	13133.62
920.45	13041.46
920.61	12988.22
920.78	13002.55
920.95	12787.52
921.12	12879.68
921.29	12648.26
921.46	12760.89
921.62	12607.30
921.79	12617.54
921.96	12617.54
922.13	12617.54
922.30	12492.61
922.47	12328.77
922.63	12488.51
922.80	12404.55
922.97	12156.74
923.14	12189.51
923.31	12382.02
923.47	11941.71
923.64	12199.75
923.81	12117.83
923.98	12214.09
924.15	11798.35
924.32	11837.26
924.48	12064.58
924.65	12117.83
924.82	12031.82
924.99	11628.37
925.15	11638.61
925.32	11743.05
925.49	11421.52
925.66	11532.11
925.83	11579.22
925.99	11605.84
926.16	11851.60
926.33	11464.53
926.50	11427.67
926.67	11581.26
926.83	11310.93
927.00	11341.65
927.17	11169.62
927.34	11198.29
927.50	11083.61
927.67	11513.68
927.84	11255.64
928.01	10911.58
928.17	11061.08
928.34	10800.99
928.51	10882.91
928.68	10839.90
928.84	10905.43
929.01	10706.78
929.18	10606.43
929.35	10608.48
929.51	10794.84
929.68	10319.71
929.85	10542.94
930.02	10504.03
930.18	10448.74
930.35	10233.70
930.52	10280.80
930.69	10364.77
930.85	10323.81
931.02	10112.87
931.19	10063.72
931.36	10084.20
931.52	10108.77
931.69	10231.65
931.86	9979.75
932.02	9953.13
932.19	9850.73
932.36	9867.11
932.53	9955.18
932.69	9703.28
932.86	9903.98
933.03	9817.96
933.19	9480.05
933.36	9555.82
933.53	9656.17
933.70	9420.66
933.86	9430.90
934.03	9492.34
934.20	9240.44
934.36	9478.00
934.53	9011.06
934.70	8851.32
934.86	8990.58
935.03	8822.65
935.20	9058.17
935.36	8826.75
935.53	8800.12
935.70	8828.79
935.86	8695.68
936.03	8464.25
936.20	8355.71
936.36	8572.80
936.53	8513.41
936.70	8413.06
936.86	8503.17
937.03	8263.55
937.20	7987.08
937.36	8103.81
937.53	8030.09
937.70	7808.90
937.86	7671.69
938.03	7905.16
938.20	7745.42
938.36	7565.20
938.53	7624.59
938.70	7376.78
938.86	7380.88
939.03	7237.52
939.20	7079.83
939.36	7147.41
939.53	7038.87
939.70	7094.16
939.86	6897.56
940.03	6768.54
940.19	6662.04
940.36	6600.60
940.53	6668.19
940.69	6545.31
940.86	6369.18
941.03	6326.18
941.19	6332.32
941.36	6344.61
941.52	6264.74
941.69	6109.09
941.86	6119.33
942.02	6234.02
942.19	6104.99
942.35	6008.74
942.52	5812.14
942.69	5810.09
942.85	5771.18
943.02	5885.86
943.18	5826.47
943.35	5797.80
943.52	5574.57
943.68	5590.95
943.85	5656.49
944.01	5480.36
944.18	5623.72
944.35	5504.94
944.51	5392.30
944.68	5314.48
944.84	5433.26
945.01	5455.79
945.17	5281.71
945.34	5441.45
945.51	5373.87
945.67	5265.33
945.84	5504.94
946.00	5164.98
946.17	5273.52
946.33	5128.11
946.50	5220.27
946.67	5277.62
946.83	5283.76
947.00	5259.18
947.16	5154.74
947.33	5183.41
947.49	5269.42
947.66	5371.82
947.82	5277.62
947.99	5185.46
948.16	5214.13
948.32	5154.74
948.49	5144.50
948.65	5285.81
948.82	5191.60
948.98	5244.85
949.15	5074.87
949.31	5332.91
949.48	5076.91
949.64	5232.56
949.81	5064.63
949.97	5132.21
950.14	5425.07
950.30	5236.66
950.47	5320.62
950.63	5148.59
950.80	5197.74
950.96	5214.13
951.13	5150.64
951.30	5238.70
951.46	5337.01
951.63	5279.66
951.79	5195.70
951.96	5248.94
952.12	5246.90
952.29	5244.85
952.45	5300.14
952.62	5269.42
952.78	5287.86
952.94	5201.84
953.11	5197.74
953.27	5255.09
953.44	5406.64
953.60	5326.77
953.77	5269.42
953.93	5294.00
954.10	5367.73
954.26	5332.91
954.43	5300.14
954.59	5388.21
954.76	5341.10
954.92	5328.81
955.09	5285.81
955.25	5289.90
955.42	5363.63
955.58	5529.52
955.75	5402.54
955.91	5326.77
956.07	5232.56
956.24	5445.55
956.40	5478.32
956.57	5531.56
956.73	5320.62
956.90	5420.97
957.06	5332.91
957.23	5343.15
957.39	5394.35
957.56	5412.78
957.72	5273.52
957.88	5361.58
958.05	5525.42
958.21	5455.79
958.38	5418.93
958.54	5457.84
958.71	5392.30
958.87	5400.49
959.03	5279.66
959.20	5472.17
959.36	5443.50
959.53	5339.05
959.69	5386.16
959.85	5490.60
960.02	5261.23
960.18	5433.26
960.35	5156.79
960.51	5463.98
960.68	5279.66
960.84	5402.54
961.00	5377.97
961.17	5343.15
961.33	5410.73
961.50	5404.59
961.66	5420.97
961.82	5377.97
961.99	5494.70
962.15	5279.66
962.31	5339.05
962.48	5353.39
962.64	5283.76
962.81	5263.28
962.97	5463.98
963.13	5390.25
963.30	5351.34
963.46	5228.46
963.62	5132.21
963.79	5195.70
963.95	5324.72
964.12	5328.81
964.28	5193.65
964.44	5183.41
964.61	5345.20
964.77	5373.87
964.93	5345.20
965.10	5234.61
965.26	5281.71
965.42	5189.55
965.59	5164.98
965.75	5324.72
965.92	5250.99
966.08	5216.18
966.24	5279.66
966.41	5210.03
966.57	5281.71
966.73	5236.66
966.90	5306.29
967.06	5242.80
967.22	5277.62
967.39	5222.32
967.55	5109.68
967.71	5119.92
967.88	5214.13
968.04	5025.72
968.20	5121.97
968.37	5119.92
968.53	5058.48
968.69	5054.39
968.85	5091.25
969.02	5099.44
969.18	5078.96
969.34	5146.55
969.51	5103.54
969.67	5056.43
969.83	4859.83
970.00	5248.94
970.16	4954.04
970.32	4992.95
970.48	5115.83
970.65	5089.20
970.81	4966.32
970.97	5072.82
971.14	4908.98
971.30	4908.98
971.46	4923.32
971.63	5095.35
971.79	5048.24
971.95	4999.09
972.11	4814.77
972.28	5011.38
972.44	4872.12
972.60	4782.01
972.76	4915.12
972.93	4837.30
973.09	4937.65
973.25	4900.79
973.42	4796.34
973.58	4988.85
973.74	5011.38
973.90	4892.60
974.07	4915.12
974.23	4841.40
974.39	4796.34
974.55	4663.22
974.72	4761.53
974.88	4632.51
975.04	4849.59
975.20	4712.38
975.37	5007.28
975.53	4704.18
975.69	4816.82
975.85	4779.96
976.01	4841.40
976.18	4782.01
976.34	4700.09
976.50	4792.25
976.66	4753.34
976.83	4603.83
976.99	4663.22
977.15	4628.41
977.31	4646.84
977.47	4708.28
977.64	4743.10
977.80	4571.07
977.96	4646.84
978.12	4540.35
978.29	4468.67
978.45	4501.44
978.61	4517.82
978.77	4630.46
978.93	4552.63
979.10	4419.52
979.26	4403.13
979.42	4480.96
979.58	4425.66
979.74	4390.84
979.91	4534.20
980.07	4218.82
980.23	4452.28
980.39	4452.28
980.55	4493.24
980.71	4353.98
980.88	4505.53
981.04	4540.35
981.20	4368.32
981.36	4405.18
981.52	4337.60
981.68	4284.35
981.85	4304.83
982.01	4181.95
982.17	4296.64
982.33	4399.04
982.49	4329.41
982.65	4333.50
982.82	4247.49
982.98	4261.82
983.14	4292.54
983.30	4315.07
983.46	4282.30
983.62	4222.91
983.79	4227.01
983.95	4181.95
984.11	4124.61
984.27	4294.59
984.43	4222.91
984.59	4143.04
984.75	4143.04
984.91	4194.24
985.08	4274.11
985.24	4022.21
985.40	4155.33
985.56	4097.99
985.72	4108.23
985.88	4257.73
986.04	3999.68
986.20	4071.36
986.37	4079.55
986.53	4007.87
986.69	4022.21
986.85	3911.62
987.01	3966.92
987.17	4104.13
987.33	3923.91
987.49	3917.76
987.65	4116.42
987.82	3968.96
987.98	3946.44
988.14	3895.24
988.30	4001.73
988.46	3911.62
988.62	3909.57
988.78	3854.28
988.94	3909.57
989.10	3850.18
989.26	3706.82
989.42	3807.17
989.59	3708.87
989.75	3592.14
989.91	3872.71
990.07	3760.07
990.23	3780.55
990.39	3778.50
990.55	3807.17
990.71	3753.93
990.87	3827.65
991.03	3731.40
991.19	3737.54
991.35	3766.21
991.51	3774.41
991.67	3680.20
991.83	3702.73
992.00	3692.49
992.16	3764.17
992.32	3766.21
992.48	3737.54
992.64	3803.08
992.80	3753.93
992.96	3631.05
993.12	3706.82
993.28	3751.88
993.44	3645.38
993.60	3618.76
993.76	3598.28
993.92	3641.29
994.08	3612.62
994.24	3608.52
994.40	3551.18
994.56	3592.14
994.72	3616.71
994.88	3526.60
995.04	3561.42
995.20	3598.28
995.36	3545.03
995.52	3667.91
995.68	3594.19
995.84	3461.07
996.00	3579.85
996.16	3483.59
996.32	3487.69
996.48	3399.63
996.64	3524.55
996.80	3350.48
996.96	3526.60
997.12	3282.89
997.28	3293.13
997.44	3315.66
997.60	3321.81
997.76	3395.53
997.92	3375.05
998.08	3399.63
998.24	3340.24
998.40	3360.72
998.56	3479.50
998.72	3315.66
998.88	3362.76
999.04	3405.77
999.20	3399.63
999.36	3375.05
999.52	3436.49
999.68	3366.86
999.84	3391.44
1000.00	3317.71
1000.16	3305.42
1000.32	3117.01
1000.48	3387.34
1000.64	3170.26
1000.80	3293.13
1000.95	3114.96
1001.11	3352.52
1001.27	3102.67
1001.43	3215.31
1001.59	3114.96
1001.75	3166.16
1001.91	3129.30
1002.07	3110.86
1002.23	3153.87
1002.39	3123.15
1002.55	3190.74
1002.71	3092.43
1002.87	3180.50
1003.03	3160.02
1003.19	3121.10
1003.34	3121.10
1003.50	3039.19
1003.66	3043.28
1003.82	3012.56
1003.98	3026.90
1004.14	3086.29
1004.30	2947.03
1004.46	3018.71
1004.62	2971.60
1004.78	3069.91
1004.94	2959.31
1005.09	3100.62
1005.25	3176.40
1005.41	2944.98
1005.57	2924.50
1005.73	3055.57
1005.89	2961.36
1006.05	2940.88
1006.21	3039.19
1006.37	2955.22
1006.52	2885.59
1006.68	2947.03
1006.84	2987.99
1007.00	2924.50
1007.16	2891.73
1007.32	2873.30
1007.48	2879.44
1007.64	2910.16
1007.79	2848.72
1007.95	2979.79
1008.11	2867.16
1008.27	2768.85
1008.43	2938.84
1008.59	2811.86
1008.75	2842.58
1008.91	2940.88
1009.06	2795.48
1009.22	2842.58
1009.38	2967.51
1009.54	2912.21
1009.70	2811.86
1009.86	2922.45
1010.01	2818.00
1010.17	2672.60
1010.33	2836.44
1010.49	2748.37
1010.65	2883.54
1010.81	2699.22
1010.96	2820.05
1011.12	2699.22
1011.28	2795.48
1011.44	2758.61
1011.60	2725.85
1011.76	2709.46
1011.91	2754.52
1012.07	2668.50
1012.23	2686.94
1012.39	2633.69
1012.55	2725.85
1012.71	2609.11
1012.86	2523.10
1013.02	2699.22
1013.18	2596.82
1013.34	2656.22
1013.50	2750.42
1013.65	2709.46
1013.81	2639.83
1013.97	2590.68
1014.13	2588.63
1014.29	2691.03
1014.44	2715.61
1014.60	2537.43
1014.76	2576.34
1014.92	2598.87
1015.07	2596.82
1015.23	2582.49
1015.39	2555.86
1015.55	2557.91
1015.71	2516.95
1015.86	2437.08
1016.02	2473.95
1016.18	2494.43
1016.34	2500.57
1016.49	2539.48
1016.65	2471.90
1016.81	2484.19
1016.97	2568.15
1017.12	2504.67
1017.28	2492.38
1017.44	2543.58
1017.60	2406.36
1017.75	2480.09
1017.91	2455.51
1018.07	2510.81
1018.23	2496.47
1018.38	2371.55
1018.54	2523.10
1018.70	2435.03
1018.86	2428.89
1019.01	2445.27
1019.17	2394.08
1019.33	2394.08
1019.49	2406.36
1019.64	2361.31
1019.80	2445.27
1019.96	2412.51
1020.12	2447.32
1020.27	2383.84
1020.43	2377.69
1020.59	2351.07
1020.74	2355.16
1020.90	2398.17
1021.06	2295.77
1021.22	2387.93
1021.37	2338.78
1021.53	2369.50
1021.69	2410.46
1021.84	2324.44
1022.00	2314.20
1022.16	2338.78
1022.31	2326.49
1022.47	2330.59
1022.63	2355.16
1022.79	2213.85
1022.94	2281.44
1023.10	2351.07
1023.26	2328.54
1023.41	2328.54
1023.57	2322.40
1023.73	2156.51
1023.88	2289.63
1024.04	2174.94
1024.20	2248.67
1024.35	2263.01
1024.51	2228.19
1024.67	2301.92
1024.82	2406.36
1024.98	2220.00
1025.14	2224.09
1025.29	2250.72
1025.45	2248.67
1025.61	2162.66
1025.76	2207.71
1025.92	2310.11
1026.08	2158.56
1026.23	2199.52
1026.39	2328.54
1026.55	2150.37
1026.70	2203.61
1026.86	2107.36
1027.02	2176.99
1027.17	2125.79
1027.33	2183.13
1027.48	2111.46
1027.64	2131.94
1027.80	2179.04
1027.95	2250.72
1028.11	2088.93
1028.27	2101.22
1028.42	2111.46
1028.58	2142.18
1028.73	2121.70
1028.89	2084.83
1029.05	2176.99
1029.20	2168.80
>>>>>End Processed Spectral Data<<<<<
