SpectraSuite Data File
++++++++++++++++++++++++++++++++++++
Date: Fri Jun 02 14:47:57 CEST 2017
User: INFO_000
Dark Spectrum Present: No
Reference Spectrum Present: No
Number of Sampled Component Spectra: 1
Spectrometers: USB4H00879
Integration Time (usec): 80000 (USB4H00879)
Spectra Averaged: 1 (USB4H00879)
Boxcar Smoothing: 0 (USB4H00879)
Correct for Electrical Dark: No (USB4H00879)
Strobe/Lamp Enabled: No (USB4H00879)
Correct for Detector Non-linearity: No (USB4H00879)
Correct for Stray Light: No (USB4H00879)
Number of Pixels in Processed Spectrum: 3648
>>>>>Begin Processed Spectral Data<<<<<
345.13	1236.97
345.34	1236.97
345.56	1236.97
345.78	1339.37
345.99	1257.45
346.21	1697.77
346.42	1632.23
346.64	1650.66
346.86	1751.01
347.07	1646.57
347.29	1675.24
347.50	1624.04
347.72	1691.62
347.94	1703.91
348.15	1648.61
348.37	1572.84
348.59	1742.82
348.80	1658.85
349.02	1789.92
349.23	1828.84
349.45	1808.36
349.67	1900.52
349.88	1791.97
350.10	1923.04
350.31	1877.99
350.53	1787.88
350.75	1978.34
350.96	1773.54
351.18	1904.61
351.39	1855.46
351.61	1769.44
351.82	1900.52
352.04	1877.99
352.26	1834.98
352.47	1886.18
352.69	1945.57
352.90	1779.68
353.12	1746.92
353.34	1796.07
353.55	1976.29
353.77	1908.71
353.98	1832.93
354.20	1920.99
354.41	1949.67
354.63	1937.38
354.85	1996.77
355.06	1884.13
355.28	1742.82
355.49	1925.09
355.71	1871.84
355.92	1906.66
356.14	1951.71
356.35	1869.80
356.57	1841.12
356.79	1886.18
357.00	1888.23
357.22	2002.91
357.43	1767.40
357.65	1939.43
357.86	1824.74
358.08	1918.95
358.29	1953.76
358.51	1927.14
358.72	1984.48
358.94	1929.19
359.16	1929.19
359.37	1886.18
359.59	1837.03
359.80	2041.82
360.02	1869.80
360.23	1929.19
360.45	2054.11
360.66	1947.62
360.88	1904.61
361.09	1923.04
361.31	1974.24
361.52	1968.10
361.74	2023.39
361.95	2107.36
362.17	1986.53
362.38	2037.73
362.60	2041.82
362.81	2060.26
363.03	2011.11
363.24	1984.48
363.46	2054.11
363.67	2019.30
363.89	2043.87
364.10	1992.67
364.32	1933.28
364.53	2031.58
364.75	1914.85
364.96	1994.72
365.18	2043.87
365.39	2015.20
365.61	1966.05
365.82	2101.22
366.04	2105.31
366.25	1933.28
366.47	2047.97
366.68	2039.78
366.90	2004.96
367.11	2015.20
367.33	2088.93
367.54	2031.58
367.76	1949.67
367.97	2113.50
368.19	1970.15
368.40	2097.12
368.62	1978.34
368.83	2023.39
369.05	2019.30
369.26	1957.86
369.48	1978.34
369.69	1951.71
369.91	2019.30
370.12	2047.97
370.33	2154.46
370.55	1998.82
370.76	2011.11
370.98	2072.54
371.19	2023.39
371.41	2045.92
371.62	2004.96
371.84	1957.86
372.05	2203.61
372.27	2019.30
372.48	2097.12
372.69	2101.22
372.91	2207.71
373.12	2201.57
373.34	2027.49
373.55	2121.70
373.77	2185.18
373.98	2121.70
374.20	2181.09
374.41	2209.76
374.62	2039.78
374.84	2037.73
375.05	2158.56
375.27	2183.13
375.48	2133.98
375.70	2144.22
375.91	2133.98
376.12	2203.61
376.34	2168.80
376.55	2142.18
376.77	2164.70
376.98	2080.74
377.19	2150.37
377.41	2121.70
377.62	2211.81
377.84	2287.58
378.05	2330.59
378.27	2168.80
378.48	2260.96
378.69	2478.04
378.91	2215.90
379.12	2340.83
379.34	2240.48
379.55	2197.47
379.76	2269.15
379.98	2138.08
380.19	2269.15
380.41	2238.43
380.62	2238.43
380.83	2197.47
381.05	2172.89
381.26	2480.09
381.47	2297.82
381.69	2316.25
381.90	2416.60
382.12	2310.11
382.33	2260.96
382.54	2246.62
382.76	2265.05
382.97	2369.50
383.19	2242.53
383.40	2424.80
383.61	2271.20
383.83	2365.40
384.04	2281.44
384.25	2351.07
384.47	2283.49
384.68	2326.49
384.89	2232.29
385.11	2283.49
385.32	2349.02
385.54	2314.20
385.75	2338.78
385.96	2469.85
386.18	2406.36
386.39	2441.18
386.60	2381.79
386.82	2441.18
387.03	2346.97
387.24	2451.42
387.46	2441.18
387.67	2473.95
387.88	2525.15
388.10	2504.67
388.31	2453.47
388.52	2463.71
388.74	2623.45
388.95	2512.86
389.16	2521.05
389.38	2451.42
389.59	2611.16
389.80	2654.17
390.02	2549.72
390.23	2527.19
390.44	2494.43
390.66	2519.00
390.87	2404.32
391.08	2547.67
391.30	2731.99
391.51	2688.98
391.72	2562.01
391.94	2654.17
392.15	2627.54
392.36	2516.95
392.58	2527.19
392.79	2631.64
393.00	2678.74
393.22	2715.61
393.43	2721.75
393.64	2674.65
393.85	2729.94
394.07	2559.96
394.28	2699.22
394.49	2666.46
394.71	2715.61
394.92	2818.00
395.13	2699.22
395.35	2781.14
395.56	2764.76
395.77	2734.04
395.98	2783.19
396.20	2842.58
396.41	2858.96
396.62	2756.57
396.84	2807.77
397.05	2688.98
397.26	2973.65
397.47	2977.75
397.69	2879.44
397.90	3043.28
398.11	2899.92
398.32	2848.72
398.54	2904.02
398.75	2940.88
398.96	2875.35
399.18	3008.47
399.39	2928.60
399.60	2971.60
399.81	2942.93
400.03	2928.60
400.24	3196.88
400.45	2963.41
400.66	3080.14
400.88	2967.51
401.09	3174.35
401.30	3092.43
401.51	3123.15
401.73	3129.30
401.94	3207.12
402.15	3125.20
402.36	3137.49
402.58	3164.11
402.79	3237.84
403.00	3231.69
403.21	3151.82
403.43	3186.64
403.64	3135.44
403.85	3061.71
404.06	3235.79
404.27	3141.58
404.49	3137.49
404.70	3170.26
404.91	3256.27
405.12	3282.89
405.34	3223.50
405.55	3334.09
405.76	3205.07
405.97	3215.31
406.19	3276.75
406.40	3252.17
406.61	3362.76
406.82	3346.38
407.03	3264.46
407.25	3278.80
407.46	3383.24
407.67	3467.21
407.88	3395.53
408.09	3403.72
408.31	3366.86
408.52	3293.13
408.73	3330.00
408.94	3311.57
409.15	3440.59
409.37	3426.25
409.58	3538.89
409.79	3514.31
410.00	3581.90
410.21	3432.40
410.43	3485.64
410.64	3442.64
410.85	3540.94
411.06	3506.12
411.27	3479.50
411.48	3600.33
411.70	3485.64
411.91	3641.29
412.12	3737.54
412.33	3598.28
412.54	3596.23
412.76	3696.58
412.97	3667.91
413.18	3493.83
413.39	3581.90
413.60	3573.71
413.81	3651.53
414.03	3682.25
414.24	3606.47
414.45	3817.41
414.66	3551.18
414.87	3700.68
415.08	3637.19
415.30	3708.87
415.51	3708.87
415.72	3786.69
415.93	3749.83
416.14	3624.90
416.35	3864.52
416.56	3807.17
416.78	3803.08
416.99	3809.22
417.20	3731.40
417.41	3819.46
417.62	3776.45
417.83	3975.11
418.04	3868.61
418.26	3997.64
418.47	3827.65
418.68	3977.16
418.89	3903.43
419.10	3948.48
419.31	3985.35
419.52	3985.35
419.73	3977.16
419.95	3966.92
420.16	3897.28
420.37	3921.86
420.58	3989.44
420.79	3901.38
421.00	4046.79
421.21	4073.41
421.42	3841.99
421.63	4229.06
421.85	4061.12
422.06	4136.90
422.27	4057.03
422.48	4214.72
422.69	4270.01
422.90	4122.56
423.11	4128.70
423.32	4308.93
423.53	4368.32
423.75	4253.63
423.96	4542.39
424.17	4282.30
424.38	4407.23
424.59	4409.28
424.80	4448.19
425.01	4448.19
425.22	4296.64
425.43	4386.75
425.64	4671.42
425.85	4634.55
426.06	4476.86
426.28	4495.29
426.49	4450.24
426.70	4417.47
426.91	4405.18
427.12	4794.29
427.33	4595.64
427.54	4440.00
427.75	4794.29
427.96	4808.63
428.17	4698.04
428.38	4642.75
428.59	4745.14
428.80	4695.99
429.01	4751.29
429.23	4786.10
429.44	5058.48
429.65	4849.59
429.86	4908.98
430.07	4767.67
430.28	4833.21
430.49	4954.04
430.70	5019.57
430.91	5109.68
431.12	4906.93
431.33	5250.99
431.54	5091.25
431.75	5121.97
431.96	5128.11
432.17	5038.00
432.38	5142.45
432.59	5373.87
432.80	5234.61
433.01	5414.83
433.22	5265.33
433.43	5412.78
433.64	5265.33
433.85	5345.20
434.06	5384.11
434.27	5257.14
434.49	5371.82
434.70	5468.08
434.91	5455.79
435.12	5482.41
435.33	5476.27
435.54	5437.36
435.75	5322.67
435.96	5550.00
436.17	5427.12
436.38	5746.60
436.59	5550.00
436.80	5572.52
437.01	5734.31
437.22	5730.22
437.43	5664.68
437.64	5394.35
437.85	5885.86
438.06	5760.94
438.27	5689.26
438.48	5697.45
438.69	5750.70
438.90	5922.73
439.11	5791.66
439.32	5990.31
439.53	5947.30
439.74	5801.90
439.95	6002.60
440.16	5928.87
440.37	5883.81
440.57	5795.75
440.78	5975.97
440.99	5994.40
441.20	6008.74
441.41	5777.32
441.62	6057.89
441.83	5871.53
442.04	6080.42
442.25	6059.94
442.46	5924.77
442.67	6148.00
442.88	6543.26
443.09	6027.17
443.30	6127.52
443.51	6094.76
443.72	6508.44
443.93	6242.21
444.14	6369.18
444.35	6059.94
444.56	6344.61
444.77	6291.36
444.98	6289.31
445.19	6381.47
445.40	6338.46
445.61	6274.98
445.81	6500.25
446.02	6514.59
446.23	6379.42
446.44	6143.91
446.65	6469.53
446.86	6498.20
447.07	6524.83
447.28	6584.22
447.49	6655.90
447.70	6561.69
447.91	6684.57
448.12	6629.27
448.33	6743.96
448.54	6815.64
448.74	6596.51
448.95	6657.95
449.16	6537.12
449.37	6961.05
449.58	6682.52
449.79	6832.02
450.00	6580.12
450.21	6893.46
450.42	7137.17
450.63	6950.81
450.84	6811.54
451.05	6823.83
451.25	6918.04
451.46	6963.09
451.67	7141.27
451.88	7040.92
452.09	7096.21
452.30	6948.76
452.51	6952.85
452.72	7128.98
452.93	7458.70
453.13	7040.92
453.34	7055.25
453.55	7243.67
453.76	7298.96
453.97	7604.11
454.18	7331.73
454.39	7387.02
454.60	7368.59
454.81	7307.15
455.01	7460.75
455.22	7180.18
455.43	7466.89
455.64	7714.70
455.85	7747.47
456.06	7892.87
456.27	7624.59
456.48	7573.39
456.68	7673.74
456.89	7675.79
457.10	7804.81
457.31	7798.66
457.52	7720.84
457.73	7722.89
457.94	8099.72
458.14	7659.40
458.35	8243.07
458.56	7958.41
458.77	7991.17
458.98	8032.13
459.19	8281.99
459.39	8109.96
459.60	8212.35
459.81	8236.93
460.02	8331.14
460.23	8281.99
460.44	8521.60
460.65	8425.34
460.85	8421.25
461.06	8613.76
461.27	8519.55
461.48	8781.69
461.69	8931.19
461.89	8587.13
462.10	8687.48
462.31	8638.33
462.52	8736.63
462.73	8896.38
462.94	8900.47
463.14	9056.12
463.35	8900.47
463.56	9287.54
463.77	9201.52
463.98	9174.90
464.18	9162.61
464.39	9172.85
464.60	9439.09
464.81	9377.65
465.02	9602.93
465.23	9574.25
465.43	9629.55
465.64	9863.02
465.85	9678.70
466.06	9625.45
466.27	10180.45
466.47	9924.46
466.68	10002.28
466.89	9969.51
467.10	10170.21
467.30	9985.90
467.51	10231.65
467.72	10385.25
467.93	10086.25
468.14	10428.26
468.34	10487.65
468.55	10493.79
468.76	10475.36
468.97	10327.91
469.17	10622.81
469.38	10762.08
469.59	10964.82
469.80	10659.68
470.01	10891.10
470.21	10813.28
470.42	10915.67
470.63	11216.72
470.84	10989.40
471.04	11235.16
471.25	11478.86
471.46	11323.22
471.67	11376.47
471.87	11442.00
472.08	11698.00
472.29	11827.02
472.50	11581.26
472.70	11702.09
472.91	11990.86
473.12	11960.14
473.33	11990.86
473.53	12359.49
473.74	12013.38
473.95	12486.47
474.16	12533.57
474.36	12570.43
474.57	12490.56
474.78	12900.16
474.99	12566.34
475.19	12648.26
475.40	12914.49
475.61	13129.53
475.81	13266.74
476.02	13309.75
476.23	13082.42
476.44	13336.37
476.64	13494.07
476.85	13678.38
477.06	13489.97
477.27	13731.63
477.47	14006.06
477.68	13592.37
477.89	13954.86
478.09	14182.18
478.30	13971.24
478.51	14085.93
478.71	14307.11
478.92	14516.00
479.13	14436.13
479.34	14573.35
479.54	14714.66
479.75	14692.13
479.96	14929.69
480.16	14735.14
480.37	14874.40
480.58	15208.22
480.78	15564.56
480.99	15060.76
481.20	15359.77
481.41	15361.81
481.61	15572.75
481.82	15650.58
482.03	15470.36
482.23	15771.41
482.44	15898.38
482.65	15777.55
482.85	16013.07
483.06	16080.65
483.27	16150.28
483.47	16242.44
483.68	16226.06
483.89	16344.84
484.09	16625.41
484.30	16660.23
484.51	16910.08
484.71	16959.23
484.92	17041.15
485.13	17155.83
485.33	17280.76
485.54	17032.96
485.75	17188.60
485.95	17254.14
486.16	17288.95
486.37	17676.02
486.57	17516.28
486.78	17516.28
486.98	17594.10
487.19	17854.19
487.40	18003.69
487.60	18046.70
487.81	17929.97
488.02	17880.82
488.22	18093.80
488.43	18188.01
488.64	18085.61
488.84	18237.16
489.05	18573.03
489.25	18192.11
489.46	18824.93
489.67	18757.35
489.87	18923.23
490.08	18951.90
490.29	19105.50
490.49	19291.87
490.70	19003.10
490.90	19257.05
491.11	19091.16
491.32	19295.96
491.52	19314.39
491.73	19293.91
491.94	19662.55
492.14	19537.62
492.35	19762.90
492.55	19517.14
492.76	19898.06
492.97	20217.55
493.17	19951.31
493.38	20262.60
493.58	20448.97
493.79	19992.27
494.00	20276.94
494.20	20504.26
494.41	20465.35
494.61	20817.60
494.82	20377.29
495.02	20631.24
495.23	20795.07
495.44	20922.05
495.64	21147.33
495.85	21036.74
496.05	20907.71
496.26	21077.69
496.47	21431.99
496.67	20936.38
496.88	21573.30
497.08	21208.76
497.29	21618.36
497.49	21589.69
497.70	21769.91
497.91	21909.17
498.11	21956.27
498.32	21790.39
498.52	22058.67
498.73	22367.91
498.93	22109.87
499.14	22310.57
499.34	22396.59
499.55	22656.68
499.76	22523.56
499.96	22501.03
500.17	22933.15
500.37	22570.66
500.58	22593.19
500.78	22779.56
500.99	22972.07
501.19	22982.31
501.40	22656.68
501.60	22761.12
501.81	23156.38
502.02	23269.02
502.22	23213.73
502.43	23385.76
502.63	23439.00
502.84	23756.44
503.04	23414.43
503.25	23439.00
503.45	23778.97
503.66	23758.49
503.86	23809.68
504.07	24153.74
504.27	23805.59
504.48	24489.61
504.68	24161.94
504.89	24452.75
505.09	24239.76
505.30	24094.35
505.50	24530.57
505.71	24452.75
505.91	24628.87
506.12	24692.36
506.32	24626.82
506.53	24962.69
506.73	25083.52
506.94	24938.12
507.14	24850.05
507.35	24993.41
507.55	25089.67
507.76	25347.71
507.96	24759.94
508.17	25235.07
508.37	25482.88
508.58	25517.69
508.78	25749.11
508.99	25878.13
509.19	25790.07
509.40	25687.67
509.60	25833.08
509.81	25908.85
510.01	25794.17
510.22	25949.81
510.42	26187.38
510.63	26406.51
510.83	26181.23
511.04	26533.48
511.24	26455.66
511.44	26596.97
511.65	26537.58
511.85	26594.92
512.06	26633.83
512.26	26619.50
512.47	26709.61
512.67	26943.08
512.88	27014.76
513.08	26799.72
513.29	27455.07
513.49	26945.12
513.69	27215.46
513.90	27377.25
514.10	27403.87
514.31	27553.37
514.51	27551.32
514.72	27471.45
514.92	27506.27
515.13	27549.28
515.33	28204.63
515.53	27983.44
515.74	27928.15
515.94	27903.57
516.15	28094.04
516.35	27792.98
516.56	28153.43
516.76	28116.56
516.96	28169.81
517.17	28161.62
517.37	28163.67
517.58	28134.99
517.78	28534.35
517.99	28552.78
518.19	28632.65
518.39	28808.78
518.60	28919.37
518.80	28745.29
519.01	29025.86
519.21	28948.04
519.41	28892.74
519.62	28855.88
519.82	28980.81
520.03	29406.78
520.23	29247.04
520.43	29185.60
520.64	29728.31
520.84	29675.07
521.05	29472.32
521.25	29650.49
521.45	29750.84
521.66	29840.95
521.86	30012.98
522.07	29916.73
522.27	30090.80
522.47	29838.90
522.68	30479.92
522.88	30019.13
523.08	30400.05
523.29	30508.59
523.49	30592.56
523.70	30656.04
523.90	31008.29
524.10	30477.87
524.31	30987.82
524.51	30553.65
524.71	31239.72
524.92	31260.20
525.12	31088.17
525.33	31043.11
525.53	31354.40
525.73	31700.51
525.94	31544.86
526.14	31456.80
526.34	31571.49
526.55	31723.04
526.75	31481.38
526.95	32099.86
527.16	31778.33
527.36	31761.95
527.56	32323.09
527.77	32437.78
527.97	32001.56
528.17	32110.10
528.38	32306.71
528.58	32382.48
528.78	32462.35
528.99	32527.89
529.19	32609.81
529.39	32263.70
529.60	32937.48
529.80	32613.90
530.00	32581.13
530.21	33084.94
530.41	33166.85
530.61	33244.68
530.82	33265.16
531.02	33220.10
531.22	33422.85
531.43	33398.27
531.63	33433.09
531.83	33990.14
532.04	33975.80
532.24	33385.99
532.44	34113.02
532.64	34151.93
532.85	33850.88
533.05	34641.39
533.25	34516.47
533.46	34538.99
533.66	34309.62
533.86	34280.95
534.07	34661.87
534.27	34477.55
534.47	34946.54
534.67	34803.18
534.88	34250.23
535.08	34934.25
535.28	34991.59
535.49	35028.46
535.69	34989.55
535.89	35128.81
536.09	35200.49
536.30	35481.06
536.50	35227.11
536.70	35476.96
536.91	35315.17
537.11	35438.05
537.31	35425.76
537.51	35395.04
537.72	36019.67
537.92	35837.41
538.12	35952.09
538.32	36173.27
538.53	36259.29
538.73	35980.76
538.93	36027.87
539.13	36283.86
539.34	36255.19
539.54	36390.36
539.74	36552.15
539.94	36564.43
540.15	36371.92
540.35	36466.13
540.55	36705.74
540.75	36711.89
540.96	37008.84
541.16	36722.13
541.36	36976.08
541.56	37170.63
541.77	37551.56
541.97	37230.02
542.17	37670.34
542.37	37279.18
542.58	36920.78
542.78	37217.74
542.98	37096.91
543.18	37256.65
543.38	37739.97
543.59	37234.12
543.79	37373.38
543.99	37713.34
544.19	38034.88
544.40	37858.75
544.60	38098.36
544.80	38020.54
545.00	37787.07
545.20	38116.79
545.41	37760.45
545.61	37987.77
545.81	38497.72
546.01	38473.14
546.21	38077.88
546.42	38161.85
546.62	38528.44
546.82	38458.81
547.02	38628.79
547.22	38557.11
547.43	38614.45
547.63	38718.90
547.83	38770.10
548.03	38843.82
548.23	39017.90
548.44	39060.91
548.64	38684.08
548.84	38888.88
549.04	38901.17
549.24	39099.82
549.45	39280.04
549.65	39032.24
549.85	39607.72
550.05	39792.03
550.25	38989.23
550.45	39839.14
550.66	39529.89
550.86	39212.46
551.06	39746.98
551.26	39703.97
551.46	40140.19
551.66	39613.86
551.87	39738.79
552.07	40099.23
552.27	39859.62
552.47	39869.86
552.67	40275.35
552.87	40177.05
553.07	40134.04
553.28	40048.03
553.48	40367.51
553.68	40324.50
553.88	41098.64
554.08	40326.55
554.28	40754.58
554.48	40289.69
554.69	40406.42
554.89	40959.38
555.09	40605.08
555.29	40328.60
555.49	40836.50
555.69	40990.09
555.89	40828.30
556.10	40809.87
556.30	40811.92
556.50	40840.59
556.70	41104.78
556.90	41125.26
557.10	41282.95
557.30	41305.48
557.50	41420.17
557.70	41366.92
557.91	41524.61
558.11	41358.73
558.31	41594.25
558.51	41653.64
558.71	41629.06
558.91	42114.43
559.11	41395.59
559.31	41479.56
559.51	41866.63
559.72	41799.04
559.92	41880.96
560.12	41825.67
560.32	42546.55
560.52	42048.89
560.72	42104.19
560.92	42415.48
561.12	41962.88
561.32	42540.41
561.52	42159.48
561.72	42718.58
561.93	42349.95
562.13	42470.78
562.33	42489.21
562.53	42698.10
562.73	42876.27
562.93	42636.66
563.13	43095.41
563.33	43042.16
563.53	43056.50
563.73	42696.05
563.93	43013.49
564.13	43562.34
564.33	42665.33
564.53	43382.12
564.74	43445.61
564.94	42976.62
565.14	43713.89
565.34	43076.97
565.54	43910.50
565.74	44016.99
565.94	43801.96
566.14	43804.00
566.34	43650.41
566.54	43830.63
566.74	43908.45
566.94	43795.81
567.14	44209.50
567.34	43668.84
567.54	44385.63
567.74	43769.19
567.94	43949.41
568.14	44567.90
568.34	44219.74
568.54	44397.91
568.74	44948.82
568.94	44369.24
569.14	44997.97
569.34	44848.47
569.54	44705.11
569.75	44473.69
569.95	44731.73
570.15	44866.90
570.35	44895.57
570.55	44948.82
570.75	44834.13
570.95	44848.47
571.15	44840.28
571.35	45174.09
571.55	45516.11
571.75	45258.06
571.95	45815.11
572.15	45430.09
572.35	45581.64
572.55	45258.06
572.75	45145.42
572.95	45675.85
573.15	45647.18
573.35	46019.91
573.55	45739.33
573.75	45702.47
573.95	46310.72
574.15	45921.60
574.35	46169.41
574.55	46050.63
574.75	45983.04
574.95	46071.10
575.15	45962.56
575.34	46222.65
575.54	46433.60
575.74	46456.12
575.94	46552.38
576.14	46288.19
576.34	46880.05
576.54	46585.15
576.74	46751.03
576.94	46527.80
577.14	46875.96
577.34	46923.06
577.54	47072.56
577.74	47215.92
577.94	47007.03
578.14	46847.29
578.34	47250.74
578.54	46863.67
578.74	46587.19
578.94	47131.95
579.14	47127.86
579.34	47344.94
579.54	47224.11
579.74	47469.87
579.94	47590.70
580.13	47813.93
580.33	47568.17
580.53	47480.11
580.73	47834.41
580.93	47383.85
581.13	47830.31
581.33	48076.07
581.53	48168.22
581.73	47818.02
581.93	47936.80
582.13	47977.76
582.33	48108.83
582.53	47689.00
582.73	47664.42
582.92	48459.04
583.12	48182.56
583.32	48559.39
583.52	48000.29
583.72	48624.92
583.92	48233.76
584.12	48178.46
584.32	48985.36
584.52	48766.23
584.72	48790.81
584.92	48405.79
585.11	49161.49
585.31	48854.29
585.51	48823.58
585.71	48424.22
585.91	49011.99
586.11	48712.98
586.31	48856.34
586.51	48911.64
586.71	48891.16
586.91	48964.88
587.10	49132.82
587.30	49544.46
587.50	49149.20
587.70	49337.62
587.90	49306.90
588.10	49757.45
588.30	49304.85
588.50	49706.25
588.69	49521.93
588.89	49571.08
589.09	49624.33
589.29	49497.36
589.49	49718.54
589.69	49620.23
589.89	49755.40
590.08	49769.74
590.28	49526.03
590.48	49741.06
590.68	49511.69
590.88	49915.14
591.08	49810.70
591.28	49546.51
591.47	49790.22
591.67	49829.13
591.87	49986.82
592.07	49968.39
592.27	49710.35
592.47	50263.30
592.67	50001.16
592.86	49767.69
593.06	50128.13
593.26	50017.54
593.46	50324.74
593.66	50115.84
593.86	50212.10
594.05	49997.06
594.25	50816.25
594.45	50099.46
594.65	50074.88
594.85	49921.29
595.05	50214.15
595.24	50300.16
595.44	50361.60
595.64	50234.63
595.84	50607.36
596.04	50326.78
596.23	50201.86
596.43	50558.20
596.63	50500.86
596.83	50388.22
597.03	50787.58
597.22	50900.22
597.42	51281.14
597.62	50795.77
597.82	50599.16
598.02	50670.84
598.21	51213.55
598.41	50633.98
598.61	50832.63
598.81	51016.95
599.01	51064.05
599.20	50939.13
599.40	50636.03
599.60	50992.37
599.80	51053.81
600.00	50785.53
600.19	51528.94
600.39	50947.32
600.59	51322.10
600.79	51268.85
600.98	51098.87
601.18	51309.81
601.38	51496.17
601.58	51383.54
601.78	51473.65
601.97	51127.54
602.17	51660.01
602.37	51715.31
602.57	51743.98
602.76	51578.09
602.96	51354.86
603.16	51713.26
603.36	51918.06
603.55	51938.54
603.75	51653.87
603.95	51961.06
604.15	51766.51
604.34	51676.40
604.54	52137.19
604.74	51754.22
604.94	52090.09
605.13	52219.11
605.33	51838.18
605.53	51692.78
605.73	52118.76
605.92	51813.61
606.12	52100.32
606.32	52358.37
606.52	52303.07
606.71	51959.02
606.91	52593.89
607.11	51987.69
607.30	52542.69
607.50	52405.47
607.70	52610.27
607.90	52110.56
608.09	52178.15
608.29	52579.55
608.49	52374.75
608.68	52061.41
608.88	52167.91
609.08	52835.55
609.28	52763.87
609.47	52460.77
609.67	53122.26
609.87	52815.07
610.06	52544.73
610.26	52550.88
610.46	53122.26
610.66	52475.10
610.85	52753.63
611.05	52387.04
611.25	52991.19
611.44	52503.77
611.64	52991.19
611.84	52509.92
612.03	52630.75
612.23	52704.48
612.43	53363.92
612.62	52892.89
612.82	53046.49
613.02	52872.41
613.21	52853.98
613.41	53015.77
613.61	53034.20
613.80	52573.41
614.00	52987.10
614.20	53040.34
614.39	53187.80
614.59	52831.45
614.79	53245.14
614.98	52831.45
615.18	52980.95
615.38	53130.45
615.57	53019.86
615.77	53046.49
615.97	53433.55
616.16	53331.15
616.36	53705.93
616.56	53183.70
616.75	53005.53
616.95	53036.25
617.15	53296.34
617.34	53181.65
617.54	53109.97
617.74	53515.47
617.93	53679.31
618.13	52880.60
618.32	53181.65
618.52	53576.91
618.72	53327.06
618.91	53589.20
619.11	53247.19
619.31	53318.87
619.50	53490.90
619.70	52913.37
619.90	52946.14
620.09	53720.27
620.29	53314.77
620.48	53406.93
620.68	53757.13
620.88	53128.41
621.07	53431.50
621.27	53421.26
621.46	53044.44
621.66	53376.21
621.86	53345.49
622.05	53550.29
622.25	53992.65
622.44	53810.38
622.64	53327.06
622.84	53994.70
623.03	53345.49
623.23	53634.25
623.42	53501.14
623.62	53705.93
623.82	53894.35
624.01	53339.35
624.21	53726.41
624.40	53558.48
624.60	53716.17
624.80	53748.94
624.99	53570.77
625.19	53130.45
625.38	53775.56
625.58	53775.56
625.77	53660.88
625.97	54064.33
626.17	53470.42
626.36	53898.44
626.56	53703.88
626.75	53365.97
626.95	54369.47
627.14	53462.22
627.34	54101.19
627.54	53984.46
627.73	53777.61
627.93	53951.69
628.12	53648.59
628.32	54000.84
628.51	54420.67
628.71	54183.11
628.90	53937.35
629.10	53927.11
629.30	54240.45
629.49	54138.05
629.69	54234.31
629.88	54326.47
630.08	54459.58
630.27	54162.63
630.47	54527.17
630.66	54373.57
630.86	54222.02
631.05	53884.11
631.25	54326.47
631.44	54717.63
631.64	54217.92
631.84	54758.59
632.03	55151.80
632.23	54471.87
632.42	54654.14
632.62	54865.08
632.81	54672.57
633.01	54688.96
633.20	55143.61
633.40	54441.15
633.59	54992.06
633.79	54611.13
633.98	54561.98
634.18	55186.61
634.37	54856.89
634.57	54691.01
634.76	54752.44
634.96	54977.72
635.15	54803.64
635.35	54779.07
635.54	54361.28
635.74	55178.42
635.93	55080.12
636.13	55317.68
636.32	55299.25
636.52	54752.44
636.71	54949.05
636.91	55520.43
637.10	55082.17
637.30	55305.40
637.49	55356.60
637.69	55370.93
637.88	55362.74
638.08	54910.14
638.27	56095.91
638.46	55059.64
638.66	55563.44
638.85	55420.08
639.05	56132.78
639.24	55612.59
639.44	55475.38
639.63	55401.65
639.83	55524.53
640.02	55561.39
640.22	55301.30
640.41	56005.80
640.61	55540.91
640.80	55588.02
640.99	55395.51
641.19	55940.27
641.38	55866.54
641.58	55805.10
641.77	55657.65
641.97	55751.85
642.16	55723.18
642.36	56161.45
642.55	56167.59
642.74	55798.96
642.94	56206.50
643.13	55854.25
643.33	56568.99
643.52	56108.20
643.72	56485.03
643.91	56218.79
644.10	56624.29
644.30	56620.19
644.49	56177.83
644.69	56597.66
644.88	56253.61
645.08	56292.52
645.27	56259.75
645.46	56116.39
645.66	56736.93
645.85	56392.87
646.05	57052.31
646.24	56439.97
646.43	56368.29
646.63	56841.37
646.82	56579.23
647.02	56468.64
647.21	56865.95
647.40	56771.74
647.60	56720.54
647.79	56564.90
647.99	56779.93
648.18	56202.41
648.37	57173.14
648.57	56730.78
648.76	56435.87
648.96	56843.42
649.15	57205.91
649.34	57146.52
649.54	56734.88
649.73	56427.68
649.92	57275.54
650.12	57128.09
650.31	57216.15
650.51	56927.39
650.70	57091.22
650.89	56876.19
651.09	57795.73
651.28	57382.04
651.47	57371.80
651.67	57281.69
651.86	57902.22
652.06	56718.49
652.25	57525.39
652.44	57222.29
652.64	57220.25
652.83	56958.11
653.02	56698.01
653.22	57148.57
653.41	57144.47
653.60	56988.83
653.80	56759.45
653.99	57119.90
654.18	56911.00
654.38	57316.50
654.57	57492.63
654.76	57175.19
654.96	56818.84
655.15	57271.45
655.34	57113.75
655.54	56929.44
655.73	57158.81
655.92	57349.27
656.12	57146.52
656.31	57279.64
656.50	57115.80
656.70	57158.81
656.89	57134.23
657.08	57762.96
657.28	57287.83
657.47	56808.61
657.66	57259.16
657.86	57250.97
658.05	57578.64
658.24	57126.04
658.43	56982.68
658.63	57261.21
658.82	57519.25
659.01	57584.79
659.21	57382.04
659.40	57631.89
659.59	57058.46
659.79	57261.21
659.98	57261.21
660.17	57283.73
660.36	57314.45
660.56	57060.51
660.75	57332.89
660.94	57021.59
661.14	57091.22
661.33	57078.94
661.52	56638.62
661.71	57504.91
661.91	56886.43
662.10	56779.93
662.29	57279.64
662.49	57402.52
662.68	57126.04
662.87	57111.70
663.06	57379.99
663.26	57431.19
663.45	57128.09
663.64	57230.49
663.83	56968.35
664.03	57363.60
664.22	57058.46
664.41	56894.62
664.60	57050.27
664.80	57070.75
664.99	56792.22
665.18	56706.21
665.37	56878.24
665.57	57029.79
665.76	56706.21
665.95	56972.44
666.14	56636.58
666.34	56808.61
666.53	56968.35
666.72	56841.37
666.91	56624.29
667.11	56669.34
667.30	56718.49
667.49	56489.12
667.68	56763.55
667.87	56579.23
668.07	56753.31
668.26	56439.97
668.45	57236.63
668.64	56114.34
668.84	57203.86
669.03	56908.96
669.22	56566.94
669.41	56562.85
669.60	56784.03
669.80	56577.18
669.99	56474.79
670.18	56140.97
670.37	56468.64
670.57	57091.22
670.76	55956.65
670.95	56628.38
671.14	56579.23
671.33	55762.09
671.53	56824.99
671.72	56095.91
671.91	56442.02
672.10	55794.86
672.29	56435.87
672.48	55930.03
672.68	56138.92
672.87	55952.55
673.06	56407.20
673.25	55952.55
673.44	55907.50
673.64	55712.94
673.83	55970.99
674.02	56267.94
674.21	55801.00
674.40	56030.38
674.59	55366.84
674.79	55973.03
674.98	55637.17
675.17	56005.80
675.36	55405.75
675.55	56183.97
675.74	55510.19
675.94	55436.47
676.13	55739.57
676.32	55600.30
676.51	55676.08
676.70	55729.33
676.89	55497.91
677.08	55985.32
677.28	55182.52
677.47	55755.95
677.66	56417.44
677.85	55639.22
678.04	56179.88
678.23	55667.89
678.42	55790.76
678.62	55508.14
678.81	55397.55
679.00	55340.21
679.19	55706.80
679.38	55211.19
679.57	55452.85
679.76	55442.61
679.96	55526.58
680.15	55452.85
680.34	55293.11
680.53	54811.84
680.72	55555.25
680.91	55424.18
681.10	55024.82
681.29	55401.65
681.48	55194.81
681.68	55178.42
681.87	55465.14
682.06	55254.20
682.25	54793.40
682.44	54973.63
682.63	55168.18
682.82	54850.75
683.01	54949.05
683.20	54889.66
683.39	55096.50
683.59	54660.29
683.78	55028.92
683.97	54725.82
684.16	54564.03
684.35	54478.02
684.54	54660.29
684.73	54873.27
684.92	54377.67
685.11	54236.36
685.30	54138.05
685.49	54781.12
685.69	54387.91
685.88	54688.96
686.07	54389.95
686.26	54273.22
686.45	54334.66
686.64	54469.82
686.83	54217.92
687.02	54164.68
687.21	54387.91
687.40	53941.45
687.59	54305.99
687.78	54234.31
687.97	54176.97
688.16	54041.80
688.35	54049.99
688.54	54099.14
688.74	54277.32
688.93	53816.52
689.12	54189.25
689.31	53900.49
689.50	54471.87
689.69	53918.92
689.88	53337.30
690.07	54547.65
690.26	53869.77
690.45	53941.45
690.64	54049.99
690.83	53617.87
691.02	53423.31
691.21	53843.15
691.40	54011.08
691.59	54084.81
691.78	53611.73
691.97	54031.56
692.16	53789.90
692.35	53894.35
692.54	53898.44
692.73	53738.70
692.92	53763.28
693.11	53544.14
693.30	53513.42
693.49	54006.98
693.68	53650.64
693.87	53671.12
694.06	53193.94
694.25	53017.82
694.44	53261.52
694.63	53171.41
694.82	53648.59
695.01	53284.05
695.20	53038.29
695.39	53251.28
695.58	52983.00
695.77	52565.21
695.96	52798.68
696.15	53044.44
696.34	53195.99
696.53	53064.92
696.72	53101.78
696.91	52792.54
697.10	53208.28
697.29	52757.72
697.48	53155.03
697.67	53040.34
697.86	53107.93
698.05	52577.50
698.24	53150.93
698.43	52540.64
698.62	52727.00
698.81	52540.64
699.00	52974.81
699.19	52530.40
699.38	52917.46
699.57	52419.81
699.76	52884.70
699.95	52329.70
700.14	52319.46
700.32	53081.30
700.51	52724.96
700.70	53191.89
700.89	52862.17
701.08	52157.67
701.27	52573.41
701.46	52698.33
701.65	52047.08
701.84	52628.70
702.03	52493.54
702.22	52526.30
702.41	52124.90
702.60	52520.16
702.79	52129.00
702.98	52176.10
703.17	52233.44
703.35	52296.93
703.54	52053.22
703.73	52378.85
703.92	52657.37
704.11	52350.18
704.30	52241.63
704.49	52212.96
704.68	51748.07
704.87	52331.75
705.06	52298.98
705.25	52155.62
705.43	52223.20
705.62	52040.93
705.81	52374.75
706.00	52288.74
706.19	51973.35
706.38	51905.77
706.57	52061.41
706.76	52100.32
706.95	51670.25
707.14	51774.70
707.32	52131.04
707.51	51676.40
707.70	51737.83
707.89	51621.10
708.08	51959.02
708.27	51811.56
708.46	52245.73
708.65	51727.59
708.84	51875.05
709.02	51999.97
709.21	51922.15
709.40	51844.33
709.59	51670.25
709.78	51592.43
709.97	52042.98
710.16	52194.53
710.34	51631.34
710.53	52143.33
710.72	51561.71
710.91	51786.99
711.10	51883.24
711.29	51844.33
711.48	51944.68
711.66	52079.85
711.85	51608.81
712.04	51551.47
712.23	51991.78
712.42	51727.59
712.61	51967.21
712.80	51442.93
712.98	51668.20
713.17	51574.00
713.36	51191.03
713.55	51715.31
713.74	51270.90
713.93	51242.23
714.11	51627.24
714.30	51139.83
714.49	51148.02
714.68	51625.20
714.87	51680.49
715.06	51412.21
715.24	51410.16
715.43	51205.36
715.62	51168.50
715.81	51266.80
716.00	51530.99
716.18	50853.11
716.37	50613.50
716.56	50617.60
716.75	51184.88
716.94	51148.02
717.12	50605.31
717.31	51043.57
717.50	51320.05
717.69	51125.49
717.88	51158.26
718.06	51418.35
718.25	51313.90
718.44	50535.68
718.63	50908.41
718.82	50568.44
719.00	50935.03
719.19	50578.68
719.38	50822.39
719.57	50240.77
719.76	50040.07
719.94	50291.97
720.13	50554.11
720.32	50564.35
720.51	50674.94
720.69	50320.64
720.88	50285.82
721.07	50451.71
721.26	49888.52
721.44	49779.98
721.63	49911.05
721.82	49747.21
722.01	49673.48
722.20	50353.41
722.38	49829.13
722.57	49878.28
722.76	50332.93
722.95	49941.77
723.13	49732.87
723.32	49601.80
723.51	49491.21
723.70	49249.55
723.88	49472.78
724.07	49276.18
724.26	49489.16
724.44	49165.59
724.63	49642.76
724.82	49472.78
725.01	49718.54
725.19	49433.87
725.38	49040.66
725.57	49159.44
725.76	49638.67
725.94	49095.95
726.13	49464.59
726.32	49141.01
726.51	48934.17
726.69	49560.84
726.88	49386.77
727.07	48880.92
727.25	48932.12
727.44	49018.13
727.63	49120.53
727.82	48872.73
728.00	49274.13
728.19	49489.16
728.38	49345.81
728.56	48833.81
728.75	49227.02
728.94	49153.30
729.12	49452.30
729.31	49241.36
729.50	49227.02
729.69	49409.29
729.87	48952.60
730.06	49016.08
730.25	49188.11
730.43	49646.86
730.62	48751.90
730.81	49788.17
730.99	49087.76
731.18	48839.96
731.37	49169.68
731.55	49237.26
731.74	49437.97
731.93	49018.13
732.11	49380.62
732.30	49646.86
732.49	49292.56
732.67	49354.00
732.86	49141.01
733.05	49173.78
733.23	48870.68
733.42	49157.39
733.61	49261.84
733.79	48829.72
733.98	49513.74
734.17	49145.11
734.35	48917.78
734.54	48975.12
734.73	48905.49
734.91	49104.15
735.10	48624.92
735.29	49001.75
735.47	48719.13
735.66	48981.27
735.84	49050.90
736.03	48344.35
736.22	48911.64
736.40	48401.69
736.59	48952.60
736.78	48461.08
736.96	49069.33
737.15	48495.90
737.33	48903.45
737.52	48760.09
737.71	48536.86
737.89	48532.76
738.08	48362.78
738.27	48377.12
738.45	48870.68
738.64	48645.40
738.82	48377.12
739.01	48553.24
739.20	48227.62
739.38	48325.92
739.57	48635.16
739.75	48203.04
739.94	48424.22
740.13	48399.65
740.31	48092.45
740.50	47893.80
740.68	48266.53
740.87	48473.37
741.06	48876.82
741.24	48258.34
741.43	48248.10
741.61	48366.88
741.80	48172.32
741.99	48157.99
742.17	48117.03
742.36	48082.21
742.54	48053.54
742.73	48076.07
742.91	48207.14
743.10	48084.26
743.29	48297.25
743.47	48069.92
743.66	48383.26
743.84	47764.78
744.03	47805.73
744.21	47863.08
744.40	48065.83
744.59	47502.64
744.77	47572.27
744.96	47476.01
745.14	47850.79
745.33	47330.61
745.51	47676.71
745.70	47465.77
745.88	47312.17
746.07	47424.81
746.26	47351.09
746.44	47310.13
746.63	47195.44
746.81	47103.28
747.00	46814.52
747.18	47492.40
747.37	47271.21
747.55	47385.90
747.74	47531.31
747.92	47256.88
748.11	47070.51
748.29	46794.04
748.48	46832.95
748.66	46566.71
748.85	47121.71
749.03	47015.22
749.22	47109.43
749.41	46677.30
749.59	47291.69
749.78	47297.84
749.96	46175.55
750.15	46665.02
750.33	47181.10
750.52	46198.08
750.70	46857.52
750.89	46441.79
751.07	45968.71
751.26	45913.41
751.44	45905.22
751.63	46392.64
751.81	45929.80
752.00	45942.08
752.18	46196.03
752.37	45944.13
752.55	45862.21
752.74	45741.38
752.92	45960.51
753.10	45751.62
753.29	45845.83
753.47	45929.80
753.66	45313.36
753.84	45761.86
754.03	45985.09
754.21	45802.82
754.40	45815.11
754.58	45983.04
754.77	45606.22
754.95	45317.45
755.14	45466.95
755.32	45184.33
755.51	45249.87
755.69	45184.33
755.88	45206.86
756.06	45466.95
756.24	44944.72
756.43	45155.66
756.61	44983.63
756.80	45135.18
756.98	44778.84
757.17	45262.16
757.35	44803.41
757.54	44686.68
757.72	44905.81
757.90	44801.36
758.09	44440.92
758.27	44789.08
758.46	44371.29
758.64	44426.59
758.83	44821.84
759.01	44481.88
759.19	44549.46
759.38	44098.91
759.56	44569.94
759.75	44225.89
759.93	44004.70
760.12	44053.86
760.30	44377.43
760.48	44281.18
760.67	43930.98
760.85	44246.36
761.04	44115.29
761.22	44238.17
761.40	44154.21
761.59	43660.65
761.77	43398.51
761.96	43709.80
762.14	43793.76
762.32	43820.39
762.51	43199.85
762.69	43631.97
762.88	43783.52
763.06	44008.80
763.24	43806.05
763.43	43412.84
763.61	43375.98
763.80	43427.18
763.98	43236.72
764.16	43087.21
764.35	42980.72
764.53	42646.90
764.72	42720.63
764.90	42964.34
765.08	42734.96
765.27	42980.72
765.45	42771.83
765.63	42206.59
765.82	42935.66
766.00	42386.81
766.18	42323.32
766.37	42464.63
766.55	42372.47
766.74	42370.43
766.92	42143.10
767.10	41975.17
767.29	42259.84
767.47	41602.44
767.65	42327.42
767.84	41995.65
768.02	42118.53
768.20	41766.27
768.39	41999.74
768.57	41657.73
768.75	41717.12
768.94	41706.88
769.12	41682.31
769.30	41450.89
769.49	41840.00
769.67	41538.95
769.85	41059.73
770.04	42065.28
770.22	41323.91
770.40	41139.60
770.59	41325.96
770.77	41344.39
770.95	41074.06
771.14	40856.98
771.32	40529.30
771.50	40654.23
771.69	40988.05
771.87	40846.74
772.05	40426.90
772.24	41076.11
772.42	40441.24
772.60	40533.40
772.78	40252.83
772.97	40285.59
773.15	41151.88
773.33	40865.17
773.52	40220.06
773.70	40387.99
773.88	40330.65
774.07	40197.53
774.25	40074.65
774.43	40457.62
774.61	40818.07
774.80	40332.70
774.98	40328.60
775.16	40531.35
775.34	40590.74
775.53	40361.37
775.71	40580.50
775.89	40369.56
776.08	40420.76
776.26	40426.90
776.44	40351.13
776.62	40066.46
776.81	40392.09
776.99	39984.54
777.17	40267.16
777.35	40482.20
777.54	40646.04
777.72	40318.36
777.90	40523.16
778.08	40072.60
778.27	40162.72
778.45	40203.67
778.63	40318.36
778.81	40224.15
779.00	40709.52
779.18	40717.71
779.36	41002.38
779.54	40582.55
779.73	40543.64
779.91	40586.64
780.09	40228.25
780.27	40826.26
780.46	40580.50
780.64	40992.14
780.82	40646.04
781.00	40510.87
781.19	40824.21
781.37	40986.00
781.55	40557.97
781.73	41221.52
781.91	40662.42
782.10	40787.35
782.28	40768.91
782.46	40656.28
782.64	41151.88
782.82	40580.50
783.01	40832.40
783.19	40793.49
783.37	41004.43
783.55	40359.32
783.74	41026.96
783.92	40551.83
784.10	41285.00
784.28	40723.86
784.46	40535.45
784.64	40801.68
784.83	40611.22
785.01	40922.51
785.19	40531.35
785.37	41133.45
785.55	40975.76
785.74	40232.35
785.92	40592.79
786.10	40496.53
786.28	40754.58
786.46	40191.39
786.64	40084.89
786.83	40555.93
787.01	40467.86
787.19	40285.59
787.37	40504.73
787.55	40019.36
787.74	40170.91
787.92	40301.98
788.10	39708.07
788.28	39767.46
788.46	40367.51
788.64	39673.25
788.82	40138.14
789.01	39773.60
789.19	40111.52
789.37	39591.33
789.55	39607.72
789.73	39433.64
789.91	39259.56
790.09	39220.65
790.28	39280.04
790.46	39228.84
790.64	39826.85
790.82	39310.76
791.00	39015.85
791.18	38831.54
791.36	39372.20
791.55	38815.15
791.73	38696.37
791.91	38565.30
792.09	38913.45
792.27	39134.63
792.45	39083.44
792.63	38616.50
792.81	38630.83
793.00	38469.04
793.18	38503.86
793.36	38241.72
793.54	38471.09
793.72	38344.12
793.90	38124.99
794.08	37938.62
794.26	38180.28
794.44	37565.89
794.62	37961.15
794.81	37864.89
794.99	38104.51
795.17	37629.38
795.35	37647.81
795.53	37506.50
795.71	37416.39
795.89	37193.16
796.07	37111.24
796.25	37105.10
796.43	37195.21
796.61	36574.67
796.80	36722.13
796.98	36904.40
797.16	36599.25
797.34	36814.29
797.52	36654.54
797.70	36697.55
797.88	36437.46
798.06	36376.02
798.24	36189.66
798.42	36208.09
798.60	36337.11
798.78	35988.95
798.96	36337.11
799.14	35755.49
799.32	36103.64
799.51	35403.24
799.69	35837.41
799.87	35915.23
800.05	35687.90
800.23	35474.91
800.41	35706.34
800.59	35440.10
800.77	35306.98
800.95	34940.39
801.13	35081.70
801.31	34801.13
801.49	34680.30
801.67	34799.08
801.85	34592.24
802.03	34739.69
802.21	34334.20
802.39	34381.30
802.57	34416.11
802.75	34565.62
802.93	34328.05
803.11	34033.14
803.29	34002.43
803.47	34078.20
803.65	34211.32
803.83	34283.00
804.01	34078.20
804.19	33594.88
804.37	33611.26
804.55	33670.65
804.73	33541.63
804.91	33259.01
805.09	33633.79
805.27	33793.53
805.45	33431.04
805.63	32935.43
805.81	33498.62
805.99	33572.35
806.17	33123.85
806.35	33287.68
806.53	32869.90
806.71	32990.73
806.89	33123.85
807.07	32697.87
807.25	33043.98
807.43	32896.52
807.61	33011.21
807.79	32851.47
807.97	32599.57
808.15	32224.79
808.33	32701.96
808.51	32454.16
808.69	32505.36
808.87	32177.68
809.05	32099.86
809.23	32318.99
809.41	31847.96
809.59	31835.67
809.77	32443.92
809.95	31782.43
810.13	31839.77
810.31	31522.34
810.49	31733.28
810.67	31680.03
810.84	31686.17
811.02	31526.43
811.20	31258.15
811.38	31614.49
811.56	31073.83
811.74	31438.37
811.92	31061.54
812.10	30991.91
812.28	31147.56
812.46	31297.06
812.64	31262.24
812.82	30578.22
813.00	30858.79
813.18	31063.59
813.36	30899.75
813.53	30537.26
813.71	30850.60
813.89	30543.41
814.07	30699.05
814.25	31004.20
814.43	30709.29
814.61	30225.97
814.79	30344.75
814.97	30256.69
815.15	30469.68
815.33	30287.41
815.50	30207.54
815.68	30307.89
815.86	30365.23
816.04	30223.92
816.22	30289.46
816.40	30072.37
816.58	30000.69
816.76	29769.27
816.94	30051.89
817.11	29974.07
817.29	29765.18
817.47	29877.82
817.65	29705.79
817.83	29707.83
818.01	29388.35
818.19	29630.01
818.37	29634.11
818.54	29486.65
818.72	29367.87
818.90	29517.37
819.08	29263.43
819.26	29400.64
819.44	29029.96
819.62	29120.07
819.80	29005.38
819.97	29578.81
820.15	29453.89
820.33	28999.24
820.51	29029.96
820.69	28913.22
820.87	29132.36
821.05	29146.69
821.22	28651.08
821.40	29099.59
821.58	28808.78
821.76	28673.61
821.94	28612.17
822.12	28540.49
822.29	28640.84
822.47	28339.79
822.65	28657.23
822.83	28425.81
823.01	28407.37
823.19	28417.61
823.36	28315.22
823.54	28286.54
823.72	28233.30
823.90	28231.25
824.08	27952.73
824.25	27926.10
824.43	28100.18
824.61	28178.00
824.79	28358.22
824.97	27745.88
825.15	27954.77
825.32	27848.28
825.50	27739.74
825.68	27614.81
825.86	28102.23
826.04	27874.90
826.21	27815.51
826.39	27727.45
826.57	27670.11
826.75	27700.83
826.93	27428.45
827.10	27725.40
827.28	27608.67
827.46	27850.33
827.64	27403.87
827.81	27215.46
827.99	27625.05
828.17	27203.17
828.35	27268.70
828.53	27160.16
828.70	27170.40
828.88	27135.59
829.06	27326.05
829.24	27666.01
829.41	27602.52
829.59	27303.52
829.77	27014.76
829.95	26795.62
830.12	26986.08
830.30	27184.74
830.48	26863.21
830.66	26963.56
830.84	27194.98
831.01	26783.34
831.19	27061.86
831.37	26689.13
831.55	26967.65
831.72	26793.58
831.90	26639.98
832.08	26867.30
832.25	26738.28
832.43	26736.23
832.61	26527.34
832.79	26363.50
832.96	26736.23
833.14	26631.79
833.32	26934.88
833.50	26639.98
833.67	26496.62
833.85	26721.90
834.03	26068.59
834.20	26525.29
834.38	26515.05
834.56	26513.00
834.74	26162.80
834.91	26252.91
835.09	26300.01
835.27	25939.57
835.44	26068.59
835.62	25900.66
835.80	26062.45
835.98	26207.86
836.15	26115.70
836.33	26027.63
836.51	25511.55
836.68	25910.90
836.86	25781.88
837.04	25587.32
837.21	25863.80
837.39	26064.50
837.57	25734.78
837.75	25896.56
837.92	25648.76
838.10	25636.47
838.28	25372.28
838.45	25607.80
838.63	25308.80
838.81	25712.25
838.98	25212.54
839.16	25431.68
839.34	25091.71
839.51	25267.84
839.69	25200.26
839.87	25198.21
840.04	25208.45
840.22	25624.18
840.40	25110.14
840.57	25386.62
840.75	25599.61
840.93	25093.76
841.10	25050.75
841.28	25454.20
841.46	25282.17
841.63	25144.96
841.81	25386.62
841.98	25202.30
842.16	25290.37
842.34	25079.43
842.51	25050.75
842.69	25175.68
842.87	24757.89
843.04	24972.93
843.22	25013.89
843.40	25081.47
843.57	24956.55
843.75	24841.86
843.92	24886.92
844.10	24782.47
844.28	25106.05
844.45	24815.24
844.63	24737.41
844.81	24436.36
844.98	24839.81
845.16	24614.54
845.33	24600.20
845.51	24659.59
845.69	24473.23
845.86	24524.43
846.04	24544.91
846.21	24354.44
846.39	24325.77
846.57	24401.55
846.74	24344.20
846.92	24184.46
847.09	24114.83
847.27	23928.47
847.45	24065.68
847.62	24360.59
847.80	24395.40
847.97	23934.61
848.15	24030.87
848.32	23924.37
848.50	24020.63
848.68	23889.56
848.85	23967.38
849.03	23563.93
849.20	23875.22
849.38	23940.75
849.56	23791.25
849.73	23600.79
849.91	23805.59
850.08	23957.14
850.26	23414.43
850.43	23826.07
850.61	23393.95
850.78	23312.03
850.96	23574.17
851.14	23801.49
851.31	23746.20
851.49	23297.69
851.66	23600.79
851.84	23412.38
852.01	23590.55
852.19	23631.51
852.36	23240.35
852.54	23369.37
852.71	23465.63
852.89	23457.43
853.07	23180.96
853.24	23348.89
853.42	23293.60
853.59	23256.73
853.77	23099.04
853.94	23162.53
854.12	23359.13
854.29	22996.64
854.47	23031.46
854.64	23312.03
854.82	23010.98
854.99	23320.22
855.17	22763.17
855.34	23029.41
855.52	22978.21
855.69	23256.73
855.87	22791.84
856.04	22709.93
856.22	23053.98
856.39	22402.73
856.57	22816.42
856.74	22728.36
856.92	22793.89
857.09	22490.79
857.27	22527.66
857.44	23053.98
857.62	22329.00
857.79	22603.43
857.97	22699.69
858.14	22308.52
858.32	22539.94
858.49	22308.52
858.67	22548.14
858.84	22525.61
859.02	22392.49
859.19	21982.90
859.37	22034.10
859.54	22302.38
859.72	22359.72
859.89	22152.88
860.06	22206.13
860.24	21919.41
860.41	22032.05
860.59	21976.75
860.76	22130.35
860.94	21794.48
861.11	22173.36
861.29	21970.61
861.46	22005.42
861.64	21778.10
861.81	21927.60
861.98	21776.05
862.16	21647.03
862.33	21804.72
862.51	21585.59
862.68	21866.16
862.86	21585.59
863.03	21579.45
863.21	21644.98
863.38	21571.25
863.55	21311.16
863.73	21698.23
863.90	21446.33
864.08	21556.92
864.25	21259.96
864.43	21546.68
864.60	21423.80
864.77	21358.27
864.95	21335.74
865.12	21274.30
865.30	21483.19
865.47	21270.20
865.64	21388.99
865.82	21302.97
865.99	21327.55
866.17	21219.00
866.34	21001.92
866.51	20958.91
866.69	21126.85
866.86	20944.58
867.04	20942.53
867.21	20817.60
867.38	20950.72
867.56	20864.71
867.73	20709.06
867.91	21063.36
868.08	20737.73
868.25	20774.60
868.43	20502.22
868.60	20643.52
868.78	20504.26
868.95	20635.33
869.12	20172.49
869.30	20457.16
869.47	20561.61
869.64	20266.70
869.82	20293.32
869.99	20434.63
870.16	20426.44
870.34	20184.78
870.51	20303.56
870.69	20127.44
870.86	20356.81
871.03	19949.26
871.21	19846.87
871.38	20205.26
871.55	19887.82
871.73	19941.07
871.90	19855.06
872.07	19742.42
872.25	19705.56
872.42	19832.53
872.59	19877.58
872.77	19543.77
872.94	19617.49
873.11	19672.79
873.29	19488.47
873.46	19416.79
873.63	19484.37
873.81	19568.34
873.98	19427.03
874.15	19320.54
874.33	19283.67
874.50	19273.43
874.67	19187.42
874.85	19142.36
875.02	19042.01
875.19	18968.29
875.37	19068.64
875.54	18843.36
875.71	18982.62
875.88	18872.03
876.06	19009.25
876.23	19070.68
876.40	18869.98
876.58	18833.12
876.75	18611.94
876.92	18700.00
877.10	18919.14
877.27	18749.15
877.44	18611.94
877.61	18521.83
877.79	18349.80
877.96	18386.66
878.13	18435.81
878.31	18370.28
878.48	18464.49
878.65	18280.17
878.82	18259.69
879.00	18243.31
879.17	18054.89
879.34	18396.90
879.51	17909.49
879.69	18018.03
879.86	17665.78
880.03	17934.06
880.21	17770.22
880.38	17997.55
880.55	17786.61
880.72	17843.95
880.90	17991.41
881.07	17999.60
881.24	17637.11
881.41	18001.65
881.59	17614.58
881.76	18104.04
881.93	17932.01
882.10	17651.44
882.28	17557.24
882.45	17823.47
882.62	17688.31
882.79	17491.70
882.96	17237.75
883.14	17514.23
883.31	17458.93
883.48	17446.65
883.65	17352.44
883.83	17225.47
884.00	17422.07
884.17	17430.26
884.34	17401.59
884.51	17323.77
884.69	17260.28
884.86	17348.34
885.03	17331.96
885.20	17092.35
885.38	17254.14
885.55	17196.79
885.72	16979.71
885.89	17096.44
886.06	17073.92
886.24	17135.35
886.41	16903.93
886.58	17252.09
886.75	17237.75
886.92	16639.75
887.10	17098.49
887.27	16844.54
887.44	16799.49
887.61	16895.74
887.78	17018.62
887.95	16697.09
888.13	16672.51
888.30	16576.26
888.47	16377.61
888.64	16525.06
888.81	16613.12
888.99	16729.86
889.16	16393.99
889.33	16588.55
889.50	16293.64
889.67	16277.26
889.84	16043.79
890.01	16344.84
890.19	16191.24
890.36	16314.12
890.53	16338.69
890.70	16035.60
890.87	16246.54
891.04	16183.05
891.22	15970.06
891.39	15798.03
891.56	15931.15
891.73	15914.77
891.90	15873.81
892.07	15687.44
892.24	15988.49
892.42	15728.40
892.59	15775.50
892.76	15863.57
892.93	15621.91
893.10	15755.02
893.27	15736.59
893.44	15691.54
893.61	15795.98
893.79	15980.30
893.96	15673.10
894.13	15795.98
894.30	15662.86
894.47	15685.39
894.64	15630.10
894.81	15744.78
894.98	15709.97
895.15	15822.61
895.33	15582.99
895.50	15503.12
895.67	15408.92
895.84	15521.56
896.01	15361.81
896.18	15251.22
896.35	15648.53
896.52	15593.23
896.69	15470.36
896.86	15724.30
897.04	15453.97
897.21	15472.40
897.38	15525.65
897.55	15499.03
897.72	15396.63
897.89	15501.08
898.06	15484.69
898.23	15421.20
898.40	15562.51
898.57	15279.89
898.74	15654.67
898.91	15251.22
899.08	15570.71
899.26	15376.15
899.43	15392.53
899.60	15269.66
899.77	15372.05
899.94	15185.69
900.11	15355.67
900.28	15413.01
900.45	15314.71
900.62	15208.22
900.79	15279.89
900.96	15159.06
901.13	15410.96
901.30	15124.25
901.47	15183.64
901.64	14944.03
901.81	15210.26
901.98	15103.77
902.15	15173.40
902.32	15089.43
902.49	15271.70
902.66	15146.78
902.83	15259.42
903.01	15240.98
903.18	15222.55
903.35	15230.74
903.52	15290.13
903.69	15349.53
903.86	15091.48
904.03	15202.07
904.20	15410.96
904.37	15251.22
904.54	14921.50
904.71	15179.54
904.88	15071.00
905.05	15042.33
905.22	15091.48
905.39	15099.67
905.56	15023.90
905.73	14780.19
905.90	14984.99
906.07	14952.22
906.24	15146.78
906.41	15060.76
906.58	15187.74
906.75	14944.03
906.92	15023.90
907.09	14847.77
907.26	15177.50
907.43	14978.84
907.60	15011.61
907.77	15116.06
907.93	14937.88
908.10	15027.99
908.27	14978.84
908.44	14907.16
908.61	15097.63
908.78	14765.85
908.95	15101.72
909.12	14741.28
909.29	14913.31
909.46	14958.36
909.63	14798.62
909.80	14915.36
909.97	14802.72
910.14	14839.58
910.31	14866.21
910.48	14581.54
910.65	14720.80
910.82	14632.74
910.99	14782.24
911.16	14649.12
911.33	14518.05
911.50	14628.64
911.66	14720.80
911.83	14728.99
912.00	14497.57
912.17	14499.62
912.34	14346.02
912.51	14462.76
912.68	14321.45
912.85	14317.35
913.02	14579.49
913.19	14233.38
913.36	14655.26
913.53	14477.09
913.70	14237.48
913.86	14427.94
914.03	14204.71
914.20	14165.80
914.37	14014.25
914.54	14047.02
914.71	14356.26
914.88	13971.24
915.05	14202.66
915.22	14122.79
915.39	13815.60
915.55	14010.15
915.72	13772.59
915.89	14004.01
916.06	13979.43
916.23	13750.06
916.40	14026.54
916.57	13635.38
916.74	13825.84
916.91	13535.03
917.07	13457.20
917.24	13780.78
917.41	13786.93
917.58	13580.08
917.75	13727.53
917.92	13287.22
918.09	13289.27
918.26	13637.42
918.42	13514.55
918.59	13428.53
918.76	13135.67
918.93	13377.33
919.10	13233.97
919.27	13266.74
919.44	13432.63
919.60	13254.45
919.77	13240.12
919.94	12896.06
920.11	12914.49
920.28	12945.21
920.45	13031.23
920.61	12867.39
920.78	12771.13
920.95	12762.94
921.12	12795.71
921.29	12781.37
921.46	12629.82
921.62	12422.98
921.79	12549.95
921.96	12361.54
922.13	12447.55
922.30	12576.58
922.47	12304.20
922.63	12273.48
922.80	12068.68
922.97	12203.85
923.14	12029.77
923.31	12224.33
923.47	12250.95
923.64	12209.99
923.81	12142.41
923.98	12218.18
924.15	12123.98
924.32	11992.90
924.48	12095.30
924.65	11972.43
924.82	11788.11
924.99	11870.03
925.15	11558.74
925.32	11870.03
925.49	11622.22
925.66	11616.08
925.83	11704.14
925.99	11489.10
926.16	11556.69
926.33	11501.39
926.50	11269.97
926.67	11435.86
926.83	11288.40
927.00	11255.64
927.17	10977.11
927.34	11099.99
927.50	11083.61
927.67	11171.67
927.84	11214.68
928.01	10999.64
928.17	10907.48
928.34	10858.33
928.51	10868.57
928.68	10729.31
928.84	10880.86
929.01	10524.51
929.18	10440.54
929.35	10489.70
929.51	10653.53
929.68	10565.47
929.85	10225.51
930.02	10434.40
930.18	10241.89
930.35	10383.20
930.52	10186.60
930.69	10295.14
930.85	10354.53
931.02	10119.01
931.19	10041.19
931.36	10057.57
931.52	10114.92
931.69	10106.73
931.86	9832.30
932.02	9678.70
932.19	9793.39
932.36	9938.79
932.53	9750.38
932.69	9697.13
932.86	9758.57
933.03	9647.98
933.19	9451.38
933.36	9492.34
933.53	9561.97
933.70	9353.07
933.86	9527.15
934.03	9416.56
934.20	9236.34
934.36	9269.11
934.53	8990.58
934.70	9058.17
934.86	9052.02
935.03	8793.98
935.20	8982.39
935.36	8793.98
935.53	8740.73
935.70	8697.72
935.86	8654.72
936.03	8476.54
936.20	8421.25
936.36	8583.04
936.53	8505.21
936.70	8281.99
936.86	8374.14
937.03	8310.66
937.20	8087.43
937.36	8069.00
937.53	7982.98
937.70	7769.99
937.86	7520.14
938.03	7640.97
938.20	7759.75
938.36	7559.05
938.53	7563.15
938.70	7417.74
938.86	7329.68
939.03	7327.63
939.20	7139.22
939.36	7053.20
939.53	7114.64
939.70	7153.55
939.86	6832.02
940.03	6778.78
940.19	6733.72
940.36	6612.89
940.53	6588.32
940.69	6467.49
940.86	6596.51
941.03	6352.80
941.19	6309.79
941.36	6320.03
941.52	6252.45
941.69	6102.95
941.86	6135.71
942.02	6133.67
942.19	5955.49
942.35	5926.82
942.52	5920.68
942.69	5822.38
942.85	5654.44
943.02	5638.06
943.18	5699.50
943.35	5746.60
943.52	5562.28
943.68	5560.24
943.85	5578.67
944.01	5527.47
944.18	5466.03
944.35	5570.48
944.51	5404.59
944.68	5334.96
944.84	5341.10
945.01	5257.14
945.17	5468.08
945.34	5425.07
945.51	5398.45
945.67	5365.68
945.84	5314.48
946.00	5132.21
946.17	5361.58
946.33	5062.58
946.50	5291.95
946.67	5134.26
946.83	5255.09
947.00	5212.08
947.16	5015.48
947.33	5287.86
947.49	5214.13
947.66	5134.26
947.82	5177.26
947.99	5087.15
948.16	5320.62
948.32	5148.59
948.49	5244.85
948.65	5347.25
948.82	5203.89
948.98	5187.50
949.15	5136.31
949.31	5359.53
949.48	5160.88
949.64	5087.15
949.81	5212.08
949.97	5212.08
950.14	5324.72
950.30	5142.45
950.47	5240.75
950.63	5302.19
950.80	5187.50
950.96	5081.01
951.13	5259.18
951.30	5250.99
951.46	5205.94
951.63	5300.14
951.79	5214.13
951.96	5369.77
952.12	5173.17
952.29	5261.23
952.45	5203.89
952.62	5244.85
952.78	5179.31
952.94	5263.28
953.11	5343.15
953.27	5040.05
953.44	5412.78
953.60	5371.82
953.77	5461.93
953.93	5330.86
954.10	5238.70
954.26	5257.14
954.43	5392.30
954.59	5339.05
954.76	5459.88
954.92	5334.96
955.09	5394.35
955.25	5271.47
955.42	5310.38
955.58	5337.01
955.75	5310.38
955.91	5300.14
956.07	5310.38
956.24	5476.27
956.40	5408.69
956.57	5519.28
956.73	5320.62
956.90	5406.64
957.06	5398.45
957.23	5406.64
957.39	5410.73
957.56	5396.40
957.72	5312.43
957.88	5312.43
958.05	5601.19
958.21	5394.35
958.38	5511.08
958.54	5461.93
958.71	5373.87
958.87	5369.77
959.03	5351.34
959.20	5373.87
959.36	5400.49
959.53	5308.34
959.69	5222.32
959.85	5418.93
960.02	5337.01
960.18	5463.98
960.35	5361.58
960.51	5459.88
960.68	5312.43
960.84	5402.54
961.00	5337.01
961.17	5468.08
961.33	5343.15
961.50	5377.97
961.66	5545.90
961.82	5361.58
961.99	5322.67
962.15	5332.91
962.31	5373.87
962.48	5119.92
962.64	5420.97
962.81	5298.10
962.97	5300.14
963.13	5431.21
963.30	5377.97
963.46	5318.57
963.62	5324.72
963.79	5216.18
963.95	5332.91
964.12	5218.22
964.28	5390.25
964.44	5210.03
964.61	5312.43
964.77	5408.69
964.93	5472.17
965.10	5351.34
965.26	5255.09
965.42	5400.49
965.59	5253.04
965.75	5253.04
965.92	5242.80
966.08	5285.81
966.24	5126.07
966.41	5105.59
966.57	5289.90
966.73	5271.47
966.90	5248.94
967.06	5296.05
967.22	5089.20
967.39	5078.96
967.55	5105.59
967.71	5199.79
967.88	5113.78
968.04	5119.92
968.20	5121.97
968.37	4995.00
968.53	5089.20
968.69	5220.27
968.85	5144.50
969.02	5091.25
969.18	5009.33
969.34	5074.87
969.51	5095.35
969.67	5074.87
969.83	4988.85
970.00	5064.63
970.16	5070.77
970.32	4949.94
970.48	5025.72
970.65	5011.38
970.81	5089.20
970.97	5050.29
971.14	4892.60
971.30	5105.59
971.46	4943.80
971.63	4968.37
971.79	4933.56
971.95	4964.28
972.11	4857.78
972.28	4853.69
972.44	4964.28
972.60	4876.21
972.76	4937.65
972.93	4913.08
973.09	4958.13
973.25	4986.80
973.42	4886.45
973.58	5046.20
973.74	4894.65
973.90	4931.51
974.07	4818.87
974.23	4984.76
974.39	4925.36
974.55	4859.83
974.72	4763.58
974.88	4634.55
975.04	4896.69
975.20	4902.84
975.37	4749.24
975.53	4716.47
975.69	4695.99
975.85	4757.43
976.01	4837.30
976.18	4747.19
976.34	4704.18
976.50	4808.63
976.66	4753.34
976.83	4747.19
976.99	4548.54
977.15	4702.14
977.31	4655.03
977.47	4743.10
977.64	4552.63
977.80	4616.12
977.96	4607.93
978.12	4599.74
978.29	4554.68
978.45	4435.90
978.61	4503.48
978.77	4542.39
978.93	4501.44
979.10	4587.45
979.26	4558.78
979.42	4585.40
979.58	4513.72
979.74	4399.04
979.91	4483.00
980.07	4448.19
980.23	4396.99
980.39	4372.41
980.55	4593.59
980.71	4409.28
980.88	4368.32
981.04	4327.36
981.20	4517.82
981.36	4454.33
981.52	4368.32
981.68	4276.16
981.85	4386.75
982.01	4425.66
982.17	4292.54
982.33	4315.07
982.49	4501.44
982.65	4378.56
982.82	4448.19
982.98	4425.66
983.14	4171.71
983.30	4292.54
983.46	4204.48
983.62	4296.64
983.79	4202.43
983.95	4165.57
984.11	4192.19
984.27	4198.34
984.43	4251.58
984.59	4163.52
984.75	4255.68
984.91	4155.33
985.08	4200.38
985.24	4114.37
985.40	4165.57
985.56	4151.23
985.72	4177.86
985.88	4100.03
986.04	4073.41
986.20	4073.41
986.37	4036.55
986.53	4001.73
986.69	4143.04
986.85	4048.83
987.01	4063.17
987.17	4071.36
987.33	3966.92
987.49	4044.74
987.65	3985.35
987.82	4042.69
987.98	3909.57
988.14	3860.42
988.30	3964.87
988.46	3901.38
988.62	3946.44
988.78	3852.23
988.94	3979.20
989.10	3782.60
989.26	3934.15
989.42	3809.22
989.59	3780.55
989.75	3827.65
989.91	3798.98
990.07	3721.16
990.23	3782.60
990.39	3766.21
990.55	3856.33
990.71	3835.85
990.87	3907.52
991.03	3887.04
991.19	3710.92
991.35	3790.79
991.51	3760.07
991.67	3825.61
991.83	3700.68
992.00	3686.34
992.16	3805.13
992.32	3737.54
992.48	3854.28
992.64	3647.43
992.80	3815.37
992.96	3694.54
993.12	3688.39
993.28	3745.73
993.44	3694.54
993.60	3692.49
993.76	3649.48
993.92	3698.63
994.08	3592.14
994.24	3669.96
994.40	3559.37
994.56	3561.42
994.72	3549.13
994.88	3618.76
995.04	3561.42
995.20	3577.80
995.36	3446.73
995.52	3641.29
995.68	3497.93
995.84	3542.99
996.00	3606.47
996.16	3442.64
996.32	3471.31
996.48	3534.79
996.64	3467.21
996.80	3418.06
996.96	3463.12
997.12	3381.20
997.28	3356.62
997.44	3438.54
997.60	3424.20
997.76	3381.20
997.92	3428.30
998.08	3411.92
998.24	3344.33
998.40	3360.72
998.56	3397.58
998.72	3280.85
998.88	3256.27
999.04	3354.57
999.20	3506.12
999.36	3289.04
999.52	3461.07
999.68	3317.71
999.84	3336.14
1000.00	3399.63
1000.16	3352.52
1000.32	3243.98
1000.48	3444.68
1000.64	3164.11
1000.80	3205.07
1000.95	3174.35
1001.11	3317.71
1001.27	3223.50
1001.43	3264.46
1001.59	3100.62
1001.75	3176.40
1001.91	3235.79
1002.07	3088.34
1002.23	3121.10
1002.39	3149.78
1002.55	3194.83
1002.71	3076.05
1002.87	3133.39
1003.03	3106.77
1003.19	3037.14
1003.34	3178.45
1003.50	3112.91
1003.66	3153.87
1003.82	3133.39
1003.98	3047.38
1004.14	3022.80
1004.30	2987.99
1004.46	2985.94
1004.62	2981.84
1004.78	3084.24
1004.94	3063.76
1005.09	3096.53
1005.25	2983.89
1005.41	3004.37
1005.57	3004.37
1005.73	2928.60
1005.89	2985.94
1006.05	2981.84
1006.21	2961.36
1006.37	2883.54
1006.52	2949.08
1006.68	2996.18
1006.84	3096.53
1007.00	2848.72
1007.16	2936.79
1007.32	2858.96
1007.48	2895.83
1007.64	2963.41
1007.79	2858.96
1007.95	2846.68
1008.11	2887.64
1008.27	2891.73
1008.43	2844.63
1008.59	2754.52
1008.75	2924.50
1008.91	2779.09
1009.06	2869.20
1009.22	2875.35
1009.38	2789.33
1009.54	2836.44
1009.70	2959.31
1009.86	2756.57
1010.01	2803.67
1010.17	2740.18
1010.33	2801.62
1010.49	2858.96
1010.65	2908.12
1010.81	2703.32
1010.96	2846.68
1011.12	2736.09
1011.28	2736.09
1011.44	2797.53
1011.60	2680.79
1011.76	2707.41
1011.91	2824.15
1012.07	2744.28
1012.23	2621.40
1012.39	2578.39
1012.55	2721.75
1012.71	2666.46
1012.86	2596.82
1013.02	2635.74
1013.18	2613.21
1013.34	2600.92
1013.50	2717.65
1013.65	2811.86
1013.81	2701.27
1013.97	2551.77
1014.13	2654.17
1014.29	2617.30
1014.44	2686.94
1014.60	2598.87
1014.76	2564.06
1014.92	2592.73
1015.07	2615.26
1015.23	2566.10
1015.39	2625.50
1015.55	2480.09
1015.71	2537.43
1015.86	2523.10
1016.02	2514.91
1016.18	2443.23
1016.34	2543.58
1016.49	2486.23
1016.65	2519.00
1016.81	2559.96
1016.97	2582.49
1017.12	2574.30
1017.28	2404.32
1017.44	2416.60
1017.60	2525.15
1017.75	2547.67
1017.91	2555.86
1018.07	2422.75
1018.23	2475.99
1018.38	2432.99
1018.54	2375.64
1018.70	2449.37
1018.86	2426.84
1019.01	2346.97
1019.17	2439.13
1019.33	2529.24
1019.49	2420.70
1019.64	2451.42
1019.80	2361.31
1019.96	2465.75
1020.12	2467.80
1020.27	2377.69
1020.43	2316.25
1020.59	2394.08
1020.74	2365.40
1020.90	2453.47
1021.06	2338.78
1021.22	2353.12
1021.37	2371.55
1021.53	2392.03
1021.69	2414.56
1021.84	2285.53
1022.00	2412.51
1022.16	2271.20
1022.31	2271.20
1022.47	2359.26
1022.63	2326.49
1022.79	2228.19
1022.94	2263.01
1023.10	2344.92
1023.26	2273.25
1023.41	2326.49
1023.57	2260.96
1023.73	2277.34
1023.88	2310.11
1024.04	2328.54
1024.20	2265.05
1024.35	2338.78
1024.51	2246.62
1024.67	2152.42
1024.82	2310.11
1024.98	2174.94
1025.14	2222.05
1025.29	2099.17
1025.45	2310.11
1025.61	2140.13
1025.76	2260.96
1025.92	2199.52
1026.08	2303.96
1026.23	2222.05
1026.39	2260.96
1026.55	2203.61
1026.70	2183.13
1026.86	2232.29
1027.02	2242.53
1027.17	2203.61
1027.33	2260.96
1027.48	2174.94
1027.64	2191.33
1027.80	2093.02
1027.95	2238.43
1028.11	2064.35
1028.27	2222.05
1028.42	2215.90
1028.58	2066.40
1028.73	2093.02
1028.89	2129.89
1029.05	2285.53
1029.20	2236.38
>>>>>End Processed Spectral Data<<<<<
