SpectraSuite Data File
++++++++++++++++++++++++++++++++++++
Date: Fri Jun 02 14:47:57 CEST 2017
User: INFO_000
Dark Spectrum Present: No
Reference Spectrum Present: No
Number of Sampled Component Spectra: 1
Spectrometers: USB4H00879
Integration Time (usec): 80000 (USB4H00879)
Spectra Averaged: 1 (USB4H00879)
Boxcar Smoothing: 0 (USB4H00879)
Correct for Electrical Dark: No (USB4H00879)
Strobe/Lamp Enabled: No (USB4H00879)
Correct for Detector Non-linearity: No (USB4H00879)
Correct for Stray Light: No (USB4H00879)
Number of Pixels in Processed Spectrum: 3648
>>>>>Begin Processed Spectral Data<<<<<
345.13	1273.84
345.34	1273.84
345.56	1273.84
345.78	1247.21
345.99	1271.79
346.21	1716.20
346.42	1695.72
346.64	1646.57
346.86	1789.92
347.07	1574.89
347.29	1720.29
347.50	1585.13
347.72	1675.24
347.94	1765.35
348.15	1644.52
348.37	1650.66
348.59	1720.29
348.80	1638.38
349.02	1800.16
349.23	1877.99
349.45	1742.82
349.67	1832.93
349.88	1746.92
350.10	1927.14
350.31	1837.03
350.53	1818.60
350.75	2015.20
350.96	1781.73
351.18	1826.79
351.39	1918.95
351.61	1794.02
351.82	1894.37
352.04	1937.38
352.26	1814.50
352.47	1851.36
352.69	1939.43
352.90	1740.77
353.12	1845.22
353.34	1884.13
353.55	1953.76
353.77	1808.36
353.98	1853.41
354.20	1783.78
354.41	1910.75
354.63	1972.19
354.85	2043.87
355.06	1935.33
355.28	1789.92
355.49	1902.56
355.71	1900.52
355.92	1855.46
356.14	1918.95
356.35	1931.23
356.57	1830.88
356.79	1937.38
357.00	1820.64
357.22	1900.52
357.43	1843.17
357.65	1910.75
357.86	1853.41
358.08	1976.29
358.29	1896.42
358.51	1964.00
358.72	2011.11
358.94	1943.52
359.16	1978.34
359.37	1951.71
359.59	1964.00
359.80	1937.38
360.02	1927.14
360.23	1988.58
360.45	2011.11
360.66	1927.14
360.88	1847.27
361.09	1916.90
361.31	2002.91
361.52	1976.29
361.74	2027.49
361.95	2002.91
362.17	1970.15
362.38	2041.82
362.60	1988.58
362.81	1951.71
363.03	1941.47
363.24	2029.54
363.46	2084.83
363.67	2033.63
363.89	1943.52
364.10	1992.67
364.32	1972.19
364.53	2058.21
364.75	1904.61
364.96	2064.35
365.18	2011.11
365.39	1941.47
365.61	1914.85
365.82	2119.65
366.04	1992.67
366.25	1974.24
366.47	2054.11
366.68	2043.87
366.90	1949.67
367.11	2045.92
367.33	2090.98
367.54	2095.07
367.76	2062.30
367.97	2140.13
368.19	1988.58
368.40	2043.87
368.62	1976.29
368.83	2056.16
369.05	2123.74
369.26	1980.39
369.48	2013.15
369.69	1990.63
369.91	2148.32
370.12	1984.48
370.33	2080.74
370.55	1964.00
370.76	1961.95
370.98	2174.94
371.19	2002.91
371.41	1953.76
371.62	2064.35
371.84	2033.63
372.05	2205.66
372.27	2050.02
372.48	2015.20
372.69	2115.55
372.91	2142.18
373.12	2267.10
373.34	2119.65
373.55	2090.98
373.77	2224.09
373.98	2088.93
374.20	2078.69
374.41	2265.05
374.62	2133.98
374.84	2201.57
375.05	2168.80
375.27	2224.09
375.48	2156.51
375.70	2168.80
375.91	2226.14
376.12	2215.90
376.34	2236.38
376.55	2209.76
376.77	2191.33
376.98	2179.04
377.19	2164.70
377.41	2160.61
377.62	2109.41
377.84	2213.85
378.05	2269.15
378.27	2146.27
378.48	2291.68
378.69	2308.06
378.91	2279.39
379.12	2281.44
379.34	2263.01
379.55	2375.64
379.76	2291.68
379.98	2170.85
380.19	2168.80
380.41	2273.25
380.62	2326.49
380.83	2271.20
381.05	2205.66
381.26	2373.60
381.47	2181.09
381.69	2242.53
381.90	2432.99
382.12	2336.73
382.33	2312.16
382.54	2287.58
382.76	2312.16
382.97	2340.83
383.19	2295.77
383.40	2373.60
383.61	2306.01
383.83	2258.91
384.04	2265.05
384.25	2435.03
384.47	2414.56
384.68	2392.03
384.89	2252.77
385.11	2396.12
385.32	2357.21
385.54	2275.29
385.75	2256.86
385.96	2392.03
386.18	2389.98
386.39	2410.46
386.60	2324.44
386.82	2457.56
387.03	2418.65
387.24	2457.56
387.46	2435.03
387.67	2475.99
387.88	2363.36
388.10	2430.94
388.31	2496.47
388.52	2613.21
388.74	2482.14
388.95	2519.00
389.16	2525.15
389.38	2512.86
389.59	2580.44
389.80	2666.46
390.02	2549.72
390.23	2551.77
390.44	2535.39
390.66	2494.43
390.87	2469.85
391.08	2510.81
391.30	2674.65
391.51	2615.26
391.72	2688.98
391.94	2615.26
392.15	2615.26
392.36	2549.72
392.58	2600.92
392.79	2635.74
393.00	2760.66
393.22	2678.74
393.43	2680.79
393.64	2760.66
393.85	2731.99
394.07	2602.97
394.28	2693.08
394.49	2770.90
394.71	2748.37
394.92	2742.23
395.13	2652.12
395.35	2684.89
395.56	2721.75
395.77	2787.29
395.98	2787.29
396.20	2834.39
396.41	2742.23
396.62	2783.19
396.84	2797.53
397.05	2801.62
397.26	2877.40
397.47	2971.60
397.69	2789.33
397.90	2955.22
398.11	2881.49
398.32	2895.83
398.54	2828.24
398.75	2906.07
398.96	2848.72
399.18	3108.82
399.39	2922.45
399.60	3002.32
399.81	2971.60
400.03	2901.97
400.24	3084.24
400.45	2930.64
400.66	3065.81
400.88	3084.24
401.09	3039.19
401.30	3063.76
401.51	3157.97
401.73	3192.78
401.94	3074.00
402.15	3145.68
402.36	3022.80
402.58	3194.83
402.79	3153.87
403.00	3155.92
403.21	3219.41
403.43	3174.35
403.64	3248.08
403.85	3045.33
404.06	3205.07
404.27	3051.47
404.49	3196.88
404.70	3137.49
404.91	3223.50
405.12	3297.23
405.34	3186.64
405.55	3430.35
405.76	3125.20
405.97	3248.08
406.19	3334.09
406.40	3190.74
406.61	3416.01
406.82	3385.29
407.03	3395.53
407.25	3344.33
407.46	3493.83
407.67	3438.54
407.88	3393.48
408.09	3375.05
408.31	3356.62
408.52	3387.34
408.73	3411.92
408.94	3395.53
409.15	3454.92
409.37	3456.97
409.58	3465.16
409.79	3463.12
410.00	3471.31
410.21	3370.96
410.43	3467.21
410.64	3567.56
410.85	3573.71
411.06	3516.36
411.27	3461.07
411.48	3721.16
411.70	3446.73
411.91	3588.04
412.12	3606.47
412.33	3637.19
412.54	3536.84
412.76	3727.30
412.97	3649.48
413.18	3534.79
413.39	3542.99
413.60	3755.97
413.81	3766.21
414.03	3715.02
414.24	3588.04
414.45	3698.63
414.66	3649.48
414.87	3741.64
415.08	3698.63
415.30	3669.96
415.51	3663.82
415.72	3710.92
415.93	3712.97
416.14	3762.12
416.35	3772.36
416.56	3792.84
416.78	3770.31
416.99	3850.18
417.20	3833.80
417.41	3862.47
417.62	3835.85
417.83	3944.39
418.04	3895.24
418.26	3958.72
418.47	3778.50
418.68	3999.68
418.89	3940.29
419.10	4079.55
419.31	4079.55
419.52	3960.77
419.73	3946.44
419.95	4020.16
420.16	3942.34
420.37	3903.43
420.58	4075.46
420.79	3829.70
421.00	4011.97
421.21	4188.10
421.42	3999.68
421.63	4091.84
421.85	4069.31
422.06	4097.99
422.27	4202.43
422.48	4278.21
422.69	4028.35
422.90	4272.06
423.11	4163.52
423.32	4237.25
423.53	4327.36
423.75	4235.20
423.96	4276.16
424.17	4368.32
424.38	4440.00
424.59	4308.93
424.80	4597.69
425.01	4425.66
425.22	4368.32
425.43	4392.89
425.64	4548.54
425.85	4564.92
426.06	4562.87
426.28	4483.00
426.49	4349.89
426.70	4583.35
426.91	4489.15
427.12	4442.04
427.33	4730.81
427.54	4503.48
427.75	4550.59
427.96	4698.04
428.17	4669.37
428.38	4759.48
428.59	4677.56
428.80	4743.10
429.01	4843.45
429.23	4730.81
429.44	4956.08
429.65	5027.76
429.86	4927.41
430.07	4890.55
430.28	5019.57
430.49	4919.22
430.70	5162.93
430.91	5205.94
431.12	5070.77
431.33	5222.32
431.54	5148.59
431.75	5091.25
431.96	4941.75
432.17	4980.66
432.38	5052.34
432.59	5238.70
432.80	5171.12
433.01	5210.03
433.22	5273.52
433.43	5304.24
433.64	5230.51
433.85	5164.98
434.06	5312.43
434.27	5236.66
434.49	5416.88
434.70	5457.84
434.91	5337.01
435.12	5513.13
435.33	5384.11
435.54	5445.55
435.75	5377.97
435.96	5416.88
436.17	5351.34
436.38	5654.44
436.59	5601.19
436.80	5560.24
437.01	5865.38
437.22	5719.98
437.43	5586.86
437.64	5593.00
437.85	5736.36
438.06	5789.61
438.27	5638.06
438.48	5672.87
438.69	5959.59
438.90	5773.22
439.11	5672.87
439.32	5955.49
439.53	5822.38
439.74	5969.83
439.95	5900.20
440.16	5775.27
440.37	5969.83
440.57	5781.42
440.78	5992.36
440.99	5971.88
441.20	6061.99
441.41	5980.07
441.62	5957.54
441.83	5975.97
442.04	6172.58
442.25	6113.19
442.46	6139.81
442.67	6240.16
442.88	6502.30
443.09	6016.93
443.30	6156.19
443.51	6168.48
443.72	6487.96
443.93	6201.25
444.14	6541.21
444.35	6141.86
444.56	6358.94
444.77	6404.00
444.98	6432.67
445.19	6387.61
445.40	6360.99
445.61	6512.54
445.81	6535.07
446.02	6600.60
446.23	6475.68
446.44	6317.98
446.65	6385.57
446.86	6637.47
447.07	6586.27
447.28	6709.15
447.49	6676.38
447.70	6578.08
447.91	6645.66
448.12	6672.28
448.33	6786.97
448.54	6684.57
448.74	6582.17
448.95	6758.30
449.16	6662.04
449.37	6959.00
449.58	6768.54
449.79	7110.55
450.00	6762.39
450.21	6897.56
450.42	6922.13
450.63	6903.70
450.84	6866.84
451.05	6877.08
451.25	7081.88
451.46	6815.64
451.67	6973.33
451.88	7108.50
452.09	7051.16
452.30	6969.24
452.51	7194.51
452.72	7145.36
452.93	7423.89
453.13	7030.68
453.34	7024.53
453.55	7139.22
453.76	7301.01
453.97	7468.94
454.18	7309.20
454.39	7360.40
454.60	7501.71
454.81	7532.43
455.01	7413.65
455.22	7163.79
455.43	7415.69
455.64	7616.40
455.85	7636.88
456.06	7880.58
456.27	7643.02
456.48	7559.05
456.68	7755.66
456.89	7919.50
457.10	7894.92
457.31	7823.24
457.52	7823.24
457.73	7939.97
457.94	7903.11
458.14	7679.88
458.35	8144.77
458.56	7821.19
458.77	8030.09
458.98	8019.85
459.19	7997.32
459.39	8236.93
459.60	8130.44
459.81	8173.44
460.02	8431.49
460.23	8290.18
460.44	8542.08
460.65	8353.66
460.85	8677.24
461.06	8472.45
461.27	8189.83
461.48	8798.07
461.69	8783.74
461.89	8441.73
462.10	8707.96
462.31	8535.93
462.52	8583.04
462.73	8890.23
462.94	9006.97
463.14	8877.94
463.35	9086.84
463.56	9244.53
463.77	9119.60
463.98	8949.62
464.18	9121.65
464.39	9297.78
464.60	9564.01
464.81	9428.85
465.02	9181.04
465.23	9506.67
465.43	9416.56
465.64	9607.02
465.85	9672.56
466.06	9355.12
466.27	9752.43
466.47	9961.32
466.68	9856.87
466.89	9838.44
467.10	9965.42
467.30	9873.26
467.51	10188.64
467.72	10231.65
467.93	9901.93
468.14	10082.15
468.34	10211.17
468.55	10559.33
468.76	10280.80
468.97	10475.36
469.17	10600.29
469.38	10530.66
469.59	10876.76
469.80	10567.52
470.01	10588.00
470.21	10733.40
470.42	10962.78
470.63	10897.24
470.84	11173.72
471.04	11290.45
471.25	11380.56
471.46	11276.12
471.67	11689.81
471.87	11419.47
472.08	11632.46
472.29	11661.13
472.50	11161.43
472.70	11736.91
472.91	11894.60
473.12	12148.55
473.33	12009.29
473.53	12150.60
473.74	11882.31
473.95	12474.18
474.16	12341.06
474.36	12318.53
474.57	12619.58
474.78	12603.20
474.99	12552.00
475.19	12570.43
475.40	12754.75
475.61	12808.00
475.81	13035.32
476.02	13348.66
476.23	12961.59
476.44	13168.44
476.64	13414.20
476.85	13825.84
477.06	13463.35
477.27	13666.10
477.47	13864.75
477.68	13784.88
477.89	14192.42
478.09	14016.30
478.30	14057.26
478.51	14128.94
478.71	14370.60
478.92	14294.82
479.13	14546.72
479.34	14718.75
479.54	14540.58
479.75	14599.97
479.96	14774.05
480.16	14880.54
480.37	15101.72
480.58	15159.06
480.78	15357.72
480.99	15191.83
481.20	15529.75
481.41	15666.96
481.61	15693.58
481.82	15744.78
482.03	15572.75
482.23	15912.72
482.44	16154.38
482.65	16152.33
482.85	16142.09
483.06	16086.79
483.27	16189.19
483.47	16377.61
483.68	16334.60
483.89	16623.36
484.09	16408.33
484.30	16713.47
484.51	16869.12
484.71	17022.72
484.92	16971.52
485.13	17243.90
485.33	17383.16
485.54	17112.83
485.75	17481.46
485.95	17499.89
486.16	17467.13
486.37	17481.46
486.57	17581.81
486.78	17678.07
486.98	17997.55
487.19	17880.82
487.40	18128.62
487.60	18036.46
487.81	18220.78
488.02	18257.64
488.22	17932.01
488.43	18208.49
488.64	18579.17
488.84	18474.73
489.05	18646.76
489.25	18544.36
489.46	18790.11
489.67	18859.74
489.87	19175.13
490.08	18882.27
490.29	18906.85
490.49	19338.97
490.70	19261.15
490.90	19789.52
491.11	19216.09
491.32	19418.84
491.52	19447.51
491.73	19406.55
491.94	19443.42
492.14	19330.78
492.35	19744.47
492.55	19984.08
492.76	19881.68
492.97	19951.31
493.17	20104.91
493.38	20262.60
493.58	20233.93
493.79	20250.32
494.00	20321.99
494.20	20469.45
494.41	20534.98
494.61	20852.42
494.82	20876.99
495.02	20805.31
495.23	20997.82
495.44	20821.70
495.64	21352.12
495.85	21309.11
496.05	21386.94
496.26	21198.52
496.47	21339.83
496.67	21194.43
496.88	21450.42
497.08	21493.43
497.29	21569.21
497.49	21464.76
497.70	21690.04
497.91	21835.44
498.11	21880.50
498.32	21827.25
498.52	21919.41
498.73	22116.01
498.93	22302.38
499.14	22251.18
499.34	22345.39
499.55	22621.86
499.76	22470.31
499.96	22757.03
500.17	22441.64
500.37	22742.69
500.58	22527.66
500.78	22636.20
500.99	22738.60
501.19	23008.93
501.40	23043.74
501.60	22875.81
501.81	23234.21
502.02	23250.59
502.22	23199.39
502.43	23183.01
502.63	23348.89
502.84	23596.70
503.04	23418.52
503.25	23381.66
503.45	23805.59
503.66	23946.90
503.86	23602.84
504.07	24190.61
504.27	23682.71
504.48	24274.57
504.68	24254.09
504.89	24362.64
505.09	24436.36
505.30	24270.48
505.50	24419.98
505.71	24354.44
505.91	24635.02
506.12	24417.93
506.32	24403.60
506.53	24727.17
506.73	24415.88
506.94	24708.74
507.14	25011.84
507.35	24938.12
507.55	25161.34
507.76	24886.92
507.96	24731.27
508.17	25091.71
508.37	25325.18
508.58	25376.38
508.78	25179.78
508.99	25493.12
509.19	25933.43
509.40	25454.20
509.60	25472.64
509.81	25665.14
510.01	25671.29
510.22	25673.34
510.42	26025.59
510.63	25912.95
510.83	26054.26
511.04	25820.79
511.24	26304.11
511.44	26265.20
511.65	26269.30
511.85	26392.17
512.06	26467.95
512.26	26433.13
512.47	26781.29
512.67	26537.58
512.88	26664.55
513.08	26609.26
513.29	26922.60
513.49	26887.78
513.69	27031.14
513.90	26836.58
514.10	27125.35
514.31	27246.18
514.51	27149.92
514.72	27305.57
514.92	27248.22
515.13	27606.62
515.33	27489.88
515.53	27491.93
515.74	27758.17
515.94	27803.22
516.15	27827.80
516.35	27446.88
516.56	28382.80
516.76	27735.64
516.96	27795.03
517.17	28132.95
517.37	27934.29
517.58	28276.30
517.78	28137.04
517.99	28509.77
518.19	28718.67
518.39	28354.13
518.60	28634.70
518.80	28505.68
519.01	28974.66
519.21	28757.58
519.41	28943.94
519.62	29101.64
519.82	29220.42
520.03	29189.70
520.23	29347.39
520.43	29115.97
520.64	29693.50
520.84	29675.07
521.05	29408.83
521.25	29296.19
521.45	29679.16
521.66	29922.87
521.86	29828.66
522.07	30090.80
522.27	30443.06
522.47	30047.80
522.68	30465.58
522.88	30307.89
523.08	30686.76
523.29	30740.01
523.49	30291.51
523.70	30584.37
523.90	30707.24
524.10	30719.53
524.31	30998.06
524.51	30776.87
524.71	31057.45
524.92	31051.30
525.12	31464.99
525.33	31510.05
525.53	31602.21
525.73	31589.92
525.94	31450.66
526.14	31843.87
526.34	31417.89
526.55	31841.82
526.75	31761.95
526.95	32312.85
527.16	32222.74
527.36	32218.64
527.56	32425.49
527.77	32314.90
527.97	32478.74
528.17	32554.51
528.38	32656.91
528.58	32585.23
528.78	32957.96
528.99	32787.98
529.19	33000.97
529.39	32509.46
529.60	33318.40
529.80	33064.46
530.00	33127.94
530.21	33142.28
530.41	33580.54
530.61	33390.08
530.82	33578.50
531.02	33410.56
531.22	33355.27
531.43	33605.12
531.63	33928.70
531.83	34387.44
532.04	34299.38
532.24	34188.79
532.44	34186.74
532.64	34315.76
532.85	34622.96
533.05	34485.75
533.25	34432.50
533.46	34665.97
533.66	34696.69
533.86	34565.62
534.07	34911.72
534.27	34846.19
534.47	35327.46
534.67	35165.67
534.88	35005.93
535.08	35020.27
535.28	35415.52
535.49	35306.98
535.69	35743.20
535.89	35489.25
536.09	35534.31
536.30	35702.24
536.50	35352.04
536.70	35993.05
536.91	35747.29
537.11	35794.40
537.31	35761.63
537.51	36316.63
537.72	36617.68
537.92	36611.54
538.12	36369.88
538.32	36306.39
538.53	36447.70
538.73	36337.11
538.93	36537.81
539.13	36314.58
539.34	36255.19
539.54	36912.59
539.74	36623.83
539.94	36988.36
540.15	36713.94
540.35	37205.45
540.55	37146.06
540.75	36808.14
540.96	36963.79
541.16	37019.08
541.36	37383.62
541.56	37027.28
541.77	37328.33
541.97	37412.29
542.17	37467.59
542.37	37582.27
542.58	37363.14
542.78	37316.04
542.98	37733.82
543.18	37727.68
543.38	38221.24
543.59	38286.78
543.79	37574.08
543.99	37623.23
544.19	37658.05
544.40	37744.06
544.60	38368.69
544.80	38262.20
545.00	37995.96
545.20	38667.70
545.41	38084.03
545.61	37881.28
545.81	38516.15
546.01	38176.19
546.21	38311.35
546.42	38088.12
546.62	38233.53
546.82	38335.93
547.02	38948.27
547.22	38393.27
547.43	39124.40
547.63	38915.50
547.83	38837.68
548.03	38682.03
548.23	39112.11
548.44	38929.84
548.64	38858.16
548.84	39103.92
549.04	39198.12
549.24	39163.31
549.45	39200.17
549.65	39210.41
549.85	38999.47
550.05	39785.89
550.25	39220.65
550.45	39996.83
550.66	39282.09
550.86	39708.07
551.06	39826.85
551.26	39146.92
551.46	39488.93
551.66	39544.23
551.87	39644.58
552.07	39927.20
552.27	39929.25
552.47	39976.35
552.67	39865.76
552.87	39896.48
553.07	40168.86
553.28	40168.86
553.48	40510.87
553.68	39998.88
553.88	40166.81
554.08	40250.78
554.28	40504.73
554.48	40007.07
554.69	40289.69
554.89	40502.68
555.09	40613.27
555.29	40502.68
555.49	40547.73
555.69	40947.09
555.89	40652.18
556.10	41184.65
556.30	40609.17
556.50	40906.13
556.70	40785.30
556.90	41155.98
557.10	41026.96
557.30	40867.22
557.50	41186.70
557.70	41497.99
557.91	41575.81
558.11	41241.99
558.31	41426.31
558.51	41235.85
558.71	41473.42
558.91	41440.65
559.11	41182.60
559.31	41475.46
559.51	41541.00
559.72	41913.73
559.92	41620.87
560.12	41837.95
560.32	42114.43
560.52	41602.44
560.72	41780.61
560.92	41958.78
561.12	42034.56
561.32	42155.39
561.52	42048.89
561.72	42057.09
561.93	42022.27
562.13	42274.17
562.33	42255.74
562.53	42653.05
562.73	42134.91
562.93	42016.13
563.13	42372.47
563.33	42272.12
563.53	42704.24
563.73	42577.27
563.93	42630.52
564.13	43179.37
564.33	42380.67
564.53	43103.60
564.74	43101.55
564.94	42802.55
565.14	43259.24
565.34	42986.86
565.54	43056.50
565.74	43064.69
565.94	43484.52
566.14	43218.28
566.34	43171.18
566.54	43840.87
566.74	43414.89
566.94	43763.04
567.14	43810.15
567.34	43249.00
567.54	43722.08
567.74	43560.30
567.94	43396.46
568.14	43986.27
568.34	44174.69
568.54	43720.04
568.74	44082.53
568.94	44123.49
569.14	44223.84
569.34	44184.93
569.54	44455.26
569.75	43924.83
569.95	44465.50
570.15	44827.99
570.35	44305.76
570.55	44475.74
570.75	44524.89
570.95	44696.92
571.15	44762.45
571.35	44997.97
571.55	45155.66
571.75	44635.48
571.95	45548.87
572.15	44885.33
572.35	45487.43
572.55	45159.76
572.75	45077.84
572.95	45325.64
573.15	45813.06
573.35	45610.31
573.55	45491.53
573.75	45598.02
573.95	45696.33
574.15	45507.91
574.35	45686.09
574.55	45970.75
574.75	45634.89
574.95	45917.51
575.15	45555.02
575.34	45901.12
575.54	46103.87
575.74	46353.72
575.94	46499.13
576.14	46077.25
576.34	46669.11
576.54	46441.79
576.74	46703.93
576.94	46351.68
577.14	46564.67
577.34	46732.60
577.54	46507.32
577.74	46808.37
577.94	47002.93
578.14	46679.35
578.34	47105.33
578.54	46646.58
578.74	46634.30
578.94	47404.33
579.14	47080.75
579.34	47195.44
579.54	47580.46
579.74	47697.19
579.94	47492.40
580.13	47658.28
580.33	47406.38
580.53	48045.35
580.73	47502.64
580.93	48016.68
581.13	48057.63
581.33	47586.60
581.53	47887.65
581.73	47764.78
581.93	48157.99
582.13	48059.68
582.33	48041.25
582.53	48172.32
582.73	48616.73
582.92	48106.79
583.12	48629.02
583.32	48282.91
583.52	48608.54
583.72	48366.88
583.92	48411.93
584.12	48618.78
584.32	49186.07
584.52	48676.12
584.72	48885.01
584.92	48846.10
585.11	49394.96
585.31	49276.18
585.51	49280.27
585.71	48973.08
585.91	49212.69
586.11	49077.52
586.31	48880.92
586.51	49450.25
586.71	49456.40
586.91	49480.97
587.10	49419.53
587.30	49726.73
587.50	49364.24
587.70	49755.40
587.90	49919.24
588.10	49435.92
588.30	49427.73
588.50	49937.67
588.69	49685.77
588.89	49448.21
589.09	49769.74
589.29	49892.61
589.49	49757.45
589.69	49595.66
589.89	50228.48
590.08	50324.74
590.28	49661.19
590.48	49980.68
590.68	49710.35
590.88	50099.46
591.08	50119.94
591.28	49712.39
591.47	49861.90
591.67	49837.32
591.87	50052.36
592.07	50558.20
592.27	50707.71
592.47	50091.27
592.67	50189.57
592.86	50058.50
593.06	50386.18
593.26	50380.03
593.46	50648.32
593.66	50388.22
593.86	50734.33
594.05	50269.44
594.25	50906.36
594.45	50420.99
594.65	50461.95
594.85	50242.82
595.05	50509.05
595.24	50908.41
595.44	50447.61
595.64	50816.25
595.84	50885.88
596.04	50775.29
596.23	50623.74
596.43	51320.05
596.63	51168.50
596.83	50670.84
597.03	50967.80
597.22	51582.19
597.42	51191.03
597.62	51459.31
597.82	51100.92
598.02	51340.53
598.21	50650.36
598.41	51053.81
598.61	51107.06
598.81	51033.33
599.01	51221.75
599.20	51223.79
599.40	50834.68
599.60	51528.94
599.80	51246.32
600.00	50953.46
600.19	51916.01
600.39	51123.44
600.59	51508.46
600.79	51346.67
600.98	51367.15
601.18	51680.49
601.38	51913.96
601.58	51762.41
601.78	51983.59
601.97	51537.13
602.17	51891.43
602.37	51873.00
602.57	51602.67
602.76	51690.73
602.96	51541.23
603.16	52204.77
603.36	52065.51
603.55	52262.11
603.75	51905.77
603.95	51907.82
604.15	52303.07
604.34	51944.68
604.54	52143.33
604.74	52155.62
604.94	52335.84
605.13	52294.88
605.33	52622.56
605.53	52499.68
605.73	52557.02
605.92	52024.55
606.12	52366.56
606.32	52217.06
606.52	52675.80
606.71	52204.77
606.91	52421.86
607.11	52276.45
607.30	52438.24
607.50	52251.87
607.70	52532.45
607.90	52651.23
608.09	52409.57
608.29	52387.04
608.49	52587.74
608.68	52368.61
608.88	52471.01
609.08	52634.84
609.28	53120.21
609.47	52544.73
609.67	53355.73
609.87	52489.44
610.06	52942.04
610.26	52995.29
610.46	53109.97
610.66	52499.68
610.85	52843.74
611.05	52997.34
611.25	52731.10
611.44	52741.34
611.64	53056.73
611.84	52655.32
612.03	52567.26
612.23	53009.62
612.43	53167.32
612.62	52380.90
612.82	53392.59
613.02	52997.34
613.21	52663.52
613.41	52939.99
613.61	53302.48
613.80	52507.87
614.00	53236.95
614.20	52727.00
614.39	53255.38
614.59	53116.12
614.79	53095.64
614.98	53087.45
615.18	53093.59
615.38	52946.14
615.57	52913.37
615.77	53093.59
615.97	53212.37
616.16	53017.82
616.36	52860.12
616.56	53376.21
616.75	53089.49
616.95	52806.87
617.15	53390.55
617.34	53097.69
617.54	53347.54
617.74	53535.95
617.93	53228.76
618.13	53148.88
618.32	53155.03
618.52	53286.10
618.72	52800.73
618.91	53058.77
619.11	52724.96
619.31	52923.61
619.50	53175.51
619.70	52903.13
619.90	53257.43
620.09	53130.45
620.29	52983.00
620.48	53081.30
620.68	53169.36
620.88	52698.33
621.07	53083.35
621.27	53404.88
621.46	52845.79
621.66	52997.34
621.86	53345.49
622.05	52714.72
622.25	53435.60
622.44	53040.34
622.64	52868.31
622.84	53529.81
623.03	52896.98
623.23	53066.97
623.42	53265.62
623.62	53269.72
623.82	53845.19
624.01	53277.91
624.21	53411.02
624.40	53478.61
624.60	53073.11
624.80	53593.29
624.99	53175.51
625.19	53103.83
625.38	53419.22
625.58	53464.27
625.77	53380.31
625.97	53499.09
626.17	53320.91
626.36	53470.42
626.56	53282.00
626.75	52991.19
626.95	53664.97
627.14	53507.28
627.34	53771.47
627.54	53509.33
627.73	53529.81
627.93	53417.17
628.12	53871.82
628.32	53902.54
628.51	53748.94
628.71	53294.29
628.90	54127.81
629.10	53261.52
629.30	53691.60
629.49	53865.67
629.69	53267.67
629.88	53660.88
630.08	54435.01
630.27	53697.74
630.47	53974.22
630.66	53773.52
630.86	53976.26
631.05	53664.97
631.25	54586.56
631.44	54060.23
631.64	54121.67
631.84	54396.10
632.03	54633.66
632.23	54129.86
632.42	54322.37
632.62	54320.32
632.81	54056.14
633.01	54029.51
633.20	54660.29
633.40	54547.65
633.59	54518.98
633.79	53814.47
633.98	54131.91
634.18	54725.82
634.37	54629.57
634.57	54543.55
634.76	54660.29
634.96	54824.12
635.15	54822.08
635.35	54453.44
635.54	54662.33
635.74	54903.99
635.93	54645.95
636.13	54903.99
636.32	55123.13
636.52	54492.35
636.71	55334.07
636.91	54768.83
637.10	54979.77
637.30	54611.13
637.49	55065.78
637.69	54942.91
637.88	55147.70
638.08	55133.37
638.27	55194.81
638.46	55293.11
638.66	55078.07
638.85	54858.94
639.05	55524.53
639.24	55479.47
639.44	55233.72
639.63	54863.03
639.83	55518.38
640.02	55489.71
640.22	55266.48
640.41	55620.78
640.61	54897.85
640.80	55293.11
640.99	55381.17
641.19	55901.36
641.38	55364.79
641.58	55663.79
641.77	55563.44
641.97	55243.96
642.16	55620.78
642.36	55948.46
642.55	56255.65
642.74	55289.01
642.94	56257.70
643.13	55639.22
643.33	56339.62
643.52	55657.65
643.72	55553.20
643.91	55669.93
644.10	56294.56
644.30	56554.66
644.49	56319.14
644.69	56489.12
644.88	56425.64
645.08	55878.83
645.27	56372.39
645.46	56255.65
645.66	56726.69
645.85	56138.92
646.05	56382.63
646.24	56638.62
646.43	56425.64
646.63	56929.44
646.82	56784.03
647.02	56677.54
647.21	56796.32
647.40	56587.42
647.60	56589.47
647.79	56597.66
647.99	56892.57
648.18	56880.28
648.37	56947.87
648.57	56693.92
648.76	57222.29
648.96	56628.38
649.15	57013.40
649.34	57005.21
649.54	57107.61
649.73	56755.36
649.92	57320.60
650.12	56863.90
650.31	57056.41
650.51	56855.71
650.70	57130.14
650.89	57042.07
651.09	57711.76
651.28	56794.27
651.47	56829.08
651.67	57398.42
651.86	57578.64
652.06	56712.35
652.25	57459.86
652.44	57322.65
652.64	56982.68
652.83	57146.52
653.02	56972.44
653.22	57259.16
653.41	56876.19
653.60	57148.57
653.80	57291.93
653.99	57513.11
654.18	57044.12
654.38	57080.98
654.57	57693.33
654.76	57414.80
654.96	57341.08
655.15	57064.60
655.34	57361.56
655.54	56616.10
655.73	57355.41
655.92	57719.95
656.12	57533.59
656.31	57199.77
656.50	57441.43
656.70	57386.13
656.89	57197.72
657.08	57609.36
657.28	57367.70
657.47	57267.35
657.66	57441.43
657.86	57195.67
658.05	57810.06
658.24	57255.06
658.43	57347.22
658.63	57568.40
658.82	57312.41
659.01	57525.39
659.21	57840.78
659.40	57341.08
659.59	57478.29
659.79	57502.87
659.98	57711.76
660.17	57265.30
660.36	57394.32
660.56	57529.49
660.75	57078.94
660.94	57711.76
661.14	57345.17
661.33	57349.27
661.52	57316.50
661.71	57478.29
661.91	57103.51
662.10	56999.07
662.29	58053.77
662.49	57545.87
662.68	57564.31
662.87	57472.15
663.06	57418.90
663.26	57341.08
663.45	57121.94
663.64	57056.41
663.83	58098.83
664.03	57357.46
664.22	57179.29
664.41	57390.23
664.60	57259.16
664.80	57277.59
664.99	57162.90
665.18	56874.14
665.37	56956.06
665.57	57218.20
665.76	56781.98
665.95	57373.84
666.14	56898.72
666.34	57193.62
666.53	57234.58
666.72	57525.39
666.91	57123.99
667.11	56902.81
667.30	56839.32
667.49	57136.28
667.68	57076.89
667.87	56685.73
668.07	57382.04
668.26	56902.81
668.45	57083.03
668.64	56763.55
668.84	57492.63
669.03	57472.15
669.22	56923.29
669.41	56589.47
669.60	57210.01
669.80	57310.36
669.99	57037.98
670.18	57037.98
670.37	56915.10
670.57	57128.09
670.76	56677.54
670.95	56872.09
671.14	56956.06
671.33	56253.61
671.53	56997.02
671.72	56947.87
671.91	56689.82
672.10	56452.26
672.29	56573.09
672.48	56532.13
672.68	56468.64
672.87	56321.19
673.06	56315.04
673.25	56085.67
673.44	56362.15
673.64	56280.23
673.83	56548.51
674.02	56405.16
674.21	56130.73
674.40	56634.53
674.59	56073.38
674.79	56300.71
674.98	56177.83
675.17	56173.73
675.36	56341.67
675.55	56458.40
675.74	56378.53
675.94	55829.68
676.13	56057.00
676.32	56046.76
676.51	56226.98
676.70	56071.34
676.89	55915.69
677.08	56237.22
677.28	55559.34
677.47	56229.03
677.66	56171.69
677.85	55833.77
678.04	56573.09
678.23	56104.10
678.42	55952.55
678.62	55786.67
678.81	56206.50
679.00	55887.02
679.19	56173.73
679.38	56054.95
679.57	55616.69
679.76	56028.33
679.96	55858.35
680.15	55403.70
680.34	55563.44
680.53	54869.18
680.72	55669.93
680.91	56161.45
681.10	54949.05
681.29	55458.99
681.48	55375.03
681.68	55149.75
681.87	55493.81
682.06	55211.19
682.25	54992.06
682.44	55235.77
682.63	55262.39
682.82	54801.60
683.01	55092.41
683.20	54641.85
683.39	55303.35
683.59	55227.57
683.78	54799.55
683.97	54719.68
684.16	54881.47
684.35	54801.60
684.54	55055.54
684.73	54918.33
684.92	54353.09
685.11	54836.41
685.30	54518.98
685.49	55004.34
685.69	54744.25
685.88	54996.15
686.07	54641.85
686.26	54344.90
686.45	54731.96
686.64	54742.20
686.83	54277.32
687.02	54715.58
687.21	54377.67
687.40	54621.37
687.59	54799.55
687.78	54236.36
687.97	54777.02
688.16	54205.64
688.35	53855.43
688.54	54170.82
688.74	54025.42
688.93	54330.56
689.12	54105.29
689.31	54066.38
689.50	54265.03
689.69	53834.95
689.88	53632.21
690.07	54015.18
690.26	53884.11
690.45	54222.02
690.64	53961.93
690.83	53871.82
691.02	53572.81
691.21	53583.05
691.40	53294.29
691.59	53617.87
691.78	53425.36
691.97	53951.69
692.16	53923.02
692.35	53798.09
692.54	53744.84
692.73	53738.70
692.92	53130.45
693.11	53966.02
693.30	53355.73
693.49	53583.05
693.68	53286.10
693.87	53212.37
694.06	53617.87
694.25	53429.46
694.44	53316.82
694.63	53740.75
694.82	53165.27
695.01	53017.82
695.20	53185.75
695.39	53173.46
695.58	53150.93
695.77	52925.66
695.96	52548.83
696.15	53122.26
696.34	52925.66
696.53	52946.14
696.72	53060.82
696.91	52655.32
697.10	53144.79
697.29	52550.88
697.48	52552.93
697.67	52827.35
697.86	52511.97
698.05	52731.10
698.24	53490.90
698.43	52313.31
698.62	53030.10
698.81	52530.40
699.00	53294.29
699.19	52614.37
699.38	52724.96
699.57	52151.52
699.76	53173.46
699.95	52247.78
700.14	52606.17
700.32	52880.60
700.51	52075.75
700.70	52397.28
700.89	52397.28
701.08	52321.51
701.27	52548.83
701.46	52405.47
701.65	51946.73
701.84	52548.83
702.03	52405.47
702.22	52460.77
702.41	52186.34
702.60	52403.42
702.79	52137.19
702.98	51606.76
703.17	52319.46
703.35	52079.85
703.54	51666.16
703.73	52180.20
703.92	52157.67
704.11	52008.17
704.30	52061.41
704.49	52188.39
704.68	51961.06
704.87	52065.51
705.06	51631.34
705.25	51854.57
705.43	51444.98
705.62	52110.56
705.81	52026.60
706.00	51944.68
706.19	51533.04
706.38	51811.56
706.57	51639.53
706.76	51717.35
706.95	51846.38
707.14	51451.12
707.32	51541.23
707.51	51320.05
707.70	51543.28
707.89	51916.01
708.08	51483.89
708.27	51961.06
708.46	51756.27
708.65	51557.61
708.84	51834.09
709.02	51881.19
709.21	51635.44
709.40	52012.26
709.59	51746.03
709.78	51520.75
709.97	51670.25
710.16	51389.68
710.34	51426.54
710.53	51383.54
710.72	51086.58
710.91	51524.85
711.10	51686.64
711.29	51600.62
711.48	51178.74
711.66	51539.18
711.85	51195.12
712.04	51416.30
712.23	51385.58
712.42	51500.27
712.61	51397.87
712.80	51107.06
712.98	51270.90
713.17	51059.96
713.36	50959.61
713.55	51274.99
713.74	51119.35
713.93	51467.50
714.11	51037.43
714.30	51072.24
714.49	50937.08
714.68	50955.51
714.87	51150.07
715.06	51395.82
715.24	50705.66
715.43	50648.32
715.62	50750.71
715.81	50730.23
716.00	50666.75
716.18	50656.51
716.37	50662.65
716.56	50502.91
716.75	50963.70
716.94	50687.23
717.12	50437.37
717.31	50785.53
717.50	50527.48
717.69	50808.06
717.88	50396.42
718.06	51049.72
718.25	50746.62
718.44	50545.92
718.63	50550.01
718.82	50001.16
719.00	50402.56
719.19	50480.38
719.38	50298.11
719.57	50273.54
719.76	50076.93
719.94	49841.42
720.13	50017.54
720.32	50271.49
720.51	50273.54
720.69	50058.50
720.88	50113.80
721.07	50455.81
721.26	49554.70
721.44	49642.76
721.63	49812.74
721.82	49775.88
722.01	49730.83
722.20	49540.36
722.38	49962.25
722.57	48940.31
722.76	49624.33
722.95	49558.80
723.13	49382.67
723.32	49495.31
723.51	49509.64
723.70	49421.58
723.88	49413.39
724.07	49442.06
724.26	49618.19
724.44	48575.77
724.63	49372.43
724.82	49833.22
725.01	49118.48
725.19	49175.83
725.38	48919.83
725.57	48940.31
725.76	48768.28
725.94	49327.38
726.13	48755.99
726.32	49130.77
726.51	48784.66
726.69	49145.11
726.88	48813.34
727.07	49235.22
727.25	49065.24
727.44	48727.32
727.63	48903.45
727.82	48811.29
728.00	48760.09
728.19	48559.39
728.38	49419.53
728.56	48731.42
728.75	49196.31
728.94	49132.82
729.12	48776.47
729.31	48772.38
729.50	49069.33
729.69	48977.17
729.87	48962.84
730.06	48741.66
730.25	48770.33
730.43	48977.17
730.62	49095.95
730.81	49261.84
730.99	48979.22
731.18	48821.53
731.37	48968.98
731.55	49065.24
731.74	49431.82
731.93	49171.73
732.11	49321.23
732.30	48913.69
732.49	48551.20
732.67	48731.42
732.86	48823.58
733.05	49130.77
733.23	48772.38
733.42	49001.75
733.61	49116.43
733.79	49011.99
733.98	49120.53
734.17	48620.83
734.35	48897.30
734.54	48997.65
734.73	49290.51
734.91	48637.21
735.10	48358.69
735.29	48741.66
735.47	48317.73
735.66	48819.48
735.84	48690.46
736.03	47934.76
736.22	48710.94
736.40	48727.32
736.59	49044.76
736.78	48735.51
736.96	48678.17
737.15	49093.91
737.33	48620.83
737.52	48381.21
737.71	48448.80
737.89	48311.58
738.08	48147.75
738.27	48321.82
738.45	48622.87
738.64	48790.81
738.82	48485.66
739.01	48276.77
739.20	48344.35
739.38	48217.38
739.57	48610.59
739.75	48375.07
739.94	48315.68
740.13	48481.56
740.31	48504.09
740.50	48260.38
740.68	48348.45
740.87	48600.35
741.06	48536.86
741.24	48080.16
741.43	48139.55
741.61	47895.85
741.80	48080.16
741.99	48192.80
742.17	48172.32
742.36	48223.52
742.54	48182.56
742.73	48006.44
742.91	48250.14
743.10	47756.58
743.29	48090.40
743.47	48256.29
743.66	47680.81
743.84	47854.89
744.03	47820.07
744.21	47856.93
744.40	48135.46
744.59	47904.04
744.77	47461.68
744.96	47207.73
745.14	47975.72
745.33	47736.10
745.51	47666.47
745.70	47721.77
745.88	47768.87
746.07	47592.75
746.26	47275.31
746.44	47408.43
746.63	47617.32
746.81	47357.23
747.00	47453.48
747.18	47541.55
747.37	47031.60
747.55	47152.43
747.74	47549.74
747.92	46933.30
748.11	46570.81
748.29	47379.76
748.48	46947.64
748.66	46538.04
748.85	46916.92
749.03	47002.93
749.22	47406.38
749.41	46511.42
749.59	46931.25
749.78	47007.03
749.96	46425.40
750.15	46753.08
750.33	46613.82
750.52	46599.48
750.70	47050.03
750.89	46421.31
751.07	46327.10
751.26	45993.28
751.44	46433.60
751.63	46353.72
751.81	45911.36
752.00	46294.33
752.18	46167.36
752.37	46312.77
752.55	46011.71
752.74	46060.87
752.92	45557.06
753.10	45792.58
753.29	46462.27
753.47	45747.53
753.66	45681.99
753.84	45940.04
754.03	46105.92
754.21	45813.06
754.40	46028.10
754.58	45811.01
754.77	45817.16
754.95	45299.02
755.14	45552.97
755.32	45598.02
755.51	45755.72
755.69	45663.56
755.88	45671.75
756.06	45722.95
756.24	45124.94
756.43	45260.11
756.61	45141.33
756.80	45335.88
756.98	44959.06
757.17	45065.55
757.35	45012.31
757.54	44936.53
757.72	44952.91
757.90	45065.55
758.09	44905.81
758.27	45149.52
758.46	44653.91
758.64	44897.62
758.83	44653.91
759.01	44891.48
759.19	44803.41
759.38	44899.67
759.56	44453.21
759.75	44664.15
759.93	44381.53
760.12	44129.63
760.30	44330.33
760.48	43924.83
760.67	44408.15
760.85	44916.05
761.04	44686.68
761.22	44549.46
761.40	44184.93
761.59	44404.06
761.77	43883.87
761.96	44359.00
762.14	43699.56
762.32	44021.09
762.51	44006.75
762.69	43992.42
762.88	43892.07
763.06	44129.63
763.24	43978.08
763.43	43896.16
763.61	43345.26
763.80	43529.58
763.98	43441.51
764.16	43345.26
764.35	43066.73
764.53	42751.35
764.72	43326.83
764.90	43586.92
765.08	43214.19
765.27	43185.52
765.45	42919.28
765.63	42714.48
765.82	42837.36
766.00	42495.35
766.18	43152.75
766.37	42909.04
766.55	42495.35
766.74	42521.98
766.92	42382.71
767.10	42605.94
767.29	42413.43
767.47	42265.98
767.65	42425.72
767.84	42075.52
768.02	42116.48
768.20	42067.33
768.39	42542.45
768.57	42200.44
768.75	41756.03
768.94	41778.56
769.12	41868.67
769.30	41829.76
769.49	42040.70
769.67	41837.95
769.85	40988.05
770.04	41653.64
770.22	41379.21
770.40	41258.38
770.59	41301.39
770.77	41682.31
770.95	41385.35
771.14	41203.08
771.32	40871.31
771.50	40584.60
771.69	41078.16
771.87	41125.26
772.05	41102.73
772.24	40629.65
772.42	40551.83
772.60	40310.17
772.78	40611.22
772.97	40715.67
773.15	40822.16
773.33	40443.29
773.52	40390.04
773.70	40613.27
773.88	40697.24
774.07	40392.09
774.25	40289.69
774.43	40871.31
774.61	40850.83
774.80	40549.78
774.98	40426.90
775.16	40732.05
775.34	40385.94
775.53	40310.17
775.71	40740.24
775.89	40883.60
776.08	40517.01
776.26	40230.30
776.44	40797.59
776.62	40480.15
776.81	40238.49
776.99	40676.76
777.17	40371.61
777.35	40437.14
777.54	40945.04
777.72	40211.87
777.90	40555.93
778.08	40770.96
778.27	40437.14
778.45	40568.21
778.63	40678.80
778.81	40351.13
779.00	40805.78
779.18	40830.35
779.36	41022.86
779.54	40578.45
779.73	40781.20
779.91	40916.37
780.09	40879.50
780.27	40627.60
780.46	40598.93
780.64	41168.27
780.82	40545.69
781.00	41047.44
781.19	40762.77
781.37	40852.88
781.55	40697.24
781.73	41029.01
781.91	41182.60
782.10	41078.16
782.28	40992.14
782.46	40680.85
782.64	41022.86
782.82	40543.64
783.01	41092.49
783.19	40959.38
783.37	40992.14
783.55	40916.37
783.74	41434.50
783.92	40580.50
784.10	41164.17
784.28	40971.66
784.46	40951.18
784.64	40897.94
784.83	40904.08
785.01	41043.34
785.19	40732.05
785.37	41262.47
785.55	40826.26
785.74	40457.62
785.92	40703.38
786.10	41006.48
786.28	40510.87
786.46	40355.22
786.64	40293.79
786.83	40687.00
787.01	40627.60
787.19	40678.80
787.37	40338.84
787.55	40324.50
787.74	40119.71
787.92	40140.19
788.10	40185.24
788.28	39892.38
788.46	40127.90
788.64	39835.04
788.82	40615.32
789.01	40132.00
789.19	40052.12
789.37	39339.43
789.55	40062.36
789.73	39376.30
789.91	39474.60
790.09	39669.15
790.28	39443.88
790.46	39251.37
790.64	39265.70
790.82	39181.74
791.00	39048.62
791.18	38860.21
791.36	38907.31
791.55	38931.89
791.73	38970.80
791.91	38448.57
792.09	38923.69
792.27	38741.42
792.45	38882.73
792.63	39024.04
792.81	38450.61
793.00	38790.58
793.18	38579.64
793.36	38618.55
793.54	38106.55
793.72	38026.68
793.90	38008.25
794.08	37776.83
794.26	38194.62
794.44	37520.84
794.62	37756.35
794.81	38081.98
794.99	37295.56
795.17	37338.57
795.35	38000.06
795.53	37795.26
795.71	37416.39
795.89	37443.01
796.07	36922.83
796.25	37144.01
796.43	37066.19
796.61	37098.95
796.80	36517.33
796.98	36906.44
797.16	36419.03
797.34	36255.19
797.52	36546.00
797.70	36867.53
797.88	36787.66
798.06	36001.24
798.24	36308.44
798.42	35970.52
798.60	36355.54
798.78	36216.28
798.96	36267.48
799.14	35952.09
799.32	36206.04
799.51	35882.46
799.69	35888.60
799.87	35870.17
800.05	35374.56
800.23	35444.20
800.41	35415.52
800.59	35296.74
800.77	35223.01
800.95	34874.86
801.13	34993.64
801.31	34657.78
801.49	35184.10
801.67	34670.06
801.85	34975.21
802.03	34991.59
802.21	34821.61
802.39	34414.07
802.57	34143.74
802.75	34387.44
802.93	34385.40
803.11	34092.54
803.29	34260.47
803.47	33947.13
803.65	33773.05
803.83	34119.16
804.01	34217.46
804.19	33697.28
804.37	33715.71
804.55	33848.83
804.73	33488.38
804.91	33711.61
805.09	33801.72
805.27	33777.15
805.45	33236.48
805.63	33480.19
805.81	33314.31
805.99	33586.69
806.17	33529.34
806.35	33070.60
806.53	32687.63
806.71	32878.09
806.89	32761.36
807.07	32884.23
807.25	32718.35
807.43	32466.45
807.61	32890.38
807.79	32585.23
807.97	32488.98
808.15	32384.53
808.33	32429.59
808.51	32271.89
808.69	32263.70
808.87	32017.94
809.05	32140.82
809.23	32015.90
809.41	31759.90
809.59	31700.51
809.77	31923.74
809.95	31897.11
810.13	31835.67
810.31	31809.05
810.49	31551.01
810.67	31962.65
810.84	31626.78
811.02	31729.18
811.20	31219.24
811.38	31544.86
811.56	31032.87
811.74	31266.34
811.92	31106.60
812.10	31274.53
812.28	31315.49
812.46	30969.38
812.64	30907.94
812.82	30901.80
813.00	30797.35
813.18	31047.21
813.36	30950.95
813.53	30631.47
813.71	31004.20
813.89	30934.57
814.07	30461.49
814.25	30410.29
814.43	30158.39
814.61	29986.36
814.79	30584.37
814.97	30582.32
815.15	30465.58
815.33	29959.73
815.50	29896.25
815.68	30074.42
815.86	30281.27
816.04	30107.19
816.22	29816.38
816.40	30025.27
816.58	29853.24
816.76	29797.95
816.94	29998.65
817.11	29922.87
817.29	29810.23
817.47	29693.50
817.65	29544.00
817.83	29691.45
818.01	29292.10
818.19	29195.84
818.37	29052.48
818.54	28812.87
818.72	29093.44
818.90	29195.84
819.08	29105.73
819.26	29494.85
819.44	29066.82
819.62	29029.96
819.80	29001.29
819.97	28974.66
820.15	29019.72
820.33	29068.87
820.51	28935.75
820.69	28685.90
820.87	29013.57
821.05	28974.66
821.22	28671.56
821.40	28792.39
821.58	28948.04
821.76	28702.28
821.94	28382.80
822.12	28266.06
822.29	28542.54
822.47	28499.53
822.65	28335.70
822.83	28276.30
823.01	28479.05
823.19	28057.17
823.36	28130.90
823.54	28284.50
823.72	28053.08
823.90	28343.89
824.08	27932.25
824.25	28180.05
824.43	27596.38
824.61	27715.16
824.79	27852.38
824.97	27690.59
825.15	27995.73
825.32	27805.27
825.50	27762.26
825.68	27432.54
825.86	27905.62
826.04	27960.92
826.21	27364.96
826.39	28005.97
826.57	27383.39
826.75	27418.21
826.93	27342.43
827.10	27436.64
827.28	27551.32
827.46	27661.91
827.64	27438.69
827.81	27545.18
827.99	27440.73
828.17	26930.79
828.35	27156.07
828.53	27356.77
828.70	27139.68
828.88	27412.06
829.06	27344.48
829.24	27022.95
829.41	26895.97
829.59	27162.21
829.77	26938.98
829.95	26725.99
830.12	26785.38
830.30	26762.86
830.48	26889.83
830.66	27049.57
830.84	26908.26
831.01	26635.88
831.19	26439.28
831.37	26670.70
831.55	26863.21
831.72	26787.43
831.90	26496.62
832.08	26426.99
832.25	26744.42
832.43	26570.35
832.61	26498.67
832.79	26517.10
832.96	26553.96
833.14	26599.02
833.32	26648.17
833.50	26670.70
833.67	26373.74
833.85	26418.80
834.03	25947.76
834.20	26193.52
834.38	26652.27
834.56	26236.53
834.74	26023.54
834.91	25861.75
835.09	26426.99
835.27	25843.32
835.44	25937.52
835.62	25730.68
835.80	25638.52
835.98	25992.82
836.15	25896.56
836.33	25628.28
836.51	25915.00
836.68	26052.21
836.86	25581.18
837.04	25775.73
837.21	25732.73
837.39	25476.73
837.57	25814.65
837.75	25904.76
837.92	25302.65
838.10	25298.56
838.28	25409.15
838.45	25192.06
838.63	25521.79
838.81	25210.50
838.98	25181.82
839.16	25095.81
839.34	25210.50
839.51	25271.93
839.69	25235.07
839.87	25237.12
840.04	25335.42
840.22	25333.37
840.40	25124.48
840.57	24872.58
840.75	24997.51
840.93	24909.44
841.10	25112.19
841.28	25368.19
841.46	24934.02
841.63	25157.25
841.81	24817.29
841.98	25173.63
842.16	24989.31
842.34	24909.44
842.51	24794.76
842.69	25097.86
842.87	25058.95
843.04	25032.32
843.22	24753.80
843.40	24739.46
843.57	24741.51
843.75	25034.37
843.92	24544.91
844.10	24780.42
844.28	24831.62
844.45	24368.78
844.63	24528.52
844.81	24286.86
844.98	24594.06
845.16	24497.80
845.33	24430.22
845.51	24139.41
845.69	24440.46
845.86	24682.12
846.04	24295.05
846.21	24342.16
846.39	24362.64
846.57	24557.19
846.74	24438.41
846.92	24170.13
847.09	24118.93
847.27	24063.63
847.45	24168.08
847.62	24192.65
847.80	24184.46
847.97	24102.54
848.15	23969.43
848.32	23899.80
848.50	24020.63
848.68	23705.24
848.85	23688.85
849.03	23703.19
849.20	23611.03
849.38	24010.39
849.56	23781.01
849.73	23502.49
849.91	23699.09
850.08	23830.16
850.26	23752.34
850.43	23654.04
850.61	23629.46
850.78	23559.83
850.96	23568.02
851.14	23426.71
851.31	23660.18
851.49	23301.79
851.66	23459.48
851.84	23645.85
852.01	23828.12
852.19	23551.64
852.36	23772.82
852.54	23471.77
852.71	23283.36
852.89	23137.95
853.07	22980.26
853.24	23465.63
853.42	23244.45
853.59	23062.18
853.77	23140.00
853.94	23137.95
854.12	23053.98
854.29	23045.79
854.47	23123.62
854.64	23035.55
854.82	22892.19
854.99	23109.28
855.17	22855.33
855.34	22724.26
855.52	22869.67
855.69	22777.51
855.87	22939.30
856.04	22746.79
856.22	22615.72
856.39	22550.18
856.57	22976.16
856.74	22474.41
856.92	22640.29
857.09	22556.33
857.27	22544.04
857.44	22683.30
857.62	22539.94
857.79	22544.04
857.97	22623.91
858.14	22556.33
858.32	22134.45
858.49	22453.93
858.67	22369.96
858.84	22539.94
859.02	22349.48
859.19	22404.78
859.37	22068.91
859.54	21970.61
859.72	22388.39
859.89	22124.21
860.06	22177.45
860.24	22048.43
860.41	22222.51
860.59	22144.69
860.76	22161.07
860.94	21927.60
861.11	22064.82
861.29	22050.48
861.46	22073.01
861.64	21724.85
861.81	21943.99
861.98	22005.42
862.16	21786.29
862.33	21827.25
862.51	21550.78
862.68	21790.39
862.86	21622.45
863.03	21653.17
863.21	21694.13
863.38	21409.47
863.55	21454.52
863.73	21755.57
863.90	21462.71
864.08	21663.41
864.25	21413.56
864.43	21491.38
864.60	21604.02
864.77	21008.06
864.95	21565.11
865.12	21237.44
865.30	21448.38
865.47	21575.35
865.64	21305.02
865.82	21087.93
865.99	21415.61
866.17	20860.61
866.34	21124.80
866.51	20686.53
866.69	21118.65
866.86	21053.12
867.04	20946.62
867.21	20795.07
867.38	21008.06
867.56	20889.28
867.73	20762.31
867.91	20600.52
868.08	20711.11
868.25	20393.67
868.43	20680.39
868.60	20606.66
868.78	20659.91
868.95	20786.88
869.12	20610.76
869.30	20524.74
869.47	20383.43
869.64	20303.56
869.82	20487.88
869.99	20205.26
870.16	20344.52
870.34	20354.76
870.51	20508.36
870.69	20233.93
870.86	20098.77
871.03	20299.47
871.21	20238.03
871.38	20334.28
871.55	19977.94
871.73	19832.53
871.90	19998.41
872.07	19807.95
872.25	19982.03
872.42	19617.49
872.59	19869.39
872.77	19664.60
872.94	19697.36
873.11	19601.11
873.29	19584.73
873.46	19531.48
873.63	19336.92
873.81	19574.49
873.98	19156.70
874.15	19283.67
874.33	19384.02
874.50	19486.42
874.67	19594.96
874.85	19310.30
875.02	19369.69
875.19	19132.12
875.37	19187.42
875.54	19058.40
875.71	19195.61
875.88	19123.93
876.06	19056.35
876.23	18777.83
876.40	18831.07
876.58	19132.12
876.75	18964.19
876.92	18990.81
877.10	18681.57
877.27	18601.70
877.44	18661.09
877.61	18685.67
877.79	18505.45
877.96	18685.67
878.13	18370.28
878.31	18458.34
878.48	18259.69
878.65	18446.05
878.82	18362.09
879.00	18401.00
879.17	18317.03
879.34	18433.77
879.51	18255.59
879.69	17897.20
879.86	17927.92
880.03	17995.50
880.21	17929.97
880.38	17805.04
880.55	18296.55
880.72	17669.87
880.90	17796.85
881.07	18083.56
881.24	17749.75
881.41	18046.70
881.59	17917.68
881.76	17757.94
881.93	17815.28
882.10	17579.76
882.28	17520.37
882.45	17641.20
882.62	17659.63
882.79	17536.76
882.96	17272.57
883.14	17696.50
883.31	17889.01
883.48	17409.78
883.65	17770.22
883.83	17401.59
884.00	17405.69
884.17	17278.71
884.34	17684.21
884.51	17426.17
884.69	17358.58
884.86	17235.70
885.03	17397.49
885.20	17055.48
885.38	17280.76
885.55	17303.29
885.72	17467.13
885.89	16992.00
886.06	17035.00
886.24	17221.37
886.41	17073.92
886.58	17172.22
886.75	17245.94
886.92	16971.52
887.10	17141.50
887.27	16846.59
887.44	16910.08
887.61	17118.97
887.78	17004.28
887.95	16856.83
888.13	16901.89
888.30	16789.25
888.47	16781.06
888.64	16600.83
888.81	16801.54
888.99	16658.18
889.16	16645.89
889.33	16355.08
889.50	16596.74
889.67	16256.78
889.84	16502.53
890.01	16611.07
890.19	16228.10
890.36	16326.41
890.53	16467.72
890.70	16273.16
890.87	16260.87
891.04	16168.71
891.22	16176.91
891.39	16428.81
891.56	15963.92
891.73	15965.96
891.90	16000.78
892.07	15947.53
892.24	16066.31
892.42	15972.11
892.59	15761.17
892.76	15777.55
892.93	16002.83
893.10	16191.24
893.27	16074.51
893.44	15838.99
893.61	15578.90
893.79	15970.06
893.96	15718.16
894.13	15896.33
894.30	15902.48
894.47	15439.64
894.64	15916.81
894.81	15490.84
894.98	15726.35
895.15	15736.59
895.33	15687.44
895.50	15562.51
895.67	15783.70
895.84	15677.20
896.01	15650.58
896.18	15470.36
896.35	15916.81
896.52	15539.99
896.69	15294.23
896.86	15486.74
897.04	15490.84
897.21	15318.81
897.38	15451.92
897.55	15576.85
897.72	15578.90
897.89	15591.19
898.06	15650.58
898.23	15531.80
898.40	15638.29
898.57	15490.84
898.74	15466.26
898.91	15331.09
899.08	15490.84
899.26	15345.43
899.43	15208.22
899.60	15290.13
899.77	15212.31
899.94	15488.79
900.11	15388.44
900.28	15339.29
900.45	15240.98
900.62	15470.36
900.79	15490.84
900.96	15165.21
901.13	15431.44
901.30	15064.86
901.47	15388.44
901.64	15294.23
901.81	15302.42
901.98	15136.54
902.15	15322.90
902.32	15015.71
902.49	15214.36
902.66	15273.75
902.83	15030.04
903.01	15292.18
903.18	15253.27
903.35	15251.22
903.52	15238.94
903.69	15343.38
903.86	15249.18
904.03	15337.24
904.20	15339.29
904.37	15320.85
904.54	15363.86
904.71	15238.94
904.88	15240.98
905.05	15157.02
905.22	15214.36
905.39	15050.52
905.56	15111.96
905.73	15273.75
905.90	14954.27
906.07	15066.91
906.24	15003.42
906.41	15136.54
906.58	15046.43
906.75	15138.58
906.92	14853.92
907.09	15060.76
907.26	15165.21
907.43	15048.47
907.60	14888.73
907.77	15130.39
907.93	15255.32
908.10	15079.19
908.27	15064.86
908.44	14952.22
908.61	15062.81
908.78	15107.87
908.95	15030.04
909.12	15007.52
909.29	14997.28
909.46	14960.41
909.63	14956.32
909.80	15269.66
909.97	14921.50
910.14	14876.44
910.31	14690.08
910.48	14896.92
910.65	14944.03
910.82	14694.18
910.99	14950.17
911.16	14774.05
911.33	14608.16
911.50	14714.66
911.66	14583.59
911.83	14618.40
912.00	14460.71
912.17	14466.85
912.34	14526.24
912.51	14407.46
912.68	14602.02
912.85	14681.89
913.02	14579.49
913.19	14155.56
913.36	14581.54
913.53	14728.99
913.70	14434.08
913.86	14464.80
914.03	14548.77
914.20	14147.37
914.37	14329.64
914.54	14204.71
914.71	14266.15
914.88	14075.69
915.05	13971.24
915.22	14065.45
915.39	14071.59
915.55	14049.07
915.72	13866.80
915.89	13889.32
916.06	13881.13
916.23	13874.99
916.40	13682.48
916.57	13774.64
916.74	13930.28
916.91	13530.93
917.07	13756.21
917.24	13549.36
917.41	13680.43
917.58	13768.49
917.75	13731.63
917.92	13457.20
918.09	13379.38
918.26	13569.84
918.42	13539.12
918.59	13422.39
918.76	13221.69
918.93	13197.11
919.10	13131.58
919.27	13186.87
919.44	13217.59
919.60	13276.98
919.77	13315.89
919.94	13137.72
920.11	13070.14
920.28	13010.75
920.45	12998.46
920.61	12730.17
920.78	12748.61
920.95	12912.44
921.12	12947.26
921.29	12695.36
921.46	12674.88
921.62	12619.58
921.79	12586.82
921.96	12474.18
922.13	12574.53
922.30	12619.58
922.47	12390.21
922.63	12404.55
922.80	12189.51
922.97	12146.50
923.14	11867.98
923.31	12261.19
923.47	12037.96
923.64	12302.15
923.81	12005.19
923.98	12087.11
924.15	12007.24
924.32	12001.10
924.48	12011.34
924.65	11908.94
924.82	11757.39
924.99	11845.45
925.15	11558.74
925.32	11700.05
925.49	11525.97
925.66	11634.51
925.83	11425.62
925.99	11429.71
926.16	11607.89
926.33	11532.11
926.50	11310.93
926.67	11519.82
926.83	11286.36
927.00	11251.54
927.17	11257.68
927.34	11151.19
927.50	11102.04
927.67	11276.12
927.84	11130.71
928.01	11161.43
928.17	10854.23
928.34	10983.26
928.51	10891.10
928.68	10733.40
928.84	10553.18
929.01	10567.52
929.18	10706.78
929.35	10493.79
929.51	10532.70
929.68	10317.67
929.85	10334.05
930.02	10334.05
930.18	10440.54
930.35	10366.82
930.52	10338.15
930.69	10106.73
930.85	10334.05
931.02	10108.77
931.19	10043.24
931.36	10131.30
931.52	10028.90
931.69	10121.06
931.86	9838.44
932.02	9959.27
932.19	9842.54
932.36	10024.81
932.53	9914.22
932.69	9629.55
932.86	9795.43
933.03	9727.85
933.19	9590.64
933.36	9387.89
933.53	9578.35
933.70	9633.64
933.86	9365.36
934.03	9387.89
934.20	9269.11
934.36	9250.67
934.53	8980.34
934.70	9072.50
934.86	9160.56
935.03	8974.20
935.20	8879.99
935.36	8888.18
935.53	8804.22
935.70	8836.99
935.86	8630.14
936.03	8611.71
936.20	8454.02
936.36	8513.41
936.53	8376.19
936.70	8341.38
936.86	8472.45
937.03	8130.44
937.20	8079.24
937.36	8085.38
937.53	7790.47
937.70	7747.47
937.86	7847.82
938.03	7731.08
938.20	7819.14
938.36	7485.33
938.53	7434.13
938.70	7438.22
938.86	7301.01
939.03	7305.10
939.20	7024.53
939.36	7081.88
939.53	7008.15
939.70	7288.72
939.86	6776.73
940.03	6608.80
940.19	6868.89
940.36	6600.60
940.53	6639.51
940.69	6641.56
940.86	6455.20
941.03	6467.49
941.19	6334.37
941.36	6317.98
941.52	6268.83
941.69	6221.73
941.86	6127.52
942.02	6174.63
942.19	5961.64
942.35	5975.97
942.52	5849.00
942.69	5701.54
942.85	5738.41
943.02	5861.29
943.18	5801.90
943.35	5603.24
943.52	5578.67
943.68	5660.59
943.85	5599.15
944.01	5593.00
944.18	5615.53
944.35	5609.39
944.51	5388.21
944.68	5402.54
944.84	5334.96
945.01	5302.19
945.17	5498.80
945.34	5361.58
945.51	5246.90
945.67	5302.19
945.84	5318.57
946.00	5152.69
946.17	5265.33
946.33	5091.25
946.50	5169.07
946.67	5212.08
946.83	5189.55
947.00	5261.23
947.16	5076.91
947.33	5056.43
947.49	5337.01
947.66	5095.35
947.82	5201.84
947.99	5093.30
948.16	5148.59
948.32	5246.90
948.49	5060.53
948.65	5265.33
948.82	5140.40
948.98	5160.88
949.15	5083.06
949.31	5265.33
949.48	5357.49
949.64	5207.98
949.81	5103.54
949.97	5169.07
950.14	5142.45
950.30	4966.32
950.47	5279.66
950.63	5185.46
950.80	5113.78
950.96	5167.03
951.13	5201.84
951.30	5320.62
951.46	5220.27
951.63	5343.15
951.79	5361.58
951.96	5394.35
952.12	5253.04
952.29	5359.53
952.45	5351.34
952.62	5351.34
952.78	5232.56
952.94	5130.16
953.11	5345.20
953.27	5369.77
953.44	5345.20
953.60	5316.53
953.77	5451.69
953.93	5259.18
954.10	5244.85
954.26	5324.72
954.43	5318.57
954.59	5375.92
954.76	5543.85
954.92	5394.35
955.09	5498.80
955.25	5353.39
955.42	5236.66
955.58	5361.58
955.75	5300.14
955.91	5322.67
956.07	5287.86
956.24	5416.88
956.40	5541.80
956.57	5439.40
956.73	5404.59
956.90	5418.93
957.06	5408.69
957.23	5310.38
957.39	5423.02
957.56	5490.60
957.72	5308.34
957.88	5359.53
958.05	5459.88
958.21	5488.56
958.38	5355.44
958.54	5459.88
958.71	5363.63
958.87	5345.20
959.03	5466.03
959.20	5382.06
959.36	5431.21
959.53	5345.20
959.69	5285.81
959.85	5480.36
960.02	5310.38
960.18	5320.62
960.35	5384.11
960.51	5404.59
960.68	5316.53
960.84	5355.44
961.00	5285.81
961.17	5263.28
961.33	5287.86
961.50	5285.81
961.66	5267.38
961.82	5361.58
961.99	5269.42
962.15	5431.21
962.31	5269.42
962.48	5339.05
962.64	5326.77
962.81	5373.87
962.97	5353.39
963.13	5302.19
963.30	5306.29
963.46	5255.09
963.62	5314.48
963.79	5304.24
963.95	5199.79
964.12	5250.99
964.28	5314.48
964.44	5332.91
964.61	5373.87
964.77	5232.56
964.93	5461.93
965.10	5273.52
965.26	5302.19
965.42	5291.95
965.59	5126.07
965.75	5259.18
965.92	5310.38
966.08	5345.20
966.24	5205.94
966.41	5146.55
966.57	5189.55
966.73	5205.94
966.90	5400.49
967.06	5158.83
967.22	5199.79
967.39	5044.15
967.55	5048.24
967.71	5107.63
967.88	5130.16
968.04	5189.55
968.20	5048.24
968.37	4992.95
968.53	5064.63
968.69	5056.43
968.85	5160.88
969.02	5060.53
969.18	5072.82
969.34	5064.63
969.51	5013.43
969.67	5013.43
969.83	5003.19
970.00	5111.73
970.16	5187.50
970.32	5136.31
970.48	5064.63
970.65	4945.84
970.81	4972.47
970.97	5013.43
971.14	4855.73
971.30	4908.98
971.46	5048.24
971.63	4925.36
971.79	5107.63
971.95	5019.57
972.11	4935.60
972.28	4822.97
972.44	4935.60
972.60	4857.78
972.76	4982.71
972.93	4833.21
973.09	4997.04
973.25	4992.95
973.42	4835.25
973.58	4790.20
973.74	4769.72
973.90	4829.11
974.07	4878.26
974.23	4749.24
974.39	4788.15
974.55	4837.30
974.72	4771.77
974.88	4599.74
975.04	4845.49
975.20	4728.76
975.37	4841.40
975.53	4706.23
975.69	4728.76
975.85	4714.42
976.01	4673.46
976.18	4661.18
976.34	4691.90
976.50	4835.25
976.66	4800.44
976.83	4663.22
976.99	4550.59
977.15	4665.27
977.31	4550.59
977.47	4771.77
977.64	4589.50
977.80	4542.39
977.96	4599.74
978.12	4599.74
978.29	4515.77
978.45	4566.97
978.61	4575.16
978.77	4683.70
978.93	4421.56
979.10	4509.63
979.26	4554.68
979.42	4517.82
979.58	4362.17
979.74	4564.92
979.91	4390.84
980.07	4446.14
980.23	4497.34
980.39	4452.28
980.55	4425.66
980.71	4450.24
980.88	4351.93
981.04	4392.89
981.20	4446.14
981.36	4470.72
981.52	4362.17
981.68	4343.74
981.85	4446.14
982.01	4321.21
982.17	4186.05
982.33	4302.78
982.49	4325.31
982.65	4284.35
982.82	4345.79
982.98	4235.20
983.14	4132.80
983.30	4327.36
983.46	4220.86
983.62	4087.75
983.79	4130.75
983.95	4255.68
984.11	4118.47
984.27	4296.64
984.43	4212.67
984.59	4079.55
984.75	4210.62
984.91	4100.03
985.08	4130.75
985.24	4077.51
985.40	4038.59
985.56	4108.23
985.72	4210.62
985.88	4108.23
986.04	4110.27
986.20	4003.78
986.37	4034.50
986.53	4057.03
986.69	4083.65
986.85	3989.44
987.01	4065.22
987.17	4118.47
987.33	4018.11
987.49	3985.35
987.65	3956.68
987.82	3905.48
987.98	3790.79
988.14	3899.33
988.30	4042.69
988.46	3854.28
988.62	3909.57
988.78	3907.52
988.94	3917.76
989.10	3870.66
989.26	3905.48
989.42	3837.89
989.59	3811.27
989.75	3805.13
989.91	3846.09
990.07	3876.80
990.23	3846.09
990.39	3837.89
990.55	3839.94
990.71	3637.19
990.87	3862.47
991.03	3807.17
991.19	3676.10
991.35	3755.97
991.51	3809.22
991.67	3755.97
991.83	3772.36
992.00	3747.78
992.16	3887.04
992.32	3809.22
992.48	3753.93
992.64	3645.38
992.80	3710.92
992.96	3782.60
993.12	3727.30
993.28	3604.42
993.44	3758.02
993.60	3657.67
993.76	3712.97
993.92	3733.45
994.08	3770.31
994.24	3674.06
994.40	3614.66
994.56	3770.31
994.72	3635.14
994.88	3563.47
995.04	3506.12
995.20	3495.88
995.36	3604.42
995.52	3493.83
995.68	3680.20
995.84	3526.60
996.00	3624.90
996.16	3436.49
996.32	3483.59
996.48	3444.68
996.64	3526.60
996.80	3416.01
996.96	3506.12
997.12	3422.16
997.28	3516.36
997.44	3401.68
997.60	3389.39
997.76	3432.40
997.92	3530.70
998.08	3409.87
998.24	3332.05
998.40	3469.26
998.56	3448.78
998.72	3291.09
998.88	3373.00
999.04	3383.24
999.20	3420.11
999.36	3313.61
999.52	3397.58
999.68	3252.17
999.84	3420.11
1000.00	3319.76
1000.16	3346.38
1000.32	3235.79
1000.48	3334.09
1000.64	3289.04
1000.80	3172.30
1000.95	3160.02
1001.11	3205.07
1001.27	3166.16
1001.43	3323.85
1001.59	3133.39
1001.75	3112.91
1001.91	3254.22
1002.07	3215.31
1002.23	3157.97
1002.39	3235.79
1002.55	3141.58
1002.71	3151.82
1002.87	3125.20
1003.03	3233.74
1003.19	3108.82
1003.34	3172.30
1003.50	2904.02
1003.66	3127.25
1003.82	3082.19
1003.98	3080.14
1004.14	3215.31
1004.30	3078.10
1004.46	3069.91
1004.62	3104.72
1004.78	3018.71
1004.94	3010.51
1005.09	3082.19
1005.25	2973.65
1005.41	3033.04
1005.57	2965.46
1005.73	3035.09
1005.89	2916.31
1006.05	3076.05
1006.21	3010.51
1006.37	2942.93
1006.52	2949.08
1006.68	2932.69
1006.84	2994.13
1007.00	3018.71
1007.16	2983.89
1007.32	2895.83
1007.48	2883.54
1007.64	3037.14
1007.79	2891.73
1007.95	2779.09
1008.11	2936.79
1008.27	2787.29
1008.43	2883.54
1008.59	2934.74
1008.75	2893.78
1008.91	2709.46
1009.06	2914.26
1009.22	2826.20
1009.38	2854.87
1009.54	2861.01
1009.70	2789.33
1009.86	2834.39
1010.01	2807.77
1010.17	2738.13
1010.33	2828.24
1010.49	2801.62
1010.65	2824.15
1010.81	2770.90
1010.96	2822.10
1011.12	2691.03
1011.28	2682.84
1011.44	2762.71
1011.60	2826.20
1011.76	2721.75
1011.91	2854.87
1012.07	2695.13
1012.23	2582.49
1012.39	2648.02
1012.55	2742.23
1012.71	2643.93
1012.86	2645.98
1013.02	2539.48
1013.18	2662.36
1013.34	2635.74
1013.50	2807.77
1013.65	2740.18
1013.81	2598.87
1013.97	2547.67
1014.13	2607.06
1014.29	2613.21
1014.44	2723.80
1014.60	2566.10
1014.76	2510.81
1014.92	2621.40
1015.07	2607.06
1015.23	2609.11
1015.39	2453.47
1015.55	2584.54
1015.71	2535.39
1015.86	2539.48
1016.02	2469.85
1016.18	2473.95
1016.34	2576.34
1016.49	2475.99
1016.65	2643.93
1016.81	2459.61
1016.97	2443.23
1017.12	2578.39
1017.28	2449.37
1017.44	2422.75
1017.60	2490.33
1017.75	2455.51
1017.91	2527.19
1018.07	2443.23
1018.23	2420.70
1018.38	2412.51
1018.54	2430.94
1018.70	2424.80
1018.86	2435.03
1019.01	2398.17
1019.17	2424.80
1019.33	2447.32
1019.49	2387.93
1019.64	2363.36
1019.80	2463.71
1019.96	2441.18
1020.12	2435.03
1020.27	2353.12
1020.43	2459.61
1020.59	2340.83
1020.74	2445.27
1020.90	2398.17
1021.06	2379.74
1021.22	2408.41
1021.37	2265.05
1021.53	2355.16
1021.69	2359.26
1021.84	2330.59
1022.00	2377.69
1022.16	2283.49
1022.31	2355.16
1022.47	2377.69
1022.63	2260.96
1022.79	2140.13
1022.94	2310.11
1023.10	2529.24
1023.26	2381.79
1023.41	2316.25
1023.57	2185.18
1023.73	2320.35
1023.88	2299.87
1024.04	2232.29
1024.20	2308.06
1024.35	2201.57
1024.51	2285.53
1024.67	2220.00
1024.82	2256.86
1024.98	2193.37
1025.14	2191.33
1025.29	2168.80
1025.45	2234.33
1025.61	2152.42
1025.76	2211.81
1025.92	2197.47
1026.08	2271.20
1026.23	2226.14
1026.39	2226.14
1026.55	2224.09
1026.70	2131.94
1026.86	2187.23
1027.02	2289.63
1027.17	2215.90
1027.33	2279.39
1027.48	2170.85
1027.64	2176.99
1027.80	2009.06
1027.95	2170.85
1028.11	2084.83
1028.27	2172.89
1028.42	2207.71
1028.58	2150.37
1028.73	2084.83
1028.89	2140.13
1029.05	2273.25
1029.20	2099.17
>>>>>End Processed Spectral Data<<<<<
