SpectraSuite Data File
++++++++++++++++++++++++++++++++++++
Date: Fri Jun 02 14:48:01 CEST 2017
User: INFO_000
Dark Spectrum Present: No
Reference Spectrum Present: No
Number of Sampled Component Spectra: 1
Spectrometers: USB4H00879
Integration Time (usec): 80000 (USB4H00879)
Spectra Averaged: 1 (USB4H00879)
Boxcar Smoothing: 0 (USB4H00879)
Correct for Electrical Dark: No (USB4H00879)
Strobe/Lamp Enabled: No (USB4H00879)
Correct for Detector Non-linearity: No (USB4H00879)
Correct for Stray Light: No (USB4H00879)
Number of Pixels in Processed Spectrum: 3648
>>>>>Begin Processed Spectral Data<<<<<
345.13	1312.75
345.34	1312.75
345.56	1312.75
345.78	1273.84
345.99	1263.60
346.21	1679.33
346.42	1662.95
346.64	1691.62
346.86	1779.68
347.07	1621.99
347.29	1777.64
347.50	1617.90
347.72	1728.49
347.94	1718.25
348.15	1611.75
348.37	1601.51
348.59	1718.25
348.80	1654.76
349.02	1808.36
349.23	1890.28
349.45	1853.41
349.67	1935.33
349.88	1808.36
350.10	1972.19
350.31	1839.08
350.53	1886.18
350.75	2027.49
350.96	1777.64
351.18	1845.22
351.39	1847.27
351.61	1820.64
351.82	1918.95
352.04	1896.42
352.26	1802.21
352.47	1914.85
352.69	1882.08
352.90	1751.01
353.12	1855.46
353.34	1785.83
353.55	1892.32
353.77	1918.95
353.98	1818.60
354.20	1843.17
354.41	1974.24
354.63	1931.23
354.85	2041.82
355.06	1900.52
355.28	1781.73
355.49	1912.80
355.71	1877.99
355.92	1900.52
356.14	1984.48
356.35	1865.70
356.57	1894.37
356.79	1918.95
357.00	1849.32
357.22	2004.96
357.43	1855.46
357.65	2025.44
357.86	1802.21
358.08	1875.94
358.29	1951.71
358.51	1941.47
358.72	1914.85
358.94	1982.43
359.16	1929.19
359.37	1925.09
359.59	1902.56
359.80	1945.57
360.02	1910.75
360.23	1986.53
360.45	1994.72
360.66	1908.71
360.88	1804.26
361.09	1929.19
361.31	1996.77
361.52	1931.23
361.74	2056.16
361.95	2023.39
362.17	1949.67
362.38	2035.68
362.60	1974.24
362.81	2058.21
363.03	1910.75
363.24	1990.63
363.46	2123.74
363.67	2033.63
363.89	2052.06
364.10	2023.39
364.32	1992.67
364.53	2025.44
364.75	1832.93
364.96	2039.78
365.18	2025.44
365.39	2009.06
365.61	1925.09
365.82	2093.02
366.04	2000.87
366.25	1945.57
366.47	2041.82
366.68	2074.59
366.90	1992.67
367.11	2039.78
367.33	2070.50
367.54	2004.96
367.76	1955.81
367.97	2054.11
368.19	1994.72
368.40	2150.37
368.62	2093.02
368.83	1972.19
369.05	2093.02
369.26	2054.11
369.48	2043.87
369.69	2052.06
369.91	2103.26
370.12	2037.73
370.33	2097.12
370.55	1912.80
370.76	2064.35
370.98	2097.12
371.19	2035.68
371.41	2035.68
371.62	2095.07
371.84	1990.63
372.05	2205.66
372.27	2062.30
372.48	2097.12
372.69	2107.36
372.91	2191.33
373.12	2158.56
373.34	2035.68
373.55	2097.12
373.77	2222.05
373.98	2099.17
374.20	2197.47
374.41	2306.01
374.62	2168.80
374.84	2222.05
375.05	2232.29
375.27	2138.08
375.48	2127.84
375.70	2158.56
375.91	2248.67
376.12	2287.58
376.34	2166.75
376.55	2154.46
376.77	2228.19
376.98	2101.22
377.19	2197.47
377.41	2158.56
377.62	2265.05
377.84	2222.05
378.05	2312.16
378.27	2265.05
378.48	2281.44
378.69	2398.17
378.91	2338.78
379.12	2244.57
379.34	2222.05
379.55	2461.66
379.76	2281.44
379.98	2181.09
380.19	2234.33
380.41	2256.86
380.62	2363.36
380.83	2238.43
381.05	2289.63
381.26	2389.98
381.47	2193.37
381.69	2291.68
381.90	2426.84
382.12	2410.46
382.33	2308.06
382.54	2293.72
382.76	2295.77
382.97	2326.49
383.19	2301.92
383.40	2367.45
383.61	2260.96
383.83	2289.63
384.04	2422.75
384.25	2385.88
384.47	2471.90
384.68	2435.03
384.89	2293.72
385.11	2361.31
385.32	2328.54
385.54	2404.32
385.75	2355.16
385.96	2551.77
386.18	2428.89
386.39	2465.75
386.60	2293.72
386.82	2529.24
387.03	2465.75
387.24	2547.67
387.46	2465.75
387.67	2523.10
387.88	2465.75
388.10	2504.67
388.31	2453.47
388.52	2543.58
388.74	2537.43
388.95	2486.23
389.16	2484.19
389.38	2463.71
389.59	2613.21
389.80	2600.92
390.02	2523.10
390.23	2594.78
390.44	2574.30
390.66	2559.96
390.87	2527.19
391.08	2623.45
391.30	2721.75
391.51	2664.41
391.72	2674.65
391.94	2668.50
392.15	2701.27
392.36	2658.26
392.58	2600.92
392.79	2635.74
393.00	2748.37
393.22	2731.99
393.43	2811.86
393.64	2781.14
393.85	2838.48
394.07	2736.09
394.28	2736.09
394.49	2897.88
394.71	2719.70
394.92	2836.44
395.13	2756.57
395.35	2852.82
395.56	2707.41
395.77	2942.93
395.98	2889.68
396.20	2801.62
396.41	2805.72
396.62	2881.49
396.84	2854.87
397.05	2795.48
397.26	2865.11
397.47	2975.70
397.69	2908.12
397.90	2928.60
398.11	2936.79
398.32	2969.55
398.54	2877.40
398.75	2873.30
398.96	2879.44
399.18	3063.76
399.39	2963.41
399.60	3016.66
399.81	3102.67
400.03	2973.65
400.24	3289.04
400.45	3020.75
400.66	3170.26
400.88	3114.96
401.09	3217.36
401.30	3127.25
401.51	3182.54
401.73	3219.41
401.94	3190.74
402.15	3149.78
402.36	3166.16
402.58	3166.16
402.79	3278.80
403.00	3194.83
403.21	3190.74
403.43	3250.13
403.64	3397.58
403.85	3104.72
404.06	3330.00
404.27	3223.50
404.49	3188.69
404.70	3262.41
404.91	3342.28
405.12	3243.98
405.34	3270.61
405.55	3497.93
405.76	3157.97
405.97	3286.99
406.19	3411.92
406.40	3311.57
406.61	3436.49
406.82	3442.64
407.03	3291.09
407.25	3313.61
407.46	3502.03
407.67	3577.80
407.88	3522.51
408.09	3272.65
408.31	3375.05
408.52	3573.71
408.73	3395.53
408.94	3383.24
409.15	3436.49
409.37	3524.55
409.58	3514.31
409.79	3598.28
410.00	3575.75
410.21	3491.79
410.43	3528.65
410.64	3624.90
410.85	3538.89
411.06	3522.51
411.27	3542.99
411.48	3631.05
411.70	3639.24
411.91	3678.15
412.12	3686.34
412.33	3665.86
412.54	3659.72
412.76	3643.34
412.97	3739.59
413.18	3620.81
413.39	3661.77
413.60	3778.50
413.81	3723.21
414.03	3794.89
414.24	3659.72
414.45	3850.18
414.66	3674.06
414.87	3882.95
415.08	3743.69
415.30	3858.37
415.51	3782.60
415.72	3780.55
415.93	3839.94
416.14	3919.81
416.35	3839.94
416.56	3827.65
416.78	3864.52
416.99	3872.71
417.20	3887.04
417.41	3913.67
417.62	4007.87
417.83	3975.11
418.04	4106.18
418.26	4040.64
418.47	3919.81
418.68	4011.97
418.89	4046.79
419.10	4257.73
419.31	3952.58
419.52	4134.85
419.73	4075.46
419.95	4323.26
420.16	4087.75
420.37	4100.03
420.58	4200.38
420.79	4014.02
421.00	4155.33
421.21	4177.86
421.42	4089.79
421.63	4196.29
421.85	4214.72
422.06	4374.46
422.27	4280.25
422.48	4276.16
422.69	4220.86
422.90	4321.21
423.11	4335.55
423.32	4433.85
423.53	4485.05
423.75	4483.00
423.96	4554.68
424.17	4458.43
424.38	4599.74
424.59	4513.72
424.80	4741.05
425.01	4333.50
425.22	4505.53
425.43	4532.15
425.64	4753.34
425.85	4808.63
426.06	4779.96
426.28	4581.31
426.49	4673.46
426.70	4569.02
426.91	4857.78
427.12	4798.39
427.33	4853.69
427.54	4771.77
427.75	4884.41
427.96	4927.41
428.17	4884.41
428.38	5019.57
428.59	4913.08
428.80	5038.00
429.01	4949.94
429.23	4976.56
429.44	5195.70
429.65	5130.16
429.86	4935.60
430.07	5044.15
430.28	5113.78
430.49	5103.54
430.70	5277.62
430.91	5255.09
431.12	5162.93
431.33	5205.94
431.54	5220.27
431.75	5341.10
431.96	5250.99
432.17	5130.16
432.38	5294.00
432.59	5521.32
432.80	5246.90
433.01	5392.30
433.22	5476.27
433.43	5418.93
433.64	5582.76
433.85	5502.89
434.06	5648.30
434.27	5484.46
434.49	5496.75
434.70	5638.06
434.91	5568.43
435.12	5623.72
435.33	5676.97
435.54	5666.73
435.75	5515.18
435.96	5652.39
436.17	5455.79
436.38	5672.87
436.59	6004.64
436.80	5623.72
437.01	5840.81
437.22	5918.63
437.43	5754.79
437.64	5648.30
437.85	5795.75
438.06	5951.40
438.27	5670.83
438.48	5912.49
438.69	5998.50
438.90	6037.41
439.11	5808.04
439.32	6086.56
439.53	5877.67
439.74	6133.67
439.95	6102.95
440.16	6160.29
440.37	6211.49
440.57	6014.88
440.78	6021.03
440.99	6293.41
441.20	6121.38
441.41	6199.20
441.62	6268.83
441.83	5892.01
442.04	6281.12
442.25	6172.58
442.46	6139.81
442.67	6449.05
442.88	6639.51
443.09	6172.58
443.30	6272.93
443.51	6465.44
443.72	6604.70
443.93	6293.41
444.14	6571.93
444.35	6399.90
444.56	6461.34
444.77	6404.00
444.98	6614.94
445.19	6576.03
445.40	6549.40
445.61	6537.12
445.81	6768.54
446.02	6692.76
446.23	6588.32
446.44	6430.62
446.65	6772.63
446.86	6676.38
447.07	6729.63
447.28	6991.77
447.49	6856.60
447.70	6803.35
447.91	6860.70
448.12	6887.32
448.33	7081.88
448.54	6940.57
448.74	7045.01
448.95	7161.75
449.16	6942.61
449.37	7260.05
449.58	7081.88
449.79	7288.72
450.00	7061.40
450.21	7124.88
450.42	7327.63
450.63	7157.65
450.84	7186.32
451.05	7327.63
451.25	7212.95
451.46	7178.13
451.67	7292.82
451.88	7434.13
452.09	7350.16
452.30	7301.01
452.51	7366.54
452.72	7567.24
452.93	7702.41
453.13	7344.02
453.34	7325.58
453.55	7530.38
453.76	7579.53
453.97	7954.31
454.18	7729.03
454.39	7858.06
454.60	7610.25
454.81	7708.55
455.01	7759.75
455.22	7522.19
455.43	7794.57
455.64	7874.44
455.85	8042.37
456.06	8175.49
456.27	8030.09
456.48	7819.14
456.68	8081.28
456.89	7993.22
457.10	8122.24
457.31	8433.54
457.52	8099.72
457.73	8279.94
457.94	8572.80
458.14	8333.18
458.35	8634.24
458.56	8472.45
458.77	8343.42
458.98	8656.76
459.19	8490.88
459.39	8630.14
459.60	8959.86
459.81	8728.44
460.02	8785.79
460.23	8787.83
460.44	8963.96
460.65	8959.86
460.85	8968.06
461.06	8970.10
461.27	8720.25
461.48	9072.50
461.69	9344.88
461.89	8882.04
462.10	9242.48
462.31	9154.42
462.52	8986.49
462.73	9277.30
462.94	9365.36
463.14	9244.53
463.35	9531.25
463.56	9738.09
463.77	9713.52
463.98	9271.15
464.18	9660.27
464.39	9705.32
464.60	9879.40
464.81	9899.88
465.02	9848.68
465.23	10004.33
465.43	10008.42
465.64	10190.69
465.85	10116.97
466.06	10006.38
466.27	10391.39
466.47	10372.96
466.68	10311.52
466.89	10346.34
467.10	10524.51
467.30	10270.56
467.51	10526.56
467.72	10643.29
467.93	10325.86
468.14	10653.53
468.34	10743.64
468.55	10776.41
468.76	10848.09
468.97	10815.32
469.17	11140.95
469.38	11233.11
469.59	11165.53
469.80	11063.13
470.01	11075.42
470.21	11143.00
470.42	11351.89
470.63	11517.78
470.84	11425.62
471.04	11663.18
471.25	11554.64
471.46	11620.17
471.67	12013.38
471.87	11820.88
472.08	12261.19
472.29	12132.17
472.50	11718.48
472.70	12058.44
472.91	12216.13
473.12	12416.83
473.33	12449.60
473.53	12603.20
473.74	12537.66
473.95	12615.49
474.16	12752.70
474.36	12877.63
474.57	12889.92
474.78	13086.52
474.99	12822.33
475.19	13000.51
475.40	13051.70
475.61	13375.28
475.81	13561.65
476.02	13598.51
476.23	13432.63
476.44	13494.07
476.64	13881.13
476.85	14096.17
477.06	13829.93
477.27	14169.90
477.47	14255.91
477.68	14298.92
477.89	14288.68
478.09	14546.72
478.30	14429.99
478.51	14714.66
478.71	14645.02
478.92	14759.71
479.13	14888.73
479.34	14960.41
479.54	15075.10
479.75	15101.72
479.96	15204.12
480.16	15392.53
480.37	15224.60
480.58	15460.12
480.78	15638.29
480.99	15599.38
481.20	16092.94
481.41	15820.56
481.61	16135.95
481.82	16367.37
482.03	16240.39
482.23	15892.24
482.44	16412.42
482.65	16615.17
482.85	16787.20
483.06	16736.00
483.27	16676.61
483.47	16731.90
483.68	16899.84
483.89	17151.74
484.09	17049.34
484.30	17469.17
484.51	17440.50
484.71	17542.90
484.92	17395.45
485.13	17716.98
485.33	17757.94
485.54	17669.87
485.75	17657.59
485.95	18015.98
486.16	18169.58
486.37	18239.21
486.57	18253.55
486.78	18239.21
486.98	18282.22
487.19	18433.77
487.40	18779.87
487.60	18609.89
487.81	18794.21
488.02	18685.67
488.22	18706.15
488.43	19119.84
488.64	19082.97
488.84	19300.06
489.05	19439.32
489.25	19316.44
489.46	19656.40
489.67	19574.49
489.87	20256.46
490.08	19877.58
490.29	19736.27
490.49	20211.40
490.70	20233.93
490.90	20475.59
491.11	20311.75
491.32	20152.01
491.52	20756.16
491.73	20346.57
491.94	20502.22
492.14	20471.50
492.35	21085.89
492.55	21096.13
492.76	20764.36
492.97	20995.78
493.17	21079.74
493.38	21345.98
493.58	21634.74
493.79	21577.40
494.00	21350.07
494.20	21640.89
494.41	21741.24
494.61	22163.12
494.82	21821.11
495.02	21784.24
495.23	21921.46
495.44	22144.69
495.64	22263.47
495.85	22181.55
496.05	22492.84
496.26	22388.39
496.47	22605.48
496.67	22380.20
496.88	22849.19
497.08	22781.60
497.29	22849.19
497.49	22732.45
497.70	22970.02
497.91	23074.46
498.11	23412.38
498.32	23269.02
498.52	23658.14
498.73	23914.13
498.93	23512.73
499.14	23781.01
499.34	23576.22
499.55	23692.95
499.76	23830.16
499.96	24108.69
500.17	23539.35
500.37	23643.80
500.58	24086.16
500.78	24385.16
500.99	24159.89
501.19	24319.63
501.40	24721.03
501.60	24391.31
501.81	24467.08
502.02	24612.49
502.22	24501.90
502.43	24704.65
502.63	25104.00
502.84	24999.55
503.04	24839.81
503.25	25052.80
503.45	25214.59
503.66	25460.35
503.86	25595.51
504.07	25419.39
504.27	25288.32
504.48	25583.23
504.68	25697.91
504.89	25929.33
505.09	26011.25
505.30	25835.13
505.50	25876.09
505.71	25935.48
505.91	26105.46
506.12	26103.41
506.32	26166.90
506.53	25945.72
506.73	26195.57
506.94	26005.11
507.14	26365.55
507.35	26605.16
507.55	26676.84
507.76	26717.80
507.96	26527.34
508.17	26635.88
508.37	26965.60
508.58	26928.74
508.78	26594.92
508.99	26986.08
509.19	27336.29
509.40	26687.08
509.60	27201.12
509.81	27201.12
510.01	26928.74
510.22	27119.20
510.42	27571.80
510.63	27264.61
510.83	27076.19
511.04	27813.46
511.24	27371.10
511.44	27666.01
511.65	27899.48
511.85	27561.56
512.06	27858.52
512.26	27985.49
512.47	27942.49
512.67	27776.60
512.88	27960.92
513.08	27747.93
513.29	28169.81
513.49	28055.12
513.69	28184.15
513.90	28546.64
514.10	28167.76
514.31	28442.19
514.51	28378.70
514.72	28454.48
514.92	28464.72
515.13	28522.06
515.33	28616.27
515.53	28569.16
515.74	29038.15
515.94	28798.54
516.15	28745.29
516.35	28442.19
516.56	29077.06
516.76	28878.41
516.96	29085.25
517.17	29359.68
517.37	29576.76
517.58	29220.42
517.78	29328.96
517.99	29361.73
518.19	29572.67
518.39	29335.10
518.60	29711.93
518.80	29830.71
519.01	29810.23
519.21	29843.00
519.41	29988.41
519.62	29879.86
519.82	29877.82
520.03	29974.07
520.23	30164.53
520.43	30117.43
520.64	30260.79
520.84	30428.72
521.05	30094.90
521.25	30303.79
521.45	30889.51
521.66	30682.67
521.86	30529.07
522.07	30420.53
522.27	30750.25
522.47	30490.16
522.68	31014.44
522.88	30924.33
523.08	31421.98
523.29	30883.37
523.49	31505.95
523.70	31514.14
523.90	31714.84
524.10	31548.96
524.31	31716.89
524.51	31421.98
524.71	31940.12
524.92	31774.24
525.12	31989.27
525.33	32157.21
525.53	32009.75
525.73	32237.08
525.94	32364.05
526.14	32437.78
526.34	32232.98
526.55	32634.38
526.75	32851.47
526.95	32880.14
527.16	33041.93
527.36	32937.48
527.56	32982.54
527.77	33394.18
527.97	33166.85
528.17	33316.36
528.38	33285.64
528.58	33527.30
528.78	33535.49
528.99	33533.44
529.19	33603.07
529.39	33693.18
529.60	34162.17
529.80	34024.95
530.00	33711.61
530.21	34246.13
530.41	34319.86
530.61	33871.36
530.82	34434.55
531.02	34188.79
531.22	34559.47
531.43	34711.02
531.63	34801.13
531.83	35149.29
532.04	35243.49
532.24	34840.04
532.44	35134.95
532.64	35188.20
532.85	35489.25
533.05	35335.65
533.25	35694.05
533.46	35638.75
533.66	35648.99
533.86	35859.93
534.07	35827.17
534.27	35780.06
534.47	36333.01
534.67	36527.57
534.88	35972.57
535.08	36107.74
535.28	36742.61
535.49	35984.86
535.69	36842.96
535.89	37060.04
536.09	36464.08
536.30	36900.30
536.50	36859.34
536.70	37168.58
536.91	37246.41
537.11	37187.02
537.31	37422.53
537.51	37330.37
537.72	37658.05
537.92	37477.83
538.12	37965.24
538.32	37713.34
538.53	37866.94
538.73	37858.75
538.93	37905.85
539.13	37770.69
539.34	38221.24
539.54	38225.34
539.74	38546.87
539.94	38370.74
540.15	38202.81
540.35	38643.12
540.55	38458.81
540.75	38622.64
540.96	38864.30
541.16	38864.30
541.36	38747.57
541.56	39398.82
541.77	39654.82
541.97	39550.37
542.17	39464.36
542.37	39407.01
542.58	39312.81
542.78	39327.14
542.98	39699.87
543.18	39824.80
543.38	40056.22
543.59	40035.74
543.79	39683.49
543.99	39613.86
544.19	40209.82
544.40	40101.28
544.60	40293.79
544.80	40543.64
545.00	40203.67
545.20	40238.49
545.41	40533.40
545.61	40576.40
545.81	40637.84
546.01	40732.05
546.21	40928.66
546.42	40910.22
546.62	40777.11
546.82	41020.81
547.02	41424.26
547.22	41067.92
547.43	40969.61
547.63	41280.91
547.83	41164.17
548.03	41307.53
548.23	41403.78
548.44	41270.67
548.64	41280.91
548.84	41778.56
549.04	41424.26
549.24	41954.69
549.45	41678.21
549.65	41971.07
549.85	41962.88
550.05	41936.26
550.25	41704.84
550.45	42282.36
550.66	41854.34
550.86	41928.06
551.06	42331.51
551.26	42106.24
551.46	42304.89
551.66	42507.64
551.87	42315.13
552.07	42376.57
552.27	42012.03
552.47	42579.32
552.67	42571.13
552.87	42784.12
553.07	42591.61
553.28	42919.28
553.48	42755.44
553.68	43072.88
553.88	43017.58
554.08	42882.42
554.28	43132.27
554.48	43001.20
554.69	43015.54
554.89	43216.24
555.09	42827.12
555.29	42927.47
555.49	42980.72
555.69	43261.29
555.89	43201.90
556.10	43828.58
556.30	43318.64
556.50	43459.94
556.70	43709.80
556.90	43398.51
557.10	43611.49
557.30	43435.37
557.50	43998.56
557.70	43953.51
557.91	44070.24
558.11	43824.48
558.31	43564.39
558.51	43847.01
558.71	44080.48
558.91	44039.52
559.11	44201.31
559.31	43855.20
559.51	44029.28
559.72	44377.43
559.92	44426.59
560.12	44076.38
560.32	44637.53
560.52	44250.46
560.72	44717.40
560.92	44453.21
561.12	45131.09
561.32	44508.50
561.52	44815.70
561.72	44600.66
561.93	44324.19
562.13	44438.87
562.33	44858.71
562.53	45112.66
562.73	44422.49
562.93	44524.89
563.13	44895.57
563.33	44596.57
563.53	44942.67
563.73	44463.45
563.93	44813.65
564.13	45382.99
564.33	45061.46
564.53	45030.74
564.74	45264.21
564.94	45051.22
565.14	45364.56
565.34	45063.50
565.54	45129.04
565.74	45364.56
565.94	45987.14
566.14	45217.10
566.34	45522.25
566.54	45892.93
566.74	45108.56
566.94	46081.34
567.14	45839.68
567.34	45811.01
567.54	45679.94
567.74	45544.78
567.94	45479.24
568.14	45878.60
568.34	46208.32
568.54	45770.05
568.74	45899.08
568.94	45817.16
569.14	46284.09
569.34	46357.82
569.54	46490.94
569.75	45772.10
569.95	46478.65
570.15	46587.19
570.35	46239.04
570.55	46251.33
570.75	46662.97
570.95	46609.72
571.15	46771.51
571.35	46421.31
571.55	47050.03
571.75	46810.42
571.95	46980.40
572.15	46744.89
572.35	47027.51
572.55	46734.65
572.75	47058.23
572.95	46880.05
573.15	46982.45
573.35	46882.10
573.55	46777.65
573.75	47058.23
573.95	47123.76
574.15	47078.71
574.35	47502.64
574.55	47240.50
574.75	47349.04
574.95	47439.15
575.15	47228.21
575.34	47228.21
575.54	47392.04
575.74	47529.26
575.94	47398.19
576.14	47234.35
576.34	47596.84
576.54	48170.27
576.74	47748.39
576.94	47744.30
577.14	47969.57
577.34	48264.48
577.54	47897.89
577.74	47760.68
577.94	47938.85
578.14	48256.29
578.34	48473.37
578.54	47494.44
578.74	47488.30
578.94	48198.94
579.14	48186.66
579.34	48235.81
579.54	48520.48
579.74	48764.18
579.94	48594.20
580.13	48319.77
580.33	48842.01
580.53	48700.70
580.73	48856.34
580.93	48960.79
581.13	49118.48
581.33	49026.32
581.53	48887.06
581.73	48903.45
581.93	48796.95
582.13	49245.46
582.33	49310.99
582.53	49382.67
582.73	49184.02
582.92	49190.16
583.12	49329.42
583.32	49534.22
583.52	49235.22
583.72	49888.52
583.92	49292.56
584.12	50011.40
584.32	50099.46
584.52	49960.20
584.72	49825.03
584.92	49929.48
585.11	50234.63
585.31	49915.14
585.51	50175.23
585.71	50033.92
585.91	50232.58
586.11	50273.54
586.31	50023.68
586.51	50326.78
586.71	50345.22
586.91	50476.29
587.10	50316.54
587.30	50623.74
587.50	50588.92
587.70	50623.74
587.90	50861.30
588.10	50572.54
588.30	50760.95
588.50	50877.69
588.69	50943.22
588.89	50717.95
589.09	51430.64
589.29	50900.22
589.49	51608.81
589.69	50851.06
589.89	51201.27
590.08	50869.50
590.28	51449.07
590.48	50834.68
590.68	51305.71
590.88	51422.45
591.08	51137.78
591.28	51004.66
591.47	51860.71
591.67	51631.34
591.87	52032.74
592.07	51873.00
592.27	52040.93
592.47	51526.89
592.67	52018.41
592.86	51868.90
593.06	52092.13
593.26	52253.92
593.46	51868.90
593.66	51735.79
593.86	52212.96
594.05	51911.91
594.25	52016.36
594.45	51969.26
594.65	52409.57
594.85	51756.27
595.05	52434.14
595.24	51954.92
595.44	52282.59
595.64	52204.77
595.84	52522.21
596.04	52739.29
596.23	52630.75
596.43	52798.68
596.63	52696.28
596.83	52350.18
597.03	53327.06
597.22	53062.87
597.42	52878.55
597.62	53032.15
597.82	52884.70
598.02	53007.58
598.21	53122.26
598.41	52909.27
598.61	53058.77
598.81	53392.59
599.01	53140.69
599.20	53490.90
599.40	53187.80
599.60	53630.16
599.80	53077.21
600.00	53961.93
600.19	53482.70
600.39	53464.27
600.59	53765.32
600.79	54015.18
600.98	53449.94
601.18	53810.38
601.38	54080.71
601.58	54285.51
601.78	53986.50
601.97	54303.94
602.17	54437.06
602.37	54281.41
602.57	54238.40
602.76	54318.28
602.96	53914.83
603.16	54557.89
603.36	54314.18
603.55	54842.56
603.75	55002.30
603.95	54834.36
604.15	54553.79
604.34	54318.28
604.54	55174.33
604.74	55020.73
604.94	55246.00
605.13	55317.68
605.33	55125.17
605.53	54887.61
605.73	55276.72
605.92	55100.60
606.12	54881.47
606.32	55336.12
606.52	55422.13
606.71	55303.35
606.91	55579.82
607.11	55033.02
607.30	55399.60
607.50	55645.36
607.70	55628.98
607.90	55334.07
608.09	55502.00
608.29	55706.80
608.49	55825.58
608.68	55739.57
608.88	55469.23
609.08	56032.42
609.28	55878.83
609.47	55622.83
609.67	55958.70
609.87	55614.64
610.06	56147.11
610.26	55991.47
610.46	56046.76
610.66	55659.69
610.85	56360.10
611.05	55956.65
611.25	56349.86
611.44	56140.97
611.64	56161.45
611.84	56226.98
612.03	55962.79
612.23	56376.48
612.43	56513.70
612.62	55846.06
612.82	56562.85
613.02	56671.39
613.21	56134.82
613.41	55839.92
613.61	56497.31
613.80	56274.09
614.00	55991.47
614.20	56351.91
614.39	56386.72
614.59	56190.12
614.79	56474.79
614.98	56401.06
615.18	56485.03
615.38	56407.20
615.57	56300.71
615.77	56505.51
615.97	56568.99
616.16	56480.93
616.36	56530.08
616.56	56593.57
616.75	56753.31
616.95	56644.77
617.15	56231.08
617.34	56208.55
617.54	56218.79
617.74	56874.14
617.93	56673.44
618.13	56351.91
618.32	56798.37
618.52	56495.27
618.72	56595.62
618.91	56579.23
619.11	56444.07
619.31	56585.38
619.50	56399.01
619.70	56276.13
619.90	56757.41
620.09	56542.37
620.29	56292.52
620.48	56622.24
620.68	56915.10
620.88	56220.84
621.07	56870.04
621.27	56702.11
621.46	55674.03
621.66	56075.43
621.86	56566.94
622.05	56177.83
622.25	56923.29
622.44	56669.34
622.64	56251.56
622.84	56687.78
623.03	56067.24
623.23	56448.16
623.42	56439.97
623.62	56839.32
623.82	56818.84
624.01	56106.15
624.21	56351.91
624.40	56491.17
624.60	56396.96
624.80	56452.26
624.99	56595.62
625.19	56120.49
625.38	56759.45
625.58	56890.52
625.77	56319.14
625.97	56769.69
626.17	56200.36
626.36	56317.09
626.56	56442.02
626.75	56519.84
626.95	56452.26
627.14	56544.42
627.34	56540.32
627.54	56280.23
627.73	56583.33
627.93	56284.33
628.12	56558.75
628.32	56419.49
628.51	56638.62
628.71	56503.46
628.90	56239.27
629.10	56186.02
629.30	56437.92
629.49	56642.72
629.69	56702.11
629.88	56136.87
630.08	56874.14
630.27	56577.18
630.47	56915.10
630.66	56198.31
630.86	56868.00
631.05	56325.28
631.25	57265.30
631.44	56579.23
631.64	56450.21
631.84	56693.92
632.03	57095.32
632.23	56792.22
632.42	56827.04
632.62	56892.57
632.81	56403.11
633.01	56743.07
633.20	56956.06
633.40	56894.62
633.59	57179.29
633.79	56411.30
633.98	56937.63
634.18	57195.67
634.37	56927.39
634.57	56841.37
634.76	57025.69
634.96	57083.03
635.15	56681.63
635.35	56587.42
635.54	56870.04
635.74	56853.66
635.93	56855.71
636.13	57103.51
636.32	56970.39
636.52	56759.45
636.71	57220.25
636.91	56865.95
637.10	57042.07
637.30	57371.80
637.49	56704.16
637.69	56577.18
637.88	57083.03
638.08	56874.14
638.27	57287.83
638.46	57224.34
638.66	57261.21
638.85	57283.73
639.05	57423.00
639.24	57210.01
639.44	57107.61
639.63	57504.91
639.83	57218.20
640.02	57443.48
640.22	56800.41
640.41	57269.40
640.61	56673.44
640.80	57281.69
640.99	56898.72
641.19	57722.00
641.38	57181.34
641.58	56853.66
641.77	57324.69
641.97	56573.09
642.16	57334.93
642.36	57578.64
642.55	57965.71
642.74	57193.62
642.94	57959.56
643.13	56911.00
643.33	57621.65
643.52	57468.05
643.72	57803.92
643.91	57164.95
644.10	57562.26
644.30	57642.13
644.49	57322.65
644.69	57642.13
644.88	57777.29
645.08	57246.87
645.27	57808.01
645.46	57148.57
645.66	57771.15
645.85	57599.12
646.05	57851.02
646.24	57353.36
646.43	57314.45
646.63	58039.43
646.82	58027.15
647.02	57713.81
647.21	58102.92
647.40	57521.30
647.60	58287.24
647.79	57758.86
647.99	58037.39
648.18	57750.67
648.37	58229.90
648.57	58326.15
648.76	58121.35
648.96	57762.96
649.15	58381.45
649.34	57920.65
649.54	58111.11
649.73	58225.80
649.92	57898.12
650.12	57998.48
650.31	58033.29
650.51	58287.24
650.70	58416.26
650.89	58125.45
651.09	58942.59
651.28	58121.35
651.47	58129.54
651.67	58582.15
651.86	58418.31
652.06	57783.44
652.25	58406.02
652.44	58496.13
652.64	58164.36
652.83	57945.23
653.02	58049.67
653.22	58274.95
653.41	58469.51
653.60	58098.83
653.80	58535.04
653.99	58664.06
654.18	58166.41
654.38	58377.35
654.57	58768.51
654.76	57982.09
654.96	58367.11
655.15	58379.40
655.34	57775.25
655.54	58209.42
655.73	58279.05
655.92	58813.57
656.12	58489.99
656.31	58375.30
656.50	58616.96
656.70	58502.28
656.89	58692.74
657.08	58725.50
657.28	58350.73
657.47	58545.28
657.66	58612.87
657.86	58406.02
658.05	58274.95
658.24	58502.28
658.43	58295.43
658.63	58584.19
658.82	58420.36
659.01	58903.68
659.21	58342.53
659.40	58444.93
659.59	58307.72
659.79	58795.13
659.98	58442.88
660.17	58856.57
660.36	58320.01
660.56	58145.93
660.75	58760.32
660.94	58391.68
661.14	58891.39
661.33	58465.41
661.52	58678.40
661.71	58936.44
661.91	58530.95
662.10	58500.23
662.29	59079.80
662.49	58420.36
662.68	58838.14
662.87	58879.10
663.06	58569.86
663.26	58967.16
663.45	58848.38
663.64	58795.13
663.83	59391.09
664.03	58481.80
664.22	58860.67
664.41	58922.11
664.60	58268.81
664.80	58616.96
664.99	58492.04
665.18	58520.71
665.37	58594.43
665.57	59116.67
665.76	58578.05
665.95	58604.67
666.14	58801.28
666.34	58483.84
666.53	58727.55
666.72	58205.32
666.91	58524.80
667.11	58487.94
667.30	58651.78
667.49	58365.06
667.68	58438.79
667.87	58111.11
668.07	58680.45
668.26	58532.99
668.45	59071.61
668.64	58604.67
668.84	59364.47
669.03	59217.02
669.22	58676.35
669.41	58748.03
669.60	58700.93
669.80	58772.61
669.99	59014.27
670.18	58698.88
670.37	58600.58
670.57	58750.08
670.76	58512.52
670.95	58430.60
671.14	58438.79
671.33	58721.41
671.53	59243.64
671.72	58399.88
671.91	58844.29
672.10	58436.74
672.29	58514.56
672.48	58340.49
672.68	58774.66
672.87	58487.94
673.06	58242.18
673.25	58440.84
673.44	58684.54
673.64	58602.63
673.83	58221.70
674.02	58469.51
674.21	58455.17
674.40	58799.23
674.59	58418.31
674.79	58225.80
674.98	58268.81
675.17	58551.43
675.36	58365.06
675.55	58213.51
675.74	58389.64
675.94	58496.13
676.13	58438.79
676.32	58451.08
676.51	58678.40
676.70	58442.88
676.89	58459.27
677.08	59034.75
677.28	58598.53
677.47	58520.71
677.66	58782.85
677.85	58279.05
678.04	58184.84
678.23	58616.96
678.42	58608.77
678.62	58242.18
678.81	58545.28
679.00	58522.76
679.19	58676.35
679.38	58406.02
679.57	58496.13
679.76	58762.37
679.96	58446.98
680.15	58393.73
680.34	58444.93
680.53	58281.09
680.72	58778.75
680.91	58381.45
681.10	58250.38
681.29	58346.63
681.48	57834.64
681.68	58451.08
681.87	58537.09
682.06	58320.01
682.25	58342.53
682.44	57975.95
682.63	58610.82
682.82	57834.64
683.01	58367.11
683.20	58027.15
683.39	58074.25
683.59	58043.53
683.78	57808.01
683.97	57781.39
684.16	57531.54
684.35	58021.00
684.54	58104.97
684.73	57932.94
684.92	57570.45
685.11	58010.76
685.30	57554.07
685.49	58238.09
685.69	58129.54
685.88	58135.69
686.07	58002.57
686.26	57955.47
686.45	57599.12
686.64	57840.78
686.83	57713.81
687.02	57564.31
687.21	58053.77
687.40	57658.51
687.59	57621.65
687.78	57783.44
687.97	58156.17
688.16	57713.81
688.35	57853.07
688.54	57406.61
688.74	57402.52
688.93	57361.56
689.12	57803.92
689.31	57382.04
689.50	57447.57
689.69	57300.12
689.88	57046.17
690.07	57568.40
690.26	57312.41
690.45	57664.66
690.64	57210.01
690.83	57455.76
691.02	56943.77
691.21	57136.28
691.40	56962.20
691.59	56939.68
691.78	57480.34
691.97	57136.28
692.16	57240.73
692.35	56982.68
692.54	57431.19
692.73	57054.36
692.92	56919.20
693.11	57072.79
693.30	57017.50
693.49	56790.17
693.68	56798.37
693.87	56781.98
694.06	56751.26
694.25	56747.17
694.44	56648.86
694.63	57107.61
694.82	56620.19
695.01	56743.07
695.20	56743.07
695.39	56530.08
695.58	56409.25
695.77	56333.48
695.96	56224.93
696.15	56892.57
696.34	56317.09
696.53	56267.94
696.72	56392.87
696.91	56595.62
697.10	56087.72
697.29	56003.75
697.48	56906.91
697.67	56077.48
697.86	55846.06
698.05	55930.03
698.24	56665.25
698.43	55653.55
698.62	56417.44
698.81	55538.86
699.00	56298.66
699.19	55968.94
699.38	56130.73
699.57	55121.08
699.76	56439.97
699.95	55624.88
700.14	55680.17
700.32	55801.00
700.51	55518.38
700.70	56087.72
700.89	56173.73
701.08	55866.54
701.27	55575.73
701.46	56030.38
701.65	55370.93
701.84	55835.82
702.03	55702.70
702.22	55147.70
702.41	55475.38
702.60	55588.02
702.79	55712.94
702.98	55076.02
703.17	55389.36
703.35	55362.74
703.54	55497.91
703.73	55712.94
703.92	55575.73
704.11	55094.46
704.30	55131.32
704.49	55200.95
704.68	55219.38
704.87	55248.05
705.06	55049.40
705.25	55239.86
705.43	55020.73
705.62	55594.16
705.81	55297.20
706.00	55190.71
706.19	54895.80
706.38	55088.31
706.57	54852.80
706.76	54883.51
706.95	55223.48
707.14	54875.32
707.32	54414.53
707.51	54627.52
707.70	54475.97
707.89	54541.50
708.08	54668.48
708.27	54482.11
708.46	55194.81
708.65	54627.52
708.84	54928.57
709.02	54588.61
709.21	54633.66
709.40	54695.10
709.59	54361.28
709.78	54197.44
709.97	54564.03
710.16	54217.92
710.34	54064.33
710.53	54238.40
710.72	54086.85
710.91	53996.74
711.10	54330.56
711.29	54893.75
711.48	53847.24
711.66	54254.79
711.85	53869.77
712.04	53910.73
712.23	54056.14
712.42	54011.08
712.61	54058.18
712.80	54172.87
712.98	53845.19
713.17	54052.04
713.36	53662.93
713.55	53664.97
713.74	54211.78
713.93	53867.72
714.11	53834.95
714.30	53288.15
714.49	53253.33
714.68	53515.47
714.87	53560.53
715.06	53613.77
715.24	53470.42
715.43	53611.73
715.62	53230.80
715.81	53189.84
716.00	53535.95
716.18	52790.49
716.37	52903.13
716.56	53114.07
716.75	53462.22
716.94	53548.24
717.12	53081.30
717.31	53132.50
717.50	53189.84
717.69	53013.72
717.88	52978.90
718.06	52886.74
718.25	53423.31
718.44	52968.66
718.63	52821.21
718.82	52790.49
719.00	52913.37
719.19	52471.01
719.38	52753.63
719.57	52241.63
719.76	52024.55
719.94	51836.14
720.13	52118.76
720.32	51852.52
720.51	52290.79
720.69	51909.86
720.88	52088.04
721.07	52018.41
721.26	51350.77
721.44	51934.44
721.63	51795.18
721.82	51739.88
722.01	51434.74
722.20	51827.95
722.38	51768.55
722.57	51358.96
722.76	51336.43
722.95	51500.27
723.13	51252.47
723.32	51246.32
723.51	51158.26
723.70	51152.12
723.88	51234.03
724.07	51184.88
724.26	51430.64
724.44	50398.46
724.63	50916.60
724.82	50935.03
725.01	50670.84
725.19	50703.61
725.38	50537.72
725.57	50846.97
725.76	50623.74
725.94	50752.76
726.13	50502.91
726.32	49992.97
726.51	50044.16
726.69	50910.46
726.88	50621.69
727.07	50928.89
727.25	50404.61
727.44	50640.12
727.63	50857.21
727.82	50445.57
728.00	50808.06
728.19	50267.39
728.38	50795.77
728.56	49927.43
728.75	50234.63
728.94	50023.68
729.12	50461.95
729.31	50427.13
729.50	50500.86
729.69	50527.48
729.87	50181.38
730.06	49968.39
730.25	50042.12
730.43	50650.36
730.62	50183.43
730.81	50466.05
730.99	50296.06
731.18	50115.84
731.37	50101.51
731.55	50486.53
731.74	50246.91
731.93	50326.78
732.11	49931.53
732.30	50519.29
732.49	49999.11
732.67	50330.88
732.86	50181.38
733.05	49878.28
733.23	49720.59
733.42	50048.26
733.61	50107.65
733.79	49612.04
733.98	50517.25
734.17	50148.61
734.35	49876.23
734.54	49874.18
734.73	50050.31
734.91	49960.20
735.10	49904.90
735.29	49806.60
735.47	49046.80
735.66	49546.51
735.84	49636.62
736.03	49560.84
736.22	50074.88
736.40	49405.20
736.59	49554.70
736.78	49544.46
736.96	49579.28
737.15	49714.44
737.33	49476.88
737.52	49579.28
737.71	49632.52
737.89	49444.11
738.08	49452.30
738.27	49417.49
738.45	49818.89
738.64	49421.58
738.82	49673.48
739.01	49265.94
739.20	49018.13
739.38	49315.09
739.57	49718.54
739.75	49470.73
739.94	49147.15
740.13	49261.84
740.31	49227.02
740.50	49384.72
740.68	49163.54
740.87	49253.65
741.06	49566.99
741.24	48928.02
741.43	48960.79
741.61	49214.74
741.80	48741.66
741.99	48856.34
742.17	48993.56
742.36	48887.06
742.54	48721.18
742.73	48821.53
742.91	49157.39
743.10	48735.51
743.29	49024.28
743.47	49173.78
743.66	49118.48
743.84	48641.31
744.03	48504.09
744.21	48399.65
744.40	48672.03
744.59	48569.63
744.77	47897.89
744.96	48512.28
745.14	48391.45
745.33	48258.34
745.51	48149.79
745.70	48305.44
745.88	48092.45
746.07	47897.89
746.26	48037.16
746.44	47910.18
746.63	47732.01
746.81	48526.62
747.00	47953.19
747.18	47867.17
747.37	48428.32
747.55	48289.06
747.74	48291.10
747.92	47621.42
748.11	47736.10
748.29	47705.38
748.48	47912.23
748.66	47809.83
748.85	47596.84
749.03	48106.79
749.22	48053.54
749.41	47617.32
749.59	48407.84
749.78	47654.18
749.96	47209.78
750.15	47371.57
750.33	47519.02
750.52	47619.37
750.70	47648.04
750.89	47312.17
751.07	47232.30
751.26	47095.09
751.44	47224.11
751.63	46941.49
751.81	46925.11
752.00	46945.59
752.18	47484.20
752.37	47129.90
752.55	46556.47
752.74	46718.26
752.92	46579.00
753.10	46392.64
753.29	47160.62
753.47	46900.53
753.66	46523.71
753.84	46855.48
754.03	46904.63
754.21	46542.14
754.40	46857.52
754.58	47017.27
754.77	46695.74
754.95	46929.20
755.14	46099.78
755.32	47029.55
755.51	46701.88
755.69	46144.83
755.88	45915.46
756.06	46605.62
756.24	46658.87
756.43	46282.05
756.61	46124.35
756.80	46228.80
756.98	46179.65
757.17	45958.47
757.35	46529.85
757.54	46171.46
757.72	46116.16
757.90	45667.66
758.09	45995.33
758.27	46177.60
758.46	46013.76
758.64	45696.33
758.83	45690.18
759.01	45544.78
759.19	45735.24
759.38	45612.36
759.56	46048.58
759.75	45606.22
759.93	45471.05
760.12	45778.25
760.30	45262.16
760.48	45466.95
760.67	45542.73
760.85	45561.16
761.04	45499.72
761.22	45663.56
761.40	45618.50
761.59	45829.44
761.77	45358.41
761.96	44985.68
762.14	45454.67
762.32	44823.89
762.51	45090.13
762.69	44889.43
762.88	44920.15
763.06	45253.97
763.24	45086.03
763.43	45086.03
763.61	44629.34
763.80	44987.73
763.98	44576.09
764.16	44754.26
764.35	44463.45
764.53	44094.82
764.72	44277.08
764.90	44418.39
765.08	44285.28
765.27	44389.72
765.45	44019.04
765.63	43519.34
765.82	44197.21
766.00	43849.06
766.18	43933.03
766.37	44348.76
766.55	44086.62
766.74	43586.92
766.92	43662.69
767.10	43947.36
767.29	43933.03
767.47	43693.41
767.65	43447.66
767.84	43427.18
768.02	43466.09
768.20	43173.23
768.39	43552.10
768.57	43597.16
768.75	43261.29
768.94	43529.58
769.12	43085.17
769.30	43165.04
769.49	43365.74
769.67	43246.96
769.85	43101.55
770.04	43300.20
770.22	43181.42
770.40	42747.25
770.59	43005.30
770.77	43101.55
770.95	42988.91
771.14	42593.65
771.32	42691.96
771.50	42450.30
771.69	42933.62
771.87	42673.52
772.05	42388.86
772.24	42220.92
772.42	42624.37
772.60	42696.05
772.78	42372.47
772.97	42202.49
773.15	42612.09
773.33	42188.16
773.52	42474.87
773.70	42136.96
773.88	42354.04
774.07	42116.48
774.25	42155.39
774.43	42411.38
774.61	42163.58
774.80	42169.72
774.98	42497.40
775.16	42550.65
775.34	42147.20
775.53	42284.41
775.71	42673.52
775.89	42116.48
776.08	42444.15
776.26	41958.78
776.44	42368.38
776.62	42544.50
776.81	42253.69
776.99	42691.96
777.17	42282.36
777.35	42560.89
777.54	42618.23
777.72	42470.78
777.90	42272.12
778.08	42782.07
778.27	42388.86
778.45	42798.45
778.63	42882.42
778.81	42444.15
779.00	43318.64
779.18	42753.40
779.36	43138.41
779.54	42679.67
779.73	42694.00
779.91	43066.73
780.09	42876.27
780.27	42737.01
780.46	43027.82
780.64	43111.79
780.82	42909.04
781.00	42993.01
781.19	43038.06
781.37	43285.87
781.55	43502.95
781.73	43418.99
781.91	42999.15
782.10	43044.21
782.28	43179.37
782.46	43513.19
782.64	43586.92
782.82	43195.76
783.01	43767.14
783.19	43562.34
783.37	42894.71
783.55	43234.67
783.74	43576.68
783.92	42943.86
784.10	43353.45
784.28	43386.22
784.46	43267.44
784.64	42859.89
784.83	43468.14
785.01	43804.00
785.19	43029.87
785.37	43617.64
785.55	43418.99
785.74	42614.13
785.92	43261.29
786.10	43224.43
786.28	43093.36
786.46	42712.44
786.64	42906.99
786.83	42878.32
787.01	43019.63
787.19	42741.11
787.37	42898.80
787.55	42939.76
787.74	42552.69
787.92	42857.84
788.10	42786.16
788.28	42251.64
788.46	42784.12
788.64	42288.51
788.82	42786.16
789.01	42501.50
789.19	42474.87
789.37	42202.49
789.55	42382.71
789.73	41923.97
789.91	41864.58
790.09	41995.65
790.28	42005.89
790.46	41926.02
790.64	42290.55
790.82	41725.32
791.00	41565.57
791.18	41706.88
791.36	41395.59
791.55	41731.46
791.73	41387.40
791.91	41426.31
792.09	41346.44
792.27	41549.19
792.45	41342.35
792.63	41596.29
792.81	41022.86
793.00	41102.73
793.18	41026.96
793.36	41352.58
793.54	40934.80
793.72	40893.84
793.90	40465.81
794.08	40762.77
794.26	40746.39
794.44	40203.67
794.62	40453.53
794.81	40195.48
794.99	40220.06
795.17	40097.18
795.35	39923.10
795.53	40068.51
795.71	40027.55
795.89	39681.44
796.07	39275.94
796.25	39699.87
796.43	39484.84
796.61	39296.42
796.80	39243.18
796.98	39345.58
797.16	39241.13
797.34	39171.50
797.52	38995.37
797.70	39271.85
797.88	38890.93
798.06	38874.54
798.24	38743.47
798.42	38649.27
798.60	38518.20
798.78	38231.48
798.96	38999.47
799.14	38202.81
799.32	38319.54
799.51	38161.85
799.69	38532.53
799.87	38301.11
800.05	37719.49
800.23	38032.83
800.41	37791.17
800.59	37483.97
800.77	37496.26
800.95	37432.77
801.13	37373.38
801.31	36900.30
801.49	37111.24
801.67	37119.43
801.85	37162.44
802.03	36816.33
802.21	37031.37
802.39	36574.67
802.57	36906.44
802.75	36660.69
802.93	36654.54
803.11	36578.77
803.29	36634.06
803.47	36388.31
803.65	36124.12
803.83	36478.42
804.01	36316.63
804.19	35818.97
804.37	35892.70
804.55	36021.72
804.73	35782.11
804.91	35735.01
805.09	35999.19
805.27	35747.29
805.45	35773.92
805.63	35759.58
805.81	35237.35
805.99	35694.05
806.17	35337.70
806.35	35280.36
806.53	35321.32
806.71	35218.92
806.89	35155.43
807.07	35089.90
807.25	35139.05
807.43	34452.98
807.61	34989.55
807.79	34950.63
807.97	34719.21
808.15	34188.79
808.33	34629.10
808.51	34387.44
808.69	34434.55
808.87	34430.45
809.05	33967.61
809.23	34227.70
809.41	34348.53
809.59	33553.92
809.77	34182.65
809.95	34139.64
810.13	33918.46
810.31	33627.65
810.49	33709.57
810.67	33570.30
810.84	33252.87
811.02	33699.33
811.20	33461.76
811.38	33433.09
811.56	33426.95
811.74	32871.95
811.92	32937.48
812.10	33189.38
812.28	33388.03
812.46	33140.23
812.64	33127.94
812.82	32749.07
813.00	32867.85
813.18	32808.46
813.36	32597.52
813.53	32478.74
813.71	32525.84
813.89	32423.44
814.07	32671.25
814.25	32714.25
814.43	32247.32
814.61	32466.45
814.79	32261.65
814.97	32196.12
815.15	32118.29
815.33	31936.02
815.50	32116.25
815.68	32093.72
815.86	32106.01
816.04	31964.70
816.22	31761.95
816.40	31948.31
816.58	31432.22
816.76	31518.24
816.94	31430.18
817.11	31913.50
817.29	31356.45
817.47	31141.41
817.65	31161.89
817.83	31059.49
818.01	31292.96
818.19	30983.72
818.37	30909.99
818.54	30977.58
818.72	30817.83
818.90	30807.59
819.08	30565.93
819.26	30899.75
819.44	30574.13
819.62	30697.00
819.80	30740.01
819.97	31096.36
820.15	30713.39
820.33	30484.01
820.51	30651.95
820.69	30459.44
820.87	30711.34
821.05	31008.29
821.22	30494.25
821.40	30502.45
821.58	30236.21
821.76	30256.69
821.94	30152.24
822.12	30207.54
822.29	30049.85
822.47	30391.86
822.65	30250.55
822.83	29959.73
823.01	29767.23
823.19	29769.27
823.36	29789.75
823.54	29679.16
823.72	29593.15
823.90	29822.52
824.08	29615.68
824.25	29482.56
824.43	29199.94
824.61	29300.29
824.79	29351.49
824.97	29351.49
825.15	29521.47
825.32	29529.66
825.50	29421.12
825.68	28782.15
825.86	29240.90
826.04	29167.17
826.21	29072.96
826.39	28966.47
826.57	28970.57
826.75	28941.89
826.93	28679.75
827.10	28673.61
827.28	28630.60
827.46	29003.33
827.64	29046.34
827.81	28180.05
827.99	28948.04
828.17	28360.27
828.35	28474.96
828.53	28558.92
828.70	28608.08
828.88	28358.22
829.06	28405.33
829.24	28286.54
829.41	28417.61
829.59	28294.74
829.77	28137.04
829.95	28315.22
830.12	28405.33
830.30	28241.49
830.48	28155.47
830.66	28042.84
830.84	28145.23
831.01	27410.01
831.19	28077.65
831.37	27891.29
831.55	27856.47
831.72	27772.50
831.90	28065.36
832.08	27846.23
832.25	27995.73
832.43	28053.08
832.61	27698.78
832.79	27530.84
832.96	27545.18
833.14	27688.54
833.32	27623.00
833.50	27698.78
833.67	27690.59
833.85	27670.11
834.03	27534.94
834.20	27553.37
834.38	27268.70
834.56	27387.49
834.74	27430.49
834.91	27096.67
835.09	27108.96
835.27	26938.98
835.44	27100.77
835.62	26666.60
835.80	26648.17
835.98	27143.78
836.15	26920.55
836.33	26875.49
836.51	26877.54
836.68	26621.55
836.86	26781.29
837.04	26846.82
837.21	26633.83
837.39	26609.26
837.57	26547.82
837.75	26822.25
837.92	26195.57
838.10	26502.76
838.28	26027.63
838.45	26730.09
838.63	26416.75
838.81	26304.11
838.98	26412.65
839.16	25804.41
839.34	25861.75
839.51	25814.65
839.69	26035.83
839.87	25986.68
840.04	26285.68
840.22	26052.21
840.40	25878.13
840.57	26125.94
840.75	25732.73
840.93	25663.10
841.10	26009.20
841.28	25976.44
841.46	25900.66
841.63	25800.31
841.81	26078.83
841.98	25695.86
842.16	25749.11
842.34	25591.42
842.51	25448.06
842.69	25642.62
842.87	25740.92
843.04	25779.83
843.22	25466.49
843.40	25517.69
843.57	25194.11
843.75	25755.26
843.92	25417.34
844.10	25351.81
844.28	25644.66
844.45	25388.67
844.63	25450.11
844.81	24880.77
844.98	25085.57
845.16	25435.77
845.33	25085.57
845.51	25001.60
845.69	25108.10
845.86	24696.46
846.04	25040.51
846.21	24852.10
846.39	24931.97
846.57	24952.45
846.74	25026.18
846.92	24845.96
847.09	24688.26
847.27	24594.06
847.45	24399.50
847.62	24616.58
847.80	24741.51
847.97	24686.22
848.15	24293.01
848.32	24082.06
848.50	24379.02
848.68	24399.50
848.85	24403.60
849.03	24241.81
849.20	24309.39
849.38	24350.35
849.56	24120.98
849.73	24098.45
849.91	23983.76
850.08	24471.18
850.26	23998.10
850.43	24286.86
850.61	24247.95
850.78	23983.76
850.96	24467.08
851.14	23860.88
851.31	24084.11
851.49	23916.18
851.66	23981.71
851.84	24106.64
852.01	24016.53
852.19	23998.10
852.36	23828.12
852.54	23660.18
852.71	23695.00
852.89	23762.58
853.07	23645.85
853.24	23525.02
853.42	23369.37
853.59	23531.16
853.77	23613.08
853.94	23815.83
854.12	23805.59
854.29	23131.81
854.47	23402.14
854.64	23422.62
854.82	23647.90
854.99	23396.00
855.17	23766.68
855.34	23432.86
855.52	23199.39
855.69	23404.19
855.87	22957.73
856.04	23029.41
856.22	23340.70
856.39	22818.47
856.57	23148.19
856.74	22869.67
856.92	23226.01
857.09	22812.32
857.27	23015.07
857.44	23256.73
857.62	22970.02
857.79	23219.87
857.97	22972.07
858.14	22695.59
858.32	22666.92
858.49	22646.44
858.67	22654.63
858.84	22458.03
859.02	22603.43
859.19	22372.01
859.37	22423.21
859.54	22384.30
859.72	22644.39
859.89	22496.94
860.06	22335.15
860.24	22466.22
860.41	22603.43
860.59	22208.17
860.76	22541.99
860.94	22210.22
861.11	22474.41
861.29	22220.46
861.46	22218.41
861.64	22081.20
861.81	22101.68
861.98	22369.96
862.16	22163.12
862.33	21831.35
862.51	22036.14
862.68	22169.26
862.86	22150.83
863.03	21794.48
863.21	21786.29
863.38	21849.78
863.55	21835.44
863.73	21878.45
863.90	22195.89
864.08	21614.26
864.25	21743.28
864.43	21767.86
864.60	21464.76
864.77	21692.08
864.95	21628.60
865.12	21503.67
865.30	21716.66
865.47	21552.82
865.64	21272.25
865.82	21534.39
865.99	21692.08
866.17	21585.59
866.34	21171.90
866.51	21278.40
866.69	21485.24
866.86	21194.43
867.04	21071.55
867.21	21272.25
867.38	21280.44
867.56	20917.95
867.73	21102.27
867.91	21024.45
868.08	20940.48
868.25	21063.36
868.43	20913.86
868.60	20829.89
868.78	20965.06
868.95	21196.48
869.12	21014.21
869.30	20836.03
869.47	21042.88
869.64	20401.86
869.82	20784.83
869.99	20424.39
870.16	20514.50
870.34	20455.11
870.51	20717.25
870.69	20473.54
870.86	20342.47
871.03	20715.20
871.21	20428.49
871.38	20479.69
871.55	20336.33
871.73	20035.28
871.90	20135.63
872.07	20100.81
872.25	20102.86
872.42	20125.39
872.59	19879.63
872.77	19732.18
872.94	20012.75
873.11	19660.50
873.29	19812.05
873.46	19902.16
873.63	19664.60
873.81	19910.35
873.98	19601.11
874.15	19617.49
874.33	19611.35
874.50	19181.28
874.67	19769.04
874.85	19377.88
875.02	19439.32
875.19	19392.22
875.37	19541.72
875.54	19261.15
875.71	19447.51
875.88	19207.90
876.06	19482.33
876.23	19019.49
876.40	19156.70
876.58	19156.70
876.75	19033.82
876.92	19119.84
877.10	19005.15
877.27	18980.57
877.44	18771.68
877.61	18657.00
877.79	18683.62
877.96	18994.91
878.13	18861.79
878.31	18708.19
878.48	18720.48
878.65	18976.48
878.82	18423.53
879.00	18734.82
879.17	18433.77
879.34	18515.69
879.51	18308.84
879.69	18534.12
879.86	18261.74
880.03	18290.41
880.21	18284.26
880.38	18011.89
880.55	18370.28
880.72	18052.84
880.90	18310.89
881.07	18292.46
881.24	18384.62
881.41	18204.39
881.59	17921.77
881.76	18251.50
881.93	17858.29
882.10	17864.43
882.28	17563.38
882.45	18261.74
882.62	17977.07
882.79	17977.07
882.96	17600.24
883.14	17807.09
883.31	17999.60
883.48	17805.04
883.65	17946.35
883.83	17929.97
884.00	17788.66
884.17	17805.04
884.34	17794.80
884.51	17766.13
884.69	17981.17
884.86	17667.83
885.03	17719.03
885.20	17385.21
885.38	17606.39
885.55	17254.14
885.72	17448.69
885.89	17524.47
886.06	17389.30
886.24	17528.56
886.41	17616.63
886.58	17489.65
886.75	17270.52
886.92	17088.25
887.10	17387.25
887.27	17227.51
887.44	17219.32
887.61	17577.72
887.78	17116.92
887.95	17141.50
888.13	17127.16
888.30	17317.62
888.47	16885.50
888.64	17041.15
888.81	16910.08
888.99	16944.89
889.16	16836.35
889.33	17026.81
889.50	16768.77
889.67	16953.09
889.84	16838.40
890.01	16887.55
890.19	16893.69
890.36	16748.29
890.53	16645.89
890.70	16574.21
890.87	16611.07
891.04	16441.09
891.22	16649.99
891.39	16516.87
891.56	16676.61
891.73	16504.58
891.90	16445.19
892.07	16459.52
892.24	16322.31
892.42	16432.90
892.59	16432.90
892.76	16236.30
892.93	16437.00
893.10	16465.67
893.27	16191.24
893.44	16178.95
893.61	16035.60
893.79	16289.54
893.96	16389.89
894.13	16252.68
894.30	16381.70
894.47	16252.68
894.64	16105.23
894.81	16068.36
894.98	16006.92
895.15	16293.64
895.33	16066.31
895.50	15888.14
895.67	16279.30
895.84	15916.81
896.01	15957.77
896.18	15730.45
896.35	16348.93
896.52	15941.39
896.69	15933.20
896.86	15906.57
897.04	16115.47
897.21	15763.22
897.38	16029.45
897.55	16068.36
897.72	16023.31
897.89	15931.15
898.06	15822.61
898.23	15914.77
898.40	16004.88
898.57	16011.02
898.74	16049.93
898.91	15812.37
899.08	15853.33
899.26	16140.04
899.43	15888.14
899.60	15918.86
899.77	16027.40
899.94	16068.36
900.11	15679.25
900.28	16137.99
900.45	15787.79
900.62	15697.68
900.79	15916.81
900.96	15894.29
901.13	15681.30
901.30	15636.24
901.47	15832.85
901.64	16078.60
901.81	15781.65
901.98	15822.61
902.15	16058.12
902.32	15836.94
902.49	15955.72
902.66	16107.27
902.83	15824.65
903.01	15392.53
903.18	15818.51
903.35	15910.67
903.52	15552.27
903.69	15804.17
903.86	15800.08
904.03	15636.24
904.20	16021.26
904.37	15949.58
904.54	15830.80
904.71	15867.66
904.88	15800.08
905.05	15673.10
905.22	15734.54
905.39	15523.60
905.56	15681.30
905.73	15550.23
905.90	15611.67
906.07	15773.46
906.24	15761.17
906.41	15685.39
906.58	15752.98
906.75	15666.96
906.92	15550.23
907.09	15650.58
907.26	15599.38
907.43	15511.32
907.60	15871.76
907.77	15851.28
907.93	15755.02
908.10	15658.77
908.27	15669.01
908.44	15548.18
908.61	15476.50
908.78	15638.29
908.95	15707.92
909.12	15853.33
909.29	15550.23
909.46	15632.15
909.63	15720.21
909.80	15693.58
909.97	15656.72
910.14	15716.11
910.31	15720.21
910.48	15437.59
910.65	15574.80
910.82	15505.17
910.99	15460.12
911.16	15447.83
911.33	15314.71
911.50	15302.42
911.66	15331.09
911.83	15118.11
912.00	15183.64
912.17	15136.54
912.34	15146.78
912.51	15234.84
912.68	15066.91
912.85	15470.36
913.02	15259.42
913.19	15191.83
913.36	15124.25
913.53	15036.19
913.70	14974.75
913.86	15290.13
914.03	14993.18
914.20	14923.55
914.37	14798.62
914.54	15122.20
914.71	14815.01
914.88	15027.99
915.05	14978.84
915.22	14788.38
915.39	14616.35
915.55	14550.82
915.72	14587.68
915.89	14645.02
916.06	14493.47
916.23	14599.97
916.40	14405.41
916.57	14513.95
916.74	14573.35
916.91	14528.29
917.07	14169.90
917.24	14354.21
917.41	14532.39
917.58	14370.60
917.75	14044.97
917.92	14063.40
918.09	14200.62
918.26	14020.39
918.42	14149.42
918.59	14069.55
918.76	14073.64
918.93	13969.19
919.10	14061.35
919.27	14004.01
919.44	14051.11
919.60	13956.91
919.77	14018.35
919.94	13698.86
920.11	13682.48
920.28	13823.79
920.45	13725.49
920.61	13510.45
920.78	13690.67
920.95	13475.63
921.12	13461.30
921.29	13274.93
921.46	13471.54
921.62	13266.74
921.79	13442.87
921.96	13162.30
922.13	13389.62
922.30	12934.97
922.47	13135.67
922.63	13117.24
922.80	13139.77
922.97	12840.76
923.14	12779.32
923.31	13047.61
923.47	12887.87
923.64	12924.73
923.81	12564.29
923.98	12912.44
924.15	12648.26
924.32	12713.79
924.48	12535.62
924.65	12668.73
924.82	12390.21
924.99	12214.09
925.15	12373.83
925.32	12433.22
925.49	12359.49
925.66	12363.59
925.83	12171.08
925.99	12146.50
926.16	12361.54
926.33	12212.04
926.50	11956.04
926.67	12293.96
926.83	11943.75
927.00	11968.33
927.17	11939.66
927.34	11798.35
927.50	11941.71
927.67	11765.58
927.84	11521.87
928.01	11644.75
928.17	11542.35
928.34	11499.34
928.51	11392.85
928.68	11366.23
928.84	11302.74
929.01	11353.94
929.18	11237.20
929.35	11278.16
929.51	11046.74
929.68	11005.78
929.85	10975.06
930.02	11044.70
930.18	11073.37
930.35	10889.05
930.52	11134.81
930.69	10936.15
930.85	10839.90
931.02	10753.88
931.19	10645.34
931.36	10725.21
931.52	10760.03
931.69	10796.89
931.86	10520.42
932.02	10622.81
932.19	10389.35
932.36	10458.98
932.53	10585.95
932.69	10176.36
932.86	10385.25
933.03	10110.82
933.19	9989.99
933.36	10307.43
933.53	10016.62
933.70	9989.99
933.86	10170.21
934.03	9846.63
934.20	9828.20
934.36	9918.31
934.53	9578.35
934.70	9611.12
934.86	9744.24
935.03	9410.42
935.20	9381.74
935.36	9281.39
935.53	9187.19
935.70	9181.04
935.86	9201.52
936.03	8859.51
936.20	8957.82
936.36	8996.73
936.53	8769.40
936.70	8900.47
936.86	8822.65
937.03	8648.57
937.20	8402.82
937.36	8628.09
937.53	8333.18
937.70	8234.88
937.86	8050.57
938.03	8087.43
938.20	8402.82
938.36	7944.07
938.53	7964.55
938.70	7743.37
938.86	7843.72
939.03	7821.19
939.20	7557.00
939.36	7608.20
939.53	7458.70
939.70	7493.52
939.86	7284.62
940.03	7133.08
940.19	7028.63
940.36	7118.74
940.53	7018.39
940.69	6870.94
940.86	6872.98
941.03	6657.95
941.19	6582.17
941.36	6516.64
941.52	6606.75
941.69	6483.87
941.86	6305.70
942.02	6326.18
942.19	6340.51
942.35	6420.38
942.52	6328.22
942.69	6139.81
942.85	6098.85
943.02	6047.65
943.18	5926.82
943.35	6037.41
943.52	5953.45
943.68	5824.42
943.85	5842.85
944.01	5719.98
944.18	5902.25
944.35	5877.67
944.51	5713.83
944.68	5513.13
944.84	5660.59
945.01	5638.06
945.17	5734.31
945.34	5732.26
945.51	5599.15
945.67	5490.60
945.84	5566.38
946.00	5425.07
946.17	5539.76
946.33	5576.62
946.50	5531.56
946.67	5652.39
946.83	5414.83
947.00	5484.46
947.16	5412.78
947.33	5447.60
947.49	5488.56
947.66	5390.25
947.82	5564.33
947.99	5334.96
948.16	5515.18
948.32	5504.94
948.49	5476.27
948.65	5504.94
948.82	5437.36
948.98	5457.84
949.15	5437.36
949.31	5435.31
949.48	5539.76
949.64	5496.75
949.81	5478.32
949.97	5388.21
950.14	5646.25
950.30	5328.81
950.47	5541.80
950.63	5472.17
950.80	5574.57
950.96	5558.19
951.13	5494.70
951.30	5541.80
951.46	5400.49
951.63	5590.95
951.79	5435.31
951.96	5478.32
952.12	5476.27
952.29	5484.46
952.45	5506.99
952.62	5531.56
952.78	5611.43
952.94	5470.12
953.11	5588.91
953.27	5437.36
953.44	5613.48
953.60	5488.56
953.77	5687.21
953.93	5595.05
954.10	5711.78
954.26	5668.78
954.43	5504.94
954.59	5593.00
954.76	5765.03
954.92	5455.79
955.09	5656.49
955.25	5576.62
955.42	5527.47
955.58	5867.43
955.75	5603.24
955.91	5523.37
956.07	5676.97
956.24	5584.81
956.40	5705.64
956.57	5685.16
956.73	5597.10
956.90	5570.48
957.06	5562.28
957.23	5771.18
957.39	5719.98
957.56	5660.59
957.72	5582.76
957.88	5578.67
958.05	5742.50
958.21	5658.54
958.38	5689.26
958.54	5568.43
958.71	5775.27
958.87	5572.52
959.03	5558.19
959.20	5709.74
959.36	5541.80
959.53	5672.87
959.69	5687.21
959.85	5601.19
960.02	5599.15
960.18	5668.78
960.35	5609.39
960.51	5650.35
960.68	5539.76
960.84	5633.96
961.00	5590.95
961.17	5566.38
961.33	5687.21
961.50	5515.18
961.66	5572.52
961.82	5578.67
961.99	5697.45
962.15	5662.63
962.31	5593.00
962.48	5472.17
962.64	5658.54
962.81	5533.61
962.97	5613.48
963.13	5574.57
963.30	5474.22
963.46	5560.24
963.62	5384.11
963.79	5599.15
963.95	5533.61
964.12	5525.42
964.28	5722.02
964.44	5433.26
964.61	5574.57
964.77	5629.87
964.93	5629.87
965.10	5527.47
965.26	5515.18
965.42	5474.22
965.59	5447.60
965.75	5539.76
965.92	5496.75
966.08	5410.73
966.24	5418.93
966.41	5367.73
966.57	5566.38
966.73	5506.99
966.90	5517.23
967.06	5527.47
967.22	5271.47
967.39	5337.01
967.55	5400.49
967.71	5394.35
967.88	5363.63
968.04	5218.22
968.20	5330.86
968.37	5253.04
968.53	5375.92
968.69	5384.11
968.85	5273.52
969.02	5367.73
969.18	5253.04
969.34	5341.10
969.51	5386.16
969.67	5281.71
969.83	5195.70
970.00	5363.63
970.16	5281.71
970.32	5083.06
970.48	5214.13
970.65	5312.43
970.81	5140.40
970.97	5197.74
971.14	5109.68
971.30	5343.15
971.46	5152.69
971.63	5214.13
971.79	5248.94
971.95	5154.74
972.11	5023.67
972.28	5271.47
972.44	5128.11
972.60	5050.29
972.76	5089.20
972.93	5144.50
973.09	5023.67
973.25	5089.20
973.42	4931.51
973.58	5031.86
973.74	4976.56
973.90	4958.13
974.07	5068.72
974.23	5130.16
974.39	4964.28
974.55	5072.82
974.72	4954.04
974.88	5052.34
975.04	5033.91
975.20	5025.72
975.37	5058.48
975.53	4820.92
975.69	4890.55
975.85	4951.99
976.01	4851.64
976.18	4771.77
976.34	4976.56
976.50	4997.04
976.66	4949.94
976.83	4806.58
976.99	4833.21
977.15	4792.25
977.31	4730.81
977.47	4845.49
977.64	4849.59
977.80	4767.67
977.96	4747.19
978.12	4841.40
978.29	4646.84
978.45	4587.45
978.61	4593.59
978.77	4806.58
978.93	4554.68
979.10	4714.42
979.26	4800.44
979.42	4749.24
979.58	4425.66
979.74	4722.62
979.91	4595.64
980.07	4419.52
980.23	4591.55
980.39	4603.83
980.55	4575.16
980.71	4657.08
980.88	4456.38
981.04	4476.86
981.20	4560.83
981.36	4569.02
981.52	4446.14
981.68	4505.53
981.85	4552.63
982.01	4515.77
982.17	4294.59
982.33	4550.59
982.49	4495.29
982.65	4366.27
982.82	4521.92
982.98	4374.46
983.14	4267.97
983.30	4532.15
983.46	4571.07
983.62	4464.57
983.79	4442.04
983.95	4315.07
984.11	4286.40
984.27	4536.25
984.43	4290.49
984.59	4335.55
984.75	4321.21
984.91	4360.13
985.08	4382.65
985.24	4237.25
985.40	4218.82
985.56	4257.73
985.72	4270.01
985.88	4267.97
986.04	4198.34
986.20	4050.88
986.37	4192.19
986.53	4073.41
986.69	4155.33
986.85	4159.42
987.01	4192.19
987.17	4147.14
987.33	4270.01
987.49	4124.61
987.65	4110.27
987.82	4116.42
987.98	4034.50
988.14	4030.40
988.30	4044.74
988.46	3872.71
988.62	4077.51
988.78	4050.88
988.94	3977.16
989.10	3864.52
989.26	3887.04
989.42	3995.59
989.59	3796.93
989.75	3899.33
989.91	3966.92
990.07	3856.33
990.23	3782.60
990.39	4007.87
990.55	3817.41
990.71	3862.47
990.87	3938.24
991.03	3872.71
991.19	3796.93
991.35	3823.56
991.51	3821.51
991.67	3798.98
991.83	3770.31
992.00	3866.56
992.16	3755.97
992.32	3850.18
992.48	3839.94
992.64	3764.17
992.80	3801.03
992.96	3753.93
993.12	3772.36
993.28	3639.24
993.44	3782.60
993.60	3710.92
993.76	3715.02
993.92	3774.41
994.08	3737.54
994.24	3755.97
994.40	3647.43
994.56	3706.82
994.72	3557.32
994.88	3665.86
995.04	3499.98
995.20	3600.33
995.36	3434.44
995.52	3532.75
995.68	3575.75
995.84	3565.51
996.00	3721.16
996.16	3592.14
996.32	3530.70
996.48	3514.31
996.64	3747.78
996.80	3459.02
996.96	3536.84
997.12	3465.16
997.28	3489.74
997.44	3377.10
997.60	3489.74
997.76	3461.07
997.92	3495.88
998.08	3473.36
998.24	3409.87
998.40	3442.64
998.56	3442.64
998.72	3354.57
998.88	3276.75
999.04	3471.31
999.20	3442.64
999.36	3411.92
999.52	3430.35
999.68	3393.48
999.84	3348.43
1000.00	3413.96
1000.16	3286.99
1000.32	3198.93
1000.48	3499.98
1000.64	3274.70
1000.80	3291.09
1000.95	3223.50
1001.11	3327.95
1001.27	3213.26
1001.43	3401.68
1001.59	3135.44
1001.75	3237.84
1001.91	3248.08
1002.07	3233.74
1002.23	3117.01
1002.39	3200.98
1002.55	3096.53
1002.71	3149.78
1002.87	3219.41
1003.03	3112.91
1003.19	3059.67
1003.34	3336.14
1003.50	3217.36
1003.66	3180.50
1003.82	3164.11
1003.98	3108.82
1004.14	3235.79
1004.30	3108.82
1004.46	2940.88
1004.62	3045.33
1004.78	3069.91
1004.94	3033.04
1005.09	3278.80
1005.25	3131.34
1005.41	3049.43
1005.57	3026.90
1005.73	3110.86
1005.89	2957.27
1006.05	3055.57
1006.21	3006.42
1006.37	2967.51
1006.52	2969.55
1006.68	2920.40
1006.84	3055.57
1007.00	3026.90
1007.16	3028.95
1007.32	2959.31
1007.48	2944.98
1007.64	3080.14
1007.79	2987.99
1007.95	2793.43
1008.11	2912.21
1008.27	2920.40
1008.43	2930.64
1008.59	2938.84
1008.75	2998.23
1008.91	2885.59
1009.06	2875.35
1009.22	2904.02
1009.38	2885.59
1009.54	2830.29
1009.70	2899.92
1009.86	2820.05
1010.01	2869.20
1010.17	2777.05
1010.33	2805.72
1010.49	2797.53
1010.65	2877.40
1010.81	2764.76
1010.96	2779.09
1011.12	2826.20
1011.28	2754.52
1011.44	2848.72
1011.60	2705.37
1011.76	2695.13
1011.91	2844.63
1012.07	2756.57
1012.23	2643.93
1012.39	2627.54
1012.55	2729.94
1012.71	2619.35
1012.86	2680.79
1013.02	2684.89
1013.18	2629.59
1013.34	2803.67
1013.50	2715.61
1013.65	2656.22
1013.81	2623.45
1013.97	2562.01
1014.13	2746.33
1014.29	2754.52
1014.44	2674.65
1014.60	2580.44
1014.76	2621.40
1014.92	2598.87
1015.07	2662.36
1015.23	2664.41
1015.39	2566.10
1015.55	2453.47
1015.71	2596.82
1015.86	2494.43
1016.02	2480.09
1016.18	2590.68
1016.34	2594.78
1016.49	2512.86
1016.65	2584.54
1016.81	2516.95
1016.97	2504.67
1017.12	2508.76
1017.28	2467.80
1017.44	2494.43
1017.60	2435.03
1017.75	2398.17
1017.91	2500.57
1018.07	2527.19
1018.23	2471.90
1018.38	2439.13
1018.54	2494.43
1018.70	2502.62
1018.86	2457.56
1019.01	2394.08
1019.17	2459.61
1019.33	2488.28
1019.49	2418.65
1019.64	2459.61
1019.80	2486.23
1019.96	2437.08
1020.12	2459.61
1020.27	2310.11
1020.43	2314.20
1020.59	2344.92
1020.74	2336.73
1020.90	2342.88
1021.06	2371.55
1021.22	2437.08
1021.37	2396.12
1021.53	2248.67
1021.69	2324.44
1021.84	2271.20
1022.00	2342.88
1022.16	2326.49
1022.31	2334.68
1022.47	2371.55
1022.63	2367.45
1022.79	2277.34
1022.94	2314.20
1023.10	2383.84
1023.26	2306.01
1023.41	2193.37
1023.57	2267.10
1023.73	2316.25
1023.88	2246.62
1024.04	2240.48
1024.20	2351.07
1024.35	2351.07
1024.51	2260.96
1024.67	2238.43
1024.82	2277.34
1024.98	2234.33
1025.14	2373.60
1025.29	2164.70
1025.45	2332.64
1025.61	2162.66
1025.76	2217.95
1025.92	2240.48
1026.08	2279.39
1026.23	2279.39
1026.39	2248.67
1026.55	2254.81
1026.70	2207.71
1026.86	2136.03
1027.02	2131.94
1027.17	2256.86
1027.33	2238.43
1027.48	2150.37
1027.64	2191.33
1027.80	2144.22
1027.95	2195.42
1028.11	2150.37
1028.27	2195.42
1028.42	2240.48
1028.58	2170.85
1028.73	2150.37
1028.89	2004.96
1029.05	2295.77
1029.20	2158.56
>>>>>End Processed Spectral Data<<<<<
