SpectraSuite Data File
++++++++++++++++++++++++++++++++++++
Date: Fri Jun 02 14:52:28 CEST 2017
User: INFO_000
Dark Spectrum Present: No
Reference Spectrum Present: No
Number of Sampled Component Spectra: 1
Spectrometers: USB4H00879
Integration Time (usec): 80000 (USB4H00879)
Spectra Averaged: 1 (USB4H00879)
Boxcar Smoothing: 0 (USB4H00879)
Correct for Electrical Dark: No (USB4H00879)
Strobe/Lamp Enabled: No (USB4H00879)
Correct for Detector Non-linearity: No (USB4H00879)
Correct for Stray Light: No (USB4H00879)
Number of Pixels in Processed Spectrum: 3648
>>>>>Begin Processed Spectral Data<<<<<
345.13	1282.03
345.34	1282.03
345.56	1282.03
345.78	1259.50
345.99	1277.93
346.21	1695.72
346.42	1769.44
346.64	1601.51
346.86	1851.36
347.07	1671.14
347.29	1744.87
347.50	1607.66
347.72	1722.34
347.94	1757.16
348.15	1583.08
348.37	1589.22
348.59	1701.86
348.80	1669.09
349.02	1796.07
349.23	1910.75
349.45	1839.08
349.67	1904.61
349.88	1802.21
350.10	1990.63
350.31	1845.22
350.53	1781.73
350.75	1943.52
350.96	1781.73
351.18	1877.99
351.39	1826.79
351.61	1812.45
351.82	1865.70
352.04	1972.19
352.26	1810.40
352.47	1871.84
352.69	1859.56
352.90	1785.83
353.12	1843.17
353.34	1843.17
353.55	2027.49
353.77	1908.71
353.98	1855.46
354.20	1843.17
354.41	1949.67
354.63	1884.13
354.85	2088.93
355.06	1929.19
355.28	1837.03
355.49	1916.90
355.71	1929.19
355.92	1863.65
356.14	1937.38
356.35	1875.94
356.57	1814.50
356.79	1943.52
357.00	1902.56
357.22	1974.24
357.43	1918.95
357.65	1986.53
357.86	1923.04
358.08	1955.81
358.29	2002.91
358.51	2009.06
358.72	1990.63
358.94	1927.14
359.16	2004.96
359.37	1855.46
359.59	1957.86
359.80	1955.81
360.02	1951.71
360.23	1918.95
360.45	2066.40
360.66	1869.80
360.88	1906.66
361.09	1933.28
361.31	1882.08
361.52	1996.77
361.74	1998.82
361.95	2103.26
362.17	1937.38
362.38	2121.70
362.60	2078.69
362.81	1961.95
363.03	1916.90
363.24	1949.67
363.46	2068.45
363.67	2076.64
363.89	1990.63
364.10	1994.72
364.32	2004.96
364.53	2088.93
364.75	1839.08
364.96	2027.49
365.18	2029.54
365.39	2011.11
365.61	1966.05
365.82	2158.56
366.04	2009.06
366.25	1914.85
366.47	2103.26
366.68	2058.21
366.90	2023.39
367.11	2127.84
367.33	2019.30
367.54	2076.64
367.76	2025.44
367.97	2154.46
368.19	2064.35
368.40	2168.80
368.62	1998.82
368.83	2035.68
369.05	2056.16
369.26	1980.39
369.48	2037.73
369.69	2031.58
369.91	2101.22
370.12	1953.76
370.33	2101.22
370.55	2050.02
370.76	2011.11
370.98	2183.13
371.19	2047.97
371.41	2027.49
371.62	2050.02
371.84	2105.31
372.05	2168.80
372.27	2133.98
372.48	2170.85
372.69	2131.94
372.91	2174.94
373.12	2131.94
373.34	2068.45
373.55	2174.94
373.77	2127.84
373.98	2138.08
374.20	2236.38
374.41	2254.81
374.62	2240.48
374.84	2185.18
375.05	2084.83
375.27	2113.50
375.48	2224.09
375.70	2207.71
375.91	2224.09
376.12	2297.82
376.34	2187.23
376.55	2183.13
376.77	2174.94
376.98	2142.18
377.19	2140.13
377.41	2197.47
377.62	2224.09
377.84	2242.53
378.05	2308.06
378.27	2215.90
378.48	2263.01
378.69	2359.26
378.91	2277.34
379.12	2283.49
379.34	2265.05
379.55	2324.44
379.76	2387.93
379.98	2222.05
380.19	2197.47
380.41	2346.97
380.62	2312.16
380.83	2283.49
381.05	2234.33
381.26	2351.07
381.47	2275.29
381.69	2367.45
381.90	2365.40
382.12	2308.06
382.33	2328.54
382.54	2207.71
382.76	2387.93
382.97	2435.03
383.19	2191.33
383.40	2394.08
383.61	2336.73
383.83	2297.82
384.04	2363.36
384.25	2426.84
384.47	2420.70
384.68	2447.32
384.89	2349.02
385.11	2269.15
385.32	2449.37
385.54	2416.60
385.75	2344.92
385.96	2381.79
386.18	2373.60
386.39	2498.52
386.60	2340.83
386.82	2373.60
387.03	2461.66
387.24	2502.62
387.46	2453.47
387.67	2451.42
387.88	2525.15
388.10	2475.99
388.31	2410.46
388.52	2676.70
388.74	2527.19
388.95	2568.15
389.16	2574.30
389.38	2459.61
389.59	2645.98
389.80	2715.61
390.02	2525.15
390.23	2707.41
390.44	2574.30
390.66	2568.15
390.87	2508.76
391.08	2660.31
391.30	2705.37
391.51	2670.55
391.72	2731.99
391.94	2652.12
392.15	2639.83
392.36	2635.74
392.58	2648.02
392.79	2705.37
393.00	2731.99
393.22	2723.80
393.43	2891.73
393.64	2811.86
393.85	2791.38
394.07	2775.00
394.28	2803.67
394.49	2770.90
394.71	2793.43
394.92	2891.73
395.13	2754.52
395.35	2762.71
395.56	2772.95
395.77	2781.14
395.98	2889.68
396.20	2969.55
396.41	2895.83
396.62	2969.55
396.84	2844.63
397.05	2951.12
397.26	2889.68
397.47	3094.48
397.69	2783.19
397.90	2957.27
398.11	2916.31
398.32	3033.04
398.54	2957.27
398.75	2873.30
398.96	2971.60
399.18	3100.62
399.39	3067.86
399.60	3121.10
399.81	3012.56
400.03	3026.90
400.24	3211.22
400.45	2998.23
400.66	3063.76
400.88	3065.81
401.09	3184.59
401.30	3082.19
401.51	3084.24
401.73	3135.44
401.94	3182.54
402.15	3110.86
402.36	3149.78
402.58	3254.22
402.79	3217.36
403.00	3252.17
403.21	3188.69
403.43	3286.99
403.64	3362.76
403.85	3096.53
404.06	3284.94
404.27	3190.74
404.49	3266.51
404.70	3233.74
404.91	3430.35
405.12	3280.85
405.34	3280.85
405.55	3344.33
405.76	3131.34
405.97	3243.98
406.19	3520.46
406.40	3235.79
406.61	3379.15
406.82	3391.44
407.03	3295.18
407.25	3383.24
407.46	3375.05
407.67	3442.64
407.88	3518.41
408.09	3385.29
408.31	3307.47
408.52	3485.64
408.73	3448.78
408.94	3399.63
409.15	3469.26
409.37	3579.85
409.58	3377.10
409.79	3561.42
410.00	3563.47
410.21	3530.70
410.43	3565.51
410.64	3551.18
410.85	3510.22
411.06	3514.31
411.27	3585.99
411.48	3506.12
411.70	3631.05
411.91	3684.30
412.12	3622.86
412.33	3645.38
412.54	3704.78
412.76	3633.10
412.97	3737.54
413.18	3610.57
413.39	3624.90
413.60	3629.00
413.81	3727.30
414.03	3676.10
414.24	3590.09
414.45	3887.04
414.66	3575.75
414.87	3733.45
415.08	3702.73
415.30	3749.83
415.51	3807.17
415.72	3717.06
415.93	3862.47
416.14	3891.14
416.35	3835.85
416.56	3848.13
416.78	3885.00
416.99	3831.75
417.20	3885.00
417.41	3960.77
417.62	3950.53
417.83	4067.27
418.04	3954.63
418.26	4005.83
418.47	3925.96
418.68	4054.98
418.89	4011.97
419.10	4173.76
419.31	4065.22
419.52	4147.14
419.73	4014.02
419.95	4198.34
420.16	3981.25
420.37	4122.56
420.58	4130.75
420.79	4063.17
421.00	4140.99
421.21	4270.01
421.42	4241.34
421.63	4286.40
421.85	4212.67
422.06	4270.01
422.27	4239.30
422.48	4296.64
422.69	4263.87
422.90	4476.86
423.11	4310.97
423.32	4360.13
423.53	4548.54
423.75	4474.81
423.96	4634.55
424.17	4452.28
424.38	4480.96
424.59	4458.43
424.80	4669.37
425.01	4454.33
425.22	4534.20
425.43	4548.54
425.64	4605.88
425.85	4857.78
426.06	4655.03
426.28	4728.76
426.49	4392.89
426.70	4640.70
426.91	4771.77
427.12	4677.56
427.33	4837.30
427.54	4722.62
427.75	4786.10
427.96	4851.64
428.17	4841.40
428.38	4958.13
428.59	4896.69
428.80	4843.45
429.01	4960.18
429.23	4911.03
429.44	5038.00
429.65	5136.31
429.86	5058.48
430.07	4806.58
430.28	5007.28
430.49	5121.97
430.70	5189.55
430.91	5242.80
431.12	5113.78
431.33	5349.29
431.54	5232.56
431.75	5240.75
431.96	5193.65
432.17	5169.07
432.38	5189.55
432.59	5480.36
432.80	5279.66
433.01	5255.09
433.22	5451.69
433.43	5287.86
433.64	5369.77
433.85	5437.36
434.06	5679.02
434.27	5431.21
434.49	5691.31
434.70	5511.08
434.91	5521.32
435.12	5666.73
435.33	5441.45
435.54	5556.14
435.75	5291.95
435.96	5648.30
436.17	5386.16
436.38	5519.28
436.59	5791.66
436.80	5642.15
437.01	5865.38
437.22	5875.62
437.43	5816.23
437.64	5550.00
437.85	5797.80
438.06	5849.00
438.27	5650.35
438.48	5676.97
438.69	5826.47
438.90	5918.63
439.11	5877.67
439.32	5957.54
439.53	5883.81
439.74	5906.34
439.95	5863.33
440.16	5916.58
440.37	5967.78
440.57	5838.76
440.78	6074.28
440.99	6004.64
441.20	5980.07
441.41	6080.42
441.62	6098.85
441.83	6035.36
442.04	6303.65
442.25	6104.99
442.46	6129.57
442.67	6215.59
442.88	6522.78
443.09	6092.71
443.30	6342.56
443.51	6193.06
443.72	6422.43
443.93	6225.82
444.14	6424.48
444.35	6254.50
444.56	6614.94
444.77	6465.44
444.98	6393.76
445.19	6324.13
445.40	6475.68
445.61	6506.40
445.81	6614.94
446.02	6580.12
446.23	6623.13
446.44	6453.15
446.65	6678.43
446.86	6569.88
447.07	6707.10
447.28	6924.18
447.49	6737.82
447.70	6772.63
447.91	6703.00
448.12	6694.81
448.33	6811.54
448.54	6770.58
448.74	6703.00
448.95	6930.33
449.16	6756.25
449.37	7034.77
449.58	6827.93
449.79	7071.64
450.00	6891.41
450.21	7067.54
450.42	7079.83
450.63	7194.51
450.84	7169.94
451.05	7239.57
451.25	7034.77
451.46	7032.72
451.67	7184.27
451.88	7419.79
452.09	7360.40
452.30	7217.04
452.51	7276.43
452.72	7497.61
452.93	7575.44
453.13	7415.69
453.34	7305.10
453.55	7344.02
453.76	7460.75
453.97	7796.62
454.18	7536.52
454.39	7683.98
454.60	7532.43
454.81	7571.34
455.01	7901.06
455.22	7581.58
455.43	7849.86
455.64	7911.30
455.85	7894.92
456.06	8155.01
456.27	8069.00
456.48	7819.14
456.68	8095.62
456.89	7966.60
457.10	8099.72
457.31	8169.35
457.52	8028.04
457.73	8253.31
457.94	8257.41
458.14	8212.35
458.35	8433.54
458.56	8451.97
458.77	8167.30
458.98	8413.06
459.19	8404.86
459.39	8466.30
459.60	8607.61
459.81	8460.16
460.02	8746.87
460.23	8660.86
460.44	8923.00
460.65	8826.75
460.85	8820.60
461.06	8949.62
461.27	8824.70
461.48	8955.77
461.69	9013.11
461.89	8755.07
462.10	9181.04
462.31	8937.34
462.52	9070.45
462.73	9111.41
462.94	9322.35
463.14	9348.98
463.35	9207.67
463.56	9705.32
463.77	9576.30
463.98	9478.00
464.18	9404.27
464.39	9772.91
464.60	9738.09
464.81	9836.39
465.02	9875.31
465.23	10024.81
465.43	9828.20
465.64	10041.19
465.85	10127.21
466.06	9836.39
466.27	10305.38
466.47	10141.54
466.68	10184.55
466.89	10069.86
467.10	10342.24
467.30	10094.44
467.51	10268.52
467.72	10653.53
467.93	10295.14
468.14	10622.81
468.34	10760.03
468.55	10686.30
468.76	10661.73
468.97	10659.68
469.17	10860.38
469.38	10952.54
469.59	11163.48
469.80	10704.73
470.01	10977.11
470.21	11132.76
470.42	11444.05
470.63	11380.56
470.84	11302.74
471.04	11470.67
471.25	11532.11
471.46	11562.83
471.67	11921.23
471.87	11681.61
472.08	11931.47
472.29	12058.44
472.50	11718.48
472.70	12046.15
472.91	12095.30
473.12	12359.49
473.33	12023.62
473.53	12445.51
473.74	12361.54
473.95	12576.58
474.16	12691.26
474.36	12603.20
474.57	12631.87
474.78	13188.92
474.99	12912.44
475.19	12818.24
475.40	13182.77
475.61	13254.45
475.81	13387.57
476.02	13573.94
476.23	13168.44
476.44	13526.83
476.64	13608.75
476.85	13713.20
477.06	13799.21
477.27	14018.35
477.47	13961.00
477.68	14049.07
477.89	14264.10
478.09	14298.92
478.30	14141.22
478.51	14380.84
478.71	14372.64
478.92	14669.60
479.13	14739.23
479.34	15202.07
479.54	14653.22
479.75	15114.01
479.96	15042.33
480.16	15114.01
480.37	14886.68
480.58	15283.99
480.78	15505.17
480.99	15746.83
481.20	15703.82
481.41	15570.71
481.61	16019.21
481.82	16146.19
482.03	15630.10
482.23	15955.72
482.44	16117.51
482.65	16217.86
482.85	16404.23
483.06	16301.83
483.27	16373.51
483.47	16760.58
483.68	16664.32
483.89	16920.32
484.09	16748.29
484.30	16903.93
484.51	17073.92
484.71	17422.07
484.92	17145.59
485.13	17094.40
485.33	17207.03
485.54	17428.21
485.75	17819.38
485.95	17897.20
486.16	17706.74
486.37	18022.12
486.57	17866.48
486.78	17950.45
486.98	17919.73
487.19	18083.56
487.40	18042.60
487.60	18284.26
487.81	18398.95
488.02	18513.64
488.22	18517.73
488.43	18700.00
488.64	18743.01
488.84	18788.07
489.05	19054.30
489.25	19064.54
489.46	19558.10
489.67	19267.29
489.87	19316.44
490.08	19541.72
490.29	19322.59
490.49	19803.86
490.70	19707.60
490.90	19840.72
491.11	19578.58
491.32	19969.74
491.52	20096.72
491.73	20199.12
491.94	20195.02
492.14	20172.49
492.35	20586.18
492.55	20354.76
492.76	20739.78
492.97	20817.60
493.17	20731.59
493.38	20899.52
493.58	21055.17
493.79	20883.14
494.00	20993.73
494.20	21044.93
494.41	21438.14
494.61	21194.43
494.82	21280.44
495.02	21485.24
495.23	21522.10
495.44	21601.97
495.64	21831.35
495.85	21788.34
496.05	21821.11
496.26	21802.68
496.47	22093.49
496.67	22083.25
496.88	22167.21
497.08	21999.28
497.29	22605.48
497.49	22398.63
497.70	22679.21
497.91	22570.66
498.11	22722.21
498.32	22664.87
498.52	22666.92
498.73	22910.63
498.93	23051.94
499.14	23133.86
499.34	22970.02
499.55	23525.02
499.76	23295.64
499.96	23203.49
500.17	23348.89
500.37	23555.74
500.58	23498.39
500.78	23807.64
500.99	23641.75
501.19	24112.78
501.40	23885.46
501.60	23697.05
501.81	23686.81
502.02	23871.12
502.22	23701.14
502.43	24221.33
502.63	24311.44
502.84	24325.77
503.04	24600.20
503.25	24436.36
503.45	24487.56
503.66	25202.30
503.86	24594.06
504.07	24964.74
504.27	24620.68
504.48	25147.01
504.68	25296.51
504.89	25292.41
505.09	25271.93
505.30	25321.09
505.50	25222.78
505.71	25249.41
505.91	25648.76
506.12	25673.34
506.32	25288.32
506.53	25681.53
506.73	25366.14
506.94	25697.91
507.14	25505.40
507.35	25878.13
507.55	25919.09
507.76	26146.42
507.96	25937.52
508.17	25753.21
508.37	26091.12
508.58	25947.76
508.78	26371.69
508.99	26244.72
509.19	26205.81
509.40	26234.48
509.60	26527.34
509.81	26617.45
510.01	26363.50
510.22	26453.61
510.42	26826.34
510.63	27119.20
510.83	26910.31
511.04	26846.82
511.24	27334.24
511.44	26736.23
511.65	27010.66
511.85	27000.42
512.06	27035.24
512.26	27182.69
512.47	27137.63
512.67	27276.90
512.88	27475.55
513.08	27508.32
513.29	27371.10
513.49	27348.57
513.69	27434.59
513.90	27477.60
514.10	27868.76
514.31	28255.82
514.51	27928.15
514.72	27883.09
514.92	28202.58
515.13	28284.50
515.33	28171.86
515.53	28171.86
515.74	28319.31
515.94	28110.42
516.15	28319.31
516.35	28425.81
516.56	28659.27
516.76	28606.03
516.96	28806.73
517.17	29095.49
517.37	28628.56
517.58	28862.02
517.78	28808.78
517.99	28982.85
518.19	29107.78
518.39	29351.49
518.60	28937.80
518.80	29169.22
519.01	29431.36
519.21	29378.11
519.41	29277.76
519.62	29441.60
519.82	29562.43
520.03	29853.24
520.23	29732.41
520.43	29718.07
520.64	30109.24
520.84	30055.99
521.05	30035.51
521.25	30172.72
521.45	30150.20
521.66	30527.02
521.86	30268.98
522.07	30213.68
522.27	30619.18
522.47	30518.83
522.68	30787.11
522.88	30713.39
523.08	31106.60
523.29	30922.28
523.49	30860.84
523.70	31120.93
523.90	31082.02
524.10	31237.67
524.31	31252.00
524.51	31206.95
524.71	31925.78
524.92	31548.96
525.12	31718.94
525.33	31585.82
525.53	32028.18
525.73	31915.54
525.94	32171.54
526.14	32034.33
526.34	32030.23
526.55	32425.49
526.75	32349.71
526.95	32542.22
527.16	32538.13
527.36	32558.61
527.56	32734.73
527.77	32982.54
527.97	32579.09
528.17	33033.74
528.38	32792.08
528.58	33117.70
528.78	33236.48
528.99	33244.68
529.19	33150.47
529.39	33220.10
529.60	33650.17
529.80	33420.80
530.00	33394.18
530.21	33793.53
530.41	33807.87
530.61	33961.47
530.82	33986.04
531.02	33990.14
531.22	34328.05
531.43	34133.50
531.63	34409.97
531.83	34708.97
532.04	34989.55
532.24	34309.62
532.44	35116.52
532.64	34993.64
532.85	34919.92
533.05	34883.05
533.25	34829.80
533.46	35057.13
533.66	35395.04
533.86	35204.58
534.07	35876.32
534.27	35569.12
534.47	35751.39
534.67	35843.55
534.88	35986.91
535.08	36015.58
535.28	36083.16
535.49	36269.53
535.69	36310.49
535.89	36570.58
536.09	36195.80
536.30	36492.76
536.50	36754.90
536.70	36857.29
536.91	36734.42
537.11	36859.34
537.31	37262.79
537.51	36873.68
537.72	37373.38
537.92	37357.00
538.12	37479.88
538.32	37430.72
538.53	37420.48
538.73	37285.32
538.93	37791.17
539.13	37504.45
539.34	37776.83
539.54	37946.81
539.74	38110.65
539.94	37889.47
540.15	37883.33
540.35	38434.23
540.55	38172.09
540.75	38440.37
540.96	38245.82
541.16	38391.22
541.36	38479.28
541.56	38577.59
541.77	38614.45
541.97	38874.54
542.17	38884.78
542.37	38694.32
542.58	38927.79
542.78	39153.07
542.98	38856.11
543.18	39181.74
543.38	39255.46
543.59	39452.07
543.79	39493.03
543.99	38962.61
544.19	39749.03
544.40	39548.32
544.60	40265.11
544.80	39671.20
545.00	39994.78
545.20	40002.97
545.41	40070.56
545.61	40019.36
545.81	40015.26
546.01	40299.93
546.21	40031.65
546.42	39984.54
546.62	40244.63
546.82	40353.18
547.02	40625.56
547.22	40541.59
547.43	40088.99
547.63	40633.75
547.83	40897.94
548.03	40441.24
548.23	40562.07
548.44	40592.79
548.64	40859.02
548.84	40904.08
549.04	40766.87
549.24	41190.80
549.45	40938.90
549.65	41039.25
549.85	40906.13
550.05	41047.44
550.25	41203.08
550.45	42048.89
550.66	41194.89
550.86	41151.88
551.06	41463.18
551.26	41567.62
551.46	41760.13
551.66	41366.92
551.87	41303.43
552.07	41764.23
552.27	41698.69
552.47	41893.25
552.67	41885.06
552.87	41637.25
553.07	41911.68
553.28	42245.50
553.48	42108.29
553.68	41930.11
553.88	42681.72
554.08	41997.70
554.28	42182.01
554.48	42102.14
554.69	42368.38
554.89	42134.91
555.09	42157.44
555.29	41934.21
555.49	42607.99
555.69	42499.45
555.89	42667.38
556.10	42958.19
556.30	42132.86
556.50	42759.54
556.70	42438.01
556.90	42505.59
557.10	42749.30
557.30	42898.80
557.50	42751.35
557.70	42614.13
557.91	43005.30
558.11	42677.62
558.31	42966.38
558.51	43040.11
558.71	42888.56
558.91	42962.29
559.11	42857.84
559.31	43058.54
559.51	42911.09
559.72	43087.21
559.92	43122.03
560.12	43050.35
560.32	43548.01
560.52	43054.45
560.72	43410.79
560.92	43394.41
561.12	43238.76
561.32	43914.59
561.52	43214.19
561.72	43754.85
561.93	43273.58
562.13	43580.78
562.33	43263.34
562.53	43939.17
562.73	43580.78
562.93	43470.18
563.13	43994.46
563.33	43672.93
563.53	43961.70
563.73	43451.75
563.93	44074.34
564.13	44113.25
564.33	44088.67
564.53	43695.46
564.74	44209.50
564.94	43480.42
565.14	44164.45
565.34	43652.45
565.54	43976.03
565.74	43971.94
565.94	44381.53
566.14	43924.83
566.34	43699.56
566.54	44625.24
566.74	44121.44
566.94	44510.55
567.14	44330.33
567.34	43832.68
567.54	44666.20
567.74	44539.22
567.94	44350.81
568.14	44729.69
568.34	44668.25
568.54	44559.70
568.74	44539.22
568.94	44647.77
569.14	44467.55
569.34	44473.69
569.54	44823.89
569.75	44320.09
569.95	44676.44
570.15	45188.43
570.35	45296.97
570.55	45114.70
570.75	44807.51
570.95	45063.50
571.15	44830.04
571.35	45077.84
571.55	45290.83
571.75	44987.73
571.95	45100.37
572.15	44952.91
572.35	45456.71
572.55	45428.04
572.75	44995.92
572.95	45317.45
573.15	45325.64
573.35	45172.05
573.55	45323.60
573.75	45694.28
573.95	45638.98
574.15	45086.03
574.35	45772.10
574.55	45710.66
574.75	45548.87
574.95	46073.15
575.15	45614.41
575.34	45972.80
575.54	45948.23
575.74	46062.91
575.94	46282.05
576.14	45942.08
576.34	46282.05
576.54	46462.27
576.74	46337.34
576.94	46120.26
577.14	46839.09
577.34	46685.50
577.54	46388.54
577.74	46802.23
577.94	46245.18
578.14	46572.86
578.34	46816.57
578.54	46259.52
578.74	46914.87
578.94	46878.00
579.14	46806.33
579.34	46884.15
579.54	46837.05
579.74	47617.32
579.94	46896.44
580.13	47559.98
580.33	47072.56
580.53	47465.77
580.73	47060.27
580.93	47654.18
581.13	47439.15
581.33	47727.91
581.53	47656.23
581.73	48078.11
581.93	47748.39
582.13	47682.86
582.33	48475.42
582.53	47809.83
582.73	48012.58
582.92	47742.25
583.12	48176.42
583.32	47858.98
583.52	48086.31
583.72	48346.40
583.92	47963.43
584.12	48495.90
584.32	48870.68
584.52	48272.67
584.72	48188.70
584.92	48559.39
585.11	48858.39
585.31	48547.10
585.51	48960.79
585.71	48510.24
585.91	49120.53
586.11	48600.35
586.31	48958.74
586.51	48753.94
586.71	48944.41
586.91	49247.50
587.10	49044.76
587.30	49313.04
587.50	49523.98
587.70	49638.67
587.90	49440.01
588.10	49296.66
588.30	49712.39
588.50	49542.41
588.69	49427.73
588.89	49304.85
589.09	49622.28
589.29	49820.94
589.49	50537.72
589.69	49757.45
589.89	49941.77
590.08	49982.73
590.28	49892.61
590.48	50318.59
590.68	50003.20
590.88	50001.16
591.08	50160.90
591.28	49792.26
591.47	50511.10
591.67	50670.84
591.87	50267.39
592.07	50369.79
592.27	50550.01
592.47	50791.67
592.67	50588.92
592.86	50089.22
593.06	50879.74
593.26	50883.83
593.46	50652.41
593.66	50437.37
593.86	50973.94
594.05	51279.09
594.25	51014.90
594.45	50566.40
594.65	50783.48
594.85	50861.30
595.05	51383.54
595.24	51330.29
595.44	51070.20
595.64	51510.51
595.84	51213.55
596.04	51565.81
596.23	52085.99
596.43	52014.31
596.63	51305.71
596.83	51602.67
597.03	51918.06
597.22	52372.70
597.42	51797.23
597.62	52782.30
597.82	52301.03
598.02	52147.43
598.21	52757.72
598.41	52085.99
598.61	52116.71
598.81	52638.94
599.01	52075.75
599.20	51993.83
599.40	52145.38
599.60	52698.33
599.80	52552.93
600.00	52923.61
600.19	52618.46
600.39	52485.34
600.59	52868.31
600.79	52491.49
600.98	53085.40
601.18	53083.35
601.38	53116.12
601.58	53365.97
601.78	53241.04
601.97	53634.25
602.17	53765.32
602.37	53228.76
602.57	53290.19
602.76	53794.00
602.96	53359.83
603.16	53794.00
603.36	53566.67
603.55	54025.42
603.75	53523.66
603.95	54170.82
604.15	54162.63
604.34	53826.76
604.54	54271.17
604.74	54113.48
604.94	54576.32
605.13	54244.55
605.33	54097.09
605.53	54283.46
605.73	54914.23
605.92	54027.46
606.12	54600.89
606.32	55196.85
606.52	55080.12
606.71	54650.05
606.91	55065.78
607.11	54330.56
607.30	54793.40
607.50	54940.86
607.70	54957.24
607.90	54969.53
608.09	54947.00
608.29	55415.99
608.49	55364.79
608.68	55297.20
608.88	55487.67
609.08	55231.67
609.28	55379.12
609.47	54897.85
609.67	55643.31
609.87	55379.12
610.06	55612.59
610.26	55350.45
610.46	55442.61
610.66	55116.98
610.85	56071.34
611.05	55407.79
611.25	55862.44
611.44	55653.55
611.64	56013.99
611.84	56052.90
612.03	55405.75
612.23	55563.44
612.43	55766.19
612.62	55628.98
612.82	55839.92
613.02	56067.24
613.21	56030.38
613.41	55923.88
613.61	55948.46
613.80	55268.53
614.00	56161.45
614.20	55856.30
614.39	56050.86
614.59	56173.73
614.79	56196.26
614.98	55901.36
615.18	55932.07
615.38	56478.88
615.57	55731.37
615.77	55995.56
615.97	56634.53
616.16	56032.42
616.36	56169.64
616.56	55930.03
616.75	56302.76
616.95	55833.77
617.15	56204.45
617.34	55858.35
617.54	56394.92
617.74	56999.07
617.93	56057.00
618.13	55874.73
618.32	55977.13
618.52	56267.94
618.72	56491.17
618.91	56085.67
619.11	55674.03
619.31	55948.46
619.50	56222.89
619.70	56130.73
619.90	56061.10
620.09	56448.16
620.29	56384.68
620.48	56108.20
620.68	56810.65
620.88	55801.00
621.07	56081.58
621.27	56204.45
621.46	56143.02
621.66	56128.68
621.86	56392.87
622.05	55958.70
622.25	56786.08
622.44	56489.12
622.64	55854.25
622.84	56296.61
623.03	56177.83
623.23	56210.60
623.42	56026.28
623.62	55995.56
623.82	56448.16
624.01	56409.25
624.21	56087.72
624.40	55860.40
624.60	56417.44
624.80	55846.06
624.99	56083.62
625.19	55696.56
625.38	56536.23
625.58	56132.78
625.77	56489.12
625.97	56306.85
626.17	55696.56
626.36	55981.23
626.56	55993.51
626.75	55620.78
626.95	56534.18
627.14	56024.23
627.34	56882.33
627.54	56005.80
627.73	56296.61
627.93	56333.48
628.12	55860.40
628.32	56218.79
628.51	56521.89
628.71	56173.73
628.90	55891.12
629.10	55917.74
629.30	56085.67
629.49	56100.01
629.69	56034.47
629.88	55901.36
630.08	56343.72
630.27	56249.51
630.47	56208.55
630.66	56022.19
630.86	56384.68
631.05	55758.00
631.25	56767.65
631.44	55960.75
631.64	56278.18
631.84	56229.03
632.03	56450.21
632.23	56079.53
632.42	56448.16
632.62	55975.08
632.81	55950.51
633.01	55825.58
633.20	56376.48
633.40	56276.13
633.59	56226.98
633.79	55657.65
633.98	56423.59
634.18	56439.97
634.37	56474.79
634.57	55905.45
634.76	56589.47
634.96	56495.27
635.15	56020.14
635.35	55889.07
635.54	56079.53
635.74	56353.96
635.93	55983.27
636.13	56566.94
636.32	56245.41
636.52	55950.51
636.71	56239.27
636.91	55964.84
637.10	56261.80
637.30	56485.03
637.49	56018.09
637.69	56112.30
637.88	57009.31
638.08	56089.77
638.27	56325.28
638.46	55846.06
638.66	55667.89
638.85	56046.76
639.05	55825.58
639.24	55925.93
639.44	55964.84
639.63	56229.03
639.83	56128.68
640.02	56349.86
640.22	56360.10
640.41	56671.39
640.61	55528.62
640.80	56356.00
640.99	56419.49
641.19	56685.73
641.38	56583.33
641.58	56491.17
641.77	56229.03
641.97	56423.59
642.16	56700.06
642.36	56550.56
642.55	56497.31
642.74	55774.38
642.94	56652.96
643.13	56288.42
643.33	56360.10
643.52	57023.64
643.72	56386.72
643.91	56226.98
644.10	56431.78
644.30	56607.90
644.49	56222.89
644.69	56485.03
644.88	56466.59
645.08	56366.24
645.27	56620.19
645.46	56059.05
645.66	56751.26
645.85	55741.61
646.05	56620.19
646.24	56614.05
646.43	56245.41
646.63	56634.53
646.82	56890.52
647.02	56624.29
647.21	56575.14
647.40	56161.45
647.60	56884.38
647.79	56325.28
647.99	56499.36
648.18	56501.41
648.37	56652.96
648.57	56954.01
648.76	56558.75
648.96	56505.51
649.15	56802.46
649.34	56710.30
649.54	56874.14
649.73	56718.49
649.92	56794.27
650.12	57269.40
650.31	56898.72
650.51	56784.03
650.70	56800.41
650.89	56612.00
651.09	57027.74
651.28	56726.69
651.47	56847.52
651.67	56849.56
651.86	56562.85
652.06	56284.33
652.25	56738.97
652.44	56614.05
652.64	56655.01
652.83	56849.56
653.02	56057.00
653.22	56417.44
653.41	56722.59
653.60	56280.23
653.80	56339.62
653.99	56837.28
654.18	56648.86
654.38	56650.91
654.57	56603.81
654.76	56763.55
654.96	56212.65
655.15	56401.06
655.34	56683.68
655.54	56403.11
655.73	56431.78
655.92	56652.96
656.12	56677.54
656.31	56741.02
656.50	57091.22
656.70	56829.08
656.89	56468.64
657.08	57060.51
657.28	56816.80
657.47	56609.95
657.66	56820.89
657.86	56726.69
658.05	56464.55
658.24	56743.07
658.43	56310.95
658.63	56558.75
658.82	56982.68
659.01	56738.97
659.21	56489.12
659.40	56759.45
659.59	56657.06
659.79	56661.15
659.98	57013.40
660.17	56695.97
660.36	56693.92
660.56	56788.13
660.75	56941.72
660.94	56818.84
661.14	56548.51
661.33	56726.69
661.52	56245.41
661.71	56726.69
661.91	56341.67
662.10	56249.51
662.29	57066.65
662.49	56724.64
662.68	56775.84
662.87	56835.23
663.06	56929.44
663.26	56808.61
663.45	57210.01
663.64	56845.47
663.83	57326.74
664.03	56710.30
664.22	56818.84
664.41	56958.11
664.60	56612.00
664.80	56939.68
664.99	56550.56
665.18	56196.26
665.37	56904.86
665.57	57025.69
665.76	56657.06
665.95	56657.06
666.14	56464.55
666.34	56456.35
666.53	56640.67
666.72	56624.29
666.91	56556.70
667.11	56851.61
667.30	56714.40
667.49	56999.07
667.68	56890.52
667.87	56669.34
668.07	56495.27
668.26	56941.72
668.45	56530.08
668.64	56571.04
668.84	57093.27
669.03	57296.02
669.22	56581.28
669.41	56894.62
669.60	56997.02
669.80	56632.48
669.99	57218.20
670.18	56741.02
670.37	56829.08
670.57	57070.75
670.76	56730.78
670.95	56655.01
671.14	56710.30
671.33	56239.27
671.53	56988.83
671.72	56421.54
671.91	56536.23
672.10	57011.35
672.29	56603.81
672.48	56353.96
672.68	56954.01
672.87	56769.69
673.06	56345.76
673.25	56345.76
673.44	56474.79
673.64	56499.36
673.83	56173.73
674.02	56644.77
674.21	56237.22
674.40	56536.23
674.59	56282.28
674.79	56161.45
674.98	55889.07
675.17	56382.63
675.36	56128.68
675.55	55997.61
675.74	56116.39
675.94	55979.18
676.13	56384.68
676.32	56065.19
676.51	56857.76
676.70	56442.02
676.89	56278.18
677.08	56657.06
677.28	56188.07
677.47	56939.68
677.66	56648.86
677.85	56497.31
678.04	56743.07
678.23	56517.79
678.42	56673.44
678.62	56319.14
678.81	56276.13
679.00	56145.06
679.19	56997.02
679.38	56138.92
679.57	56030.38
679.76	56439.97
679.96	56276.13
680.15	56564.90
680.34	56188.07
680.53	55936.17
680.72	56521.89
680.91	56673.44
681.10	56298.66
681.29	56591.52
681.48	56175.78
681.68	56186.02
681.87	56366.24
682.06	55870.64
682.25	55807.15
682.44	55921.83
682.63	56396.96
682.82	55702.70
683.01	55858.35
683.20	55557.30
683.39	56214.69
683.59	56169.64
683.78	55450.80
683.97	55631.02
684.16	55680.17
684.35	56040.62
684.54	56210.60
684.73	55563.44
684.92	55565.49
685.11	55760.05
685.30	55893.16
685.49	56157.35
685.69	55772.33
685.88	55743.66
686.07	55686.32
686.26	55884.97
686.45	55899.31
686.64	55860.40
686.83	55764.14
687.02	55784.62
687.21	55596.21
687.40	55815.34
687.59	55850.16
687.78	55741.61
687.97	55747.76
688.16	56104.10
688.35	55678.13
688.54	55714.99
688.74	56007.85
688.93	55448.75
689.12	55194.81
689.31	55661.74
689.50	55846.06
689.69	55346.36
689.88	55350.45
690.07	55628.98
690.26	55338.16
690.45	55813.29
690.64	55475.38
690.83	55651.50
691.02	55377.08
691.21	55338.16
691.40	55252.15
691.59	55469.23
691.78	55381.17
691.97	55385.27
692.16	55497.91
692.35	55575.73
692.54	55571.63
692.73	55655.60
692.92	55522.48
693.11	55573.68
693.30	55270.58
693.49	54979.77
693.68	55284.92
693.87	54883.51
694.06	54942.91
694.25	55137.46
694.44	54707.39
694.63	55129.27
694.82	55461.04
695.01	55438.51
695.20	55057.59
695.39	54693.05
695.58	55114.94
695.77	55016.63
695.96	54695.10
696.15	55444.66
696.34	54965.43
696.53	55123.13
696.72	54930.62
696.91	54817.98
697.10	54762.68
697.29	54686.91
697.48	54877.37
697.67	54494.40
697.86	54645.95
698.05	54697.15
698.24	55227.57
698.43	54607.04
698.62	54668.48
698.81	54471.87
699.00	55272.63
699.19	54398.15
699.38	54908.09
699.57	54408.39
699.76	55239.86
699.95	54443.20
700.14	54492.35
700.32	54727.87
700.51	54367.43
700.70	54940.86
700.89	54740.16
701.08	54973.63
701.27	54281.41
701.46	54996.15
701.65	54099.14
701.84	54396.10
702.03	54844.60
702.22	54062.28
702.41	54516.93
702.60	54351.04
702.79	54056.14
702.98	53980.36
703.17	54338.75
703.35	53859.53
703.54	54398.15
703.73	54815.93
703.92	53914.83
704.11	54164.68
704.30	54121.67
704.49	53947.59
704.68	53888.20
704.87	53837.00
705.06	53513.42
705.25	54107.33
705.43	53644.49
705.62	54121.67
705.81	54088.90
706.00	53925.07
706.19	53091.54
706.38	53923.02
706.57	53787.85
706.76	53638.35
706.95	53404.88
707.14	53712.08
707.32	53671.12
707.51	53511.38
707.70	53785.80
707.89	53497.04
708.08	53939.40
708.27	53783.76
708.46	53890.25
708.65	53507.28
708.84	54107.33
709.02	53722.32
709.21	53396.69
709.40	53628.11
709.59	53892.30
709.78	53376.21
709.97	53978.31
710.16	53183.70
710.34	53564.62
710.53	53658.83
710.72	53255.38
710.91	53605.58
711.10	53408.98
711.29	53052.63
711.48	53325.01
711.66	53146.84
711.85	53015.77
712.04	53142.74
712.23	53177.56
712.42	52905.18
712.61	53419.22
712.80	53241.04
712.98	53093.59
713.17	52659.42
713.36	53112.02
713.55	53136.60
713.74	53052.63
713.93	53161.17
714.11	53169.36
714.30	52860.12
714.49	53019.86
714.68	53101.78
714.87	52929.75
715.06	53261.52
715.24	52790.49
715.43	53056.73
715.62	52503.77
715.81	52624.60
716.00	52866.27
716.18	52428.00
716.37	52640.99
716.56	52456.67
716.75	52843.74
716.94	52634.84
717.12	51995.88
717.31	52153.57
717.50	52131.04
717.69	52059.37
717.88	52294.88
718.06	51920.10
718.25	52835.55
718.44	51803.37
718.63	52303.07
718.82	51956.97
719.00	52272.35
719.19	51797.23
719.38	52049.13
719.57	51797.23
719.76	51610.86
719.94	51356.91
720.13	52018.41
720.32	51475.69
720.51	51545.33
720.69	51703.02
720.88	51643.63
721.07	51623.15
721.26	51160.31
721.44	51084.53
721.63	51303.67
721.82	50760.95
722.01	50898.17
722.20	51064.05
722.38	50904.31
722.57	50640.12
722.76	51049.72
722.95	50984.18
723.13	50687.23
723.32	50771.19
723.51	50590.97
723.70	50275.58
723.88	50437.37
724.07	50568.44
724.26	50654.46
724.44	49954.05
724.63	50464.00
724.82	50154.75
725.01	50310.40
725.19	50674.94
725.38	50208.00
725.57	50189.57
725.76	50930.93
725.94	50271.49
726.13	50027.78
726.32	50539.77
726.51	50369.79
726.69	50459.90
726.88	50529.53
727.07	50124.04
727.25	49911.05
727.44	50083.08
727.63	50023.68
727.82	50208.00
728.00	50156.80
728.19	50048.26
728.38	50476.29
728.56	49585.42
728.75	50121.99
728.94	50205.95
729.12	49886.47
729.31	50144.51
729.50	49915.14
729.69	50144.51
729.87	50242.82
730.06	49808.65
730.25	49992.97
730.43	50285.82
730.62	49947.91
730.81	49949.96
730.99	49773.83
731.18	50320.64
731.37	49841.42
731.55	50140.42
731.74	50529.53
731.93	50394.37
732.11	50195.71
732.30	49921.29
732.49	49550.60
732.67	50060.55
732.86	49730.83
733.05	49960.20
733.23	49550.60
733.42	49573.13
733.61	49509.64
733.79	49804.55
733.98	49714.44
734.17	49927.43
734.35	49601.80
734.54	49653.00
734.73	50203.91
734.91	49702.15
735.10	49577.23
735.29	49947.91
735.47	49399.05
735.66	49722.63
735.84	49581.32
736.03	49009.94
736.22	49741.06
736.40	49618.19
736.59	49564.94
736.78	49081.62
736.96	49771.78
737.15	48907.54
737.33	49313.04
737.52	49253.65
737.71	49163.54
737.89	49247.50
738.08	48874.77
738.27	49222.93
738.45	49464.59
738.64	49224.98
738.82	49112.34
739.01	49052.95
739.20	49147.15
739.38	49235.22
739.57	49167.63
739.75	49327.38
739.94	49411.34
740.13	48878.87
740.31	48790.81
740.50	49558.80
740.68	48723.22
740.87	49007.89
741.06	48979.22
741.24	49263.89
741.43	48633.11
741.61	48913.69
741.80	48774.42
741.99	48391.45
742.17	48508.19
742.36	48321.82
742.54	48207.14
742.73	48543.00
742.91	49085.72
743.10	48682.27
743.29	48344.35
743.47	48704.79
743.66	48266.53
743.84	48444.70
744.03	48407.84
744.21	48305.44
744.40	48829.72
744.59	48444.70
744.77	48411.93
744.96	48274.72
745.14	48508.19
745.33	48469.28
745.51	48117.03
745.70	48370.97
745.88	48409.89
746.07	48203.04
746.26	47828.26
746.44	47775.02
746.63	47998.24
746.81	47684.90
747.00	47590.70
747.18	48084.26
747.37	47736.10
747.55	48248.10
747.74	48055.59
747.92	47854.89
748.11	47781.16
748.29	47719.72
748.48	47895.85
748.66	47476.01
748.85	47260.97
749.03	47265.07
749.22	47863.08
749.41	47314.22
749.59	47349.04
749.78	47328.56
749.96	47004.98
750.15	46843.19
750.33	47408.43
750.52	47234.35
750.70	47144.24
750.89	47461.68
751.07	46812.47
751.26	47021.36
751.44	47035.70
751.63	47033.65
751.81	46908.72
752.00	47029.55
752.18	46830.90
752.37	46837.05
752.55	46265.66
752.74	46327.10
752.92	46597.43
753.10	46206.27
753.29	46652.73
753.47	46249.28
753.66	45911.36
753.84	46937.40
754.03	46652.73
754.21	45913.41
754.40	46284.09
754.58	46163.26
754.77	46286.14
754.95	45888.84
755.14	46114.11
755.32	46236.99
755.51	45774.15
755.69	45901.12
755.88	45772.10
756.06	46335.29
756.24	45800.77
756.43	45604.17
756.61	46040.39
756.80	45770.05
756.98	45593.93
757.17	45280.59
757.35	45935.94
757.54	45464.91
757.72	45800.77
757.90	45350.22
758.09	45288.78
758.27	45479.24
758.46	45516.11
758.64	45116.75
758.83	45716.81
759.01	45421.90
759.19	45481.29
759.38	45610.31
759.56	45491.53
759.75	45362.51
759.93	45528.39
760.12	44981.59
760.30	45249.87
760.48	44703.06
760.67	45045.07
760.85	45114.70
761.04	45241.68
761.22	45061.46
761.40	44899.67
761.59	44512.60
761.77	44105.06
761.96	44852.56
762.14	44741.97
762.32	44213.60
762.51	44352.86
762.69	44256.60
762.88	44498.26
763.06	43957.60
763.24	44563.80
763.43	44199.26
763.61	44264.80
763.80	44266.84
763.98	43957.60
764.16	44109.15
764.35	44068.19
764.53	43478.38
764.72	44031.33
764.90	43951.46
765.08	44016.99
765.27	43943.27
765.45	43707.75
765.63	43517.29
765.82	43928.93
766.00	43132.27
766.18	43244.91
766.37	44025.18
766.55	43064.69
766.74	43150.70
766.92	43345.26
767.10	43304.30
767.29	43292.01
767.47	42732.92
767.65	43126.13
767.84	43169.13
768.02	43189.61
768.20	42870.13
768.39	42843.51
768.57	42556.79
768.75	42665.33
768.94	43201.90
769.12	42906.99
769.30	42276.22
769.49	42632.57
769.67	42317.18
769.85	42098.05
770.04	42548.60
770.22	41762.18
770.40	42306.94
770.59	42171.77
770.77	42442.10
770.95	42132.86
771.14	41831.81
771.32	41950.59
771.50	41678.21
771.69	41530.76
771.87	41727.36
772.05	41770.37
772.24	41764.23
772.42	41465.22
772.60	41649.54
772.78	41483.66
772.97	41350.54
773.15	41465.22
773.33	41690.50
773.52	41561.48
773.70	41553.29
773.88	41952.64
774.07	41356.68
774.25	41459.08
774.43	41317.77
774.61	41385.35
774.80	41616.77
774.98	41530.76
775.16	41768.32
775.34	41239.95
775.53	41489.80
775.71	41778.56
775.89	41049.49
776.08	41637.25
776.26	41782.66
776.44	41481.61
776.62	41225.61
776.81	41319.82
776.99	41506.18
777.17	41557.38
777.35	40938.90
777.54	41989.50
777.72	41237.90
777.90	41731.46
778.08	41534.85
778.27	41534.85
778.45	41911.68
778.63	41753.99
778.81	41481.61
779.00	42186.11
779.18	41907.58
779.36	42116.48
779.54	41801.09
779.73	41581.96
779.91	41749.89
780.09	41596.29
780.27	42026.37
780.46	41747.84
780.64	42007.94
780.82	41575.81
781.00	41481.61
781.19	41799.04
781.37	41946.50
781.55	41598.34
781.73	42403.19
781.91	41825.67
782.10	41938.30
782.28	41840.00
782.46	42188.16
782.64	42163.58
782.82	41590.15
783.01	42136.96
783.19	42376.57
783.37	42161.53
783.55	41856.39
783.74	42198.40
783.92	42440.06
784.10	42329.47
784.28	42360.19
784.46	41876.86
784.64	41860.48
784.83	42026.37
785.01	42374.52
785.19	41878.91
785.37	42712.44
785.55	42122.62
785.74	41760.13
785.92	41731.46
786.10	41825.67
786.28	42167.68
786.46	41741.70
786.64	41586.05
786.83	41741.70
787.01	41637.25
787.19	41719.17
787.37	41741.70
787.55	41575.81
787.74	41029.01
787.92	41547.14
788.10	41305.48
788.28	41332.11
788.46	41252.23
788.64	41137.55
788.82	41463.18
789.01	40801.68
789.19	41098.64
789.37	40830.35
789.55	41045.39
789.73	41026.96
789.91	40746.39
790.09	40895.89
790.28	40668.56
790.46	40492.44
790.64	40992.14
790.82	40304.02
791.00	40426.90
791.18	40347.03
791.36	39986.59
791.55	40471.96
791.73	40097.18
791.91	40060.32
792.09	40220.06
792.27	39738.79
792.45	39949.73
792.63	39802.27
792.81	39351.72
793.00	39779.74
793.18	39572.90
793.36	39474.60
793.54	39396.77
793.72	39325.10
793.90	39421.35
794.08	39155.11
794.26	39503.27
794.44	39034.28
794.62	38825.39
794.81	39275.94
794.99	39022.00
795.17	38968.75
795.35	38481.33
795.53	38815.15
795.71	39232.94
795.89	38227.38
796.07	38268.34
796.25	38178.23
796.43	38012.35
796.61	37821.89
796.80	37928.38
796.98	37930.43
797.16	37582.27
797.34	37731.78
797.52	37608.90
797.70	37778.88
797.88	37770.69
798.06	37125.58
798.24	37914.05
798.42	37344.71
798.60	36859.34
798.78	36935.12
798.96	37279.18
799.14	36935.12
799.32	36785.61
799.51	36292.05
799.69	36701.65
799.87	36853.20
800.05	36462.04
800.23	36869.58
800.41	36275.67
800.59	36527.57
800.77	36312.53
800.95	36171.22
801.13	36410.84
801.31	35571.17
801.49	35997.15
801.67	35796.45
801.85	35554.79
802.03	35550.69
802.21	35337.70
802.39	35372.52
802.57	35485.15
802.75	35337.70
802.93	35120.62
803.11	34919.92
803.29	35124.71
803.47	34743.79
803.65	34817.52
803.83	35093.99
804.01	34938.35
804.19	34526.71
804.37	34590.19
804.55	34432.50
804.73	34340.34
804.91	34590.19
805.09	34217.46
805.27	34092.54
805.45	34178.55
805.63	34219.51
805.81	34246.13
805.99	33926.65
806.17	34137.59
806.35	33730.05
806.53	33684.99
806.71	33674.75
806.89	33504.77
807.07	33703.42
807.25	33639.93
807.43	33191.43
807.61	33476.10
807.79	33435.14
807.97	33052.17
808.15	33066.50
808.33	33267.20
808.51	32771.60
808.69	32708.11
808.87	32611.85
809.05	32751.12
809.23	32536.08
809.41	32431.63
809.59	32685.58
809.77	32839.18
809.95	32169.49
810.13	32531.98
810.31	32650.77
810.49	32435.73
810.67	32296.47
810.84	31942.17
811.02	32306.71
811.20	31817.24
811.38	32011.80
811.56	31866.39
811.74	31823.39
811.92	31219.24
812.10	31780.38
812.28	31888.92
812.46	31464.99
812.64	31890.97
812.82	31245.86
813.00	31411.74
813.18	31591.97
813.36	31280.67
813.53	31122.98
813.71	31143.46
813.89	31223.33
814.07	31045.16
814.25	31295.01
814.43	30735.92
814.61	30760.49
814.79	31139.36
814.97	30807.59
815.15	30780.97
815.33	30656.04
815.50	30535.21
815.68	30508.59
815.86	30504.49
816.04	30471.73
816.22	30086.71
816.40	30367.28
816.58	30473.78
816.76	29814.33
816.94	30381.62
817.11	30207.54
817.29	29939.26
817.47	29939.26
817.65	29994.55
817.83	29906.49
818.01	29822.52
818.19	29759.03
818.37	30139.96
818.54	29775.42
818.72	29718.07
818.90	29724.22
819.08	29816.38
819.26	29216.32
819.44	29447.74
819.62	29433.41
819.80	29328.96
819.97	29443.65
820.15	29425.22
820.33	29050.44
820.51	29316.67
820.69	28831.30
820.87	28915.27
821.05	29351.49
821.22	28780.10
821.40	28974.66
821.58	28814.92
821.76	28808.78
821.94	28638.80
822.12	28755.53
822.29	29359.68
822.47	28489.29
822.65	28884.55
822.83	28569.16
823.01	28548.68
823.19	28358.22
823.36	28235.35
823.54	28290.64
823.72	28313.17
823.90	28216.91
824.08	28108.37
824.25	28397.13
824.43	28151.38
824.61	28335.70
824.79	28319.31
824.97	27989.59
825.15	28001.88
825.32	28401.23
825.50	27924.05
825.68	27833.94
825.86	28118.61
826.04	27897.43
826.21	27547.23
826.39	27835.99
826.57	27860.57
826.75	27338.33
826.93	27596.38
827.10	27379.29
827.28	27717.21
827.46	27516.51
827.64	27338.33
827.81	27194.98
827.99	27473.50
828.17	27154.02
828.35	27270.75
828.53	27194.98
828.70	27330.14
828.88	27188.83
829.06	27068.00
829.24	27375.20
829.41	26844.77
829.59	27252.32
829.77	27121.25
829.95	27072.10
830.12	27213.41
830.30	27008.61
830.48	27102.82
830.66	26842.73
830.84	27020.90
831.01	26584.68
831.19	27000.42
831.37	26773.10
831.55	26715.75
831.72	26588.78
831.90	26785.38
832.08	26752.62
832.25	26465.90
832.43	26609.26
832.61	26508.91
832.79	26232.43
832.96	26566.25
833.14	26257.01
833.32	26332.78
833.50	26232.43
833.67	26107.51
833.85	26103.41
834.03	26029.68
834.20	26011.25
834.38	26310.25
834.56	26332.78
834.74	25943.67
834.91	26191.47
835.09	25663.10
835.27	25900.66
835.44	25613.95
835.62	25435.77
835.80	25749.11
835.98	26066.55
836.15	25613.95
836.33	26054.26
836.51	25740.92
836.68	25618.04
836.86	25630.33
837.04	25710.20
837.21	25615.99
837.39	25517.69
837.57	25548.41
837.75	25503.35
837.92	25372.28
838.10	25433.72
838.28	25202.30
838.45	25233.02
838.63	25202.30
838.81	25431.68
838.98	25022.08
839.16	25239.17
839.34	24974.98
839.51	25058.95
839.69	24942.21
839.87	25136.77
840.04	24858.24
840.22	25011.84
840.40	25179.78
840.57	24325.77
840.75	24981.12
840.93	24579.72
841.10	24786.57
841.28	25484.92
841.46	24929.92
841.63	24868.48
841.81	24725.13
841.98	24796.81
842.16	24698.50
842.34	24680.07
842.51	24485.51
842.69	25196.16
842.87	24557.19
843.04	24835.72
843.22	24303.25
843.40	24598.15
843.57	24247.95
843.75	24692.36
843.92	24415.88
844.10	24481.42
844.28	24284.81
844.45	24245.90
844.63	24657.54
844.81	24454.79
844.98	24272.53
845.16	24247.95
845.33	24071.82
845.51	24333.96
845.69	24342.16
845.86	24188.56
846.04	24176.27
846.21	24016.53
846.39	24012.43
846.57	24041.11
846.74	23895.70
846.92	24024.72
847.09	23686.81
847.27	23787.16
847.45	24030.87
847.62	23781.01
847.80	23826.07
847.97	23848.60
848.15	23543.45
848.32	23713.43
848.50	23588.50
848.68	23584.41
848.85	23559.83
849.03	23217.82
849.20	23439.00
849.38	23533.21
849.56	23512.73
849.73	23434.91
849.91	23357.08
850.08	23588.50
850.26	23219.87
850.43	23400.09
850.61	23309.98
850.78	23129.76
850.96	23299.74
851.14	23158.43
851.31	23320.22
851.49	23078.56
851.66	23357.08
851.84	23408.28
852.01	23260.83
852.19	22861.48
852.36	23045.79
852.54	22877.86
852.71	23164.57
852.89	23090.85
853.07	22929.06
853.24	23068.32
853.42	22849.19
853.59	22890.15
853.77	22701.73
853.94	22775.46
854.12	22816.42
854.29	22593.19
854.47	22879.91
854.64	22910.63
854.82	22750.88
854.99	22754.98
855.17	22662.82
855.34	22947.49
855.52	22642.34
855.69	22683.30
855.87	22431.40
856.04	22238.89
856.22	22423.21
856.39	22228.65
856.57	22423.21
856.74	22353.58
856.92	22402.73
857.09	22120.11
857.27	22425.26
857.44	22415.02
857.62	22173.36
857.79	22271.66
857.97	22267.56
858.14	22216.36
858.32	22259.37
858.49	21915.31
858.67	22005.42
858.84	21659.32
859.02	21935.79
859.19	21817.01
859.37	21743.28
859.54	21757.62
859.72	22085.30
859.89	21802.68
860.06	22003.38
860.24	21888.69
860.41	22107.82
860.59	21814.96
860.76	21931.70
860.94	21776.05
861.11	21882.55
861.29	21526.20
861.46	21657.27
861.64	21661.37
861.81	21642.93
861.98	21386.94
862.16	21356.22
862.33	21647.03
862.51	21239.48
862.68	21145.28
862.86	21411.51
863.03	21300.92
863.21	21274.30
863.38	21411.51
863.55	21333.69
863.73	21290.68
863.90	21296.83
864.08	21032.64
864.25	21102.27
864.43	21419.71
864.60	21092.03
864.77	20981.44
864.95	21165.76
865.12	21024.45
865.30	21323.45
865.47	20838.08
865.64	20829.89
865.82	20905.66
865.99	21034.69
866.17	21053.12
866.34	20938.43
866.51	20741.83
866.69	20805.31
866.86	20717.25
867.04	20879.04
867.21	20737.73
867.38	20592.33
867.56	20604.61
867.73	20446.92
867.91	20317.90
868.08	20565.70
868.25	20451.02
868.43	20162.25
868.60	20448.97
868.78	20358.86
868.95	20592.33
869.12	20453.06
869.30	20264.65
869.47	20379.34
869.64	20074.19
869.82	20088.53
869.99	20192.97
870.16	20465.35
870.34	20348.62
870.51	20217.55
870.69	20139.72
870.86	20031.18
871.03	20188.88
871.21	19875.54
871.38	20008.65
871.55	19750.61
871.73	19867.34
871.90	19832.53
872.07	19359.45
872.25	19549.91
872.42	19762.90
872.59	19701.46
872.77	19660.50
872.94	19435.22
873.11	19893.97
873.29	19846.87
873.46	19554.01
873.63	19805.91
873.81	19392.22
873.98	19459.80
874.15	19324.63
874.33	19037.92
874.50	19209.95
874.67	19283.67
874.85	19431.13
875.02	19248.86
875.19	18908.90
875.37	18982.62
875.54	18951.90
875.71	19007.20
875.88	19009.25
876.06	18851.55
876.23	18663.14
876.40	18810.59
876.58	18894.56
876.75	18636.52
876.92	18644.71
877.10	18415.34
877.27	18437.86
877.44	18626.28
877.61	18757.35
877.79	18532.07
877.96	18476.77
878.13	18650.85
878.31	18384.62
878.48	18325.22
878.65	18226.92
878.82	18302.70
879.00	18374.38
879.17	18249.45
879.34	18224.87
879.51	18456.29
879.69	18028.27
879.86	17981.17
880.03	17802.99
880.21	18255.59
880.38	18104.04
880.55	18206.44
880.72	18044.65
880.90	17925.87
881.07	17807.09
881.24	17805.04
881.41	18165.48
881.59	18138.86
881.76	17944.30
881.93	17852.14
882.10	17807.09
882.28	17798.90
882.45	17782.51
882.62	17643.25
882.79	17690.35
882.96	17356.54
883.14	17559.28
883.31	17477.37
883.48	17530.61
883.65	17643.25
883.83	17354.49
884.00	17682.16
884.17	17399.54
884.34	17544.95
884.51	17391.35
884.69	17194.75
884.86	17153.79
885.03	17250.04
885.20	17188.60
885.38	17596.15
885.55	17252.09
885.72	17473.27
885.89	17303.29
886.06	17442.55
886.24	17082.11
886.41	17063.68
886.58	17334.01
886.75	17374.97
886.92	16930.56
887.10	17460.98
887.27	17116.92
887.44	17280.76
887.61	17303.29
887.78	17104.64
887.95	17184.51
888.13	16989.95
888.30	16828.16
888.47	16828.16
888.64	17024.76
888.81	17022.72
888.99	17057.53
889.16	16801.54
889.33	16926.46
889.50	16580.36
889.67	16770.82
889.84	16615.17
890.01	16676.61
890.19	16639.75
890.36	16633.60
890.53	16572.16
890.70	16561.92
890.87	16461.57
891.04	16596.74
891.22	16617.22
891.39	16563.97
891.56	16437.00
891.73	16260.87
891.90	16547.59
892.07	16273.16
892.24	16301.83
892.42	16445.19
892.59	16396.04
892.76	16346.89
892.93	16021.26
893.10	16336.65
893.27	15994.64
893.44	16094.99
893.61	15972.11
893.79	16037.64
893.96	16080.65
894.13	16260.87
894.30	16201.48
894.47	15982.35
894.64	16078.60
894.81	16035.60
894.98	16240.39
895.15	15976.20
895.33	16140.04
895.50	16062.22
895.67	16150.28
895.84	15990.54
896.01	16060.17
896.18	15882.00
896.35	15935.24
896.52	15900.43
896.69	15925.00
896.86	16156.43
897.04	16269.06
897.21	16025.36
897.38	15828.75
897.55	16004.88
897.72	15892.24
897.89	15933.20
898.06	16121.61
898.23	15699.73
898.40	15968.01
898.57	15968.01
898.74	15853.33
898.91	16015.12
899.08	15933.20
899.26	16144.14
899.43	16051.98
899.60	15920.91
899.77	15707.92
899.94	15812.37
900.11	15537.94
900.28	15920.91
900.45	15935.24
900.62	15830.80
900.79	15826.70
900.96	15775.50
901.13	15894.29
901.30	15828.75
901.47	15607.57
901.64	15853.33
901.81	15752.98
901.98	15736.59
902.15	15984.40
902.32	15656.72
902.49	15755.02
902.66	15773.46
902.83	15736.59
903.01	15701.78
903.18	15748.88
903.35	15761.17
903.52	15634.19
903.69	15992.59
903.86	15996.68
904.03	15918.86
904.20	15793.94
904.37	15826.70
904.54	15865.61
904.71	15646.48
904.88	15779.60
905.05	15724.30
905.22	15492.88
905.39	15709.97
905.56	15671.06
905.73	15539.99
905.90	15834.89
906.07	15652.63
906.24	15871.76
906.41	15638.29
906.58	15720.21
906.75	15574.80
906.92	15562.51
907.09	15601.43
907.26	15564.56
907.43	15767.31
907.60	15662.86
907.77	15697.68
907.93	15679.25
908.10	15652.63
908.27	15642.39
908.44	15494.93
908.61	15499.03
908.78	15681.30
908.95	15576.85
909.12	15707.92
909.29	15560.47
909.46	15738.64
909.63	15771.41
909.80	15646.48
909.97	15830.80
910.14	15632.15
910.31	15535.89
910.48	15525.65
910.65	15740.69
910.82	15515.41
910.99	15300.37
911.16	15478.55
911.33	15542.03
911.50	15484.69
911.66	15191.83
911.83	15507.22
912.00	15251.22
912.17	15327.00
912.34	15249.18
912.51	15288.09
912.68	15032.09
912.85	15159.06
913.02	15394.58
913.19	15327.00
913.36	15079.19
913.53	15089.43
913.70	15034.14
913.86	15165.21
914.03	14987.04
914.20	14782.24
914.37	15075.10
914.54	14835.49
914.71	15101.72
914.88	14968.60
915.05	15027.99
915.22	14808.86
915.39	15036.19
915.55	14954.27
915.72	14753.57
915.89	14849.82
916.06	14683.94
916.23	14632.74
916.40	14415.65
916.57	14636.83
916.74	14610.21
916.91	14532.39
917.07	14530.34
917.24	14358.31
917.41	14518.05
917.58	14255.91
917.75	14249.77
917.92	14106.41
918.09	14364.45
918.26	14227.24
918.42	14196.52
918.59	14176.04
918.76	14098.22
918.93	13905.71
919.10	13770.54
919.27	14133.03
919.44	14122.79
919.60	13979.43
919.77	13754.16
919.94	13868.84
920.11	13848.36
920.28	13748.01
920.45	13500.21
920.61	13625.14
920.78	13352.76
920.95	13293.37
921.12	13352.76
921.29	13283.13
921.46	13385.52
921.62	13313.84
921.79	13412.15
921.96	13242.17
922.13	13078.33
922.30	13066.04
922.47	13168.44
922.63	13033.27
922.80	13082.42
922.97	12721.98
923.14	12877.63
923.31	12904.25
923.47	12676.93
923.64	12959.55
923.81	12748.61
923.98	12779.32
924.15	12748.61
924.32	12648.26
924.48	12734.27
924.65	12517.18
924.82	12377.92
924.99	12595.01
925.15	12312.39
925.32	12607.30
925.49	12296.00
925.66	12318.53
925.83	12199.75
925.99	12076.87
926.16	12117.83
926.33	12099.40
926.50	12023.62
926.67	12015.43
926.83	12158.79
927.00	11937.61
927.17	11779.92
927.34	11632.46
927.50	11620.17
927.67	12021.58
927.84	11669.33
928.01	11452.24
928.17	11568.98
928.34	11544.40
928.51	11394.90
928.68	11525.97
928.84	11355.99
929.01	11196.25
929.18	11171.67
929.35	11251.54
929.51	11183.96
929.68	11149.14
929.85	11063.13
930.02	10997.59
930.18	10940.25
930.35	10856.28
930.52	11007.83
930.69	11177.81
930.85	10682.20
931.02	10598.24
931.19	10655.58
931.36	10807.13
931.52	10588.00
931.69	10569.57
931.86	10553.18
932.02	10366.82
932.19	10487.65
932.36	10461.02
932.53	10358.63
932.69	10114.92
932.86	10499.94
933.03	10252.13
933.19	9951.08
933.36	10131.30
933.53	10149.73
933.70	9785.19
933.86	9850.73
934.03	9992.04
934.20	9707.37
934.36	9865.07
934.53	9498.48
934.70	9602.93
934.86	9564.01
935.03	9645.93
935.20	9351.03
935.36	9240.44
935.53	9322.35
935.70	9254.77
935.86	9277.30
936.03	9015.16
936.20	8947.58
936.36	8982.39
936.53	8857.46
936.70	8929.14
936.86	8830.84
937.03	8783.74
937.20	8333.18
937.36	8689.53
937.53	8449.92
937.70	8390.53
937.86	8261.51
938.03	8218.50
938.20	8337.28
938.36	7956.36
938.53	7905.16
938.70	7645.07
938.86	7696.27
939.03	7669.64
939.20	7522.19
939.36	7593.87
939.53	7487.37
939.70	7616.40
939.86	7135.12
940.03	7151.51
940.19	6981.53
940.36	6971.29
940.53	7098.26
940.69	6862.74
940.86	6764.44
941.03	6692.76
941.19	6487.96
941.36	6627.23
941.52	6539.16
941.69	6430.62
941.86	6467.49
942.02	6358.94
942.19	6289.31
942.35	6342.56
942.52	6260.64
942.69	6191.01
942.85	6117.28
943.02	5984.16
943.18	5984.16
943.35	5844.90
943.52	5990.31
943.68	6008.74
943.85	5892.01
944.01	5867.43
944.18	5734.31
944.35	5881.77
944.51	5617.58
944.68	5685.16
944.84	5646.25
945.01	5588.91
945.17	5636.01
945.34	5633.96
945.51	5611.43
945.67	5533.61
945.84	5593.00
946.00	5347.25
946.17	5578.67
946.33	5506.99
946.50	5556.14
946.67	5386.16
946.83	5490.60
947.00	5506.99
947.16	5441.45
947.33	5396.40
947.49	5423.02
947.66	5457.84
947.82	5611.43
947.99	5418.93
948.16	5476.27
948.32	5353.39
948.49	5529.52
948.65	5439.40
948.82	5410.73
948.98	5289.90
949.15	5287.86
949.31	5449.64
949.48	5480.36
949.64	5447.60
949.81	5246.90
949.97	5314.48
950.14	5550.00
950.30	5406.64
950.47	5474.22
950.63	5504.94
950.80	5388.21
950.96	5382.06
951.13	5496.75
951.30	5361.58
951.46	5414.83
951.63	5474.22
951.79	5416.88
951.96	5572.52
952.12	5439.40
952.29	5433.26
952.45	5398.45
952.62	5593.00
952.78	5474.22
952.94	5550.00
953.11	5578.67
953.27	5445.55
953.44	5670.83
953.60	5648.30
953.77	5560.24
953.93	5472.17
954.10	5601.19
954.26	5558.19
954.43	5547.95
954.59	5472.17
954.76	5670.83
954.92	5552.04
955.09	5599.15
955.25	5474.22
955.42	5486.51
955.58	5660.59
955.75	5414.83
955.91	5484.46
956.07	5609.39
956.24	5533.61
956.40	5423.02
956.57	5566.38
956.73	5492.65
956.90	5648.30
957.06	5509.04
957.23	5474.22
957.39	5562.28
957.56	5625.77
957.72	5513.13
957.88	5515.18
958.05	5701.54
958.21	5615.53
958.38	5707.69
958.54	5679.02
958.71	5701.54
958.87	5511.08
959.03	5560.24
959.20	5552.04
959.36	5400.49
959.53	5472.17
959.69	5584.81
959.85	5636.01
960.02	5468.08
960.18	5603.24
960.35	5433.26
960.51	5691.31
960.68	5640.11
960.84	5584.81
961.00	5457.84
961.17	5519.28
961.33	5459.88
961.50	5570.48
961.66	5531.56
961.82	5390.25
961.99	5560.24
962.15	5660.59
962.31	5439.40
962.48	5392.30
962.64	5681.07
962.81	5537.71
962.97	5590.95
963.13	5537.71
963.30	5562.28
963.46	5576.62
963.62	5449.64
963.79	5552.04
963.95	5613.48
964.12	5466.03
964.28	5410.73
964.44	5304.24
964.61	5449.64
964.77	5588.91
964.93	5566.38
965.10	5300.14
965.26	5357.49
965.42	5488.56
965.59	5259.18
965.75	5406.64
965.92	5488.56
966.08	5441.45
966.24	5640.11
966.41	5306.29
966.57	5511.08
966.73	5398.45
966.90	5304.24
967.06	5316.53
967.22	5304.24
967.39	5457.84
967.55	5201.84
967.71	5267.38
967.88	5300.14
968.04	5185.46
968.20	5250.99
968.37	5099.44
968.53	5173.17
968.69	5328.81
968.85	5339.05
969.02	5253.04
969.18	5341.10
969.34	5107.63
969.51	5244.85
969.67	5259.18
969.83	5099.44
970.00	5306.29
970.16	5160.88
970.32	5322.67
970.48	5279.66
970.65	5105.59
970.81	5089.20
970.97	5035.96
971.14	5091.25
971.30	5138.35
971.46	5023.67
971.63	5056.43
971.79	5113.78
971.95	5193.65
972.11	5003.19
972.28	4958.13
972.44	5025.72
972.60	4984.76
972.76	4999.09
972.93	4890.55
973.09	5062.58
973.25	5040.05
973.42	4874.17
973.58	5113.78
973.74	4960.18
973.90	5074.87
974.07	4839.35
974.23	4898.74
974.39	4962.23
974.55	4898.74
974.72	4818.87
974.88	4743.10
975.04	4898.74
975.20	4939.70
975.37	4882.36
975.53	4825.01
975.69	4739.00
975.85	4777.91
976.01	4919.22
976.18	4773.82
976.34	4732.86
976.50	4822.97
976.66	4845.49
976.83	4681.66
976.99	4769.72
977.15	4716.47
977.31	4663.22
977.47	4689.85
977.64	4712.38
977.80	4700.09
977.96	4665.27
978.12	4698.04
978.29	4507.58
978.45	4523.96
978.61	4650.94
978.77	4663.22
978.93	4554.68
979.10	4530.11
979.26	4550.59
979.42	4517.82
979.58	4433.85
979.74	4417.47
979.91	4566.97
980.07	4329.41
980.23	4509.63
980.39	4554.68
980.55	4427.71
980.71	4403.13
980.88	4435.90
981.04	4388.80
981.20	4429.76
981.36	4458.43
981.52	4544.44
981.68	4417.47
981.85	4458.43
982.01	4388.80
982.17	4347.84
982.33	4384.70
982.49	4304.83
982.65	4267.97
982.82	4386.75
982.98	4313.02
983.14	4161.47
983.30	4413.37
983.46	4329.41
983.62	4290.49
983.79	4184.00
983.95	4276.16
984.11	4173.76
984.27	4296.64
984.43	4220.86
984.59	4206.53
984.75	4198.34
984.91	4224.96
985.08	4212.67
985.24	4147.14
985.40	3909.57
985.56	4321.21
985.72	4337.60
985.88	4194.24
986.04	3962.82
986.20	4124.61
986.37	4079.55
986.53	4192.19
986.69	4085.70
986.85	4042.69
987.01	3985.35
987.17	4163.52
987.33	4059.07
987.49	4042.69
987.65	4077.51
987.82	4077.51
987.98	4001.73
988.14	3997.64
988.30	4063.17
988.46	3803.08
988.62	4005.83
988.78	3934.15
988.94	3962.82
989.10	3866.56
989.26	3893.19
989.42	3821.51
989.59	3774.41
989.75	3899.33
989.91	3936.20
990.07	3696.58
990.23	3715.02
990.39	3827.65
990.55	3749.83
990.71	3723.21
990.87	3813.32
991.03	3870.66
991.19	3768.26
991.35	3868.61
991.51	3827.65
991.67	3729.35
991.83	3815.37
992.00	3653.58
992.16	3778.50
992.32	3833.80
992.48	3704.78
992.64	3592.14
992.80	3798.98
992.96	3680.20
993.12	3649.48
993.28	3823.56
993.44	3663.82
993.60	3753.93
993.76	3663.82
993.92	3620.81
994.08	3614.66
994.24	3692.49
994.40	3702.73
994.56	3723.21
994.72	3626.95
994.88	3590.09
995.04	3456.97
995.20	3456.97
995.36	3571.66
995.52	3471.31
995.68	3528.65
995.84	3508.17
996.00	3518.41
996.16	3559.37
996.32	3491.79
996.48	3387.34
996.64	3581.90
996.80	3442.64
996.96	3477.45
997.12	3465.16
997.28	3479.50
997.44	3459.02
997.60	3426.25
997.76	3377.10
997.92	3336.14
998.08	3399.63
998.24	3286.99
998.40	3370.96
998.56	3461.07
998.72	3274.70
998.88	3323.85
999.04	3207.12
999.20	3497.93
999.36	3295.18
999.52	3403.72
999.68	3342.28
999.84	3286.99
1000.00	3334.09
1000.16	3368.91
1000.32	3200.98
1000.48	3475.40
1000.64	3237.84
1000.80	3184.59
1000.95	3168.21
1001.11	3221.45
1001.27	3092.43
1001.43	3301.33
1001.59	3170.26
1001.75	3119.06
1001.91	3149.78
1002.07	3313.61
1002.23	3049.43
1002.39	3145.68
1002.55	3018.71
1002.71	3045.33
1002.87	3231.69
1003.03	3149.78
1003.19	3098.58
1003.34	3176.40
1003.50	3092.43
1003.66	3100.62
1003.82	3106.77
1003.98	3004.37
1004.14	3117.01
1004.30	3065.81
1004.46	2963.41
1004.62	3010.51
1004.78	3008.47
1004.94	3000.27
1005.09	3137.49
1005.25	3110.86
1005.41	2981.84
1005.57	3024.85
1005.73	2926.55
1005.89	2904.02
1006.05	2906.07
1006.21	2985.94
1006.37	2826.20
1006.52	2912.21
1006.68	2867.16
1006.84	3041.23
1007.00	2944.98
1007.16	2951.12
1007.32	2920.40
1007.48	2928.60
1007.64	2887.64
1007.79	2852.82
1007.95	2854.87
1008.11	3043.28
1008.27	2889.68
1008.43	2899.92
1008.59	2828.24
1008.75	2889.68
1008.91	2934.74
1009.06	2809.81
1009.22	2789.33
1009.38	2764.76
1009.54	2889.68
1009.70	2756.57
1009.86	2793.43
1010.01	2768.85
1010.17	2742.23
1010.33	2879.44
1010.49	2838.48
1010.65	2863.06
1010.81	2631.64
1010.96	2795.48
1011.12	2658.26
1011.28	2744.28
1011.44	2713.56
1011.60	2691.03
1011.76	2641.88
1011.91	2721.75
1012.07	2592.73
1012.23	2549.72
1012.39	2490.33
1012.55	2693.08
1012.71	2674.65
1012.86	2596.82
1013.02	2641.88
1013.18	2613.21
1013.34	2686.94
1013.50	2715.61
1013.65	2686.94
1013.81	2617.30
1013.97	2598.87
1014.13	2568.15
1014.29	2555.86
1014.44	2699.22
1014.60	2514.91
1014.76	2537.43
1014.92	2533.34
1015.07	2723.80
1015.23	2551.77
1015.39	2535.39
1015.55	2441.18
1015.71	2578.39
1015.86	2549.72
1016.02	2461.66
1016.18	2426.84
1016.34	2516.95
1016.49	2492.38
1016.65	2576.34
1016.81	2445.27
1016.97	2412.51
1017.12	2566.10
1017.28	2500.57
1017.44	2396.12
1017.60	2475.99
1017.75	2494.43
1017.91	2418.65
1018.07	2377.69
1018.23	2465.75
1018.38	2359.26
1018.54	2375.64
1018.70	2394.08
1018.86	2435.03
1019.01	2340.83
1019.17	2424.80
1019.33	2443.23
1019.49	2441.18
1019.64	2482.14
1019.80	2387.93
1019.96	2414.56
1020.12	2465.75
1020.27	2394.08
1020.43	2379.74
1020.59	2424.80
1020.74	2342.88
1020.90	2387.93
1021.06	2326.49
1021.22	2396.12
1021.37	2332.64
1021.53	2279.39
1021.69	2330.59
1021.84	2238.43
1022.00	2258.91
1022.16	2258.91
1022.31	2191.33
1022.47	2306.01
1022.63	2289.63
1022.79	2242.53
1022.94	2377.69
1023.10	2334.68
1023.26	2213.85
1023.41	2346.97
1023.57	2240.48
1023.73	2236.38
1023.88	2254.81
1024.04	2236.38
1024.20	2228.19
1024.35	2258.91
1024.51	2224.09
1024.67	2236.38
1024.82	2295.77
1024.98	2205.66
1025.14	2285.53
1025.29	2148.32
1025.45	2338.78
1025.61	2187.23
1025.76	2230.24
1025.92	2174.94
1026.08	2166.75
1026.23	2164.70
1026.39	2226.14
1026.55	2222.05
1026.70	2174.94
1026.86	2166.75
1027.02	2205.66
1027.17	2166.75
1027.33	2158.56
1027.48	2164.70
1027.64	2072.54
1027.80	2160.61
1027.95	2269.15
1028.11	2011.11
1028.27	2199.52
1028.42	2150.37
1028.58	2072.54
1028.73	2140.13
1028.89	2015.20
1029.05	2242.53
1029.20	2168.80
>>>>>End Processed Spectral Data<<<<<
