SpectraSuite Data File
++++++++++++++++++++++++++++++++++++
Date: Fri Jun 02 14:52:30 CEST 2017
User: INFO_000
Dark Spectrum Present: No
Reference Spectrum Present: No
Number of Sampled Component Spectra: 1
Spectrometers: USB4H00879
Integration Time (usec): 80000 (USB4H00879)
Spectra Averaged: 1 (USB4H00879)
Boxcar Smoothing: 0 (USB4H00879)
Correct for Electrical Dark: No (USB4H00879)
Strobe/Lamp Enabled: No (USB4H00879)
Correct for Detector Non-linearity: No (USB4H00879)
Correct for Stray Light: No (USB4H00879)
Number of Pixels in Processed Spectrum: 3648
>>>>>Begin Processed Spectral Data<<<<<
345.13	1294.32
345.34	1294.32
345.56	1294.32
345.78	1255.40
345.99	1249.26
346.21	1691.62
346.42	1716.20
346.64	1732.58
346.86	1791.97
347.07	1656.81
347.29	1634.28
347.50	1617.90
347.72	1642.47
347.94	1761.25
348.15	1617.90
348.37	1658.85
348.59	1673.19
348.80	1685.48
349.02	1755.11
349.23	1939.43
349.45	1814.50
349.67	1837.03
349.88	1806.31
350.10	1943.52
350.31	1849.32
350.53	1757.16
350.75	2019.30
350.96	1880.04
351.18	1845.22
351.39	1828.84
351.61	1804.26
351.82	1875.94
352.04	1890.28
352.26	1861.60
352.47	1832.93
352.69	1941.47
352.90	1810.40
353.12	1826.79
353.34	1871.84
353.55	1890.28
353.77	1894.37
353.98	1794.02
354.20	1781.73
354.41	1902.56
354.63	1916.90
354.85	2015.20
355.06	1920.99
355.28	1759.21
355.49	1935.33
355.71	1912.80
355.92	1892.32
356.14	1945.57
356.35	1886.18
356.57	1849.32
356.79	1923.04
357.00	1839.08
357.22	2043.87
357.43	1933.28
357.65	1996.77
357.86	1818.60
358.08	1914.85
358.29	1939.43
358.51	2023.39
358.72	1959.91
358.94	1978.34
359.16	2002.91
359.37	1982.43
359.59	1908.71
359.80	1972.19
360.02	1828.84
360.23	1927.14
360.45	2068.45
360.66	1912.80
360.88	1814.50
361.09	1968.10
361.31	1998.82
361.52	1994.72
361.74	2086.88
361.95	2093.02
362.17	1882.08
362.38	2070.50
362.60	1970.15
362.81	1988.58
363.03	1951.71
363.24	1972.19
363.46	2031.58
363.67	2062.30
363.89	1972.19
364.10	2009.06
364.32	2002.91
364.53	2084.83
364.75	1886.18
364.96	2039.78
365.18	1990.63
365.39	2011.11
365.61	1912.80
365.82	2121.70
366.04	2023.39
366.25	1953.76
366.47	2037.73
366.68	2115.55
366.90	2037.73
367.11	2058.21
367.33	2076.64
367.54	2107.36
367.76	2103.26
367.97	2103.26
368.19	2027.49
368.40	2097.12
368.62	1966.05
368.83	1955.81
369.05	2123.74
369.26	1955.81
369.48	2004.96
369.69	2062.30
369.91	2080.74
370.12	1945.57
370.33	2097.12
370.55	2031.58
370.76	2072.54
370.98	2142.18
371.19	2050.02
371.41	1978.34
371.62	2068.45
371.84	2037.73
372.05	2152.42
372.27	2076.64
372.48	2133.98
372.69	2093.02
372.91	2170.85
373.12	2174.94
373.34	2072.54
373.55	2121.70
373.77	2197.47
373.98	2121.70
374.20	2183.13
374.41	2248.67
374.62	2166.75
374.84	2152.42
375.05	2170.85
375.27	2195.42
375.48	2174.94
375.70	2107.36
375.91	2246.62
376.12	2258.91
376.34	2097.12
376.55	2154.46
376.77	2191.33
376.98	2103.26
377.19	2133.98
377.41	2205.66
377.62	2150.37
377.84	2195.42
378.05	2240.48
378.27	2123.74
378.48	2346.97
378.69	2301.92
378.91	2279.39
379.12	2248.67
379.34	2263.01
379.55	2279.39
379.76	2238.43
379.98	2269.15
380.19	2230.24
380.41	2277.34
380.62	2365.40
380.83	2263.01
381.05	2228.19
381.26	2439.13
381.47	2160.61
381.69	2334.68
381.90	2437.08
382.12	2246.62
382.33	2293.72
382.54	2226.14
382.76	2349.02
382.97	2324.44
383.19	2361.31
383.40	2392.03
383.61	2295.77
383.83	2277.34
384.04	2236.38
384.25	2291.68
384.47	2340.83
384.68	2404.32
384.89	2254.81
385.11	2301.92
385.32	2271.20
385.54	2301.92
385.75	2353.12
385.96	2467.80
386.18	2410.46
386.39	2281.44
386.60	2377.69
386.82	2361.31
387.03	2367.45
387.24	2502.62
387.46	2346.97
387.67	2457.56
387.88	2482.14
388.10	2467.80
388.31	2445.27
388.52	2533.34
388.74	2525.15
388.95	2527.19
389.16	2557.91
389.38	2512.86
389.59	2494.43
389.80	2602.97
390.02	2535.39
390.23	2641.88
390.44	2543.58
390.66	2537.43
390.87	2523.10
391.08	2535.39
391.30	2682.84
391.51	2660.31
391.72	2635.74
391.94	2590.68
392.15	2617.30
392.36	2629.59
392.58	2598.87
392.79	2734.04
393.00	2617.30
393.22	2703.32
393.43	2766.81
393.64	2838.48
393.85	2764.76
394.07	2693.08
394.28	2658.26
394.49	2781.14
394.71	2836.44
394.92	2777.05
395.13	2729.94
395.35	2719.70
395.56	2811.86
395.77	2836.44
395.98	2797.53
396.20	2760.66
396.41	2854.87
396.62	2875.35
396.84	2863.06
397.05	2873.30
397.26	2901.97
397.47	2990.03
397.69	2721.75
397.90	2985.94
398.11	2942.93
398.32	2826.20
398.54	2883.54
398.75	2910.16
398.96	2920.40
399.18	3104.72
399.39	2930.64
399.60	3026.90
399.81	2926.55
400.03	2883.54
400.24	3215.31
400.45	3037.14
400.66	3076.05
400.88	3041.23
401.09	3170.26
401.30	3117.01
401.51	3174.35
401.73	3151.82
401.94	3094.48
402.15	3194.83
402.36	3065.81
402.58	3129.30
402.79	3160.02
403.00	3174.35
403.21	3315.66
403.43	3233.74
403.64	3254.22
403.85	3065.81
404.06	3252.17
404.27	3106.77
404.49	3262.41
404.70	3059.67
404.91	3305.42
405.12	3276.75
405.34	3289.04
405.55	3377.10
405.76	3160.02
405.97	3299.28
406.19	3477.45
406.40	3217.36
406.61	3276.75
406.82	3352.52
407.03	3334.09
407.25	3297.23
407.46	3438.54
407.67	3377.10
407.88	3420.11
408.09	3387.34
408.31	3377.10
408.52	3432.40
408.73	3248.08
408.94	3293.13
409.15	3524.55
409.37	3438.54
409.58	3448.78
409.79	3426.25
410.00	3512.27
410.21	3315.66
410.43	3481.55
410.64	3344.33
410.85	3510.22
411.06	3487.69
411.27	3594.19
411.48	3770.31
411.70	3534.79
411.91	3631.05
412.12	3655.62
412.33	3596.23
412.54	3534.79
412.76	3737.54
412.97	3676.10
413.18	3465.16
413.39	3653.58
413.60	3665.86
413.81	3678.15
414.03	3567.56
414.24	3489.74
414.45	3702.73
414.66	3463.12
414.87	3704.78
415.08	3719.11
415.30	3655.62
415.51	3702.73
415.72	3719.11
415.93	3798.98
416.14	3751.88
416.35	3755.97
416.56	3866.56
416.78	3829.70
416.99	3870.66
417.20	3835.85
417.41	3827.65
417.62	3880.90
417.83	3891.14
418.04	3758.02
418.26	3934.15
418.47	3919.81
418.68	3858.37
418.89	3878.85
419.10	3911.62
419.31	3983.30
419.52	4157.38
419.73	3975.11
419.95	3958.72
420.16	3811.27
420.37	3940.29
420.58	4108.23
420.79	3807.17
421.00	4046.79
421.21	4048.83
421.42	3968.96
421.63	4083.65
421.85	4126.66
422.06	4192.19
422.27	4102.08
422.48	4171.71
422.69	4149.18
422.90	4120.51
423.11	4204.48
423.32	4261.82
423.53	4214.72
423.75	4263.87
423.96	4499.39
424.17	4249.54
424.38	4462.52
424.59	4480.96
424.80	4587.45
425.01	4374.46
425.22	4304.83
425.43	4366.27
425.64	4548.54
425.85	4607.93
426.06	4546.49
426.28	4396.99
426.49	4468.67
426.70	4544.44
426.91	4552.63
427.12	4616.12
427.33	4620.22
427.54	4499.39
427.75	4730.81
427.96	4624.31
428.17	4673.46
428.38	4827.06
428.59	4915.12
428.80	4710.33
429.01	4902.84
429.23	4609.98
429.44	4890.55
429.65	4831.16
429.86	4964.28
430.07	4708.28
430.28	4818.87
430.49	4939.70
430.70	5054.39
430.91	5138.35
431.12	4939.70
431.33	5095.35
431.54	4974.52
431.75	5019.57
431.96	5103.54
432.17	4958.13
432.38	5138.35
432.59	5390.25
432.80	5150.64
433.01	5302.19
433.22	5416.88
433.43	5349.29
433.64	5179.31
433.85	5226.42
434.06	5377.97
434.27	5404.59
434.49	5302.19
434.70	5509.04
434.91	5351.34
435.12	5529.52
435.33	5560.24
435.54	5410.73
435.75	5304.24
435.96	5361.58
436.17	5439.40
436.38	5676.97
436.59	5511.08
436.80	5533.61
437.01	5765.03
437.22	5730.22
437.43	5615.53
437.64	5488.56
437.85	5654.44
438.06	5787.56
438.27	5744.55
438.48	5756.84
438.69	5834.66
438.90	5783.46
439.11	5709.74
439.32	5781.42
439.53	5906.34
439.74	5969.83
439.95	5922.73
440.16	5881.77
440.37	5881.77
440.57	5892.01
440.78	6039.46
440.99	6072.23
441.20	6041.51
441.41	5984.16
441.62	6029.22
441.83	5930.92
442.04	6193.06
442.25	6066.08
442.46	6055.84
442.67	6236.06
442.88	6408.09
443.09	6078.37
443.30	6080.42
443.51	6207.39
443.72	6457.25
443.93	6131.62
444.14	6483.87
444.35	6066.08
444.56	6412.19
444.77	6250.40
444.98	6426.53
445.19	6485.92
445.40	6426.53
445.61	6381.47
445.81	6588.32
446.02	6483.87
446.23	6406.05
446.44	6260.64
446.65	6690.71
446.86	6436.77
447.07	6533.02
447.28	6768.54
447.49	6782.87
447.70	6684.57
447.91	6666.14
448.12	6662.04
448.33	6844.31
448.54	6836.12
448.74	6655.90
448.95	6950.81
449.16	6735.77
449.37	7012.24
449.58	6698.91
449.79	6977.43
450.00	6821.78
450.21	6999.96
450.42	7065.49
450.63	7075.73
450.84	7016.34
451.05	6840.22
451.25	7061.40
451.46	6963.09
451.67	7229.33
451.88	7163.79
452.09	7094.16
452.30	7194.51
452.51	7180.18
452.72	7262.10
452.93	7567.24
453.13	7169.94
453.34	7145.36
453.55	7266.19
453.76	7434.13
453.97	7626.64
454.18	7272.34
454.39	7559.05
454.60	7419.79
454.81	7444.37
455.01	7667.60
455.22	7303.06
455.43	7557.00
455.64	7677.83
455.85	7890.82
456.06	7960.45
456.27	7823.24
456.48	7622.54
456.68	8001.41
456.89	7892.87
457.10	7847.82
457.31	7870.34
457.52	7843.72
457.73	8075.14
457.94	8134.53
458.14	7810.95
458.35	8490.88
458.56	8150.92
458.77	8236.93
458.98	8093.57
459.19	8167.30
459.39	8361.86
459.60	8415.10
459.81	8365.95
460.02	8480.64
460.23	8460.16
460.44	8580.99
460.65	8529.79
460.85	8601.47
461.06	8757.11
461.27	8376.19
461.48	8753.02
461.69	8888.18
461.89	8527.74
462.10	8902.52
462.31	8654.72
462.52	8658.81
462.73	8830.84
462.94	9101.17
463.14	9113.46
463.35	8828.79
463.56	9340.79
463.77	9422.70
463.98	9064.31
464.18	9285.49
464.39	9463.66
464.60	9449.33
464.81	9367.41
465.02	9357.17
465.23	9873.26
465.43	9416.56
465.64	9529.20
465.85	9488.24
466.06	9473.90
466.27	9801.58
466.47	9813.87
466.68	9828.20
466.89	9744.24
467.10	10076.01
467.30	9846.63
467.51	10051.43
467.72	10202.98
467.93	9875.31
468.14	10186.60
468.34	10344.29
468.55	10104.68
468.76	10243.94
468.97	10200.93
469.17	10565.47
469.38	10346.34
469.59	10434.40
469.80	10594.14
470.01	10321.76
470.21	10465.12
470.42	10833.75
470.63	11028.31
470.84	10876.76
471.04	10962.78
471.25	11052.89
471.46	10884.95
471.67	11255.64
471.87	11380.56
472.08	11294.55
472.29	11333.46
472.50	11325.27
472.70	11362.13
472.91	11388.75
473.12	11620.17
473.33	11769.68
473.53	11659.09
473.74	11796.30
473.95	11927.37
474.16	11855.69
474.36	11929.42
474.57	12089.16
474.78	12443.46
474.99	12242.76
475.19	12291.91
475.40	12482.37
475.61	12738.37
475.81	12676.93
476.02	12865.34
476.23	12730.17
476.44	12795.71
476.64	13045.56
476.85	13340.47
477.06	13248.31
477.27	13336.37
477.47	13367.09
477.68	13530.93
477.89	13592.37
478.09	13604.66
478.30	13641.52
478.51	13678.38
478.71	13860.65
478.92	14059.31
479.13	14130.98
479.34	14051.11
479.54	14126.89
479.75	14409.51
479.96	14161.70
480.16	14477.09
480.37	14303.01
480.58	14812.96
480.78	14720.80
480.99	14688.03
481.20	14939.93
481.41	15005.47
481.61	15318.81
481.82	15488.79
482.03	15136.54
482.23	15257.37
482.44	15621.91
482.65	15773.46
482.85	15703.82
483.06	15785.74
483.27	16068.36
483.47	15783.70
483.68	15982.35
483.89	16267.02
484.09	16260.87
484.30	16520.96
484.51	16615.17
484.71	16668.42
484.92	16641.79
485.13	16557.83
485.33	16871.17
485.54	16807.68
485.75	17041.15
485.95	17315.58
486.16	17288.95
486.37	17260.28
486.57	17141.50
486.78	17297.14
486.98	17436.41
487.19	17729.27
487.40	17688.31
487.60	17719.03
487.81	18099.95
488.02	17960.69
488.22	17940.21
488.43	18290.41
488.64	18274.03
488.84	18566.88
489.05	18570.98
489.25	18667.24
489.46	19082.97
489.67	18790.11
489.87	18808.54
490.08	19007.20
490.29	18890.46
490.49	19644.12
490.70	19496.66
490.90	19511.00
491.11	19459.80
491.32	19723.99
491.52	19295.96
491.73	19789.52
491.94	20045.52
492.14	19832.53
492.35	20090.57
492.55	20100.81
492.76	20192.97
492.97	20434.63
493.17	20227.79
493.38	20311.75
493.58	20672.20
493.79	20995.78
494.00	20580.04
494.20	20899.52
494.41	21124.80
494.61	21208.76
494.82	21204.67
495.02	20960.96
495.23	21225.15
495.44	21395.13
495.64	21358.27
495.85	21499.58
496.05	21401.27
496.26	21497.53
496.47	22195.89
496.67	22068.91
496.88	22081.20
497.08	21966.51
497.29	22369.96
497.49	22267.56
497.70	22568.62
497.91	22310.57
498.11	22431.40
498.32	22754.98
498.52	22797.99
498.73	23164.57
498.93	22941.35
499.14	23127.71
499.34	23131.81
499.55	23119.52
499.76	23092.90
499.96	23264.92
500.17	23408.28
500.37	23502.49
500.58	23234.21
500.78	23387.80
500.99	23416.47
501.19	23860.88
501.40	23490.20
501.60	23795.35
501.81	23940.75
502.02	24082.06
502.22	23899.80
502.43	23989.91
502.63	24536.71
502.84	24462.99
503.04	24239.76
503.25	24327.82
503.45	24462.99
503.66	24657.54
503.86	24632.97
504.07	24901.25
504.27	24655.50
504.48	25173.63
504.68	24991.36
504.89	25337.47
505.09	24940.16
505.30	25249.41
505.50	25011.84
505.71	25204.35
505.91	25245.31
506.12	25452.16
506.32	25411.20
506.53	25239.17
506.73	25515.64
506.94	25718.39
507.14	25511.55
507.35	25742.97
507.55	25839.22
507.76	26015.35
507.96	25706.10
508.17	25939.57
508.37	26107.51
508.58	26312.30
508.78	26103.41
508.99	26271.34
509.19	26351.21
509.40	26386.03
509.60	26484.33
509.81	26113.65
510.01	26281.58
510.22	26402.41
510.42	26502.76
510.63	26605.16
510.83	26611.31
511.04	26685.03
511.24	26871.40
511.44	26846.82
511.65	26752.62
511.85	26807.91
512.06	26914.41
512.26	27160.16
512.47	27111.01
512.67	27121.25
512.88	27242.08
513.08	26975.84
513.29	27584.09
513.49	27117.15
513.69	27160.16
513.90	27369.05
514.10	27498.08
514.31	27567.71
514.51	27686.49
514.72	27780.70
514.92	27471.45
515.13	27629.15
515.33	27543.13
515.53	27858.52
515.74	27874.90
515.94	27985.49
516.15	27788.89
516.35	27809.37
516.56	27795.03
516.76	28059.22
516.96	28032.60
517.17	28440.14
517.37	28247.63
517.58	28284.50
517.78	28522.06
517.99	28487.25
518.19	28241.49
518.39	28866.12
518.60	28945.99
518.80	29011.53
519.01	28866.12
519.21	28735.05
519.41	28689.99
519.62	28671.56
519.82	28804.68
520.03	29244.99
520.23	28984.90
520.43	28917.32
520.64	29439.55
520.84	29523.52
521.05	29238.85
521.25	29550.14
521.45	29326.91
521.66	29683.26
521.86	29687.36
522.07	29507.13
522.27	29652.54
522.47	29509.18
522.68	29967.93
522.88	29754.94
523.08	29998.65
523.29	29926.97
523.49	29963.83
523.70	30453.30
523.90	30213.68
524.10	30025.27
524.31	30346.80
524.51	29894.20
524.71	30543.41
524.92	30668.33
525.12	30428.72
525.33	30834.22
525.53	30598.70
525.73	30803.50
525.94	30848.55
526.14	30590.51
526.34	30852.65
526.55	30807.59
526.75	30971.43
526.95	31110.69
527.16	31014.44
527.36	31241.76
527.56	31366.69
527.77	31698.46
527.97	31933.98
528.17	31606.30
528.38	31569.44
528.58	31800.86
528.78	32187.92
528.99	31952.41
529.19	32112.15
529.39	31649.31
529.60	32349.71
529.80	31751.71
530.00	31987.22
530.21	32661.01
530.41	32558.61
530.61	32562.70
530.82	32527.89
531.02	32558.61
531.22	32667.15
531.43	32560.66
531.63	32812.56
531.83	33222.15
532.04	33324.55
532.24	32830.99
532.44	33308.16
532.64	33312.26
532.85	33328.64
533.05	33631.74
533.25	33746.43
533.46	33242.63
533.66	33940.99
533.86	33801.72
534.07	34084.34
534.27	33916.41
534.47	34493.94
534.67	34039.29
534.88	34059.77
535.08	34235.89
535.28	34532.85
535.49	34547.18
535.69	34784.75
535.89	34823.66
536.09	34627.06
536.30	34702.83
536.50	35132.90
536.70	34962.92
536.91	34696.69
537.11	35345.89
537.31	35243.49
537.51	35296.74
537.72	35775.97
537.92	35450.34
538.12	35888.60
538.32	35470.82
538.53	35503.59
538.73	35485.15
538.93	35735.01
539.13	35628.51
539.34	35837.41
539.54	35952.09
539.74	35950.04
539.94	36130.26
540.15	35821.02
540.35	36064.73
540.55	36130.26
540.75	36566.48
540.96	36453.84
541.16	36386.26
541.36	36476.37
541.56	36668.88
541.77	37049.80
541.97	36857.29
542.17	36918.73
542.37	37211.59
542.58	36861.39
542.78	37213.64
542.98	36900.30
543.18	36933.07
543.38	37596.61
543.59	37416.39
543.79	37064.14
543.99	37377.48
544.19	37776.83
544.40	37535.17
544.60	37860.80
544.80	37545.41
545.00	37465.54
545.20	38012.35
545.41	38135.23
545.61	38071.74
545.81	38272.44
546.01	38088.12
546.21	38671.79
546.42	38448.57
546.62	38147.51
546.82	38200.76
547.02	38286.78
547.22	38526.39
547.43	38337.98
547.63	38772.14
547.83	39071.15
548.03	38299.06
548.23	38675.89
548.44	38866.35
548.64	38901.17
548.84	39122.35
549.04	39181.74
549.24	39071.15
549.45	39321.00
549.65	38927.79
549.85	39488.93
550.05	39024.04
550.25	39128.49
550.45	39423.40
550.66	39394.73
550.86	39447.97
551.06	39742.88
551.26	40019.36
551.46	39943.58
551.66	39933.34
551.87	39978.40
552.07	39951.77
552.27	39769.51
552.47	39701.92
552.67	40449.43
552.87	40101.28
553.07	39933.34
553.28	40351.13
553.48	40385.94
553.68	40580.50
553.88	41108.88
554.08	40211.87
554.28	40543.64
554.48	40203.67
554.69	40701.33
554.89	40742.29
555.09	40895.89
555.29	40521.11
555.49	41209.23
555.69	40930.70
555.89	40881.55
556.10	41362.82
556.30	40967.57
556.50	40965.52
556.70	41172.36
556.90	41350.54
557.10	41596.29
557.30	41389.45
557.50	41375.11
557.70	41909.63
557.91	41825.67
558.11	41307.53
558.31	41506.18
558.51	41770.37
558.71	41688.45
558.91	42128.77
559.11	41764.23
559.31	41491.85
559.51	41696.64
559.72	41981.31
559.92	41885.06
560.12	42257.79
560.32	41964.93
560.52	42386.81
560.72	42454.39
560.92	42620.28
561.12	42585.46
561.32	42495.35
561.52	42227.07
561.72	43079.02
561.93	42419.58
562.13	42730.87
562.33	42722.68
562.53	42931.57
562.73	42270.08
562.93	42491.26
563.13	42855.79
563.33	42722.68
563.53	43044.21
563.73	42638.71
563.93	42931.57
564.13	43302.25
564.33	42851.70
564.53	42945.90
564.74	43814.24
564.94	42970.48
565.14	43189.61
565.34	43103.60
565.54	43539.82
565.74	43578.73
565.94	43758.95
566.14	43693.41
566.34	43177.33
566.54	43959.65
566.74	43742.56
566.94	43951.46
567.14	43709.80
567.34	43664.74
567.54	44088.67
567.74	43830.63
567.94	44000.61
568.14	44287.32
568.34	44100.96
568.54	44199.26
568.74	44156.25
568.94	44412.25
569.14	44537.18
569.34	44197.21
569.54	44455.26
569.75	44442.97
569.95	44504.41
570.15	45012.31
570.35	44567.90
570.55	44082.53
570.75	44748.12
570.95	44987.73
571.15	45036.88
571.35	44985.68
571.55	45106.51
571.75	44985.68
571.95	45106.51
572.15	44741.97
572.35	45227.34
572.55	44985.68
572.75	45090.13
572.95	45452.62
573.15	45409.61
573.35	45249.87
573.55	45090.13
573.75	45268.30
573.95	45573.45
574.15	45350.22
574.35	45761.86
574.55	45405.52
574.75	45747.53
574.95	45868.36
575.15	45624.65
575.34	45679.94
575.54	45983.04
575.74	46005.57
575.94	46058.82
576.14	46171.46
576.34	46202.18
576.54	46445.88
576.74	46490.94
576.94	46288.19
577.14	46855.48
577.34	46949.68
577.54	46449.98
577.74	46460.22
577.94	46961.97
578.14	47031.60
578.34	47138.10
578.54	46490.94
578.74	46757.17
578.94	47258.93
579.14	46929.20
579.34	46994.74
579.54	47273.26
579.74	47508.78
579.94	47306.03
580.13	47193.39
580.33	47611.18
580.53	47545.64
580.73	47398.19
580.93	47498.54
581.13	47879.46
581.33	47940.90
581.53	47633.71
581.73	47738.15
581.93	47490.35
582.13	48047.39
582.33	47977.76
582.53	48200.99
582.73	48051.49
582.92	48405.79
583.12	48403.74
583.32	48166.18
583.52	48059.68
583.72	48821.53
583.92	48540.96
584.12	48424.22
584.32	49065.24
584.52	48571.67
584.72	48684.31
584.92	48264.48
585.11	49034.52
585.31	48956.69
585.51	49184.02
585.71	48858.39
585.91	48905.49
586.11	48786.71
586.31	49214.74
586.51	48930.07
586.71	48905.49
586.91	49370.38
587.10	49362.19
587.30	49534.22
587.50	49382.67
587.70	49806.60
587.90	49288.46
588.10	49466.64
588.30	49366.29
588.50	49939.72
588.69	49640.71
588.89	49433.87
589.09	49761.54
589.29	49673.48
589.49	50189.57
589.69	49788.17
589.89	50048.26
590.08	49865.99
590.28	49925.38
590.48	49931.53
590.68	49814.79
590.88	49902.85
591.08	49964.29
591.28	50076.93
591.47	50830.58
591.67	50683.13
591.87	50400.51
592.07	50251.01
592.27	50388.22
592.47	51092.72
592.67	50476.29
592.86	50320.64
593.06	50558.20
593.26	50771.19
593.46	50947.32
593.66	50631.93
593.86	51025.14
594.05	50687.23
594.25	51221.75
594.45	50763.00
594.65	50564.35
594.85	50992.37
595.05	51387.63
595.24	50949.37
595.44	50830.58
595.64	51133.68
595.84	51252.47
596.04	51098.87
596.23	51393.78
596.43	51322.10
596.63	50982.13
596.83	51289.33
597.03	51879.14
597.22	51952.87
597.42	51381.49
597.62	51293.43
597.82	51070.20
598.02	51686.64
598.21	52280.55
598.41	51574.00
598.61	52438.24
598.81	52106.47
599.01	52126.95
599.20	51733.74
599.40	51694.83
599.60	51676.40
599.80	52090.09
600.00	52282.59
600.19	52557.02
600.39	52131.04
600.59	52059.37
600.79	52122.85
600.98	51844.33
601.18	52708.57
601.38	52821.21
601.58	52536.54
601.78	52747.48
601.97	52581.60
602.17	53284.05
602.37	52530.40
602.57	52919.51
602.76	52937.94
602.96	52415.71
603.16	53064.92
603.36	52772.06
603.55	52874.46
603.75	52839.64
603.95	53171.41
604.15	53062.87
604.34	52608.22
604.54	53122.26
604.74	53554.38
604.94	53269.72
605.13	53200.08
605.33	52896.98
605.53	52796.63
605.73	53550.29
605.92	52878.55
606.12	53431.50
606.32	53664.97
606.52	53325.01
606.71	53714.12
606.91	53654.73
607.11	53202.13
607.30	53949.64
607.50	53744.84
607.70	53404.88
607.90	53433.55
608.09	53734.60
608.29	53900.49
608.49	53691.60
608.68	53447.89
608.88	54148.29
609.08	54267.08
609.28	54039.75
609.47	53976.26
609.67	53927.11
609.87	53986.50
610.06	53945.54
610.26	53855.43
610.46	54109.38
610.66	53726.41
610.85	54000.84
611.05	54217.92
611.25	54025.42
611.44	53724.36
611.64	54125.77
611.84	54047.94
612.03	53681.36
612.23	53925.07
612.43	53726.41
612.62	53826.76
612.82	54236.36
613.02	53920.97
613.21	54226.12
613.41	53765.32
613.61	54047.94
613.80	53755.08
614.00	53861.58
614.20	54025.42
614.39	54234.31
614.59	53896.39
614.79	54049.99
614.98	53691.60
615.18	54041.80
615.38	54195.40
615.57	53609.68
615.77	54443.20
615.97	54011.08
616.16	54363.33
616.36	54379.71
616.56	53916.87
616.75	54187.21
616.95	53808.33
617.15	53902.54
617.34	53974.22
617.54	54310.08
617.74	54551.74
617.93	54105.29
618.13	53601.49
618.32	53832.91
618.52	53566.67
618.72	53775.56
618.91	54033.61
619.11	54023.37
619.31	54076.61
619.50	53707.98
619.70	53822.67
619.90	54023.37
620.09	53562.57
620.29	53695.69
620.48	53705.93
620.68	53884.11
620.88	53830.86
621.07	54095.05
621.27	54174.92
621.46	53259.48
621.66	53519.57
621.86	53982.41
622.05	53564.62
622.25	54054.09
622.44	53546.19
622.64	53392.59
622.84	53695.69
623.03	53284.05
623.23	53783.76
623.42	53445.84
623.62	53888.20
623.82	54043.85
624.01	53544.14
624.21	53707.98
624.40	54283.46
624.60	53505.23
624.80	53511.38
624.99	53568.72
625.19	53085.40
625.38	54047.94
625.58	53564.62
625.77	53613.77
625.97	53839.05
626.17	53136.60
626.36	53361.87
626.56	53982.41
626.75	53341.39
626.95	54068.42
627.14	53441.74
627.34	54203.59
627.54	53458.13
627.73	53427.41
627.93	53157.08
628.12	53249.24
628.32	53138.65
628.51	53365.97
628.71	53454.03
628.90	53658.83
629.10	52915.42
629.30	53542.10
629.49	53169.36
629.69	53257.43
629.88	53226.71
630.08	53705.93
630.27	53724.36
630.47	53589.20
630.66	53284.05
630.86	53636.30
631.05	53306.58
631.25	53990.60
631.44	53650.64
631.64	53597.39
631.84	53632.21
632.03	53648.59
632.23	53351.63
632.42	53781.71
632.62	53322.96
632.81	53171.41
633.01	53556.43
633.20	53603.53
633.40	53912.78
633.59	53730.51
633.79	53216.47
633.98	53621.97
634.18	53886.15
634.37	53531.86
634.57	53255.38
634.76	53988.55
634.96	53380.31
635.15	53732.56
635.35	53560.53
635.54	53351.63
635.74	53617.87
635.93	53583.05
636.13	53914.83
636.32	53392.59
636.52	53525.71
636.71	53763.28
636.91	54031.56
637.10	53945.54
637.30	53675.21
637.49	53499.09
637.69	53503.18
637.88	54285.51
638.08	53499.09
638.27	54113.48
638.46	53509.33
638.66	53425.36
638.85	53531.86
639.05	54054.09
639.24	54281.41
639.44	53798.09
639.63	53566.67
639.83	54064.33
640.02	53794.00
640.22	53662.93
640.41	53800.14
640.61	53523.66
640.80	53843.15
640.99	53427.41
641.19	54199.49
641.38	54109.38
641.58	54117.57
641.77	53548.24
641.97	53847.24
642.16	53966.02
642.36	54162.63
642.55	54211.78
642.74	53894.35
642.94	54400.19
643.13	53718.22
643.33	54269.12
643.52	54398.15
643.72	54674.62
643.91	53818.57
644.10	53978.31
644.30	54371.52
644.49	53773.52
644.69	54140.10
644.88	54201.54
645.08	53791.95
645.27	54381.76
645.46	53863.63
645.66	54478.02
645.85	54318.28
646.05	54545.60
646.24	54353.09
646.43	54174.92
646.63	54459.58
646.82	54340.80
647.02	54242.50
647.21	54686.91
647.40	54293.70
647.60	54586.56
647.79	54256.84
647.99	54949.05
648.18	54547.65
648.37	55024.82
648.57	54502.59
648.76	54750.40
648.96	54342.85
649.15	54682.81
649.34	55006.39
649.54	55028.92
649.73	54584.51
649.92	54789.31
650.12	54860.99
650.31	55002.30
650.51	55270.58
650.70	54871.23
650.89	54951.10
651.09	55817.39
651.28	54910.14
651.47	55088.31
651.67	55108.79
651.86	55309.49
652.06	54320.32
652.25	55047.35
652.44	55229.62
652.64	54684.86
652.83	54910.14
653.02	55198.90
653.22	54987.96
653.41	54580.42
653.60	54961.34
653.80	55033.02
653.99	54897.85
654.18	55033.02
654.38	54912.19
654.57	55434.42
654.76	55241.91
654.96	54981.82
655.15	55205.05
655.34	55123.13
655.54	54609.09
655.73	55170.23
655.92	55407.79
656.12	54949.05
656.31	55751.85
656.50	55227.57
656.70	55282.87
656.89	55522.48
657.08	55751.85
657.28	54672.57
657.47	55172.28
657.66	55426.23
657.86	55870.64
658.05	55555.25
658.24	55549.10
658.43	55286.96
658.63	55655.60
658.82	55915.69
659.01	55358.64
659.21	55864.49
659.40	55547.06
659.59	55418.03
659.79	55723.18
659.98	56030.38
660.17	55680.17
660.36	55588.02
660.56	55803.05
660.75	56065.19
660.94	55764.14
661.14	55827.63
661.33	55909.55
661.52	55600.30
661.71	56181.93
661.91	55760.05
662.10	55663.79
662.29	56290.47
662.49	56214.69
662.68	55874.73
662.87	55682.22
663.06	55729.33
663.26	56034.47
663.45	56292.52
663.64	55954.60
663.83	56204.45
664.03	56489.12
664.22	56415.40
664.41	56145.06
664.60	56054.95
664.80	56075.43
664.99	56224.93
665.18	56317.09
665.37	56319.14
665.57	56532.13
665.76	55872.68
665.95	56343.72
666.14	55989.42
666.34	55985.32
666.53	55981.23
666.72	55755.95
666.91	55948.46
667.11	56251.56
667.30	56149.16
667.49	56298.66
667.68	55973.03
667.87	55964.84
668.07	56616.10
668.26	56296.61
668.45	56587.42
668.64	56057.00
668.84	56970.39
669.03	56734.88
669.22	56300.71
669.41	55987.37
669.60	56411.30
669.80	56403.11
669.99	56724.64
670.18	56800.41
670.37	56857.76
670.57	56691.87
670.76	56315.04
670.95	56577.18
671.14	56362.15
671.33	56181.93
671.53	56822.94
671.72	56595.62
671.91	56587.42
672.10	56272.04
672.29	56532.13
672.48	56325.28
672.68	56734.88
672.87	56992.92
673.06	56734.88
673.25	56353.96
673.44	56177.83
673.64	56263.85
673.83	55968.94
674.02	56202.41
674.21	56202.41
674.40	56878.24
674.59	56132.78
674.79	56226.98
674.98	56286.37
675.17	56798.37
675.36	56153.26
675.55	56343.72
675.74	55956.65
675.94	56388.77
676.13	56831.13
676.32	56802.46
676.51	56718.49
676.70	56503.46
676.89	56839.32
677.08	56919.20
677.28	56779.93
677.47	56906.91
677.66	56800.41
677.85	56478.88
678.04	56714.40
678.23	56714.40
678.42	56693.92
678.62	56687.78
678.81	56888.48
679.00	57085.08
679.19	57185.43
679.38	56894.62
679.57	56368.29
679.76	56482.98
679.96	56677.54
680.15	56878.24
680.34	56485.03
680.53	56304.80
680.72	56523.94
680.91	56763.55
681.10	56585.38
681.29	56749.21
681.48	56628.38
681.68	56431.78
681.87	56329.38
682.06	56812.70
682.25	56210.60
682.44	56439.97
682.63	56906.91
682.82	56442.02
683.01	56249.51
683.20	56372.39
683.39	56591.52
683.59	56083.62
683.78	56016.04
683.97	56456.35
684.16	56581.28
684.35	56048.81
684.54	56276.13
684.73	56229.03
684.92	56429.73
685.11	55841.96
685.30	56032.42
685.49	56763.55
685.69	56706.21
685.88	56194.21
686.07	56380.58
686.26	56392.87
686.45	56462.50
686.64	56698.01
686.83	55813.29
687.02	56356.00
687.21	56431.78
687.40	56073.38
687.59	55813.29
687.78	56050.86
687.97	56497.31
688.16	56175.78
688.35	56554.66
688.54	55551.15
688.74	56302.76
688.93	56237.22
689.12	55743.66
689.31	56145.06
689.50	56278.18
689.69	55518.38
689.88	55729.33
690.07	55852.20
690.26	55860.40
690.45	56415.40
690.64	56206.50
690.83	55870.64
691.02	55913.64
691.21	55690.41
691.40	55792.81
691.59	55989.42
691.78	55854.25
691.97	55975.08
692.16	55776.43
692.35	56579.23
692.54	55870.64
692.73	55960.75
692.92	55751.85
693.11	55878.83
693.30	55522.48
693.49	55852.20
693.68	55768.24
693.87	55483.57
694.06	55481.52
694.25	55547.06
694.44	55461.04
694.63	55792.81
694.82	55641.26
695.01	55203.00
695.20	55448.75
695.39	55334.07
695.58	55653.55
695.77	55645.36
695.96	55360.69
696.15	55612.59
696.34	55125.17
696.53	55114.94
696.72	55694.51
696.91	55612.59
697.10	55542.96
697.29	54957.24
697.48	55166.13
697.67	55137.46
697.86	55104.70
698.05	54680.77
698.24	55276.72
698.43	54545.60
698.62	55309.49
698.81	55481.52
699.00	55354.55
699.19	54901.95
699.38	55303.35
699.57	54412.48
699.76	55573.68
699.95	55159.99
700.14	54676.67
700.32	55061.69
700.51	54838.46
700.70	55157.94
700.89	54990.01
701.08	55377.08
701.27	54846.65
701.46	55215.29
701.65	54148.29
701.84	54439.11
702.03	55180.47
702.22	54424.77
702.41	54574.27
702.60	54863.03
702.79	54539.46
702.98	54541.50
703.17	54650.05
703.35	54156.49
703.54	54154.44
703.73	54865.08
703.92	54424.77
704.11	54539.46
704.30	54166.73
704.49	53802.19
704.68	54019.27
704.87	54013.13
705.06	54154.44
705.25	53912.78
705.43	53542.10
705.62	54043.85
705.81	54117.57
706.00	53892.30
706.19	53896.39
706.38	53822.67
706.57	53949.64
706.76	53716.17
706.95	53402.83
707.14	53480.66
707.32	53677.26
707.51	53581.01
707.70	53400.79
707.89	53794.00
708.08	53497.04
708.27	53675.21
708.46	53667.02
708.65	53589.20
708.84	53687.50
709.02	53568.72
709.21	53755.08
709.40	53490.90
709.59	53533.90
709.78	53550.29
709.97	53691.60
710.16	52876.51
710.34	53089.49
710.53	53320.91
710.72	53570.77
710.91	53038.29
711.10	52919.51
711.29	53230.80
711.48	52733.15
711.66	52868.31
711.85	52684.00
712.04	52839.64
712.23	52921.56
712.42	52866.27
712.61	52909.27
712.80	52886.74
712.98	52931.80
713.17	52536.54
713.36	52436.19
713.55	52733.15
713.74	52532.45
713.93	52591.84
714.11	52602.08
714.30	52509.92
714.49	52567.26
714.68	52679.90
714.87	52483.30
715.06	52833.50
715.24	52276.45
715.43	52163.81
715.62	52266.21
715.81	52188.39
716.00	52636.89
716.18	51948.78
716.37	51569.90
716.56	51786.99
716.75	52507.87
716.94	51475.69
717.12	51551.47
717.31	51645.68
717.50	52006.12
717.69	51868.90
717.88	51268.85
718.06	51649.77
718.25	51989.73
718.44	51746.03
718.63	51537.13
718.82	51094.77
719.00	51385.58
719.19	51117.30
719.38	51490.03
719.57	50756.86
719.76	50912.50
719.94	50384.13
720.13	50691.32
720.32	50490.62
720.51	50699.51
720.69	50558.20
720.88	50795.77
721.07	50812.15
721.26	50496.77
721.44	50117.89
721.63	50543.87
721.82	50332.93
722.01	50289.92
722.20	50285.82
722.38	49769.74
722.57	49771.78
722.76	49952.01
722.95	49972.49
723.13	49526.03
723.32	49765.64
723.51	49706.25
723.70	49804.55
723.88	49640.71
724.07	49583.37
724.26	49775.88
724.44	49032.47
724.63	49978.63
724.82	49304.85
725.01	49138.96
725.19	49014.04
725.38	48776.47
725.57	49005.84
725.76	49292.56
725.94	48960.79
726.13	49323.28
726.32	49118.48
726.51	48809.24
726.69	49270.03
726.88	49050.90
727.07	49098.00
727.25	48936.21
727.44	49134.87
727.63	48565.53
727.82	48862.49
728.00	48684.31
728.19	48639.26
728.38	48768.28
728.56	48207.14
728.75	48686.36
728.94	48547.10
729.12	49034.52
729.31	48678.17
729.50	48672.03
729.69	48723.22
729.87	48598.30
730.06	48626.97
730.25	48502.04
730.43	48913.69
730.62	48225.57
730.81	48553.24
730.99	48409.89
731.18	48248.10
731.37	48428.32
731.55	48641.31
731.74	48633.11
731.93	48467.23
732.11	48495.90
732.30	48215.33
732.49	48127.27
732.67	47961.38
732.86	48176.42
733.05	48651.55
733.23	47920.42
733.42	48141.60
733.61	48291.10
733.79	48237.86
733.98	48678.17
734.17	48002.34
734.35	48088.35
734.54	48121.12
734.73	48379.17
734.91	48192.80
735.10	47846.69
735.29	48182.56
735.47	47617.32
735.66	48071.97
735.84	47811.88
736.03	47428.91
736.22	48198.94
736.40	47641.90
736.59	48071.97
736.78	47754.54
736.96	47889.70
737.15	47566.12
737.33	47635.75
737.52	47183.15
737.71	47273.26
737.89	47416.62
738.08	47140.14
738.27	47504.68
738.45	47615.27
738.64	47516.97
738.82	47342.89
739.01	47306.03
739.20	47375.66
739.38	47430.96
739.57	47703.34
739.75	47267.12
739.94	46949.68
740.13	47281.45
740.31	46765.37
740.50	47064.37
740.68	46994.74
740.87	47234.35
741.06	47033.65
741.24	46576.95
741.43	46804.28
741.61	46779.70
741.80	46671.16
741.99	46730.55
742.17	46748.98
742.36	46759.22
742.54	46552.38
742.73	46400.83
742.91	46863.67
743.10	46685.50
743.29	46513.47
743.47	46701.88
743.66	46220.61
743.84	46292.29
744.03	45997.38
744.21	46259.52
744.40	46675.26
744.59	45997.38
744.77	45837.64
744.96	46204.22
745.14	46331.20
745.33	46662.97
745.51	46081.34
745.70	46302.53
745.88	45856.07
746.07	46280.00
746.26	46028.10
746.44	45567.30
746.63	45743.43
746.81	46081.34
747.00	45473.10
747.18	45591.88
747.37	45806.92
747.55	45763.91
747.74	46259.52
747.92	45339.98
748.11	45716.81
748.29	45296.97
748.48	45638.98
748.66	45352.27
748.85	45077.84
749.03	45778.25
749.22	45786.44
749.41	45102.42
749.59	45661.51
749.78	45137.23
749.96	44946.77
750.15	44963.15
750.33	45159.76
750.52	45153.62
750.70	44758.36
750.89	44985.68
751.07	44873.04
751.26	45198.67
751.44	44813.65
751.63	44926.29
751.81	44588.38
752.00	44815.70
752.18	44571.99
752.37	44856.66
752.55	44475.74
752.74	44283.23
752.92	44721.49
753.10	44430.68
753.29	44344.67
753.47	44617.05
753.66	44447.07
753.84	44490.07
754.03	44215.65
754.21	43863.39
754.40	44184.93
754.58	44199.26
754.77	44107.10
754.95	43740.52
755.14	44242.27
755.32	43431.27
755.51	43660.65
755.69	43603.30
755.88	43576.68
756.06	44051.81
756.24	43582.82
756.43	43683.17
756.61	43591.01
756.80	43631.97
756.98	43228.52
757.17	43791.72
757.35	43398.51
757.54	43429.23
757.72	43840.87
757.90	43298.16
758.09	43253.10
758.27	43158.89
758.46	42962.29
758.64	43255.15
758.83	43545.96
759.01	43447.66
759.19	43341.16
759.38	43404.65
759.56	43453.80
759.75	43128.17
759.93	42941.81
760.12	42933.62
760.30	43031.92
760.48	42802.55
760.67	42685.81
760.85	42874.23
761.04	43029.87
761.22	43210.09
761.40	42362.23
761.59	42323.32
761.77	42612.09
761.96	42579.32
762.14	42681.72
762.32	42466.68
762.51	42468.73
762.69	42089.85
762.88	42427.77
763.06	42196.35
763.24	42065.28
763.43	42304.89
763.61	41991.55
763.80	42395.00
763.98	42120.57
764.16	41940.35
764.35	42179.96
764.53	41500.04
764.72	41713.03
764.90	41782.66
765.08	41780.61
765.27	41835.91
765.45	41878.91
765.63	41432.46
765.82	41684.36
766.00	41518.47
766.18	41166.22
766.37	42083.71
766.55	41178.51
766.74	41211.28
766.92	41516.42
767.10	41717.12
767.29	41428.36
767.47	41141.64
767.65	41510.28
767.84	40730.00
768.02	41383.30
768.20	40703.38
768.39	41061.77
768.57	41244.04
768.75	41092.49
768.94	41239.95
769.12	41026.96
769.30	40564.12
769.49	40844.69
769.67	40564.12
769.85	39947.68
770.04	40363.42
770.22	40715.67
770.40	40105.37
770.59	40445.33
770.77	40648.08
770.95	40416.66
771.14	40355.22
771.32	40232.35
771.50	39632.29
771.69	40123.80
771.87	40330.65
772.05	39878.05
772.24	39796.13
772.42	39951.77
772.60	39902.62
772.78	39828.90
772.97	39853.47
773.15	39667.11
773.33	39832.99
773.52	39703.97
773.70	40084.89
773.88	39962.01
774.07	39832.99
774.25	39830.94
774.43	39986.59
774.61	39884.19
774.80	39495.08
774.98	39708.07
775.16	40048.03
775.34	40136.09
775.53	39544.23
775.71	39699.87
775.89	39759.27
776.08	39546.28
776.26	40031.65
776.44	39925.15
776.62	39677.35
776.81	39677.35
776.99	39931.29
777.17	39757.22
777.35	39990.69
777.54	39652.77
777.72	39978.40
777.90	40123.80
778.08	40310.17
778.27	40076.70
778.45	40009.12
778.63	40785.30
778.81	39931.29
779.00	40621.46
779.18	40359.32
779.36	40455.57
779.54	40000.93
779.73	40234.39
779.91	40289.69
780.09	39789.98
780.27	40379.80
780.46	40287.64
780.64	40287.64
780.82	40281.50
781.00	40175.00
781.19	40166.81
781.37	40832.40
781.55	40670.61
781.73	40568.21
781.91	40621.46
782.10	40320.41
782.28	40377.75
782.46	40666.52
782.64	40998.29
782.82	40811.92
783.01	40648.08
783.19	41102.73
783.37	40830.35
783.55	40650.13
783.74	40777.11
783.92	40236.44
784.10	41182.60
784.28	40797.59
784.46	40711.57
784.64	40467.86
784.83	40863.12
785.01	40891.79
785.19	40873.36
785.37	40680.85
785.55	40973.71
785.74	40605.08
785.92	40498.58
786.10	40598.93
786.28	40736.15
786.46	40297.88
786.64	40514.97
786.83	40668.56
787.01	40373.66
787.19	40658.32
787.37	40519.06
787.55	40234.39
787.74	40224.15
787.92	40357.27
788.10	40398.23
788.28	40170.91
788.46	40256.92
788.64	39632.29
788.82	40213.91
789.01	39910.82
789.19	40265.11
789.37	39990.69
789.55	40027.55
789.73	39568.80
789.91	39777.70
790.09	39529.89
790.28	39622.05
790.46	39493.03
790.64	39886.24
790.82	39134.63
791.00	39669.15
791.18	39458.21
791.36	39247.27
791.55	39447.97
791.73	39161.26
791.91	38983.09
792.09	39693.73
792.27	39290.28
792.45	38725.04
792.63	38641.07
792.81	38571.44
793.00	38503.86
793.18	38651.31
793.36	38655.41
793.54	38428.09
793.72	38507.96
793.90	38096.31
794.08	38380.98
794.26	38430.13
794.44	37893.57
794.62	37651.91
794.81	38022.59
794.99	38120.89
795.17	38092.22
795.35	38055.36
795.53	38092.22
795.71	38053.31
795.89	37383.62
796.07	37524.93
796.25	37518.79
796.43	37357.00
796.61	37369.29
796.80	37451.20
796.98	37166.54
797.16	36967.88
797.34	36691.41
797.52	36552.15
797.70	37057.99
797.88	36492.76
798.06	36326.87
798.24	36984.27
798.42	36521.43
798.60	36449.75
798.78	36847.05
798.96	36380.12
799.14	36560.34
799.32	36222.42
799.51	35739.10
799.69	35849.69
799.87	36447.70
800.05	36226.52
800.23	35806.69
800.41	35546.59
800.59	35907.04
800.77	35550.69
800.95	35016.17
801.13	35692.00
801.31	35390.95
801.49	35108.33
801.67	35380.71
801.85	35229.16
802.03	34881.00
802.21	35132.90
802.39	35042.79
802.57	35055.08
802.75	34835.95
802.93	34858.48
803.11	34799.08
803.29	34672.11
803.47	34186.74
803.65	34436.59
803.83	34334.20
804.01	34817.52
804.19	33924.60
804.37	34119.16
804.55	33965.56
804.73	34031.10
804.91	34133.50
805.09	34108.92
805.27	33914.36
805.45	34004.47
805.63	33854.97
805.81	33834.49
805.99	34047.48
806.17	33852.92
806.35	33697.28
806.53	33607.17
806.71	33574.40
806.89	33414.66
807.07	33121.80
807.25	33328.64
807.43	33209.86
807.61	33216.01
807.79	33281.54
807.97	32882.19
808.15	32904.71
808.33	33031.69
808.51	32800.27
808.69	32810.51
808.87	32505.36
809.05	32495.12
809.23	32136.73
809.41	32202.26
809.59	32296.47
809.77	32185.88
809.95	32286.23
810.13	32032.28
810.31	32243.22
810.49	31960.60
810.67	32134.68
810.84	32138.77
811.02	32110.10
811.20	31542.81
811.38	32054.81
811.56	31512.10
811.74	31782.43
811.92	31899.16
812.10	31581.73
812.28	31829.53
812.46	31751.71
812.64	31675.93
812.82	31464.99
813.00	31475.23
813.18	31587.87
813.36	31096.36
813.53	31352.35
813.71	31235.62
813.89	31366.69
814.07	31204.90
814.25	31151.65
814.43	31106.60
814.61	30975.53
814.79	31100.45
814.97	30793.26
815.15	30942.76
815.33	30606.89
815.50	30633.52
815.68	30590.51
815.86	30553.65
816.04	30535.21
816.22	30486.06
816.40	30256.69
816.58	30070.33
816.76	30395.95
816.94	30279.22
817.11	30328.37
817.29	30029.37
817.47	30049.85
817.65	30350.90
817.83	30076.47
818.01	29828.66
818.19	30072.37
818.37	30033.46
818.54	29658.68
818.72	29488.70
818.90	29957.69
819.08	30023.22
819.26	29828.66
819.44	29431.36
819.62	29808.19
819.80	29660.73
819.97	29591.10
820.15	29402.69
820.33	29482.56
820.51	29783.61
820.69	29107.78
820.87	29464.13
821.05	29324.86
821.22	29222.47
821.40	29195.84
821.58	29285.95
821.76	29079.11
821.94	29042.24
822.12	29101.64
822.29	29158.98
822.47	28755.53
822.65	29179.46
822.83	28886.60
823.01	29079.11
823.19	28706.38
823.36	28485.20
823.54	28638.80
823.72	28245.58
823.90	28595.79
824.08	28411.47
824.25	28859.98
824.43	28317.26
824.61	28593.74
824.79	28032.60
824.97	28405.33
825.15	28243.54
825.32	28601.93
825.50	28100.18
825.68	28196.43
825.86	28116.56
826.04	27977.30
826.21	28227.15
826.39	27969.11
826.57	27928.15
826.75	27977.30
826.93	28124.75
827.10	27760.22
827.28	27696.73
827.46	28010.07
827.64	27666.01
827.81	27264.61
827.99	28018.26
828.17	27496.03
828.35	27373.15
828.53	27459.16
828.70	27590.24
828.88	27479.64
829.06	27440.73
829.24	27706.97
829.41	27340.38
829.59	27973.21
829.77	27385.44
829.95	27436.64
830.12	27143.78
830.30	27416.16
830.48	27078.24
830.66	27278.94
830.84	27227.74
831.01	27477.60
831.19	27174.50
831.37	26891.88
831.55	26924.65
831.72	26990.18
831.90	26797.67
832.08	27106.91
832.25	26926.69
832.43	26629.74
832.61	26652.27
832.79	26371.69
832.96	26873.45
833.14	26769.00
833.32	26740.33
833.50	26764.90
833.67	26938.98
833.85	26637.93
834.03	26717.80
834.20	26766.95
834.38	26828.39
834.56	26414.70
834.74	26304.11
834.91	26574.44
835.09	26576.49
835.27	26035.83
835.44	26005.11
835.62	26095.22
835.80	26082.93
835.98	25986.68
836.15	25953.91
836.33	26156.66
836.51	26349.17
836.68	25671.29
836.86	25843.32
837.04	26394.22
837.21	25863.80
837.39	25925.24
837.57	26273.39
837.75	26058.35
837.92	25933.43
838.10	25593.47
838.28	25611.90
838.45	25632.38
838.63	25747.06
838.81	25677.43
838.98	25732.73
839.16	25708.15
839.34	25276.03
839.51	25331.33
839.69	25196.16
839.87	25466.49
840.04	25333.37
840.22	25534.07
840.40	25398.91
840.57	25058.95
840.75	25333.37
840.93	24786.57
841.10	25476.73
841.28	25513.59
841.46	25183.87
841.63	25697.91
841.81	25208.45
841.98	25255.55
842.16	25054.85
842.34	25210.50
842.51	24931.97
842.69	24989.31
842.87	24925.83
843.04	25124.48
843.22	24649.35
843.40	24733.32
843.57	24759.94
843.75	24747.65
843.92	25003.65
844.10	24952.45
844.28	24467.08
844.45	24764.04
844.63	24483.47
844.81	24594.06
844.98	24645.26
845.16	24450.70
845.33	24565.39
845.51	24397.45
845.69	24632.97
845.86	24284.81
846.04	24131.22
846.21	24510.09
846.39	24069.78
846.57	24192.65
846.74	24331.92
846.92	24323.72
847.09	24133.26
847.27	23910.04
847.45	24532.62
847.62	24196.75
847.80	24428.17
847.97	24198.80
848.15	24284.81
848.32	23731.86
848.50	24030.87
848.68	23887.51
848.85	23977.62
849.03	23654.04
849.20	23864.98
849.38	23545.50
849.56	24037.01
849.73	23860.88
849.91	23815.83
850.08	24016.53
850.26	23471.77
850.43	23770.77
850.61	23846.55
850.78	23447.19
850.96	23785.11
851.14	23352.99
851.31	23934.61
851.49	23250.59
851.66	23549.59
851.84	23326.36
852.01	23604.89
852.19	23674.52
852.36	23348.89
852.54	23549.59
852.71	23291.55
852.89	23531.16
853.07	23328.41
853.24	23236.25
853.42	23400.09
853.59	23154.33
853.77	23318.17
853.94	23322.27
854.12	23578.26
854.29	23086.75
854.47	22765.22
854.64	22951.59
854.82	23051.94
854.99	23144.09
855.17	22912.67
855.34	22812.32
855.52	22980.26
855.69	23133.86
855.87	22646.44
856.04	22306.48
856.22	22677.16
856.39	22597.29
856.57	22613.67
856.74	22435.50
856.92	22759.08
857.09	22277.80
857.27	22767.27
857.44	22597.29
857.62	22771.36
857.79	22349.48
857.97	22607.53
858.14	22726.31
858.32	22515.37
858.49	22195.89
858.67	22212.27
858.84	22156.97
859.02	22398.63
859.19	22455.98
859.37	22238.89
859.54	21993.14
859.72	22210.22
859.89	21935.79
860.06	22290.09
860.24	22167.21
860.41	22220.46
860.59	22025.90
860.76	21954.22
860.94	21866.16
861.11	22140.59
861.29	21997.23
861.46	21954.22
861.64	21745.33
861.81	21581.49
861.98	21690.04
862.16	21780.15
862.33	21833.39
862.51	21393.08
862.68	21565.11
862.86	21249.72
863.03	21524.15
863.21	21587.64
863.38	21417.66
863.55	21270.20
863.73	21493.43
863.90	21591.73
864.08	21239.48
864.25	21018.30
864.43	21210.81
864.60	21237.44
864.77	21231.29
864.95	21329.59
865.12	21223.10
865.30	21110.46
865.47	21159.61
865.64	21108.41
865.82	21061.31
865.99	21083.84
866.17	21100.22
866.34	21202.62
866.51	20739.78
866.69	20997.82
866.86	21094.08
867.04	20934.34
867.21	20774.60
867.38	20979.39
867.56	20645.57
867.73	20661.96
867.91	20561.61
868.08	20483.78
868.25	20530.89
868.43	20309.71
868.60	20231.88
868.78	20258.51
868.95	20711.11
869.12	20543.17
869.30	20270.79
869.47	20514.50
869.64	20242.12
869.82	20397.77
869.99	20309.71
870.16	20430.54
870.34	20543.17
870.51	20256.46
870.69	20037.33
870.86	20170.44
871.03	20139.72
871.21	20012.75
871.38	20068.05
871.55	19957.46
871.73	19875.54
871.90	20053.71
872.07	19787.47
872.25	19775.19
872.42	19781.33
872.59	19533.53
872.77	19648.21
872.94	19775.19
873.11	19754.71
873.29	19842.77
873.46	19746.51
873.63	19328.73
873.81	19650.26
873.98	19197.66
874.15	19574.49
874.33	19191.52
874.50	19214.04
874.67	19334.87
874.85	19285.72
875.02	19193.56
875.19	18976.48
875.37	19377.88
875.54	18947.81
875.71	19044.06
875.88	18755.30
876.06	18837.22
876.23	19142.36
876.40	18802.40
876.58	18843.36
876.75	18521.83
876.92	18693.86
877.10	18855.65
877.27	18603.75
877.44	18382.57
877.61	18568.93
877.79	18319.08
877.96	18351.85
878.13	18613.99
878.31	18427.62
878.48	18251.50
878.65	18476.77
878.82	18482.92
879.00	18067.18
879.17	18319.08
879.34	18226.92
879.51	17960.69
879.69	18065.13
879.86	18077.42
880.03	18145.00
880.21	18130.67
880.38	18118.38
880.55	18022.12
880.72	18276.07
880.90	18089.71
881.07	18110.19
881.24	17825.52
881.41	17821.42
881.59	17972.97
881.76	17821.42
881.93	17774.32
882.10	17575.67
882.28	17733.36
882.45	17606.39
882.62	17753.84
882.79	17637.11
882.96	17528.56
883.14	17729.27
883.31	17612.53
883.48	17460.98
883.65	17538.80
883.83	17522.42
884.00	17436.41
884.17	17489.65
884.34	17600.24
884.51	17170.17
884.69	17143.55
884.86	17473.27
885.03	17516.28
885.20	17207.03
885.38	17477.37
885.55	17305.34
885.72	17204.99
885.89	17336.06
886.06	17168.12
886.24	17106.68
886.41	16916.22
886.58	17284.86
886.75	17348.34
886.92	17247.99
887.10	17166.07
887.27	17067.77
887.44	16965.37
887.61	17000.19
887.78	16987.90
887.95	17006.33
888.13	16672.51
888.30	16838.40
888.47	16740.10
888.64	16662.27
888.81	16762.62
888.99	16678.66
889.16	16672.51
889.33	16355.08
889.50	16461.57
889.67	16617.22
889.84	16475.91
890.01	16494.34
890.19	16451.33
890.36	16357.13
890.53	16353.03
890.70	16310.02
890.87	16367.37
891.04	16178.95
891.22	16365.32
891.39	16381.70
891.56	16269.06
891.73	16267.02
891.90	16181.00
892.07	16199.43
892.24	16252.68
892.42	16076.55
892.59	16137.99
892.76	16017.16
892.93	15882.00
893.10	15990.54
893.27	15779.60
893.44	15789.84
893.61	15705.87
893.79	16047.88
893.96	16008.97
894.13	16119.56
894.30	15927.05
894.47	15949.58
894.64	15980.30
894.81	15775.50
894.98	15859.47
895.15	15730.45
895.33	15957.77
895.50	15640.34
895.67	15990.54
895.84	15689.49
896.01	15554.32
896.18	15531.80
896.35	16164.62
896.52	15552.27
896.69	15519.51
896.86	15644.43
897.04	15709.97
897.21	15607.57
897.38	15902.48
897.55	15748.88
897.72	15752.98
897.89	15871.76
898.06	15687.44
898.23	15613.71
898.40	15718.16
898.57	15808.27
898.74	15634.19
898.91	15519.51
899.08	15724.30
899.26	15423.25
899.43	15617.81
899.60	15421.20
899.77	15564.56
899.94	15417.11
900.11	15517.46
900.28	15509.27
900.45	15466.26
900.62	15300.37
900.79	15562.51
900.96	15544.08
901.13	15597.33
901.30	15478.55
901.47	15456.02
901.64	15445.78
901.81	15464.21
901.98	15578.90
902.15	15456.02
902.32	15630.10
902.49	15433.49
902.66	15425.30
902.83	15435.54
903.01	15456.02
903.18	15591.19
903.35	15609.62
903.52	15615.76
903.69	15582.99
903.86	15552.27
904.03	15384.34
904.20	15499.03
904.37	15453.97
904.54	15537.94
904.71	15353.62
904.88	15425.30
905.05	15367.96
905.22	15087.39
905.39	15259.42
905.56	15359.77
905.73	15177.50
905.90	15476.50
906.07	15562.51
906.24	15316.76
906.41	15503.12
906.58	15318.81
906.75	15259.42
906.92	15144.73
907.09	15327.00
907.26	15351.57
907.43	15120.15
907.60	15279.89
907.77	15365.91
907.93	15339.29
908.10	15195.93
908.27	15294.23
908.44	15234.84
908.61	15320.85
908.78	15083.29
908.95	15245.08
909.12	15068.95
909.29	15017.75
909.46	15163.16
909.63	15353.62
909.80	15060.76
909.97	15206.17
910.14	15009.56
910.31	15118.11
910.48	15210.26
910.65	15042.33
910.82	15071.00
910.99	15073.05
911.16	15030.04
911.33	15068.95
911.50	14954.27
911.66	14847.77
911.83	15187.74
912.00	14978.84
912.17	14858.01
912.34	14745.38
912.51	14991.13
912.68	14898.97
912.85	14602.02
913.02	14962.46
913.19	14495.52
913.36	14685.98
913.53	14657.31
913.70	14491.43
913.86	14698.27
914.03	14516.00
914.20	14757.66
914.37	14642.98
914.54	14284.58
914.71	14542.63
914.88	14434.08
915.05	14507.81
915.22	14337.83
915.39	14516.00
915.55	14122.79
915.72	14339.88
915.89	14251.81
916.06	13872.94
916.23	14264.10
916.40	14237.48
916.57	13784.88
916.74	13895.47
916.91	13954.86
917.07	13713.20
917.24	14059.31
917.41	14124.84
917.58	13840.17
917.75	13991.72
917.92	13449.01
918.09	13799.21
918.26	13557.55
918.42	13586.22
918.59	13625.14
918.76	13575.98
918.93	13348.66
919.10	13573.94
919.27	13338.42
919.44	13475.63
919.60	13606.70
919.77	13432.63
919.94	13363.00
920.11	13336.37
920.28	13397.81
920.45	13123.38
920.61	13084.47
920.78	13129.53
920.95	12982.07
921.12	13317.94
921.29	13027.13
921.46	12834.62
921.62	13072.18
921.79	12900.16
921.96	12691.26
922.13	12769.09
922.30	12754.75
922.47	12832.57
922.63	12488.51
922.80	12689.21
922.97	12586.82
923.14	12457.79
923.31	12506.95
923.47	12353.35
923.64	12607.30
923.81	12216.13
923.98	12306.24
924.15	12382.02
924.32	12185.41
924.48	12195.65
924.65	12427.07
924.82	12181.32
924.99	11837.26
925.15	11775.82
925.32	12121.93
925.49	11915.08
925.66	11874.12
925.83	11798.35
925.99	11857.74
926.16	11861.84
926.33	11609.93
926.50	11423.57
926.67	11702.09
926.83	11442.00
927.00	11644.75
927.17	11333.46
927.34	11267.92
927.50	11386.71
927.67	11349.84
927.84	11175.77
928.01	11249.49
928.17	11071.32
928.34	11085.65
928.51	10913.63
928.68	10907.48
928.84	10960.73
929.01	10778.46
929.18	10708.83
929.35	10843.99
929.51	10547.04
929.68	10667.87
929.85	10741.60
930.02	10641.25
930.18	10508.13
930.35	10784.60
930.52	10526.56
930.69	10581.85
930.85	10338.15
931.02	10309.47
931.19	10360.67
931.36	10315.62
931.52	10241.89
931.69	10102.63
931.86	10233.70
932.02	10071.91
932.19	10026.86
932.36	10073.96
932.53	10022.76
932.69	9846.63
932.86	9955.18
933.03	9975.66
933.19	9781.10
933.36	9590.64
933.53	9834.35
933.70	9553.77
933.86	9594.73
934.03	9566.06
934.20	9449.33
934.36	9549.68
934.53	9148.28
934.70	9305.97
934.86	9232.24
935.03	9006.97
935.20	9115.51
935.36	8955.77
935.53	8836.99
935.70	8642.43
935.86	9015.16
936.03	8755.07
936.20	8517.50
936.36	8603.52
936.53	8470.40
936.70	8406.91
936.86	8474.49
937.03	8441.73
937.20	8288.13
937.36	8402.82
937.53	8036.23
937.70	8015.75
937.86	7907.21
938.03	7745.42
938.20	7831.43
938.36	7716.75
938.53	7749.51
938.70	7479.18
938.86	7511.95
939.03	7415.69
939.20	7253.91
939.36	7092.12
939.53	7120.79
939.70	7184.27
939.86	6877.08
940.03	6918.04
940.19	6711.19
940.36	6840.22
940.53	6797.21
940.69	6688.67
940.86	6739.87
941.03	6438.81
941.19	6451.10
941.36	6395.81
941.52	6289.31
941.69	6338.46
941.86	6184.87
942.02	6158.24
942.19	6033.32
942.35	6096.80
942.52	5992.36
942.69	5961.64
942.85	5875.62
943.02	5849.00
943.18	5883.81
943.35	5787.56
943.52	5713.83
943.68	5717.93
943.85	5617.58
944.01	5590.95
944.18	5679.02
944.35	5580.71
944.51	5427.12
944.68	5488.56
944.84	5359.53
945.01	5384.11
945.17	5506.99
945.34	5283.76
945.51	5425.07
945.67	5511.08
945.84	5304.24
946.00	5189.55
946.17	5506.99
946.33	5308.34
946.50	5400.49
946.67	5330.86
946.83	5328.81
947.00	5294.00
947.16	5187.50
947.33	5091.25
947.49	5095.35
947.66	5244.85
947.82	5312.43
947.99	5169.07
948.16	5408.69
948.32	5230.51
948.49	5271.47
948.65	5267.38
948.82	5164.98
948.98	5410.73
949.15	5033.91
949.31	5250.99
949.48	5210.03
949.64	5257.14
949.81	5318.57
949.97	5328.81
950.14	5169.07
950.30	5109.68
950.47	5279.66
950.63	5240.75
950.80	5400.49
950.96	5210.03
951.13	5238.70
951.30	5334.96
951.46	5244.85
951.63	5445.55
951.79	5306.29
951.96	5353.39
952.12	5414.83
952.29	5326.77
952.45	5177.26
952.62	5371.82
952.78	5363.63
952.94	5283.76
953.11	5291.95
953.27	5126.07
953.44	5480.36
953.60	5216.18
953.77	5326.77
953.93	5310.38
954.10	5398.45
954.26	5373.87
954.43	5373.87
954.59	5416.88
954.76	5556.14
954.92	5279.66
955.09	5392.30
955.25	5341.10
955.42	5439.40
955.58	5427.12
955.75	5380.01
955.91	5246.90
956.07	5365.68
956.24	5199.79
956.40	5318.57
956.57	5289.90
956.73	5482.41
956.90	5365.68
957.06	5316.53
957.23	5349.29
957.39	5304.24
957.56	5461.93
957.72	5390.25
957.88	5298.10
958.05	5429.17
958.21	5478.32
958.38	5298.10
958.54	5326.77
958.71	5494.70
958.87	5318.57
959.03	5212.08
959.20	5353.39
959.36	5263.28
959.53	5484.46
959.69	5410.73
959.85	5478.32
960.02	5429.17
960.18	5277.62
960.35	5334.96
960.51	5410.73
960.68	5302.19
960.84	5404.59
961.00	5330.86
961.17	5306.29
961.33	5351.34
961.50	5386.16
961.66	5470.12
961.82	5367.73
961.99	5277.62
962.15	5431.21
962.31	5353.39
962.48	5298.10
962.64	5394.35
962.81	5328.81
962.97	5334.96
963.13	5328.81
963.30	5441.45
963.46	5414.83
963.62	5257.14
963.79	5281.71
963.95	5359.53
964.12	5162.93
964.28	5328.81
964.44	5304.24
964.61	5185.46
964.77	5377.97
964.93	5302.19
965.10	5339.05
965.26	5167.03
965.42	5259.18
965.59	5294.00
965.75	5242.80
965.92	5322.67
966.08	5238.70
966.24	5230.51
966.41	5183.41
966.57	5257.14
966.73	5138.35
966.90	5214.13
967.06	5179.31
967.22	5128.11
967.39	5146.55
967.55	5042.10
967.71	5130.16
967.88	5115.83
968.04	5093.30
968.20	5160.88
968.37	4949.94
968.53	4958.13
968.69	5105.59
968.85	5121.97
969.02	4999.09
969.18	5175.22
969.34	5189.55
969.51	5193.65
969.67	5031.86
969.83	4876.21
970.00	5066.67
970.16	4951.99
970.32	4968.37
970.48	5021.62
970.65	4904.89
970.81	4906.93
970.97	4935.60
971.14	4790.20
971.30	5083.06
971.46	4880.31
971.63	4919.22
971.79	4861.88
971.95	4978.61
972.11	4829.11
972.28	4886.45
972.44	4915.12
972.60	4786.10
972.76	4921.27
972.93	4747.19
973.09	4911.03
973.25	4665.27
973.42	4837.30
973.58	4931.51
973.74	4841.40
973.90	4808.63
974.07	4685.75
974.23	4896.69
974.39	4820.92
974.55	4868.02
974.72	4734.90
974.88	4626.36
975.04	4722.62
975.20	4616.12
975.37	4724.66
975.53	4683.70
975.69	4673.46
975.85	4724.66
976.01	4554.68
976.18	4562.87
976.34	4579.26
976.50	4626.36
976.66	4769.72
976.83	4669.37
976.99	4605.88
977.15	4595.64
977.31	4534.20
977.47	4536.25
977.64	4650.94
977.80	4620.22
977.96	4646.84
978.12	4497.34
978.29	4569.02
978.45	4478.91
978.61	4605.88
978.77	4689.85
978.93	4560.83
979.10	4581.31
979.26	4509.63
979.42	4343.74
979.58	4386.75
979.74	4306.88
979.91	4509.63
980.07	4353.98
980.23	4501.44
980.39	4321.21
980.55	4405.18
980.71	4304.83
980.88	4399.04
981.04	4376.51
981.20	4292.54
981.36	4403.13
981.52	4407.23
981.68	4261.82
981.85	4423.61
982.01	4286.40
982.17	4364.22
982.33	4308.93
982.49	4319.17
982.65	4224.96
982.82	4218.82
982.98	4114.37
983.14	4044.74
983.30	4384.70
983.46	4372.41
983.62	4163.52
983.79	4136.90
983.95	4140.99
984.11	4050.88
984.27	4087.75
984.43	4057.03
984.59	4136.90
984.75	4046.79
984.91	3993.54
985.08	4091.84
985.24	4003.78
985.40	4026.31
985.56	4077.51
985.72	4171.71
985.88	4091.84
986.04	4009.92
986.20	4018.11
986.37	3991.49
986.53	3885.00
986.69	4028.35
986.85	3977.16
987.01	4016.07
987.17	4050.88
987.33	3944.39
987.49	3958.72
987.65	3887.04
987.82	3878.85
987.98	3835.85
988.14	4018.11
988.30	3805.13
988.46	3809.22
988.62	3803.08
988.78	3844.04
988.94	3876.80
989.10	3743.69
989.26	3854.28
989.42	3821.51
989.59	3604.42
989.75	3774.41
989.91	3856.33
990.07	3635.14
990.23	3796.93
990.39	3641.29
990.55	3796.93
990.71	3717.06
990.87	3633.10
991.03	3739.59
991.19	3698.63
991.35	3678.15
991.51	3770.31
991.67	3669.96
991.83	3661.77
992.00	3669.96
992.16	3764.17
992.32	3749.83
992.48	3553.23
992.64	3530.70
992.80	3682.25
992.96	3585.99
993.12	3702.73
993.28	3596.23
993.44	3684.30
993.60	3624.90
993.76	3592.14
993.92	3463.12
994.08	3622.86
994.24	3618.76
994.40	3633.10
994.56	3614.66
994.72	3508.17
994.88	3520.46
995.04	3485.64
995.20	3506.12
995.36	3395.53
995.52	3444.68
995.68	3373.00
995.84	3311.57
996.00	3612.62
996.16	3456.97
996.32	3491.79
996.48	3426.25
996.64	3563.47
996.80	3395.53
996.96	3454.92
997.12	3375.05
997.28	3346.38
997.44	3280.85
997.60	3370.96
997.76	3399.63
997.92	3352.52
998.08	3438.54
998.24	3256.27
998.40	3334.09
998.56	3354.57
998.72	3235.79
998.88	3182.54
999.04	3229.65
999.20	3321.81
999.36	3190.74
999.52	3241.93
999.68	3243.98
999.84	3299.28
1000.00	3231.69
1000.16	3303.37
1000.32	3192.78
1000.48	3221.45
1000.64	3164.11
1000.80	3137.49
1000.95	3145.68
1001.11	3256.27
1001.27	3157.97
1001.43	3135.44
1001.59	3117.01
1001.75	3215.31
1001.91	3157.97
1002.07	3100.62
1002.23	3016.66
1002.39	3065.81
1002.55	3127.25
1002.71	3080.14
1002.87	3014.61
1003.03	3106.77
1003.19	2918.36
1003.34	3217.36
1003.50	3028.95
1003.66	3024.85
1003.82	2953.17
1003.98	3000.27
1004.14	2985.94
1004.30	2990.03
1004.46	3063.76
1004.62	2949.08
1004.78	2992.08
1004.94	3043.28
1005.09	2990.03
1005.25	3018.71
1005.41	2848.72
1005.57	3016.66
1005.73	2908.12
1005.89	2971.60
1006.05	3010.51
1006.21	2891.73
1006.37	2815.96
1006.52	2924.50
1006.68	2928.60
1006.84	2947.03
1007.00	2854.87
1007.16	2906.07
1007.32	2944.98
1007.48	2863.06
1007.64	2811.86
1007.79	2834.39
1007.95	2811.86
1008.11	2932.69
1008.27	2711.51
1008.43	2850.77
1008.59	2772.95
1008.75	2883.54
1008.91	2813.91
1009.06	2793.43
1009.22	2893.78
1009.38	2772.95
1009.54	2748.37
1009.70	2818.00
1009.86	2838.48
1010.01	2740.18
1010.17	2766.81
1010.33	2803.67
1010.49	2699.22
1010.65	2807.77
1010.81	2652.12
1010.96	2678.74
1011.12	2660.31
1011.28	2637.78
1011.44	2719.70
1011.60	2609.11
1011.76	2688.98
1011.91	2775.00
1012.07	2564.06
1012.23	2672.60
1012.39	2658.26
1012.55	2562.01
1012.71	2662.36
1012.86	2721.75
1013.02	2611.16
1013.18	2549.72
1013.34	2676.70
1013.50	2576.34
1013.65	2539.48
1013.81	2529.24
1013.97	2539.48
1014.13	2576.34
1014.29	2555.86
1014.44	2611.16
1014.60	2570.20
1014.76	2633.69
1014.92	2631.64
1015.07	2568.15
1015.23	2549.72
1015.39	2512.86
1015.55	2648.02
1015.71	2555.86
1015.86	2457.56
1016.02	2445.27
1016.18	2443.23
1016.34	2572.25
1016.49	2428.89
1016.65	2584.54
1016.81	2514.91
1016.97	2549.72
1017.12	2439.13
1017.28	2293.72
1017.44	2416.60
1017.60	2371.55
1017.75	2441.18
1017.91	2410.46
1018.07	2428.89
1018.23	2469.85
1018.38	2375.64
1018.54	2418.65
1018.70	2432.99
1018.86	2459.61
1019.01	2420.70
1019.17	2402.27
1019.33	2482.14
1019.49	2463.71
1019.64	2418.65
1019.80	2375.64
1019.96	2435.03
1020.12	2432.99
1020.27	2371.55
1020.43	2373.60
1020.59	2344.92
1020.74	2383.84
1020.90	2447.32
1021.06	2404.32
1021.22	2361.31
1021.37	2314.20
1021.53	2361.31
1021.69	2344.92
1021.84	2260.96
1022.00	2258.91
1022.16	2250.72
1022.31	2232.29
1022.47	2322.40
1022.63	2314.20
1022.79	2131.94
1022.94	2295.77
1023.10	2367.45
1023.26	2232.29
1023.41	2244.57
1023.57	2168.80
1023.73	2209.76
1023.88	2246.62
1024.04	2183.13
1024.20	2234.33
1024.35	2230.24
1024.51	2209.76
1024.67	2172.89
1024.82	2334.68
1024.98	2279.39
1025.14	2310.11
1025.29	2199.52
1025.45	2232.29
1025.61	2093.02
1025.76	2156.51
1025.92	2140.13
1026.08	2256.86
1026.23	2258.91
1026.39	2273.25
1026.55	2217.95
1026.70	2172.89
1026.86	2170.85
1027.02	2189.28
1027.17	2203.61
1027.33	2164.70
1027.48	2162.66
1027.64	2195.42
1027.80	2090.98
1027.95	2215.90
1028.11	2111.46
1028.27	2090.98
1028.42	2211.81
1028.58	2090.98
1028.73	2066.40
1028.89	2029.54
1029.05	2117.60
1029.20	2101.22
>>>>>End Processed Spectral Data<<<<<
