SpectraSuite Data File
++++++++++++++++++++++++++++++++++++
Date: Fri Jun 02 14:52:27 CEST 2017
User: INFO_000
Dark Spectrum Present: No
Reference Spectrum Present: No
Number of Sampled Component Spectra: 1
Spectrometers: USB4H00879
Integration Time (usec): 80000 (USB4H00879)
Spectra Averaged: 1 (USB4H00879)
Boxcar Smoothing: 0 (USB4H00879)
Correct for Electrical Dark: No (USB4H00879)
Strobe/Lamp Enabled: No (USB4H00879)
Correct for Detector Non-linearity: No (USB4H00879)
Correct for Stray Light: No (USB4H00879)
Number of Pixels in Processed Spectrum: 3648
>>>>>Begin Processed Spectral Data<<<<<
345.13	1241.07
345.34	1241.07
345.56	1241.07
345.78	1282.03
345.99	1263.60
346.21	1703.91
346.42	1742.82
346.64	1708.01
346.86	1798.12
347.07	1628.14
347.29	1734.63
347.50	1605.61
347.72	1675.24
347.94	1765.35
348.15	1617.90
348.37	1624.04
348.59	1726.44
348.80	1662.95
349.02	1771.49
349.23	1904.61
349.45	1871.84
349.67	1855.46
349.88	1828.84
350.10	1976.29
350.31	1871.84
350.53	1810.40
350.75	1947.62
350.96	1781.73
351.18	1841.12
351.39	1880.04
351.61	1849.32
351.82	1912.80
352.04	1851.36
352.26	1710.05
352.47	1935.33
352.69	1902.56
352.90	1703.91
353.12	1978.34
353.34	1806.31
353.55	1898.47
353.77	1877.99
353.98	1908.71
354.20	1857.51
354.41	1953.76
354.63	1982.43
354.85	2068.45
355.06	1908.71
355.28	1804.26
355.49	1929.19
355.71	1947.62
355.92	1877.99
356.14	1873.89
356.35	1806.31
356.57	1853.41
356.79	1886.18
357.00	1867.75
357.22	1927.14
357.43	1863.65
357.65	1955.81
357.86	1873.89
358.08	1873.89
358.29	1914.85
358.51	1918.95
358.72	1966.05
358.94	1976.29
359.16	1920.99
359.37	1927.14
359.59	1994.72
359.80	2021.35
360.02	1927.14
360.23	1910.75
360.45	2002.91
360.66	1908.71
360.88	1943.52
361.09	1914.85
361.31	2070.50
361.52	1945.57
361.74	2093.02
361.95	2009.06
362.17	1925.09
362.38	2090.98
362.60	2056.16
362.81	1966.05
363.03	1988.58
363.24	1992.67
363.46	2117.60
363.67	2011.11
363.89	2039.78
364.10	2017.25
364.32	1943.52
364.53	2039.78
364.75	1892.32
364.96	2043.87
365.18	2035.68
365.39	2050.02
365.61	2017.25
365.82	2113.50
366.04	2115.55
366.25	1994.72
366.47	2066.40
366.68	2035.68
366.90	2064.35
367.11	2117.60
367.33	2093.02
367.54	2103.26
367.76	2031.58
367.97	2189.28
368.19	2011.11
368.40	2160.61
368.62	1996.77
368.83	2009.06
369.05	2136.03
369.26	1998.82
369.48	2086.88
369.69	2035.68
369.91	2023.39
370.12	2007.01
370.33	2090.98
370.55	1964.00
370.76	2107.36
370.98	2150.37
371.19	2076.64
371.41	2064.35
371.62	2078.69
371.84	2027.49
372.05	2191.33
372.27	2099.17
372.48	2101.22
372.69	2035.68
372.91	2123.74
373.12	2183.13
373.34	2078.69
373.55	2150.37
373.77	2152.42
373.98	2109.41
374.20	2203.61
374.41	2236.38
374.62	2117.60
374.84	2148.32
375.05	2226.14
375.27	2144.22
375.48	2230.24
375.70	2154.46
375.91	2211.81
376.12	2232.29
376.34	2228.19
376.55	2148.32
376.77	2140.13
376.98	2041.82
377.19	2078.69
377.41	2117.60
377.62	2142.18
377.84	2324.44
378.05	2367.45
378.27	2189.28
378.48	2330.59
378.69	2439.13
378.91	2283.49
379.12	2289.63
379.34	2248.67
379.55	2346.97
379.76	2301.92
379.98	2203.61
380.19	2273.25
380.41	2285.53
380.62	2385.88
380.83	2263.01
381.05	2232.29
381.26	2371.55
381.47	2273.25
381.69	2326.49
381.90	2498.52
382.12	2328.54
382.33	2256.86
382.54	2346.97
382.76	2377.69
382.97	2324.44
383.19	2281.44
383.40	2426.84
383.61	2412.51
383.83	2306.01
384.04	2281.44
384.25	2283.49
384.47	2387.93
384.68	2424.80
384.89	2340.83
385.11	2410.46
385.32	2336.73
385.54	2404.32
385.75	2357.21
385.96	2414.56
386.18	2459.61
386.39	2396.12
386.60	2486.23
386.82	2478.04
387.03	2420.70
387.24	2545.63
387.46	2457.56
387.67	2508.76
387.88	2510.81
388.10	2469.85
388.31	2551.77
388.52	2570.20
388.74	2645.98
388.95	2488.28
389.16	2523.10
389.38	2576.34
389.59	2678.74
389.80	2629.59
390.02	2662.36
390.23	2656.22
390.44	2564.06
390.66	2547.67
390.87	2457.56
391.08	2639.83
391.30	2699.22
391.51	2623.45
391.72	2633.69
391.94	2635.74
392.15	2670.55
392.36	2764.76
392.58	2691.03
392.79	2699.22
393.00	2664.41
393.22	2721.75
393.43	2836.44
393.64	2846.68
393.85	2770.90
394.07	2766.81
394.28	2740.18
394.49	2865.11
394.71	2682.84
394.92	2879.44
395.13	2748.37
395.35	2820.05
395.56	2738.13
395.77	2797.53
395.98	2820.05
396.20	2953.17
396.41	2879.44
396.62	2912.21
396.84	2766.81
397.05	2869.20
397.26	2904.02
397.47	2975.70
397.69	2838.48
397.90	3055.57
398.11	3018.71
398.32	2990.03
398.54	2924.50
398.75	2836.44
398.96	2932.69
399.18	3084.24
399.39	3049.43
399.60	2965.46
399.81	2998.23
400.03	2889.68
400.24	3272.65
400.45	3061.71
400.66	3157.97
400.88	3117.01
401.09	3200.98
401.30	3047.38
401.51	3205.07
401.73	3213.26
401.94	3205.07
402.15	3160.02
402.36	3205.07
402.58	3133.39
402.79	3239.89
403.00	3268.56
403.21	3270.61
403.43	3254.22
403.64	3248.08
403.85	3198.93
404.06	3153.87
404.27	3184.59
404.49	3313.61
404.70	3168.21
404.91	3205.07
405.12	3387.34
405.34	3280.85
405.55	3393.48
405.76	3231.69
405.97	3260.37
406.19	3389.39
406.40	3168.21
406.61	3350.48
406.82	3391.44
407.03	3379.15
407.25	3291.09
407.46	3360.72
407.67	3440.59
407.88	3424.20
408.09	3350.48
408.31	3475.40
408.52	3522.51
408.73	3426.25
408.94	3383.24
409.15	3430.35
409.37	3497.93
409.58	3469.26
409.79	3491.79
410.00	3508.17
410.21	3387.34
410.43	3516.36
410.64	3424.20
410.85	3502.03
411.06	3581.90
411.27	3495.88
411.48	3592.14
411.70	3653.58
411.91	3524.55
412.12	3639.24
412.33	3565.51
412.54	3647.43
412.76	3737.54
412.97	3567.56
413.18	3594.19
413.39	3706.82
413.60	3764.17
413.81	3688.39
414.03	3755.97
414.24	3688.39
414.45	3764.17
414.66	3622.86
414.87	3731.40
415.08	3755.97
415.30	3792.84
415.51	3780.55
415.72	3831.75
415.93	3821.51
416.14	3823.56
416.35	3801.03
416.56	3835.85
416.78	3751.88
416.99	3905.48
417.20	3782.60
417.41	3872.71
417.62	3985.35
417.83	3971.01
418.04	3975.11
418.26	3944.39
418.47	3919.81
418.68	4110.27
418.89	3897.28
419.10	4104.13
419.31	4132.80
419.52	4003.78
419.73	4059.07
419.95	4147.14
420.16	3999.68
420.37	3956.68
420.58	4126.66
420.79	3952.58
421.00	4140.99
421.21	4179.90
421.42	4140.99
421.63	4237.25
421.85	4284.35
422.06	4288.45
422.27	4245.44
422.48	4128.70
422.69	4341.69
422.90	4249.54
423.11	4386.75
423.32	4284.35
423.53	4423.61
423.75	4345.79
423.96	4577.21
424.17	4480.96
424.38	4591.55
424.59	4507.58
424.80	4704.18
425.01	4523.96
425.22	4468.67
425.43	4456.38
425.64	4743.10
425.85	4798.39
426.06	4667.32
426.28	4597.69
426.49	4560.83
426.70	4560.83
426.91	4796.34
427.12	4667.32
427.33	4779.96
427.54	4714.42
427.75	4663.22
427.96	4874.17
428.17	4894.65
428.38	4986.80
428.59	5044.15
428.80	4857.78
429.01	5019.57
429.23	5042.10
429.44	5089.20
429.65	5056.43
429.86	4929.46
430.07	4863.93
430.28	4925.36
430.49	5064.63
430.70	5236.66
430.91	5236.66
431.12	5060.53
431.33	5287.86
431.54	5332.91
431.75	5171.12
431.96	5240.75
432.17	5222.32
432.38	5322.67
432.59	5437.36
432.80	5332.91
433.01	5461.93
433.22	5488.56
433.43	5429.17
433.64	5480.36
433.85	5459.88
434.06	5601.19
434.27	5425.07
434.49	5556.14
434.70	5633.96
434.91	5580.71
435.12	5742.50
435.33	5605.29
435.54	5818.28
435.75	5636.01
435.96	5683.11
436.17	5611.43
436.38	5689.26
436.59	5799.85
436.80	5842.85
437.01	5898.15
437.22	5789.61
437.43	5730.22
437.64	5656.49
437.85	5975.97
438.06	6008.74
438.27	5779.37
438.48	5777.32
438.69	5971.88
438.90	5945.25
439.11	5816.23
439.32	6096.80
439.53	6053.80
439.74	6221.73
439.95	6072.23
440.16	6068.13
440.37	6158.24
440.57	6023.08
440.78	6014.88
440.99	6119.33
441.20	6156.19
441.41	5957.54
441.62	6158.24
441.83	6162.34
442.04	6268.83
442.25	6330.27
442.46	6203.30
442.67	6166.43
442.88	6496.16
443.09	6203.30
443.30	6234.02
443.51	6272.93
443.72	6557.60
443.93	6129.57
444.14	6346.66
444.35	6270.88
444.56	6596.51
444.77	6373.28
444.98	6561.69
445.19	6621.08
445.40	6639.51
445.61	6571.93
445.81	6666.14
446.02	6621.08
446.23	6522.78
446.44	6371.23
446.65	6754.20
446.86	6600.60
447.07	6584.22
447.28	6864.79
447.49	6946.71
447.70	6780.82
447.91	6729.63
448.12	6731.67
448.33	6875.03
448.54	6850.46
448.74	6668.19
448.95	6862.74
449.16	6752.15
449.37	7151.51
449.58	6868.89
449.79	7065.49
450.00	6907.80
450.21	7079.83
450.42	7120.79
450.63	6959.00
450.84	7088.02
451.05	7073.68
451.25	7174.03
451.46	6993.81
451.67	7262.10
451.88	7372.69
452.09	7421.84
452.30	7096.21
452.51	7258.00
452.72	7382.93
452.93	7563.15
453.13	7282.58
453.34	7210.90
453.55	7477.13
453.76	7329.68
453.97	7657.36
454.18	7518.09
454.39	7583.63
454.60	7384.98
454.81	7452.56
455.01	7729.03
455.22	7407.50
455.43	7835.53
455.64	7872.39
455.85	7815.05
456.06	7874.44
456.27	7890.82
456.48	7851.91
456.68	7964.55
456.89	7960.45
457.10	7966.60
457.31	8071.04
457.52	8101.76
457.73	8128.39
457.94	8105.86
458.14	7978.89
458.35	8494.97
458.56	8247.17
458.77	8212.35
458.98	8408.96
459.19	8333.18
459.39	8456.06
459.60	8468.35
459.81	8415.10
460.02	8716.16
460.23	8464.25
460.44	8736.63
460.65	8744.83
460.85	8746.87
461.06	8720.25
461.27	8648.57
461.48	8925.05
461.69	8929.14
461.89	8748.92
462.10	8974.20
462.31	8836.99
462.52	8849.27
462.73	9019.25
462.94	9226.10
463.14	9076.60
463.35	9129.84
463.56	9666.41
463.77	9445.23
463.98	9215.86
464.18	9492.34
464.39	9707.37
464.60	9721.71
464.81	9478.00
465.02	9561.97
465.23	9873.26
465.43	9607.02
465.64	9850.73
465.85	9887.59
466.06	9842.54
466.27	10159.97
466.47	10205.03
466.68	10063.72
466.89	10028.90
467.10	10452.83
467.30	10162.02
467.51	10356.58
467.72	10438.50
467.93	10241.89
468.14	10491.74
468.34	10463.07
468.55	10782.56
468.76	10631.01
468.97	10557.28
469.17	10858.33
469.38	11009.88
469.59	11059.03
469.80	10678.11
470.01	10913.63
470.21	10954.58
470.42	11298.64
470.63	11226.96
470.84	11425.62
471.04	11523.92
471.25	11521.87
471.46	11433.81
471.67	11925.32
471.87	11620.17
472.08	11845.45
472.29	11997.00
472.50	11784.01
472.70	11706.19
472.91	12054.34
473.12	12238.66
473.33	12246.85
473.53	12574.53
473.74	12324.68
473.95	12631.87
474.16	12750.65
474.36	12552.00
474.57	12885.82
474.78	12928.83
474.99	12889.92
475.19	12846.91
475.40	12994.36
475.61	13150.01
475.81	13551.41
476.02	13705.01
476.23	13356.85
476.44	13547.31
476.64	13799.21
476.85	13905.71
477.06	13633.33
477.27	14110.50
477.47	14278.44
477.68	14274.34
477.89	14311.21
478.09	14405.41
478.30	14405.41
478.51	14444.32
478.71	14386.98
478.92	14712.61
479.13	14833.44
479.34	15093.53
479.54	15159.06
479.75	15071.00
479.96	15214.36
480.16	15238.94
480.37	15324.95
480.58	15578.90
480.78	15789.84
480.99	15605.52
481.20	15879.95
481.41	15740.69
481.61	16162.57
481.82	16172.81
482.03	16293.64
482.23	16099.08
482.44	16586.50
482.65	16531.20
482.85	16578.31
483.06	16553.73
483.27	16594.69
483.47	16756.48
483.68	16981.76
483.89	17047.29
484.09	16885.50
484.30	17223.42
484.51	17233.66
484.71	17610.48
484.92	17450.74
485.13	17833.71
485.33	17575.67
485.54	17530.61
485.75	18343.66
485.95	18155.24
486.16	18073.32
486.37	18206.44
486.57	18249.45
486.78	18067.18
486.98	18210.54
487.19	18702.05
487.40	18947.81
487.60	18558.69
487.81	19017.44
488.02	19013.34
488.22	18935.52
488.43	19060.45
488.64	19140.32
488.84	19316.44
489.05	19318.49
489.25	19187.42
489.46	19814.10
489.67	19660.50
489.87	19756.75
490.08	19793.62
490.29	19930.83
490.49	20235.98
490.70	20305.61
490.90	20405.96
491.11	20434.63
491.32	20438.73
491.52	20129.48
491.73	20186.83
491.94	20926.14
492.14	20707.01
492.35	20690.63
492.55	21176.00
492.76	20971.20
492.97	21130.94
493.17	21120.70
493.38	21253.82
493.58	21546.68
493.79	21278.40
494.00	21378.75
494.20	21661.37
494.41	21571.25
494.61	21958.32
494.82	21819.06
495.02	21817.01
495.23	21755.57
495.44	22081.20
495.64	22355.63
495.85	22355.63
496.05	22249.13
496.26	22136.49
496.47	22331.05
496.67	22283.95
496.88	22832.80
497.08	22681.25
497.29	22455.98
497.49	22800.04
497.70	23053.98
497.91	22988.45
498.11	23205.53
498.32	23226.01
498.52	23004.83
498.73	23406.23
498.93	23266.97
499.14	23355.04
499.34	23260.83
499.55	23611.03
499.76	23467.67
499.96	23725.72
500.17	23664.28
500.37	23592.60
500.58	24000.15
500.78	23985.81
500.99	23942.80
501.19	24137.36
501.40	24030.87
501.60	24018.58
501.81	24389.26
502.02	24157.84
502.22	23824.02
502.43	24358.54
502.63	24426.12
502.84	24422.03
503.04	24438.41
503.25	24665.74
503.45	24721.03
503.66	24606.34
503.86	24757.89
504.07	24772.23
504.27	24891.01
504.48	25065.09
504.68	24936.07
504.89	25181.82
505.09	25484.92
505.30	25280.13
505.50	25155.20
505.71	25282.17
505.91	25278.08
506.12	25554.55
506.32	25290.37
506.53	25489.02
506.73	25245.31
506.94	25624.18
507.14	25527.93
507.35	25550.46
507.55	25536.12
507.76	25912.95
507.96	25988.72
508.17	25749.11
508.37	25792.12
508.58	25708.15
508.78	26160.75
508.99	26302.06
509.19	26216.05
509.40	26066.55
509.60	26367.60
509.81	26390.13
510.01	26472.04
510.22	26357.36
510.42	26482.28
510.63	26533.48
510.83	26494.57
511.04	26433.13
511.24	26705.51
511.44	26556.01
511.65	26812.01
511.85	26326.64
512.06	26764.90
512.26	26748.52
512.47	26844.77
512.67	26666.60
512.88	26934.88
513.08	26967.65
513.29	27203.17
513.49	27051.62
513.69	27188.83
513.90	27469.40
514.10	27184.74
514.31	27555.42
514.51	27547.23
514.72	27555.42
514.92	27215.46
515.13	27620.95
515.33	27453.02
515.53	27805.27
515.74	27586.14
515.94	27856.47
516.15	27659.87
516.35	27364.96
516.56	27801.18
516.76	27987.54
516.96	28108.37
517.17	28268.11
517.37	28044.88
517.58	28073.56
517.78	28196.43
517.99	28223.06
518.19	28202.58
518.39	28653.13
518.60	28558.92
518.80	28526.16
519.01	28491.34
519.21	28612.17
519.41	28806.73
519.62	28669.51
519.82	29079.11
520.03	29087.30
520.23	29048.39
520.43	29015.62
520.64	29724.22
520.84	29640.25
521.05	29122.12
521.25	29640.25
521.45	29568.57
521.66	29681.21
521.86	29455.93
522.07	29505.09
522.27	29783.61
522.47	29490.75
522.68	29951.54
522.88	29939.26
523.08	30139.96
523.29	30348.85
523.49	30340.66
523.70	29974.07
523.90	30461.49
524.10	30395.95
524.31	30842.41
524.51	30459.44
524.71	30740.01
524.92	30783.02
525.12	31067.69
525.33	31182.37
525.53	31178.28
525.73	31350.31
525.94	31303.20
526.14	31122.98
526.34	31667.74
526.55	31839.77
526.75	31299.11
526.95	31919.64
527.16	32011.80
527.36	31966.74
527.56	32251.41
527.77	32222.74
527.97	32351.76
528.17	32212.50
528.38	32597.52
528.58	32429.59
528.78	32974.34
528.99	32374.29
529.19	32693.77
529.39	32476.69
529.60	33101.32
529.80	32830.99
530.00	32876.04
530.21	33367.55
530.41	33570.30
530.61	33490.43
530.82	33617.41
531.02	33533.44
531.22	33588.74
531.43	33820.16
531.63	33916.41
531.83	34231.80
532.04	34436.59
532.24	34067.96
532.44	34633.20
532.64	34672.11
532.85	34618.86
533.05	34745.84
533.25	34543.09
533.46	34891.24
533.66	35311.08
533.86	35171.82
534.07	35446.24
534.27	35270.12
534.47	35714.53
534.67	35538.40
534.88	35630.56
535.08	35884.51
535.28	35778.01
535.49	36613.59
535.69	36322.77
535.89	36117.98
536.09	36478.42
536.30	36380.12
536.50	36478.42
536.70	36685.26
536.91	36808.14
537.11	36771.28
537.31	36926.92
537.51	37111.24
537.72	37332.42
537.92	37004.75
538.12	37492.16
538.32	37350.85
538.53	37512.64
538.73	37352.90
538.93	37578.18
539.13	37692.86
539.34	37918.14
539.54	37909.95
539.74	38454.71
539.94	38104.51
540.15	38340.02
540.35	38499.76
540.55	38274.49
540.75	38292.92
540.96	38856.11
541.16	38661.55
541.36	38675.89
541.56	38915.50
541.77	39052.72
541.97	38935.98
542.17	39210.41
542.37	39353.77
542.58	39304.62
542.78	39191.98
542.98	39484.84
543.18	39759.27
543.38	39984.54
543.59	39675.30
543.79	39591.33
543.99	39544.23
544.19	40107.42
544.40	40072.60
544.60	40281.50
544.80	40627.60
545.00	40080.80
545.20	40768.91
545.41	40193.43
545.61	40314.26
545.81	40433.05
546.01	40942.99
546.21	40695.19
546.42	40744.34
546.62	40961.42
546.82	40867.22
547.02	41115.02
547.22	41096.59
547.43	40961.42
547.63	41121.16
547.83	41338.25
548.03	40942.99
548.23	41823.62
548.44	41371.02
548.64	41756.03
548.84	41444.74
549.04	41602.44
549.24	41373.06
549.45	41940.35
549.65	41698.69
549.85	41817.47
550.05	42077.57
550.25	42098.05
550.45	42513.78
550.66	42089.85
550.86	42186.11
551.06	42818.93
551.26	42628.47
551.46	42282.36
551.66	42536.31
551.87	42759.54
552.07	42761.59
552.27	42751.35
552.47	42954.10
552.67	42730.87
552.87	42583.41
553.07	42739.06
553.28	43099.50
553.48	43318.64
553.68	42820.98
553.88	43353.45
554.08	42952.05
554.28	43087.21
554.48	43226.48
554.69	43150.70
554.89	42964.34
555.09	43314.54
555.29	43130.22
555.49	43423.08
555.69	43562.34
555.89	43048.30
556.10	43689.32
556.30	43662.69
556.50	43627.88
556.70	43316.59
556.90	43748.71
557.10	43582.82
557.30	43525.48
557.50	43629.93
557.70	44184.93
557.91	43857.25
558.11	44002.66
558.31	44195.17
558.51	43963.75
558.71	44019.04
558.91	44393.82
559.11	43939.17
559.31	44436.83
559.51	43799.91
559.72	44402.01
559.92	44604.76
560.12	44148.06
560.32	44285.28
560.52	44000.61
560.72	44348.76
560.92	44692.82
561.12	44455.26
561.32	44721.49
561.52	44389.72
561.72	44612.95
561.93	44350.81
562.13	44858.71
562.33	44029.28
562.53	45237.58
562.73	44526.94
562.93	44422.49
563.13	44963.15
563.33	44621.14
563.53	45196.62
563.73	44238.17
563.93	45139.28
564.13	44930.39
564.33	45221.20
564.53	45102.42
564.74	45094.22
564.94	44629.34
565.14	44666.20
565.34	44584.28
565.54	44803.41
565.74	45002.07
565.94	45477.19
566.14	45442.38
566.34	44961.11
566.54	45311.31
566.74	45000.02
566.94	45215.05
567.14	45247.82
567.34	45292.88
567.54	45387.08
567.74	45049.17
567.94	45049.17
568.14	45178.19
568.34	45659.46
568.54	45170.00
568.74	45520.20
568.94	45378.89
569.14	45741.38
569.34	45634.89
569.54	45790.53
569.75	45038.93
569.95	45643.08
570.15	45923.65
570.35	45833.54
570.55	45526.35
570.75	45839.68
570.95	45425.99
571.15	45591.88
571.35	45808.96
571.55	46017.86
571.75	46067.01
571.95	45841.73
572.15	45864.26
572.35	46013.76
572.55	45710.66
572.75	45696.33
572.95	46159.17
573.15	46144.83
573.35	45901.12
573.55	45946.18
573.75	45937.99
573.95	46093.63
574.15	45733.19
574.35	46347.58
574.55	46103.87
574.75	45862.21
574.95	46251.33
575.15	45839.68
575.34	45999.43
575.54	46445.88
575.74	46484.79
575.94	46593.34
576.14	46435.64
576.34	46591.29
576.54	46355.77
576.74	46718.26
576.94	46077.25
577.14	46826.81
577.34	46970.16
577.54	46898.48
577.74	47185.20
577.94	46593.34
578.14	46654.78
578.34	46994.74
578.54	45987.14
578.74	46343.48
578.94	47111.47
579.14	46624.06
579.34	47142.19
579.54	46892.34
579.74	47482.16
579.94	47058.23
580.13	47355.18
580.33	46728.50
580.53	47392.04
580.73	47037.75
580.93	46961.97
581.13	47363.37
581.33	47480.11
581.53	47250.74
581.73	47572.27
581.93	47945.00
582.13	48010.53
582.33	47514.92
582.53	47269.17
582.73	47631.66
582.92	47713.58
583.12	47957.28
583.32	47693.10
583.52	47318.32
583.72	48225.57
583.92	48028.96
584.12	47695.14
584.32	48418.08
584.52	48067.87
584.72	48188.70
584.92	47928.61
585.11	48346.40
585.31	48358.69
585.51	48166.18
585.71	47799.59
585.91	48749.85
586.11	47901.99
586.31	48203.04
586.51	48028.96
586.71	48248.10
586.91	48745.75
587.10	48604.44
587.30	48674.07
587.50	48702.74
587.70	48581.91
587.90	48776.47
588.10	48704.79
588.30	48581.91
588.50	49188.11
588.69	48717.08
588.89	48811.29
589.09	48930.07
589.29	48852.25
589.49	49024.28
589.69	48678.17
589.89	49005.84
590.08	49130.77
590.28	48674.07
590.48	49188.11
590.68	49091.86
590.88	49255.70
591.08	49339.66
591.28	49153.30
591.47	49759.50
591.67	49270.03
591.87	49509.64
592.07	49462.54
592.27	49575.18
592.47	49315.09
592.67	49939.72
592.86	49294.61
593.06	49947.91
593.26	49757.45
593.46	49812.74
593.66	49640.71
593.86	50144.51
594.05	50136.32
594.25	50326.78
594.45	49317.14
594.65	49878.28
594.85	49939.72
595.05	49982.73
595.24	50132.23
595.44	50134.28
595.64	50038.02
595.84	50279.68
596.04	50797.82
596.23	50611.45
596.43	50369.79
596.63	50085.12
596.83	50435.33
597.03	50582.78
597.22	51178.74
597.42	50748.67
597.62	50975.99
597.82	50881.78
598.02	50873.59
598.21	51135.73
598.41	50814.20
598.61	51328.24
598.81	51291.38
599.01	51371.25
599.20	50840.82
599.40	51035.38
599.60	51221.75
599.80	51264.75
600.00	51381.49
600.19	52055.27
600.39	51381.49
600.59	52061.41
600.79	51776.75
600.98	51739.88
601.18	52040.93
601.38	52180.20
601.58	52290.79
601.78	52067.56
601.97	52106.47
602.17	52452.58
602.37	52180.20
602.57	52270.31
602.76	52405.47
602.96	52315.36
603.16	52468.96
603.36	52423.90
603.55	52749.53
603.75	52896.98
603.95	52929.75
604.15	53042.39
604.34	52815.07
604.54	52860.12
604.74	53122.26
604.94	53392.59
605.13	53191.89
605.33	53204.18
605.53	52958.42
605.73	53535.95
605.92	53261.52
606.12	53361.87
606.32	53505.23
606.52	53509.33
606.71	53531.86
606.91	53763.28
607.11	53363.92
607.30	53611.73
607.50	53912.78
607.70	53517.52
607.90	53638.35
608.09	54023.37
608.29	53896.39
608.49	53929.16
608.68	53867.72
608.88	54373.57
609.08	54523.07
609.28	54146.25
609.47	53712.08
609.67	54768.83
609.87	54340.80
610.06	54645.95
610.26	54559.94
610.46	54549.70
610.66	54535.36
610.85	54805.69
611.05	54248.64
611.25	54836.41
611.44	54389.95
611.64	54514.88
611.84	54850.75
612.03	54670.53
612.23	54621.37
612.43	54535.36
612.62	55008.44
612.82	54940.86
613.02	54668.48
613.21	55000.25
613.41	54578.37
613.61	55368.88
613.80	54682.81
614.00	55415.99
614.20	55465.14
614.39	55325.88
614.59	55256.24
614.79	54965.43
614.98	55219.38
615.18	55127.22
615.38	55334.07
615.57	55143.61
615.77	55100.60
615.97	55272.63
616.16	55375.03
616.36	55456.95
616.56	55839.92
616.75	55473.33
616.95	55542.96
617.15	55168.18
617.34	55719.09
617.54	55465.14
617.74	55858.35
617.93	55727.28
618.13	55612.59
618.32	55485.62
618.52	55284.92
618.72	55588.02
618.91	55624.88
619.11	55602.35
619.31	55612.59
619.50	55293.11
619.70	55606.45
619.90	55979.18
620.09	55809.20
620.29	55710.89
620.48	55491.76
620.68	56388.77
620.88	55760.05
621.07	55946.41
621.27	55977.13
621.46	55289.01
621.66	55917.74
621.86	55805.10
622.05	55620.78
622.25	56562.85
622.44	55790.76
622.64	55461.04
622.84	56439.97
623.03	55872.68
623.23	55743.66
623.42	55936.17
623.62	56454.31
623.82	55850.16
624.01	55948.46
624.21	56333.48
624.40	56284.33
624.60	55819.44
624.80	56181.93
624.99	56417.44
625.19	56218.79
625.38	56530.08
625.58	56075.43
625.77	56454.31
625.97	56304.80
626.17	56032.42
626.36	56603.81
626.56	56591.52
626.75	55968.94
626.95	56499.36
627.14	56595.62
627.34	57080.98
627.54	55940.27
627.73	56065.19
627.93	56102.06
628.12	56235.17
628.32	56665.25
628.51	56292.52
628.71	56622.24
628.90	56612.00
629.10	56562.85
629.30	56704.16
629.49	55903.40
629.69	55956.65
629.88	56710.30
630.08	56814.75
630.27	57119.90
630.47	56769.69
630.66	56403.11
630.86	57136.28
631.05	56259.75
631.25	56935.58
631.44	56517.79
631.64	56362.15
631.84	56667.30
632.03	57115.80
632.23	56806.56
632.42	57111.70
632.62	56693.92
632.81	57040.03
633.01	56845.47
633.20	57330.84
633.40	57031.83
633.59	57044.12
633.79	56423.59
633.98	56886.43
634.18	56882.33
634.37	57529.49
634.57	57144.47
634.76	57142.42
634.96	57275.54
635.15	57210.01
635.35	56710.30
635.54	56890.52
635.74	57463.96
635.93	57087.13
636.13	57435.28
636.32	57402.52
636.52	56992.92
636.71	56753.31
636.91	57177.24
637.10	57291.93
637.30	57382.04
637.49	57308.31
637.69	57343.12
637.88	57750.67
638.08	57144.47
638.27	57357.46
638.46	56872.09
638.66	57146.52
638.85	57115.80
639.05	57396.37
639.24	57656.46
639.44	57060.51
639.63	57220.25
639.83	57179.29
640.02	56956.06
640.22	57433.24
640.41	57783.44
640.61	57300.12
640.80	57441.43
640.99	57373.84
641.19	57934.99
641.38	57832.59
641.58	57453.72
641.77	57287.83
641.97	57353.36
642.16	57619.60
642.36	57570.45
642.55	57564.31
642.74	57572.50
642.94	58135.69
643.13	57267.35
643.33	58018.95
643.52	57783.44
643.72	58303.62
643.91	57967.76
644.10	57693.33
644.30	57824.40
644.49	57488.53
644.69	58332.29
644.88	57783.44
645.08	57560.21
645.27	57740.43
645.46	57701.52
645.66	57599.12
645.85	57443.48
646.05	58025.10
646.24	58021.00
646.43	58012.81
646.63	58430.60
646.82	58647.68
647.02	58303.62
647.21	58006.67
647.40	58158.22
647.60	58561.67
647.79	58391.68
647.99	58197.13
648.18	57906.32
648.37	58561.67
648.57	58565.76
648.76	58340.49
648.96	58072.20
649.15	58156.17
649.34	58412.16
649.54	58186.89
649.73	57881.74
649.92	57951.37
650.12	57832.59
650.31	58272.90
650.51	58352.77
650.70	58608.77
650.89	58289.29
651.09	58893.44
651.28	58119.31
651.47	58252.42
651.67	58512.52
651.86	58778.75
652.06	58162.31
652.25	58383.49
652.44	57988.24
652.64	58154.12
652.83	58530.95
653.02	58127.50
653.22	58467.46
653.41	58217.61
653.60	58037.39
653.80	57912.46
653.99	58397.83
654.18	58074.25
654.38	58197.13
654.57	58598.53
654.76	57859.21
654.96	58002.57
655.15	58178.70
655.34	58332.29
655.54	58016.91
655.73	58090.63
655.92	58397.83
656.12	58449.03
656.31	57918.60
656.50	58119.31
656.70	58299.53
656.89	57611.41
657.08	58213.51
657.28	58428.55
657.47	57842.83
657.66	58152.07
657.86	58039.43
658.05	58121.35
658.24	58123.40
658.43	57889.93
658.63	57912.46
658.82	58104.97
659.01	58287.24
659.21	58164.36
659.40	58473.60
659.59	57762.96
659.79	58217.61
659.98	58426.50
660.17	58000.52
660.36	58315.91
660.56	58119.31
660.75	58315.91
660.94	57603.22
661.14	57883.79
661.33	57957.52
661.52	57572.50
661.71	58551.43
661.91	57889.93
662.10	57941.13
662.29	57951.37
662.49	58332.29
662.68	57758.86
662.87	57971.85
663.06	57926.80
663.26	57914.51
663.45	58453.12
663.64	57740.43
663.83	58279.05
664.03	57670.80
664.22	57672.85
664.41	58317.96
664.60	57627.79
664.80	57889.93
664.99	58012.81
665.18	57939.08
665.37	57975.95
665.57	58246.28
665.76	57996.43
665.95	58090.63
666.14	57859.21
666.34	57623.70
666.53	57836.69
666.72	57685.14
666.91	57310.36
667.11	57169.05
667.30	57713.81
667.49	57644.18
667.68	57310.36
667.87	57072.79
668.07	57808.01
668.26	57678.99
668.45	57691.28
668.64	57267.35
668.84	58139.78
669.03	57619.60
669.22	57670.80
669.41	57711.76
669.60	57848.97
669.80	57459.86
669.99	57541.78
670.18	57087.13
670.37	57050.27
670.57	57463.96
670.76	57279.64
670.95	57451.67
671.14	57339.03
671.33	57029.79
671.53	57584.79
671.72	57312.41
671.91	57394.32
672.10	57066.65
672.29	57664.66
672.48	56859.80
672.68	57445.52
672.87	57695.38
673.06	57083.03
673.25	56992.92
673.44	56962.20
673.64	56827.04
673.83	56992.92
674.02	56814.75
674.21	56624.29
674.40	56841.37
674.59	56769.69
674.79	56708.25
674.98	56706.21
675.17	57037.98
675.36	56663.20
675.55	56626.34
675.74	56968.35
675.94	56581.28
676.13	56644.77
676.32	56886.43
676.51	57244.82
676.70	56900.76
676.89	56753.31
677.08	56923.29
677.28	56628.38
677.47	56847.52
677.66	56870.04
677.85	56911.00
678.04	57091.22
678.23	56960.15
678.42	56313.00
678.62	56534.18
678.81	56573.09
679.00	56646.82
679.19	56736.93
679.38	56304.80
679.57	55966.89
679.76	56378.53
679.96	56720.54
680.15	56427.68
680.34	57070.75
680.53	56202.41
680.72	56386.72
680.91	56138.92
681.10	56040.62
681.29	56308.90
681.48	56040.62
681.68	56212.65
681.87	55915.69
682.06	56169.64
682.25	55784.62
682.44	56097.96
682.63	56130.73
682.82	56106.15
683.01	56122.54
683.20	55260.34
683.39	55772.33
683.59	55561.39
683.78	55436.47
683.97	55510.19
684.16	55641.26
684.35	55076.02
684.54	55645.36
684.73	55471.28
684.92	55479.47
685.11	55248.05
685.30	55729.33
685.49	55676.08
685.69	55530.67
685.88	55567.54
686.07	55473.33
686.26	55194.81
686.45	55803.05
686.64	55499.95
686.83	55473.33
687.02	55405.75
687.21	55678.13
687.40	55198.90
687.59	55393.46
687.78	55499.95
687.97	55450.80
688.16	55276.72
688.35	54951.10
688.54	54949.05
688.74	54871.23
688.93	54879.42
689.12	55039.16
689.31	55022.78
689.50	54848.70
689.69	54226.12
689.88	54416.58
690.07	55121.08
690.26	54920.38
690.45	55182.52
690.64	54621.37
690.83	54531.26
691.02	54355.14
691.21	54877.37
691.40	54482.11
691.59	55127.22
691.78	54645.95
691.97	54817.98
692.16	54715.58
692.35	54949.05
692.54	54738.11
692.73	54557.89
692.92	54238.40
693.11	54412.48
693.30	54899.90
693.49	54262.98
693.68	54633.66
693.87	54441.15
694.06	54279.36
694.25	54361.28
694.44	53927.11
694.63	54230.21
694.82	54903.99
695.01	54238.40
695.20	53963.98
695.39	53916.87
695.58	54031.56
695.77	54336.71
695.96	53900.49
696.15	54119.62
696.34	54035.66
696.53	54234.31
696.72	54127.81
696.91	53785.80
697.10	54301.89
697.29	53675.21
697.48	54168.77
697.67	53687.50
697.86	53433.55
698.05	53740.75
698.24	54432.96
698.43	53187.80
698.62	53908.68
698.81	53064.92
699.00	53286.10
699.19	53511.38
699.38	53738.70
699.57	53136.60
699.76	53896.39
699.95	53396.69
700.14	53839.05
700.32	53298.39
700.51	53335.25
700.70	53652.69
700.89	53155.03
701.08	53423.31
701.27	53107.93
701.46	53136.60
701.65	53419.22
701.84	53372.11
702.03	53085.40
702.22	53318.87
702.41	53136.60
702.60	53419.22
702.79	52534.49
702.98	52827.35
703.17	52946.14
703.35	52860.12
703.54	53015.77
703.73	53443.79
703.92	52495.58
704.11	52925.66
704.30	52532.45
704.49	52626.65
704.68	52366.56
704.87	52608.22
705.06	52954.33
705.25	52892.89
705.43	52671.71
705.62	52647.13
705.81	52909.27
706.00	52751.58
706.19	52233.44
706.38	52333.79
706.57	52210.92
706.76	52548.83
706.95	52311.27
707.14	52202.72
707.32	52055.27
707.51	52241.63
707.70	52204.77
707.89	52014.31
708.08	52579.55
708.27	52270.31
708.46	52563.17
708.65	52036.84
708.84	52165.86
709.02	52405.47
709.21	52686.04
709.40	52012.26
709.59	52561.12
709.78	51832.04
709.97	52536.54
710.16	51993.83
710.34	52182.24
710.53	52159.72
710.72	52022.50
710.91	52212.96
711.10	51811.56
711.29	52104.42
711.48	52274.40
711.66	51762.41
711.85	51727.59
712.04	51526.89
712.23	51711.21
712.42	52030.69
712.61	51727.59
712.80	52012.26
712.98	51887.34
713.17	51586.28
713.36	51346.67
713.55	51516.65
713.74	51723.50
713.93	51481.84
714.11	51492.08
714.30	51340.53
714.49	51553.52
714.68	51967.21
714.87	51684.59
715.06	51829.99
715.24	51459.31
715.43	51557.61
715.62	51361.01
715.81	51002.61
716.00	51496.17
716.18	51582.19
716.37	51045.62
716.56	50906.36
716.75	51506.41
716.94	51303.67
717.12	51111.16
717.31	51160.31
717.50	50828.54
717.69	50869.50
717.88	51166.45
718.06	51207.41
718.25	51494.13
718.44	50701.56
718.63	50947.32
718.82	50744.57
719.00	50978.04
719.19	50742.52
719.38	50509.05
719.57	50263.30
719.76	50394.37
719.94	50498.81
720.13	50660.60
720.32	50398.46
720.51	50595.07
720.69	50253.06
720.88	50502.91
721.07	49775.88
721.26	50091.27
721.44	50550.01
721.63	50351.36
721.82	50107.65
722.01	49628.43
722.20	50076.93
722.38	49915.14
722.57	49693.96
722.76	49476.88
722.95	49952.01
723.13	49431.82
723.32	49878.28
723.51	49437.97
723.70	49751.30
723.88	49685.77
724.07	49458.45
724.26	49882.37
724.44	48968.98
724.63	49732.87
724.82	49526.03
725.01	49186.07
725.19	49016.08
725.38	49278.22
725.57	49184.02
725.76	49532.17
725.94	48917.78
726.13	49055.00
726.32	49566.99
726.51	49030.42
726.69	49454.35
726.88	48897.30
727.07	49098.00
727.25	49288.46
727.44	49194.26
727.63	48706.84
727.82	48790.81
728.00	49005.84
728.19	49057.04
728.38	49470.73
728.56	49100.05
728.75	49163.54
728.94	49042.71
729.12	49804.55
729.31	49233.17
729.50	49231.12
729.69	48987.41
729.87	49014.04
730.06	49022.23
730.25	49173.78
730.43	49292.56
730.62	48860.44
730.81	49067.28
730.99	49511.69
731.18	49069.33
731.37	49036.56
731.55	49206.55
731.74	49503.50
731.93	49247.50
732.11	49126.67
732.30	49190.16
732.49	49220.88
732.67	49157.39
732.86	49280.27
733.05	49229.07
733.23	49016.08
733.42	49128.72
733.61	49386.77
733.79	49374.48
733.98	49141.01
734.17	48985.36
734.35	49364.24
734.54	49437.97
734.73	49577.23
734.91	49315.09
735.10	49296.66
735.29	49265.94
735.47	48975.12
735.66	49020.18
735.84	49061.14
736.03	49091.86
736.22	49571.08
736.40	49091.86
736.59	49263.89
736.78	49050.90
736.96	48979.22
737.15	49239.31
737.33	48690.46
737.52	48788.76
737.71	48567.58
737.89	48655.64
738.08	48747.80
738.27	48545.05
738.45	49149.20
738.64	49214.74
738.82	48846.10
739.01	48889.11
739.20	48682.27
739.38	49247.50
739.57	49014.04
739.75	48645.40
739.94	48411.93
740.13	48753.94
740.31	48790.81
740.50	48403.74
740.68	48913.69
740.87	48702.74
741.06	48708.89
741.24	48403.74
741.43	48184.61
741.61	48606.49
741.80	48426.27
741.99	48407.84
742.17	48600.35
742.36	49024.28
742.54	48520.48
742.73	48303.39
742.91	48586.01
743.10	48444.70
743.29	48502.04
743.47	48612.63
743.66	48403.74
743.84	48870.68
744.03	48536.86
744.21	48239.90
744.40	48715.03
744.59	48018.72
744.77	48246.05
744.96	48452.89
745.14	48332.06
745.33	48200.99
745.51	47967.52
745.70	48475.42
745.88	47973.67
746.07	48227.62
746.26	47850.79
746.44	47594.79
746.63	47955.24
746.81	47863.08
747.00	48207.14
747.18	48483.61
747.37	47852.84
747.55	47895.85
747.74	48137.51
747.92	48018.72
748.11	47996.20
748.29	48321.82
748.48	47813.93
748.66	47799.59
748.85	47758.63
749.03	47940.90
749.22	47732.01
749.41	47643.94
749.59	47967.52
749.78	47496.49
749.96	47004.98
750.15	47441.20
750.33	47285.55
750.52	47506.73
750.70	47291.69
750.89	47170.86
751.07	47086.90
751.26	47428.91
751.44	47334.70
751.63	47351.09
751.81	46757.17
752.00	47191.34
752.18	47250.74
752.37	47023.41
752.55	47090.99
752.74	46998.83
752.92	46933.30
753.10	47191.34
753.29	46925.11
753.47	47007.03
753.66	46685.50
753.84	46980.40
754.03	46734.65
754.21	46699.83
754.40	46837.05
754.58	47125.81
754.77	46214.46
754.95	46781.75
755.14	46712.12
755.32	46406.97
755.51	46206.27
755.69	46300.48
755.88	46126.40
756.06	46499.13
756.24	46636.34
756.43	46380.35
756.61	46423.36
756.80	46177.60
756.98	45980.99
757.17	46681.40
757.35	46204.22
757.54	46060.87
757.72	46482.75
757.90	46396.73
758.09	45923.65
758.27	45847.88
758.46	45360.46
758.64	45495.63
758.83	46243.13
759.01	46284.09
759.19	45987.14
759.38	46060.87
759.56	46155.07
759.75	46232.89
759.93	46054.72
760.12	45774.15
760.30	45937.99
760.48	45407.56
760.67	45913.41
760.85	45757.77
761.04	45778.25
761.22	45466.95
761.40	45690.18
761.59	45393.23
761.77	45133.14
761.96	45251.92
762.14	45260.11
762.32	45223.25
762.51	44983.63
762.69	45081.94
762.88	44930.39
763.06	45241.68
763.24	45657.42
763.43	44840.28
763.61	44987.73
763.80	45215.05
763.98	45180.24
764.16	45077.84
764.35	44830.04
764.53	44807.51
764.72	44410.20
764.90	44735.83
765.08	44717.40
765.27	44803.41
765.45	44387.67
765.63	44455.26
765.82	44809.56
766.00	44617.05
766.18	44582.23
766.37	44619.10
766.55	43849.06
766.74	44442.97
766.92	43949.41
767.10	44131.68
767.29	43869.54
767.47	43701.61
767.65	44316.00
767.84	43855.20
768.02	44318.04
768.20	43728.23
768.39	44275.04
768.57	43947.36
768.75	43900.26
768.94	43578.73
769.12	43703.65
769.30	43382.12
769.49	43425.13
769.67	43500.90
769.85	43263.34
770.04	43316.59
770.22	43232.62
770.40	43292.01
770.59	43025.78
770.77	43543.91
770.95	43183.47
771.14	42902.90
771.32	42950.00
771.50	42796.40
771.69	42845.55
771.87	43265.39
772.05	42628.47
772.24	42591.61
772.42	42823.03
772.60	42665.33
772.78	42425.72
772.97	42743.16
773.15	42812.79
773.33	42370.43
773.52	42524.02
773.70	42290.55
773.88	42911.09
774.07	42397.05
774.25	42440.06
774.43	42777.97
774.61	42546.55
774.80	42732.92
774.98	42638.71
775.16	42458.49
775.34	42454.39
775.53	42743.16
775.71	42866.03
775.89	42814.83
776.08	42257.79
776.26	42816.88
776.44	42530.17
776.62	42636.66
776.81	42245.50
776.99	43021.68
777.17	42841.46
777.35	42868.08
777.54	42622.33
777.72	42460.54
777.90	43013.49
778.08	42554.74
778.27	42616.18
778.45	42771.83
778.63	42747.25
778.81	42933.62
779.00	43255.15
779.18	43181.42
779.36	43093.36
779.54	42976.62
779.73	42870.13
779.91	43302.25
780.09	42958.19
780.27	43142.51
780.46	42939.76
780.64	43345.26
780.82	43238.76
781.00	42808.69
781.19	43488.62
781.37	43337.07
781.55	43199.85
781.73	43361.64
781.91	43418.99
782.10	43277.68
782.28	42927.47
782.46	43466.09
782.64	43617.64
782.82	43070.83
783.01	43453.80
783.19	43197.80
783.37	43470.18
783.55	43582.82
783.74	43677.03
783.92	42935.66
784.10	43570.54
784.28	43242.86
784.46	43015.54
784.64	43234.67
784.83	43523.43
785.01	43582.82
785.19	43355.50
785.37	43406.70
785.55	42890.61
785.74	42870.13
785.92	43025.78
786.10	43212.14
786.28	43177.33
786.46	43242.86
786.64	42782.07
786.83	42941.81
787.01	43316.59
787.19	42470.78
787.37	42845.55
787.55	42554.74
787.74	42833.27
787.92	42841.46
788.10	42380.67
788.28	41831.81
788.46	42136.96
788.64	42429.82
788.82	42677.62
789.01	42274.17
789.19	42696.05
789.37	42452.34
789.55	42290.55
789.73	41919.87
789.91	41985.41
790.09	42077.57
790.28	41893.25
790.46	41414.02
790.64	42220.92
790.82	41702.79
791.00	41594.25
791.18	41039.25
791.36	41325.96
791.55	41733.51
791.73	40920.46
791.91	40826.26
792.09	41221.52
792.27	40924.56
792.45	41391.50
792.63	40867.22
792.81	41031.05
793.00	40390.04
793.18	40435.10
793.36	40525.21
793.54	40643.99
793.72	40150.43
793.90	40005.02
794.08	40306.07
794.26	40662.42
794.44	39730.59
794.62	39818.66
794.81	39931.29
794.99	39773.60
795.17	39796.13
795.35	39910.82
795.53	39888.29
795.71	39433.64
795.89	39306.66
796.07	39474.60
796.25	39286.18
796.43	38997.42
796.61	38938.03
796.80	38897.07
796.98	38839.73
797.16	38903.21
797.34	38747.57
797.52	38735.28
797.70	38866.35
797.88	38567.35
798.06	38090.17
798.24	38186.43
798.42	38077.88
798.60	37965.24
798.78	37592.51
798.96	38116.79
799.14	37795.26
799.32	37735.87
799.51	37531.08
799.69	37942.72
799.87	37815.74
800.05	37150.15
800.23	37459.40
800.41	37047.75
800.59	37008.84
800.77	37084.62
800.95	37019.08
801.13	37062.09
801.31	36525.52
801.49	36705.74
801.67	36849.10
801.85	36582.87
802.03	36322.77
802.21	36074.97
802.39	36513.23
802.57	36285.91
802.75	36167.13
802.93	36240.86
803.11	35823.07
803.29	35702.24
803.47	35712.48
803.65	35483.11
803.83	35685.86
804.01	35362.28
804.19	35278.31
804.37	34936.30
804.55	35032.55
804.73	35212.77
804.91	35040.75
805.09	35073.51
805.27	35044.84
805.45	35173.86
805.63	34956.78
805.81	34799.08
805.99	34854.38
806.17	34711.02
806.35	34889.20
806.53	34356.72
806.71	34582.00
806.89	34299.38
807.07	34229.75
807.25	34385.40
807.43	34141.69
807.61	34543.09
807.79	34053.62
807.97	33644.03
808.15	33945.08
808.33	33740.29
808.51	33832.44
808.69	33400.32
808.87	33506.82
809.05	33418.75
809.23	33062.41
809.41	33017.35
809.59	33216.01
809.77	33064.46
809.95	32808.46
810.13	32802.32
810.31	32775.69
810.49	32912.91
810.67	32638.48
810.84	32744.97
811.02	32609.81
811.20	32351.76
811.38	32769.55
811.56	31987.22
811.74	32327.19
811.92	31890.97
812.10	32212.50
812.28	32347.67
812.46	31917.59
812.64	32171.54
812.82	32056.85
813.00	32095.77
813.18	32116.25
813.36	31424.03
813.53	31610.40
813.71	31682.08
813.89	31737.37
814.07	31634.97
814.25	31567.39
814.43	31303.20
814.61	31196.71
814.79	31409.70
814.97	31104.55
815.15	31591.97
815.33	31041.06
815.50	30983.72
815.68	31200.80
815.86	31358.50
816.04	30713.39
816.22	30770.73
816.40	30969.38
816.58	30735.92
816.76	30602.80
816.94	30613.04
817.11	30277.17
817.29	30545.45
817.47	30254.64
817.65	30096.95
817.83	30283.31
818.01	30377.52
818.19	30195.25
818.37	30123.57
818.54	29748.79
818.72	29576.76
818.90	29906.49
819.08	29404.74
819.26	29718.07
819.44	29840.95
819.62	29443.65
819.80	29742.65
819.97	29406.78
820.15	29703.74
820.33	29597.24
820.51	29656.64
820.69	29300.29
820.87	29386.30
821.05	29474.37
821.22	29292.10
821.40	28995.14
821.58	28960.33
821.76	28714.57
821.94	28784.20
822.12	29032.00
822.29	28972.61
822.47	28747.34
822.65	29056.58
822.83	28892.74
823.01	28798.54
823.19	28436.05
823.36	28558.92
823.54	28569.16
823.72	28581.45
823.90	28470.86
824.08	28227.15
824.25	28331.60
824.43	28169.81
824.61	28145.23
824.79	28429.90
824.97	27864.66
825.15	28290.64
825.32	27973.21
825.50	28132.95
825.68	28341.84
825.86	28134.99
826.04	28169.81
826.21	27827.80
826.39	27606.62
826.57	27772.50
826.75	27666.01
826.93	27872.85
827.10	27749.98
827.28	27608.67
827.46	27827.80
827.64	27432.54
827.81	27401.82
827.99	27416.16
828.17	27438.69
828.35	27141.73
828.53	27682.39
828.70	27293.28
828.88	27043.43
829.06	27117.15
829.24	27068.00
829.41	27068.00
829.59	27389.53
829.77	27186.79
829.95	26961.51
830.12	27086.43
830.30	26912.36
830.48	26740.33
830.66	26855.01
830.84	26959.46
831.01	26357.36
831.19	26893.93
831.37	26558.06
831.55	26697.32
831.72	26756.71
831.90	26576.49
832.08	26388.08
832.25	26566.25
832.43	26523.24
832.61	26029.68
832.79	26076.79
832.96	26175.09
833.14	26144.37
833.32	26490.48
833.50	26156.66
833.67	26273.39
833.85	26214.00
834.03	25677.43
834.20	25927.28
834.38	26119.79
834.56	26218.10
834.74	25884.28
834.91	25845.37
835.09	25763.45
835.27	25581.18
835.44	25902.71
835.62	25224.83
835.80	25808.50
835.98	25726.58
836.15	25689.72
836.33	25755.26
836.51	25368.19
836.68	25394.81
836.86	25513.59
837.04	25771.64
837.21	25429.63
837.39	25388.67
837.57	25667.19
837.75	25312.89
837.92	25153.15
838.10	25159.30
838.28	25157.25
838.45	25142.91
838.63	25024.13
838.81	25452.16
838.98	24893.06
839.16	24786.57
839.34	24665.74
839.51	24684.17
839.69	24737.41
839.87	24784.52
840.04	24661.64
840.22	25038.47
840.40	24829.57
840.57	24710.79
840.75	24800.90
840.93	24309.39
841.10	24688.26
841.28	24673.93
841.46	24553.10
841.63	24706.70
841.81	24534.67
841.98	24356.49
842.16	24270.48
842.34	24174.22
842.51	24272.53
842.69	24602.25
842.87	24467.08
843.04	24166.03
843.22	24143.50
843.40	24063.63
843.57	24383.12
843.75	24348.30
843.92	24368.78
844.10	24069.78
844.28	24389.26
844.45	24336.01
844.63	24327.82
844.81	24006.29
844.98	24311.44
845.16	23768.73
845.33	23875.22
845.51	23928.47
845.69	23969.43
845.86	23692.95
846.04	23697.05
846.21	23565.98
846.39	23592.60
846.57	23379.61
846.74	23656.09
846.92	23631.51
847.09	23510.68
847.27	23418.52
847.45	23410.33
847.62	23506.59
847.80	23154.33
847.97	23363.23
848.15	23357.08
848.32	23273.12
848.50	23289.50
848.68	23015.07
848.85	23316.12
849.03	23013.02
849.20	23008.93
849.38	22984.35
849.56	23121.57
849.73	22693.54
849.91	23000.74
850.08	23142.05
850.26	22742.69
850.43	23123.62
850.61	22904.48
850.78	22646.44
850.96	22961.83
851.14	22550.18
851.31	22716.07
851.49	22396.59
851.66	22841.00
851.84	22701.73
852.01	22736.55
852.19	22421.16
852.36	22642.34
852.54	22640.29
852.71	22611.62
852.89	22519.46
853.07	22585.00
853.24	22525.61
853.42	22484.65
853.59	22587.05
853.77	22556.33
853.94	22468.27
854.12	22630.05
854.29	22171.31
854.47	22425.26
854.64	22591.14
854.82	22048.43
854.99	22113.97
855.17	22228.65
855.34	21974.70
855.52	22101.68
855.69	22468.27
855.87	21851.83
856.04	21862.07
856.22	22189.74
856.39	21583.54
856.57	22040.24
856.74	21909.17
856.92	21806.77
857.09	22064.82
857.27	21941.94
857.44	22193.84
857.62	21841.59
857.79	21665.46
857.97	21606.07
858.14	21565.11
858.32	21890.74
858.49	21477.05
858.67	21475.00
858.84	21640.89
859.02	21659.32
859.19	21505.72
859.37	21272.25
859.54	21411.51
859.72	21388.99
859.89	21382.84
860.06	21429.94
860.24	21380.79
860.41	21444.28
860.59	21204.67
860.76	21536.44
860.94	21264.06
861.11	21475.00
861.29	21305.02
861.46	21268.16
861.64	21118.65
861.81	21024.45
861.98	20954.82
862.16	20899.52
862.33	20889.28
862.51	20895.43
862.68	21122.75
862.86	20924.10
863.03	20707.01
863.21	20846.27
863.38	20928.19
863.55	20588.23
863.73	20815.55
863.90	20907.71
864.08	20823.75
864.25	20717.25
864.43	20557.51
864.60	20629.19
864.77	20489.93
864.95	20735.68
865.12	20238.03
865.30	20537.03
865.47	20506.31
865.64	20424.39
865.82	20168.40
865.99	20416.20
866.17	20541.13
866.34	20467.40
866.51	19977.94
866.69	20375.24
866.86	20340.43
867.04	20487.88
867.21	20066.00
867.38	20262.60
867.56	20033.23
867.73	19861.20
867.91	20203.21
868.08	20278.99
868.25	20160.20
868.43	20037.33
868.60	19879.63
868.78	19601.11
868.95	19883.73
869.12	19781.33
869.30	19545.81
869.47	20088.53
869.64	19422.94
869.82	19687.12
869.99	19615.44
870.16	19738.32
870.34	19893.97
870.51	19971.79
870.69	19611.35
870.86	19597.01
871.03	19631.83
871.21	19562.20
871.38	19625.68
871.55	19601.11
871.73	19564.25
871.90	19306.20
872.07	19515.09
872.25	19248.86
872.42	19203.80
872.59	19205.85
872.77	19244.76
872.94	19298.01
873.11	19312.35
873.29	19156.70
873.46	18951.90
873.63	19027.68
873.81	19017.44
873.98	18788.07
874.15	18802.40
874.33	18685.67
874.50	18491.11
874.67	18841.31
874.85	18595.56
875.02	18853.60
875.19	18663.14
875.37	18560.74
875.54	18579.17
875.71	18704.10
875.88	18212.59
876.06	18665.19
876.23	18288.36
876.40	18497.25
876.58	18319.08
876.75	18386.66
876.92	18386.66
877.10	18194.15
877.27	18173.67
877.44	18003.69
877.61	18198.25
877.79	18081.52
877.96	18018.03
878.13	17936.11
878.31	17860.34
878.48	17870.58
878.65	17876.72
878.82	17684.21
879.00	17815.28
879.17	17950.45
879.34	17792.75
879.51	17747.70
879.69	17755.89
879.86	17700.59
880.03	17659.63
880.21	17663.73
880.38	17723.12
880.55	17737.46
880.72	17751.79
880.90	17454.84
881.07	17538.80
881.24	17512.18
881.41	17514.23
881.59	17600.24
881.76	17444.60
881.93	17151.74
882.10	17379.06
882.28	17258.23
882.45	17463.03
882.62	17430.26
882.79	17348.34
882.96	16879.36
883.14	17483.51
883.31	17506.04
883.48	17022.72
883.65	17055.48
883.83	17245.94
884.00	16959.23
884.17	17067.77
884.34	17260.28
884.51	17039.10
884.69	17241.85
884.86	17092.35
885.03	16983.80
885.20	16701.19
885.38	17219.32
885.55	17125.11
885.72	17057.53
885.89	16897.79
886.06	16862.97
886.24	16953.09
886.41	16668.42
886.58	17018.62
886.75	17022.72
886.92	16690.95
887.10	16543.49
887.27	16750.34
887.44	16568.07
887.61	16967.42
887.78	16541.44
887.95	16736.00
888.13	16578.31
888.30	16260.87
888.47	16361.22
888.64	16598.79
888.81	16668.42
888.99	16420.61
889.16	16336.65
889.33	16340.74
889.50	16267.02
889.67	16432.90
889.84	16273.16
890.01	16148.23
890.19	16367.37
890.36	16191.24
890.53	16170.76
890.70	16211.72
890.87	16191.24
891.04	16170.76
891.22	16017.16
891.39	15984.40
891.56	15994.64
891.73	16088.84
891.90	16041.74
892.07	15726.35
892.24	15914.77
892.42	15761.17
892.59	15834.89
892.76	15892.24
892.93	15822.61
893.10	15798.03
893.27	15638.29
893.44	15879.95
893.61	15968.01
893.79	15961.87
893.96	15925.00
894.13	15646.48
894.30	15714.06
894.47	15865.61
894.64	15849.23
894.81	15763.22
894.98	15939.34
895.15	15929.10
895.33	15771.41
895.50	15609.62
895.67	15720.21
895.84	15822.61
896.01	15660.82
896.18	15791.89
896.35	15513.36
896.52	15765.26
896.69	15593.23
896.86	15789.84
897.04	15652.63
897.21	15558.42
897.38	15726.35
897.55	15716.11
897.72	15777.55
897.89	15597.33
898.06	15900.43
898.23	15677.20
898.40	15570.71
898.57	15804.17
898.74	15793.94
898.91	15683.34
899.08	15609.62
899.26	15662.86
899.43	15677.20
899.60	15515.41
899.77	15632.15
899.94	15396.63
900.11	15456.02
900.28	15726.35
900.45	15503.12
900.62	15669.01
900.79	15662.86
900.96	15437.59
901.13	15486.74
901.30	15492.88
901.47	15435.54
901.64	15609.62
901.81	15728.40
901.98	15447.83
902.15	15904.53
902.32	15437.59
902.49	15456.02
902.66	15593.23
902.83	15568.66
903.01	15531.80
903.18	15355.67
903.35	15484.69
903.52	15519.51
903.69	15669.01
903.86	15759.12
904.03	15388.44
904.20	15628.05
904.37	15634.19
904.54	15626.00
904.71	15370.01
904.88	15548.18
905.05	15374.10
905.22	15634.19
905.39	15689.49
905.56	15228.70
905.73	15413.01
905.90	15347.48
906.07	15628.05
906.24	15529.75
906.41	15537.94
906.58	15429.40
906.75	15511.32
906.92	15261.46
907.09	15431.44
907.26	15675.15
907.43	15329.05
907.60	15615.76
907.77	15537.94
907.93	15562.51
908.10	15425.30
908.27	15623.95
908.44	15243.03
908.61	15265.56
908.78	15245.08
908.95	15499.03
909.12	15376.15
909.29	15494.93
909.46	15505.17
909.63	15331.09
909.80	15378.20
909.97	15468.31
910.14	15279.89
910.31	15228.70
910.48	15308.57
910.65	15470.36
910.82	15230.74
910.99	15449.88
911.16	15281.94
911.33	15200.02
911.50	15216.41
911.66	15353.62
911.83	15441.68
912.00	15208.22
912.17	15204.12
912.34	15081.24
912.51	15015.71
912.68	14937.88
912.85	14987.04
913.02	14987.04
913.19	15271.70
913.36	14823.20
913.53	14962.46
913.70	14903.07
913.86	15085.34
914.03	14782.24
914.20	14958.36
914.37	15005.47
914.54	14872.35
914.71	14901.02
914.88	14872.35
915.05	14841.63
915.22	14606.11
915.39	14714.66
915.55	14544.67
915.72	14798.62
915.89	14724.90
916.06	14403.36
916.23	14626.59
916.40	14380.84
916.57	14206.76
916.74	14518.05
916.91	14208.81
917.07	14237.48
917.24	14303.01
917.41	14317.35
917.58	14245.67
917.75	14141.22
917.92	14102.31
918.09	14094.12
918.26	14147.37
918.42	14200.62
918.59	13997.87
918.76	13915.95
918.93	13877.04
919.10	13731.63
919.27	13758.25
919.44	14075.69
919.60	13932.33
919.77	13670.19
919.94	13926.19
920.11	13741.87
920.28	13741.87
920.45	13627.18
920.61	13623.09
920.78	13469.49
920.95	13670.19
921.12	13424.44
921.29	13369.14
921.46	13508.40
921.62	13221.69
921.79	12994.36
921.96	13193.01
922.13	13262.65
922.30	13121.34
922.47	13199.16
922.63	13127.48
922.80	13051.70
922.97	12937.02
923.14	12822.33
923.31	13029.18
923.47	12736.32
923.64	12977.98
923.81	12650.30
923.98	12738.37
924.15	12754.75
924.32	12687.17
924.48	12640.06
924.65	12642.11
924.82	12558.14
924.99	12287.81
925.15	12169.03
925.32	12568.38
925.49	12181.32
925.66	12318.53
925.83	11870.03
925.99	12025.67
926.16	12199.75
926.33	12070.73
926.50	12021.58
926.67	12031.82
926.83	11964.23
927.00	11800.40
927.17	11857.74
927.34	11761.48
927.50	11536.21
927.67	11904.84
927.84	11554.64
928.01	11577.17
928.17	11550.54
928.34	11489.10
928.51	11507.54
928.68	11558.74
928.84	11274.07
929.01	11083.61
929.18	11208.53
929.35	11224.92
929.51	11218.77
929.68	11085.65
929.85	11177.81
930.02	10921.82
930.18	11020.12
930.35	11028.31
930.52	10755.93
930.69	10864.47
930.85	10784.60
931.02	10704.73
931.19	10868.57
931.36	10796.89
931.52	10704.73
931.69	10561.37
931.86	10688.35
932.02	10559.33
932.19	10514.27
932.36	10389.35
932.53	10458.98
932.69	10174.31
932.86	10350.43
933.03	10321.76
933.19	10153.83
933.36	10129.25
933.53	10116.97
933.70	9996.14
933.86	10026.86
934.03	10006.38
934.20	9940.84
934.36	9842.54
934.53	9549.68
934.70	9658.22
934.86	9645.93
935.03	9432.94
935.20	9463.66
935.36	9498.48
935.53	9226.10
935.70	9385.84
935.86	9314.16
936.03	9019.25
936.20	8855.42
936.36	9064.31
936.53	8906.62
936.70	9017.21
936.86	9072.50
937.03	8775.55
937.20	8462.21
937.36	8566.65
937.53	8306.56
937.70	8320.90
937.86	8171.40
938.03	8195.97
938.20	8093.57
938.36	8044.42
938.53	8034.18
938.70	7796.62
938.86	7905.16
939.03	7726.99
939.20	7479.18
939.36	7724.94
939.53	7569.29
939.70	7647.12
939.86	7276.43
940.03	7188.37
940.19	7135.12
940.36	7049.11
940.53	6967.19
940.69	6891.41
940.86	6737.82
941.03	6844.31
941.19	6688.67
941.36	6533.02
941.52	6807.45
941.69	6434.72
941.86	6467.49
942.02	6291.36
942.19	6449.05
942.35	6326.18
942.52	6231.97
942.69	6317.98
942.85	6078.37
943.02	5986.21
943.18	6219.68
943.35	5998.50
943.52	5849.00
943.68	5879.72
943.85	6031.27
944.01	5865.38
944.18	5760.94
944.35	5928.87
944.51	5762.98
944.68	5701.54
944.84	5726.12
945.01	5613.48
945.17	5689.26
945.34	5638.06
945.51	5683.11
945.67	5646.25
945.84	5697.45
946.00	5521.32
946.17	5582.76
946.33	5439.40
946.50	5631.91
946.67	5494.70
946.83	5566.38
947.00	5560.24
947.16	5468.08
947.33	5488.56
947.49	5347.25
947.66	5504.94
947.82	5572.52
947.99	5429.17
948.16	5488.56
948.32	5595.05
948.49	5517.23
948.65	5480.36
948.82	5519.28
948.98	5423.02
949.15	5363.63
949.31	5380.01
949.48	5365.68
949.64	5513.13
949.81	5412.78
949.97	5429.17
950.14	5627.82
950.30	5437.36
950.47	5701.54
950.63	5529.52
950.80	5390.25
950.96	5529.52
951.13	5377.97
951.30	5492.65
951.46	5492.65
951.63	5568.43
951.79	5611.43
951.96	5521.32
952.12	5550.00
952.29	5521.32
952.45	5468.08
952.62	5584.81
952.78	5652.39
952.94	5672.87
953.11	5582.76
953.27	5494.70
953.44	5482.41
953.60	5476.27
953.77	5613.48
953.93	5601.19
954.10	5517.23
954.26	5603.24
954.43	5664.68
954.59	5578.67
954.76	5613.48
954.92	5709.74
955.09	5599.15
955.25	5728.17
955.42	5627.82
955.58	5851.05
955.75	5633.96
955.91	5664.68
956.07	5568.43
956.24	5570.48
956.40	5789.61
956.57	5679.02
956.73	5654.44
956.90	5705.64
957.06	5769.13
957.23	5597.10
957.39	5564.33
957.56	5840.81
957.72	5543.85
957.88	5480.36
958.05	5773.22
958.21	5789.61
958.38	5717.93
958.54	5590.95
958.71	5758.89
958.87	5644.20
959.03	5595.05
959.20	5611.43
959.36	5617.58
959.53	5724.07
959.69	5603.24
959.85	5590.95
960.02	5654.44
960.18	5572.52
960.35	5691.31
960.51	5681.07
960.68	5619.63
960.84	5582.76
961.00	5597.10
961.17	5441.45
961.33	5595.05
961.50	5705.64
961.66	5726.12
961.82	5601.19
961.99	5695.40
962.15	5656.49
962.31	5568.43
962.48	5697.45
962.64	5668.78
962.81	5523.37
962.97	5595.05
963.13	5650.35
963.30	5642.15
963.46	5527.47
963.62	5486.51
963.79	5711.78
963.95	5593.00
964.12	5539.76
964.28	5547.95
964.44	5472.17
964.61	5476.27
964.77	5519.28
964.93	5656.49
965.10	5509.04
965.26	5492.65
965.42	5509.04
965.59	5629.87
965.75	5459.88
965.92	5509.04
966.08	5474.22
966.24	5500.84
966.41	5250.99
966.57	5490.60
966.73	5461.93
966.90	5523.37
967.06	5449.64
967.22	5400.49
967.39	5423.02
967.55	5287.86
967.71	5439.40
967.88	5289.90
968.04	5341.10
968.20	5332.91
968.37	5263.28
968.53	5392.30
968.69	5445.55
968.85	5353.39
969.02	5449.64
969.18	5314.48
969.34	5332.91
969.51	5316.53
969.67	5513.13
969.83	5150.64
970.00	5369.77
970.16	5234.61
970.32	5232.56
970.48	5255.09
970.65	5279.66
970.81	5232.56
970.97	5261.23
971.14	5074.87
971.30	5156.79
971.46	5124.02
971.63	5175.22
971.79	5353.39
971.95	5259.18
972.11	5156.79
972.28	5136.31
972.44	5203.89
972.60	5001.14
972.76	5195.70
972.93	4984.76
973.09	5081.01
973.25	5017.52
973.42	5029.81
973.58	5068.72
973.74	5078.96
973.90	5074.87
974.07	4941.75
974.23	5101.49
974.39	5105.59
974.55	4999.09
974.72	5060.53
974.88	4710.33
975.04	5035.96
975.20	4841.40
975.37	4939.70
975.53	4937.65
975.69	4956.08
975.85	5001.14
976.01	4763.58
976.18	4792.25
976.34	4839.35
976.50	4902.84
976.66	4863.93
976.83	4784.06
976.99	4882.36
977.15	4775.86
977.31	4788.15
977.47	4820.92
977.64	4810.68
977.80	4767.67
977.96	4693.94
978.12	4747.19
978.29	4808.63
978.45	4671.42
978.61	4818.87
978.77	4827.06
978.93	4554.68
979.10	4673.46
979.26	4763.58
979.42	4587.45
979.58	4585.40
979.74	4665.27
979.91	4665.27
980.07	4470.72
980.23	4644.79
980.39	4630.46
980.55	4485.05
980.71	4511.68
980.88	4411.32
981.04	4480.96
981.20	4577.21
981.36	4693.94
981.52	4423.61
981.68	4458.43
981.85	4597.69
982.01	4523.96
982.17	4468.67
982.33	4458.43
982.49	4476.86
982.65	4374.46
982.82	4493.24
982.98	4458.43
983.14	4288.45
983.30	4382.65
983.46	4466.62
983.62	4419.52
983.79	4351.93
983.95	4255.68
984.11	4196.29
984.27	4286.40
984.43	4335.55
984.59	4300.73
984.75	4224.96
984.91	4343.74
985.08	4394.94
985.24	4204.48
985.40	4270.01
985.56	4251.58
985.72	4241.34
985.88	4265.92
986.04	4091.84
986.20	4224.96
986.37	4265.92
986.53	4104.13
986.69	4208.58
986.85	3997.64
987.01	4091.84
987.17	4220.86
987.33	4069.31
987.49	4065.22
987.65	4218.82
987.82	3948.48
987.98	4020.16
988.14	4126.66
988.30	4007.87
988.46	3975.11
988.62	4116.42
988.78	4040.64
988.94	4001.73
989.10	4040.64
989.26	3997.64
989.42	3956.68
989.59	3897.28
989.75	3981.25
989.91	3950.53
990.07	3737.54
990.23	3913.67
990.39	3764.17
990.55	3866.56
990.71	3833.80
990.87	3968.96
991.03	3895.24
991.19	3817.41
991.35	3805.13
991.51	3737.54
991.67	3913.67
991.83	3952.58
992.00	3909.57
992.16	3823.56
992.32	3827.65
992.48	3807.17
992.64	3729.35
992.80	3739.59
992.96	3899.33
993.12	3696.58
993.28	3669.96
993.44	3692.49
993.60	3737.54
993.76	3700.68
993.92	3874.76
994.08	3702.73
994.24	3629.00
994.40	3706.82
994.56	3735.50
994.72	3786.69
994.88	3647.43
995.04	3596.23
995.20	3600.33
995.36	3549.13
995.52	3641.29
995.68	3524.55
995.84	3506.12
996.00	3639.24
996.16	3553.23
996.32	3512.27
996.48	3518.41
996.64	3641.29
996.80	3401.68
996.96	3514.31
997.12	3434.44
997.28	3452.88
997.44	3393.48
997.60	3448.78
997.76	3522.51
997.92	3540.94
998.08	3428.30
998.24	3301.33
998.40	3479.50
998.56	3422.16
998.72	3252.17
998.88	3225.55
999.04	3444.68
999.20	3430.35
999.36	3286.99
999.52	3411.92
999.68	3405.77
999.84	3399.63
1000.00	3366.86
1000.16	3391.44
1000.32	3297.23
1000.48	3286.99
1000.64	3284.94
1000.80	3139.54
1000.95	3200.98
1001.11	3342.28
1001.27	3170.26
1001.43	3209.17
1001.59	3160.02
1001.75	3192.78
1001.91	3241.93
1002.07	3102.67
1002.23	3215.31
1002.39	3198.93
1002.55	3213.26
1002.71	3121.10
1002.87	3182.54
1003.03	3127.25
1003.19	3125.20
1003.34	3145.68
1003.50	3084.24
1003.66	3215.31
1003.82	3162.06
1003.98	3172.30
1004.14	3035.09
1004.30	3080.14
1004.46	3039.19
1004.62	3041.23
1004.78	2918.36
1004.94	3076.05
1005.09	3102.67
1005.25	3033.04
1005.41	3002.32
1005.57	2979.79
1005.73	3045.33
1005.89	3030.99
1006.05	3043.28
1006.21	3008.47
1006.37	2965.46
1006.52	2973.65
1006.68	2953.17
1006.84	3024.85
1007.00	2818.00
1007.16	3028.95
1007.32	2916.31
1007.48	2977.75
1007.64	2955.22
1007.79	2936.79
1007.95	2920.40
1008.11	2824.15
1008.27	2918.36
1008.43	2949.08
1008.59	2936.79
1008.75	2959.31
1008.91	2965.46
1009.06	2875.35
1009.22	2830.29
1009.38	2768.85
1009.54	2904.02
1009.70	2869.20
1009.86	2801.62
1010.01	2832.34
1010.17	2688.98
1010.33	2877.40
1010.49	2818.00
1010.65	2912.21
1010.81	2793.43
1010.96	2731.99
1011.12	2756.57
1011.28	2705.37
1011.44	2777.05
1011.60	2756.57
1011.76	2742.23
1011.91	2744.28
1012.07	2711.51
1012.23	2600.92
1012.39	2631.64
1012.55	2820.05
1012.71	2662.36
1012.86	2742.23
1013.02	2645.98
1013.18	2594.78
1013.34	2590.68
1013.50	2645.98
1013.65	2693.08
1013.81	2650.07
1013.97	2617.30
1014.13	2631.64
1014.29	2611.16
1014.44	2754.52
1014.60	2574.30
1014.76	2625.50
1014.92	2605.02
1015.07	2609.11
1015.23	2543.58
1015.39	2598.87
1015.55	2451.42
1015.71	2562.01
1015.86	2486.23
1016.02	2426.84
1016.18	2441.18
1016.34	2502.62
1016.49	2492.38
1016.65	2598.87
1016.81	2508.76
1016.97	2535.39
1017.12	2541.53
1017.28	2426.84
1017.44	2406.36
1017.60	2430.94
1017.75	2506.71
1017.91	2557.91
1018.07	2410.46
1018.23	2453.47
1018.38	2426.84
1018.54	2439.13
1018.70	2414.56
1018.86	2322.40
1019.01	2449.37
1019.17	2510.81
1019.33	2496.47
1019.49	2326.49
1019.64	2463.71
1019.80	2488.28
1019.96	2449.37
1020.12	2445.27
1020.27	2396.12
1020.43	2363.36
1020.59	2504.67
1020.74	2346.97
1020.90	2375.64
1021.06	2373.60
1021.22	2334.68
1021.37	2338.78
1021.53	2340.83
1021.69	2371.55
1021.84	2277.34
1022.00	2336.73
1022.16	2297.82
1022.31	2271.20
1022.47	2383.84
1022.63	2412.51
1022.79	2248.67
1022.94	2334.68
1023.10	2392.03
1023.26	2328.54
1023.41	2224.09
1023.57	2344.92
1023.73	2287.58
1023.88	2322.40
1024.04	2215.90
1024.20	2277.34
1024.35	2213.85
1024.51	2236.38
1024.67	2281.44
1024.82	2215.90
1024.98	2166.75
1025.14	2240.48
1025.29	2254.81
1025.45	2291.68
1025.61	2211.81
1025.76	2189.28
1025.92	2234.33
1026.08	2330.59
1026.23	2244.57
1026.39	2273.25
1026.55	2207.71
1026.70	2129.89
1026.86	2191.33
1027.02	2222.05
1027.17	2166.75
1027.33	2224.09
1027.48	2187.23
1027.64	2158.56
1027.80	2162.66
1027.95	2228.19
1028.11	2033.63
1028.27	2158.56
1028.42	2217.95
1028.58	2062.30
1028.73	2064.35
1028.89	2025.44
1029.05	2131.94
1029.20	2146.27
>>>>>End Processed Spectral Data<<<<<
