SpectraSuite Data File
++++++++++++++++++++++++++++++++++++
Date: Fri Jun 02 14:52:28 CEST 2017
User: INFO_000
Dark Spectrum Present: No
Reference Spectrum Present: No
Number of Sampled Component Spectra: 1
Spectrometers: USB4H00879
Integration Time (usec): 80000 (USB4H00879)
Spectra Averaged: 1 (USB4H00879)
Boxcar Smoothing: 0 (USB4H00879)
Correct for Electrical Dark: No (USB4H00879)
Strobe/Lamp Enabled: No (USB4H00879)
Correct for Detector Non-linearity: No (USB4H00879)
Correct for Stray Light: No (USB4H00879)
Number of Pixels in Processed Spectrum: 3648
>>>>>Begin Processed Spectral Data<<<<<
345.13	1261.55
345.34	1261.55
345.56	1261.55
345.78	1257.45
345.99	1298.41
346.21	1644.52
346.42	1736.68
346.64	1708.01
346.86	1761.25
347.07	1673.19
347.29	1720.29
347.50	1607.66
347.72	1673.19
347.94	1724.39
348.15	1673.19
348.37	1593.32
348.59	1621.99
348.80	1669.09
349.02	1710.05
349.23	1886.18
349.45	1818.60
349.67	1822.69
349.88	1820.64
350.10	1949.67
350.31	1877.99
350.53	1849.32
350.75	2015.20
350.96	1820.64
351.18	1869.80
351.39	1923.04
351.61	1851.36
351.82	1869.80
352.04	1900.52
352.26	1775.59
352.47	1916.90
352.69	1974.24
352.90	1724.39
353.12	1929.19
353.34	1830.88
353.55	1890.28
353.77	1875.94
353.98	1822.69
354.20	1824.74
354.41	1910.75
354.63	1959.91
354.85	2060.26
355.06	1927.14
355.28	1826.79
355.49	1783.78
355.71	1787.88
355.92	1877.99
356.14	1957.86
356.35	1894.37
356.57	1900.52
356.79	1982.43
357.00	1837.03
357.22	2004.96
357.43	1908.71
357.65	1900.52
357.86	1761.25
358.08	1992.67
358.29	1886.18
358.51	2025.44
358.72	1992.67
358.94	1902.56
359.16	1943.52
359.37	1957.86
359.59	1978.34
359.80	1992.67
360.02	1972.19
360.23	1994.72
360.45	2029.54
360.66	1929.19
360.88	1863.65
361.09	1964.00
361.31	1986.53
361.52	2025.44
361.74	2025.44
361.95	2082.78
362.17	1972.19
362.38	2052.06
362.60	2074.59
362.81	2009.06
363.03	1968.10
363.24	2045.92
363.46	2031.58
363.67	2043.87
363.89	2029.54
364.10	2080.74
364.32	1869.80
364.53	2068.45
364.75	1910.75
364.96	2031.58
365.18	2064.35
365.39	2097.12
365.61	1974.24
365.82	2146.27
366.04	2019.30
366.25	1957.86
366.47	2050.02
366.68	2101.22
366.90	1947.62
367.11	2099.17
367.33	2068.45
367.54	2043.87
367.76	2056.16
367.97	2148.32
368.19	2037.73
368.40	2105.31
368.62	2045.92
368.83	1970.15
369.05	2017.25
369.26	1988.58
369.48	2045.92
369.69	1923.04
369.91	2105.31
370.12	2043.87
370.33	2158.56
370.55	1984.48
370.76	2064.35
370.98	2131.94
371.19	2074.59
371.41	2058.21
371.62	2115.55
371.84	2019.30
372.05	2123.74
372.27	2023.39
372.48	2117.60
372.69	2088.93
372.91	2160.61
373.12	2142.18
373.34	2119.65
373.55	2172.89
373.77	2121.70
373.98	2062.30
374.20	2193.37
374.41	2205.66
374.62	2129.89
374.84	2136.03
375.05	2160.61
375.27	2209.76
375.48	2224.09
375.70	2205.66
375.91	2209.76
376.12	2306.01
376.34	2129.89
376.55	2117.60
376.77	2238.43
376.98	2138.08
377.19	2179.04
377.41	2226.14
377.62	2275.29
377.84	2197.47
378.05	2385.88
378.27	2158.56
378.48	2416.60
378.69	2357.21
378.91	2344.92
379.12	2172.89
379.34	2203.61
379.55	2281.44
379.76	2279.39
379.98	2285.53
380.19	2285.53
380.41	2340.83
380.62	2303.96
380.83	2369.50
381.05	2195.42
381.26	2473.95
381.47	2248.67
381.69	2232.29
381.90	2451.42
382.12	2320.35
382.33	2248.67
382.54	2353.12
382.76	2392.03
382.97	2328.54
383.19	2265.05
383.40	2408.41
383.61	2369.50
383.83	2306.01
384.04	2263.01
384.25	2396.12
384.47	2379.74
384.68	2383.84
384.89	2408.41
385.11	2299.87
385.32	2379.74
385.54	2349.02
385.75	2349.02
385.96	2402.27
386.18	2346.97
386.39	2467.80
386.60	2457.56
386.82	2383.84
387.03	2379.74
387.24	2572.25
387.46	2478.04
387.67	2471.90
387.88	2496.47
388.10	2482.14
388.31	2500.57
388.52	2506.71
388.74	2514.91
388.95	2527.19
389.16	2459.61
389.38	2551.77
389.59	2555.86
389.80	2648.02
390.02	2572.25
390.23	2660.31
390.44	2584.54
390.66	2609.11
390.87	2510.81
391.08	2598.87
391.30	2701.27
391.51	2600.92
391.72	2664.41
391.94	2729.94
392.15	2713.56
392.36	2631.64
392.58	2545.63
392.79	2705.37
393.00	2666.46
393.22	2772.95
393.43	2770.90
393.64	2727.89
393.85	2842.58
394.07	2797.53
394.28	2748.37
394.49	2850.77
394.71	2756.57
394.92	2938.84
395.13	2820.05
395.35	2666.46
395.56	2746.33
395.77	2824.15
395.98	2877.40
396.20	2830.29
396.41	2875.35
396.62	2848.72
396.84	2953.17
397.05	2920.40
397.26	2942.93
397.47	3026.90
397.69	2912.21
397.90	3098.58
398.11	2944.98
398.32	2891.73
398.54	2965.46
398.75	2887.64
398.96	2942.93
399.18	3121.10
399.39	3010.51
399.60	3114.96
399.81	3008.47
400.03	2953.17
400.24	3235.79
400.45	3102.67
400.66	3110.86
400.88	3022.80
401.09	3155.92
401.30	3155.92
401.51	3198.93
401.73	3121.10
401.94	3127.25
402.15	3194.83
402.36	3174.35
402.58	3176.40
402.79	3241.93
403.00	3241.93
403.21	3207.12
403.43	3248.08
403.64	3293.13
403.85	3178.45
404.06	3375.05
404.27	3119.06
404.49	3342.28
404.70	3246.03
404.91	3282.89
405.12	3299.28
405.34	3301.33
405.55	3499.98
405.76	3205.07
405.97	3262.41
406.19	3450.83
406.40	3213.26
406.61	3411.92
406.82	3274.70
407.03	3334.09
407.25	3428.30
407.46	3401.68
407.67	3487.69
407.88	3530.70
408.09	3542.99
408.31	3452.88
408.52	3463.12
408.73	3430.35
408.94	3379.15
409.15	3536.84
409.37	3504.07
409.58	3590.09
409.79	3475.40
410.00	3583.95
410.21	3426.25
410.43	3569.61
410.64	3393.48
410.85	3540.94
411.06	3545.03
411.27	3639.24
411.48	3649.48
411.70	3592.14
411.91	3618.76
412.12	3680.20
412.33	3606.47
412.54	3680.20
412.76	3702.73
412.97	3696.58
413.18	3545.03
413.39	3594.19
413.60	3743.69
413.81	3786.69
414.03	3624.90
414.24	3698.63
414.45	3846.09
414.66	3721.16
414.87	3821.51
415.08	3643.34
415.30	3682.25
415.51	3794.89
415.72	3819.46
415.93	3803.08
416.14	3794.89
416.35	3846.09
416.56	3885.00
416.78	3960.77
416.99	3809.22
417.20	3837.89
417.41	3962.82
417.62	3913.67
417.83	4036.55
418.04	3958.72
418.26	3833.80
418.47	3903.43
418.68	3993.54
418.89	3913.67
419.10	4095.94
419.31	4001.73
419.52	4143.04
419.73	4003.78
419.95	4114.37
420.16	4032.45
420.37	3942.34
420.58	4251.58
420.79	4026.31
421.00	4188.10
421.21	4167.62
421.42	4048.83
421.63	4028.35
421.85	4093.89
422.06	4247.49
422.27	4237.25
422.48	4198.34
422.69	4339.65
422.90	4251.58
423.11	4286.40
423.32	4382.65
423.53	4460.48
423.75	4394.94
423.96	4526.01
424.17	4456.38
424.38	4550.59
424.59	4523.96
424.80	4702.14
425.01	4495.29
425.22	4528.06
425.43	4554.68
425.64	4632.51
425.85	4693.94
426.06	4564.92
426.28	4607.93
426.49	4646.84
426.70	4693.94
426.91	4526.01
427.12	4698.04
427.33	4669.37
427.54	4673.46
427.75	4886.45
427.96	4927.41
428.17	4839.35
428.38	4888.50
428.59	4843.45
428.80	4816.82
429.01	4913.08
429.23	4900.79
429.44	5027.76
429.65	4943.80
429.86	5050.29
430.07	4923.32
430.28	4943.80
430.49	5167.03
430.70	5152.69
430.91	5052.34
431.12	5158.83
431.33	5195.70
431.54	5248.94
431.75	5236.66
431.96	5058.48
432.17	5218.22
432.38	5261.23
432.59	5588.91
432.80	5377.97
433.01	5345.20
433.22	5441.45
433.43	5396.40
433.64	5384.11
433.85	5365.68
434.06	5369.77
434.27	5365.68
434.49	5441.45
434.70	5615.53
434.91	5584.81
435.12	5480.36
435.33	5648.30
435.54	5601.19
435.75	5545.90
435.96	5511.08
436.17	5726.12
436.38	5787.56
436.59	5762.98
436.80	5674.92
437.01	5836.71
437.22	5836.71
437.43	5699.50
437.64	5660.59
437.85	5918.63
438.06	5916.58
438.27	5801.90
438.48	5873.57
438.69	5980.07
438.90	5879.72
439.11	5818.28
439.32	6045.60
439.53	5951.40
439.74	5963.68
439.95	5969.83
440.16	6109.09
440.37	6031.27
440.57	5924.77
440.78	6152.10
440.99	6217.63
441.20	6135.71
441.41	6090.66
441.62	5986.21
441.83	6012.84
442.04	6197.15
442.25	6176.67
442.46	6242.21
442.67	6256.54
442.88	6713.24
443.09	6090.66
443.30	6223.78
443.51	6371.23
443.72	6545.31
443.93	6274.98
444.14	6584.22
444.35	6320.03
444.56	6459.29
444.77	6365.09
444.98	6397.85
445.19	6598.56
445.40	6471.58
445.61	6475.68
445.81	6711.19
446.02	6809.50
446.23	6703.00
446.44	6514.59
446.65	6760.34
446.86	6606.75
447.07	6748.06
447.28	7008.15
447.49	6827.93
447.70	6741.91
447.91	6809.50
448.12	6836.12
448.33	6881.18
448.54	6883.22
448.74	6885.27
448.95	6909.85
449.16	7026.58
449.37	7268.24
449.58	6911.89
449.79	7090.07
450.00	6803.35
450.21	7278.48
450.42	7452.56
450.63	7106.45
450.84	7057.30
451.05	6985.62
451.25	7108.50
451.46	7065.49
451.67	7241.62
451.88	7311.25
452.09	7292.82
452.30	7235.47
452.51	7415.69
452.72	7405.46
452.93	7593.87
453.13	7348.11
453.34	7311.25
453.55	7585.68
453.76	7448.46
453.97	7726.99
454.18	7559.05
454.39	7649.16
454.60	7442.32
454.81	7632.78
455.01	7841.67
455.22	7554.96
455.43	7864.20
455.64	7944.07
455.85	8034.18
456.06	8286.08
456.27	8093.57
456.48	7862.15
456.68	7968.65
456.89	8099.72
457.10	8220.55
457.31	8267.65
457.52	8150.92
457.73	8269.70
457.94	8308.61
458.14	8228.74
458.35	8546.17
458.56	8304.51
458.77	8351.62
458.98	8447.87
459.19	8529.79
459.39	8722.30
459.60	8613.76
459.81	8308.61
460.02	8787.83
460.23	8580.99
460.44	8990.58
460.65	8966.01
460.85	8849.27
461.06	8949.62
461.27	8759.16
461.48	9086.84
461.69	9207.67
461.89	8736.63
462.10	9119.60
462.31	9037.69
462.52	8949.62
462.73	9146.23
462.94	9351.03
463.14	9252.72
463.35	9258.87
463.56	9695.08
463.77	9664.36
463.98	9391.98
464.18	9523.05
464.39	9553.77
464.60	9822.06
464.81	9744.24
465.02	9635.69
465.23	9824.11
465.43	9705.32
465.64	10076.01
465.85	9828.20
466.06	9834.35
466.27	10071.91
466.47	10143.59
466.68	10227.56
466.89	10194.79
467.10	10227.56
467.30	10047.33
467.51	10375.01
467.72	10542.94
467.93	10422.11
468.14	10426.21
468.34	10762.08
468.55	10583.90
468.76	10661.73
468.97	10469.22
469.17	10917.72
469.38	10979.16
469.59	11040.60
469.80	10970.97
470.01	10731.36
470.21	10968.92
470.42	11505.49
470.63	11392.85
470.84	11163.48
471.04	11433.81
471.25	11403.09
471.46	11509.58
471.67	11505.49
471.87	11472.72
472.08	11532.11
472.29	11872.07
472.50	11562.83
472.70	11773.77
472.91	11951.95
473.12	11923.27
473.33	12128.07
473.53	12398.40
473.74	12228.42
473.95	12476.23
474.16	12590.91
474.36	12435.27
474.57	12627.78
474.78	12674.88
474.99	12414.79
475.19	12767.04
475.40	12980.03
475.61	13172.54
475.81	13252.41
476.02	13473.59
476.23	13383.48
476.44	13289.27
476.64	13504.31
476.85	13569.84
477.06	13768.49
477.27	13795.12
477.47	13831.98
477.68	14094.12
477.89	14186.28
478.09	14075.69
478.30	14159.66
478.51	14348.07
478.71	14685.98
478.92	14491.43
479.13	14640.93
479.34	14991.13
479.54	14845.73
479.75	14931.74
479.96	14794.53
480.16	14944.03
480.37	15124.25
480.58	15177.50
480.78	15443.73
480.99	15630.10
481.20	15671.06
481.41	15783.70
481.61	15947.53
481.82	15920.91
482.03	15834.89
482.23	15863.57
482.44	16158.47
482.65	16420.61
482.85	16416.52
483.06	16256.78
483.27	16244.49
483.47	16369.41
483.68	16672.51
483.89	16977.66
484.09	16598.79
484.30	17049.34
484.51	17172.22
484.71	17313.53
484.92	17299.19
485.13	17420.02
485.33	17395.45
485.54	17471.22
485.75	17620.72
485.95	17762.03
486.16	17542.90
486.37	18040.56
486.57	17843.95
486.78	17977.07
486.98	18050.80
487.19	18267.88
487.40	18368.23
487.60	18251.50
487.81	18732.77
488.02	18548.45
488.22	18454.25
488.43	18927.33
488.64	19037.92
488.84	19205.85
489.05	19246.81
489.25	19197.66
489.46	19447.51
489.67	19130.08
489.87	19424.98
490.08	19631.83
490.29	19525.33
490.49	20033.23
490.70	19896.02
490.90	19728.08
491.11	19777.23
491.32	20135.63
491.52	20383.43
491.73	20324.04
491.94	20305.61
492.14	20612.81
492.35	20653.76
492.55	20598.47
492.76	20979.39
492.97	21034.69
493.17	20901.57
493.38	21210.81
493.58	21401.27
493.79	21159.61
494.00	21061.31
494.20	21513.91
494.41	21204.67
494.61	21685.94
494.82	21778.10
495.02	21552.82
495.23	21618.36
495.44	21933.75
495.64	21847.73
495.85	22111.92
496.05	22163.12
496.26	22013.62
496.47	22474.41
496.67	22349.48
496.88	22724.26
497.08	22562.47
497.29	22658.73
497.49	22576.81
497.70	23035.55
497.91	22765.22
498.11	23066.27
498.32	23246.49
498.52	23135.90
498.73	23500.44
498.93	23529.11
499.14	23066.27
499.34	23475.87
499.55	23731.86
499.76	23436.95
499.96	23611.03
500.17	23733.91
500.37	23877.27
500.58	24094.35
500.78	24026.77
500.99	23760.53
501.19	24364.68
501.40	24213.13
501.60	24344.20
501.81	24084.11
502.02	24514.19
502.22	24479.37
502.43	24669.83
502.63	24702.60
502.84	24882.82
503.04	24651.40
503.25	24690.31
503.45	24784.52
503.66	25038.47
503.86	25009.79
504.07	25263.74
504.27	24970.88
504.48	25644.66
504.68	25476.73
504.89	25192.06
505.09	25691.77
505.30	25523.83
505.50	25679.48
505.71	25773.69
505.91	25976.44
506.12	25871.99
506.32	25945.72
506.53	25681.53
506.73	26023.54
506.94	26310.25
507.14	26267.25
507.35	26199.66
507.55	26193.52
507.76	26322.54
507.96	26316.40
508.17	26408.56
508.37	26510.96
508.58	26539.63
508.78	26824.29
508.99	26914.41
509.19	26850.92
509.40	26349.17
509.60	26908.26
509.81	27006.56
510.01	26623.59
510.22	26977.89
510.42	27149.92
510.63	27385.44
510.83	26981.99
511.04	27375.20
511.24	27334.24
511.44	27592.28
511.65	27154.02
511.85	27405.92
512.06	27221.60
512.26	27532.89
512.47	27606.62
512.67	27647.58
512.88	27461.21
513.08	27631.19
513.29	28014.16
513.49	27643.48
513.69	27991.64
513.90	27922.01
514.10	28278.35
514.31	27977.30
514.51	28163.67
514.72	28044.88
514.92	27973.21
515.13	28165.71
515.33	28159.57
515.53	28266.06
515.74	28378.70
515.94	28384.85
516.15	28665.42
516.35	28296.78
516.56	28440.14
516.76	28542.54
516.96	28165.71
517.17	28991.05
517.37	28970.57
517.58	29290.05
517.78	28612.17
517.99	28804.68
518.19	29195.84
518.39	29277.76
518.60	29288.00
518.80	29208.13
519.01	29283.91
519.21	29591.10
519.41	29662.78
519.62	29374.02
519.82	29621.82
520.03	29492.80
520.23	29636.16
520.43	29550.14
520.64	29894.20
520.84	30121.52
521.05	29965.88
521.25	30193.20
521.45	30023.22
521.66	30422.58
521.86	29892.15
522.07	30379.57
522.27	30311.99
522.47	30340.66
522.68	30807.59
522.88	30406.19
523.08	30404.14
523.29	30737.96
523.49	30584.37
523.70	30823.98
523.90	30965.29
524.10	30948.90
524.31	31272.48
524.51	30766.63
524.71	31295.01
524.92	31188.52
525.12	31573.53
525.33	31309.35
525.53	31391.26
525.73	31782.43
525.94	31686.17
526.14	31804.95
526.34	31940.12
526.55	32237.08
526.75	32081.43
526.95	32054.81
527.16	32355.86
527.36	31940.12
527.56	32497.17
527.77	32572.94
527.97	32431.63
528.17	32534.03
528.38	32931.34
528.58	32820.75
528.78	32947.72
528.99	32783.88
529.19	32960.01
529.39	32960.01
529.60	33402.37
529.80	33209.86
530.00	33291.78
530.21	33281.54
530.41	33662.46
530.61	33406.47
530.82	33627.65
531.02	33568.26
531.22	33527.30
531.43	33756.67
531.63	33996.28
531.83	34483.70
532.04	34532.85
532.24	34334.20
532.44	34688.49
532.64	34549.23
532.85	34829.80
533.05	34670.06
533.25	34674.16
533.46	34481.65
533.66	35149.29
533.86	34864.62
534.07	35446.24
534.27	35020.27
534.47	35438.05
534.67	35288.55
534.88	34928.11
535.08	35565.03
535.28	35913.18
535.49	35577.31
535.69	35997.15
535.89	35997.15
536.09	35861.98
536.30	36351.45
536.50	36619.73
536.70	36423.12
536.91	36249.05
537.11	36494.80
537.31	36468.18
537.51	36664.78
537.72	36871.63
537.92	37064.14
538.12	37060.04
538.32	36969.93
538.53	37316.04
538.73	36722.13
538.93	37045.71
539.13	37127.63
539.34	37735.87
539.54	37101.00
539.74	37664.19
539.94	37889.47
540.15	37598.66
540.35	37942.72
540.55	37711.30
540.75	37866.94
540.96	38020.54
541.16	38106.55
541.36	38084.03
541.56	38026.68
541.77	38657.46
541.97	38380.98
542.17	38198.71
542.37	38399.41
542.58	38774.19
542.78	38624.69
542.98	38784.43
543.18	38884.78
543.38	39357.86
543.59	39314.86
543.79	39288.23
543.99	39083.44
544.19	39044.52
544.40	39036.33
544.60	39325.10
544.80	39411.11
545.00	39611.81
545.20	39712.16
545.41	39497.13
545.61	39384.49
545.81	40045.98
546.01	39966.11
546.21	39679.39
546.42	39783.84
546.62	40166.81
546.82	40039.84
547.02	40029.60
547.22	40158.62
547.43	40154.52
547.63	40478.10
547.83	40408.47
548.03	39992.73
548.23	40508.82
548.44	40553.88
548.64	40238.49
548.84	41110.92
549.04	40639.89
549.24	41184.65
549.45	40592.79
549.65	40859.02
549.85	41045.39
550.05	41012.62
550.25	41035.15
550.45	41424.26
550.66	41022.86
550.86	40936.85
551.06	41272.71
551.26	41235.85
551.46	41534.85
551.66	41637.25
551.87	41166.22
552.07	41260.43
552.27	41391.50
552.47	41819.52
552.67	41678.21
552.87	41704.84
553.07	41819.52
553.28	41958.78
553.48	42163.58
553.68	42134.91
553.88	42366.33
554.08	41893.25
554.28	42235.26
554.48	42052.99
554.69	41956.74
554.89	42151.29
555.09	42395.00
555.29	42093.95
555.49	42177.92
555.69	42351.99
555.89	42374.52
556.10	42964.34
556.30	42737.01
556.50	42993.01
556.70	42651.00
556.90	42589.56
557.10	42501.50
557.30	42800.50
557.50	43076.97
557.70	43050.35
557.91	43142.51
558.11	43201.90
558.31	43240.81
558.51	43197.80
558.71	42974.58
558.91	43488.62
559.11	43097.45
559.31	43281.77
559.51	43283.82
559.72	43101.55
559.92	43670.89
560.12	43265.39
560.32	43629.93
560.52	43625.83
560.72	43834.72
560.92	43953.51
561.12	43814.24
561.32	43853.15
561.52	43527.53
561.72	44008.80
561.93	43861.35
562.13	43738.47
562.33	43945.31
562.53	44338.52
562.73	43670.89
562.93	44150.11
563.13	44062.05
563.33	44055.90
563.53	44555.61
563.73	43638.12
563.93	44342.62
564.13	45124.94
564.33	44035.42
564.53	44262.75
564.74	44461.40
564.94	44856.66
565.14	44447.07
565.34	44483.93
565.54	44860.76
565.74	44651.86
565.94	44954.96
566.14	45049.17
566.34	44387.67
566.54	45149.52
566.74	44328.28
566.94	45086.03
567.14	44989.78
567.34	44631.38
567.54	45145.42
567.74	44846.42
567.94	44729.69
568.14	45454.67
568.34	45409.61
568.54	45233.49
568.74	45423.95
568.94	44997.97
569.14	45497.67
569.34	45616.46
569.54	45602.12
569.75	45407.56
569.95	45415.76
570.15	45749.57
570.35	45399.37
570.55	45667.66
570.75	45602.12
570.95	45716.81
571.15	45749.57
571.35	46007.62
571.55	45481.29
571.75	45753.67
571.95	45665.61
572.15	45800.77
572.35	46372.16
572.55	46159.17
572.75	46185.79
572.95	45978.95
573.15	45909.32
573.35	45806.92
573.55	45751.62
573.75	46392.64
573.95	46554.43
574.15	46396.73
574.35	46333.24
574.55	46349.63
574.75	46310.72
574.95	46548.28
575.15	46609.72
575.34	46490.94
575.54	46923.06
575.74	46900.53
575.94	46693.69
576.14	46847.29
576.34	47109.43
576.54	47514.92
576.74	47074.61
576.94	46953.78
577.14	46814.52
577.34	47625.51
577.54	47367.47
577.74	47551.79
577.94	47260.97
578.14	47379.76
578.34	47478.06
578.54	47168.82
578.74	47695.14
578.94	47775.02
579.14	47600.94
579.34	47293.74
579.54	47621.42
579.74	47713.58
579.94	47947.04
580.13	48313.63
580.33	48024.87
580.53	48221.47
580.73	48094.50
580.93	48280.86
581.13	48342.30
581.33	48473.37
581.53	48452.89
581.73	48526.62
581.93	48674.07
582.13	48782.62
582.33	48903.45
582.53	48334.11
582.73	48968.98
582.92	48403.74
583.12	49134.87
583.32	48780.57
583.52	48674.07
583.72	48790.81
583.92	48669.98
584.12	48856.34
584.32	49612.04
584.52	49323.28
584.72	48977.17
584.92	49493.26
585.11	49743.11
585.31	49149.20
585.51	49386.77
585.71	49485.07
585.91	49636.62
586.11	49251.60
586.31	48905.49
586.51	49466.64
586.71	49595.66
586.91	50029.83
587.10	49980.68
587.30	49859.85
587.50	49749.26
587.70	50078.98
587.90	50394.37
588.10	49937.67
588.30	49945.86
588.50	50259.20
588.69	49999.11
588.89	50173.19
589.09	50289.92
589.29	50324.74
589.49	50754.81
589.69	50156.80
589.89	50738.43
590.08	50316.54
590.28	50509.05
590.48	50550.01
590.68	50609.40
590.88	50746.62
591.08	50394.37
591.28	50193.67
591.47	50803.96
591.67	51037.43
591.87	50978.04
592.07	50855.16
592.27	50898.17
592.47	50892.02
592.67	50760.95
592.86	51066.10
593.06	51264.75
593.26	51133.68
593.46	50738.43
593.66	50834.68
593.86	51494.13
594.05	51186.93
594.25	51696.88
594.45	50967.80
594.65	51475.69
594.85	51381.49
595.05	51879.14
595.24	51602.67
595.44	51637.48
595.64	51557.61
595.84	51717.35
596.04	51926.25
596.23	51762.41
596.43	52423.90
596.63	51549.42
596.83	52057.32
597.03	52245.73
597.22	52255.97
597.42	51854.57
597.62	52282.59
597.82	52045.03
598.02	51827.95
598.21	52387.04
598.41	51444.98
598.61	52600.03
598.81	52169.96
599.01	52911.32
599.20	52813.02
599.40	52255.97
599.60	52634.84
599.80	52837.59
600.00	52610.27
600.19	53040.34
600.39	52532.45
600.59	53122.26
600.79	52983.00
600.98	52829.40
601.18	52786.39
601.38	52976.86
601.58	53220.56
601.78	53040.34
601.97	53056.73
602.17	53789.90
602.37	53714.12
602.57	53165.27
602.76	53447.89
602.96	53378.26
603.16	53794.00
603.36	53150.93
603.55	53804.24
603.75	53703.88
603.95	53732.56
604.15	53955.78
604.34	54107.33
604.54	53744.84
604.74	54062.28
604.94	54211.78
605.13	53875.91
605.33	54172.87
605.53	53695.69
605.73	54383.81
605.92	54049.99
606.12	54189.25
606.32	54613.18
606.52	54121.67
606.71	54566.08
606.91	54389.95
607.11	54596.80
607.30	54484.16
607.50	54633.66
607.70	54406.34
607.90	54398.15
608.09	54439.11
608.29	54721.72
608.49	54947.00
608.68	54555.84
608.88	54832.32
609.08	54621.37
609.28	54725.82
609.47	54420.67
609.67	54957.24
609.87	54457.54
610.06	54899.90
610.26	54957.24
610.46	55018.68
610.66	54660.29
610.85	55047.35
611.05	54936.76
611.25	55411.89
611.44	54613.18
611.64	55289.01
611.84	54967.48
612.03	55121.08
612.23	55082.17
612.43	55151.80
612.62	55284.92
612.82	55207.09
613.02	55440.56
613.21	55891.12
613.41	55411.89
613.61	55737.52
613.80	55008.44
614.00	55342.26
614.20	55266.48
614.39	55549.10
614.59	55139.51
614.79	55131.32
614.98	55452.85
615.18	55325.88
615.38	55760.05
615.57	55293.11
615.77	55624.88
615.97	55319.73
616.16	55276.72
616.36	55395.51
616.56	55497.91
616.75	55133.37
616.95	54830.27
617.15	55233.72
617.34	55155.89
617.54	55315.64
617.74	55860.40
617.93	55450.80
618.13	55211.19
618.32	55704.75
618.52	55671.98
618.72	55571.63
618.91	55919.79
619.11	55045.30
619.31	55809.20
619.50	55209.14
619.70	54817.98
619.90	55633.07
620.09	55801.00
620.29	55139.51
620.48	55370.93
620.68	55858.35
620.88	55008.44
621.07	55291.06
621.27	55839.92
621.46	55649.45
621.66	55383.22
621.86	55725.23
622.05	54799.55
622.25	55962.79
622.44	55325.88
622.64	55172.28
622.84	55409.84
623.03	54846.65
623.23	55092.41
623.42	55534.77
623.62	55575.73
623.82	56057.00
624.01	55297.20
624.21	55936.17
624.40	55346.36
624.60	55481.52
624.80	55616.69
624.99	55411.89
625.19	55311.54
625.38	55231.67
625.58	55491.76
625.77	55504.05
625.97	55276.72
626.17	55596.21
626.36	55387.31
626.56	55489.71
626.75	54901.95
626.95	56063.14
627.14	55667.89
627.34	55999.66
627.54	55538.86
627.73	55510.19
627.93	55321.78
628.12	55522.48
628.32	55180.47
628.51	55555.25
628.71	55538.86
628.90	55542.96
629.10	55620.78
629.30	55721.13
629.49	55829.68
629.69	55432.37
629.88	55375.03
630.08	55542.96
630.27	55628.98
630.47	56013.99
630.66	55346.36
630.86	55610.54
631.05	55721.13
631.25	55786.67
631.44	55549.10
631.64	55440.56
631.84	55911.59
632.03	55518.38
632.23	55768.24
632.42	56110.25
632.62	55588.02
632.81	55432.37
633.01	55626.93
633.20	55948.46
633.40	55784.62
633.59	55735.47
633.79	55686.32
633.98	55727.28
634.18	55844.01
634.37	55956.65
634.57	55475.38
634.76	55905.45
634.96	55962.79
635.15	56282.28
635.35	55661.74
635.54	55612.59
635.74	55923.88
635.93	55637.17
636.13	55880.88
636.32	56013.99
636.52	55655.60
636.71	55776.43
636.91	55608.50
637.10	56138.92
637.30	55786.67
637.49	56313.00
637.69	55600.30
637.88	56065.19
638.08	55461.04
638.27	56417.44
638.46	55833.77
638.66	55514.29
638.85	55733.42
639.05	56059.05
639.24	55889.07
639.44	55762.09
639.63	56468.64
639.83	56120.49
640.02	55907.50
640.22	55768.24
640.41	56321.19
640.61	56108.20
640.80	56298.66
640.99	56061.10
641.19	56411.30
641.38	56079.53
641.58	55796.91
641.77	56106.15
641.97	55657.65
642.16	56296.61
642.36	56325.28
642.55	56540.32
642.74	55829.68
642.94	56349.86
643.13	55932.07
643.33	56665.25
643.52	56652.96
643.72	56175.78
643.91	56390.82
644.10	56315.04
644.30	56868.00
644.49	56061.10
644.69	56620.19
644.88	56671.39
645.08	56024.23
645.27	56792.22
645.46	56513.70
645.66	56712.35
645.85	55991.47
646.05	56546.47
646.24	56892.57
646.43	56689.82
646.63	56616.10
646.82	56753.31
647.02	56448.16
647.21	56906.91
647.40	56900.76
647.60	57089.18
647.79	56603.81
647.99	56956.06
648.18	56472.74
648.37	57171.10
648.57	56935.58
648.76	56648.86
648.96	56800.41
649.15	57095.32
649.34	57044.12
649.54	56835.23
649.73	56208.55
649.92	57128.09
650.12	56810.65
650.31	57107.61
650.51	57259.16
650.70	57115.80
650.89	56804.51
651.09	57635.98
651.28	57169.05
651.47	57318.55
651.67	56988.83
651.86	57404.56
652.06	56509.60
652.25	57093.27
652.44	56786.08
652.64	56466.59
652.83	56573.09
653.02	57214.10
653.22	57418.90
653.41	56865.95
653.60	56800.41
653.80	56904.86
653.99	57201.82
654.18	56984.73
654.38	57148.57
654.57	57097.37
654.76	57154.71
654.96	57175.19
655.15	56833.18
655.34	57222.29
655.54	56601.76
655.73	57212.06
655.92	57349.27
656.12	57144.47
656.31	57058.46
656.50	56755.36
656.70	57171.10
656.89	57050.27
657.08	57582.74
657.28	57410.71
657.47	57105.56
657.66	57597.07
657.86	56714.40
658.05	57488.53
658.24	57345.17
658.43	57140.38
658.63	57259.16
658.82	57402.52
659.01	57441.43
659.21	57394.32
659.40	57150.62
659.59	57341.08
659.79	57494.67
659.98	57562.26
660.17	57930.89
660.36	57603.22
660.56	57750.67
660.75	57683.09
660.94	57361.56
661.14	57177.24
661.33	57134.23
661.52	56964.25
661.71	57685.14
661.91	57304.21
662.10	57535.63
662.29	57570.45
662.49	57324.69
662.68	57296.02
662.87	57437.33
663.06	57293.97
663.26	57332.89
663.45	57476.24
663.64	57554.07
663.83	57910.41
664.03	57617.55
664.22	57343.12
664.41	58156.17
664.60	57357.46
664.80	57105.56
664.99	57742.48
665.18	57160.86
665.37	57263.25
665.57	57957.52
665.76	57439.38
665.95	57787.53
666.14	57326.74
666.34	57771.15
666.53	57529.49
666.72	57306.26
666.91	57410.71
667.11	57158.81
667.30	57631.89
667.49	57207.96
667.68	57382.04
667.87	57461.91
668.07	57439.38
668.26	57549.97
668.45	57466.00
668.64	57033.88
668.84	57967.76
669.03	57490.58
669.22	58193.03
669.41	57595.03
669.60	57386.13
669.80	57320.60
669.99	57726.10
670.18	57451.67
670.37	57529.49
670.57	57617.55
670.76	57552.02
670.95	57644.18
671.14	57570.45
671.33	56919.20
671.53	57656.46
671.72	57578.64
671.91	57971.85
672.10	57566.35
672.29	57492.63
672.48	57189.53
672.68	57851.02
672.87	57515.15
673.06	57236.63
673.25	56874.14
673.44	57324.69
673.64	57402.52
673.83	57044.12
674.02	57324.69
674.21	56884.38
674.40	57420.95
674.59	56917.15
674.79	56706.21
674.98	57087.13
675.17	56935.58
675.36	57296.02
675.55	57167.00
675.74	57171.10
675.94	57076.89
676.13	57023.64
676.32	57377.94
676.51	57414.80
676.70	57173.14
676.89	57087.13
677.08	57472.15
677.28	57289.88
677.47	57828.49
677.66	57404.56
677.85	56994.97
678.04	57250.97
678.23	57377.94
678.42	57324.69
678.62	56835.23
678.81	57726.10
679.00	56997.02
679.19	57431.19
679.38	57568.40
679.57	57433.24
679.76	57250.97
679.96	57431.19
680.15	56947.87
680.34	57449.62
680.53	57048.22
680.72	56925.34
680.91	57341.08
681.10	56962.20
681.29	57365.65
681.48	56894.62
681.68	56734.88
681.87	57009.31
682.06	56870.04
682.25	56921.24
682.44	56886.43
682.63	57291.93
682.82	56595.62
683.01	56683.68
683.20	56419.49
683.39	56726.69
683.59	56476.83
683.78	56669.34
683.97	56493.22
684.16	56839.32
684.35	56849.56
684.54	56247.46
684.73	56366.24
684.92	56030.38
685.11	56382.63
685.30	56497.31
685.49	56628.38
685.69	56429.73
685.88	56341.67
686.07	56226.98
686.26	56356.00
686.45	57066.65
686.64	56804.51
686.83	56564.90
687.02	56439.97
687.21	56435.87
687.40	56407.20
687.59	56571.04
687.78	56329.38
687.97	57017.50
688.16	55846.06
688.35	56419.49
688.54	56095.91
688.74	55958.70
688.93	56188.07
689.12	56497.31
689.31	55807.15
689.50	56460.45
689.69	55985.32
689.88	55801.00
690.07	56220.84
690.26	55575.73
690.45	56671.39
690.64	56269.99
690.83	56036.52
691.02	55825.58
691.21	55850.16
691.40	55696.56
691.59	55882.92
691.78	55841.96
691.97	56040.62
692.16	55794.86
692.35	56229.03
692.54	55952.55
692.73	55950.51
692.92	55575.73
693.11	55811.24
693.30	55248.05
693.49	56321.19
693.68	55876.78
693.87	56147.11
694.06	55868.59
694.25	55850.16
694.44	55458.99
694.63	55694.51
694.82	55870.64
695.01	55710.89
695.20	55530.67
695.39	55612.59
695.58	55768.24
695.77	55391.41
695.96	55149.75
696.15	55620.78
696.34	54871.23
696.53	55475.38
696.72	55555.25
696.91	55383.22
697.10	55336.12
697.29	55049.40
697.48	55332.02
697.67	55096.50
697.86	54846.65
698.05	55264.44
698.24	55477.43
698.43	55209.14
698.62	55506.10
698.81	55203.00
699.00	55551.15
699.19	55364.79
699.38	55422.13
699.57	54908.09
699.76	55841.96
699.95	54754.49
700.14	54699.20
700.32	54922.43
700.51	54686.91
700.70	55387.31
700.89	55170.23
701.08	55458.99
701.27	55231.67
701.46	55065.78
701.65	54140.10
701.84	55045.30
702.03	55018.68
702.22	54793.40
702.41	54465.73
702.60	54465.73
702.79	54787.26
702.98	54586.56
703.17	54310.08
703.35	54490.30
703.54	54185.16
703.73	54695.10
703.92	54097.09
704.11	54068.42
704.30	53931.21
704.49	54336.71
704.68	54363.33
704.87	54004.94
705.06	54211.78
705.25	54244.55
705.43	54138.05
705.62	54394.05
705.81	54494.40
706.00	53970.12
706.19	53435.60
706.38	54023.37
706.57	53935.30
706.76	53609.68
706.95	53980.36
707.14	53830.86
707.32	53607.63
707.51	53818.57
707.70	53892.30
707.89	53884.11
708.08	53531.86
708.27	53834.95
708.46	54119.62
708.65	53675.21
708.84	53451.98
709.02	53642.45
709.21	53867.72
709.40	53773.52
709.59	53929.16
709.78	53212.37
709.97	53716.17
710.16	53040.34
710.34	53593.29
710.53	53640.40
710.72	53236.95
710.91	53376.21
711.10	53540.05
711.29	53460.18
711.48	52903.13
711.66	53036.25
711.85	52710.62
712.04	52817.11
712.23	53234.90
712.42	53066.97
712.61	53138.65
712.80	52767.96
712.98	53259.48
713.17	52901.08
713.36	52765.91
713.55	53314.77
713.74	53140.69
713.93	53079.25
714.11	53187.80
714.30	52649.18
714.49	52737.24
714.68	53157.08
714.87	53122.26
715.06	52780.25
715.24	52796.63
715.43	52919.51
715.62	52249.83
715.81	52389.09
716.00	52454.62
716.18	52278.50
716.37	52038.89
716.56	52178.15
716.75	52575.45
716.94	52221.16
717.12	52057.32
717.31	52380.90
717.50	51862.76
717.69	51926.25
717.88	52167.91
718.06	52507.87
718.25	52622.56
718.44	51987.69
718.63	52042.98
718.82	51574.00
719.00	51905.77
719.19	51518.70
719.38	51805.42
719.57	51051.76
719.76	51195.12
719.94	50828.54
720.13	51381.49
720.32	51354.86
720.51	51475.69
720.69	51313.90
720.88	51354.86
721.07	51008.76
721.26	50959.61
721.44	50545.92
721.63	50828.54
721.82	50965.75
722.01	50570.49
722.20	50611.45
722.38	50584.83
722.57	50427.13
722.76	50586.88
722.95	50343.17
723.13	50369.79
723.32	50386.18
723.51	50083.08
723.70	50394.37
723.88	50445.57
724.07	50265.34
724.26	50048.26
724.44	49714.44
724.63	50408.70
724.82	49939.72
725.01	49929.48
725.19	50091.27
725.38	49923.33
725.57	49384.72
725.76	49906.95
725.94	49741.06
726.13	50017.54
726.32	49644.81
726.51	49528.08
726.69	49988.87
726.88	49638.67
727.07	49327.38
727.25	49822.98
727.44	49503.50
727.63	49345.81
727.82	49415.44
728.00	49337.62
728.19	49489.16
728.38	50062.60
728.56	48995.60
728.75	49779.98
728.94	49419.53
729.12	49560.84
729.31	49435.92
729.50	49384.72
729.69	49638.67
729.87	49566.99
730.06	49468.69
730.25	49491.21
730.43	49575.18
730.62	49304.85
730.81	50068.74
730.99	49765.64
731.18	49014.04
731.37	49272.08
731.55	49687.82
731.74	49708.30
731.93	49325.33
732.11	49542.41
732.30	49001.75
732.49	49558.80
732.67	49612.04
732.86	49321.23
733.05	49421.58
733.23	49001.75
733.42	48901.40
733.61	49419.53
733.79	49005.84
733.98	49925.38
734.17	49136.91
734.35	49177.87
734.54	48715.03
734.73	49575.18
734.91	49442.06
735.10	48901.40
735.29	49474.83
735.47	48741.66
735.66	49345.81
735.84	49265.94
736.03	48751.90
736.22	49065.24
736.40	48796.95
736.59	48977.17
736.78	48577.82
736.96	48911.64
737.15	48674.07
737.33	48764.18
737.52	48395.55
737.71	48436.51
737.89	48971.03
738.08	48145.70
738.27	48821.53
738.45	49063.19
738.64	48821.53
738.82	48579.87
739.01	48416.03
739.20	48377.12
739.38	48561.44
739.57	49126.67
739.75	48477.47
739.94	48301.34
740.13	48225.57
740.31	48325.92
740.50	48133.41
740.68	48641.31
740.87	48747.80
741.06	48528.67
741.24	48502.04
741.43	47934.76
741.61	48160.03
741.80	48031.01
741.99	48071.97
742.17	47740.20
742.36	48266.53
742.54	47838.50
742.73	48268.58
742.91	47979.81
743.10	47875.37
743.29	48330.01
743.47	48037.16
743.66	47793.45
743.84	47891.75
744.03	48000.29
744.21	47639.85
744.40	48235.81
744.59	47777.06
744.77	47338.80
744.96	47721.77
745.14	48219.42
745.33	47928.61
745.51	47625.51
745.70	48112.93
745.88	47650.09
746.07	47680.81
746.26	47379.76
746.44	47248.69
746.63	47172.91
746.81	47641.90
747.00	46982.45
747.18	47811.88
747.37	47306.03
747.55	47379.76
747.74	47643.94
747.92	46994.74
748.11	47471.92
748.29	47377.71
748.48	46957.88
748.66	46933.30
748.85	47076.66
749.03	46898.48
749.22	46736.69
749.41	46466.36
749.59	46814.52
749.78	46556.47
749.96	46581.05
750.15	46896.44
750.33	46843.19
750.52	46677.30
750.70	46464.32
750.89	46460.22
751.07	46497.08
751.26	46857.52
751.44	46789.94
751.63	46185.79
751.81	46267.71
752.00	46394.68
752.18	46597.43
752.37	46585.15
752.55	46126.40
752.74	46374.20
752.92	46167.36
753.10	46337.34
753.29	45997.38
753.47	45761.86
753.66	45966.66
753.84	45790.53
754.03	46046.53
754.21	45530.44
754.40	46087.49
754.58	45806.92
754.77	45757.77
754.95	45339.98
755.14	45342.03
755.32	45784.39
755.51	45571.40
755.69	45532.49
755.88	45335.88
756.06	45397.32
756.24	45577.54
756.43	45202.77
756.61	45372.75
756.80	44961.11
756.98	45370.70
757.17	45190.48
757.35	45563.21
757.54	45053.26
757.72	45315.40
757.90	45532.49
758.09	44930.39
758.27	44991.83
758.46	44807.51
758.64	44975.44
758.83	45112.66
759.01	45321.55
759.19	45294.92
759.38	44893.52
759.56	45348.17
759.75	44612.95
759.93	44840.28
760.12	44631.38
760.30	44481.88
760.48	44512.60
760.67	45004.11
760.85	44813.65
761.04	44778.84
761.22	44463.45
761.40	44322.14
761.59	44660.05
761.77	44361.05
761.96	44442.97
762.14	44457.31
762.32	44266.84
762.51	44146.01
762.69	44170.59
762.88	43855.20
763.06	44070.24
763.24	44170.59
763.43	43887.97
763.61	43961.70
763.80	43935.07
763.98	44021.09
764.16	43629.93
764.35	43668.84
764.53	43226.48
764.72	43631.97
764.90	43836.77
765.08	43701.61
765.27	43703.65
765.45	43083.12
765.63	43337.07
765.82	43791.72
766.00	43206.00
766.18	43085.17
766.37	43668.84
766.55	42782.07
766.74	43588.97
766.92	42800.50
767.10	42997.10
767.29	42984.82
767.47	42452.34
767.65	42966.38
767.84	42734.96
768.02	42601.85
768.20	42689.91
768.39	42747.25
768.57	42577.27
768.75	42667.38
768.94	42788.21
769.12	42548.60
769.30	42440.06
769.49	42806.64
769.67	42083.71
769.85	41946.50
770.04	42308.99
770.22	42130.81
770.40	41899.39
770.59	41899.39
770.77	42200.44
770.95	42100.09
771.14	41766.27
771.32	41934.21
771.50	41407.88
771.69	41876.86
771.87	42096.00
772.05	41420.17
772.24	41586.05
772.42	41796.99
772.60	41708.93
772.78	41864.58
772.97	41041.29
773.15	41725.32
773.33	41278.86
773.52	41401.74
773.70	41612.68
773.88	41891.20
774.07	41237.90
774.25	41340.30
774.43	41450.89
774.61	41387.40
774.80	41596.29
774.98	41657.73
775.16	41651.59
775.34	41346.44
775.53	41608.58
775.71	41395.59
775.89	41328.01
776.08	41491.85
776.26	41827.71
776.44	41551.24
776.62	41913.73
776.81	41244.04
776.99	41473.42
777.17	41397.64
777.35	41735.56
777.54	41895.30
777.72	41385.35
777.90	41328.01
778.08	42038.65
778.27	41751.94
778.45	42186.11
778.63	42067.33
778.81	41356.68
779.00	42460.54
779.18	42026.37
779.36	42440.06
779.54	42063.23
779.73	41571.72
779.91	41696.64
780.09	41887.10
780.27	42001.79
780.46	41833.86
780.64	42560.89
780.82	41887.10
781.00	41809.28
781.19	42186.11
781.37	41846.15
781.55	42433.91
781.73	42255.74
781.91	42040.70
782.10	41821.57
782.28	42265.98
782.46	42452.34
782.64	42710.39
782.82	42057.09
783.01	42462.58
783.19	42386.81
783.37	41866.63
783.55	42030.46
783.74	42294.65
783.92	42163.58
784.10	42825.07
784.28	42356.09
784.46	42100.09
784.64	41778.56
784.83	42620.28
785.01	42497.40
785.19	42618.23
785.37	42188.16
785.55	42075.52
785.74	41741.70
785.92	42005.89
786.10	42356.09
786.28	42079.61
786.46	41647.49
786.64	41717.12
786.83	42018.17
787.01	42139.00
787.19	42073.47
787.37	41637.25
787.55	41639.30
787.74	41459.08
787.92	41815.43
788.10	41895.30
788.28	41031.05
788.46	41385.35
788.64	41262.47
788.82	41794.95
789.01	41805.19
789.19	41706.88
789.37	41647.49
789.55	41393.54
789.73	40940.94
789.91	40879.50
790.09	40691.09
790.28	41106.83
790.46	41010.57
790.64	41043.34
790.82	40519.06
791.00	40721.81
791.18	40791.44
791.36	40807.83
791.55	40670.61
791.73	40842.64
791.91	40480.15
792.09	40340.89
792.27	40207.77
792.45	40504.73
792.63	40191.39
792.81	39640.48
793.00	40183.19
793.18	39822.75
793.36	39667.11
793.54	39703.97
793.72	39777.70
793.90	39892.38
794.08	39304.62
794.26	39593.38
794.44	39105.96
794.62	39259.56
794.81	38964.65
794.99	39316.90
795.17	38755.76
795.35	39286.18
795.53	39314.86
795.71	39124.40
795.89	38706.61
796.07	38919.60
796.25	38479.28
796.43	38495.67
796.61	38354.36
796.80	38368.69
796.98	38092.22
797.16	38090.17
797.34	37959.10
797.52	38045.12
797.70	38180.28
797.88	37725.63
798.06	37375.43
798.24	37754.30
798.42	37656.00
798.60	37639.62
798.78	37473.73
798.96	37531.08
799.14	37051.85
799.32	37414.34
799.51	36877.77
799.69	37461.44
799.87	37209.54
800.05	36824.53
800.23	37111.24
800.41	36781.52
800.59	36578.77
800.77	36808.14
800.95	36273.62
801.13	36433.36
801.31	36373.97
801.49	36570.58
801.67	36150.74
801.85	35775.97
802.03	35728.86
802.21	35833.31
802.39	36132.31
802.57	35878.36
802.75	35636.70
802.93	35618.27
803.11	35698.14
803.29	35511.78
803.47	34743.79
803.65	35134.95
803.83	35667.42
804.01	34940.39
804.19	34797.04
804.37	34659.82
804.55	35055.08
804.73	34622.96
804.91	34637.30
805.09	34862.57
805.27	34457.07
805.45	34477.55
805.63	34852.33
805.81	34756.08
805.99	34780.65
806.17	34469.36
806.35	34182.65
806.53	34205.17
806.71	34459.12
806.89	34235.89
807.07	34260.47
807.25	34317.81
807.43	33998.33
807.61	34149.88
807.79	33861.12
807.97	33316.36
808.15	33930.75
808.33	33535.49
808.51	33517.06
808.69	33672.70
808.87	33259.01
809.05	32957.96
809.23	32896.52
809.41	33154.57
809.59	33179.14
809.77	32902.67
809.95	32790.03
810.13	32812.56
810.31	32906.76
810.49	33279.49
810.67	32787.98
810.84	32806.41
811.02	32679.44
811.20	32544.27
811.38	32556.56
811.56	32345.62
811.74	32290.32
811.92	32261.65
812.10	32216.60
812.28	32443.92
812.46	32038.42
812.64	32120.34
812.82	31952.41
813.00	31983.13
813.18	32013.85
813.36	31680.03
813.53	31583.77
813.71	31708.70
813.89	31327.78
814.07	31616.54
814.25	31530.53
814.43	31256.10
814.61	31352.35
814.79	31372.83
814.97	31071.78
815.15	31159.84
815.33	31075.88
815.50	30778.92
815.68	31047.21
815.86	30934.57
816.04	31190.56
816.22	30985.77
816.40	31106.60
816.58	30606.89
816.76	30496.30
816.94	30893.61
817.11	30481.97
817.29	30660.14
817.47	30488.11
817.65	30625.32
817.83	30717.48
818.01	30275.12
818.19	30277.17
818.37	30185.01
818.54	30045.75
818.72	30350.90
818.90	30211.64
819.08	29963.83
819.26	29720.12
819.44	29896.25
819.62	29896.25
819.80	29912.63
819.97	29861.43
820.15	29871.67
820.33	29683.26
820.51	29681.21
820.69	29249.09
820.87	29720.12
821.05	29697.59
821.22	29693.50
821.40	29484.61
821.58	29044.29
821.76	29380.16
821.94	29441.60
822.12	29378.11
822.29	29244.99
822.47	29126.21
822.65	29271.62
822.83	29222.47
823.01	28663.37
823.19	29009.48
823.36	28950.09
823.54	28804.68
823.72	28806.73
823.90	28911.17
824.08	28706.38
824.25	28857.93
824.43	28937.80
824.61	28552.78
824.79	28878.41
824.97	28675.66
825.15	28368.46
825.32	28669.51
825.50	28542.54
825.68	28472.91
825.86	28524.11
826.04	28261.97
826.21	27940.44
826.39	28218.96
826.57	28184.15
826.75	28253.78
826.93	27899.48
827.10	27768.41
827.28	27848.28
827.46	28294.74
827.64	27844.18
827.81	27782.74
827.99	27903.57
828.17	27702.87
828.35	27580.00
828.53	27657.82
828.70	27311.71
828.88	27047.52
829.06	27610.71
829.24	27700.83
829.41	27506.27
829.59	27227.74
829.77	27561.56
829.95	27602.52
830.12	27184.74
830.30	27479.64
830.48	27162.21
830.66	26979.94
830.84	27326.05
831.01	27227.74
831.19	27174.50
831.37	27111.01
831.55	27070.05
831.72	27059.81
831.90	26783.34
832.08	26951.27
832.25	26621.55
832.43	27170.40
832.61	26834.53
832.79	26734.18
832.96	26592.87
833.14	26617.45
833.32	26738.28
833.50	26668.65
833.67	26738.28
833.85	26467.95
834.03	26361.45
834.20	26660.46
834.38	26465.90
834.56	26615.40
834.74	26545.77
834.91	26535.53
835.09	26283.63
835.27	26328.69
835.44	26052.21
835.62	25888.37
835.80	25998.96
835.98	26295.92
836.15	26181.23
836.33	26228.34
836.51	26117.75
836.68	26201.71
836.86	26064.50
837.04	25939.57
837.21	25908.85
837.39	25992.82
837.57	26007.16
837.75	25769.59
837.92	25577.08
838.10	25556.60
838.28	25454.20
838.45	25712.25
838.63	25603.71
838.81	25466.49
838.98	25392.76
839.16	25335.42
839.34	25360.00
839.51	25104.00
839.69	25364.09
839.87	25269.89
840.04	25175.68
840.22	25648.76
840.40	25683.58
840.57	24870.53
840.75	25132.67
840.93	24977.03
841.10	24989.31
841.28	25560.70
841.46	25251.45
841.63	25147.01
841.81	24811.14
841.98	24888.96
842.16	25050.75
842.34	25212.54
842.51	24530.57
842.69	25294.46
842.87	24796.81
843.04	24735.37
843.22	24977.03
843.40	24678.02
843.57	24700.55
843.75	24499.85
843.92	24864.39
844.10	24780.42
844.28	24661.64
844.45	24673.93
844.63	24764.04
844.81	24768.13
844.98	24675.98
845.16	24495.75
845.33	24262.29
845.51	24675.98
845.69	24518.28
845.86	24172.18
846.04	24336.01
846.21	24399.50
846.39	24059.54
846.57	24127.12
846.74	24358.54
846.92	24243.85
847.09	24024.72
847.27	23953.04
847.45	23838.36
847.62	24182.42
847.80	24198.80
847.97	23979.67
848.15	23973.52
848.32	23893.65
848.50	24004.24
848.68	23598.74
848.85	23770.77
849.03	23537.30
849.20	23674.52
849.38	23762.58
849.56	23688.85
849.73	23488.15
849.91	23699.09
850.08	23928.47
850.26	23205.53
850.43	23611.03
850.61	23340.70
850.78	23219.87
850.96	23269.02
851.14	23133.86
851.31	23621.27
851.49	23586.46
851.66	23404.19
851.84	23721.62
852.01	23371.42
852.19	23543.45
852.36	23121.57
852.54	22859.43
852.71	23105.18
852.89	23199.39
853.07	23236.25
853.24	23152.29
853.42	23029.41
853.59	22937.25
853.77	23221.92
853.94	22965.92
854.12	23199.39
854.29	22765.22
854.47	22988.45
854.64	22947.49
854.82	22773.41
854.99	23117.47
855.17	22775.46
855.34	23146.14
855.52	22824.61
855.69	22967.97
855.87	22587.05
856.04	22644.39
856.22	22447.79
856.39	22259.37
856.57	22619.81
856.74	22304.43
856.92	22400.68
857.09	22460.07
857.27	22204.08
857.44	22408.87
857.62	22496.94
857.79	22337.20
857.97	22361.77
858.14	22425.26
858.32	22433.45
858.49	22519.46
858.67	22171.31
858.84	22312.62
859.02	22208.17
859.19	21876.40
859.37	22013.62
859.54	22060.72
859.72	22087.34
859.89	21999.28
860.06	21984.94
860.24	21784.24
860.41	22118.06
860.59	21712.56
860.76	22036.14
860.94	21700.28
861.11	22058.67
861.29	21524.15
861.46	21923.51
861.64	21567.16
861.81	21694.13
861.98	21468.86
862.16	21423.80
862.33	21302.97
862.51	21335.74
862.68	21696.18
862.86	21380.79
863.03	21616.31
863.21	21540.54
863.38	21298.88
863.55	21446.33
863.73	21345.98
863.90	21405.37
864.08	21421.75
864.25	21264.06
864.43	21147.33
864.60	21092.03
864.77	21049.02
864.95	21038.78
865.12	21176.00
865.30	20737.73
865.47	21089.98
865.64	20954.82
865.82	21155.52
865.99	21102.27
866.17	21077.69
866.34	20967.10
866.51	20852.42
866.69	20795.07
866.86	20915.90
867.04	20698.82
867.21	20737.73
867.38	20446.92
867.56	20623.05
867.73	20477.64
867.91	20549.32
868.08	20485.83
868.25	20266.70
868.43	20414.15
868.60	20268.75
868.78	20176.59
868.95	20559.56
869.12	20133.58
869.30	20434.63
869.47	20377.29
869.64	20332.23
869.82	20125.39
869.99	20059.85
870.16	20168.40
870.34	20170.44
870.51	20092.62
870.69	19986.13
870.86	20317.90
871.03	19949.26
871.21	20016.85
871.38	19883.73
871.55	19834.58
871.73	19922.64
871.90	19775.19
872.07	19582.68
872.25	19494.61
872.42	19742.42
872.59	19826.39
872.77	19695.32
872.94	19605.20
873.11	19670.74
873.29	19898.06
873.46	19508.95
873.63	19599.06
873.81	19766.99
873.98	19336.92
874.15	19173.08
874.33	18988.77
874.50	18931.42
874.67	19392.22
874.85	19044.06
875.02	19142.36
875.19	18796.26
875.37	18912.99
875.54	19046.11
875.71	18910.94
875.88	18886.37
876.06	18988.77
876.23	18886.37
876.40	18659.04
876.58	18906.85
876.75	18712.29
876.92	18630.37
877.10	18474.73
877.27	18869.98
877.44	18657.00
877.61	18638.56
877.79	18595.56
877.96	18446.05
878.13	18495.21
878.31	18255.59
878.48	18169.58
878.65	18513.64
878.82	18126.57
879.00	18355.94
879.17	18202.35
879.34	18231.02
879.51	18253.55
879.69	18288.36
879.86	18177.77
880.03	18224.87
880.21	18048.75
880.38	18069.23
880.55	18224.87
880.72	18190.06
880.90	18003.69
881.07	17848.05
881.24	17669.87
881.41	18132.72
881.59	17602.29
881.76	17731.31
881.93	17551.09
882.10	17733.36
882.28	17573.62
882.45	17608.44
882.62	17698.55
882.79	17868.53
882.96	17458.93
883.14	17727.22
883.31	17575.67
883.48	17526.52
883.65	17407.73
883.83	17428.21
884.00	17395.45
884.17	17338.10
884.34	17630.96
884.51	17352.44
884.69	17256.18
884.86	17458.93
885.03	17489.65
885.20	17188.60
885.38	17295.10
885.55	17110.78
885.72	17420.02
885.89	17170.17
886.06	17174.27
886.24	17200.89
886.41	16928.51
886.58	17352.44
886.75	17030.91
886.92	17018.62
887.10	17198.84
887.27	16897.79
887.44	16928.51
887.61	17200.89
887.78	17069.82
887.95	17137.40
888.13	16695.04
888.30	16619.27
888.47	16803.58
888.64	16822.02
888.81	17082.11
888.99	16848.64
889.16	16609.03
889.33	16881.41
889.50	16819.97
889.67	16574.21
889.84	16471.81
890.01	16641.79
890.19	16662.27
890.36	16471.81
890.53	16475.91
890.70	16412.42
890.87	16467.72
891.04	16246.54
891.22	16451.33
891.39	16367.37
891.56	16242.44
891.73	16199.43
891.90	16137.99
892.07	16203.53
892.24	16367.37
892.42	16199.43
892.59	16017.16
892.76	15951.63
892.93	16035.60
893.10	16144.14
893.27	16054.03
893.44	15965.96
893.61	15779.60
893.79	16205.58
893.96	16105.23
894.13	15888.14
894.30	15978.25
894.47	15882.00
894.64	16029.45
894.81	16072.46
894.98	15740.69
895.15	15959.82
895.33	15896.33
895.50	16074.51
895.67	16043.79
895.84	15712.02
896.01	15789.84
896.18	15806.22
896.35	16205.58
896.52	15808.27
896.69	15929.10
896.86	15867.66
897.04	16113.42
897.21	15879.95
897.38	15820.56
897.55	15912.72
897.72	15955.72
897.89	15679.25
898.06	15826.70
898.23	15673.10
898.40	15650.58
898.57	15761.17
898.74	15888.14
898.91	15752.98
899.08	15607.57
899.26	15601.43
899.43	15820.56
899.60	15578.90
899.77	15699.73
899.94	15671.06
900.11	15617.81
900.28	15609.62
900.45	15789.84
900.62	15642.39
900.79	15554.32
900.96	15769.36
901.13	15933.20
901.30	15574.80
901.47	15527.70
901.64	15750.93
901.81	15554.32
901.98	15533.84
902.15	15802.13
902.32	15679.25
902.49	15798.03
902.66	15527.70
902.83	15705.87
903.01	15716.11
903.18	15716.11
903.35	15533.84
903.52	15689.49
903.69	15748.88
903.86	15611.67
904.03	15677.20
904.20	15578.90
904.37	15798.03
904.54	15505.17
904.71	15562.51
904.88	15597.33
905.05	15623.95
905.22	15623.95
905.39	15529.75
905.56	15480.60
905.73	15572.75
905.90	15572.75
906.07	15650.58
906.24	15490.84
906.41	15605.52
906.58	15724.30
906.75	15523.60
906.92	15406.87
907.09	15480.60
907.26	15537.94
907.43	15425.30
907.60	15546.13
907.77	15628.05
907.93	15793.94
908.10	15480.60
908.27	15441.68
908.44	15474.45
908.61	15370.01
908.78	15253.27
908.95	15406.87
909.12	15408.92
909.29	15623.95
909.46	15146.78
909.63	15515.41
909.80	15505.17
909.97	15535.89
910.14	15490.84
910.31	15419.16
910.48	15359.77
910.65	15388.44
910.82	15386.39
910.99	15357.72
911.16	15345.43
911.33	15195.93
911.50	15400.72
911.66	15318.81
911.83	15386.39
912.00	15273.75
912.17	14984.99
912.34	15046.43
912.51	15220.50
912.68	15183.64
912.85	15087.39
913.02	14997.28
913.19	15173.40
913.36	14845.73
913.53	15099.67
913.70	14997.28
913.86	15097.63
914.03	14927.64
914.20	14944.03
914.37	14896.92
914.54	14954.27
914.71	14989.08
914.88	14997.28
915.05	14843.68
915.22	14688.03
915.39	14634.78
915.55	14571.30
915.72	14536.48
915.89	14548.77
916.06	14247.72
916.23	14382.88
916.40	14262.05
916.57	14473.00
916.74	14327.59
916.91	14331.69
917.07	14143.27
917.24	14133.03
917.41	14010.15
917.58	14128.94
917.75	14108.46
917.92	14018.35
918.09	13932.33
918.26	14083.88
918.42	14024.49
918.59	14149.42
918.76	13938.48
918.93	13971.24
919.10	13639.47
919.27	13625.14
919.44	13815.60
919.60	13739.82
919.77	13637.42
919.94	13709.10
920.11	13578.03
920.28	13690.67
920.45	13604.66
920.61	13410.10
920.78	13508.40
920.95	13418.29
921.12	13381.43
921.29	13305.65
921.46	13139.77
921.62	13041.46
921.79	13303.60
921.96	13100.86
922.13	13299.51
922.30	13086.52
922.47	12963.64
922.63	12949.31
922.80	12873.53
922.97	12810.04
923.14	12590.91
923.31	13008.70
923.47	12762.94
923.64	12764.99
923.81	12461.89
923.98	12453.70
924.15	12461.89
924.32	12322.63
924.48	12560.19
924.65	12709.69
924.82	12169.03
924.99	12136.26
925.15	12119.88
925.32	12298.05
925.49	12199.75
925.66	12142.41
925.83	11933.51
925.99	11802.44
926.16	11978.57
926.33	12044.10
926.50	11800.40
926.67	12017.48
926.83	11784.01
927.00	11714.38
927.17	11841.36
927.34	11435.86
927.50	11734.86
927.67	11685.71
927.84	11579.22
928.01	11644.75
928.17	11509.58
928.34	11530.06
928.51	11278.16
928.68	11099.99
928.84	11321.17
929.01	11226.96
929.18	11167.57
929.35	11163.48
929.51	11016.02
929.68	10880.86
929.85	10841.95
930.02	10882.91
930.18	10862.43
930.35	10803.04
930.52	10874.71
930.69	10786.65
930.85	10854.23
931.02	10581.85
931.19	10567.52
931.36	10745.69
931.52	10604.38
931.69	10596.19
931.86	10463.07
932.02	10211.17
932.19	10305.38
932.36	10346.34
932.53	10415.97
932.69	10311.52
932.86	10243.94
933.03	10151.78
933.19	10141.54
933.36	10114.92
933.53	9998.18
933.70	9924.46
933.86	9852.78
934.03	9760.62
934.20	9695.08
934.36	9727.85
934.53	9547.63
934.70	9541.49
934.86	9482.10
935.03	9394.03
935.20	9301.87
935.36	9191.28
935.53	9394.03
935.70	9148.28
935.86	9033.59
936.03	8781.69
936.20	8779.64
936.36	8906.62
936.53	8634.24
936.70	8732.54
936.86	8597.37
937.03	8814.46
937.20	8368.00
937.36	8435.58
937.53	8169.35
937.70	8259.46
937.86	8286.08
938.03	8071.04
938.20	8279.94
938.36	7968.65
938.53	7876.49
938.70	7581.58
938.86	7550.86
939.03	7450.51
939.20	7380.88
939.36	7401.36
939.53	7282.58
939.70	7612.30
939.86	7190.42
940.03	7077.78
940.19	7038.87
940.36	7034.77
940.53	7040.92
940.69	6881.18
940.86	6836.12
941.03	6657.95
941.19	6516.64
941.36	6602.65
941.52	6473.63
941.69	6408.09
941.86	6377.37
942.02	6424.48
942.19	6256.54
942.35	6234.02
942.52	6113.19
942.69	6119.33
942.85	6025.12
943.02	6049.70
943.18	5920.68
943.35	5932.97
943.52	6000.55
943.68	6008.74
943.85	5918.63
944.01	5666.73
944.18	5648.30
944.35	5631.91
944.51	5646.25
944.68	5521.32
944.84	5758.89
945.01	5711.78
945.17	5506.99
945.34	5566.38
945.51	5595.05
945.67	5509.04
945.84	5595.05
946.00	5492.65
946.17	5597.10
946.33	5566.38
946.50	5500.84
946.67	5420.97
946.83	5294.00
947.00	5539.76
947.16	5527.47
947.33	5410.73
947.49	5353.39
947.66	5285.81
947.82	5365.68
947.99	5330.86
948.16	5443.50
948.32	5347.25
948.49	5523.37
948.65	5398.45
948.82	5484.46
948.98	5427.12
949.15	5253.04
949.31	5451.69
949.48	5322.67
949.64	5425.07
949.81	5369.77
949.97	5357.49
950.14	5494.70
950.30	5554.09
950.47	5345.20
950.63	5463.98
950.80	5445.55
950.96	5410.73
951.13	5359.53
951.30	5451.69
951.46	5470.12
951.63	5531.56
951.79	5404.59
951.96	5607.34
952.12	5384.11
952.29	5398.45
952.45	5394.35
952.62	5504.94
952.78	5539.76
952.94	5533.61
953.11	5357.49
953.27	5406.64
953.44	5588.91
953.60	5466.03
953.77	5644.20
953.93	5388.21
954.10	5568.43
954.26	5509.04
954.43	5373.87
954.59	5599.15
954.76	5607.34
954.92	5550.00
955.09	5631.91
955.25	5466.03
955.42	5482.41
955.58	5584.81
955.75	5642.15
955.91	5552.04
956.07	5484.46
956.24	5627.82
956.40	5556.14
956.57	5640.11
956.73	5453.74
956.90	5470.12
957.06	5420.97
957.23	5654.44
957.39	5423.02
957.56	5619.63
957.72	5447.60
957.88	5517.23
958.05	5664.68
958.21	5703.59
958.38	5670.83
958.54	5607.34
958.71	5578.67
958.87	5545.90
959.03	5535.66
959.20	5509.04
959.36	5640.11
959.53	5560.24
959.69	5545.90
959.85	5623.72
960.02	5578.67
960.18	5578.67
960.35	5463.98
960.51	5570.48
960.68	5515.18
960.84	5574.57
961.00	5541.80
961.17	5576.62
961.33	5621.67
961.50	5506.99
961.66	5533.61
961.82	5466.03
961.99	5566.38
962.15	5523.37
962.31	5525.42
962.48	5494.70
962.64	5550.00
962.81	5511.08
962.97	5500.84
963.13	5554.09
963.30	5529.52
963.46	5355.44
963.62	5408.69
963.79	5500.84
963.95	5353.39
964.12	5470.12
964.28	5359.53
964.44	5369.77
964.61	5369.77
964.77	5566.38
964.93	5582.76
965.10	5482.41
965.26	5388.21
965.42	5416.88
965.59	5449.64
965.75	5402.54
965.92	5441.45
966.08	5595.05
966.24	5470.12
966.41	5394.35
966.57	5447.60
966.73	5363.63
966.90	5408.69
967.06	5380.01
967.22	5281.71
967.39	5246.90
967.55	5423.02
967.71	5328.81
967.88	5148.59
968.04	5332.91
968.20	5279.66
968.37	5132.21
968.53	5220.27
968.69	5281.71
968.85	5326.77
969.02	5341.10
969.18	5359.53
969.34	5224.37
969.51	5228.46
969.67	5164.98
969.83	5103.54
970.00	5361.58
970.16	5203.89
970.32	5070.77
970.48	5228.46
970.65	5027.76
970.81	5029.81
970.97	5070.77
971.14	4927.41
971.30	5070.77
971.46	5121.97
971.63	5294.00
971.79	5029.81
971.95	5072.82
972.11	5068.72
972.28	5060.53
972.44	5173.17
972.60	5003.19
972.76	5128.11
972.93	5021.62
973.09	4929.46
973.25	5007.28
973.42	5097.39
973.58	4962.23
973.74	5074.87
973.90	4892.60
974.07	4921.27
974.23	4904.89
974.39	4943.80
974.55	4933.56
974.72	4847.54
974.88	4822.97
975.04	4820.92
975.20	4894.65
975.37	4806.58
975.53	4837.30
975.69	4825.01
975.85	4777.91
976.01	4792.25
976.18	4777.91
976.34	4671.42
976.50	4937.65
976.66	4947.89
976.83	4734.90
976.99	4818.87
977.15	4788.15
977.31	4607.93
977.47	4732.86
977.64	4626.36
977.80	4716.47
977.96	4628.41
978.12	4700.09
978.29	4730.81
978.45	4624.31
978.61	4710.33
978.77	4728.76
978.93	4507.58
979.10	4730.81
979.26	4542.39
979.42	4640.70
979.58	4538.30
979.74	4532.15
979.91	4521.92
980.07	4468.67
980.23	4511.68
980.39	4558.78
980.55	4548.54
980.71	4569.02
980.88	4523.96
981.04	4370.37
981.20	4435.90
981.36	4534.20
981.52	4394.94
981.68	4564.92
981.85	4333.50
982.01	4374.46
982.17	4304.83
982.33	4423.61
982.49	4394.94
982.65	4294.59
982.82	4255.68
982.98	4343.74
983.14	4278.21
983.30	4378.56
983.46	4407.23
983.62	4282.30
983.79	4239.30
983.95	4259.78
984.11	4237.25
984.27	4321.21
984.43	4296.64
984.59	4431.80
984.75	4224.96
984.91	4188.10
985.08	4224.96
985.24	4046.79
985.40	4071.36
985.56	4138.94
985.72	4079.55
985.88	4210.62
986.04	3964.87
986.20	4065.22
986.37	4153.28
986.53	4175.81
986.69	4063.17
986.85	4001.73
987.01	4149.18
987.17	4108.23
987.33	4083.65
987.49	4052.93
987.65	4087.75
987.82	4218.82
987.98	3895.24
988.14	4052.93
988.30	3903.43
988.46	3862.47
988.62	4011.97
988.78	3878.85
988.94	3936.20
989.10	3899.33
989.26	3766.21
989.42	3905.48
989.59	3952.58
989.75	3880.90
989.91	3901.38
990.07	3696.58
990.23	3835.85
990.39	3895.24
990.55	3893.19
990.71	3786.69
990.87	3839.94
991.03	3809.22
991.19	3878.85
991.35	3733.45
991.51	3743.69
991.67	3928.00
991.83	3723.21
992.00	3766.21
992.16	3796.93
992.32	3854.28
992.48	3661.77
992.64	3688.39
992.80	3622.86
992.96	3780.55
993.12	3618.76
993.28	3835.85
993.44	3704.78
993.60	3788.74
993.76	3629.00
993.92	3696.58
994.08	3751.88
994.24	3710.92
994.40	3655.62
994.56	3622.86
994.72	3571.66
994.88	3495.88
995.04	3600.33
995.20	3561.42
995.36	3502.03
995.52	3659.72
995.68	3575.75
995.84	3499.98
996.00	3696.58
996.16	3436.49
996.32	3520.46
996.48	3452.88
996.64	3532.75
996.80	3405.77
996.96	3655.62
997.12	3502.03
997.28	3483.59
997.44	3366.86
997.60	3473.36
997.76	3416.01
997.92	3479.50
998.08	3305.42
998.24	3428.30
998.40	3327.95
998.56	3473.36
998.72	3297.23
998.88	3303.37
999.04	3344.33
999.20	3391.44
999.36	3317.71
999.52	3348.43
999.68	3262.41
999.84	3454.92
1000.00	3237.84
1000.16	3332.05
1000.32	3239.89
1000.48	3364.81
1000.64	3190.74
1000.80	3262.41
1000.95	3196.88
1001.11	3200.98
1001.27	3133.39
1001.43	3215.31
1001.59	3157.97
1001.75	3131.34
1001.91	3227.60
1002.07	3065.81
1002.23	3153.87
1002.39	3127.25
1002.55	3121.10
1002.71	3106.77
1002.87	3141.58
1003.03	3098.58
1003.19	3166.16
1003.34	3233.74
1003.50	3014.61
1003.66	3182.54
1003.82	3045.33
1003.98	3117.01
1004.14	3082.19
1004.30	2891.73
1004.46	3114.96
1004.62	3157.97
1004.78	2963.41
1004.94	3049.43
1005.09	2934.74
1005.25	3065.81
1005.41	3018.71
1005.57	2998.23
1005.73	2983.89
1005.89	2918.36
1006.05	2881.49
1006.21	2969.55
1006.37	2908.12
1006.52	2979.79
1006.68	2811.86
1006.84	2959.31
1007.00	2863.06
1007.16	2957.27
1007.32	2824.15
1007.48	2912.21
1007.64	2912.21
1007.79	2879.44
1007.95	2891.73
1008.11	2928.60
1008.27	2779.09
1008.43	2840.53
1008.59	2830.29
1008.75	2846.68
1008.91	2879.44
1009.06	2787.29
1009.22	2836.44
1009.38	2781.14
1009.54	2889.68
1009.70	2820.05
1009.86	2826.20
1010.01	2856.92
1010.17	2836.44
1010.33	2813.91
1010.49	2713.56
1010.65	2840.53
1010.81	2592.73
1010.96	2744.28
1011.12	2650.07
1011.28	2684.89
1011.44	2668.50
1011.60	2750.42
1011.76	2652.12
1011.91	2691.03
1012.07	2631.64
1012.23	2674.65
1012.39	2619.35
1012.55	2666.46
1012.71	2658.26
1012.86	2670.55
1013.02	2660.31
1013.18	2582.49
1013.34	2625.50
1013.50	2625.50
1013.65	2660.31
1013.81	2570.20
1013.97	2527.19
1014.13	2662.36
1014.29	2656.22
1014.44	2562.01
1014.60	2541.53
1014.76	2654.17
1014.92	2500.57
1015.07	2598.87
1015.23	2744.28
1015.39	2422.75
1015.55	2545.63
1015.71	2543.58
1015.86	2484.19
1016.02	2500.57
1016.18	2398.17
1016.34	2480.09
1016.49	2596.82
1016.65	2598.87
1016.81	2484.19
1016.97	2482.14
1017.12	2461.66
1017.28	2498.52
1017.44	2379.74
1017.60	2484.19
1017.75	2531.29
1017.91	2461.66
1018.07	2451.42
1018.23	2428.89
1018.38	2389.98
1018.54	2418.65
1018.70	2406.36
1018.86	2320.35
1019.01	2439.13
1019.17	2406.36
1019.33	2482.14
1019.49	2441.18
1019.64	2357.21
1019.80	2377.69
1019.96	2416.60
1020.12	2486.23
1020.27	2332.64
1020.43	2355.16
1020.59	2320.35
1020.74	2428.89
1020.90	2416.60
1021.06	2265.05
1021.22	2338.78
1021.37	2367.45
1021.53	2265.05
1021.69	2400.22
1021.84	2281.44
1022.00	2222.05
1022.16	2361.31
1022.31	2260.96
1022.47	2328.54
1022.63	2336.73
1022.79	2226.14
1022.94	2224.09
1023.10	2363.36
1023.26	2346.97
1023.41	2213.85
1023.57	2252.77
1023.73	2256.86
1023.88	2283.49
1024.04	2127.84
1024.20	2213.85
1024.35	2301.92
1024.51	2260.96
1024.67	2140.13
1024.82	2273.25
1024.98	2181.09
1025.14	2306.01
1025.29	2193.37
1025.45	2281.44
1025.61	2199.52
1025.76	2156.51
1025.92	2263.01
1026.08	2312.16
1026.23	2179.04
1026.39	2279.39
1026.55	2176.99
1026.70	2093.02
1026.86	2240.48
1027.02	2187.23
1027.17	2199.52
1027.33	2213.85
1027.48	2254.81
1027.64	2209.76
1027.80	2129.89
1027.95	2117.60
1028.11	2078.69
1028.27	2133.98
1028.42	2095.07
1028.58	2117.60
1028.73	2150.37
1028.89	2090.98
1029.05	2187.23
1029.20	2097.12
>>>>>End Processed Spectral Data<<<<<
