SpectraSuite Data File
++++++++++++++++++++++++++++++++++++
Date: Fri Jun 02 14:52:28 CEST 2017
User: INFO_000
Dark Spectrum Present: No
Reference Spectrum Present: No
Number of Sampled Component Spectra: 1
Spectrometers: USB4H00879
Integration Time (usec): 80000 (USB4H00879)
Spectra Averaged: 1 (USB4H00879)
Boxcar Smoothing: 0 (USB4H00879)
Correct for Electrical Dark: No (USB4H00879)
Strobe/Lamp Enabled: No (USB4H00879)
Correct for Detector Non-linearity: No (USB4H00879)
Correct for Stray Light: No (USB4H00879)
Number of Pixels in Processed Spectrum: 3648
>>>>>Begin Processed Spectral Data<<<<<
345.13	1290.22
345.34	1290.22
345.56	1290.22
345.78	1304.56
345.99	1212.40
346.21	1771.49
346.42	1644.52
346.64	1552.36
346.86	1763.30
347.07	1665.00
347.29	1740.77
347.50	1656.81
347.72	1708.01
347.94	1796.07
348.15	1544.17
348.37	1665.00
348.59	1716.20
348.80	1603.56
349.02	1867.75
349.23	1943.52
349.45	1869.80
349.67	1861.60
349.88	1804.26
350.10	2035.68
350.31	1855.46
350.53	1867.75
350.75	1966.05
350.96	1781.73
351.18	1949.67
351.39	1953.76
351.61	1875.94
351.82	1923.04
352.04	1890.28
352.26	1892.32
352.47	1865.70
352.69	1974.24
352.90	1769.44
353.12	1900.52
353.34	1775.59
353.55	1959.91
353.77	1931.23
353.98	1884.13
354.20	1869.80
354.41	1871.84
354.63	1931.23
354.85	2056.16
355.06	1968.10
355.28	1867.75
355.49	1986.53
355.71	1978.34
355.92	1873.89
356.14	1937.38
356.35	1875.94
356.57	1888.23
356.79	1947.62
357.00	1929.19
357.22	1976.29
357.43	1859.56
357.65	1945.57
357.86	1863.65
358.08	1882.08
358.29	1996.77
358.51	1998.82
358.72	1925.09
358.94	1937.38
359.16	1894.37
359.37	1894.37
359.59	1990.63
359.80	2002.91
360.02	1959.91
360.23	2033.63
360.45	2009.06
360.66	1978.34
360.88	1898.47
361.09	1984.48
361.31	2064.35
361.52	1959.91
361.74	2117.60
361.95	2101.22
362.17	1986.53
362.38	2066.40
362.60	1976.29
362.81	1968.10
363.03	1925.09
363.24	2000.87
363.46	2101.22
363.67	1984.48
363.89	2004.96
364.10	1978.34
364.32	1968.10
364.53	2101.22
364.75	1900.52
364.96	1980.39
365.18	2060.26
365.39	1961.95
365.61	1875.94
365.82	2103.26
366.04	1966.05
366.25	1976.29
366.47	2082.78
366.68	2002.91
366.90	2025.44
367.11	2070.50
367.33	2056.16
367.54	2080.74
367.76	2076.64
367.97	2090.98
368.19	2033.63
368.40	2195.42
368.62	1964.00
368.83	1961.95
369.05	2119.65
369.26	1902.56
369.48	1994.72
369.69	2050.02
369.91	2086.88
370.12	2050.02
370.33	2113.50
370.55	1945.57
370.76	2084.83
370.98	2060.26
371.19	2009.06
371.41	2070.50
371.62	2041.82
371.84	2082.78
372.05	2236.38
372.27	2056.16
372.48	2129.89
372.69	2054.11
372.91	2158.56
373.12	2279.39
373.34	2101.22
373.55	2158.56
373.77	2172.89
373.98	2142.18
374.20	2222.05
374.41	2297.82
374.62	2088.93
374.84	2240.48
375.05	2215.90
375.27	2168.80
375.48	2256.86
375.70	2140.13
375.91	2217.95
376.12	2301.92
376.34	2179.04
376.55	2197.47
376.77	2224.09
376.98	2090.98
377.19	2191.33
377.41	2224.09
377.62	2275.29
377.84	2256.86
378.05	2336.73
378.27	2285.53
378.48	2363.36
378.69	2371.55
378.91	2332.64
379.12	2267.10
379.34	2213.85
379.55	2269.15
379.76	2250.72
379.98	2258.91
380.19	2283.49
380.41	2265.05
380.62	2213.85
380.83	2326.49
381.05	2299.87
381.26	2432.99
381.47	2248.67
381.69	2232.29
381.90	2445.27
382.12	2312.16
382.33	2287.58
382.54	2273.25
382.76	2330.59
382.97	2314.20
383.19	2320.35
383.40	2420.70
383.61	2451.42
383.83	2289.63
384.04	2349.02
384.25	2441.18
384.47	2432.99
384.68	2332.64
384.89	2351.07
385.11	2322.40
385.32	2289.63
385.54	2340.83
385.75	2297.82
385.96	2469.85
386.18	2435.03
386.39	2447.32
386.60	2389.98
386.82	2475.99
387.03	2400.22
387.24	2437.08
387.46	2543.58
387.67	2519.00
387.88	2557.91
388.10	2455.51
388.31	2519.00
388.52	2519.00
388.74	2553.82
388.95	2510.81
389.16	2521.05
389.38	2533.34
389.59	2658.26
389.80	2701.27
390.02	2547.67
390.23	2572.25
390.44	2664.41
390.66	2570.20
390.87	2510.81
391.08	2676.70
391.30	2699.22
391.51	2721.75
391.72	2744.28
391.94	2666.46
392.15	2592.73
392.36	2594.78
392.58	2562.01
392.79	2672.60
393.00	2682.84
393.22	2705.37
393.43	2678.74
393.64	2977.75
393.85	2811.86
394.07	2678.74
394.28	2805.72
394.49	2775.00
394.71	2891.73
394.92	2848.72
395.13	2648.02
395.35	2744.28
395.56	2777.05
395.77	2731.99
395.98	2854.87
396.20	2883.54
396.41	2873.30
396.62	2809.81
396.84	2844.63
397.05	2858.96
397.26	2918.36
397.47	2887.64
397.69	2887.64
397.90	3041.23
398.11	2942.93
398.32	2981.84
398.54	2944.98
398.75	2836.44
398.96	2942.93
399.18	3084.24
399.39	2947.03
399.60	3033.04
399.81	2838.48
400.03	2932.69
400.24	3182.54
400.45	3010.51
400.66	3149.78
400.88	3035.09
401.09	3252.17
401.30	3082.19
401.51	3162.06
401.73	3192.78
401.94	3059.67
402.15	3260.37
402.36	3168.21
402.58	3219.41
402.79	3160.02
403.00	3270.61
403.21	3162.06
403.43	3270.61
403.64	3264.46
403.85	3016.66
404.06	3315.66
404.27	3160.02
404.49	3213.26
404.70	3182.54
404.91	3389.39
405.12	3313.61
405.34	3258.32
405.55	3409.87
405.76	3268.56
405.97	3223.50
406.19	3387.34
406.40	3172.30
406.61	3403.72
406.82	3407.82
407.03	3375.05
407.25	3323.85
407.46	3399.63
407.67	3469.26
407.88	3565.51
408.09	3348.43
408.31	3407.82
408.52	3387.34
408.73	3366.86
408.94	3385.29
409.15	3377.10
409.37	3561.42
409.58	3678.15
409.79	3448.78
410.00	3598.28
410.21	3520.46
410.43	3512.27
410.64	3323.85
410.85	3588.04
411.06	3686.34
411.27	3764.17
411.48	3643.34
411.70	3555.27
411.91	3649.48
412.12	3708.87
412.33	3674.06
412.54	3653.58
412.76	3813.32
412.97	3690.44
413.18	3618.76
413.39	3735.50
413.60	3694.54
413.81	3772.36
414.03	3737.54
414.24	3727.30
414.45	3864.52
414.66	3667.91
414.87	3944.39
415.08	3817.41
415.30	3731.40
415.51	3770.31
415.72	3809.22
415.93	3846.09
416.14	3895.24
416.35	3858.37
416.56	3815.37
416.78	3747.78
416.99	3891.14
417.20	3848.13
417.41	4083.65
417.62	4014.02
417.83	3979.20
418.04	3954.63
418.26	4081.60
418.47	3997.64
418.68	4149.18
418.89	3923.91
419.10	4208.58
419.31	4079.55
419.52	4202.43
419.73	4153.28
419.95	4263.87
420.16	3930.05
420.37	4083.65
420.58	4186.05
420.79	4097.99
421.00	4202.43
421.21	4294.59
421.42	4112.32
421.63	4245.44
421.85	4145.09
422.06	4392.89
422.27	4270.01
422.48	4331.45
422.69	4409.28
422.90	4411.32
423.11	4425.66
423.32	4386.75
423.53	4407.23
423.75	4483.00
423.96	4587.45
424.17	4550.59
424.38	4597.69
424.59	4657.08
424.80	4677.56
425.01	4566.97
425.22	4507.58
425.43	4650.94
425.64	4829.11
425.85	4761.53
426.06	4624.31
426.28	4607.93
426.49	4540.35
426.70	4706.23
426.91	4816.82
427.12	4702.14
427.33	4624.31
427.54	4732.86
427.75	4763.58
427.96	4882.36
428.17	4911.03
428.38	4902.84
428.59	4980.66
428.80	4732.86
429.01	4949.94
429.23	4956.08
429.44	5173.17
429.65	5179.31
429.86	4970.42
430.07	5003.19
430.28	4913.08
430.49	4968.37
430.70	5197.74
430.91	5132.21
431.12	5091.25
431.33	5035.96
431.54	5250.99
431.75	5193.65
431.96	5253.04
432.17	5226.42
432.38	5189.55
432.59	5517.23
432.80	5320.62
433.01	5392.30
433.22	5330.86
433.43	5210.03
433.64	5341.10
433.85	5363.63
434.06	5451.69
434.27	5443.50
434.49	5459.88
434.70	5496.75
434.91	5566.38
435.12	5398.45
435.33	5445.55
435.54	5556.14
435.75	5349.29
435.96	5511.08
436.17	5533.61
436.38	5683.11
436.59	5568.43
436.80	5451.69
437.01	5803.94
437.22	5863.33
437.43	5754.79
437.64	5529.52
437.85	5713.83
438.06	5801.90
438.27	5703.59
438.48	5818.28
438.69	5828.52
438.90	5926.82
439.11	5728.17
439.32	5855.14
439.53	5900.20
439.74	5920.68
439.95	6021.03
440.16	5892.01
440.37	5877.67
440.57	5867.43
440.78	5949.35
440.99	6029.22
441.20	5924.77
441.41	5889.96
441.62	6064.04
441.83	5916.58
442.04	6072.23
442.25	6184.87
442.46	6078.37
442.67	6252.45
442.88	6631.32
443.09	6152.10
443.30	6145.95
443.51	6219.68
443.72	6418.33
443.93	6229.92
444.14	6397.85
444.35	6121.38
444.56	6375.33
444.77	6371.23
444.98	6352.80
445.19	6514.59
445.40	6465.44
445.61	6324.13
445.81	6678.43
446.02	6545.31
446.23	6360.99
446.44	6424.48
446.65	6533.02
446.86	6582.17
447.07	6614.94
447.28	6811.54
447.49	6850.46
447.70	6684.57
447.91	6606.75
448.12	6700.95
448.33	6854.55
448.54	6692.76
448.74	6616.99
448.95	6856.60
449.16	6811.54
449.37	7231.38
449.58	6893.46
449.79	6965.14
450.00	6942.61
450.21	6991.77
450.42	7137.17
450.63	6983.57
450.84	7028.63
451.05	7202.71
451.25	6991.77
451.46	6827.93
451.67	7169.94
451.88	7335.82
452.09	7249.81
452.30	7149.46
452.51	7118.74
452.72	7413.65
452.93	7624.59
453.13	7120.79
453.34	7270.29
453.55	7278.48
453.76	7397.26
453.97	7796.62
454.18	7475.09
454.39	7583.63
454.60	7554.96
454.81	7733.13
455.01	7692.17
455.22	7374.74
455.43	7726.99
455.64	7909.26
455.85	8040.33
456.06	8062.85
456.27	7784.33
456.48	7933.83
456.68	7917.45
456.89	7899.02
457.10	8126.34
457.31	8052.61
457.52	8011.65
457.73	8222.59
457.94	8351.62
458.14	8015.75
458.35	8591.23
458.56	8269.70
458.77	8267.65
458.98	8601.47
459.19	8591.23
459.39	8517.50
459.60	8695.68
459.81	8527.74
460.02	8566.65
460.23	8677.24
460.44	8818.55
460.65	8914.81
460.85	8959.86
461.06	8982.39
461.27	8767.35
461.48	9162.61
461.69	9148.28
461.89	8966.01
462.10	8994.68
462.31	8931.19
462.52	9000.82
462.73	9234.29
462.94	9420.66
463.14	9283.44
463.35	9574.25
463.56	9842.54
463.77	9469.81
463.98	9285.49
464.18	9580.40
464.39	9717.61
464.60	9824.11
464.81	9748.33
465.02	9777.00
465.23	9989.99
465.43	9785.19
465.64	10299.23
465.85	10010.47
466.06	10143.59
466.27	10489.70
466.47	10315.62
466.68	10454.88
466.89	10319.71
467.10	10440.54
467.30	10137.45
467.51	10596.19
467.72	10661.73
467.93	10461.02
468.14	10571.61
468.34	10891.10
468.55	10907.48
468.76	11163.48
468.97	10884.95
469.17	11022.17
469.38	11128.66
469.59	11233.11
469.80	11263.83
470.01	11018.07
470.21	11355.99
470.42	11816.78
470.63	11554.64
470.84	11380.56
471.04	11665.23
471.25	11614.03
471.46	11595.60
471.67	12056.39
471.87	11853.64
472.08	11851.60
472.29	12152.65
472.50	11507.54
472.70	11931.47
472.91	12085.06
473.12	12347.20
473.33	12257.09
473.53	12253.00
473.74	12332.87
473.95	12660.54
474.16	12808.00
474.36	12529.47
474.57	12896.06
474.78	13176.63
474.99	12910.40
475.19	12769.09
475.40	13150.01
475.61	13231.93
475.81	13557.55
476.02	13547.31
476.23	13444.91
476.44	13690.67
476.64	13721.39
476.85	13897.52
477.06	13915.95
477.27	13920.04
477.47	14241.57
477.68	13952.81
477.89	14266.15
478.09	14669.60
478.30	14356.26
478.51	14427.94
478.71	14790.43
478.92	14731.04
479.13	14667.55
479.34	14778.14
479.54	14984.99
479.75	15210.26
479.96	15200.02
480.16	15394.58
480.37	15189.78
480.58	15259.42
480.78	15435.54
480.99	15484.69
481.20	15660.82
481.41	15863.57
481.61	15957.77
481.82	15869.71
482.03	16156.43
482.23	15968.01
482.44	16269.06
482.65	16416.52
482.85	16469.76
483.06	16467.72
483.27	16361.22
483.47	16547.59
483.68	16635.65
483.89	16512.77
484.09	16766.72
484.30	16992.00
484.51	17313.53
484.71	17047.29
484.92	17383.16
485.13	17321.72
485.33	17446.65
485.54	17348.34
485.75	17733.36
485.95	17692.40
486.16	17731.31
486.37	17886.96
486.57	17770.22
486.78	17647.35
486.98	18163.43
487.19	18026.22
487.40	18212.59
487.60	18274.03
487.81	18800.35
488.02	18620.13
488.22	18386.66
488.43	18550.50
488.64	18685.67
488.84	18915.04
489.05	18869.98
489.25	19074.78
489.46	19521.24
489.67	19023.58
489.87	19392.22
490.08	19586.77
490.29	19465.94
490.49	19556.05
490.70	19762.90
490.90	19902.16
491.11	19541.72
491.32	19840.72
491.52	20014.80
491.73	19805.91
491.94	19961.55
492.14	19803.86
492.35	20319.95
492.55	20588.23
492.76	20350.67
492.97	20653.76
493.17	20639.43
493.38	20635.33
493.58	21024.45
493.79	20934.34
494.00	20862.66
494.20	21077.69
494.41	21051.07
494.61	21247.68
494.82	21188.28
495.02	21302.97
495.23	21182.14
495.44	21511.86
495.64	21726.90
495.85	21460.66
496.05	21862.07
496.26	21776.05
496.47	22507.18
496.67	21804.72
496.88	22257.32
497.08	21960.37
497.29	22337.20
497.49	22333.10
497.70	22329.00
497.91	22564.52
498.11	22492.84
498.32	22556.33
498.52	22675.11
498.73	22662.82
498.93	22750.88
499.14	22941.35
499.34	23043.74
499.55	23217.82
499.76	23029.41
499.96	23271.07
500.17	23324.32
500.37	23412.38
500.58	23434.91
500.78	23559.83
500.99	23312.03
501.19	23684.76
501.40	23697.05
501.60	23783.06
501.81	23817.88
502.02	23926.42
502.22	23674.52
502.43	24213.13
502.63	24403.60
502.84	24254.09
503.04	24088.21
503.25	24469.13
503.45	24479.37
503.66	24397.45
503.86	24569.48
504.07	24686.22
504.27	24379.02
504.48	24899.20
504.68	24784.52
504.89	24743.56
505.09	25106.05
505.30	25022.08
505.50	25173.63
505.71	25267.84
505.91	25108.10
506.12	25011.84
506.32	25255.55
506.53	25280.13
506.73	25323.13
506.94	25603.71
507.14	25376.38
507.35	25577.08
507.55	25503.35
507.76	25837.17
507.96	25695.86
508.17	25761.40
508.37	25650.81
508.58	26132.08
508.78	25874.04
508.99	26525.29
509.19	26375.79
509.40	26310.25
509.60	26170.99
509.81	26822.25
510.01	26322.54
510.22	26357.36
510.42	26814.05
510.63	26699.37
510.83	26596.97
511.04	26760.81
511.24	26611.31
511.44	26990.18
511.65	26994.28
511.85	26893.93
512.06	27018.85
512.26	27029.09
512.47	27020.90
512.67	27088.48
512.88	27115.11
513.08	27055.72
513.29	27461.21
513.49	27569.76
513.69	27504.22
513.90	27471.45
514.10	27756.12
514.31	27696.73
514.51	27739.74
514.72	28044.88
514.92	27840.09
515.13	28126.80
515.33	28120.66
515.53	28134.99
515.74	28315.22
515.94	28098.13
516.15	28108.37
516.35	28282.45
516.56	28728.91
516.76	28046.93
516.96	28485.20
517.17	28735.05
517.37	28698.19
517.58	28722.76
517.78	28689.99
517.99	28786.25
518.19	28976.71
518.39	29453.89
518.60	29601.34
518.80	29154.88
519.01	29318.72
519.21	29560.38
519.41	29423.17
519.62	29369.92
519.82	29437.50
520.03	29566.52
520.23	29568.57
520.43	29660.73
520.64	30166.58
520.84	30008.89
521.05	29955.64
521.25	29916.73
521.45	30410.29
521.66	30656.04
521.86	30152.24
522.07	30242.35
522.27	30402.10
522.47	30205.49
522.68	30641.71
522.88	30744.11
523.08	31196.71
523.29	31288.87
523.49	30963.24
523.70	30860.84
523.90	31149.60
524.10	31190.56
524.31	31409.70
524.51	31245.86
524.71	31790.62
524.92	31280.67
525.12	31802.91
525.33	31503.90
525.53	31989.27
525.73	32173.59
525.94	31983.13
526.14	31874.59
526.34	32196.12
526.55	32282.13
526.75	32398.87
526.95	32685.58
527.16	32544.27
527.36	32421.39
527.56	32761.36
527.77	32792.08
527.97	32906.76
528.17	33189.38
528.38	33338.88
528.58	33080.84
528.78	33371.65
528.99	33369.60
529.19	33283.59
529.39	33240.58
529.60	33707.52
529.80	33570.30
530.00	33799.68
530.21	34113.02
530.41	33932.79
530.61	34070.01
530.82	34088.44
531.02	34129.40
531.22	34180.60
531.43	34196.98
531.63	34835.95
531.83	34481.65
532.04	35028.46
532.24	34936.30
532.44	35167.72
532.64	35050.99
532.85	35509.73
533.05	34983.40
533.25	35640.80
533.46	35141.10
533.66	35720.67
533.86	35489.25
534.07	36175.32
534.27	35794.40
534.47	36117.98
534.67	36238.81
534.88	36019.67
535.08	36068.83
535.28	36539.86
535.49	36486.61
535.69	36744.66
535.89	36773.33
536.09	36916.68
536.30	36681.17
536.50	36963.79
536.70	37117.39
536.91	37131.72
537.11	36822.48
537.31	37406.15
537.51	37373.38
537.72	37797.31
537.92	37395.91
538.12	37889.47
538.32	37535.17
538.53	37977.53
538.73	37662.15
538.93	37866.94
539.13	37727.68
539.34	38208.95
539.54	37852.61
539.74	38473.14
539.94	38141.37
540.15	38270.39
540.35	38446.52
540.55	38516.15
540.75	38518.20
540.96	39056.81
541.16	38350.26
541.36	38581.68
541.56	38809.01
541.77	39228.84
541.97	38870.45
542.17	38907.31
542.37	39497.13
542.58	39050.67
542.78	38845.87
542.98	39462.31
543.18	39400.87
543.38	39744.93
543.59	39730.59
543.79	39523.75
543.99	39185.83
544.19	39814.56
544.40	39634.34
544.60	40218.01
544.80	39775.65
545.00	40342.94
545.20	40293.79
545.41	39962.01
545.61	39845.28
545.81	40652.18
546.01	40621.46
546.21	40037.79
546.42	40385.94
546.62	40484.25
546.82	39974.30
547.02	40494.49
547.22	40801.68
547.43	40813.97
547.63	40400.28
547.83	40918.42
548.03	40658.32
548.23	40691.09
548.44	40795.54
548.64	41301.39
548.84	41301.39
549.04	41074.06
549.24	41211.28
549.45	41244.04
549.65	40830.35
549.85	41579.91
550.05	41424.26
550.25	41207.18
550.45	41799.04
550.66	41356.68
550.86	41235.85
551.06	41698.69
551.26	41883.01
551.46	41799.04
551.66	41958.78
551.87	41624.96
552.07	41792.90
552.27	42050.94
552.47	41729.41
552.67	41776.51
552.87	41891.20
553.07	42118.53
553.28	42509.69
553.48	42319.23
553.68	42165.63
553.88	42341.75
554.08	42251.64
554.28	42229.12
554.48	41737.60
554.69	42390.91
554.89	42554.74
555.09	42268.03
555.29	42012.03
555.49	42599.80
555.69	42478.97
555.89	42501.50
556.10	42243.45
556.30	42337.66
556.50	43040.11
556.70	42667.38
556.90	42872.18
557.10	42655.09
557.30	42786.16
557.50	42935.66
557.70	42777.97
557.91	42882.42
558.11	42939.76
558.31	42849.65
558.51	42698.10
558.71	43183.47
558.91	43113.84
559.11	42655.09
559.31	43058.54
559.51	43203.95
559.72	43001.20
559.92	43158.89
560.12	42882.42
560.32	43484.52
560.52	43177.33
560.72	43369.83
560.92	43484.52
561.12	43199.85
561.32	43380.07
561.52	43728.23
561.72	44070.24
561.93	43341.16
562.13	43263.34
562.33	42993.01
562.53	44072.29
562.73	43263.34
562.93	43476.33
563.13	43490.66
563.33	43984.22
563.53	43638.12
563.73	43500.90
563.93	43627.88
564.13	44127.58
564.33	43597.16
564.53	44049.76
564.74	43937.12
564.94	43437.42
565.14	43992.42
565.34	43918.69
565.54	43992.42
565.74	44000.61
565.94	43980.13
566.14	44244.32
566.34	43879.78
566.54	44512.60
566.74	43799.91
566.94	44326.24
567.14	44262.75
567.34	44422.49
567.54	44498.26
567.74	44393.82
567.94	44129.63
568.14	44311.90
568.34	44868.95
568.54	44682.58
568.74	44574.04
568.94	44512.60
569.14	44610.90
569.34	44604.76
569.54	44799.32
569.75	44311.90
569.95	44223.84
570.15	44832.08
570.35	45280.59
570.55	44836.18
570.75	44774.74
570.95	44926.29
571.15	45126.99
571.35	45241.68
571.55	45428.04
571.75	45012.31
571.95	45432.14
572.15	44891.48
572.35	45301.07
572.55	45387.08
572.75	44852.56
572.95	45155.66
573.15	45333.84
573.35	45462.86
573.55	45170.00
573.75	45452.62
573.95	45886.79
574.15	45120.85
574.35	45837.64
574.55	45659.46
574.75	45509.96
574.95	46054.72
575.15	45673.80
575.34	45686.09
575.54	46165.31
575.74	46142.78
575.94	46200.13
576.14	46001.47
576.34	46294.33
576.54	46470.46
576.74	46112.06
576.94	45962.56
577.14	46417.21
577.34	47002.93
577.54	46083.39
577.74	46361.92
577.94	46587.19
578.14	46429.50
578.34	47226.16
578.54	46030.15
578.74	46701.88
578.94	46806.33
579.14	47056.18
579.34	46863.67
579.54	47109.43
579.74	47095.09
579.94	46658.87
580.13	46970.16
580.33	47035.70
580.53	47492.40
580.73	47054.13
580.93	47342.89
581.13	47285.55
581.33	47564.07
581.53	47709.48
581.73	47314.22
581.93	47875.37
582.13	47500.59
582.33	48190.75
582.53	47717.67
582.73	47353.13
582.92	48149.79
583.12	48207.14
583.32	48090.40
583.52	47768.87
583.72	47899.94
583.92	48196.90
584.12	48475.42
584.32	48579.87
584.52	48084.26
584.72	48313.63
584.92	48583.96
585.11	48620.83
585.31	48500.00
585.51	48723.22
585.71	48182.56
585.91	49173.78
586.11	48633.11
586.31	48745.75
586.51	49067.28
586.71	48583.96
586.91	49157.39
587.10	48960.79
587.30	49319.18
587.50	49323.28
587.70	49571.08
587.90	49517.84
588.10	49259.79
588.30	48684.31
588.50	49894.66
588.69	49579.28
588.89	49388.81
589.09	49452.30
589.29	49691.91
589.49	50072.84
589.69	49368.33
589.89	49986.82
590.08	49896.71
590.28	49722.63
590.48	49665.29
590.68	50306.30
590.88	49972.49
591.08	50406.65
591.28	49904.90
591.47	50283.78
591.67	50107.65
591.87	50242.82
592.07	50341.12
592.27	50502.91
592.47	50574.59
592.67	50228.48
592.86	49941.77
593.06	50507.01
593.26	50961.65
593.46	50769.15
593.66	50713.85
593.86	50832.63
594.05	50832.63
594.25	51320.05
594.45	50824.44
594.65	50990.33
594.85	50889.98
595.05	51182.84
595.24	51080.44
595.44	50935.03
595.64	50930.93
595.84	51655.92
596.04	51467.50
596.23	51526.89
596.43	51647.72
596.63	51487.98
596.83	51610.86
597.03	51948.78
597.22	52032.74
597.42	51567.85
597.62	52122.85
597.82	52032.74
598.02	51967.21
598.21	52286.69
598.41	51870.95
598.61	51963.11
598.81	52075.75
599.01	52624.60
599.20	52296.93
599.40	52460.77
599.60	52950.23
599.80	52274.40
600.00	52542.69
600.19	53116.12
600.39	52382.94
600.59	52806.87
600.79	52708.57
600.98	52589.79
601.18	52874.46
601.38	53589.20
601.58	53279.96
601.78	52974.81
601.97	53540.05
602.17	53456.08
602.37	53613.77
602.57	53279.96
602.76	53632.21
602.96	53613.77
603.16	53662.93
603.36	53695.69
603.55	53642.45
603.75	53658.83
603.95	54166.73
604.15	53703.88
604.34	53671.12
604.54	54168.77
604.74	54121.67
604.94	53970.12
605.13	54357.19
605.33	54674.62
605.53	53859.53
605.73	54940.86
605.92	54414.53
606.12	54801.60
606.32	55221.43
606.52	54224.07
606.71	54711.49
606.91	54817.98
607.11	54400.19
607.30	54990.01
607.50	54633.66
607.70	55143.61
607.90	54965.43
608.09	54727.87
608.29	55246.00
608.49	55071.93
608.68	55395.51
608.88	55475.38
609.08	55276.72
609.28	55358.64
609.47	55123.13
609.67	55643.31
609.87	55223.48
610.06	55524.53
610.26	55116.98
610.46	55522.48
610.66	55323.83
610.85	55553.20
611.05	55379.12
611.25	55600.30
611.44	55583.92
611.64	55565.49
611.84	55301.30
612.03	55221.43
612.23	55497.91
612.43	55786.67
612.62	55682.22
612.82	55872.68
613.02	55841.96
613.21	55493.81
613.41	55633.07
613.61	55743.66
613.80	55391.41
614.00	56147.11
614.20	55719.09
614.39	56038.57
614.59	56261.80
614.79	55915.69
614.98	55801.00
615.18	56083.62
615.38	55522.48
615.57	55461.04
615.77	56272.04
615.97	55762.09
616.16	56302.76
616.36	56173.73
616.56	55952.55
616.75	55866.54
616.95	55901.36
617.15	56079.53
617.34	55798.96
617.54	55729.33
617.74	56351.91
617.93	56093.86
618.13	55768.24
618.32	55794.86
618.52	55549.10
618.72	55772.33
618.91	56128.68
619.11	55917.74
619.31	56282.28
619.50	55891.12
619.70	56071.34
619.90	56310.95
620.09	55997.61
620.29	56069.29
620.48	56175.78
620.68	56413.35
620.88	55565.49
621.07	56188.07
621.27	56145.06
621.46	55907.50
621.66	56083.62
621.86	56054.95
622.05	55592.11
622.25	56525.99
622.44	56296.61
622.64	56138.92
622.84	56028.33
623.03	55536.82
623.23	56417.44
623.42	56173.73
623.62	56358.05
623.82	56757.41
624.01	55837.87
624.21	56554.66
624.40	56032.42
624.60	56063.14
624.80	55792.81
624.99	55917.74
625.19	55940.27
625.38	56278.18
625.58	56102.06
625.77	56231.08
625.97	56065.19
626.17	55530.67
626.36	56417.44
626.56	56202.41
626.75	55686.32
626.95	56313.00
627.14	55876.78
627.34	56554.66
627.54	55729.33
627.73	56196.26
627.93	56261.80
628.12	55911.59
628.32	56218.79
628.51	55907.50
628.71	55993.51
628.90	56194.21
629.10	55844.01
629.30	55987.37
629.49	56257.70
629.69	55903.40
629.88	56001.71
630.08	56411.30
630.27	56333.48
630.47	56083.62
630.66	55788.72
630.86	56267.94
631.05	55784.62
631.25	56800.41
631.44	55940.27
631.64	56048.81
631.84	56198.31
632.03	56704.16
632.23	56163.50
632.42	56728.73
632.62	56308.90
632.81	55973.03
633.01	55981.23
633.20	56071.34
633.40	56136.87
633.59	55899.31
633.79	55532.72
633.98	56061.10
634.18	56257.70
634.37	56052.90
634.57	55948.46
634.76	56616.10
634.96	56327.33
635.15	55844.01
635.35	55841.96
635.54	55669.93
635.74	56423.59
635.93	56009.90
636.13	56257.70
636.32	56337.57
636.52	55934.12
636.71	56519.84
636.91	56407.20
637.10	55973.03
637.30	56409.25
637.49	55954.60
637.69	55780.52
637.88	56722.59
638.08	55997.61
638.27	56636.58
638.46	56200.36
638.66	56200.36
638.85	55975.08
639.05	56405.16
639.24	56206.50
639.44	56374.44
639.63	56427.68
639.83	56364.20
640.02	56190.12
640.22	56286.37
640.41	56525.99
640.61	55798.96
640.80	56368.29
640.99	55946.41
641.19	57160.86
641.38	56390.82
641.58	55758.00
641.77	56245.41
641.97	56034.47
642.16	56204.45
642.36	56366.24
642.55	56612.00
642.74	56018.09
642.94	57134.23
643.13	56022.19
643.33	56663.20
643.52	57037.98
643.72	56454.31
643.91	56382.63
644.10	56919.20
644.30	56941.72
644.49	56501.41
644.69	56597.66
644.88	56450.21
645.08	55903.40
645.27	56263.85
645.46	56349.86
645.66	56255.65
645.85	55925.93
646.05	56575.14
646.24	56687.78
646.43	56648.86
646.63	56669.34
646.82	56790.17
647.02	56956.06
647.21	57037.98
647.40	56824.99
647.60	56562.85
647.79	56790.17
647.99	57044.12
648.18	56452.26
648.37	57300.12
648.57	56915.10
648.76	57154.71
648.96	56714.40
649.15	56865.95
649.34	56757.41
649.54	56515.75
649.73	56554.66
649.92	56911.00
650.12	56958.11
650.31	56984.73
650.51	57054.36
650.70	56765.60
650.89	56829.08
651.09	57429.14
651.28	56870.04
651.47	57054.36
651.67	57083.03
651.86	56849.56
652.06	56865.95
652.25	56624.29
652.44	56700.06
652.64	56810.65
652.83	56759.45
653.02	56419.49
653.22	57060.51
653.41	56906.91
653.60	56513.70
653.80	56726.69
653.99	57068.70
654.18	57033.88
654.38	56710.30
654.57	56734.88
654.76	56835.23
654.96	56816.80
655.15	56954.01
655.34	56628.38
655.54	56855.71
655.73	56947.87
655.92	57046.17
656.12	56956.06
656.31	56915.10
656.50	57240.73
656.70	56734.88
656.89	56902.81
657.08	57259.16
657.28	56444.07
657.47	56994.97
657.66	57154.71
657.86	56583.33
658.05	57058.46
658.24	57232.53
658.43	56452.26
658.63	56661.15
658.82	56902.81
659.01	57431.19
659.21	57367.70
659.40	57013.40
659.59	56962.20
659.79	57257.11
659.98	57007.26
660.17	57058.46
660.36	57115.80
660.56	57390.23
660.75	57162.90
660.94	57097.37
661.14	56411.30
661.33	56798.37
661.52	56126.63
661.71	56925.34
661.91	56747.17
662.10	56525.99
662.29	57177.24
662.49	57136.28
662.68	57171.10
662.87	57377.94
663.06	57451.67
663.26	56943.77
663.45	57083.03
663.64	57144.47
663.83	57691.28
664.03	56935.58
664.22	56943.77
664.41	57226.39
664.60	56628.38
664.80	57185.43
664.99	56958.11
665.18	56872.09
665.37	56759.45
665.57	57296.02
665.76	56738.97
665.95	57021.59
666.14	57132.18
666.34	56831.13
666.53	56833.18
666.72	57068.70
666.91	56714.40
667.11	56913.05
667.30	56519.84
667.49	57126.04
667.68	56931.48
667.87	56667.30
668.07	57037.98
668.26	56765.60
668.45	56949.92
668.64	56822.94
668.84	57324.69
669.03	57177.24
669.22	56710.30
669.41	56806.56
669.60	57062.55
669.80	56734.88
669.99	57283.73
670.18	57253.01
670.37	56745.12
670.57	57281.69
670.76	56693.92
670.95	57398.42
671.14	56837.28
671.33	56491.17
671.53	57509.01
671.72	57042.07
671.91	56745.12
672.10	56665.25
672.29	57291.93
672.48	56857.76
672.68	57414.80
672.87	56736.93
673.06	56917.15
673.25	56620.19
673.44	56511.65
673.64	56796.32
673.83	56734.88
674.02	56437.92
674.21	56513.70
674.40	56497.31
674.59	56446.11
674.79	56906.91
674.98	56612.00
675.17	56773.79
675.36	56284.33
675.55	56769.69
675.74	56431.78
675.94	56052.90
676.13	57025.69
676.32	56798.37
676.51	57121.94
676.70	57062.55
676.89	56964.25
677.08	56827.04
677.28	56530.08
677.47	56933.53
677.66	56808.61
677.85	56358.05
678.04	56841.37
678.23	56587.42
678.42	57078.94
678.62	56523.94
678.81	57091.22
679.00	57107.61
679.19	57113.75
679.38	56499.36
679.57	56425.64
679.76	56741.02
679.96	57115.80
680.15	56216.74
680.34	56562.85
680.53	56595.62
680.72	56763.55
680.91	56523.94
681.10	56202.41
681.29	56804.51
681.48	56399.01
681.68	56470.69
681.87	56276.13
682.06	56595.62
682.25	56233.13
682.44	56589.47
682.63	56741.02
682.82	55995.56
683.01	55907.50
683.20	56181.93
683.39	56245.41
683.59	56210.60
683.78	56067.24
683.97	56259.75
684.16	56247.46
684.35	56401.06
684.54	56448.16
684.73	56192.17
684.92	56001.71
685.11	55999.66
685.30	55927.98
685.49	56255.65
685.69	56200.36
685.88	55784.62
686.07	56005.80
686.26	56171.69
686.45	56360.10
686.64	56102.06
686.83	55964.84
687.02	55960.75
687.21	56202.41
687.40	55739.57
687.59	56122.54
687.78	56186.02
687.97	56425.64
688.16	56009.90
688.35	55719.09
688.54	55848.11
688.74	55921.83
688.93	55981.23
689.12	55884.97
689.31	55872.68
689.50	56054.95
689.69	55309.49
689.88	55927.98
690.07	55641.26
690.26	55727.28
690.45	56214.69
690.64	55620.78
690.83	55669.93
691.02	55608.50
691.21	55508.14
691.40	55446.71
691.59	55784.62
691.78	55901.36
691.97	55970.99
692.16	55905.45
692.35	55514.29
692.54	55321.78
692.73	55633.07
692.92	55403.70
693.11	55569.58
693.30	55577.78
693.49	55567.54
693.68	55268.53
693.87	55643.31
694.06	55346.36
694.25	55303.35
694.44	55530.67
694.63	55272.63
694.82	55332.02
695.01	55409.84
695.20	55137.46
695.39	55301.30
695.58	54916.28
695.77	55065.78
695.96	54998.20
696.15	55307.44
696.34	55198.90
696.53	55016.63
696.72	55311.54
696.91	54770.88
697.10	55280.82
697.29	55104.70
697.48	55518.38
697.67	55149.75
697.86	54473.92
698.05	54801.60
698.24	55073.98
698.43	54318.28
698.62	55080.12
698.81	54768.83
699.00	54887.61
699.19	54805.69
699.38	55209.14
699.57	54633.66
699.76	55166.13
699.95	54506.69
700.14	54473.92
700.32	54901.95
700.51	54822.08
700.70	55227.57
700.89	54838.46
701.08	54588.61
701.27	54764.73
701.46	54736.06
701.65	54168.77
701.84	54717.63
702.03	55084.22
702.22	54801.60
702.41	54752.44
702.60	54691.01
702.79	54484.16
702.98	54609.09
703.17	54324.42
703.35	54361.28
703.54	54049.99
703.73	54435.01
703.92	54185.16
704.11	54211.78
704.30	53789.90
704.49	54082.76
704.68	54113.48
704.87	53875.91
705.06	53853.39
705.25	54054.09
705.43	54090.95
705.62	54310.08
705.81	54099.14
706.00	54072.52
706.19	53900.49
706.38	53396.69
706.57	53703.88
706.76	53546.19
706.95	53560.53
707.14	53490.90
707.32	53599.44
707.51	53286.10
707.70	53404.88
707.89	53941.45
708.08	53804.24
708.27	53798.09
708.46	54123.72
708.65	53802.19
708.84	53593.29
709.02	53609.68
709.21	54072.52
709.40	53654.73
709.59	53331.15
709.78	53562.57
709.97	53742.80
710.16	52956.38
710.34	53445.84
710.53	53456.08
710.72	53556.43
710.91	53685.45
711.10	53230.80
711.29	53816.52
711.48	53421.26
711.66	53423.31
711.85	53247.19
712.04	53198.04
712.23	53204.18
712.42	52960.47
712.61	53359.83
712.80	52929.75
712.98	53392.59
713.17	52659.42
713.36	52856.03
713.55	52937.94
713.74	52958.42
713.93	53118.17
714.11	52684.00
714.30	53142.74
714.49	52858.07
714.68	53159.12
714.87	52753.63
715.06	52974.81
715.24	52458.72
715.43	52591.84
715.62	52518.11
715.81	52968.66
716.00	52950.23
716.18	52190.44
716.37	52278.50
716.56	52327.65
716.75	52724.96
716.94	52194.53
717.12	51952.87
717.31	52595.93
717.50	52288.74
717.69	52258.02
717.88	51887.34
718.06	52176.10
718.25	52499.68
718.44	51924.20
718.63	52040.93
718.82	51627.24
719.00	51963.11
719.19	52258.02
719.38	51973.35
719.57	51455.21
719.76	51254.51
719.94	51502.32
720.13	51490.03
720.32	51539.18
720.51	51307.76
720.69	51098.87
720.88	51498.22
721.07	51393.78
721.26	51082.48
721.44	51221.75
721.63	50828.54
721.82	50877.69
722.01	50932.98
722.20	50746.62
722.38	50822.39
722.57	50218.24
722.76	50949.37
722.95	50640.12
723.13	50593.02
723.32	50322.69
723.51	50779.39
723.70	50398.46
723.88	50611.45
724.07	50412.80
724.26	50429.18
724.44	49870.09
724.63	50103.56
724.82	50003.20
725.01	50048.26
725.19	50068.74
725.38	50062.60
725.57	49915.14
725.76	50488.57
725.94	49997.06
726.13	49849.61
726.32	49765.64
726.51	49712.39
726.69	50345.22
726.88	49632.52
727.07	49890.57
727.25	49800.46
727.44	49712.39
727.63	49837.32
727.82	49589.52
728.00	49739.02
728.19	49386.77
728.38	50107.65
728.56	49468.69
728.75	50031.88
728.94	49708.30
729.12	49771.78
729.31	49347.86
729.50	49460.49
729.69	49978.63
729.87	49566.99
730.06	49313.04
730.25	49782.02
730.43	49974.53
730.62	49566.99
730.81	49884.42
730.99	50101.51
731.18	49601.80
731.37	49347.86
731.55	49581.32
731.74	49927.43
731.93	49921.29
732.11	49499.40
732.30	49689.87
732.49	49374.48
732.67	49546.51
732.86	49296.66
733.05	49601.80
733.23	49091.86
733.42	49429.77
733.61	49403.15
733.79	49267.98
733.98	49757.45
734.17	49227.02
734.35	49429.77
734.54	49345.81
734.73	49646.86
734.91	49280.27
735.10	49354.00
735.29	49403.15
735.47	49184.02
735.66	49243.41
735.84	49227.02
736.03	49224.98
736.22	49478.92
736.40	48878.87
736.59	49452.30
736.78	49190.16
736.96	48717.08
737.15	49001.75
737.33	48805.14
737.52	48506.14
737.71	48391.45
737.89	48776.47
738.08	48749.85
738.27	48624.92
738.45	49251.60
738.64	48938.26
738.82	48934.17
739.01	48917.78
739.20	48944.41
739.38	48508.19
739.57	49108.24
739.75	49149.20
739.94	48516.38
740.13	48612.63
740.31	48246.05
740.50	48698.65
740.68	48856.34
740.87	48577.82
741.06	48667.93
741.24	48260.38
741.43	48586.01
741.61	48121.12
741.80	48282.91
741.99	48063.78
742.17	48305.44
742.36	48444.70
742.54	48069.92
742.73	48350.49
742.91	48231.71
743.10	47742.25
743.29	48272.67
743.47	48213.28
743.66	47955.24
743.84	48024.87
744.03	48149.79
744.21	48069.92
744.40	48538.91
744.59	47834.41
744.77	47396.14
744.96	47981.86
745.14	48055.59
745.33	47824.17
745.51	47471.92
745.70	47852.84
745.88	47707.43
746.07	47564.07
746.26	47494.44
746.44	47670.57
746.63	47631.66
746.81	48035.11
747.00	47537.45
747.18	47398.19
747.37	47559.98
747.55	47668.52
747.74	47652.14
747.92	46888.24
748.11	47426.86
748.29	47613.23
748.48	47406.38
748.66	47381.80
748.85	47207.73
749.03	47297.84
749.22	46861.62
749.41	46939.44
749.59	47267.12
749.78	46869.81
749.96	46585.15
750.15	46777.65
750.33	46183.74
750.52	46667.06
750.70	46847.29
750.89	46275.90
751.07	46294.33
751.26	46769.46
751.44	46695.74
751.63	46865.72
751.81	46251.33
752.00	46769.46
752.18	46753.08
752.37	46030.15
752.55	46110.02
752.74	46210.37
752.92	45991.23
753.10	45970.75
753.29	46232.89
753.47	46105.92
753.66	45583.69
753.84	46177.60
754.03	45790.53
754.21	45944.13
754.40	46112.06
754.58	45899.08
754.77	45819.20
754.95	45854.02
755.14	45921.60
755.32	45643.08
755.51	45509.96
755.69	45446.47
755.88	45911.36
756.06	45348.17
756.24	45436.23
756.43	45315.40
756.61	45454.67
756.80	45518.15
756.98	45268.30
757.17	45335.88
757.35	45352.27
757.54	45442.38
757.72	45047.12
757.90	44985.68
758.09	45264.21
758.27	45223.25
758.46	44770.64
758.64	45210.96
758.83	45180.24
759.01	45419.85
759.19	44942.67
759.38	45016.40
759.56	45333.84
759.75	44930.39
759.93	44954.96
760.12	44381.53
760.30	45002.07
760.48	44522.84
760.67	44508.50
760.85	44930.39
761.04	44399.96
761.22	44580.18
761.40	44502.36
761.59	44467.55
761.77	44201.31
761.96	44354.91
762.14	44121.44
762.32	44197.21
762.51	43779.43
762.69	44207.45
762.88	43959.65
763.06	44060.00
763.24	44254.56
763.43	44234.08
763.61	43617.64
763.80	43996.51
763.98	43820.39
764.16	43617.64
764.35	43677.03
764.53	43353.45
764.72	43732.32
764.90	43795.81
765.08	43824.48
765.27	43795.81
765.45	43171.18
765.63	43048.30
765.82	43390.31
766.00	43087.21
766.18	43124.08
766.37	43357.55
766.55	43136.37
766.74	43627.88
766.92	42671.48
767.10	43009.39
767.29	43093.36
767.47	42556.79
767.65	42804.59
767.84	42554.74
768.02	42825.07
768.20	42689.91
768.39	42839.41
768.57	43017.58
768.75	42646.90
768.94	42657.14
769.12	42757.49
769.30	42331.51
769.49	42521.98
769.67	42390.91
769.85	41964.93
770.04	42399.10
770.22	41923.97
770.40	42055.04
770.59	41917.82
770.77	42253.69
770.95	41809.28
771.14	41899.39
771.32	41563.53
771.50	41297.29
771.69	41637.25
771.87	42222.97
772.05	41522.57
772.24	41229.71
772.42	41561.48
772.60	41614.72
772.78	41579.91
772.97	41086.35
773.15	41211.28
773.33	41276.81
773.52	41211.28
773.70	41672.07
773.88	41133.45
774.07	41235.85
774.25	41029.01
774.43	41268.62
774.61	41127.31
774.80	41241.99
774.98	41491.85
775.16	41409.93
775.34	41446.79
775.53	41266.57
775.71	41276.81
775.89	41237.90
776.08	41704.84
776.26	41309.58
776.44	41278.86
776.62	41399.69
776.81	41029.01
776.99	41319.82
777.17	41211.28
777.35	41188.75
777.54	41391.50
777.72	41246.09
777.90	41285.00
778.08	41440.65
778.27	41475.46
778.45	41489.80
778.63	41796.99
778.81	41389.45
779.00	41829.76
779.18	41727.36
779.36	42136.96
779.54	41960.83
779.73	41334.15
779.91	41885.06
780.09	41557.38
780.27	41960.83
780.46	41588.10
780.64	41788.80
780.82	41700.74
781.00	41780.61
781.19	42325.37
781.37	42415.48
781.55	41905.54
781.73	42534.26
781.91	41833.86
782.10	41831.81
782.28	41805.19
782.46	42100.09
782.64	42202.49
782.82	41842.05
783.01	42200.44
783.19	42268.03
783.37	42108.29
783.55	42018.17
783.74	42311.03
783.92	41883.01
784.10	42153.34
784.28	42161.53
784.46	41801.09
784.64	41684.36
784.83	42167.68
785.01	41948.54
785.19	42321.27
785.37	42272.12
785.55	41954.69
785.74	41438.60
785.92	41887.10
786.10	41837.95
786.28	41796.99
786.46	41205.13
786.64	41383.30
786.83	41694.60
787.01	41602.44
787.19	41909.63
787.37	41500.04
787.55	41801.09
787.74	41416.07
787.92	41385.35
788.10	41457.03
788.28	41014.67
788.46	41403.78
788.64	41559.43
788.82	41803.14
789.01	41135.50
789.19	41495.94
789.37	41115.02
789.55	41082.25
789.73	40832.40
789.91	40775.06
790.09	40803.73
790.28	40674.71
790.46	40338.84
790.64	40740.24
790.82	40504.73
791.00	40746.39
791.18	40674.71
791.36	40529.30
791.55	40838.54
791.73	40224.15
791.91	40066.46
792.09	40220.06
792.27	40304.02
792.45	40117.66
792.63	40064.41
792.81	39400.87
793.00	39583.14
793.18	39480.74
793.36	39718.31
793.54	39466.41
793.72	39626.15
793.90	39437.73
794.08	39251.37
794.26	38966.70
794.44	39089.58
794.62	39093.68
794.81	39081.39
794.99	38864.30
795.17	38774.19
795.35	38946.22
795.53	38804.91
795.71	38763.95
795.89	38499.76
796.07	38383.03
796.25	37905.85
796.43	38380.98
796.61	38116.79
796.80	37881.28
796.98	38190.52
797.16	37610.95
797.34	37602.75
797.52	37819.84
797.70	37856.70
797.88	37586.37
798.06	37328.33
798.24	37721.54
798.42	37387.72
798.60	37524.93
798.78	37254.60
798.96	37334.47
799.14	36511.19
799.32	37180.87
799.51	36898.25
799.69	37115.34
799.87	37084.62
800.05	36664.78
800.23	36613.59
800.41	36500.95
800.59	36707.79
800.77	36447.70
800.95	36019.67
801.13	36060.63
801.31	36253.14
801.49	36257.24
801.67	36111.83
801.85	35870.17
802.03	35364.32
802.21	35605.98
802.39	35927.52
802.57	35575.27
802.75	35352.04
802.93	35366.37
803.11	35227.11
803.29	35356.13
803.47	34969.07
803.65	35339.75
803.83	35175.91
804.01	34821.61
804.19	34461.17
804.37	34598.38
804.55	34538.99
804.73	34821.61
804.91	34647.54
805.09	34665.97
805.27	34477.55
805.45	34430.45
805.63	34227.70
805.81	34561.52
805.99	34389.49
806.17	34483.70
806.35	34020.86
806.53	34166.26
806.71	33832.44
806.89	33951.23
807.07	34237.94
807.25	34047.48
807.43	33254.92
807.61	33926.65
807.79	33723.90
807.97	33529.34
808.15	33316.36
808.33	33234.44
808.51	33259.01
808.69	32970.25
808.87	33244.68
809.05	32894.47
809.23	33209.86
809.41	32470.54
809.59	32732.68
809.77	33029.64
809.95	32839.18
810.13	32779.79
810.31	32665.10
810.49	32687.63
810.67	32554.51
810.84	32310.80
811.02	32349.71
811.20	32019.99
811.38	32362.00
811.56	32128.53
811.74	32249.36
811.92	31929.88
812.10	32245.27
812.28	32050.71
812.46	31991.32
812.64	31985.18
812.82	31702.56
813.00	31708.70
813.18	31628.83
813.36	31483.42
813.53	31700.51
813.71	31575.58
813.89	31729.18
814.07	31471.14
814.25	31764.00
814.43	31290.91
814.61	31014.44
814.79	31227.43
814.97	30946.86
815.15	31335.97
815.33	30793.26
815.50	30686.76
815.68	30670.38
815.86	31104.55
816.04	30549.55
816.22	30600.75
816.40	30477.87
816.58	30514.73
816.76	30447.15
816.94	30344.75
817.11	30590.51
817.29	30428.72
817.47	30369.33
817.65	30314.03
817.83	30311.99
818.01	30041.65
818.19	30109.24
818.37	30211.64
818.54	29890.10
818.72	29879.86
818.90	30066.23
819.08	29838.90
819.26	30086.71
819.44	29959.73
819.62	29820.47
819.80	29720.12
819.97	29900.34
820.15	29683.26
820.33	29337.15
820.51	29412.93
820.69	29371.97
820.87	29386.30
821.05	29636.16
821.22	29421.12
821.40	29183.55
821.58	29386.30
821.76	29380.16
821.94	29222.47
822.12	28886.60
822.29	29118.02
822.47	28954.18
822.65	29111.88
822.83	29072.96
823.01	29140.55
823.19	28702.28
823.36	29138.50
823.54	28724.81
823.72	28786.25
823.90	28581.45
824.08	28552.78
824.25	28683.85
824.43	28489.29
824.61	28577.36
824.79	28737.10
824.97	28223.06
825.15	28472.91
825.32	28524.11
825.50	28034.64
825.68	28100.18
825.86	28434.00
826.04	28499.53
826.21	28145.23
826.39	28431.95
826.57	28284.50
826.75	27889.24
826.93	28272.21
827.10	28134.99
827.28	28016.21
827.46	27899.48
827.64	27924.05
827.81	28014.16
827.99	27954.77
828.17	27489.88
828.35	27328.10
828.53	27604.57
828.70	27438.69
828.88	27561.56
829.06	27455.07
829.24	27946.58
829.41	27498.08
829.59	27326.05
829.77	27307.62
829.95	27334.24
830.12	27289.18
830.30	27301.47
830.48	27313.76
830.66	27291.23
830.84	27197.02
831.01	27215.46
831.19	26873.45
831.37	27059.81
831.55	27012.71
831.72	27108.96
831.90	26981.99
832.08	26771.05
832.25	26719.85
832.43	27014.76
832.61	26609.26
832.79	26668.65
832.96	26723.94
833.14	26599.02
833.32	26922.60
833.50	26781.29
833.67	26519.15
833.85	26717.80
834.03	26349.17
834.20	26465.90
834.38	26349.17
834.56	26826.34
834.74	26314.35
834.91	26099.31
835.09	26289.77
835.27	25771.64
835.44	26287.73
835.62	25863.80
835.80	26144.37
835.98	26345.07
836.15	26277.49
836.33	26285.68
836.51	26361.45
836.68	25972.34
836.86	26275.44
837.04	25822.84
837.21	25845.37
837.39	26023.54
837.57	26130.03
837.75	26113.65
837.92	25951.86
838.10	25917.04
838.28	25597.56
838.45	25495.16
838.63	25599.61
838.81	25869.94
838.98	25462.40
839.16	25345.66
839.34	25351.81
839.51	25556.60
839.69	25349.76
839.87	25024.13
840.04	25398.91
840.22	25585.27
840.40	24989.31
840.57	25384.57
840.75	25206.40
840.93	25017.99
841.10	25360.00
841.28	25628.28
841.46	25335.42
841.63	25241.21
841.81	25294.46
841.98	24856.20
842.16	25294.46
842.34	25005.70
842.51	24911.49
842.69	25063.04
842.87	24915.59
843.04	25091.71
843.22	24655.50
843.40	24989.31
843.57	24557.19
843.75	25085.57
843.92	24635.02
844.10	24866.44
844.28	24708.74
844.45	25034.37
844.63	24819.33
844.81	24700.55
844.98	24630.92
845.16	24612.49
845.33	24518.28
845.51	24686.22
845.69	24303.25
845.86	24462.99
846.04	24448.65
846.21	24360.59
846.39	24374.92
846.57	24258.19
846.74	24276.62
846.92	24108.69
847.09	24045.20
847.27	23844.50
847.45	23807.64
847.62	24307.34
847.80	24286.86
847.97	24225.42
848.15	24247.95
848.32	23916.18
848.50	23922.32
848.68	23856.79
848.85	23981.71
849.03	23637.66
849.20	24057.49
849.38	23725.72
849.56	23758.49
849.73	23647.90
849.91	23852.69
850.08	23836.31
850.26	23672.47
850.43	23516.83
850.61	23553.69
850.78	23183.01
850.96	23346.84
851.14	23275.16
851.31	23512.73
851.49	23408.28
851.66	23465.63
851.84	23436.95
852.01	23228.06
852.19	23576.22
852.36	23334.56
852.54	23330.46
852.71	23168.67
852.89	23318.17
853.07	23156.38
853.24	23096.99
853.42	23209.63
853.59	23299.74
853.77	23158.43
853.94	23070.37
854.12	23107.23
854.29	22769.32
854.47	22970.02
854.64	23066.27
854.82	22984.35
854.99	23187.10
855.17	23037.60
855.34	22767.27
855.52	23021.22
855.69	23172.77
855.87	22857.38
856.04	22656.68
856.22	22611.62
856.39	22742.69
856.57	22478.50
856.74	22429.35
856.92	22691.49
857.09	22347.44
857.27	22589.10
857.44	22570.66
857.62	22525.61
857.79	22423.21
857.97	22587.05
858.14	22419.11
858.32	22492.84
858.49	22449.83
858.67	22279.85
858.84	21980.85
859.02	22369.96
859.19	22572.71
859.37	21917.36
859.54	22197.93
859.72	22550.18
859.89	21868.21
860.06	21989.04
860.24	21900.98
860.41	21808.82
860.59	21976.75
860.76	21716.66
860.94	21943.99
861.11	22187.69
861.29	21943.99
861.46	22240.94
861.64	21491.38
861.81	21726.90
861.98	21714.61
862.16	21626.55
862.33	21386.94
862.51	21489.34
862.68	21771.96
862.86	21563.06
863.03	21769.91
863.21	21315.26
863.38	21657.27
863.55	21599.93
863.73	21573.30
863.90	21522.10
864.08	21374.65
864.25	21341.88
864.43	21608.12
864.60	21376.70
864.77	21038.78
864.95	21114.56
865.12	21122.75
865.30	21255.87
865.47	21315.26
865.64	21118.65
865.82	20803.27
865.99	21112.51
866.17	21057.21
866.34	21251.77
866.51	20711.11
866.69	20985.54
866.86	21030.59
867.04	20977.34
867.21	20805.31
867.38	20903.62
867.56	20696.77
867.73	20700.87
867.91	20569.80
868.08	20819.65
868.25	20651.72
868.43	20659.91
868.60	20397.77
868.78	20631.24
868.95	20833.99
869.12	20469.45
869.30	20328.14
869.47	20121.29
869.64	20362.95
869.82	20373.19
869.99	20336.33
870.16	20745.92
870.34	20367.05
870.51	20481.74
870.69	20025.04
870.86	20090.57
871.03	20268.75
871.21	19947.22
871.38	19918.54
871.55	19756.75
871.73	20152.01
871.90	19910.35
872.07	19791.57
872.25	19728.08
872.42	19750.61
872.59	19920.59
872.77	20027.09
872.94	19859.15
873.11	19791.57
873.29	20184.78
873.46	19631.83
873.63	19394.26
873.81	19584.73
873.98	19476.18
874.15	19322.59
874.33	19482.33
874.50	18947.81
874.67	19721.94
874.85	19070.68
875.02	19230.43
875.19	19117.79
875.37	18939.62
875.54	19001.05
875.71	19259.10
875.88	19275.48
876.06	19048.16
876.23	19136.22
876.40	18845.41
876.58	18943.71
876.75	18816.74
876.92	18773.73
877.10	18910.94
877.27	18794.21
877.44	18695.91
877.61	18777.83
877.79	18423.53
877.96	18546.40
878.13	18665.19
878.31	18396.90
878.48	18196.20
878.65	18462.44
878.82	18239.21
879.00	18319.08
879.17	18360.04
879.34	18278.12
879.51	18155.24
879.69	18312.94
879.86	18018.03
880.03	18202.35
880.21	17985.26
880.38	18038.51
880.55	18300.65
880.72	17917.68
880.90	17936.11
881.07	17993.45
881.24	18102.00
881.41	18310.89
881.59	17981.17
881.76	17788.66
881.93	17870.58
882.10	17641.20
882.28	17706.74
882.45	17778.42
882.62	17792.75
882.79	18104.04
882.96	17448.69
883.14	17624.82
883.31	17884.91
883.48	17575.67
883.65	17776.37
883.83	17714.93
884.00	17710.83
884.17	17463.03
884.34	17739.51
884.51	17387.25
884.69	17516.28
884.86	17145.59
885.03	17258.23
885.20	17198.84
885.38	17622.77
885.55	17227.51
885.72	17413.88
885.89	16998.14
886.06	17303.29
886.24	16944.89
886.41	17164.03
886.58	17409.78
886.75	17385.21
886.92	16799.49
887.10	17403.64
887.27	16979.71
887.44	16873.21
887.61	17202.94
887.78	17147.64
887.95	17233.66
888.13	16961.28
888.30	16996.09
888.47	17092.35
888.64	16854.78
888.81	16844.54
888.99	16916.22
889.16	16684.80
889.33	16738.05
889.50	16772.86
889.67	16664.32
889.84	16785.15
890.01	16668.42
890.19	16715.52
890.36	16736.00
890.53	16543.49
890.70	16508.68
890.87	16500.48
891.04	16457.48
891.22	16545.54
891.39	16488.20
891.56	16420.61
891.73	16375.56
891.90	16191.24
892.07	15974.16
892.24	16142.09
892.42	16185.10
892.59	16205.58
892.76	16336.65
892.93	16074.51
893.10	16064.27
893.27	16017.16
893.44	16047.88
893.61	15714.06
893.79	16326.41
893.96	16045.84
894.13	16181.00
894.30	15906.57
894.47	16363.27
894.64	16117.51
894.81	15875.85
894.98	15908.62
895.15	15855.37
895.33	15904.53
895.50	15937.29
895.67	16312.07
895.84	16131.85
896.01	16025.36
896.18	15900.43
896.35	16064.27
896.52	15894.29
896.69	15757.07
896.86	16056.08
897.04	15836.94
897.21	15888.14
897.38	15935.24
897.55	15800.08
897.72	15879.95
897.89	16013.07
898.06	15853.33
898.23	15748.88
898.40	15830.80
898.57	15734.54
898.74	15621.91
898.91	15933.20
899.08	15652.63
899.26	15922.96
899.43	16117.51
899.60	15732.50
899.77	15939.34
899.94	15638.29
900.11	15632.15
900.28	15886.09
900.45	15744.78
900.62	15832.85
900.79	15927.05
900.96	15750.93
901.13	15738.64
901.30	15601.43
901.47	15779.60
901.64	15896.33
901.81	15927.05
901.98	15746.83
902.15	15871.76
902.32	15673.10
902.49	15611.67
902.66	15531.80
902.83	15836.94
903.01	15750.93
903.18	15738.64
903.35	15800.08
903.52	15771.41
903.69	15664.91
903.86	15748.88
904.03	15791.89
904.20	16076.55
904.37	15871.76
904.54	15413.01
904.71	15615.76
904.88	15671.06
905.05	15245.08
905.22	15757.07
905.39	15552.27
905.56	15447.83
905.73	15447.83
905.90	15793.94
906.07	15730.45
906.24	15587.09
906.41	15666.96
906.58	15525.65
906.75	15791.89
906.92	15318.81
907.09	15542.03
907.26	15566.61
907.43	15513.36
907.60	15550.23
907.77	15525.65
907.93	15855.37
908.10	15503.12
908.27	15644.43
908.44	15570.71
908.61	15652.63
908.78	15613.71
908.95	15558.42
909.12	15486.74
909.29	15615.76
909.46	15435.54
909.63	15468.31
909.80	15359.77
909.97	15683.34
910.14	15531.80
910.31	15523.60
910.48	15238.94
910.65	15316.76
910.82	15400.72
910.99	15310.61
911.16	15488.79
911.33	15361.81
911.50	15435.54
911.66	15394.58
911.83	15511.32
912.00	15187.74
912.17	15077.15
912.34	15171.35
912.51	15240.98
912.68	15165.21
912.85	15062.81
913.02	15193.88
913.19	14946.08
913.36	15099.67
913.53	15165.21
913.70	14997.28
913.86	14958.36
914.03	14886.68
914.20	14849.82
914.37	14798.62
914.54	14798.62
914.71	14704.42
914.88	14841.63
915.05	14812.96
915.22	14812.96
915.39	14855.97
915.55	14737.18
915.72	14591.78
915.89	14372.64
916.06	14348.07
916.23	14638.88
916.40	14292.77
916.57	14360.36
916.74	14298.92
916.91	14384.93
917.07	14069.55
917.24	14180.14
917.41	13999.91
917.58	14249.77
917.75	14157.61
917.92	14001.96
918.09	13791.02
918.26	14090.02
918.42	14077.74
918.59	14116.65
918.76	13733.68
918.93	13735.73
919.10	13713.20
919.27	13764.40
919.44	14004.01
919.60	13838.12
919.77	13664.05
919.94	13635.38
920.11	13565.74
920.28	13688.62
920.45	13705.01
920.61	13326.13
920.78	13406.00
920.95	13285.17
921.12	13231.93
921.29	13326.13
921.46	13244.21
921.62	13182.77
921.79	13190.97
921.96	13076.28
922.13	13078.33
922.30	12863.29
922.47	13004.60
922.63	12873.53
922.80	12812.09
922.97	12887.87
923.14	12635.97
923.31	12775.23
923.47	12650.30
923.64	12937.02
923.81	12439.36
923.98	12715.84
924.15	12586.82
924.32	12566.34
924.48	12547.90
924.65	12607.30
924.82	12310.34
924.99	12234.57
925.15	12130.12
925.32	12130.12
925.49	12179.27
925.66	11872.07
925.83	11892.55
925.99	11962.19
926.16	12152.65
926.33	12072.78
926.50	11743.05
926.67	11851.60
926.83	11757.39
927.00	11710.29
927.17	11849.55
927.34	11552.59
927.50	11515.73
927.67	11626.32
927.84	11446.10
928.01	11614.03
928.17	11577.17
928.34	11386.71
928.51	11296.60
928.68	11165.53
928.84	11423.57
929.01	11122.52
929.18	10983.26
929.35	11235.16
929.51	11028.31
929.68	11124.57
929.85	10880.86
930.02	10962.78
930.18	10778.46
930.35	10641.25
930.52	10731.36
930.69	10624.86
930.85	10837.85
931.02	10508.13
931.19	10573.66
931.36	10518.37
931.52	10422.11
931.69	10540.90
931.86	10436.45
932.02	10561.37
932.19	10442.59
932.36	10080.10
932.53	10336.10
932.69	10202.98
932.86	10356.58
933.03	10172.26
933.19	9867.11
933.36	9987.94
933.53	10067.81
933.70	9815.91
933.86	9805.67
934.03	9856.87
934.20	9627.50
934.36	9754.48
934.53	9594.73
934.70	9432.94
934.86	9492.34
935.03	9424.75
935.20	9097.08
935.36	9379.70
935.53	9117.56
935.70	9074.55
935.86	9123.70
936.03	9062.26
936.20	8879.99
936.36	8830.84
936.53	8775.55
936.70	8738.68
936.86	8550.27
937.03	8644.48
937.20	8488.83
937.36	8613.76
937.53	8224.64
937.70	8195.97
937.86	8083.33
938.03	8050.57
938.20	8150.92
938.36	7792.52
938.53	7851.91
938.70	7630.73
938.86	7710.60
939.03	7606.16
939.20	7536.52
939.36	7362.45
939.53	7427.98
939.70	7462.80
939.86	7143.32
940.03	7108.50
940.19	6891.41
940.36	6967.19
940.53	6856.60
940.69	6922.13
940.86	6850.46
941.03	6608.80
941.19	6447.01
941.36	6545.31
941.52	6451.10
941.69	6363.04
941.86	6383.52
942.02	6244.26
942.19	6311.84
942.35	6254.50
942.52	6156.19
942.69	6193.06
942.85	6053.80
943.02	5984.16
943.18	6098.85
943.35	5918.63
943.52	5881.77
943.68	5752.74
943.85	5902.25
944.01	5926.82
944.18	5513.13
944.35	5730.22
944.51	5603.24
944.68	5535.66
944.84	5636.01
945.01	5578.67
945.17	5566.38
945.34	5433.26
945.51	5509.04
945.67	5494.70
945.84	5572.52
946.00	5355.44
946.17	5433.26
946.33	5390.25
946.50	5490.60
946.67	5552.04
946.83	5445.55
947.00	5490.60
947.16	5398.45
947.33	5416.88
947.49	5369.77
947.66	5199.79
947.82	5291.95
947.99	5361.58
948.16	5435.31
948.32	5410.73
948.49	5408.69
948.65	5334.96
948.82	5382.06
948.98	5294.00
949.15	5285.81
949.31	5416.88
949.48	5406.64
949.64	5361.58
949.81	5416.88
949.97	5359.53
950.14	5457.84
950.30	5234.61
950.47	5418.93
950.63	5361.58
950.80	5613.48
950.96	5377.97
951.13	5425.07
951.30	5377.97
951.46	5451.69
951.63	5541.80
951.79	5601.19
951.96	5640.11
952.12	5392.30
952.29	5470.12
952.45	5287.86
952.62	5455.79
952.78	5357.49
952.94	5429.17
953.11	5488.56
953.27	5334.96
953.44	5490.60
953.60	5416.88
953.77	5509.04
953.93	5509.04
954.10	5500.84
954.26	5482.41
954.43	5482.41
954.59	5554.09
954.76	5439.40
954.92	5386.16
955.09	5611.43
955.25	5607.34
955.42	5423.02
955.58	5765.03
955.75	5468.08
955.91	5472.17
956.07	5418.93
956.24	5517.23
956.40	5574.57
956.57	5693.35
956.73	5476.27
956.90	5502.89
957.06	5279.66
957.23	5529.52
957.39	5537.71
957.56	5396.40
957.72	5279.66
957.88	5480.36
958.05	5689.26
958.21	5615.53
958.38	5586.86
958.54	5466.03
958.71	5724.07
958.87	5531.56
959.03	5521.32
959.20	5586.86
959.36	5470.12
959.53	5496.75
959.69	5455.79
959.85	5529.52
960.02	5380.01
960.18	5627.82
960.35	5439.40
960.51	5558.19
960.68	5504.94
960.84	5533.61
961.00	5476.27
961.17	5412.78
961.33	5439.40
961.50	5564.33
961.66	5545.90
961.82	5449.64
961.99	5552.04
962.15	5527.47
962.31	5566.38
962.48	5484.46
962.64	5451.69
962.81	5394.35
962.97	5353.39
963.13	5621.67
963.30	5498.80
963.46	5558.19
963.62	5425.07
963.79	5533.61
963.95	5468.08
964.12	5435.31
964.28	5412.78
964.44	5281.71
964.61	5308.34
964.77	5435.31
964.93	5554.09
965.10	5455.79
965.26	5279.66
965.42	5365.68
965.59	5382.06
965.75	5371.82
965.92	5373.87
966.08	5441.45
966.24	5324.72
966.41	5412.78
966.57	5351.34
966.73	5355.44
966.90	5304.24
967.06	5363.63
967.22	5339.05
967.39	5140.40
967.55	5271.47
967.71	5267.38
967.88	5324.72
968.04	5187.50
968.20	5146.55
968.37	5197.74
968.53	5033.91
968.69	5294.00
968.85	5298.10
969.02	5281.71
969.18	5218.22
969.34	5093.30
969.51	5240.75
969.67	5283.76
969.83	5138.35
970.00	5244.85
970.16	5124.02
970.32	5103.54
970.48	5253.04
970.65	5195.70
970.81	5001.14
970.97	5025.72
971.14	4999.09
971.30	5156.79
971.46	5164.98
971.63	4935.60
971.79	5019.57
971.95	4956.08
972.11	4919.22
972.28	5035.96
972.44	4986.80
972.60	4992.95
972.76	4970.42
972.93	4962.23
973.09	5060.53
973.25	5007.28
973.42	4800.44
973.58	4984.76
973.74	4792.25
973.90	4806.58
974.07	4995.00
974.23	4845.49
974.39	4984.76
974.55	4874.17
974.72	4829.11
974.88	4730.81
975.04	4745.14
975.20	4698.04
975.37	4788.15
975.53	4771.77
975.69	4652.98
975.85	4841.40
976.01	4804.53
976.18	4812.73
976.34	4755.38
976.50	4802.49
976.66	4741.05
976.83	4865.97
976.99	4724.66
977.15	4638.65
977.31	4687.80
977.47	4624.31
977.64	4691.90
977.80	4671.42
977.96	4612.03
978.12	4784.06
978.29	4616.12
978.45	4485.05
978.61	4628.41
978.77	4753.34
978.93	4663.22
979.10	4573.11
979.26	4679.61
979.42	4630.46
979.58	4296.64
979.74	4495.29
979.91	4517.82
980.07	4325.31
980.23	4415.42
980.39	4399.04
980.55	4413.37
980.71	4442.04
980.88	4456.38
981.04	4444.09
981.20	4390.84
981.36	4474.81
981.52	4284.35
981.68	4196.29
981.85	4435.90
982.01	4462.52
982.17	4423.61
982.33	4272.06
982.49	4480.96
982.65	4313.02
982.82	4302.78
982.98	4265.92
983.14	4315.07
983.30	4290.49
983.46	4382.65
983.62	4272.06
983.79	4253.63
983.95	4194.24
984.11	4220.86
984.27	4353.98
984.43	4202.43
984.59	4134.85
984.75	4300.73
984.91	4145.09
985.08	4292.54
985.24	4165.57
985.40	4067.27
985.56	4063.17
985.72	3999.68
985.88	4093.89
986.04	4083.65
986.20	4067.27
986.37	4159.42
986.53	4061.12
986.69	4116.42
986.85	4009.92
987.01	3895.24
987.17	4171.71
987.33	4001.73
987.49	3911.62
987.65	4042.69
987.82	3878.85
987.98	3837.89
988.14	4042.69
988.30	3977.16
988.46	3882.95
988.62	4034.50
988.78	3921.86
988.94	3995.59
989.10	3735.50
989.26	3811.27
989.42	3831.75
989.59	3860.42
989.75	3837.89
989.91	3968.96
990.07	3768.26
990.23	3780.55
990.39	3780.55
990.55	3798.98
990.71	3741.64
990.87	3749.83
991.03	3862.47
991.19	3788.74
991.35	3864.52
991.51	3813.32
991.67	3786.69
991.83	3786.69
992.00	3729.35
992.16	3770.31
992.32	3784.65
992.48	3731.40
992.64	3733.45
992.80	3590.09
992.96	3727.30
993.12	3702.73
993.28	3676.10
993.44	3665.86
993.60	3809.22
993.76	3690.44
993.92	3606.47
994.08	3712.97
994.24	3585.99
994.40	3708.87
994.56	3604.42
994.72	3559.37
994.88	3665.86
995.04	3512.27
995.20	3524.55
995.36	3588.04
995.52	3532.75
995.68	3622.86
995.84	3461.07
996.00	3493.83
996.16	3512.27
996.32	3354.57
996.48	3387.34
996.64	3518.41
996.80	3452.88
996.96	3405.77
997.12	3499.98
997.28	3407.82
997.44	3506.12
997.60	3442.64
997.76	3389.39
997.92	3387.34
998.08	3420.11
998.24	3325.90
998.40	3444.68
998.56	3391.44
998.72	3336.14
998.88	3313.61
999.04	3278.80
999.20	3446.73
999.36	3205.07
999.52	3282.89
999.68	3309.52
999.84	3413.96
1000.00	3198.93
1000.16	3336.14
1000.32	3186.64
1000.48	3248.08
1000.64	3188.69
1000.80	3248.08
1000.95	3174.35
1001.11	3205.07
1001.27	3188.69
1001.43	3237.84
1001.59	3067.86
1001.75	3135.44
1001.91	3147.73
1002.07	2975.70
1002.23	3209.17
1002.39	3178.45
1002.55	3102.67
1002.71	3088.34
1002.87	3131.34
1003.03	3200.98
1003.19	3006.42
1003.34	3149.78
1003.50	3049.43
1003.66	3149.78
1003.82	3157.97
1003.98	3043.28
1004.14	3004.37
1004.30	3022.80
1004.46	2967.51
1004.62	2944.98
1004.78	2979.79
1004.94	2975.70
1005.09	3092.43
1005.25	2990.03
1005.41	2959.31
1005.57	2873.30
1005.73	3037.14
1005.89	2793.43
1006.05	3028.95
1006.21	2990.03
1006.37	2949.08
1006.52	3008.47
1006.68	2854.87
1006.84	2994.13
1007.00	2854.87
1007.16	2910.16
1007.32	2815.96
1007.48	2709.46
1007.64	2867.16
1007.79	2887.64
1007.95	2770.90
1008.11	2922.45
1008.27	2826.20
1008.43	2861.01
1008.59	2754.52
1008.75	2899.92
1008.91	2865.11
1009.06	2791.38
1009.22	2807.77
1009.38	2848.72
1009.54	2772.95
1009.70	2824.15
1009.86	2848.72
1010.01	2850.77
1010.17	2715.61
1010.33	2813.91
1010.49	2764.76
1010.65	2893.78
1010.81	2670.55
1010.96	2752.47
1011.12	2746.33
1011.28	2635.74
1011.44	2777.05
1011.60	2623.45
1011.76	2623.45
1011.91	2740.18
1012.07	2709.46
1012.23	2688.98
1012.39	2623.45
1012.55	2762.71
1012.71	2605.02
1012.86	2549.72
1013.02	2652.12
1013.18	2598.87
1013.34	2656.22
1013.50	2625.50
1013.65	2596.82
1013.81	2590.68
1013.97	2580.44
1014.13	2580.44
1014.29	2639.83
1014.44	2682.84
1014.60	2543.58
1014.76	2568.15
1014.92	2580.44
1015.07	2523.10
1015.23	2594.78
1015.39	2459.61
1015.55	2537.43
1015.71	2432.99
1015.86	2445.27
1016.02	2486.23
1016.18	2461.66
1016.34	2521.05
1016.49	2490.33
1016.65	2527.19
1016.81	2514.91
1016.97	2373.60
1017.12	2506.71
1017.28	2430.94
1017.44	2383.84
1017.60	2494.43
1017.75	2441.18
1017.91	2459.61
1018.07	2506.71
1018.23	2541.53
1018.38	2392.03
1018.54	2426.84
1018.70	2430.94
1018.86	2299.87
1019.01	2377.69
1019.17	2387.93
1019.33	2445.27
1019.49	2531.29
1019.64	2394.08
1019.80	2398.17
1019.96	2375.64
1020.12	2351.07
1020.27	2314.20
1020.43	2265.05
1020.59	2365.40
1020.74	2363.36
1020.90	2408.41
1021.06	2365.40
1021.22	2312.16
1021.37	2324.44
1021.53	2303.96
1021.69	2381.79
1021.84	2248.67
1022.00	2277.34
1022.16	2299.87
1022.31	2328.54
1022.47	2400.22
1022.63	2324.44
1022.79	2258.91
1022.94	2289.63
1023.10	2363.36
1023.26	2232.29
1023.41	2283.49
1023.57	2224.09
1023.73	2328.54
1023.88	2263.01
1024.04	2289.63
1024.20	2226.14
1024.35	2303.96
1024.51	2256.86
1024.67	2162.66
1024.82	2328.54
1024.98	2146.27
1025.14	2191.33
1025.29	2220.00
1025.45	2228.19
1025.61	2199.52
1025.76	2215.90
1025.92	2199.52
1026.08	2203.61
1026.23	2230.24
1026.39	2215.90
1026.55	2154.46
1026.70	2158.56
1026.86	2111.46
1027.02	2205.66
1027.17	2189.28
1027.33	2236.38
1027.48	2158.56
1027.64	2111.46
1027.80	2086.88
1027.95	2230.24
1028.11	2031.58
1028.27	2195.42
1028.42	2187.23
1028.58	2068.45
1028.73	2156.51
1028.89	2004.96
1029.05	2250.72
1029.20	2238.43
>>>>>End Processed Spectral Data<<<<<
