SpectraSuite Data File
++++++++++++++++++++++++++++++++++++
Date: Fri Jun 02 14:52:26 CEST 2017
User: INFO_000
Dark Spectrum Present: No
Reference Spectrum Present: No
Number of Sampled Component Spectra: 1
Spectrometers: USB4H00879
Integration Time (usec): 80000 (USB4H00879)
Spectra Averaged: 1 (USB4H00879)
Boxcar Smoothing: 0 (USB4H00879)
Correct for Electrical Dark: No (USB4H00879)
Strobe/Lamp Enabled: No (USB4H00879)
Correct for Detector Non-linearity: No (USB4H00879)
Correct for Stray Light: No (USB4H00879)
Number of Pixels in Processed Spectrum: 3648
>>>>>Begin Processed Spectral Data<<<<<
345.13	1374.19
345.34	1374.19
345.56	1374.19
345.78	1267.69
345.99	1290.22
346.21	1695.72
346.42	1691.62
346.64	1642.47
346.86	1746.92
347.07	1681.38
347.29	1742.82
347.50	1576.94
347.72	1689.57
347.94	1798.12
348.15	1599.46
348.37	1624.04
348.59	1710.05
348.80	1675.24
349.02	1789.92
349.23	1832.93
349.45	1818.60
349.67	1871.84
349.88	1886.18
350.10	1912.80
350.31	1814.50
350.53	1806.31
350.75	1974.24
350.96	1732.58
351.18	1808.36
351.39	1865.70
351.61	1875.94
351.82	1904.61
352.04	1855.46
352.26	1832.93
352.47	1941.47
352.69	1929.19
352.90	1757.16
353.12	1783.78
353.34	1857.51
353.55	1959.91
353.77	1920.99
353.98	1859.56
354.20	1908.71
354.41	1914.85
354.63	1902.56
354.85	2011.11
355.06	1884.13
355.28	1808.36
355.49	1918.95
355.71	1834.98
355.92	1941.47
356.14	1976.29
356.35	1869.80
356.57	1912.80
356.79	1955.81
357.00	1804.26
357.22	1996.77
357.43	1896.42
357.65	1970.15
357.86	1912.80
358.08	1982.43
358.29	1886.18
358.51	2027.49
358.72	2015.20
358.94	1847.27
359.16	2009.06
359.37	1961.95
359.59	2039.78
359.80	2052.06
360.02	1968.10
360.23	2039.78
360.45	1996.77
360.66	1953.76
360.88	1871.84
361.09	1968.10
361.31	2009.06
361.52	1951.71
361.74	2019.30
361.95	2066.40
362.17	1990.63
362.38	2103.26
362.60	2031.58
362.81	1974.24
363.03	1945.57
363.24	1939.43
363.46	1996.77
363.67	2060.26
363.89	1957.86
364.10	2043.87
364.32	1984.48
364.53	2041.82
364.75	1916.90
364.96	1970.15
365.18	1978.34
365.39	2056.16
365.61	1976.29
365.82	2191.33
366.04	2064.35
366.25	1964.00
366.47	2019.30
366.68	2029.54
366.90	1990.63
367.11	2119.65
367.33	2121.70
367.54	2064.35
367.76	2045.92
367.97	2123.74
368.19	2041.82
368.40	2023.39
368.62	2076.64
368.83	2084.83
369.05	2045.92
369.26	2052.06
369.48	1988.58
369.69	2080.74
369.91	2072.54
370.12	2033.63
370.33	2105.31
370.55	1974.24
370.76	2050.02
370.98	2158.56
371.19	2037.73
371.41	2017.25
371.62	2068.45
371.84	2007.01
372.05	2213.85
372.27	2019.30
372.48	2074.59
372.69	2103.26
372.91	2107.36
373.12	2197.47
373.34	2078.69
373.55	2183.13
373.77	2097.12
373.98	2201.57
374.20	2230.24
374.41	2248.67
374.62	2097.12
374.84	2074.59
375.05	2158.56
375.27	2193.37
375.48	2181.09
375.70	2172.89
375.91	2174.94
376.12	2295.77
376.34	2164.70
376.55	2183.13
376.77	2287.58
376.98	2125.79
377.19	2158.56
377.41	2191.33
377.62	2185.18
377.84	2295.77
378.05	2342.88
378.27	2220.00
378.48	2250.72
378.69	2324.44
378.91	2363.36
379.12	2174.94
379.34	2254.81
379.55	2265.05
379.76	2283.49
379.98	2228.19
380.19	2291.68
380.41	2293.72
380.62	2318.30
380.83	2263.01
381.05	2209.76
381.26	2373.60
381.47	2303.96
381.69	2256.86
381.90	2457.56
382.12	2424.80
382.33	2289.63
382.54	2263.01
382.76	2232.29
382.97	2332.64
383.19	2228.19
383.40	2385.88
383.61	2295.77
383.83	2293.72
384.04	2332.64
384.25	2291.68
384.47	2396.12
384.68	2344.92
384.89	2265.05
385.11	2342.88
385.32	2351.07
385.54	2363.36
385.75	2385.88
385.96	2365.40
386.18	2398.17
386.39	2488.28
386.60	2504.67
386.82	2455.51
387.03	2400.22
387.24	2435.03
387.46	2484.19
387.67	2426.84
387.88	2490.33
388.10	2537.43
388.31	2447.32
388.52	2615.26
388.74	2486.23
388.95	2445.27
389.16	2494.43
389.38	2576.34
389.59	2703.32
389.80	2680.79
390.02	2535.39
390.23	2688.98
390.44	2572.25
390.66	2600.92
390.87	2525.15
391.08	2592.73
391.30	2682.84
391.51	2693.08
391.72	2615.26
391.94	2756.57
392.15	2648.02
392.36	2555.86
392.58	2621.40
392.79	2639.83
393.00	2701.27
393.22	2850.77
393.43	2820.05
393.64	2963.41
393.85	2791.38
394.07	2713.56
394.28	2746.33
394.49	2879.44
394.71	2742.23
394.92	2924.50
395.13	2762.71
395.35	2727.89
395.56	2697.17
395.77	2791.38
395.98	2906.07
396.20	2920.40
396.41	2912.21
396.62	3055.57
396.84	2869.20
397.05	2840.53
397.26	2996.18
397.47	2965.46
397.69	2834.39
397.90	3137.49
398.11	3096.53
398.32	2955.22
398.54	2885.59
398.75	2895.83
398.96	3039.19
399.18	3241.93
399.39	3065.81
399.60	3071.95
399.81	3022.80
400.03	2977.75
400.24	3338.19
400.45	3141.58
400.66	3131.34
400.88	3123.15
401.09	3166.16
401.30	3203.02
401.51	3182.54
401.73	3190.74
401.94	3225.55
402.15	3233.74
402.36	3147.73
402.58	3219.41
402.79	3155.92
403.00	3317.71
403.21	3280.85
403.43	3280.85
403.64	3381.20
403.85	3135.44
404.06	3301.33
404.27	3280.85
404.49	3297.23
404.70	3209.17
404.91	3510.22
405.12	3373.00
405.34	3250.13
405.55	3598.28
405.76	3174.35
405.97	3334.09
406.19	3448.78
406.40	3264.46
406.61	3375.05
406.82	3397.58
407.03	3401.68
407.25	3266.51
407.46	3465.16
407.67	3493.83
407.88	3522.51
408.09	3461.07
408.31	3495.88
408.52	3465.16
408.73	3461.07
408.94	3430.35
409.15	3399.63
409.37	3588.04
409.58	3665.86
409.79	3622.86
410.00	3502.03
410.21	3604.42
410.43	3581.90
410.64	3538.89
410.85	3430.35
411.06	3620.81
411.27	3598.28
411.48	3747.78
411.70	3557.32
411.91	3715.02
412.12	3604.42
412.33	3747.78
412.54	3592.14
412.76	3719.11
412.97	3635.14
413.18	3653.58
413.39	3702.73
413.60	3696.58
413.81	3657.67
414.03	3706.82
414.24	3567.56
414.45	3762.12
414.66	3659.72
414.87	3803.08
415.08	3606.47
415.30	3741.64
415.51	3846.09
415.72	3723.21
415.93	3821.51
416.14	3977.16
416.35	3841.99
416.56	3977.16
416.78	3975.11
416.99	3930.05
417.20	3835.85
417.41	3901.38
417.62	3805.13
417.83	3960.77
418.04	3942.34
418.26	3940.29
418.47	3774.41
418.68	4124.61
418.89	3989.44
419.10	4044.74
419.31	3989.44
419.52	4118.47
419.73	3950.53
419.95	4011.97
420.16	4077.51
420.37	3889.09
420.58	4050.88
420.79	3901.38
421.00	4071.36
421.21	4173.76
421.42	4227.01
421.63	4216.77
421.85	4143.04
422.06	4304.83
422.27	4196.29
422.48	3983.30
422.69	4235.20
422.90	4259.78
423.11	4214.72
423.32	4415.42
423.53	4415.42
423.75	4388.80
423.96	4380.61
424.17	4329.41
424.38	4472.76
424.59	4440.00
424.80	4526.01
425.01	4386.75
425.22	4415.42
425.43	4390.84
425.64	4655.03
425.85	4693.94
426.06	4499.39
426.28	4575.16
426.49	4589.50
426.70	4450.24
426.91	4706.23
427.12	4759.48
427.33	4581.31
427.54	4683.70
427.75	4779.96
427.96	5050.29
428.17	4751.29
428.38	4966.32
428.59	4968.37
428.80	4804.53
429.01	4956.08
429.23	4829.11
429.44	5062.58
429.65	5042.10
429.86	5011.38
430.07	4976.56
430.28	4956.08
430.49	5177.26
430.70	5222.32
430.91	5191.60
431.12	4992.95
431.33	5195.70
431.54	5138.35
431.75	5187.50
431.96	5277.62
432.17	5189.55
432.38	5232.56
432.59	5400.49
432.80	5324.72
433.01	5224.37
433.22	5310.38
433.43	5326.77
433.64	5369.77
433.85	5357.49
434.06	5556.14
434.27	5463.98
434.49	5498.80
434.70	5566.38
434.91	5527.47
435.12	5550.00
435.33	5431.21
435.54	5523.37
435.75	5451.69
435.96	5760.94
436.17	5564.33
436.38	5738.41
436.59	5730.22
436.80	5662.63
437.01	6025.12
437.22	5853.09
437.43	5896.10
437.64	5791.66
437.85	5992.36
438.06	5834.66
438.27	5758.89
438.48	5943.21
438.69	5853.09
438.90	6066.08
439.11	5840.81
439.32	5912.49
439.53	5951.40
439.74	6043.56
439.95	6168.48
440.16	5902.25
440.37	6135.71
440.57	5990.31
440.78	6180.77
440.99	6178.72
441.20	6221.73
441.41	6164.39
441.62	6242.21
441.83	6107.04
442.04	6246.30
442.25	6184.87
442.46	6205.35
442.67	6283.17
442.88	6780.82
443.09	6404.00
443.30	6332.32
443.51	6508.44
443.72	6621.08
443.93	6463.39
444.14	6565.79
444.35	6404.00
444.56	6573.98
444.77	6545.31
444.98	6700.95
445.19	6674.33
445.40	6561.69
445.61	6563.74
445.81	6610.84
446.02	6741.91
446.23	6539.16
446.44	6651.80
446.65	6731.67
446.86	6707.10
447.07	6825.88
447.28	7057.30
447.49	6942.61
447.70	6756.25
447.91	6934.42
448.12	6813.59
448.33	6856.60
448.54	7049.11
448.74	6901.65
448.95	6877.08
449.16	6807.45
449.37	7157.65
449.58	6950.81
449.79	7268.24
450.00	6913.94
450.21	7124.88
450.42	7229.33
450.63	7229.33
450.84	7245.71
451.05	7301.01
451.25	7200.66
451.46	7014.29
451.67	7352.21
451.88	7526.29
452.09	7364.50
452.30	7354.26
452.51	7434.13
452.72	7454.61
452.93	7817.10
453.13	7286.67
453.34	7415.69
453.55	7534.48
453.76	7565.20
453.97	7911.30
454.18	7571.34
454.39	7604.11
454.60	7772.04
454.81	7790.47
455.01	7956.36
455.22	7487.37
455.43	7595.92
455.64	7909.26
455.85	7915.40
456.06	8181.64
456.27	7808.90
456.48	7786.38
456.68	7935.88
456.89	7952.26
457.10	8251.27
457.31	7966.60
457.52	8155.01
457.73	8195.97
457.94	8490.88
458.14	7950.21
458.35	8652.67
458.56	8390.53
458.77	8312.71
458.98	8335.23
459.19	8388.48
459.39	8529.79
459.60	8566.65
459.81	8472.45
460.02	8568.70
460.23	8490.88
460.44	8679.29
460.65	8757.11
460.85	8869.75
461.06	8687.48
461.27	8765.31
461.48	8978.30
461.69	9125.75
461.89	8587.13
462.10	8906.62
462.31	8548.22
462.52	8963.96
462.73	8863.61
462.94	9176.95
463.14	9170.80
463.35	9035.64
463.56	9574.25
463.77	9322.35
463.98	9375.60
464.18	9234.29
464.39	9346.93
464.60	9475.95
464.81	9512.81
465.02	9437.04
465.23	9770.86
465.43	9721.71
465.64	9705.32
465.85	9906.02
466.06	9709.42
466.27	9983.85
466.47	9942.89
466.68	9910.12
466.89	9994.09
467.10	10067.81
467.30	9871.21
467.51	10108.77
467.72	10516.32
467.93	10108.77
468.14	10133.35
468.34	10458.98
468.55	10379.11
468.76	10485.60
468.97	10405.73
469.17	10749.79
469.38	10669.92
469.59	11056.98
469.80	10714.97
470.01	10780.51
470.21	10946.39
470.42	10907.48
470.63	11214.68
470.84	11134.81
471.04	11384.66
471.25	11437.91
471.46	11261.78
471.67	11552.59
471.87	11376.47
472.08	11751.24
472.29	11824.97
472.50	11241.30
472.70	11505.49
472.91	11845.45
473.12	11937.61
473.33	11992.90
473.53	12261.19
473.74	11935.56
473.95	12212.04
474.16	12275.52
474.36	12334.92
474.57	12494.66
474.78	12797.76
474.99	12701.50
475.19	12664.64
475.40	13010.75
475.61	13012.79
475.81	13301.56
476.02	13272.89
476.23	13250.36
476.44	13209.40
476.64	13592.37
476.85	13643.57
477.06	13557.55
477.27	13743.92
477.47	13719.34
477.68	13858.60
477.89	14073.64
478.09	14096.17
478.30	14077.74
478.51	14257.96
478.71	14477.09
478.92	14571.30
479.13	14772.00
479.34	14724.90
479.54	14683.94
479.75	14970.65
479.96	14829.34
480.16	15056.67
480.37	14993.18
480.58	15353.62
480.78	15544.08
480.99	15572.75
481.20	15763.22
481.41	15789.84
481.61	15800.08
481.82	15869.71
482.03	15992.59
482.23	16121.61
482.44	16326.41
482.65	16414.47
482.85	16586.50
483.06	16514.82
483.27	16193.29
483.47	16633.60
483.68	16404.23
483.89	16832.26
484.09	16981.76
484.30	17078.01
484.51	17241.85
484.71	17346.30
484.92	17207.03
485.13	17547.00
485.33	17702.64
485.54	17862.38
485.75	17706.74
485.95	17960.69
486.16	18118.38
486.37	17929.97
486.57	17995.50
486.78	18327.27
486.98	18140.91
487.19	18372.33
487.40	18857.70
487.60	18603.75
487.81	18882.27
488.02	18878.18
488.22	18837.22
488.43	19015.39
488.64	19105.50
488.84	19543.77
489.05	19216.09
489.25	19369.69
489.46	19898.06
489.67	19584.73
489.87	19781.33
490.08	20057.81
490.29	19896.02
490.49	20217.55
490.70	20278.99
490.90	20381.38
491.11	20410.06
491.32	20666.05
491.52	20430.54
491.73	20489.93
491.94	20618.95
492.14	20512.46
492.35	20920.00
492.55	21044.93
492.76	21407.42
492.97	21200.57
493.17	21518.01
493.38	21587.64
493.58	21552.82
493.79	21526.20
494.00	21597.88
494.20	21653.17
494.41	22150.83
494.61	21913.27
494.82	22238.89
495.02	22054.58
495.23	22249.13
495.44	22552.23
495.64	22556.33
495.85	22492.84
496.05	22605.48
496.26	22318.76
496.47	22978.21
496.67	22609.58
496.88	23035.55
497.08	22974.11
497.29	23113.38
497.49	22996.64
497.70	23387.80
497.91	23180.96
498.11	23391.90
498.32	23457.43
498.52	23627.42
498.73	24024.72
498.93	23649.94
499.14	23752.34
499.34	23701.14
499.55	24180.37
499.76	23940.75
499.96	24323.72
500.17	23975.57
500.37	24276.62
500.58	24407.69
500.78	24682.12
500.99	24473.23
501.19	24626.82
501.40	24467.08
501.60	24678.02
501.81	24712.84
502.02	24899.20
502.22	24458.89
502.43	24653.45
502.63	25179.78
502.84	25081.47
503.04	25085.57
503.25	25472.64
503.45	24938.12
503.66	25484.92
503.86	25325.18
504.07	25480.83
504.27	25550.46
504.48	25884.28
504.68	25634.42
504.89	25738.87
505.09	25814.65
505.30	25726.58
505.50	25529.98
505.71	25910.90
505.91	25788.02
506.12	26033.78
506.32	25554.55
506.53	25814.65
506.73	26101.36
506.94	26429.04
507.14	25908.85
507.35	26308.21
507.55	26369.65
507.76	26437.23
507.96	26599.02
508.17	26250.86
508.37	26637.93
508.58	26576.49
508.78	26345.07
508.99	26945.12
509.19	27047.52
509.40	26572.39
509.60	26785.38
509.81	27111.01
510.01	26787.43
510.22	26656.36
510.42	26979.94
510.63	27057.76
510.83	26599.02
511.04	27008.61
511.24	27237.98
511.44	27252.32
511.65	27160.16
511.85	27115.11
512.06	27225.70
512.26	27524.70
512.47	27381.34
512.67	27610.71
512.88	27348.57
513.08	27063.91
513.29	27780.70
513.49	27369.05
513.69	27731.54
513.90	27678.30
514.10	27842.14
514.31	27801.18
514.51	27905.62
514.72	27747.93
514.92	27756.12
515.13	27973.21
515.33	27803.22
515.53	27831.90
515.74	27891.29
515.94	28259.92
516.15	27860.57
516.35	27850.33
516.56	28515.92
516.76	28038.74
516.96	27928.15
517.17	28515.92
517.37	28419.66
517.58	28350.03
517.78	28499.53
517.99	28546.64
518.19	28569.16
518.39	28712.52
518.60	28935.75
518.80	28960.33
519.01	28816.97
519.21	28771.91
519.41	29021.77
519.62	28968.52
519.82	29050.44
520.03	29111.88
520.23	29054.53
520.43	28929.61
520.64	29380.16
520.84	29550.14
521.05	29406.78
521.25	29556.28
521.45	29685.31
521.66	29838.90
521.86	29556.28
522.07	29318.72
522.27	29638.20
522.47	29847.10
522.68	30264.88
522.88	29869.62
523.08	30076.47
523.29	29576.76
523.49	30225.97
523.70	30248.50
523.90	30119.48
524.10	30156.34
524.31	30453.30
524.51	30258.74
524.71	30729.77
524.92	30363.18
525.12	30983.72
525.33	30629.42
525.53	31196.71
525.73	31249.96
525.94	31143.46
526.14	30955.05
526.34	31159.84
526.55	31184.42
526.75	31028.77
526.95	31827.48
527.16	31368.74
527.36	31495.71
527.56	31716.89
527.77	31809.05
527.97	31962.65
528.17	31927.83
528.38	31745.56
528.58	32501.26
528.78	32253.46
528.99	32273.94
529.19	32585.23
529.39	32077.33
529.60	32513.55
529.80	32402.96
530.00	32349.71
530.21	32683.53
530.41	32880.14
530.61	32568.85
530.82	32914.95
531.02	32808.46
531.22	33123.85
531.43	33414.66
531.63	33482.24
531.83	33732.09
532.04	33912.31
532.24	33574.40
532.44	33752.57
532.64	34059.77
532.85	34182.65
533.05	33977.85
533.25	33922.55
533.46	34268.66
533.66	34600.43
533.86	34158.07
534.07	34854.38
534.27	34565.62
534.47	34749.93
534.67	34741.74
534.88	34553.33
535.08	35069.42
535.28	35313.13
535.49	35339.75
535.69	35696.10
535.89	35421.67
536.09	35868.12
536.30	35816.93
536.50	35898.84
536.70	35929.56
536.91	35827.17
537.11	35878.36
537.31	36210.14
537.51	35937.76
537.72	36402.64
537.92	36419.03
538.12	36824.53
538.32	36169.18
538.53	37262.79
538.73	36724.18
538.93	36871.63
539.13	37176.78
539.34	36849.10
539.54	37074.38
539.74	37545.41
539.94	37641.67
540.15	36859.34
540.35	37479.88
540.55	37715.39
540.75	38053.31
540.96	37756.35
541.16	38032.83
541.36	37961.15
541.56	38030.78
541.77	38327.74
541.97	38362.55
542.17	38479.28
542.37	38325.69
542.58	38479.28
542.78	38604.21
542.98	38632.88
543.18	39292.33
543.38	39275.94
543.59	39333.29
543.79	39091.63
543.99	39155.11
544.19	39531.94
544.40	39091.63
544.60	39699.87
544.80	39228.84
545.00	39439.78
545.20	39962.01
545.41	39523.75
545.61	39515.56
545.81	40371.61
546.01	39968.16
546.21	40215.96
546.42	40113.56
546.62	40134.04
546.82	40308.12
547.02	40312.22
547.22	40433.05
547.43	39800.22
547.63	40654.23
547.83	40623.51
548.03	40523.16
548.23	41166.22
548.44	40869.26
548.64	41391.50
548.84	40992.14
549.04	40934.80
549.24	41313.67
549.45	41235.85
549.65	41672.07
549.85	41512.33
550.05	41950.59
550.25	41182.60
550.45	41981.31
550.66	41557.38
550.86	41710.98
551.06	42175.87
551.26	41997.70
551.46	42009.98
551.66	42030.46
551.87	42020.22
552.07	42243.45
552.27	42218.88
552.47	42227.07
552.67	42720.63
552.87	42423.67
553.07	42675.57
553.28	43003.25
553.48	42726.77
553.68	42706.29
553.88	43183.47
554.08	43007.34
554.28	42888.56
554.48	42427.77
554.69	43226.48
554.89	42956.14
555.09	43251.05
555.29	43167.09
555.49	43240.81
555.69	43384.17
555.89	43505.00
556.10	43679.08
556.30	43220.33
556.50	43572.58
556.70	43535.72
556.90	43957.60
557.10	44232.03
557.30	43412.84
557.50	43767.14
557.70	44207.45
557.91	44109.15
558.11	43781.48
558.31	44416.35
558.51	44113.25
558.71	44260.70
558.91	44348.76
559.11	44348.76
559.31	44201.31
559.51	44260.70
559.72	44408.15
559.92	44508.50
560.12	44508.50
560.32	44973.39
560.52	44578.14
560.72	44410.20
560.92	44916.05
561.12	44889.43
561.32	45215.05
561.52	44782.93
561.72	44899.67
561.93	44969.30
562.13	45002.07
562.33	44504.41
562.53	45417.80
562.73	44717.40
562.93	44977.49
563.13	45442.38
563.33	44952.91
563.53	45544.78
563.73	45282.64
563.93	45061.46
564.13	45573.45
564.33	45518.15
564.53	45278.54
564.74	45737.29
564.94	45229.39
565.14	45692.23
565.34	45559.11
565.54	45653.32
565.74	45804.87
565.94	45712.71
566.14	45454.67
566.34	45497.67
566.54	46241.09
566.74	45434.19
566.94	46046.53
567.14	46413.12
567.34	46036.29
567.54	45894.98
567.74	46044.48
567.94	46087.49
568.14	46011.71
568.34	46495.03
568.54	46284.09
568.74	46269.76
568.94	46138.69
569.14	46622.01
569.34	46050.63
569.54	46501.18
569.75	46157.12
569.95	46697.78
570.15	47019.31
570.35	46531.90
570.55	46333.24
570.75	46531.90
570.95	46531.90
571.15	46726.46
571.35	46331.20
571.55	46953.78
571.75	46945.59
571.95	46918.96
572.15	46630.20
572.35	46830.90
572.55	46282.05
572.75	46642.49
572.95	47193.39
573.15	46785.85
573.35	47162.67
573.55	46714.17
573.75	47177.01
573.95	46945.59
574.15	46652.73
574.35	47265.07
574.55	46914.87
574.75	46966.07
574.95	47050.03
575.15	46847.29
575.34	47191.34
575.54	47449.39
575.74	47357.23
575.94	47412.52
576.14	46943.54
576.34	47736.10
576.54	47535.40
576.74	47351.09
576.94	47510.83
577.14	47850.79
577.34	48035.11
577.54	47607.08
577.74	47598.89
577.94	47361.33
578.14	47883.56
578.34	48256.29
578.54	47660.33
578.74	47820.07
578.94	47881.51
579.14	47854.89
579.34	47846.69
579.54	47965.48
579.74	48303.39
579.94	48256.29
580.13	47889.70
580.33	47990.05
580.53	47912.23
580.73	48102.69
580.93	48280.86
581.13	48307.49
581.33	48561.44
581.53	48272.67
581.73	48477.47
581.93	48717.08
582.13	48512.28
582.33	48491.80
582.53	48495.90
582.73	49071.38
582.92	48684.31
583.12	48825.62
583.32	48860.44
583.52	48768.28
583.72	49052.95
583.92	48667.93
584.12	48936.21
584.32	49202.45
584.52	48727.32
584.72	48739.61
584.92	48659.74
585.11	49560.84
585.31	48903.45
585.51	48921.88
585.71	48938.26
585.91	49224.98
586.11	49014.04
586.31	49001.75
586.51	49247.50
586.71	49059.09
586.91	49712.39
587.10	49483.02
587.30	49663.24
587.50	49394.96
587.70	49646.86
587.90	49478.92
588.10	49890.57
588.30	49390.86
588.50	49693.96
588.69	49661.19
588.89	49431.82
589.09	49548.56
589.29	49704.20
589.49	49941.77
589.69	49691.91
589.89	49884.42
590.08	49667.34
590.28	49618.19
590.48	49810.70
590.68	49712.39
590.88	49517.84
591.08	49632.52
591.28	49468.69
591.47	50048.26
591.67	49548.56
591.87	50070.79
592.07	49855.75
592.27	49896.71
592.47	49831.18
592.67	49919.24
592.86	49849.61
593.06	49927.43
593.26	49855.75
593.46	50259.20
593.66	50269.44
593.86	50394.37
594.05	49921.29
594.25	50351.36
594.45	49841.42
594.65	50830.58
594.85	50027.78
595.05	50529.53
595.24	50554.11
595.44	50017.54
595.64	50640.12
595.84	50525.44
596.04	50347.26
596.23	50681.08
596.43	50724.09
596.63	50617.60
596.83	50992.37
597.03	51166.45
597.22	50785.53
597.42	50922.74
597.62	50998.52
597.82	50699.51
598.02	50627.84
598.21	51162.36
598.41	51176.69
598.61	50969.85
598.81	50726.14
599.01	51324.14
599.20	51131.64
599.40	51004.66
599.60	51348.72
599.80	50967.80
600.00	50908.41
600.19	51549.42
600.39	51166.45
600.59	51737.83
600.79	51526.89
600.98	51729.64
601.18	51483.89
601.38	51743.98
601.58	51913.96
601.78	51617.00
601.97	51674.35
602.17	52135.14
602.37	52045.03
602.57	51993.83
602.76	52595.93
602.96	52034.79
603.16	51901.67
603.36	51717.35
603.55	52131.04
603.75	52589.79
603.95	52524.25
604.15	52550.88
604.34	52184.29
604.54	52278.50
604.74	52673.76
604.94	52659.42
605.13	52616.41
605.33	52450.53
605.53	52436.19
605.73	52667.61
605.92	52561.12
606.12	53128.41
606.32	53052.63
606.52	52790.49
606.71	52587.74
606.91	53216.47
607.11	52655.32
607.30	53183.70
607.50	53048.53
607.70	53206.23
607.90	52872.41
608.09	53130.45
608.29	53486.80
608.49	53255.38
608.68	52727.00
608.88	53361.87
609.08	53464.27
609.28	53503.18
609.47	53427.41
609.67	53931.21
609.87	53667.02
610.06	53779.66
610.26	53329.11
610.46	53593.29
610.66	53298.39
610.85	53834.95
611.05	53480.66
611.25	53843.15
611.44	53581.01
611.64	53609.68
611.84	54271.17
612.03	53931.21
612.23	54049.99
612.43	53798.09
612.62	53585.10
612.82	53927.11
613.02	54088.90
613.21	54475.97
613.41	54254.79
613.61	54303.94
613.80	53554.38
614.00	54086.85
614.20	54166.73
614.39	54410.43
614.59	54498.50
614.79	53894.35
614.98	53687.50
615.18	54353.09
615.38	54394.05
615.57	54133.96
615.77	54609.09
615.97	54545.60
616.16	54136.01
616.36	54181.06
616.56	54191.30
616.75	54222.02
616.95	54011.08
617.15	54572.22
617.34	54564.03
617.54	54295.75
617.74	54990.01
617.93	54289.60
618.13	53900.49
618.32	54523.07
618.52	54883.51
618.72	54553.79
618.91	54387.91
619.11	54088.90
619.31	54557.89
619.50	54158.53
619.70	54398.15
619.90	54826.17
620.09	54502.59
620.29	55051.45
620.48	54793.40
620.68	55174.33
620.88	54146.25
621.07	54750.40
621.27	54971.58
621.46	54404.29
621.66	55053.50
621.86	54721.72
622.05	54811.84
622.25	55350.45
622.44	54623.42
622.64	54987.96
622.84	54932.67
623.03	54701.25
623.23	55180.47
623.42	54617.28
623.62	54889.66
623.82	55375.03
624.01	55024.82
624.21	55067.83
624.40	55301.30
624.60	54951.10
624.80	54822.08
624.99	55110.84
625.19	54903.99
625.38	55035.06
625.58	55198.90
625.77	55329.97
625.97	55456.95
626.17	55246.00
626.36	55063.74
626.56	55573.68
626.75	54858.94
626.95	55360.69
627.14	55211.19
627.34	55358.64
627.54	55284.92
627.73	55348.40
627.93	55633.07
628.12	55037.11
628.32	55276.72
628.51	55338.16
628.71	55483.57
628.90	55358.64
629.10	55297.20
629.30	55592.11
629.49	55415.99
629.69	55792.81
629.88	55153.85
630.08	55891.12
630.27	55506.10
630.47	55903.40
630.66	55745.71
630.86	55874.73
631.05	55203.00
631.25	55835.82
631.44	56095.91
631.64	55780.52
631.84	55442.61
632.03	55774.38
632.23	55714.99
632.42	56353.96
632.62	55827.63
632.81	55499.95
633.01	55975.08
633.20	56370.34
633.40	56280.23
633.59	56265.89
633.79	55975.08
633.98	56224.93
634.18	56607.90
634.37	56190.12
634.57	55921.83
634.76	56630.43
634.96	56480.93
635.15	56124.58
635.35	56503.46
635.54	56026.28
635.74	56751.26
635.93	56335.52
636.13	56489.12
636.32	56720.54
636.52	56157.35
636.71	56603.81
636.91	56345.76
637.10	56515.75
637.30	56566.94
637.49	56722.59
637.69	56601.76
637.88	56982.68
638.08	56540.32
638.27	57042.07
638.46	56081.58
638.66	56591.52
638.85	56700.06
639.05	56810.65
639.24	56878.24
639.44	56853.66
639.63	57091.22
639.83	56657.06
640.02	56759.45
640.22	56753.31
640.41	57183.38
640.61	56751.26
640.80	57269.40
640.99	56837.28
641.19	57341.08
641.38	56925.34
641.58	57238.68
641.77	57175.19
641.97	57160.86
642.16	57558.16
642.36	57588.88
642.55	57611.41
642.74	57080.98
642.94	57951.37
643.13	57318.55
643.33	57203.86
643.52	57652.37
643.72	57822.35
643.91	57466.00
644.10	57537.68
644.30	57803.92
644.49	57697.42
644.69	57408.66
644.88	57678.99
645.08	57447.57
645.27	57474.20
645.46	57722.00
645.66	57916.56
645.85	57605.26
646.05	58283.14
646.24	58102.92
646.43	57975.95
646.63	58440.84
646.82	58539.14
647.02	57926.80
647.21	58231.94
647.40	58277.00
647.60	58590.34
647.79	58424.45
647.99	58113.16
648.18	58313.86
648.37	58295.43
648.57	58356.87
648.76	58086.54
648.96	57896.08
649.15	58471.56
649.34	58479.75
649.54	58293.38
649.73	58061.96
649.92	58481.80
650.12	58561.67
650.31	58467.46
650.51	58778.75
650.70	59038.84
650.89	58430.60
651.09	59155.58
651.28	58543.23
651.47	58868.86
651.67	58653.82
651.86	59257.98
652.06	58231.94
652.25	59024.51
652.44	58842.24
652.64	58436.74
652.83	58647.68
653.02	58565.76
653.22	58442.88
653.41	58981.50
653.60	58670.21
653.80	58328.20
653.99	59200.63
654.18	58885.25
654.38	58659.97
654.57	58940.54
654.76	58774.66
654.96	58551.43
655.15	58975.36
655.34	58492.04
655.54	58674.30
655.73	58750.08
655.92	58895.49
656.12	58717.31
656.31	58934.40
656.50	58532.99
656.70	58803.33
656.89	58643.59
657.08	58709.12
657.28	59098.23
657.47	58838.14
657.66	59083.90
657.86	58363.01
658.05	58326.15
658.24	59126.91
658.43	58616.96
658.63	58729.60
658.82	58604.67
659.01	58944.64
659.21	58725.50
659.40	59366.52
659.59	58748.03
659.79	59268.22
659.98	58922.11
660.17	58944.64
660.36	59034.75
660.56	59100.28
660.75	58954.88
660.94	59217.02
661.14	59217.02
661.33	58807.42
661.52	58154.12
661.71	59157.63
661.91	59214.97
662.10	58621.06
662.29	59339.89
662.49	58774.66
662.68	58852.48
662.87	58705.02
663.06	59012.22
663.26	58596.48
663.45	58954.88
663.64	58612.87
663.83	59282.55
664.03	59120.76
664.22	58848.38
664.41	59155.58
664.60	58690.69
664.80	59178.10
664.99	58547.33
665.18	58967.16
665.37	58997.88
665.57	59249.78
665.76	59004.03
665.95	59237.50
666.14	58866.81
666.34	58946.68
666.53	58498.18
666.72	58733.70
666.91	58709.12
667.11	57949.32
667.30	58686.59
667.49	58725.50
667.68	58725.50
667.87	58721.41
668.07	59026.56
668.26	58698.88
668.45	59073.66
668.64	58270.85
668.84	59024.51
669.03	58926.20
669.22	58537.09
669.41	58954.88
669.60	58883.20
669.80	58571.91
669.99	59102.33
670.18	58614.91
670.37	58469.51
670.57	59171.96
670.76	58621.06
670.95	58668.16
671.14	58635.39
671.33	58143.88
671.53	58774.66
671.72	58588.29
671.91	58221.70
672.10	58193.03
672.29	58563.71
672.48	58025.10
672.68	58997.88
672.87	58209.42
673.06	58426.50
673.25	58107.02
673.44	57967.76
673.64	57726.10
673.83	58154.12
674.02	58250.38
674.21	57619.60
674.40	58123.40
674.59	57767.05
674.79	57867.40
674.98	57423.00
675.17	58156.17
675.36	57902.22
675.55	57855.12
675.74	58066.06
675.94	57846.93
676.13	58039.43
676.32	58014.86
676.51	58209.42
676.70	58307.72
676.89	57947.28
677.08	57963.66
677.28	57787.53
677.47	58156.17
677.66	58021.00
677.85	57760.91
678.04	57887.88
678.23	58057.87
678.42	58041.48
678.62	57531.54
678.81	57758.86
679.00	57470.10
679.19	58143.88
679.38	57934.99
679.57	57582.74
679.76	57576.59
679.96	57676.94
680.15	57525.39
680.34	57250.97
680.53	57445.52
680.72	57437.33
680.91	57449.62
681.10	56960.15
681.29	57689.23
681.48	57148.57
681.68	57005.21
681.87	57169.05
682.06	57040.03
682.25	56779.93
682.44	57005.21
682.63	57248.92
682.82	56612.00
683.01	56718.49
683.20	56652.96
683.39	56868.00
683.59	56495.27
683.78	56319.14
683.97	56513.70
684.16	56845.47
684.35	56435.87
684.54	56448.16
684.73	56333.48
684.92	56458.40
685.11	56695.97
685.30	56399.01
685.49	56730.78
685.69	56358.05
685.88	56409.25
686.07	56431.78
686.26	55973.03
686.45	55973.03
686.64	56267.94
686.83	56083.62
687.02	55973.03
687.21	56155.30
687.40	56245.41
687.59	56038.57
687.78	56204.45
687.97	56075.43
688.16	55665.84
688.35	55717.04
688.54	55964.84
688.74	56257.70
688.93	55893.16
689.12	56132.78
689.31	56097.96
689.50	55727.28
689.69	55465.14
689.88	55071.93
690.07	55614.64
690.26	55844.01
690.45	56016.04
690.64	55420.08
690.83	55674.03
691.02	55671.98
691.21	55073.98
691.40	55131.32
691.59	55786.67
691.78	55100.60
691.97	55645.36
692.16	55469.23
692.35	55264.44
692.54	54957.24
692.73	55155.89
692.92	55164.09
693.11	55350.45
693.30	55463.09
693.49	54850.75
693.68	54711.49
693.87	54840.51
694.06	54639.81
694.25	54629.57
694.44	54375.62
694.63	54635.71
694.82	54744.25
695.01	54621.37
695.20	54305.99
695.39	54529.22
695.58	54215.88
695.77	54322.37
695.96	54285.51
696.15	54355.14
696.34	54170.82
696.53	54244.55
696.72	54394.05
696.91	53990.60
697.10	54680.77
697.29	54232.26
697.48	54385.86
697.67	54326.47
697.86	54064.33
698.05	53630.16
698.24	54242.50
698.43	53249.24
698.62	53705.93
698.81	53646.54
699.00	54146.25
699.19	53599.44
699.38	53757.13
699.57	53466.32
699.76	54131.91
699.95	53308.63
700.14	53929.16
700.32	53234.90
700.51	53433.55
700.70	54209.73
700.89	53781.71
701.08	53589.20
701.27	53394.64
701.46	54084.81
701.65	52843.74
701.84	53263.57
702.03	53794.00
702.22	53269.72
702.41	53300.43
702.60	53427.41
702.79	53318.87
702.98	52892.89
703.17	53003.48
703.35	52993.24
703.54	52636.89
703.73	53318.87
703.92	52964.57
704.11	52655.32
704.30	52296.93
704.49	53191.89
704.68	52514.01
704.87	52677.85
705.06	52692.19
705.25	52856.03
705.43	52575.45
705.62	52557.02
705.81	52532.45
706.00	52489.44
706.19	52153.57
706.38	52266.21
706.57	52376.80
706.76	52126.95
706.95	52212.96
707.14	52010.21
707.32	52368.61
707.51	52020.45
707.70	52278.50
707.89	52147.43
708.08	51782.89
708.27	52456.67
708.46	52860.12
708.65	52231.40
708.84	52518.11
709.02	52069.61
709.21	52012.26
709.40	51973.35
709.59	52319.46
709.78	51588.33
709.97	52395.23
710.16	51893.48
710.34	52047.08
710.53	51703.02
710.72	51741.93
710.91	51823.85
711.10	51999.97
711.29	51791.08
711.48	51567.85
711.66	51635.44
711.85	51807.47
712.04	51471.60
712.23	51557.61
712.42	51549.42
712.61	51041.53
712.80	51576.04
712.98	51006.71
713.17	50763.00
713.36	51506.41
713.55	51350.77
713.74	51363.06
713.93	51377.39
714.11	51008.76
714.30	51074.29
714.49	51168.50
714.68	51414.26
714.87	51031.29
715.06	51629.29
715.24	50885.88
715.43	50840.82
715.62	50660.60
715.81	50732.28
716.00	51092.72
716.18	50722.04
716.37	50713.85
716.56	50574.59
716.75	50869.50
716.94	50642.17
717.12	50443.52
717.31	50355.46
717.50	50824.44
717.69	50251.01
717.88	50312.45
718.06	50453.76
718.25	50922.74
718.44	49945.86
718.63	50554.11
718.82	50228.48
719.00	50205.95
719.19	50013.44
719.38	50179.33
719.57	49370.38
719.76	49280.27
719.94	49730.83
720.13	49548.56
720.32	49706.25
720.51	49919.24
720.69	49693.96
720.88	49720.59
721.07	49691.91
721.26	49282.32
721.44	49194.26
721.63	49540.36
721.82	49112.34
722.01	48784.66
722.20	49636.62
722.38	48968.98
722.57	48469.28
722.76	49024.28
722.95	49214.74
723.13	48612.63
723.32	48837.91
723.51	48827.67
723.70	48594.20
723.88	49149.20
724.07	48899.35
724.26	49181.97
724.44	48301.34
724.63	48715.03
724.82	48672.03
725.01	48727.32
725.19	48450.84
725.38	48518.43
725.57	48332.06
725.76	48313.63
725.94	48231.71
726.13	48669.98
726.32	48483.61
726.51	48084.26
726.69	48829.72
726.88	48338.21
727.07	48053.54
727.25	48137.51
727.44	48219.42
727.63	48487.71
727.82	48237.86
728.00	48360.73
728.19	48280.86
728.38	48633.11
728.56	47908.13
728.75	48065.83
728.94	47998.24
729.12	48309.53
729.31	48145.70
729.50	48342.30
729.69	47930.66
729.87	48198.94
730.06	48121.12
730.25	48489.76
730.43	48571.67
730.62	48174.37
730.81	48577.82
730.99	48717.08
731.18	48018.72
731.37	48278.82
731.55	48557.34
731.74	48399.65
731.93	48403.74
732.11	48215.33
732.30	48031.01
732.49	48100.64
732.67	48006.44
732.86	48043.30
733.05	48325.92
733.23	48063.78
733.42	48162.08
733.61	48018.72
733.79	48016.68
733.98	48799.00
734.17	47975.72
734.35	48080.16
734.54	48098.59
734.73	48364.83
734.91	48338.21
735.10	47551.79
735.29	48481.56
735.47	47562.03
735.66	47955.24
735.84	48016.68
736.03	47824.17
736.22	48434.46
736.40	48182.56
736.59	48303.39
736.78	48264.48
736.96	47750.44
737.15	47889.70
737.33	47736.10
737.52	47566.12
737.71	47934.76
737.89	47926.56
738.08	47684.90
738.27	48012.58
738.45	48379.17
738.64	48018.72
738.82	47799.59
739.01	47957.28
739.20	47850.79
739.38	48059.68
739.57	48028.96
739.75	47949.09
739.94	48317.73
740.13	47938.85
740.31	47963.43
740.50	47471.92
740.68	47914.28
740.87	47404.33
741.06	47748.39
741.24	47656.23
741.43	47220.02
741.61	47549.74
741.80	47045.94
741.99	47398.19
742.17	47551.79
742.36	47478.06
742.54	47263.02
742.73	47314.22
742.91	47740.20
743.10	47543.59
743.29	47701.29
743.47	47582.51
743.66	47564.07
743.84	47478.06
744.03	47531.31
744.21	47445.29
744.40	47402.28
744.59	47185.20
744.77	47365.42
744.96	47502.64
745.14	47547.69
745.33	47549.74
745.51	47338.80
745.70	47281.45
745.88	47293.74
746.07	47729.96
746.26	47002.93
746.44	47297.84
746.63	46810.42
746.81	47179.06
747.00	46896.44
747.18	47449.39
747.37	47367.47
747.55	47291.69
747.74	47273.26
747.92	46884.15
748.11	46867.76
748.29	46835.00
748.48	47260.97
748.66	46832.95
748.85	46933.30
749.03	46912.82
749.22	46538.04
749.41	46898.48
749.59	46966.07
749.78	46736.69
749.96	46392.64
750.15	46478.65
750.33	46660.92
750.52	46413.12
750.70	46646.58
750.89	46525.75
751.07	45976.90
751.26	46568.76
751.44	46667.06
751.63	46529.85
751.81	46265.66
752.00	46544.19
752.18	46609.72
752.37	46366.01
752.55	45780.29
752.74	46333.24
752.92	45993.28
753.10	46177.60
753.29	46384.44
753.47	45913.41
753.66	45669.70
753.84	46460.22
754.03	45868.36
754.21	46079.30
754.40	46021.95
754.58	46146.88
754.77	45706.57
754.95	45430.09
755.14	45794.63
755.32	45811.01
755.51	45544.78
755.69	45593.93
755.88	45675.85
756.06	45944.13
756.24	45700.42
756.43	45894.98
756.61	45675.85
756.80	45823.30
756.98	45712.71
757.17	45358.41
757.35	45741.38
757.54	45739.33
757.72	45610.31
757.90	45516.11
758.09	45436.23
758.27	45485.39
758.46	45454.67
758.64	45647.18
758.83	45970.75
759.01	45178.19
759.19	45516.11
759.38	45428.04
759.56	45634.89
759.75	45503.82
759.93	45155.66
760.12	45385.04
760.30	45649.22
760.48	45208.91
760.67	45221.20
760.85	45184.33
761.04	44965.20
761.22	45092.18
761.40	44819.80
761.59	44922.19
761.77	44737.88
761.96	45086.03
762.14	45151.57
762.32	44827.99
762.51	44608.86
762.69	45028.69
762.88	45022.54
763.06	44811.60
763.24	44914.00
763.43	45151.57
763.61	44498.26
763.80	44453.21
763.98	44658.01
764.16	44776.79
764.35	44461.40
764.53	44412.25
764.72	44774.74
764.90	44623.19
765.08	44103.01
765.27	44213.60
765.45	43943.27
765.63	43875.68
765.82	44404.06
766.00	44430.68
766.18	43900.26
766.37	44172.64
766.55	44279.13
766.74	43969.89
766.92	43763.04
767.10	44301.66
767.29	43920.74
767.47	43840.87
767.65	44272.99
767.84	43232.62
768.02	43849.06
768.20	43308.40
768.39	44125.53
768.57	43982.18
768.75	43431.27
768.94	43832.68
769.12	43834.72
769.30	43519.34
769.49	43711.84
769.67	43484.52
769.85	43201.90
770.04	43478.38
770.22	43189.61
770.40	43072.88
770.59	43259.24
770.77	43308.40
770.95	43332.97
771.14	42964.34
771.32	42417.53
771.50	42569.08
771.69	42607.99
771.87	42968.43
772.05	42327.42
772.24	42173.82
772.42	42718.58
772.60	42507.64
772.78	42636.66
772.97	42386.81
773.15	42655.09
773.33	42493.30
773.52	42235.26
773.70	42278.27
773.88	42943.86
774.07	42438.01
774.25	42476.92
774.43	42638.71
774.61	42911.09
774.80	42435.96
774.98	42605.94
775.16	42675.57
775.34	42499.45
775.53	42112.38
775.71	42714.48
775.89	42378.62
776.08	42614.13
776.26	42485.11
776.44	42683.76
776.62	42587.51
776.81	42751.35
776.99	42743.16
777.17	42818.93
777.35	42843.51
777.54	43150.70
777.72	42734.96
777.90	42790.26
778.08	43314.54
778.27	42829.17
778.45	42993.01
778.63	43644.26
778.81	42771.83
779.00	43509.10
779.18	43435.37
779.36	43294.06
779.54	43072.88
779.73	42904.95
779.91	43218.28
780.09	42906.99
780.27	43429.23
780.46	43459.94
780.64	43341.16
780.82	43509.10
781.00	43324.78
781.19	43722.08
781.37	43416.94
781.55	43484.52
781.73	43543.91
781.91	43529.58
782.10	43533.67
782.28	43451.75
782.46	43554.15
782.64	43740.52
782.82	43418.99
783.01	43816.29
783.19	43560.30
783.37	43787.62
783.55	43283.82
783.74	43742.56
783.92	43427.18
784.10	43783.52
784.28	43507.05
784.46	43525.48
784.64	43619.69
784.83	43464.04
785.01	44008.80
785.19	43492.71
785.37	43740.52
785.55	43351.40
785.74	43246.96
785.92	43332.97
786.10	43455.85
786.28	43400.55
786.46	43443.56
786.64	42820.98
786.83	43601.25
787.01	43162.99
787.19	43474.28
787.37	42982.77
787.55	43470.18
787.74	42833.27
787.92	43244.91
788.10	42780.02
788.28	42681.72
788.46	42982.77
788.64	42866.03
788.82	43148.65
789.01	43029.87
789.19	42812.79
789.37	42472.82
789.55	42671.48
789.73	42585.46
789.91	42630.52
790.09	42786.16
790.28	42843.51
790.46	41964.93
790.64	42337.66
790.82	42319.23
791.00	42403.19
791.18	41792.90
791.36	42200.44
791.55	41895.30
791.73	41823.62
791.91	41672.07
792.09	41659.78
792.27	41930.11
792.45	41557.38
792.63	41430.41
792.81	41059.73
793.00	41049.49
793.18	41063.82
793.36	41368.97
793.54	41403.78
793.72	40736.15
793.90	40609.17
794.08	40592.79
794.26	40639.89
794.44	40310.17
794.62	40379.80
794.81	40342.94
794.99	40623.51
795.17	40392.09
795.35	40351.13
795.53	40084.89
795.71	40379.80
795.89	40164.76
796.07	39671.20
796.25	39740.83
796.43	39660.96
796.61	39378.34
796.80	39730.59
796.98	39452.07
797.16	39417.25
797.34	38921.65
797.52	39329.19
797.70	39300.52
797.88	39294.38
798.06	38753.71
798.24	38872.49
798.42	38647.22
798.60	38833.58
798.78	38888.88
798.96	38413.75
799.14	38548.92
799.32	38473.14
799.51	38114.75
799.69	38217.14
799.87	38088.12
800.05	37807.55
800.23	38006.20
800.41	37950.91
800.59	37701.06
800.77	37553.60
800.95	37664.19
801.13	37914.05
801.31	37338.57
801.49	37252.55
801.67	36982.22
801.85	37582.27
802.03	36888.01
802.21	36644.30
802.39	36890.06
802.57	36492.76
802.75	36804.05
802.93	36754.90
803.11	36474.32
803.29	36089.31
803.47	36357.59
803.65	36247.00
803.83	35966.43
804.01	36001.24
804.19	36023.77
804.37	35749.34
804.55	35681.76
804.73	35909.08
804.91	35943.90
805.09	35507.68
805.27	35569.12
805.45	35855.84
805.63	35655.14
805.81	35407.33
805.99	35356.13
806.17	35452.39
806.35	35384.80
806.53	35081.70
806.71	35210.73
806.89	35028.46
807.07	35087.85
807.25	34911.72
807.43	34577.90
807.61	34844.14
807.79	34614.77
807.97	34606.58
808.15	34332.15
808.33	34342.39
808.51	33983.99
808.69	34237.94
808.87	34090.49
809.05	33740.29
809.23	34072.06
809.41	33312.26
809.59	33684.99
809.77	34082.30
809.95	33615.36
810.13	33820.16
810.31	33369.60
810.49	33467.91
810.67	33480.19
810.84	33338.88
811.02	33525.25
811.20	33299.97
811.38	33295.88
811.56	32771.60
811.74	33066.50
811.92	33089.03
812.10	32484.88
812.28	32781.84
812.46	32761.36
812.64	32871.95
812.82	32437.78
813.00	32568.85
813.18	32738.83
813.36	32353.81
813.53	32343.57
813.71	32431.63
813.89	32357.91
814.07	32458.26
814.25	32089.62
814.43	31874.59
814.61	31995.42
814.79	31893.02
814.97	31620.64
815.15	32138.77
815.33	31280.67
815.50	31356.45
815.68	31731.23
815.86	31520.29
816.04	31286.82
816.22	31538.72
816.40	31452.70
816.58	31516.19
816.76	31321.63
816.94	30989.86
817.11	30998.06
817.29	31088.17
817.47	30565.93
817.65	30860.84
817.83	30950.95
818.01	30561.84
818.19	30467.63
818.37	30762.54
818.54	30576.17
818.72	30377.52
818.90	30453.30
819.08	30651.95
819.26	30422.58
819.44	30139.96
819.62	30256.69
819.80	30168.63
819.97	30168.63
820.15	30027.32
820.33	30070.33
820.51	30060.09
820.69	29570.62
820.87	30076.47
821.05	29900.34
821.22	29822.52
821.40	30006.84
821.58	29849.14
821.76	29675.07
821.94	29310.53
822.12	29480.51
822.29	29808.19
822.47	29113.92
822.65	29636.16
822.83	29408.83
823.01	29410.88
823.19	29417.02
823.36	28913.22
823.54	28829.26
823.72	28902.98
823.90	28921.41
824.08	28755.53
824.25	28870.22
824.43	28657.23
824.61	29036.10
824.79	28995.14
824.97	28556.88
825.15	28708.43
825.32	28528.20
825.50	28755.53
825.68	28706.38
825.86	28790.34
826.04	28474.96
826.21	28405.33
826.39	28583.50
826.57	28284.50
826.75	28524.11
826.93	27883.09
827.10	27962.97
827.28	28143.19
827.46	28225.11
827.64	28016.21
827.81	27825.75
827.99	28010.07
828.17	27799.13
828.35	27612.76
828.53	28032.60
828.70	27493.98
828.88	27547.23
829.06	27516.51
829.24	27629.15
829.41	27332.19
829.59	27387.49
829.77	27334.24
829.95	27166.31
830.12	27561.56
830.30	27162.21
830.48	27307.62
830.66	27467.36
830.84	27184.74
831.01	27092.58
831.19	27256.42
831.37	26818.15
831.55	27135.59
831.72	27090.53
831.90	26920.55
832.08	26889.83
832.25	26879.59
832.43	27076.19
832.61	26752.62
832.79	26349.17
832.96	26545.77
833.14	26709.61
833.32	26852.97
833.50	26588.78
833.67	26668.65
833.85	26596.97
834.03	26203.76
834.20	26584.68
834.38	26478.19
834.56	26340.97
834.74	26166.90
834.91	26295.92
835.09	26205.81
835.27	26125.94
835.44	25851.51
835.62	25831.03
835.80	25933.43
835.98	26265.20
836.15	25878.13
836.33	26025.59
836.51	25976.44
836.68	25966.20
836.86	25527.93
837.04	25818.74
837.21	25798.26
837.39	25976.44
837.57	26044.02
837.75	25980.53
837.92	25628.28
838.10	25583.23
838.28	25026.18
838.45	25507.45
838.63	25290.37
838.81	25429.63
838.98	25022.08
839.16	25265.79
839.34	25196.16
839.51	25298.56
839.69	25099.90
839.87	25149.06
840.04	24829.57
840.22	25237.12
840.40	25007.75
840.57	24757.89
840.75	24706.70
840.93	24772.23
841.10	24856.20
841.28	24974.98
841.46	24848.00
841.63	24981.12
841.81	24739.46
841.98	24706.70
842.16	24540.81
842.34	24606.34
842.51	24524.43
842.69	24899.20
842.87	24501.90
843.04	24469.13
843.22	24546.95
843.40	24151.70
843.57	24401.55
843.75	24538.76
843.92	24116.88
844.10	24493.71
844.28	24419.98
844.45	24053.39
844.63	24174.22
844.81	24100.50
844.98	24301.20
845.16	24383.12
845.33	24049.30
845.51	23961.23
845.69	24000.15
845.86	23864.98
846.04	23758.49
846.21	23692.95
846.39	24020.63
846.57	23588.50
846.74	23637.66
846.92	24067.73
847.09	23379.61
847.27	23436.95
847.45	23731.86
847.62	23621.27
847.80	23828.12
847.97	23471.77
848.15	23410.33
848.32	23316.12
848.50	23479.96
848.68	23129.76
848.85	23158.43
849.03	23187.10
849.20	23256.73
849.38	23209.63
849.56	23146.14
849.73	23144.09
849.91	23287.45
850.08	23291.55
850.26	23058.08
850.43	23094.94
850.61	23133.86
850.78	22701.73
850.96	22972.07
851.14	22470.31
851.31	23021.22
851.49	23045.79
851.66	23301.79
851.84	22982.31
852.01	22890.15
852.19	22572.71
852.36	22484.65
852.54	22886.05
852.71	22810.28
852.89	22441.64
853.07	22474.41
853.24	22744.74
853.42	22619.81
853.59	22537.90
853.77	22435.50
853.94	22509.22
854.12	22599.34
854.29	22068.91
854.47	22404.78
854.64	22347.44
854.82	22466.22
854.99	22507.18
855.17	22097.58
855.34	22453.93
855.52	22288.04
855.69	22226.60
855.87	22058.67
856.04	21935.79
856.22	22290.09
856.39	21847.73
856.57	22144.69
856.74	21886.64
856.92	21950.13
857.09	21460.66
857.27	21849.78
857.44	21968.56
857.62	21913.27
857.79	21868.21
857.97	21747.38
858.14	21647.03
858.32	21669.56
858.49	21685.94
858.67	21491.38
858.84	21368.51
859.02	21638.84
859.19	21571.25
859.37	21649.08
859.54	21470.90
859.72	21460.66
859.89	21384.89
860.06	21655.22
860.24	20936.38
860.41	21575.35
860.59	21059.26
860.76	21831.35
860.94	21280.44
861.11	21407.42
861.29	21141.18
861.46	21178.04
861.64	20991.68
861.81	20764.36
861.98	21081.79
862.16	20844.23
862.33	20954.82
862.51	21032.64
862.68	21053.12
862.86	20883.14
863.03	20862.66
863.21	20713.16
863.38	20776.64
863.55	20747.97
863.73	20977.34
863.90	20668.10
864.08	20817.60
864.25	20717.25
864.43	20883.14
864.60	20502.22
864.77	20356.81
864.95	20553.41
865.12	20195.02
865.30	20555.46
865.47	20342.47
865.64	20229.84
865.82	20367.05
865.99	20352.71
866.17	20270.79
866.34	20291.27
866.51	20229.84
866.69	20457.16
866.86	20207.31
867.04	20295.37
867.21	20180.68
867.38	20102.86
867.56	19887.82
867.73	19945.17
867.91	20098.77
868.08	19953.36
868.25	19896.02
868.43	19764.95
868.60	19697.36
868.78	19408.60
868.95	19818.19
869.12	19539.67
869.30	19408.60
869.47	19535.57
869.64	19502.81
869.82	19631.83
869.99	19375.83
870.16	19574.49
870.34	19508.95
870.51	19799.76
870.69	19379.93
870.86	19674.84
871.03	19320.54
871.21	19328.73
871.38	19359.45
871.55	19334.87
871.73	19310.30
871.90	19250.91
872.07	19111.64
872.25	18892.51
872.42	19035.87
872.59	19166.94
872.77	19166.94
872.94	19293.91
873.11	18876.13
873.29	19025.63
873.46	18829.02
873.63	18966.24
873.81	18804.45
873.98	18867.94
874.15	18657.00
874.33	18861.79
874.50	18462.44
874.67	18996.96
874.85	18695.91
875.02	18493.16
875.19	18441.96
875.37	18280.17
875.54	18282.22
875.71	18616.04
875.88	18357.99
876.06	18163.43
876.23	18267.88
876.40	18333.42
876.58	18175.72
876.75	18247.40
876.92	17968.88
877.10	18394.86
877.27	18099.95
877.44	17882.86
877.61	17743.60
877.79	17757.94
877.96	17790.70
878.13	17942.25
878.31	17653.49
878.48	17712.88
878.65	17608.44
878.82	17680.11
879.00	17911.53
879.17	17848.05
879.34	17794.80
879.51	17526.52
879.69	17614.58
879.86	17594.10
880.03	17403.64
880.21	17454.84
880.38	17315.58
880.55	17571.57
880.72	17372.92
880.90	17491.70
881.07	17270.52
881.24	17606.39
881.41	17469.17
881.59	17336.06
881.76	17278.71
881.93	17094.40
882.10	17020.67
882.28	16871.17
882.45	17168.12
882.62	17032.96
882.79	17178.36
882.96	16707.33
883.14	17035.00
883.31	17172.22
883.48	16983.80
883.65	16979.71
883.83	17065.72
884.00	16756.48
884.17	16854.78
884.34	17084.16
884.51	16776.96
884.69	17108.73
884.86	16805.63
885.03	16674.56
885.20	16731.90
885.38	16903.93
885.55	16568.07
885.72	16654.08
885.89	16654.08
886.06	16609.03
886.24	16502.53
886.41	16592.64
886.58	16871.17
886.75	16914.17
886.92	16449.28
887.10	16633.60
887.27	16379.65
887.44	16465.67
887.61	16633.60
887.78	16559.88
887.95	16424.71
888.13	16127.75
888.30	16371.46
888.47	16301.83
888.64	16447.24
888.81	16187.14
888.99	16103.18
889.16	16215.82
889.33	16221.96
889.50	16181.00
889.67	16099.08
889.84	16037.64
890.01	16076.55
890.19	16234.25
890.36	16250.63
890.53	16176.91
890.70	15785.74
890.87	15990.54
891.04	15841.04
891.22	15537.94
891.39	15822.61
891.56	15759.12
891.73	15771.41
891.90	15591.19
892.07	15456.02
892.24	15859.47
892.42	15724.30
892.59	15558.42
892.76	15542.03
892.93	15570.71
893.10	15601.43
893.27	15544.08
893.44	15486.74
893.61	15421.20
893.79	15595.28
893.96	15542.03
894.13	15748.88
894.30	15449.88
894.47	15589.14
894.64	15470.36
894.81	15709.97
894.98	15552.27
895.15	15728.40
895.33	15626.00
895.50	15329.05
895.67	15521.56
895.84	15361.81
896.01	15503.12
896.18	15161.11
896.35	15511.32
896.52	15501.08
896.69	15204.12
896.86	15443.73
897.04	15339.29
897.21	15525.65
897.38	15523.60
897.55	15460.12
897.72	15294.23
897.89	15591.19
898.06	15329.05
898.23	15417.11
898.40	15427.35
898.57	15433.49
898.74	15333.14
898.91	15339.29
899.08	15382.29
899.26	15154.97
899.43	15482.64
899.60	15091.48
899.77	15316.76
899.94	15294.23
900.11	15214.36
900.28	15163.16
900.45	15316.76
900.62	15335.19
900.79	15417.11
900.96	15310.61
901.13	15290.13
901.30	15240.98
901.47	15200.02
901.64	15165.21
901.81	15032.09
901.98	15126.30
902.15	15464.21
902.32	14974.75
902.49	15189.78
902.66	15380.25
902.83	15124.25
903.01	15048.47
903.18	15355.67
903.35	15148.82
903.52	15118.11
903.69	15431.44
903.86	15542.03
904.03	15159.06
904.20	15208.22
904.37	15429.40
904.54	15154.97
904.71	15107.87
904.88	15042.33
905.05	15107.87
905.22	15202.07
905.39	15202.07
905.56	15152.92
905.73	15415.06
905.90	15195.93
906.07	15345.43
906.24	15527.70
906.41	15265.56
906.58	15216.41
906.75	15181.59
906.92	15238.94
907.09	15376.15
907.26	15300.37
907.43	15048.47
907.60	15023.90
907.77	15222.55
907.93	15114.01
908.10	15130.39
908.27	15429.40
908.44	15167.26
908.61	15005.47
908.78	14974.75
908.95	15183.64
909.12	14907.16
909.29	15071.00
909.46	15120.15
909.63	15200.02
909.80	15150.87
909.97	15122.20
910.14	15071.00
910.31	15118.11
910.48	15146.78
910.65	14944.03
910.82	15048.47
910.99	15009.56
911.16	15122.20
911.33	14968.60
911.50	14962.46
911.66	15181.59
911.83	14927.64
912.00	15021.85
912.17	14649.12
912.34	14999.32
912.51	14552.87
912.68	14724.90
912.85	15023.90
913.02	14831.39
913.19	14731.04
913.36	15007.52
913.53	14739.23
913.70	14534.43
913.86	14700.32
914.03	14679.84
914.20	14632.74
914.37	14470.95
914.54	14749.47
914.71	14640.93
914.88	14659.36
915.05	14378.79
915.22	14610.21
915.39	14462.76
915.55	14606.11
915.72	14284.58
915.89	14214.95
916.06	14108.46
916.23	14286.63
916.40	14251.81
916.57	14292.77
916.74	13817.65
916.91	14149.42
917.07	14094.12
917.24	13954.86
917.41	14137.13
917.58	14036.78
917.75	13930.28
917.92	13877.04
918.09	13961.00
918.26	13690.67
918.42	13684.53
918.59	13662.00
918.76	13705.01
918.93	13649.71
919.10	13709.10
919.27	13625.14
919.44	13848.36
919.60	13483.83
919.77	13645.62
919.94	13516.59
920.11	13492.02
920.28	13489.97
920.45	13201.21
920.61	13317.94
920.78	13225.78
920.95	13254.45
921.12	13270.84
921.29	12965.69
921.46	13193.01
921.62	12969.79
921.79	13051.70
921.96	12742.46
922.13	12951.35
922.30	12918.59
922.47	12848.96
922.63	12920.63
922.80	12951.35
922.97	12836.67
923.14	12601.15
923.31	12760.89
923.47	12713.79
923.64	12808.00
923.81	12562.24
923.98	12455.75
924.15	12609.34
924.32	12408.64
924.48	12498.75
924.65	12457.79
924.82	12250.95
924.99	12279.62
925.15	11921.23
925.32	12240.71
925.49	12064.58
925.66	12058.44
925.83	12052.30
925.99	11908.94
926.16	12029.77
926.33	12029.77
926.50	11792.20
926.67	11741.00
926.83	11745.10
927.00	11695.95
927.17	11700.05
927.34	11620.17
927.50	11452.24
927.67	11628.37
927.84	11589.46
928.01	11257.68
928.17	11491.15
928.34	11392.85
928.51	11341.65
928.68	11388.75
928.84	11128.66
929.01	11038.55
929.18	11079.51
929.35	11054.94
929.51	11198.29
929.68	10934.11
929.85	10846.04
930.02	10827.61
930.18	10737.50
930.35	10772.32
930.52	10825.56
930.69	10997.59
930.85	10753.88
931.02	10504.03
931.19	10487.65
931.36	10489.70
931.52	10608.48
931.69	10485.60
931.86	10520.42
932.02	10438.50
932.19	10297.19
932.36	10405.73
932.53	10327.91
932.69	10205.03
932.86	10258.28
933.03	10293.09
933.19	9836.39
933.36	9883.50
933.53	10166.12
933.70	9955.18
933.86	9875.31
934.03	9965.42
934.20	9791.34
934.36	9772.91
934.53	9592.69
934.70	9219.96
934.86	9521.01
935.03	9379.70
935.20	9324.40
935.36	9342.83
935.53	9338.74
935.70	9246.58
935.86	9242.48
936.03	9070.45
936.20	8724.35
936.36	8904.57
936.53	8722.30
936.70	8642.43
936.86	8871.80
937.03	8787.83
937.20	8556.41
937.36	8531.84
937.53	8355.71
937.70	8056.71
937.86	8083.33
938.03	8056.71
938.20	8181.64
938.36	7831.43
938.53	7921.54
938.70	7860.10
938.86	7712.65
939.03	7620.49
939.20	7604.11
939.36	7501.71
939.53	7350.16
939.70	7483.28
939.86	7083.92
940.03	7112.60
940.19	7051.16
940.36	7053.20
940.53	6987.67
940.69	6956.95
940.86	6864.79
941.03	6756.25
941.19	6614.94
941.36	6580.12
941.52	6481.82
941.69	6389.66
941.86	6449.05
942.02	6465.44
942.19	6291.36
942.35	6424.48
942.52	6164.39
942.69	6160.29
942.85	6035.36
943.02	6127.52
943.18	6000.55
943.35	5926.82
943.52	5894.05
943.68	5781.42
943.85	5803.94
944.01	5846.95
944.18	5719.98
944.35	5793.70
944.51	5769.13
944.68	5660.59
944.84	5629.87
945.01	5525.42
945.17	5603.24
945.34	5642.15
945.51	5660.59
945.67	5705.64
945.84	5601.19
946.00	5545.90
946.17	5500.84
946.33	5521.32
946.50	5621.67
946.67	5429.17
946.83	5367.73
947.00	5597.10
947.16	5482.41
947.33	5431.21
947.49	5334.96
947.66	5332.91
947.82	5388.21
947.99	5398.45
948.16	5396.40
948.32	5457.84
948.49	5492.65
948.65	5558.19
948.82	5380.01
948.98	5511.08
949.15	5377.97
949.31	5332.91
949.48	5599.15
949.64	5562.28
949.81	5418.93
949.97	5400.49
950.14	5519.28
950.30	5414.83
950.47	5351.34
950.63	5656.49
950.80	5541.80
950.96	5525.42
951.13	5470.12
951.30	5558.19
951.46	5609.39
951.63	5556.14
951.79	5554.09
951.96	5623.72
952.12	5599.15
952.29	5640.11
952.45	5439.40
952.62	5644.20
952.78	5681.07
952.94	5457.84
953.11	5576.62
953.27	5550.00
953.44	5586.86
953.60	5601.19
953.77	5625.77
953.93	5603.24
954.10	5547.95
954.26	5509.04
954.43	5513.13
954.59	5625.77
954.76	5742.50
954.92	5674.92
955.09	5775.27
955.25	5603.24
955.42	5638.06
955.58	5621.67
955.75	5607.34
955.91	5773.22
956.07	5674.92
956.24	5613.48
956.40	5554.09
956.57	5744.55
956.73	5541.80
956.90	5660.59
957.06	5558.19
957.23	5595.05
957.39	5568.43
957.56	5793.70
957.72	5590.95
957.88	5492.65
958.05	5617.58
958.21	5744.55
958.38	5818.28
958.54	5605.29
958.71	5742.50
958.87	5599.15
959.03	5488.56
959.20	5685.16
959.36	5541.80
959.53	5691.31
959.69	5664.68
959.85	5679.02
960.02	5451.69
960.18	5570.48
960.35	5629.87
960.51	5703.59
960.68	5556.14
960.84	5652.39
961.00	5521.32
961.17	5623.72
961.33	5627.82
961.50	5707.69
961.66	5660.59
961.82	5605.29
961.99	5629.87
962.15	5658.54
962.31	5404.59
962.48	5670.83
962.64	5642.15
962.81	5674.92
962.97	5662.63
963.13	5689.26
963.30	5588.91
963.46	5527.47
963.62	5484.46
963.79	5547.95
963.95	5435.31
964.12	5466.03
964.28	5611.43
964.44	5482.41
964.61	5574.57
964.77	5558.19
964.93	5625.77
965.10	5578.67
965.26	5382.06
965.42	5560.24
965.59	5402.54
965.75	5476.27
965.92	5627.82
966.08	5468.08
966.24	5431.21
966.41	5449.64
966.57	5367.73
966.73	5443.50
966.90	5443.50
967.06	5445.55
967.22	5447.60
967.39	5568.43
967.55	5375.92
967.71	5261.23
967.88	5355.44
968.04	5330.86
968.20	5263.28
968.37	5334.96
968.53	5287.86
968.69	5308.34
968.85	5371.82
969.02	5369.77
969.18	5384.11
969.34	5337.01
969.51	5402.54
969.67	5310.38
969.83	5298.10
970.00	5314.48
970.16	5248.94
970.32	5203.89
970.48	5402.54
970.65	5167.03
970.81	5081.01
970.97	5205.94
971.14	5072.82
971.30	5332.91
971.46	5115.83
971.63	5304.24
971.79	5187.50
971.95	5144.50
972.11	4990.90
972.28	5119.92
972.44	5138.35
972.60	4958.13
972.76	5029.81
972.93	5214.13
973.09	5160.88
973.25	5062.58
973.42	5027.76
973.58	5181.36
973.74	5091.25
973.90	5187.50
974.07	5066.67
974.23	5130.16
974.39	5095.35
974.55	4886.45
974.72	4933.56
974.88	4890.55
975.04	5007.28
975.20	4872.12
975.37	5021.62
975.53	4868.02
975.69	4902.84
975.85	4898.74
976.01	4917.17
976.18	4804.53
976.34	4929.46
976.50	5013.43
976.66	4962.23
976.83	4753.34
976.99	4806.58
977.15	4880.31
977.31	4607.93
977.47	4925.36
977.64	4739.00
977.80	4808.63
977.96	4743.10
978.12	4800.44
978.29	4693.94
978.45	4659.13
978.61	4724.66
978.77	4718.52
978.93	4644.79
979.10	4759.48
979.26	4702.14
979.42	4659.13
979.58	4532.15
979.74	4628.41
979.91	4669.37
980.07	4573.11
980.23	4698.04
980.39	4540.35
980.55	4523.96
980.71	4708.28
980.88	4476.86
981.04	4483.00
981.20	4603.83
981.36	4456.38
981.52	4513.72
981.68	4401.08
981.85	4505.53
982.01	4523.96
982.17	4526.01
982.33	4435.90
982.49	4620.22
982.65	4462.52
982.82	4440.00
982.98	4464.57
983.14	4218.82
983.30	4415.42
983.46	4384.70
983.62	4370.37
983.79	4302.78
983.95	4417.47
984.11	4308.93
984.27	4345.79
984.43	4265.92
984.59	4356.03
984.75	4417.47
984.91	4339.65
985.08	4358.08
985.24	4345.79
985.40	4181.95
985.56	4265.92
985.72	4280.25
985.88	4345.79
986.04	4179.90
986.20	4134.85
986.37	4323.26
986.53	4243.39
986.69	4179.90
986.85	4116.42
987.01	4024.26
987.17	4102.08
987.33	4165.57
987.49	4036.55
987.65	4102.08
987.82	4083.65
987.98	4022.21
988.14	4016.07
988.30	4167.62
988.46	3960.77
988.62	4132.80
988.78	4011.97
988.94	3987.40
989.10	3946.44
989.26	4020.16
989.42	3891.14
989.59	3923.91
989.75	3901.38
989.91	4075.46
990.07	3817.41
990.23	3874.76
990.39	3946.44
990.55	4054.98
990.71	3987.40
990.87	3854.28
991.03	3852.23
991.19	3903.43
991.35	3772.36
991.51	3850.18
991.67	3862.47
991.83	3872.71
992.00	3870.66
992.16	3819.46
992.32	3860.42
992.48	3821.51
992.64	3702.73
992.80	3860.42
992.96	3737.54
993.12	3762.12
993.28	3803.08
993.44	3721.16
993.60	3821.51
993.76	3831.75
993.92	3778.50
994.08	3704.78
994.24	3764.17
994.40	3755.97
994.56	3717.06
994.72	3637.19
994.88	3706.82
995.04	3676.10
995.20	3477.45
995.36	3579.85
995.52	3600.33
995.68	3647.43
995.84	3475.40
996.00	3782.60
996.16	3522.51
996.32	3506.12
996.48	3624.90
996.64	3708.87
996.80	3467.21
996.96	3477.45
997.12	3481.55
997.28	3499.98
997.44	3432.40
997.60	3426.25
997.76	3416.01
997.92	3612.62
998.08	3545.03
998.24	3434.44
998.40	3489.74
998.56	3489.74
998.72	3327.95
998.88	3373.00
999.04	3391.44
999.20	3440.59
999.36	3385.29
999.52	3499.98
999.68	3416.01
999.84	3454.92
1000.00	3440.59
1000.16	3428.30
1000.32	3235.79
1000.48	3467.21
1000.64	3190.74
1000.80	3360.72
1000.95	3203.02
1001.11	3305.42
1001.27	3215.31
1001.43	3243.98
1001.59	3203.02
1001.75	3192.78
1001.91	3231.69
1002.07	3190.74
1002.23	3121.10
1002.39	3198.93
1002.55	3272.65
1002.71	3170.26
1002.87	3104.72
1003.03	3170.26
1003.19	3133.39
1003.34	3280.85
1003.50	3209.17
1003.66	3235.79
1003.82	3203.02
1003.98	3088.34
1004.14	3106.77
1004.30	3041.23
1004.46	3035.09
1004.62	3059.67
1004.78	2930.64
1004.94	3051.47
1005.09	3172.30
1005.25	3082.19
1005.41	2990.03
1005.57	2975.70
1005.73	3008.47
1005.89	3037.14
1006.05	3037.14
1006.21	3069.91
1006.37	3074.00
1006.52	3069.91
1006.68	2863.06
1006.84	3090.38
1007.00	2932.69
1007.16	3022.80
1007.32	2897.88
1007.48	2895.83
1007.64	2977.75
1007.79	2922.45
1007.95	2850.77
1008.11	2953.17
1008.27	2918.36
1008.43	2985.94
1008.59	3051.47
1008.75	2961.36
1008.91	2875.35
1009.06	2856.92
1009.22	2918.36
1009.38	2863.06
1009.54	2895.83
1009.70	2815.96
1009.86	2856.92
1010.01	2865.11
1010.17	2883.54
1010.33	2897.88
1010.49	2758.61
1010.65	2854.87
1010.81	2787.29
1010.96	2719.70
1011.12	2777.05
1011.28	2744.28
1011.44	2803.67
1011.60	2719.70
1011.76	2785.24
1011.91	2854.87
1012.07	2650.07
1012.23	2633.69
1012.39	2736.09
1012.55	2723.80
1012.71	2680.79
1012.86	2684.89
1013.02	2721.75
1013.18	2707.41
1013.34	2654.17
1013.50	2715.61
1013.65	2639.83
1013.81	2629.59
1013.97	2566.10
1014.13	2650.07
1014.29	2633.69
1014.44	2715.61
1014.60	2592.73
1014.76	2648.02
1014.92	2596.82
1015.07	2705.37
1015.23	2650.07
1015.39	2570.20
1015.55	2527.19
1015.71	2527.19
1015.86	2576.34
1016.02	2527.19
1016.18	2508.76
1016.34	2553.82
1016.49	2582.49
1016.65	2576.34
1016.81	2494.43
1016.97	2553.82
1017.12	2613.21
1017.28	2471.90
1017.44	2369.50
1017.60	2480.09
1017.75	2496.47
1017.91	2455.51
1018.07	2488.28
1018.23	2418.65
1018.38	2428.89
1018.54	2484.19
1018.70	2473.95
1018.86	2326.49
1019.01	2445.27
1019.17	2394.08
1019.33	2576.34
1019.49	2482.14
1019.64	2508.76
1019.80	2396.12
1019.96	2523.10
1020.12	2349.02
1020.27	2351.07
1020.43	2381.79
1020.59	2467.80
1020.74	2340.83
1020.90	2500.57
1021.06	2361.31
1021.22	2359.26
1021.37	2381.79
1021.53	2293.72
1021.69	2365.40
1021.84	2303.96
1022.00	2303.96
1022.16	2316.25
1022.31	2291.68
1022.47	2406.36
1022.63	2392.03
1022.79	2269.15
1022.94	2338.78
1023.10	2344.92
1023.26	2355.16
1023.41	2258.91
1023.57	2226.14
1023.73	2371.55
1023.88	2248.67
1024.04	2176.99
1024.20	2289.63
1024.35	2310.11
1024.51	2361.31
1024.67	2238.43
1024.82	2265.05
1024.98	2187.23
1025.14	2295.77
1025.29	2244.57
1025.45	2220.00
1025.61	2203.61
1025.76	2240.48
1025.92	2146.27
1026.08	2254.81
1026.23	2260.96
1026.39	2267.10
1026.55	2228.19
1026.70	2217.95
1026.86	2187.23
1027.02	2248.67
1027.17	2148.32
1027.33	2207.71
1027.48	2140.13
1027.64	2117.60
1027.80	2170.85
1027.95	2220.00
1028.11	2129.89
1028.27	2168.80
1028.42	2154.46
1028.58	2146.27
1028.73	2062.30
1028.89	2002.91
1029.05	2308.06
1029.20	2174.94
>>>>>End Processed Spectral Data<<<<<
