SpectraSuite Data File
++++++++++++++++++++++++++++++++++++
Date: Fri Jun 02 14:52:29 CEST 2017
User: INFO_000
Dark Spectrum Present: No
Reference Spectrum Present: No
Number of Sampled Component Spectra: 1
Spectrometers: USB4H00879
Integration Time (usec): 80000 (USB4H00879)
Spectra Averaged: 1 (USB4H00879)
Boxcar Smoothing: 0 (USB4H00879)
Correct for Electrical Dark: No (USB4H00879)
Strobe/Lamp Enabled: No (USB4H00879)
Correct for Detector Non-linearity: No (USB4H00879)
Correct for Stray Light: No (USB4H00879)
Number of Pixels in Processed Spectrum: 3648
>>>>>Begin Processed Spectral Data<<<<<
345.13	1241.07
345.34	1241.07
345.56	1241.07
345.78	1314.80
345.99	1267.69
346.21	1736.68
346.42	1693.67
346.64	1662.95
346.86	1812.45
347.07	1665.00
347.29	1673.19
347.50	1630.18
347.72	1708.01
347.94	1820.64
348.15	1617.90
348.37	1621.99
348.59	1701.86
348.80	1746.92
349.02	1796.07
349.23	1886.18
349.45	1814.50
349.67	1896.42
349.88	1832.93
350.10	1968.10
350.31	1855.46
350.53	1746.92
350.75	1986.53
350.96	1724.39
351.18	1890.28
351.39	1847.27
351.61	1804.26
351.82	1851.36
352.04	1953.76
352.26	1806.31
352.47	1865.70
352.69	1904.61
352.90	1732.58
353.12	1843.17
353.34	1839.08
353.55	2004.96
353.77	1918.95
353.98	1826.79
354.20	1880.04
354.41	1888.23
354.63	1914.85
354.85	2076.64
355.06	1939.43
355.28	1865.70
355.49	1906.66
355.71	1855.46
355.92	1845.22
356.14	1931.23
356.35	1863.65
356.57	1781.73
356.79	1968.10
357.00	1822.69
357.22	1988.58
357.43	1843.17
357.65	1982.43
357.86	1935.33
358.08	1914.85
358.29	1941.47
358.51	1972.19
358.72	1933.28
358.94	1904.61
359.16	1951.71
359.37	2011.11
359.59	1935.33
359.80	2011.11
360.02	1988.58
360.23	1970.15
360.45	1978.34
360.66	1996.77
360.88	1896.42
361.09	1884.13
361.31	1976.29
361.52	2025.44
361.74	2074.59
361.95	2076.64
362.17	1943.52
362.38	2101.22
362.60	2090.98
362.81	1986.53
363.03	1902.56
363.24	1908.71
363.46	2043.87
363.67	2047.97
363.89	2037.73
364.10	2068.45
364.32	1992.67
364.53	2033.63
364.75	1949.67
364.96	2052.06
365.18	2037.73
365.39	2035.68
365.61	1986.53
365.82	2119.65
366.04	2039.78
366.25	1929.19
366.47	2002.91
366.68	2013.15
366.90	2031.58
367.11	2033.63
367.33	2191.33
367.54	2088.93
367.76	2015.20
367.97	2142.18
368.19	2011.11
368.40	2047.97
368.62	2000.87
368.83	1968.10
369.05	2101.22
369.26	2004.96
369.48	2004.96
369.69	2007.01
369.91	2123.74
370.12	2017.25
370.33	2140.13
370.55	1945.57
370.76	2062.30
370.98	2133.98
371.19	2060.26
371.41	1974.24
371.62	2066.40
371.84	2019.30
372.05	2154.46
372.27	2109.41
372.48	2179.04
372.69	2158.56
372.91	2140.13
373.12	2144.22
373.34	2105.31
373.55	2072.54
373.77	2158.56
373.98	2072.54
374.20	2201.57
374.41	2252.77
374.62	2172.89
374.84	2105.31
375.05	2217.95
375.27	2195.42
375.48	2150.37
375.70	2136.03
375.91	2275.29
376.12	2277.34
376.34	2166.75
376.55	2187.23
376.77	2293.72
376.98	2144.22
377.19	2060.26
377.41	2242.53
377.62	2256.86
377.84	2183.13
378.05	2326.49
378.27	2240.48
378.48	2387.93
378.69	2416.60
378.91	2287.58
379.12	2289.63
379.34	2150.37
379.55	2324.44
379.76	2330.59
379.98	2197.47
380.19	2328.54
380.41	2277.34
380.62	2289.63
380.83	2295.77
381.05	2236.38
381.26	2406.36
381.47	2236.38
381.69	2271.20
381.90	2379.74
382.12	2275.29
382.33	2232.29
382.54	2381.79
382.76	2420.70
382.97	2344.92
383.19	2281.44
383.40	2365.40
383.61	2330.59
383.83	2244.57
384.04	2351.07
384.25	2340.83
384.47	2437.08
384.68	2430.94
384.89	2279.39
385.11	2277.34
385.32	2404.32
385.54	2258.91
385.75	2412.51
385.96	2451.42
386.18	2351.07
386.39	2457.56
386.60	2314.20
386.82	2516.95
387.03	2473.95
387.24	2537.43
387.46	2459.61
387.67	2453.47
387.88	2465.75
388.10	2475.99
388.31	2500.57
388.52	2648.02
388.74	2496.47
388.95	2486.23
389.16	2482.14
389.38	2414.56
389.59	2590.68
389.80	2598.87
390.02	2613.21
390.23	2633.69
390.44	2566.10
390.66	2592.73
390.87	2572.25
391.08	2574.30
391.30	2713.56
391.51	2660.31
391.72	2742.23
391.94	2629.59
392.15	2607.06
392.36	2607.06
392.58	2572.25
392.79	2709.46
393.00	2678.74
393.22	2777.05
393.43	2781.14
393.64	2820.05
393.85	2707.41
394.07	2643.93
394.28	2725.85
394.49	2691.03
394.71	2840.53
394.92	2762.71
395.13	2703.32
395.35	2727.89
395.56	2842.58
395.77	2793.43
395.98	2850.77
396.20	2863.06
396.41	2830.29
396.62	2811.86
396.84	2822.10
397.05	2795.48
397.26	2895.83
397.47	2947.03
397.69	2803.67
397.90	3096.53
398.11	2963.41
398.32	2930.64
398.54	2840.53
398.75	2887.64
398.96	2936.79
399.18	3078.10
399.39	2822.10
399.60	2955.22
399.81	2981.84
400.03	2934.74
400.24	3235.79
400.45	3022.80
400.66	2985.94
400.88	3065.81
401.09	3237.84
401.30	3067.86
401.51	3100.62
401.73	3192.78
401.94	3241.93
402.15	3090.38
402.36	3088.34
402.58	3110.86
402.79	3278.80
403.00	3211.22
403.21	3278.80
403.43	3235.79
403.64	3325.90
403.85	3160.02
404.06	3215.31
404.27	3076.05
404.49	3313.61
404.70	3217.36
404.91	3309.52
405.12	3286.99
405.34	3270.61
405.55	3393.48
405.76	3141.58
405.97	3248.08
406.19	3383.24
406.40	3272.65
406.61	3305.42
406.82	3428.30
407.03	3391.44
407.25	3362.76
407.46	3469.26
407.67	3473.36
407.88	3424.20
408.09	3354.57
408.31	3448.78
408.52	3514.31
408.73	3352.52
408.94	3344.33
409.15	3504.07
409.37	3459.02
409.58	3452.88
409.79	3502.03
410.00	3688.39
410.21	3442.64
410.43	3581.90
410.64	3405.77
410.85	3491.79
411.06	3526.60
411.27	3489.74
411.48	3600.33
411.70	3661.77
411.91	3553.23
412.12	3618.76
412.33	3723.21
412.54	3629.00
412.76	3622.86
412.97	3680.20
413.18	3489.74
413.39	3678.15
413.60	3758.02
413.81	3682.25
414.03	3596.23
414.24	3637.19
414.45	3680.20
414.66	3624.90
414.87	3749.83
415.08	3629.00
415.30	3702.73
415.51	3815.37
415.72	3788.74
415.93	3725.26
416.14	3798.98
416.35	3751.88
416.56	3850.18
416.78	3778.50
416.99	3899.33
417.20	4016.07
417.41	3934.15
417.62	3839.94
417.83	3983.30
418.04	3827.65
418.26	3825.61
418.47	3882.95
418.68	4104.13
418.89	4050.88
419.10	4112.32
419.31	3913.67
419.52	4136.90
419.73	3956.68
419.95	4116.42
420.16	3958.72
420.37	4016.07
420.58	4106.18
420.79	3928.00
421.00	4040.64
421.21	4169.66
421.42	4093.89
421.63	4046.79
421.85	4155.33
422.06	4310.97
422.27	4274.11
422.48	4083.65
422.69	4265.92
422.90	4241.34
423.11	4212.67
423.32	4306.88
423.53	4509.63
423.75	4368.32
423.96	4456.38
424.17	4341.69
424.38	4464.57
424.59	4278.21
424.80	4503.48
425.01	4450.24
425.22	4358.08
425.43	4356.03
425.64	4579.26
425.85	4622.27
426.06	4382.65
426.28	4589.50
426.49	4523.96
426.70	4409.28
426.91	4595.64
427.12	4585.40
427.33	4687.80
427.54	4679.61
427.75	4695.99
427.96	4812.73
428.17	4755.38
428.38	4775.86
428.59	4829.11
428.80	4851.64
429.01	4761.53
429.23	4822.97
429.44	4933.56
429.65	4978.61
429.86	4888.50
430.07	4925.36
430.28	4878.26
430.49	5097.39
430.70	5023.67
430.91	5052.34
431.12	5054.39
431.33	5113.78
431.54	5250.99
431.75	5259.18
431.96	5029.81
432.17	5119.92
432.38	4988.85
432.59	5494.70
432.80	5246.90
433.01	5281.71
433.22	5255.09
433.43	5318.57
433.64	5287.86
433.85	5189.55
434.06	5441.45
434.27	5203.89
434.49	5521.32
434.70	5564.33
434.91	5470.12
435.12	5578.67
435.33	5435.31
435.54	5527.47
435.75	5345.20
435.96	5466.03
436.17	5429.17
436.38	5597.10
436.59	5658.54
436.80	5517.23
437.01	5805.99
437.22	5791.66
437.43	5576.62
437.64	5537.71
437.85	5865.38
438.06	5808.04
438.27	5681.07
438.48	5816.23
438.69	5775.27
438.90	5777.32
439.11	5801.90
439.32	5875.62
439.53	5842.85
439.74	5896.10
439.95	5881.77
440.16	5746.60
440.37	6084.52
440.57	5793.70
440.78	5998.50
440.99	6100.90
441.20	6080.42
441.41	5945.25
441.62	6033.32
441.83	5939.11
442.04	6154.15
442.25	6162.34
442.46	6039.46
442.67	6313.89
442.88	6485.92
443.09	6002.60
443.30	6180.77
443.51	6324.13
443.72	6461.34
443.93	6141.86
444.14	6510.49
444.35	6129.57
444.56	6254.50
444.77	6260.64
444.98	6360.99
445.19	6416.29
445.40	6457.25
445.61	6297.50
445.81	6559.64
446.02	6604.70
446.23	6412.19
446.44	6516.64
446.65	6619.04
446.86	6584.22
447.07	6451.10
447.28	6778.78
447.49	6578.08
447.70	6469.53
447.91	6711.19
448.12	6782.87
448.33	6967.19
448.54	6813.59
448.74	6649.75
448.95	6832.02
449.16	6612.89
449.37	7018.39
449.58	6713.24
449.79	7049.11
450.00	6762.39
450.21	7081.88
450.42	7165.84
450.63	7042.96
450.84	7026.58
451.05	7135.12
451.25	7092.12
451.46	7040.92
451.67	7266.19
451.88	7309.20
452.09	7249.81
452.30	7180.18
452.51	7139.22
452.72	7323.54
452.93	7595.92
453.13	7102.36
453.34	7327.63
453.55	7358.35
453.76	7204.75
453.97	7757.71
454.18	7438.22
454.39	7518.09
454.60	7524.24
454.81	7632.78
455.01	7626.64
455.22	7540.62
455.43	7587.72
455.64	7763.85
455.85	7712.65
456.06	7974.79
456.27	7792.52
456.48	7907.21
456.68	7972.74
456.89	7931.78
457.10	8142.72
457.31	7919.50
457.52	8048.52
457.73	8048.52
457.94	8449.92
458.14	7993.22
458.35	8331.14
458.56	8208.26
458.77	8224.64
458.98	8259.46
459.19	8437.63
459.39	8449.92
459.60	8353.66
459.81	8347.52
460.02	8669.05
460.23	8451.97
460.44	8884.09
460.65	8544.13
460.85	8734.59
461.06	8707.96
461.27	8589.18
461.48	8929.14
461.69	8984.44
461.89	8572.80
462.10	8769.40
462.31	8775.55
462.52	8734.59
462.73	9011.06
462.94	9185.14
463.14	9107.32
463.35	9158.52
463.56	9551.73
463.77	9164.66
463.98	9230.20
464.18	9228.15
464.39	9490.29
464.60	9537.39
464.81	9404.27
465.02	9416.56
465.23	9725.80
465.43	9475.95
465.64	9731.95
465.85	9721.71
466.06	9514.86
466.27	9953.13
466.47	9828.20
466.68	9926.50
466.89	10037.09
467.10	10112.87
467.30	9965.42
467.51	10039.14
467.72	10348.39
467.93	10121.06
468.14	10293.09
468.34	10305.38
468.55	10309.47
468.76	10418.02
468.97	10436.45
469.17	10557.28
469.38	10684.25
469.59	10704.73
469.80	10557.28
470.01	10735.45
470.21	10848.09
470.42	11048.79
470.63	10884.95
470.84	10958.68
471.04	11151.19
471.25	11177.81
471.46	11380.56
471.67	11462.48
471.87	11388.75
472.08	11444.05
472.29	11730.76
472.50	11194.20
472.70	11487.06
472.91	11530.06
473.12	11777.87
473.33	11734.86
473.53	11896.65
473.74	12087.11
473.95	12072.78
474.16	12158.79
474.36	12308.29
474.57	12355.40
474.78	12558.14
474.99	12592.96
475.19	12328.77
475.40	12924.73
475.61	12808.00
475.81	13004.60
476.02	13190.97
476.23	12832.57
476.44	13025.08
476.64	13254.45
476.85	13567.79
477.06	13477.68
477.27	13551.41
477.47	13510.45
477.68	13649.71
477.89	13911.85
478.09	13602.61
478.30	13707.05
478.51	13913.90
478.71	14184.23
478.92	13967.15
479.13	14161.70
479.34	14380.84
479.54	14221.10
479.75	14540.58
479.96	14577.44
480.16	14806.81
480.37	14743.33
480.58	14927.64
480.78	14886.68
480.99	14991.13
481.20	15218.46
481.41	15179.54
481.61	15265.56
481.82	15458.07
482.03	15456.02
482.23	15304.47
482.44	15828.75
482.65	15918.86
482.85	15970.06
483.06	15802.13
483.27	15873.81
483.47	16209.67
483.68	16140.04
483.89	16267.02
484.09	16228.10
484.30	16465.67
484.51	16553.73
484.71	16895.74
484.92	16615.17
485.13	17157.88
485.33	16776.96
485.54	16850.69
485.75	17164.03
485.95	17194.75
486.16	17288.95
486.37	17714.93
486.57	17655.54
486.78	17643.25
486.98	17600.24
487.19	17600.24
487.40	17913.58
487.60	18108.14
487.81	18337.51
488.02	18171.63
488.22	18218.73
488.43	18360.04
488.64	18222.83
488.84	18771.68
489.05	18800.35
489.25	18624.23
489.46	19105.50
489.67	18718.43
489.87	19177.18
490.08	18982.62
490.29	18951.90
490.49	19599.06
490.70	19267.29
490.90	19613.40
491.11	19558.10
491.32	19697.36
491.52	19934.93
491.73	19728.08
491.94	19732.18
492.14	19734.23
492.35	20250.32
492.55	20223.69
492.76	20184.78
492.97	20580.04
493.17	20389.58
493.38	20721.35
493.58	20860.61
493.79	20838.08
494.00	20915.90
494.20	20956.86
494.41	21243.58
494.61	21094.08
494.82	21069.50
495.02	21059.26
495.23	21081.79
495.44	21520.06
495.64	21540.54
495.85	21581.49
496.05	21599.93
496.26	21706.42
496.47	22253.23
496.67	21606.07
496.88	22390.44
497.08	21946.03
497.29	22286.00
497.49	22224.56
497.70	22519.46
497.91	22171.31
498.11	22578.86
498.32	22609.58
498.52	22783.65
498.73	23193.25
498.93	23064.22
499.14	23084.70
499.34	23187.10
499.55	23352.99
499.76	23301.79
499.96	23350.94
500.17	23318.17
500.37	23668.37
500.58	23369.37
500.78	23389.85
500.99	23615.13
501.19	23928.47
501.40	23967.38
501.60	23832.21
501.81	24215.18
502.02	24028.82
502.22	23776.92
502.43	24215.18
502.63	24362.64
502.84	24465.03
503.04	24237.71
503.25	24293.01
503.45	24530.57
503.66	24827.53
503.86	24876.68
504.07	24974.98
504.27	24772.23
504.48	25216.64
504.68	25173.63
504.89	25546.36
505.09	24784.52
505.30	25306.75
505.50	25288.32
505.71	25382.52
505.91	25478.78
506.12	25499.26
506.32	25341.57
506.53	25626.23
506.73	25499.26
506.94	25982.58
507.14	25661.05
507.35	25853.56
507.55	25974.39
507.76	26078.83
507.96	25917.04
508.17	25923.19
508.37	26111.60
508.58	26082.93
508.78	25986.68
508.99	26336.88
509.19	26338.93
509.40	26250.86
509.60	26519.15
509.81	26723.94
510.01	26224.24
510.22	26158.70
510.42	26777.19
510.63	26644.07
510.83	26457.71
511.04	26707.56
511.24	26887.78
511.44	26920.55
511.65	27123.30
511.85	27160.16
512.06	27065.96
512.26	27379.29
512.47	27090.53
512.67	27450.97
512.88	27360.86
513.08	27186.79
513.29	27475.55
513.49	27395.68
513.69	27582.04
513.90	27407.97
514.10	27623.00
514.31	27491.93
514.51	27833.94
514.72	27612.76
514.92	27434.59
515.13	27729.50
515.33	28046.93
515.53	27969.11
515.74	27960.92
515.94	28081.75
516.15	27934.29
516.35	27952.73
516.56	28036.69
516.76	28204.63
516.96	28335.70
517.17	28276.30
517.37	28106.32
517.58	28677.71
517.78	28374.61
517.99	28388.94
518.19	28597.84
518.39	28741.19
518.60	28839.50
518.80	28851.78
519.01	28878.41
519.21	28790.34
519.41	28991.05
519.62	29042.24
519.82	29251.14
520.03	29105.73
520.23	29312.58
520.43	29244.99
520.64	29541.95
520.84	29607.48
521.05	29357.63
521.25	29509.18
521.45	29787.71
521.66	29740.60
521.86	29394.50
522.07	29845.05
522.27	29836.86
522.47	29601.34
522.68	30004.79
522.88	29713.98
523.08	30064.18
523.29	30187.06
523.49	30326.32
523.70	30391.86
523.90	30096.95
524.10	30408.24
524.31	30772.78
524.51	30471.73
524.71	30705.20
524.92	30639.66
525.12	30973.48
525.33	30731.82
525.53	30969.38
525.73	31192.61
525.94	31008.29
526.14	31073.83
526.34	31188.52
526.55	31460.90
526.75	31690.27
526.95	31819.29
527.16	31370.79
527.36	31649.31
527.56	31991.32
527.77	31942.17
527.97	31843.87
528.17	31843.87
528.38	32286.23
528.58	32329.23
528.78	32108.05
528.99	32198.16
529.19	32572.94
529.39	31936.02
529.60	32345.62
529.80	32204.31
530.00	32247.32
530.21	32843.27
530.41	32865.80
530.61	32605.71
530.82	32640.53
531.02	32970.25
531.22	32976.39
531.43	32966.15
531.63	33332.74
531.83	33039.88
532.04	33676.80
532.24	33476.10
532.44	33871.36
532.64	33754.62
532.85	33906.17
533.05	33582.59
533.25	33648.13
533.46	34190.84
533.66	34379.25
533.86	34110.97
534.07	34622.96
534.27	34315.76
534.47	34711.02
534.67	34260.47
534.88	34457.07
535.08	34563.57
535.28	35057.13
535.49	35118.57
535.69	35010.03
535.89	35227.11
536.09	34999.79
536.30	35175.91
536.50	35489.25
536.70	35345.89
536.91	35083.75
537.11	35343.84
537.31	35821.02
537.51	35634.66
537.72	36337.11
537.92	35816.93
538.12	36019.67
538.32	35853.79
538.53	36640.21
538.73	35825.12
538.93	36206.04
539.13	36126.17
539.34	36298.20
539.54	36429.27
539.74	36500.95
539.94	36349.40
540.15	36253.14
540.35	36568.53
540.55	36525.52
540.75	36812.24
540.96	37262.79
541.16	36640.21
541.36	36988.36
541.56	37144.01
541.77	37367.24
541.97	37080.52
542.17	37381.57
542.37	37537.22
542.58	37596.61
542.78	37443.01
542.98	37500.36
543.18	37979.58
543.38	38311.35
543.59	37686.72
543.79	37600.71
543.99	37950.91
544.19	38192.57
544.40	37731.78
544.60	38571.44
544.80	38053.31
545.00	38499.76
545.20	38526.39
545.41	38282.68
545.61	38417.85
545.81	38569.40
546.01	38917.55
546.21	38526.39
546.42	38243.77
546.62	38944.17
546.82	38692.27
547.02	38897.07
547.22	39079.34
547.43	38751.66
547.63	38991.28
547.83	39079.34
548.03	38831.54
548.23	39517.60
548.44	39312.81
548.64	39564.71
548.84	39552.42
549.04	39562.66
549.24	39675.30
549.45	39751.07
549.65	39331.24
549.85	39765.41
550.05	40039.84
550.25	39871.90
550.45	40410.52
550.66	40138.14
550.86	39841.18
551.06	40166.81
551.26	40103.32
551.46	40193.43
551.66	40332.70
551.87	39953.82
552.07	40646.04
552.27	40256.92
552.47	40474.01
552.67	40730.00
552.87	40236.44
553.07	40752.53
553.28	40877.46
553.48	40953.23
553.68	40781.20
553.88	40965.52
554.08	41108.88
554.28	41186.70
554.48	40928.66
554.69	41158.03
554.89	41346.44
555.09	41100.68
555.29	41110.92
555.49	40994.19
555.69	41323.91
555.89	41194.89
556.10	41649.54
556.30	41241.99
556.50	41819.52
556.70	41221.52
556.90	42059.13
557.10	41796.99
557.30	41670.02
557.50	41825.67
557.70	41547.14
557.91	42128.77
558.11	41997.70
558.31	41952.64
558.51	42077.57
558.71	41889.15
558.91	42423.67
559.11	41864.58
559.31	42339.71
559.51	41745.80
559.72	42272.12
559.92	42972.53
560.12	41887.10
560.32	42337.66
560.52	41954.69
560.72	42771.83
560.92	42886.51
561.12	42542.45
561.32	43271.53
561.52	42962.29
561.72	43029.87
561.93	42851.70
562.13	43304.30
562.33	42538.36
562.53	43279.72
562.73	43359.59
562.93	42706.29
563.13	43038.06
563.33	43029.87
563.53	43378.03
563.73	42818.93
563.93	43433.32
564.13	43683.17
564.33	43482.47
564.53	43509.10
564.74	43425.13
564.94	43513.19
565.14	43734.37
565.34	43566.44
565.54	43677.03
565.74	43490.66
565.94	44021.09
566.14	43730.28
566.34	43896.16
566.54	44293.47
566.74	43832.68
566.94	44066.14
567.14	44193.12
567.34	44365.15
567.54	44113.25
567.74	43826.53
567.94	44135.77
568.14	44307.80
568.34	44451.16
568.54	44621.14
568.74	44617.05
568.94	44463.45
569.14	44735.83
569.34	44916.05
569.54	44748.12
569.75	44477.79
569.95	44729.69
570.15	45217.10
570.35	45057.36
570.55	44610.90
570.75	44866.90
570.95	44897.62
571.15	45509.96
571.35	45520.20
571.55	45354.32
571.75	45268.30
571.95	45233.49
572.15	45518.15
572.35	45765.96
572.55	45659.46
572.75	45419.85
572.95	45536.59
573.15	45733.19
573.35	45423.95
573.55	45860.16
573.75	45741.38
573.95	45768.01
574.15	45638.98
574.35	45821.25
574.55	46290.24
574.75	45751.62
574.95	46431.55
575.15	45815.11
575.34	46286.14
575.54	46554.43
575.74	46535.99
575.94	46284.09
576.14	46533.95
576.34	46333.24
576.54	46732.60
576.74	47056.18
576.94	46622.01
577.14	46839.09
577.34	47265.07
577.54	46802.23
577.74	47093.04
577.94	47177.01
578.14	46746.93
578.34	47213.87
578.54	46716.22
578.74	47213.87
578.94	47719.72
579.14	47172.91
579.34	47394.09
579.54	47342.89
579.74	47785.25
579.94	47459.63
580.13	47623.47
580.33	47363.37
580.53	47918.37
580.73	47709.48
580.93	47789.35
581.13	47617.32
581.33	47988.00
581.53	48178.46
581.73	48088.35
581.93	48278.82
582.13	48309.53
582.33	48573.72
582.53	48155.94
582.73	48248.10
582.92	48493.85
583.12	48446.75
583.32	48487.71
583.52	48194.85
583.72	48721.18
583.92	48352.54
584.12	48807.19
584.32	49399.05
584.52	48872.73
584.72	49321.23
584.92	49370.38
585.11	49354.00
585.31	49179.92
585.51	49349.90
585.71	49098.00
585.91	49288.46
586.11	49022.23
586.31	49042.71
586.51	49171.73
586.71	49413.39
586.91	49607.95
587.10	49818.89
587.30	49642.76
587.50	49790.22
587.70	49837.32
587.90	49972.49
588.10	50154.75
588.30	49526.03
588.50	50271.49
588.69	49992.97
588.89	49718.54
589.09	50003.20
589.29	50230.53
589.49	50404.61
589.69	50158.85
589.89	50842.87
590.08	50275.58
590.28	50253.06
590.48	50253.06
590.68	50353.41
590.88	50621.69
591.08	50312.45
591.28	50277.63
591.47	50713.85
591.67	50586.88
591.87	50269.44
592.07	50820.34
592.27	50873.59
592.47	50492.67
592.67	50595.07
592.86	50525.44
593.06	50736.38
593.26	51092.72
593.46	51184.88
593.66	50769.15
593.86	51322.10
594.05	50922.74
594.25	51238.13
594.45	50771.19
594.65	51260.66
594.85	50748.67
595.05	51184.88
595.24	51229.94
595.44	51492.08
595.64	51385.58
595.84	51084.53
596.04	51379.44
596.23	51416.30
596.43	51414.26
596.63	51221.75
596.83	51487.98
597.03	52098.28
597.22	52049.13
597.42	51729.64
597.62	51356.91
597.82	51926.25
598.02	52145.38
598.21	52198.63
598.41	51901.67
598.61	51877.10
598.81	51885.29
599.01	52098.28
599.20	52157.67
599.40	51883.24
599.60	52401.38
599.80	52188.39
600.00	52335.84
600.19	52325.60
600.39	52057.32
600.59	52763.87
600.79	52327.65
600.98	52432.10
601.18	53040.34
601.38	52649.18
601.58	52716.76
601.78	52817.11
601.97	52903.13
602.17	53370.07
602.37	52876.51
602.57	53150.93
602.76	53435.60
602.96	52708.57
603.16	53382.35
603.36	53245.14
603.55	53337.30
603.75	52937.94
603.95	53335.25
604.15	53232.85
604.34	53472.46
604.54	53609.68
604.74	53247.19
604.94	53318.87
605.13	53163.22
605.33	53490.90
605.53	53396.69
605.73	53986.50
605.92	53394.64
606.12	53271.76
606.32	53935.30
606.52	53505.23
606.71	53531.86
606.91	53654.73
607.11	53679.31
607.30	54033.61
607.50	53955.78
607.70	54107.33
607.90	53335.25
608.09	53939.40
608.29	54088.90
608.49	54598.85
608.68	54090.95
608.88	53818.57
609.08	54228.16
609.28	54183.11
609.47	54021.32
609.67	54344.90
609.87	54293.70
610.06	54678.72
610.26	54361.28
610.46	54172.87
610.66	54136.01
610.85	54539.46
611.05	54119.62
611.25	54441.15
611.44	54373.57
611.64	54211.78
611.84	53884.11
612.03	54299.84
612.23	54764.73
612.43	54346.95
612.62	54115.53
612.82	54418.63
613.02	54269.12
613.21	54133.96
613.41	54072.52
613.61	54228.16
613.80	53949.64
614.00	54416.58
614.20	53908.68
614.39	54551.74
614.59	54469.82
614.79	54150.34
614.98	54119.62
615.18	54416.58
615.38	54580.42
615.57	54293.70
615.77	54498.50
615.97	54293.70
616.16	54451.39
616.36	54490.30
616.56	54455.49
616.75	54705.34
616.95	54000.84
617.15	53986.50
617.34	54389.95
617.54	54107.33
617.74	54656.19
617.93	54432.96
618.13	53818.57
618.32	54017.22
618.52	53771.47
618.72	54240.45
618.91	54426.82
619.11	53869.77
619.31	54039.75
619.50	54002.89
619.70	53957.83
619.90	53953.74
620.09	54490.30
620.29	54377.67
620.48	54074.57
620.68	54449.35
620.88	53664.97
621.07	54383.81
621.27	54205.64
621.46	53802.19
621.66	54039.75
621.86	54019.27
622.05	53765.32
622.25	54752.44
622.44	54039.75
622.64	53818.57
622.84	54392.00
623.03	54054.09
623.23	54340.80
623.42	53853.39
623.62	54043.85
623.82	54154.44
624.01	53822.67
624.21	53740.75
624.40	54066.38
624.60	53820.62
624.80	53791.95
624.99	53908.68
625.19	53085.40
625.38	54031.56
625.58	53640.40
625.77	54068.42
625.97	53986.50
626.17	53355.73
626.36	54183.11
626.56	54377.67
626.75	53408.98
626.95	54310.08
627.14	53966.02
627.34	54222.02
627.54	53828.81
627.73	54113.48
627.93	53955.78
628.12	53421.26
628.32	54211.78
628.51	53810.38
628.71	54047.94
628.90	53695.69
629.10	54125.77
629.30	53679.31
629.49	53986.50
629.69	53515.47
629.88	53814.47
630.08	54430.91
630.27	53660.88
630.47	53918.92
630.66	53855.43
630.86	53855.43
631.05	53591.25
631.25	53984.46
631.44	53822.67
631.64	54236.36
631.84	53597.39
632.03	54400.19
632.23	53820.62
632.42	54142.15
632.62	53873.87
632.81	53701.84
633.01	54330.56
633.20	54138.05
633.40	54105.29
633.59	53851.34
633.79	53757.13
633.98	54127.81
634.18	54174.92
634.37	54224.07
634.57	54097.09
634.76	54418.63
634.96	53851.34
635.15	54174.92
635.35	53851.34
635.54	53527.76
635.74	54119.62
635.93	54191.30
636.13	54086.85
636.32	53990.60
636.52	53912.78
636.71	53617.87
636.91	54344.90
637.10	54238.40
637.30	54371.52
637.49	53900.49
637.69	54162.63
637.88	54351.04
638.08	53912.78
638.27	53986.50
638.46	53984.46
638.66	53845.19
638.85	54047.94
639.05	54027.46
639.24	54140.10
639.44	53970.12
639.63	54318.28
639.83	54359.23
640.02	53783.76
640.22	54088.90
640.41	54353.09
640.61	54359.23
640.80	54504.64
640.99	53816.52
641.19	54719.68
641.38	54486.21
641.58	54164.68
641.77	54189.25
641.97	54160.58
642.16	54428.87
642.36	54428.87
642.55	54674.62
642.74	54117.57
642.94	54465.73
643.13	54260.93
643.33	54580.42
643.52	54639.81
643.72	54629.57
643.91	54588.61
644.10	54723.77
644.30	54885.56
644.49	54260.93
644.69	54760.64
644.88	54789.31
645.08	54559.94
645.27	54609.09
645.46	54017.22
645.66	54981.82
645.85	54510.78
646.05	54582.46
646.24	54719.68
646.43	54643.90
646.63	55211.19
646.82	55266.48
647.02	54484.16
647.21	54981.82
647.40	54938.81
647.60	55268.53
647.79	54951.10
647.99	55538.86
648.18	54871.23
648.37	55465.14
648.57	55043.26
648.76	54848.70
648.96	54725.82
649.15	55229.62
649.34	55448.75
649.54	55053.50
649.73	55145.65
649.92	55375.03
650.12	55235.77
650.31	55286.96
650.51	55391.41
650.70	55669.93
650.89	55260.34
651.09	55616.69
651.28	55159.99
651.47	55139.51
651.67	55401.65
651.86	55620.78
652.06	55114.94
652.25	55661.74
652.44	55657.65
652.64	55325.88
652.83	55188.66
653.02	55071.93
653.22	55674.03
653.41	55348.40
653.60	55248.05
653.80	55682.22
653.99	55649.45
654.18	55489.71
654.38	55641.26
654.57	55653.55
654.76	55262.39
654.96	55440.56
655.15	55506.10
655.34	55162.04
655.54	55137.46
655.73	55678.13
655.92	55930.03
656.12	55745.71
656.31	55594.16
656.50	55708.85
656.70	55661.74
656.89	55927.98
657.08	55665.84
657.28	55884.97
657.47	56102.06
657.66	56243.37
657.86	55692.46
658.05	56118.44
658.24	55841.96
658.43	55813.29
658.63	56190.12
658.82	56378.53
659.01	56267.94
659.21	56382.63
659.40	56226.98
659.59	55932.07
659.79	56489.12
659.98	56360.10
660.17	56394.92
660.36	55934.12
660.56	56034.47
660.75	56210.60
660.94	56294.56
661.14	56247.46
661.33	55909.55
661.52	55766.19
661.71	56470.69
661.91	55663.79
662.10	56030.38
662.29	56552.61
662.49	56446.11
662.68	56657.06
662.87	56380.58
663.06	56480.93
663.26	56534.18
663.45	57072.79
663.64	56278.18
663.83	56857.76
664.03	56353.96
664.22	56628.38
664.41	57074.84
664.60	56104.10
664.80	56497.31
664.99	56493.22
665.18	56466.59
665.37	56421.54
665.57	56695.97
665.76	56564.90
665.95	57087.13
666.14	56573.09
666.34	56550.56
666.53	56296.61
666.72	56736.93
666.91	56501.41
667.11	56276.13
667.30	56380.58
667.49	56267.94
667.68	56644.77
667.87	56364.20
668.07	56917.15
668.26	56581.28
668.45	56784.03
668.64	56706.21
668.84	57418.90
669.03	56992.92
669.22	56712.35
669.41	56849.56
669.60	56767.65
669.80	56759.45
669.99	56736.93
670.18	56587.42
670.37	56571.04
670.57	57414.80
670.76	56997.02
670.95	56988.83
671.14	57164.95
671.33	56403.11
671.53	57187.48
671.72	57042.07
671.91	56716.45
672.10	56394.92
672.29	56829.08
672.48	57015.45
672.68	57164.95
672.87	56861.85
673.06	57027.74
673.25	57263.25
673.44	56917.15
673.64	56718.49
673.83	56394.92
674.02	56972.44
674.21	56437.92
674.40	56927.39
674.59	56186.02
674.79	56343.72
674.98	56646.82
675.17	56999.07
675.36	56726.69
675.55	56870.04
675.74	56315.04
675.94	56808.61
676.13	57117.85
676.32	57189.53
676.51	56882.33
676.70	56902.81
676.89	56614.05
677.08	57033.88
677.28	56294.56
677.47	56945.82
677.66	57029.79
677.85	56884.38
678.04	57302.17
678.23	57089.18
678.42	57060.51
678.62	57095.32
678.81	57103.51
679.00	57158.81
679.19	57627.79
679.38	57158.81
679.57	56824.99
679.76	57046.17
679.96	57187.48
680.15	56956.06
680.34	56986.78
680.53	56966.30
680.72	56984.73
680.91	57234.58
681.10	57119.90
681.29	57117.85
681.48	56802.46
681.68	56951.96
681.87	56728.73
682.06	56489.12
682.25	56413.35
682.44	56956.06
682.63	57029.79
682.82	56618.14
683.01	56435.87
683.20	56669.34
683.39	56906.91
683.59	56573.09
683.78	56884.38
683.97	56644.77
684.16	56804.51
684.35	56472.74
684.54	56636.58
684.73	56806.56
684.92	56269.99
685.11	56679.58
685.30	56616.10
685.49	56636.58
685.69	56644.77
685.88	56956.06
686.07	56392.87
686.26	56708.25
686.45	56747.17
686.64	56616.10
686.83	56480.93
687.02	56648.86
687.21	57154.71
687.40	56857.76
687.59	56638.62
687.78	56730.78
687.97	56448.16
688.16	56837.28
688.35	56655.01
688.54	56321.19
688.74	56261.80
688.93	56861.85
689.12	56313.00
689.31	56487.07
689.50	56603.81
689.69	56153.26
689.88	55909.55
690.07	56552.61
690.26	56442.02
690.45	56902.81
690.64	56595.62
690.83	56423.59
691.02	56243.37
691.21	56077.48
691.40	56112.30
691.59	56554.66
691.78	56181.93
691.97	56458.40
692.16	56247.46
692.35	56720.54
692.54	56038.57
692.73	56122.54
692.92	56120.49
693.11	56104.10
693.30	56308.90
693.49	56376.48
693.68	56071.34
693.87	56274.09
694.06	55725.23
694.25	55801.00
694.44	55743.66
694.63	56128.68
694.82	56298.66
695.01	56145.06
695.20	55895.21
695.39	55534.77
695.58	56030.38
695.77	55702.70
695.96	55405.75
696.15	55686.32
696.34	55395.51
696.53	55579.82
696.72	55907.50
696.91	55729.33
697.10	55577.78
697.29	55706.80
697.48	55948.46
697.67	55522.48
697.86	55215.29
698.05	55190.71
698.24	55631.02
698.43	55116.98
698.62	55813.29
698.81	55362.74
699.00	55571.63
699.19	55141.56
699.38	55624.88
699.57	54860.99
699.76	55940.27
699.95	55135.41
700.14	55188.66
700.32	55483.57
700.51	55356.60
700.70	55514.29
700.89	55162.04
701.08	55131.32
701.27	55024.82
701.46	55532.72
701.65	54351.04
701.84	55276.72
702.03	54705.34
702.22	54629.57
702.41	54490.30
702.60	55090.36
702.79	54437.06
702.98	54396.10
703.17	54592.70
703.35	54648.00
703.54	54283.46
703.73	54518.98
703.92	54152.39
704.11	54838.46
704.30	54047.94
704.49	54359.23
704.68	54428.87
704.87	54586.56
705.06	54400.19
705.25	54011.08
705.43	54414.53
705.62	54498.50
705.81	54604.99
706.00	54383.81
706.19	54088.90
706.38	54074.57
706.57	53824.71
706.76	53667.02
706.95	54224.07
707.14	54056.14
707.32	53566.67
707.51	53517.52
707.70	53779.66
707.89	54226.12
708.08	53959.88
708.27	53986.50
708.46	54330.56
708.65	53691.60
708.84	54068.42
709.02	54115.53
709.21	54019.27
709.40	53828.81
709.59	53990.60
709.78	53531.86
709.97	53826.76
710.16	53667.02
710.34	53204.18
710.53	53533.90
710.72	53118.17
710.91	53441.74
711.10	53882.06
711.29	53517.52
711.48	53552.33
711.66	53394.64
711.85	53429.46
712.04	53441.74
712.23	52845.79
712.42	53236.95
712.61	52733.15
712.80	53167.32
712.98	53138.65
713.17	52729.05
713.36	53071.06
713.55	52782.30
713.74	52983.00
713.93	53163.22
714.11	52872.41
714.30	52790.49
714.49	52833.50
714.68	52888.79
714.87	52497.63
715.06	52913.37
715.24	52651.23
715.43	52649.18
715.62	51778.79
715.81	52378.85
716.00	52606.17
716.18	51897.58
716.37	52157.67
716.56	51649.77
716.75	52372.70
716.94	52172.00
717.12	52368.61
717.31	52335.84
717.50	52337.89
717.69	51963.11
717.88	51942.63
718.06	52088.04
718.25	52516.06
718.44	52042.98
718.63	51711.21
718.82	51653.87
719.00	51672.30
719.19	51315.95
719.38	51727.59
719.57	51045.62
719.76	51332.34
719.94	50832.63
720.13	51129.59
720.32	50908.41
720.51	51074.29
720.69	51000.57
720.88	51260.66
721.07	51199.22
721.26	50205.95
721.44	50646.27
721.63	50666.75
721.82	50568.44
722.01	50599.16
722.20	50507.01
722.38	50412.80
722.57	50197.76
722.76	50550.01
722.95	50060.55
723.13	49583.37
723.32	49952.01
723.51	49698.06
723.70	49587.47
723.88	49812.74
724.07	49796.36
724.26	49886.47
724.44	49108.24
724.63	50234.63
724.82	49698.06
725.01	49407.25
725.19	49663.24
725.38	49489.16
725.57	49007.89
725.76	49558.80
725.94	49218.83
726.13	49204.50
726.32	49632.52
726.51	49181.97
726.69	49640.71
726.88	49476.88
727.07	48874.77
727.25	49040.66
727.44	49055.00
727.63	49063.19
727.82	48958.74
728.00	49282.32
728.19	48649.50
728.38	49280.27
728.56	48792.86
728.75	49356.05
728.94	48803.10
729.12	48588.06
729.31	49122.58
729.50	49286.42
729.69	48919.83
729.87	48667.93
730.06	49059.09
730.25	48973.08
730.43	49124.63
730.62	48305.44
730.81	48717.08
730.99	48770.33
731.18	48676.12
731.37	49001.75
731.55	48827.67
731.74	48721.18
731.93	48436.51
732.11	48657.69
732.30	48669.98
732.49	48268.58
732.67	48633.11
732.86	48493.85
733.05	48280.86
733.23	48145.70
733.42	48217.38
733.61	48440.60
733.79	48219.42
733.98	48608.54
734.17	48526.62
734.35	48192.80
734.54	48293.15
734.73	48549.15
734.91	48291.10
735.10	47947.04
735.29	48366.88
735.47	47916.32
735.66	48407.84
735.84	48377.12
736.03	47791.40
736.22	48420.13
736.40	48178.46
736.59	48340.25
736.78	47727.91
736.96	47734.06
737.15	47805.73
737.33	47754.54
737.52	47334.70
737.71	48137.51
737.89	47519.02
738.08	47355.18
738.27	47555.88
738.45	48045.35
738.64	47418.67
738.82	47387.95
739.01	47293.74
739.20	47895.85
739.38	47527.21
739.57	47783.21
739.75	47535.40
739.94	47115.57
740.13	47303.98
740.31	47760.68
740.50	47043.89
740.68	47207.73
740.87	47332.65
741.06	47564.07
741.24	47129.90
741.43	47107.38
741.61	46951.73
741.80	46828.85
741.99	46773.56
742.17	46832.95
742.36	46880.05
742.54	46294.33
742.73	46716.22
742.91	47029.55
743.10	46538.04
743.29	46982.45
743.47	47064.37
743.66	46736.69
743.84	47039.79
744.03	46734.65
744.21	46480.70
744.40	46691.64
744.59	46693.69
744.77	46355.77
744.96	46626.10
745.14	46478.65
745.33	46585.15
745.51	46808.37
745.70	46638.39
745.88	46390.59
746.07	46079.30
746.26	45751.62
746.44	46351.68
746.63	46411.07
746.81	46050.63
747.00	46255.42
747.18	46255.42
747.37	46290.24
747.55	45739.33
747.74	46460.22
747.92	45694.28
748.11	45784.39
748.29	45620.55
748.48	45786.44
748.66	45610.31
748.85	45403.47
749.03	45763.91
749.22	45487.43
749.41	45505.87
749.59	45692.23
749.78	45239.63
749.96	45139.28
750.15	45079.89
750.33	45479.24
750.52	45505.87
750.70	45208.91
750.89	44987.73
751.07	44776.79
751.26	45239.63
751.44	44948.82
751.63	45122.90
751.81	45090.13
752.00	44723.54
752.18	44602.71
752.37	44664.15
752.55	44588.38
752.74	44856.66
752.92	44643.67
753.10	44197.21
753.29	44375.39
753.47	44608.86
753.66	44311.90
753.84	44594.52
754.03	44311.90
754.21	44182.88
754.40	44465.50
754.58	44485.98
754.77	44135.77
754.95	44197.21
755.14	44062.05
755.32	44176.73
755.51	43746.66
755.69	43900.26
755.88	43681.13
756.06	43853.15
756.24	43728.23
756.43	43736.42
756.61	44004.70
756.80	43664.74
756.98	43812.20
757.17	43928.93
757.35	43894.11
757.54	43965.79
757.72	43930.98
757.90	43459.94
758.09	43560.30
758.27	43771.24
758.46	43144.56
758.64	43224.43
758.83	43861.35
759.01	43212.14
759.19	43310.44
759.38	43443.56
759.56	43287.92
759.75	43558.25
759.93	43472.23
760.12	43031.92
760.30	42972.53
760.48	42982.77
760.67	43218.28
760.85	42839.41
761.04	43306.35
761.22	42790.26
761.40	42913.14
761.59	42722.68
761.77	42734.96
761.96	42485.11
762.14	42184.06
762.32	42569.08
762.51	42231.16
762.69	42530.17
762.88	42710.39
763.06	42308.99
763.24	42716.53
763.43	42538.36
763.61	42419.58
763.80	42304.89
763.98	42188.16
764.16	42216.83
764.35	41917.82
764.53	41977.22
764.72	41848.19
764.90	42169.72
765.08	42231.16
765.27	42120.57
765.45	41633.16
765.63	41780.61
765.82	41655.68
766.00	41573.77
766.18	41684.36
766.37	41811.33
766.55	41678.21
766.74	41713.03
766.92	41637.25
767.10	41811.33
767.29	41262.47
767.47	41381.26
767.65	41584.01
767.84	41139.60
768.02	41485.70
768.20	40895.89
768.39	40820.11
768.57	41321.87
768.75	41155.98
768.94	41020.81
769.12	41031.05
769.30	40865.17
769.49	40637.84
769.67	40666.52
769.85	40248.73
770.04	40867.22
770.22	40766.87
770.40	40609.17
770.59	40420.76
770.77	40705.43
770.95	40469.91
771.14	40254.87
771.32	39976.35
771.50	39876.00
771.69	40175.00
771.87	40631.70
772.05	40009.12
772.24	40232.35
772.42	39765.41
772.60	39919.01
772.78	39773.60
772.97	39654.82
773.15	39671.20
773.33	39593.38
773.52	39450.02
773.70	40068.51
773.88	40175.00
774.07	39579.04
774.25	39900.58
774.43	39796.13
774.61	40156.57
774.80	39921.05
774.98	39843.23
775.16	39933.34
775.34	40045.98
775.53	39810.46
775.71	39943.58
775.89	39583.14
776.08	39939.49
776.26	39716.26
776.44	40095.13
776.62	39787.94
776.81	39828.90
776.99	39937.44
777.17	39925.15
777.35	40187.29
777.54	40551.83
777.72	39884.19
777.90	40033.69
778.08	40562.07
778.27	39988.64
778.45	40385.94
778.63	40586.64
778.81	40152.48
779.00	40883.60
779.18	40531.35
779.36	40981.90
779.54	40248.73
779.73	40326.55
779.91	40441.24
780.09	40359.32
780.27	40897.94
780.46	40529.30
780.64	41031.05
780.82	40031.65
781.00	40609.17
781.19	40449.43
781.37	40813.97
781.55	40820.11
781.73	40727.95
781.91	40760.72
782.10	40613.27
782.28	40902.03
782.46	40881.55
782.64	40871.31
782.82	40680.85
783.01	41000.33
783.19	40902.03
783.37	40773.01
783.55	40674.71
783.74	41086.35
783.92	40326.55
784.10	41088.40
784.28	40811.92
784.46	40707.47
784.64	40990.09
784.83	40908.18
785.01	41127.31
785.19	40637.84
785.37	41037.20
785.55	41092.49
785.74	40723.86
785.92	40607.12
786.10	40588.69
786.28	40854.93
786.46	40545.69
786.64	40676.76
786.83	40351.13
787.01	40637.84
787.19	40658.32
787.37	40314.26
787.55	40588.69
787.74	40336.79
787.92	40359.32
788.10	40052.12
788.28	40007.07
788.46	40404.38
788.64	39921.05
788.82	40871.31
789.01	39949.73
789.19	40418.71
789.37	40052.12
789.55	40158.62
789.73	39511.46
789.91	39566.76
790.09	40115.61
790.28	40052.12
790.46	39384.49
790.64	39718.31
790.82	39914.91
791.00	39325.10
791.18	39761.31
791.36	39302.57
791.55	39638.44
791.73	39490.98
791.91	39419.30
792.09	39294.38
792.27	39110.06
792.45	39103.92
792.63	38735.28
792.81	38890.93
793.00	38776.24
793.18	38679.99
793.36	38800.82
793.54	38710.71
793.72	38344.12
793.90	38708.66
794.08	38194.62
794.26	38317.50
794.44	38145.47
794.62	37938.62
794.81	38348.21
794.99	37993.92
795.17	37739.97
795.35	38020.54
795.53	38102.46
795.71	38016.44
795.89	37731.78
796.07	37737.92
796.25	37483.97
796.43	37311.94
796.61	37318.09
796.80	37543.36
796.98	37371.33
797.16	37279.18
797.34	36902.35
797.52	36982.22
797.70	37105.10
797.88	37111.24
798.06	36517.33
798.24	36769.23
798.42	36773.33
798.60	36996.56
798.78	36459.99
798.96	36281.81
799.14	36380.12
799.32	36599.25
799.51	35999.19
799.69	36888.01
799.87	36236.76
800.05	36054.49
800.23	35913.18
800.41	35536.35
800.59	35991.00
800.77	35864.03
800.95	35356.13
801.13	35898.84
801.31	35364.32
801.49	35755.49
801.67	35501.54
801.85	35425.76
802.03	34985.45
802.21	34952.68
802.39	34571.76
802.57	35466.72
802.75	35411.43
802.93	35194.34
803.11	34960.87
803.29	34448.88
803.47	34592.24
803.65	34770.41
803.83	34727.41
804.01	34412.02
804.19	34328.05
804.37	34078.20
804.55	34446.83
804.73	34399.73
804.91	33988.09
805.09	33940.99
805.27	34309.62
805.45	34129.40
805.63	34100.73
805.81	33906.17
805.99	33924.60
806.17	33730.05
806.35	33805.82
806.53	33310.21
806.71	33496.58
806.89	33691.13
807.07	33748.48
807.25	33596.93
807.43	33304.07
807.61	33523.20
807.79	33203.72
807.97	32931.34
808.15	32945.67
808.33	33007.11
808.51	32843.27
808.69	32982.54
808.87	32681.49
809.05	32812.56
809.23	32390.67
809.41	32253.46
809.59	32712.20
809.77	32632.33
809.95	32167.45
810.13	32779.79
810.31	32529.94
810.49	32462.35
810.67	32134.68
810.84	32337.43
811.02	32267.80
811.20	31837.72
811.38	32267.80
811.56	31946.26
811.74	31770.14
811.92	31809.05
812.10	31948.31
812.28	31870.49
812.46	31768.09
812.64	31727.13
812.82	31520.29
813.00	31147.56
813.18	31497.76
813.36	31292.96
813.53	31159.84
813.71	31340.07
813.89	31286.82
814.07	31116.84
814.25	31655.45
814.43	31184.42
814.61	30670.38
814.79	30914.09
814.97	31079.97
815.15	31223.33
815.33	30780.97
815.50	30545.45
815.68	30553.65
815.86	30692.91
816.04	30682.67
816.22	30697.00
816.40	30527.02
816.58	30426.67
816.76	30361.14
816.94	30228.02
817.11	30324.27
817.29	30514.73
817.47	30158.39
817.65	30133.81
817.83	30164.53
818.01	30088.76
818.19	30193.20
818.37	30213.68
818.54	29898.30
818.72	29730.36
818.90	29890.10
819.08	29689.40
819.26	29961.78
819.44	29814.33
819.62	29404.74
819.80	29617.72
819.97	29562.43
820.15	29279.81
820.33	29656.64
820.51	29554.24
820.69	29351.49
820.87	29396.54
821.05	29451.84
821.22	29478.46
821.40	29085.25
821.58	29038.15
821.76	29224.51
821.94	29152.84
822.12	28982.85
822.29	29132.36
822.47	28999.24
822.65	29134.40
822.83	28974.66
823.01	28825.16
823.19	28689.99
823.36	28712.52
823.54	28601.93
823.72	28534.35
823.90	28814.92
824.08	28567.12
824.25	28755.53
824.43	28288.59
824.61	28388.94
824.79	28597.84
824.97	28440.14
825.15	28384.85
825.32	28710.47
825.50	28010.07
825.68	27997.78
825.86	28509.77
826.04	28196.43
826.21	28040.79
826.39	28221.01
826.57	27977.30
826.75	28257.87
826.93	27645.53
827.10	28065.36
827.28	28241.49
827.46	27899.48
827.64	27883.09
827.81	27735.64
827.99	27821.66
828.17	27455.07
828.35	27752.02
828.53	27536.99
828.70	27385.44
828.88	27915.86
829.06	27661.91
829.24	27829.85
829.41	27598.43
829.59	27790.94
829.77	27627.10
829.95	27446.88
830.12	27358.81
830.30	27336.29
830.48	27631.19
830.66	27485.79
830.84	27467.36
831.01	27022.95
831.19	27493.98
831.37	26971.75
831.55	27014.76
831.72	27426.40
831.90	26928.74
832.08	27096.67
832.25	26977.89
832.43	27061.86
832.61	26631.79
832.79	26990.18
832.96	26736.23
833.14	27080.29
833.32	26756.71
833.50	27059.81
833.67	26828.39
833.85	26488.43
834.03	26470.00
834.20	26848.87
834.38	26926.69
834.56	26553.96
834.74	26064.50
834.91	26644.07
835.09	26695.27
835.27	26375.79
835.44	26474.09
835.62	25771.64
835.80	26218.10
835.98	26408.56
836.15	26138.23
836.33	26447.47
836.51	26738.28
836.68	26015.35
836.86	26058.35
837.04	26293.87
837.21	25945.72
837.39	25927.28
837.57	26351.21
837.75	26132.08
837.92	25867.89
838.10	25884.28
838.28	25728.63
838.45	25880.18
838.63	25693.82
838.81	25843.32
838.98	25638.52
839.16	25734.78
839.34	25491.07
839.51	25532.03
839.69	25439.87
839.87	25374.33
840.04	25599.61
840.22	25857.65
840.40	25478.78
840.57	24968.84
840.75	25517.69
840.93	25245.31
841.10	25308.80
841.28	25403.00
841.46	25474.68
841.63	25190.02
841.81	25286.27
841.98	25147.01
842.16	25196.16
842.34	25026.18
842.51	25112.19
842.69	25312.89
842.87	25011.84
843.04	25110.14
843.22	24925.83
843.40	24952.45
843.57	24764.04
843.75	25298.56
843.92	25020.03
844.10	25106.05
844.28	24782.47
844.45	24866.44
844.63	25038.47
844.81	24917.64
844.98	24688.26
845.16	24786.57
845.33	24770.18
845.51	24518.28
845.69	24755.85
845.86	24589.96
846.04	24446.60
846.21	24225.42
846.39	24770.18
846.57	24467.08
846.74	24620.68
846.92	24346.25
847.09	24493.71
847.27	24350.35
847.45	24422.03
847.62	24516.23
847.80	24454.79
847.97	24413.84
848.15	24037.01
848.32	23957.14
848.50	23983.76
848.68	24104.59
848.85	24178.32
849.03	23928.47
849.20	23969.43
849.38	24127.12
849.56	23985.81
849.73	23766.68
849.91	23985.81
850.08	24462.99
850.26	23695.00
850.43	23948.95
850.61	23729.81
850.78	23553.69
850.96	23785.11
851.14	23326.36
851.31	23586.46
851.49	23705.24
851.66	23676.57
851.84	23658.14
852.01	23789.20
852.19	23273.12
852.36	23516.83
852.54	23869.08
852.71	23592.60
852.89	23504.54
853.07	23406.23
853.24	23611.03
853.42	23285.40
853.59	23385.76
853.77	23350.94
853.94	23371.42
854.12	23557.78
854.29	23219.87
854.47	23062.18
854.64	23215.77
854.82	23043.74
854.99	23154.33
855.17	22873.76
855.34	23017.12
855.52	23205.53
855.69	23262.88
855.87	22984.35
856.04	22972.07
856.22	22900.39
856.39	22640.29
856.57	22924.96
856.74	22783.65
856.92	22648.49
857.09	22453.93
857.27	22910.63
857.44	23043.74
857.62	22769.32
857.79	22623.91
857.97	22541.99
858.14	22894.24
858.32	22558.38
858.49	22570.66
858.67	22646.44
858.84	22539.94
859.02	22308.52
859.19	22130.35
859.37	22374.06
859.54	22388.39
859.72	22511.27
859.89	22226.60
860.06	22800.04
860.24	22183.60
860.41	22752.93
860.59	22212.27
860.76	22073.01
860.94	22009.52
861.11	22148.78
861.29	22095.53
861.46	21956.27
861.64	21739.19
861.81	21855.92
861.98	21907.12
862.16	21886.64
862.33	21329.59
862.51	21585.59
862.68	22175.41
862.86	21929.65
863.03	21690.04
863.21	21814.96
863.38	21700.28
863.55	21696.18
863.73	21477.05
863.90	21728.95
864.08	21571.25
864.25	21550.78
864.43	21593.78
864.60	21448.38
864.77	21247.68
864.95	21180.09
865.12	21108.41
865.30	21401.27
865.47	21065.41
865.64	21149.37
865.82	21409.47
865.99	21049.02
866.17	20938.43
866.34	21278.40
866.51	21010.11
866.69	21540.54
866.86	21188.28
867.04	21032.64
867.21	20649.67
867.38	20817.60
867.56	20846.27
867.73	20903.62
867.91	20524.74
868.08	20782.79
868.25	20727.49
868.43	20498.12
868.60	20764.36
868.78	20672.20
868.95	20680.39
869.12	20418.25
869.30	20541.13
869.47	20543.17
869.64	20496.07
869.82	20475.59
869.99	20213.45
870.16	20641.48
870.34	20606.66
870.51	20561.61
870.69	20389.58
870.86	20287.18
871.03	20289.23
871.21	20127.44
871.38	20311.75
871.55	20188.88
871.73	20119.24
871.90	20137.68
872.07	19732.18
872.25	19674.84
872.42	19891.92
872.59	20080.33
872.77	19789.52
872.94	19832.53
873.11	19637.97
873.29	19758.80
873.46	19699.41
873.63	19580.63
873.81	19648.21
873.98	19564.25
874.15	19793.62
874.33	19429.08
874.50	19431.13
874.67	19441.37
874.85	19410.65
875.02	19142.36
875.19	18960.09
875.37	18917.09
875.54	18986.72
875.71	19095.26
875.88	19019.49
876.06	19091.16
876.23	19160.80
876.40	18974.43
876.58	19019.49
876.75	18894.56
876.92	18818.78
877.10	18874.08
877.27	18700.00
877.44	18800.35
877.61	18759.39
877.79	18595.56
877.96	18826.98
878.13	18546.40
878.31	18357.99
878.48	18511.59
878.65	18585.32
878.82	18470.63
879.00	18540.26
879.17	18493.16
879.34	18519.78
879.51	18218.73
879.69	18073.32
879.86	18081.52
880.03	18132.72
880.21	18294.50
880.38	18183.91
880.55	18282.22
880.72	18231.02
880.90	18140.91
881.07	18007.79
881.24	18044.65
881.41	18122.48
881.59	17884.91
881.76	17919.73
881.93	18032.36
882.10	17786.61
882.28	17690.35
882.45	17960.69
882.62	17716.98
882.79	17891.06
882.96	17497.84
883.14	17608.44
883.31	17446.65
883.48	17592.05
883.65	17684.21
883.83	17798.90
884.00	17729.27
884.17	17663.73
884.34	17452.79
884.51	17516.28
884.69	17579.76
884.86	17499.89
885.03	17399.54
885.20	17428.21
885.38	17338.10
885.55	17219.32
885.72	17393.40
885.89	17102.59
886.06	17024.76
886.24	17094.40
886.41	16998.14
886.58	17362.68
886.75	17471.22
886.92	17241.85
887.10	17303.29
887.27	16930.56
887.44	16916.22
887.61	17262.33
887.78	16985.85
887.95	17303.29
888.13	16750.34
888.30	16799.49
888.47	16746.24
888.64	16717.57
888.81	16789.25
888.99	16815.87
889.16	16668.42
889.33	16576.26
889.50	16819.97
889.67	16629.51
889.84	16514.82
890.01	16709.38
890.19	16662.27
890.36	16731.90
890.53	16852.73
890.70	16482.05
890.87	16574.21
891.04	16379.65
891.22	16516.87
891.39	16477.96
891.56	16496.39
891.73	16256.78
891.90	16078.60
892.07	16115.47
892.24	16230.15
892.42	16445.19
892.59	16092.94
892.76	15832.85
892.93	15992.59
893.10	16154.38
893.27	16045.84
893.44	16068.36
893.61	15959.82
893.79	16043.79
893.96	15892.24
894.13	16244.49
894.30	16117.51
894.47	15986.44
894.64	16230.15
894.81	16082.70
894.98	15855.37
895.15	16289.54
895.33	15994.64
895.50	15818.51
895.67	16215.82
895.84	15990.54
896.01	15941.39
896.18	15716.11
896.35	16002.83
896.52	15816.46
896.69	15752.98
896.86	15609.62
897.04	15812.37
897.21	15841.04
897.38	15785.74
897.55	15605.52
897.72	15865.61
897.89	15716.11
898.06	15779.60
898.23	15798.03
898.40	15646.48
898.57	15789.84
898.74	15742.74
898.91	15666.96
899.08	15945.48
899.26	15765.26
899.43	15650.58
899.60	15650.58
899.77	15882.00
899.94	15548.18
900.11	15511.32
900.28	15830.80
900.45	15511.32
900.62	15580.95
900.79	15920.91
900.96	15748.88
901.13	15773.46
901.30	15560.47
901.47	15658.77
901.64	15767.31
901.81	15654.67
901.98	15460.12
902.15	15617.81
902.32	15410.96
902.49	15720.21
902.66	15615.76
902.83	15372.05
903.01	15564.56
903.18	15773.46
903.35	15658.77
903.52	15720.21
903.69	15677.20
903.86	15609.62
904.03	15564.56
904.20	15828.75
904.37	15712.02
904.54	15580.95
904.71	15302.42
904.88	15451.92
905.05	15382.29
905.22	15423.25
905.39	15245.08
905.56	15560.47
905.73	15562.51
905.90	15413.01
906.07	15320.85
906.24	15290.13
906.41	15396.63
906.58	15687.44
906.75	15349.53
906.92	15339.29
907.09	15404.82
907.26	15320.85
907.43	15372.05
907.60	15453.97
907.77	15564.56
907.93	15179.54
908.10	15402.77
908.27	15355.67
908.44	15267.61
908.61	15255.32
908.78	15410.96
908.95	15474.45
909.12	15087.39
909.29	15210.26
909.46	15294.23
909.63	15335.19
909.80	15433.49
909.97	15089.43
910.14	15435.54
910.31	15183.64
910.48	15048.47
910.65	15161.11
910.82	15183.64
910.99	15105.82
911.16	15197.98
911.33	15191.83
911.50	14878.49
911.66	15062.81
911.83	15202.07
912.00	14882.59
912.17	14972.70
912.34	15107.87
912.51	14970.65
912.68	14763.81
912.85	14794.53
913.02	14841.63
913.19	14743.33
913.36	14759.71
913.53	14864.16
913.70	14810.91
913.86	14649.12
914.03	14702.37
914.20	14364.45
914.37	14618.40
914.54	14610.21
914.71	14624.54
914.88	14739.23
915.05	14460.71
915.22	14626.59
915.39	14346.02
915.55	14378.79
915.72	14315.30
915.89	14413.60
916.06	14257.96
916.23	14186.28
916.40	14094.12
916.57	14049.07
916.74	14087.98
916.91	14114.60
917.07	14100.26
917.24	13963.05
917.41	13942.57
917.58	13924.14
917.75	13977.39
917.92	13799.21
918.09	13848.36
918.26	13809.45
918.42	13760.30
918.59	13819.69
918.76	13694.77
918.93	13741.87
919.10	13596.46
919.27	13629.23
919.44	13449.01
919.60	13535.03
919.77	13541.17
919.94	13133.62
920.11	13381.43
920.28	13545.27
920.45	13174.58
920.61	13156.15
920.78	13205.30
920.95	13088.57
921.12	12855.10
921.29	13129.53
921.46	13070.14
921.62	13010.75
921.79	13039.42
921.96	12869.44
922.13	12709.69
922.30	12795.71
922.47	12799.80
922.63	12595.01
922.80	12617.54
922.97	12744.51
923.14	12480.32
923.31	12492.61
923.47	12515.14
923.64	12611.39
923.81	12314.44
923.98	12185.41
924.15	12220.23
924.32	12136.26
924.48	12218.18
924.65	12244.81
924.82	12205.89
924.99	12011.34
925.15	11773.77
925.32	12093.26
925.49	11747.15
925.66	11882.31
925.83	11800.40
925.99	11829.07
926.16	11714.38
926.33	12033.86
926.50	11566.93
926.67	12015.43
926.83	11642.70
927.00	11579.22
927.17	11411.28
927.34	11378.51
927.50	11333.46
927.67	11581.26
927.84	11331.41
928.01	11134.81
928.17	10993.50
928.34	11151.19
928.51	11190.10
928.68	11112.28
928.84	10848.09
929.01	10905.43
929.18	10942.30
929.35	11040.60
929.51	10747.74
929.68	10569.57
929.85	10622.81
930.02	10858.33
930.18	10868.57
930.35	10624.86
930.52	10649.44
930.69	10612.57
930.85	10282.85
931.02	10401.63
931.19	10522.46
931.36	10329.95
931.52	10088.29
931.69	10383.20
931.86	10080.10
932.02	10198.88
932.19	10030.95
932.36	10067.81
932.53	10196.84
932.69	9848.68
932.86	9912.17
933.03	9805.67
933.19	9754.48
933.36	9654.12
933.53	9727.85
933.70	9662.32
933.86	9643.88
934.03	9684.84
934.20	9443.18
934.36	9555.82
934.53	9199.48
934.70	9244.53
934.86	9211.76
935.03	9127.80
935.20	9127.80
935.36	9213.81
935.53	8781.69
935.70	8933.24
935.86	9004.92
936.03	8685.44
936.20	8671.10
936.36	8537.98
936.53	8507.26
936.70	8482.69
936.86	8603.52
937.03	8312.71
937.20	8267.65
937.36	8263.55
937.53	7987.08
937.70	7960.45
937.86	7823.24
938.03	8044.42
938.20	7917.45
938.36	7788.43
938.53	7722.89
938.70	7468.94
938.86	7786.38
939.03	7282.58
939.20	7434.13
939.36	7333.78
939.53	7128.98
939.70	7321.49
939.86	6852.50
940.03	6854.55
940.19	6758.30
940.36	6784.92
940.53	6801.30
940.69	6514.59
940.86	6739.87
941.03	6528.92
941.19	6317.98
941.36	6535.07
941.52	6317.98
941.69	6434.72
941.86	6109.09
942.02	6270.88
942.19	6205.35
942.35	6021.03
942.52	6137.76
942.69	5867.43
942.85	5844.90
943.02	5963.68
943.18	6004.64
943.35	5750.70
943.52	5787.56
943.68	5742.50
943.85	5746.60
944.01	5670.83
944.18	5570.48
944.35	5732.26
944.51	5605.29
944.68	5425.07
944.84	5472.17
945.01	5445.55
945.17	5457.84
945.34	5423.02
945.51	5488.56
945.67	5468.08
945.84	5474.22
946.00	5343.15
946.17	5500.84
946.33	5316.53
946.50	5349.29
946.67	5246.90
946.83	5101.49
947.00	5451.69
947.16	5128.11
947.33	5187.50
947.49	5263.28
947.66	5238.70
947.82	5324.72
947.99	5238.70
948.16	5345.20
948.32	5238.70
948.49	5363.63
948.65	5306.29
948.82	5285.81
948.98	5218.22
949.15	5185.46
949.31	5361.58
949.48	5320.62
949.64	5195.70
949.81	5164.98
949.97	5238.70
950.14	5234.61
950.30	5103.54
950.47	5304.24
950.63	5294.00
950.80	5277.62
950.96	5308.34
951.13	5218.22
951.30	5275.57
951.46	5191.60
951.63	5470.12
951.79	5300.14
951.96	5459.88
952.12	5279.66
952.29	5474.22
952.45	5320.62
952.62	5363.63
952.78	5474.22
952.94	5250.99
953.11	5433.26
953.27	5216.18
953.44	5353.39
953.60	5451.69
953.77	5353.39
953.93	5423.02
954.10	5380.01
954.26	5400.49
954.43	5353.39
954.59	5433.26
954.76	5484.46
954.92	5511.08
955.09	5427.12
955.25	5396.40
955.42	5345.20
955.58	5431.21
955.75	5414.83
955.91	5380.01
956.07	5490.60
956.24	5513.13
956.40	5476.27
956.57	5349.29
956.73	5296.05
956.90	5429.17
957.06	5367.73
957.23	5375.92
957.39	5519.28
957.56	5472.17
957.72	5347.25
957.88	5353.39
958.05	5392.30
958.21	5509.04
958.38	5255.09
958.54	5463.98
958.71	5449.64
958.87	5390.25
959.03	5384.11
959.20	5353.39
959.36	5371.82
959.53	5384.11
959.69	5394.35
959.85	5298.10
960.02	5248.94
960.18	5427.12
960.35	5457.84
960.51	5390.25
960.68	5302.19
960.84	5271.47
961.00	5474.22
961.17	5408.69
961.33	5416.88
961.50	5320.62
961.66	5402.54
961.82	5345.20
961.99	5357.49
962.15	5285.81
962.31	5341.10
962.48	5363.63
962.64	5285.81
962.81	5423.02
962.97	5355.44
963.13	5439.40
963.30	5410.73
963.46	5277.62
963.62	5541.80
963.79	5416.88
963.95	5296.05
964.12	5304.24
964.28	5353.39
964.44	5445.55
964.61	5296.05
964.77	5294.00
964.93	5554.09
965.10	5304.24
965.26	5212.08
965.42	5244.85
965.59	5242.80
965.75	5117.87
965.92	5267.38
966.08	5226.42
966.24	5298.10
966.41	5230.51
966.57	5240.75
966.73	5224.37
966.90	5359.53
967.06	5240.75
967.22	5222.32
967.39	5146.55
967.55	5169.07
967.71	5173.17
967.88	5038.00
968.04	4974.52
968.20	5066.67
968.37	5074.87
968.53	5093.30
968.69	5072.82
968.85	5273.52
969.02	5083.06
969.18	5154.74
969.34	4968.37
969.51	5040.05
969.67	5169.07
969.83	5074.87
970.00	5179.31
970.16	4982.71
970.32	4949.94
970.48	5222.32
970.65	5048.24
970.81	4931.51
970.97	4898.74
971.14	4923.32
971.30	4896.69
971.46	5011.38
971.63	5052.34
971.79	4972.47
971.95	5019.57
972.11	4794.29
972.28	4939.70
972.44	4919.22
972.60	4689.85
972.76	4820.92
972.93	4816.82
973.09	4820.92
973.25	4851.64
973.42	4784.06
973.58	4814.77
973.74	4782.01
973.90	4833.21
974.07	4753.34
974.23	4833.21
974.39	4710.33
974.55	4771.77
974.72	4745.14
974.88	4655.03
975.04	4730.81
975.20	4718.52
975.37	4673.46
975.53	4667.32
975.69	4804.53
975.85	4681.66
976.01	4648.89
976.18	4472.76
976.34	4556.73
976.50	4689.85
976.66	4614.07
976.83	4569.02
976.99	4618.17
977.15	4532.15
977.31	4464.57
977.47	4493.24
977.64	4511.68
977.80	4546.49
977.96	4556.73
978.12	4495.29
978.29	4485.05
978.45	4386.75
978.61	4544.44
978.77	4560.83
978.93	4452.28
979.10	4532.15
979.26	4452.28
979.42	4493.24
979.58	4384.70
979.74	4446.14
979.91	4390.84
980.07	4521.92
980.23	4376.51
980.39	4366.27
980.55	4448.19
980.71	4478.91
980.88	4427.71
981.04	4321.21
981.20	4468.67
981.36	4362.17
981.52	4433.85
981.68	4212.67
981.85	4351.93
982.01	4245.44
982.17	4151.23
982.33	4186.05
982.49	4495.29
982.65	4337.60
982.82	4247.49
982.98	4249.54
983.14	4212.67
983.30	4278.21
983.46	4313.02
983.62	4321.21
983.79	4192.19
983.95	4130.75
984.11	4032.45
984.27	4204.48
984.43	4153.28
984.59	4145.09
984.75	4114.37
984.91	4112.32
985.08	4214.72
985.24	4063.17
985.40	4087.75
985.56	4136.90
985.72	4085.70
985.88	3999.68
986.04	4044.74
986.20	3919.81
986.37	3999.68
986.53	4057.03
986.69	4059.07
986.85	4034.50
987.01	4018.11
987.17	4085.70
987.33	3932.10
987.49	3905.48
987.65	3876.80
987.82	3899.33
987.98	3962.82
988.14	3991.49
988.30	3841.99
988.46	3878.85
988.62	3887.04
988.78	3911.62
988.94	3973.06
989.10	3811.27
989.26	3790.79
989.42	3835.85
989.59	3733.45
989.75	3684.30
989.91	3801.03
990.07	3612.62
990.23	3823.56
990.39	3760.07
990.55	3745.73
990.71	3702.73
990.87	3862.47
991.03	3774.41
991.19	3706.82
991.35	3688.39
991.51	3782.60
991.67	3780.55
991.83	3657.67
992.00	3536.84
992.16	3600.33
992.32	3698.63
992.48	3624.90
992.64	3489.74
992.80	3620.81
992.96	3622.86
993.12	3637.19
993.28	3647.43
993.44	3590.09
993.60	3567.56
993.76	3669.96
993.92	3620.81
994.08	3571.66
994.24	3524.55
994.40	3549.13
994.56	3637.19
994.72	3530.70
994.88	3573.71
995.04	3489.74
995.20	3471.31
995.36	3448.78
995.52	3499.98
995.68	3479.50
995.84	3469.26
996.00	3553.23
996.16	3340.24
996.32	3366.86
996.48	3452.88
996.64	3366.86
996.80	3422.16
996.96	3463.12
997.12	3446.73
997.28	3319.76
997.44	3446.73
997.60	3403.72
997.76	3352.52
997.92	3389.39
998.08	3293.13
998.24	3256.27
998.40	3395.53
998.56	3387.34
998.72	3153.87
998.88	3409.87
999.04	3192.78
999.20	3182.54
999.36	3301.33
999.52	3420.11
999.68	3274.70
999.84	3338.19
1000.00	3223.50
1000.16	3315.66
1000.32	3174.35
1000.48	3295.18
1000.64	3184.59
1000.80	3137.49
1000.95	3166.16
1001.11	3186.64
1001.27	3127.25
1001.43	3182.54
1001.59	3076.05
1001.75	2998.23
1001.91	3155.92
1002.07	3205.07
1002.23	3006.42
1002.39	3098.58
1002.55	3131.34
1002.71	3086.29
1002.87	2985.94
1003.03	3078.10
1003.19	3096.53
1003.34	3213.26
1003.50	2996.18
1003.66	3076.05
1003.82	3026.90
1003.98	3090.38
1004.14	2996.18
1004.30	2944.98
1004.46	2863.06
1004.62	2920.40
1004.78	3014.61
1004.94	2930.64
1005.09	3047.38
1005.25	3012.56
1005.41	2953.17
1005.57	3053.52
1005.73	2893.78
1005.89	2934.74
1006.05	2904.02
1006.21	2994.13
1006.37	2840.53
1006.52	2916.31
1006.68	2901.97
1006.84	2916.31
1007.00	2807.77
1007.16	2891.73
1007.32	2863.06
1007.48	2799.57
1007.64	2936.79
1007.79	2904.02
1007.95	2826.20
1008.11	3002.32
1008.27	2750.42
1008.43	2854.87
1008.59	2770.90
1008.75	2830.29
1008.91	2768.85
1009.06	2848.72
1009.22	2873.30
1009.38	2832.34
1009.54	2756.57
1009.70	2674.65
1009.86	2789.33
1010.01	2813.91
1010.17	2731.99
1010.33	2775.00
1010.49	2815.96
1010.65	2758.61
1010.81	2639.83
1010.96	2766.81
1011.12	2650.07
1011.28	2543.58
1011.44	2828.24
1011.60	2648.02
1011.76	2652.12
1011.91	2715.61
1012.07	2602.97
1012.23	2506.71
1012.39	2590.68
1012.55	2639.83
1012.71	2576.34
1012.86	2639.83
1013.02	2607.06
1013.18	2588.63
1013.34	2598.87
1013.50	2600.92
1013.65	2611.16
1013.81	2656.22
1013.97	2510.81
1014.13	2568.15
1014.29	2533.34
1014.44	2664.41
1014.60	2531.29
1014.76	2463.71
1014.92	2527.19
1015.07	2535.39
1015.23	2516.95
1015.39	2490.33
1015.55	2392.03
1015.71	2512.86
1015.86	2508.76
1016.02	2447.32
1016.18	2463.71
1016.34	2430.94
1016.49	2570.20
1016.65	2568.15
1016.81	2406.36
1016.97	2496.47
1017.12	2486.23
1017.28	2381.79
1017.44	2416.60
1017.60	2445.27
1017.75	2420.70
1017.91	2480.09
1018.07	2426.84
1018.23	2443.23
1018.38	2349.02
1018.54	2482.14
1018.70	2424.80
1018.86	2410.46
1019.01	2383.84
1019.17	2361.31
1019.33	2523.10
1019.49	2316.25
1019.64	2318.30
1019.80	2424.80
1019.96	2355.16
1020.12	2426.84
1020.27	2398.17
1020.43	2289.63
1020.59	2303.96
1020.74	2369.50
1020.90	2426.84
1021.06	2355.16
1021.22	2334.68
1021.37	2435.03
1021.53	2277.34
1021.69	2355.16
1021.84	2316.25
1022.00	2320.35
1022.16	2285.53
1022.31	2371.55
1022.47	2312.16
1022.63	2346.97
1022.79	2248.67
1022.94	2252.77
1023.10	2396.12
1023.26	2269.15
1023.41	2203.61
1023.57	2275.29
1023.73	2279.39
1023.88	2246.62
1024.04	2281.44
1024.20	2222.05
1024.35	2199.52
1024.51	2271.20
1024.67	2238.43
1024.82	2306.01
1024.98	2179.04
1025.14	2220.00
1025.29	2238.43
1025.45	2199.52
1025.61	2082.78
1025.76	2263.01
1025.92	2181.09
1026.08	2271.20
1026.23	2269.15
1026.39	2365.40
1026.55	2220.00
1026.70	2133.98
1026.86	2142.18
1027.02	2248.67
1027.17	2201.57
1027.33	2164.70
1027.48	2099.17
1027.64	2142.18
1027.80	2142.18
1027.95	2097.12
1028.11	2047.97
1028.27	2187.23
1028.42	2142.18
1028.58	2109.41
1028.73	2166.75
1028.89	2123.74
1029.05	2183.13
1029.20	2166.75
>>>>>End Processed Spectral Data<<<<<
