SpectraSuite Data File
++++++++++++++++++++++++++++++++++++
Date: Fri Jun 02 14:52:30 CEST 2017
User: INFO_000
Dark Spectrum Present: No
Reference Spectrum Present: No
Number of Sampled Component Spectra: 1
Spectrometers: USB4H00879
Integration Time (usec): 80000 (USB4H00879)
Spectra Averaged: 1 (USB4H00879)
Boxcar Smoothing: 0 (USB4H00879)
Correct for Electrical Dark: No (USB4H00879)
Strobe/Lamp Enabled: No (USB4H00879)
Correct for Detector Non-linearity: No (USB4H00879)
Correct for Stray Light: No (USB4H00879)
Number of Pixels in Processed Spectrum: 3648
>>>>>Begin Processed Spectral Data<<<<<
345.13	1202.16
345.34	1202.16
345.56	1202.16
345.78	1271.79
345.99	1294.32
346.21	1693.67
346.42	1693.67
346.64	1667.05
346.86	1767.40
347.07	1619.94
347.29	1732.58
347.50	1605.61
347.72	1671.14
347.94	1746.92
348.15	1570.79
348.37	1634.28
348.59	1673.19
348.80	1705.96
349.02	1742.82
349.23	1851.36
349.45	1853.41
349.67	1890.28
349.88	1841.12
350.10	1984.48
350.31	1877.99
350.53	1818.60
350.75	2045.92
350.96	1755.11
351.18	1810.40
351.39	1896.42
351.61	1789.92
351.82	1908.71
352.04	2015.20
352.26	1904.61
352.47	1970.15
352.69	1933.28
352.90	1746.92
353.12	1925.09
353.34	1863.65
353.55	1986.53
353.77	1851.36
353.98	1822.69
354.20	1806.31
354.41	1959.91
354.63	1947.62
354.85	2047.97
355.06	1910.75
355.28	1863.65
355.49	1931.23
355.71	1906.66
355.92	1916.90
356.14	1902.56
356.35	1894.37
356.57	1888.23
356.79	1959.91
357.00	1920.99
357.22	1957.86
357.43	1748.97
357.65	1998.82
357.86	1826.79
358.08	1880.04
358.29	1992.67
358.51	1976.29
358.72	1949.67
358.94	1964.00
359.16	1920.99
359.37	1892.32
359.59	1869.80
359.80	1986.53
360.02	1961.95
360.23	2060.26
360.45	2009.06
360.66	1943.52
360.88	1894.37
361.09	1859.56
361.31	1953.76
361.52	1910.75
361.74	2097.12
361.95	1986.53
362.17	1961.95
362.38	2136.03
362.60	2002.91
362.81	2099.17
363.03	1916.90
363.24	2029.54
363.46	2101.22
363.67	2060.26
363.89	2013.15
364.10	1970.15
364.32	2015.20
364.53	2066.40
364.75	1931.23
364.96	1994.72
365.18	2070.50
365.39	1990.63
365.61	1933.28
365.82	2027.49
366.04	1992.67
366.25	1927.14
366.47	2080.74
366.68	1953.76
366.90	2025.44
367.11	2019.30
367.33	2107.36
367.54	1986.53
367.76	2021.35
367.97	2070.50
368.19	2033.63
368.40	2086.88
368.62	2002.91
368.83	2000.87
369.05	2062.30
369.26	1972.19
369.48	2023.39
369.69	2052.06
369.91	2107.36
370.12	2035.68
370.33	2121.70
370.55	2066.40
370.76	1996.77
370.98	2125.79
371.19	2099.17
371.41	2009.06
371.62	1990.63
371.84	2035.68
372.05	2197.47
372.27	2045.92
372.48	2088.93
372.69	2078.69
372.91	2183.13
373.12	2123.74
373.34	2052.06
373.55	2209.76
373.77	2152.42
373.98	2166.75
374.20	2164.70
374.41	2197.47
374.62	2043.87
374.84	2176.99
375.05	2254.81
375.27	2125.79
375.48	2179.04
375.70	2121.70
375.91	2215.90
376.12	2271.20
376.34	2093.02
376.55	2187.23
376.77	2215.90
376.98	2181.09
377.19	2166.75
377.41	2103.26
377.62	2160.61
377.84	2224.09
378.05	2248.67
378.27	2183.13
378.48	2242.53
378.69	2404.32
378.91	2271.20
379.12	2263.01
379.34	2203.61
379.55	2314.20
379.76	2275.29
379.98	2187.23
380.19	2207.71
380.41	2228.19
380.62	2404.32
380.83	2166.75
381.05	2166.75
381.26	2346.97
381.47	2183.13
381.69	2222.05
381.90	2394.08
382.12	2228.19
382.33	2271.20
382.54	2254.81
382.76	2369.50
382.97	2256.86
383.19	2299.87
383.40	2320.35
383.61	2285.53
383.83	2273.25
384.04	2371.55
384.25	2281.44
384.47	2402.27
384.68	2383.84
384.89	2332.64
385.11	2269.15
385.32	2322.40
385.54	2340.83
385.75	2342.88
385.96	2340.83
386.18	2402.27
386.39	2455.51
386.60	2392.03
386.82	2383.84
387.03	2400.22
387.24	2412.51
387.46	2457.56
387.67	2441.18
387.88	2584.54
388.10	2475.99
388.31	2490.33
388.52	2469.85
388.74	2586.58
388.95	2490.33
389.16	2531.29
389.38	2457.56
389.59	2449.37
389.80	2527.19
390.02	2555.86
390.23	2555.86
390.44	2494.43
390.66	2525.15
390.87	2469.85
391.08	2637.78
391.30	2666.46
391.51	2578.39
391.72	2586.58
391.94	2645.98
392.15	2664.41
392.36	2621.40
392.58	2564.06
392.79	2625.50
393.00	2695.13
393.22	2662.36
393.43	2678.74
393.64	2736.09
393.85	2600.92
394.07	2609.11
394.28	2686.94
394.49	2721.75
394.71	2746.33
394.92	2805.72
395.13	2729.94
395.35	2666.46
395.56	2721.75
395.77	2770.90
395.98	2766.81
396.20	2803.67
396.41	2815.96
396.62	2869.20
396.84	2772.95
397.05	2842.58
397.26	2910.16
397.47	2879.44
397.69	2815.96
397.90	3006.42
398.11	2959.31
398.32	2920.40
398.54	2830.29
398.75	2951.12
398.96	2805.72
399.18	2996.18
399.39	2967.51
399.60	2930.64
399.81	3002.32
400.03	2883.54
400.24	3289.04
400.45	2897.88
400.66	3174.35
400.88	2961.36
401.09	3090.38
401.30	3080.14
401.51	3170.26
401.73	3090.38
401.94	3090.38
402.15	3164.11
402.36	3180.50
402.58	3237.84
402.79	3198.93
403.00	3215.31
403.21	3305.42
403.43	3291.09
403.64	3303.37
403.85	3086.29
404.06	3272.65
404.27	3067.86
404.49	3170.26
404.70	3133.39
404.91	3196.88
405.12	3270.61
405.34	3342.28
405.55	3327.95
405.76	3203.02
405.97	3325.90
406.19	3444.68
406.40	3262.41
406.61	3289.04
406.82	3336.14
407.03	3330.00
407.25	3203.02
407.46	3383.24
407.67	3409.87
407.88	3471.31
408.09	3276.75
408.31	3405.77
408.52	3366.86
408.73	3426.25
408.94	3358.67
409.15	3413.96
409.37	3655.62
409.58	3567.56
409.79	3479.50
410.00	3534.79
410.21	3446.73
410.43	3366.86
410.64	3471.31
410.85	3585.99
411.06	3579.85
411.27	3573.71
411.48	3561.42
411.70	3475.40
411.91	3635.14
412.12	3667.91
412.33	3542.99
412.54	3655.62
412.76	3575.75
412.97	3704.78
413.18	3497.93
413.39	3561.42
413.60	3755.97
413.81	3692.49
414.03	3516.36
414.24	3592.14
414.45	3809.22
414.66	3557.32
414.87	3801.03
415.08	3700.68
415.30	3848.13
415.51	3803.08
415.72	3772.36
415.93	3753.93
416.14	3776.45
416.35	3809.22
416.56	3807.17
416.78	3854.28
416.99	3772.36
417.20	3813.32
417.41	3964.87
417.62	3848.13
417.83	3895.24
418.04	3854.28
418.26	3981.25
418.47	3782.60
418.68	3960.77
418.89	3985.35
419.10	4143.04
419.31	3997.64
419.52	4007.87
419.73	4028.35
419.95	4059.07
420.16	3915.72
420.37	3993.54
420.58	4184.00
420.79	3848.13
421.00	4040.64
421.21	4159.42
421.42	4128.70
421.63	4063.17
421.85	4138.94
422.06	4065.22
422.27	4132.80
422.48	4089.79
422.69	4229.06
422.90	4198.34
423.11	4435.90
423.32	4261.82
423.53	4382.65
423.75	4415.42
423.96	4392.89
424.17	4306.88
424.38	4505.53
424.59	4272.06
424.80	4628.41
425.01	4345.79
425.22	4308.93
425.43	4280.25
425.64	4607.93
425.85	4605.88
426.06	4435.90
426.28	4493.24
426.49	4519.87
426.70	4495.29
426.91	4507.58
427.12	4540.35
427.33	4618.17
427.54	4519.87
427.75	4595.64
427.96	4718.52
428.17	4704.18
428.38	4829.11
428.59	4915.12
428.80	4685.75
429.01	4878.26
429.23	4726.71
429.44	4870.07
429.65	4886.45
429.86	5023.67
430.07	4849.59
430.28	4771.77
430.49	4861.88
430.70	5029.81
430.91	5066.67
431.12	4982.71
431.33	5072.82
431.54	5056.43
431.75	5052.34
431.96	4896.69
432.17	5085.11
432.38	4986.80
432.59	5271.47
432.80	5250.99
433.01	5281.71
433.22	5255.09
433.43	5203.89
433.64	5328.81
433.85	5187.50
434.06	5439.40
434.27	5238.70
434.49	5457.84
434.70	5431.21
434.91	5500.84
435.12	5285.81
435.33	5402.54
435.54	5343.15
435.75	5337.01
435.96	5545.90
436.17	5382.06
436.38	5531.56
436.59	5459.88
436.80	5423.02
437.01	5644.20
437.22	5636.01
437.43	5638.06
437.64	5435.31
437.85	5722.02
438.06	5793.70
438.27	5588.91
438.48	5588.91
438.69	5797.80
438.90	5607.34
439.11	5584.81
439.32	5773.22
439.53	5670.83
439.74	5818.28
439.95	5793.70
440.16	5816.23
440.37	5939.11
440.57	5758.89
440.78	5879.72
440.99	5775.27
441.20	5869.48
441.41	5734.31
441.62	5920.68
441.83	5785.51
442.04	5961.64
442.25	6066.08
442.46	5939.11
442.67	5955.49
442.88	6465.44
443.09	5932.97
443.30	6092.71
443.51	6139.81
443.72	6272.93
443.93	6125.47
444.14	6399.90
444.35	6051.75
444.56	6229.92
444.77	6201.25
444.98	6193.06
445.19	6350.75
445.40	6371.23
445.61	6283.17
445.81	6436.77
446.02	6352.80
446.23	6459.29
446.44	6131.62
446.65	6481.82
446.86	6561.69
447.07	6600.60
447.28	6686.62
447.49	6557.60
447.70	6576.03
447.91	6496.16
448.12	6698.91
448.33	6657.95
448.54	6635.42
448.74	6662.04
448.95	6829.98
449.16	6608.80
449.37	6868.89
449.58	6616.99
449.79	7026.58
450.00	6723.48
450.21	6821.78
450.42	6981.53
450.63	7008.15
450.84	6940.57
451.05	6959.00
451.25	6893.46
451.46	7088.02
451.67	7286.67
451.88	7065.49
452.09	7131.03
452.30	7088.02
452.51	7182.23
452.72	7198.61
452.93	7571.34
453.13	7163.79
453.34	7262.10
453.55	7356.30
453.76	7360.40
453.97	7677.83
454.18	7364.50
454.39	7360.40
454.60	7573.39
454.81	7464.85
455.01	7731.08
455.22	7356.30
455.43	7546.76
455.64	7755.66
455.85	7741.32
456.06	7851.91
456.27	7872.39
456.48	7677.83
456.68	7798.66
456.89	7767.95
457.10	7929.74
457.31	7817.10
457.52	7925.64
457.73	8064.90
457.94	8318.85
458.14	7995.27
458.35	8306.56
458.56	8204.16
458.77	8163.20
458.98	8310.66
459.19	8298.37
459.39	8296.32
459.60	8515.45
459.81	8359.81
460.02	8472.45
460.23	8374.14
460.44	8791.93
460.65	8568.70
460.85	8697.72
461.06	8781.69
461.27	8484.73
461.48	8890.23
461.69	8949.62
461.89	8462.21
462.10	8761.21
462.31	8574.85
462.52	8812.41
462.73	8783.74
462.94	9037.69
463.14	9027.45
463.35	8976.25
463.56	9496.43
463.77	9324.40
463.98	9338.74
464.18	9391.98
464.39	9414.51
464.60	9652.08
464.81	9482.10
465.02	9561.97
465.23	9721.71
465.43	9432.94
465.64	9748.33
465.85	9781.10
466.06	9695.08
466.27	9736.04
466.47	10149.73
466.68	9875.31
466.89	9936.74
467.10	10114.92
467.30	9879.40
467.51	9983.85
467.72	10522.46
467.93	10200.93
468.14	10239.84
468.34	10522.46
468.55	10510.18
468.76	10530.66
468.97	10581.85
469.17	10676.06
469.38	10645.34
469.59	10823.51
469.80	10741.60
470.01	10786.65
470.21	10737.50
470.42	11163.48
470.63	11245.40
470.84	11022.17
471.04	10964.82
471.25	11204.44
471.46	11095.89
471.67	11460.43
471.87	11349.84
472.08	11429.71
472.29	11648.85
472.50	11274.07
472.70	11542.35
472.91	11552.59
473.12	11691.85
473.33	12001.10
473.53	12015.43
473.74	11915.08
473.95	12166.98
474.16	12136.26
474.36	12123.98
474.57	12533.57
474.78	12545.86
474.99	12412.74
475.19	12183.37
475.40	12588.86
475.61	12773.18
475.81	12779.32
476.02	12998.46
476.23	12805.95
476.44	12975.93
476.64	13279.03
476.85	13266.74
477.06	13326.13
477.27	13627.18
477.47	13612.85
477.68	13528.88
477.89	13948.72
478.09	13858.60
478.30	13825.84
478.51	13887.28
478.71	13995.82
478.92	14016.30
479.13	14055.21
479.34	14343.97
479.54	14173.99
479.75	14356.26
479.96	14567.20
480.16	14663.46
480.37	14653.22
480.58	14821.15
480.78	15234.84
480.99	14964.51
481.20	15044.38
481.41	15114.01
481.61	15415.06
481.82	15220.50
482.03	15273.75
482.23	15306.52
482.44	15660.82
482.65	15787.79
482.85	15992.59
483.06	15755.02
483.27	15929.10
483.47	15998.73
483.68	16074.51
483.89	16252.68
484.09	16338.69
484.30	16490.24
484.51	16426.76
484.71	16705.28
484.92	16600.83
485.13	16668.42
485.33	16940.80
485.54	16893.69
485.75	17270.52
485.95	17112.83
486.16	16979.71
486.37	17155.83
486.57	17422.07
486.78	17252.09
486.98	17436.41
487.19	17676.02
487.40	17590.00
487.60	17635.06
487.81	17983.21
488.02	17870.58
488.22	17747.70
488.43	17927.92
488.64	18130.67
488.84	18515.69
489.05	18487.01
489.25	18384.62
489.46	18482.92
489.67	18632.42
489.87	18411.24
490.08	18831.07
490.29	19050.21
490.49	18949.85
490.70	19265.24
490.90	19304.15
491.11	19406.55
491.32	19359.45
491.52	19513.05
491.73	19205.85
491.94	19496.66
492.14	19259.10
492.35	19992.27
492.55	19855.06
492.76	20059.85
492.97	20004.56
493.17	19764.95
493.38	20094.67
493.58	20481.74
493.79	20696.77
494.00	20483.78
494.20	20309.71
494.41	20711.11
494.61	20739.78
494.82	20690.63
495.02	20627.14
495.23	20731.59
495.44	20745.92
495.64	20946.62
495.85	21401.27
496.05	21255.87
496.26	21307.07
496.47	21489.34
496.67	21501.62
496.88	21540.54
497.08	21663.41
497.29	21882.55
497.49	21909.17
497.70	21812.92
497.91	21874.35
498.11	22038.19
498.32	22224.56
498.52	22503.08
498.73	22580.90
498.93	22501.03
499.14	22738.60
499.34	22564.52
499.55	22808.23
499.76	22376.11
499.96	22709.93
500.17	23019.17
500.37	23027.36
500.58	22949.54
500.78	23250.59
500.99	23316.12
501.19	23420.57
501.40	23101.09
501.60	23260.83
501.81	23242.40
502.02	23535.26
502.22	23414.43
502.43	23453.34
502.63	23541.40
502.84	23752.34
503.04	23828.12
503.25	23924.37
503.45	23803.54
503.66	23881.36
503.86	24082.06
504.07	24141.46
504.27	24112.78
504.48	24467.08
504.68	24368.78
504.89	24778.37
505.09	24585.86
505.30	24505.99
505.50	24874.63
505.71	24907.40
505.91	24884.87
506.12	24856.20
506.32	25048.71
506.53	25032.32
506.73	25216.64
506.94	25210.50
507.14	25300.61
507.35	25196.16
507.55	25394.81
507.76	25544.31
507.96	25400.96
508.17	25437.82
508.37	25794.17
508.58	25720.44
508.78	25749.11
508.99	25941.62
509.19	25915.00
509.40	25888.37
509.60	25935.48
509.81	25859.70
510.01	26216.05
510.22	26158.70
510.42	26338.93
510.63	26232.43
510.83	26244.72
511.04	26345.07
511.24	26203.76
511.44	26506.86
511.65	26664.55
511.85	26510.96
512.06	26816.10
512.26	26508.91
512.47	26654.31
512.67	26893.93
512.88	27377.25
513.08	26678.89
513.29	27059.81
513.49	27321.95
513.69	26953.32
513.90	27102.82
514.10	27313.76
514.31	27164.26
514.51	27373.15
514.72	27211.36
514.92	27211.36
515.13	27631.19
515.33	27395.68
515.53	27555.42
515.74	27641.43
515.94	27702.87
516.15	27749.98
516.35	27795.03
516.56	28051.03
516.76	27616.86
516.96	27879.00
517.17	28259.92
517.37	27995.73
517.58	27835.99
517.78	27950.68
517.99	28218.96
518.19	28200.53
518.39	28593.74
518.60	28855.88
518.80	28388.94
519.01	28448.33
519.21	28804.68
519.41	28706.38
519.62	28913.22
519.82	29140.55
520.03	29034.05
520.23	28900.94
520.43	28737.10
520.64	29345.34
520.84	29191.75
521.05	29363.78
521.25	29214.27
521.45	29533.76
521.66	29888.06
521.86	29789.75
522.07	29627.96
522.27	29617.72
522.47	29673.02
522.68	29969.97
522.88	29652.54
523.08	30152.24
523.29	30051.89
523.49	30039.61
523.70	30389.81
523.90	30301.75
524.10	30213.68
524.31	30412.34
524.51	30189.11
524.71	30723.63
524.92	30451.25
525.12	30809.64
525.33	30791.21
525.53	30811.69
525.73	31184.42
525.94	31233.57
526.14	30873.13
526.34	31120.93
526.55	31397.41
526.75	31637.02
526.95	31532.57
527.16	31536.67
527.36	31569.44
527.56	31911.45
527.77	31813.15
527.97	31890.97
528.17	31903.26
528.38	31913.50
528.58	31970.84
528.78	32099.86
528.99	32026.14
529.19	32232.98
529.39	31921.69
529.60	32689.68
529.80	32077.33
530.00	32402.96
530.21	32728.59
530.41	32851.47
530.61	32503.31
530.82	32869.90
531.02	32718.35
531.22	33349.12
531.43	33222.15
531.63	33162.76
531.83	33582.59
532.04	33474.05
532.24	33414.66
532.44	33951.23
532.64	33539.58
532.85	33814.01
533.05	33709.57
533.25	34104.82
533.46	34031.10
533.66	34418.16
533.86	33910.27
534.07	34780.65
534.27	34563.57
534.47	34782.70
534.67	34434.55
534.88	34420.21
535.08	34715.12
535.28	34833.90
535.49	35046.89
535.69	35360.23
535.89	35223.01
536.09	35509.73
536.30	35292.65
536.50	35501.54
536.70	35558.88
536.91	35632.61
537.11	35741.15
537.31	35972.57
537.51	35841.50
537.72	35952.09
537.92	35999.19
538.12	36251.09
538.32	36013.53
538.53	36445.65
538.73	36023.77
538.93	36498.90
539.13	36605.39
539.34	36521.43
539.54	36505.04
539.74	36906.44
539.94	36656.59
540.15	36275.67
540.35	36961.74
540.55	36785.61
540.75	37068.23
540.96	37025.23
541.16	37109.19
541.36	37332.42
541.56	37445.06
541.77	37746.11
541.97	37281.22
542.17	37488.07
542.37	37223.88
542.58	37477.83
542.78	37723.58
542.98	37586.37
543.18	37989.82
543.38	38501.81
543.59	38208.95
543.79	38016.44
543.99	38270.39
544.19	38188.47
544.40	38041.02
544.60	38503.86
544.80	38467.00
545.00	38477.24
545.20	38727.09
545.41	38542.77
545.61	38745.52
545.81	38722.99
546.01	38993.32
546.21	38778.29
546.42	38614.45
546.62	39194.03
546.82	38766.00
547.02	38938.03
547.22	38849.97
547.43	38983.09
547.63	39108.01
547.83	39392.68
548.03	38968.75
548.23	39388.58
548.44	39701.92
548.64	39703.97
548.84	39763.36
549.04	39761.31
549.24	39992.73
549.45	39857.57
549.65	39261.61
549.85	39814.56
550.05	40125.85
550.25	39873.95
550.45	40066.46
550.66	40146.33
550.86	39921.05
551.06	40222.11
551.26	40390.04
551.46	40379.80
551.66	40611.22
551.87	40535.45
552.07	40381.85
552.27	40228.25
552.47	40496.53
552.67	40787.35
552.87	40322.46
553.07	40885.65
553.28	40766.87
553.48	40619.41
553.68	40846.74
553.88	41215.37
554.08	40998.29
554.28	41096.59
554.48	40850.83
554.69	41020.81
554.89	41055.63
555.09	40822.16
555.29	40838.54
555.49	41282.95
555.69	41096.59
555.89	41223.56
556.10	41006.48
556.30	41065.87
556.50	41356.68
556.70	41203.08
556.90	41436.55
557.10	41631.11
557.30	41596.29
557.50	41889.15
557.70	41692.55
557.91	42130.81
558.11	41547.14
558.31	41794.95
558.51	42057.09
558.71	41936.26
558.91	42233.21
559.11	41926.02
559.31	41989.50
559.51	42038.65
559.72	41577.86
559.92	42720.63
560.12	41883.01
560.32	42249.60
560.52	42077.57
560.72	42431.86
560.92	42255.74
561.12	42476.92
561.32	42468.73
561.52	42513.78
561.72	42890.61
561.93	42243.45
562.13	42497.40
562.33	42206.59
562.53	43265.39
562.73	42423.67
562.93	42730.87
563.13	42798.45
563.33	42583.41
563.53	43015.54
563.73	42573.17
563.93	42839.41
564.13	43079.02
564.33	43031.92
564.53	43003.25
564.74	43124.08
564.94	42986.86
565.14	43363.69
565.34	43038.06
565.54	43324.78
565.74	42894.71
565.94	43517.29
566.14	43343.21
566.34	43341.16
566.54	43441.51
566.74	43046.26
566.94	43543.91
567.14	43820.39
567.34	43193.71
567.54	44232.03
567.74	43548.01
567.94	43732.32
568.14	44170.59
568.34	44090.72
568.54	43943.27
568.74	43912.55
568.94	43904.35
569.14	44242.27
569.34	43779.43
569.54	44057.95
569.75	43717.99
569.95	44152.16
570.15	44369.24
570.35	44680.53
570.55	44293.47
570.75	44135.77
570.95	44139.87
571.15	44526.94
571.35	44586.33
571.55	44860.76
571.75	44346.72
571.95	44578.14
572.15	44520.79
572.35	44985.68
572.55	44619.10
572.75	44662.10
572.95	44725.59
573.15	44588.38
573.35	44596.57
573.55	44686.68
573.75	44733.78
573.95	44850.52
574.15	45053.26
574.35	45290.83
574.55	44914.00
574.75	44950.87
574.95	45389.13
575.15	45235.53
575.34	45170.00
575.54	45370.70
575.74	45720.90
575.94	45565.26
576.14	45342.03
576.34	45892.93
576.54	45559.11
576.74	45751.62
576.94	45339.98
577.14	45442.38
577.34	46265.66
577.54	45942.08
577.74	46427.45
577.94	45800.77
578.14	46347.58
578.34	45937.99
578.54	45788.49
578.74	46224.70
578.94	46531.90
579.14	46323.01
579.34	46351.68
579.54	46355.77
579.74	46617.91
579.94	46871.86
580.13	46740.79
580.33	46697.78
580.53	46769.46
580.73	46933.30
580.93	46734.65
581.13	46626.10
581.33	47287.60
581.53	47525.16
581.73	47377.71
581.93	47267.12
582.13	47326.51
582.33	47453.48
582.53	47252.78
582.73	47277.36
582.92	47330.61
583.12	47449.39
583.32	47437.10
583.52	47629.61
583.72	47299.89
583.92	47500.59
584.12	47572.27
584.32	48579.87
584.52	47306.03
584.72	47996.20
584.92	47684.90
585.11	48262.43
585.31	47979.81
585.51	48188.70
585.71	48354.59
585.91	48137.51
586.11	48315.68
586.31	48266.53
586.51	48108.83
586.71	48362.78
586.91	48831.77
587.10	48749.85
587.30	48559.39
587.50	48624.92
587.70	48600.35
587.90	48579.87
588.10	48624.92
588.30	48280.86
588.50	48964.88
588.69	48948.50
588.89	48870.68
589.09	48956.69
589.29	48680.22
589.49	49345.81
589.69	48694.55
589.89	49118.48
590.08	49007.89
590.28	49030.42
590.48	49288.46
590.68	48995.60
590.88	49397.01
591.08	49427.73
591.28	49112.34
591.47	49698.06
591.67	49358.09
591.87	49583.37
592.07	49597.71
592.27	49861.90
592.47	49325.33
592.67	49952.01
592.86	49685.77
593.06	50154.75
593.26	49988.87
593.46	50083.08
593.66	50068.74
593.86	50203.91
594.05	49919.24
594.25	50437.37
594.45	50136.32
594.65	50048.26
594.85	50058.50
595.05	50654.46
595.24	50615.55
595.44	50627.84
595.64	50572.54
595.84	50451.71
596.04	50740.47
596.23	50412.80
596.43	50986.23
596.63	50652.41
596.83	50705.66
597.03	51133.68
597.22	51107.06
597.42	50990.33
597.62	51234.03
597.82	50945.27
598.02	51207.41
598.21	51348.72
598.41	50973.94
598.61	50914.55
598.81	51180.79
599.01	51465.45
599.20	51094.77
599.40	51043.57
599.60	51793.13
599.80	51453.17
600.00	51741.93
600.19	51619.05
600.39	51649.77
600.59	51571.95
600.79	51373.30
600.98	51786.99
601.18	52014.31
601.38	51762.41
601.58	51719.40
601.78	52069.61
601.97	52055.27
602.17	52686.04
602.37	52042.98
602.57	52135.14
602.76	52864.22
602.96	52188.39
603.16	52827.35
603.36	52464.86
603.55	52597.98
603.75	52188.39
603.95	52802.78
604.15	52733.15
604.34	52643.04
604.54	52520.16
604.74	52796.63
604.94	52739.29
605.13	53103.83
605.33	52817.11
605.53	52419.81
605.73	53060.82
605.92	53216.47
606.12	53312.72
606.32	52827.35
606.52	52864.22
606.71	53048.53
606.91	53480.66
607.11	53185.75
607.30	53374.16
607.50	53253.33
607.70	53218.52
607.90	52972.76
608.09	53222.61
608.29	53574.86
608.49	53472.46
608.68	53540.05
608.88	53517.52
609.08	53464.27
609.28	53802.19
609.47	53425.36
609.67	54222.02
609.87	53667.02
610.06	53763.28
610.26	53617.87
610.46	53904.59
610.66	53613.77
610.85	53710.03
611.05	53587.15
611.25	54142.15
611.44	53607.63
611.64	53851.34
611.84	53712.08
612.03	53599.44
612.23	53886.15
612.43	53982.41
612.62	53601.49
612.82	54244.55
613.02	54265.03
613.21	53812.43
613.41	53761.23
613.61	53902.54
613.80	53599.44
614.00	53986.50
614.20	53865.67
614.39	54142.15
614.59	54367.43
614.79	54093.00
614.98	53912.78
615.18	54236.36
615.38	54093.00
615.57	53863.63
615.77	54224.07
615.97	53990.60
616.16	53814.47
616.36	54211.78
616.56	54443.20
616.75	54281.41
616.95	53908.68
617.15	54273.22
617.34	53861.58
617.54	53920.97
617.74	54244.55
617.93	54459.58
618.13	53638.35
618.32	54525.12
618.52	54107.33
618.72	53982.41
618.91	54136.01
619.11	53902.54
619.31	54039.75
619.50	53728.46
619.70	54068.42
619.90	54017.22
620.09	54185.16
620.29	54346.95
620.48	54107.33
620.68	54410.43
620.88	53914.83
621.07	53994.70
621.27	54619.33
621.46	53929.16
621.66	53519.57
621.86	54090.95
622.05	53896.39
622.25	54219.97
622.44	53841.10
622.64	53978.31
622.84	54189.25
623.03	53384.40
623.23	53789.90
623.42	54006.98
623.62	54267.08
623.82	53998.79
624.01	53834.95
624.21	54166.73
624.40	53832.91
624.60	53626.06
624.80	54011.08
624.99	54109.38
625.19	53669.07
625.38	53994.70
625.58	53828.81
625.77	54060.23
625.97	53990.60
626.17	53474.51
626.36	54338.75
626.56	54009.03
626.75	53671.12
626.95	54187.21
627.14	53677.26
627.34	54068.42
627.54	53830.86
627.73	53914.83
627.93	53968.07
628.12	53916.87
628.32	54400.19
628.51	53757.13
628.71	54011.08
628.90	53466.32
629.10	53488.85
629.30	54183.11
629.49	53949.64
629.69	53855.43
629.88	54187.21
630.08	54508.74
630.27	53757.13
630.47	54072.52
630.66	54002.89
630.86	53791.95
631.05	53630.16
631.25	53982.41
631.44	53998.79
631.64	54191.30
631.84	54078.66
632.03	54199.49
632.23	53990.60
632.42	54426.82
632.62	54103.24
632.81	53785.80
633.01	53628.11
633.20	53650.64
633.40	54136.01
633.59	54447.30
633.79	53759.18
633.98	54138.05
634.18	54160.58
634.37	54359.23
634.57	53873.87
634.76	54305.99
634.96	54119.62
635.15	54312.13
635.35	53456.08
635.54	54097.09
635.74	54508.74
635.93	53820.62
636.13	53966.02
636.32	54187.21
636.52	53740.75
636.71	54185.16
636.91	54279.36
637.10	54506.69
637.30	54330.56
637.49	54197.44
637.69	54504.64
637.88	54506.69
638.08	54076.61
638.27	54351.04
638.46	54389.95
638.66	54086.85
638.85	54205.64
639.05	54136.01
639.24	54426.82
639.44	54439.11
639.63	54052.04
639.83	54432.96
640.02	54310.08
640.22	54686.91
640.41	54650.05
640.61	54148.29
640.80	54705.34
640.99	53990.60
641.19	54899.90
641.38	54830.27
641.58	54459.58
641.77	54445.25
641.97	54351.04
642.16	54291.65
642.36	54392.00
642.55	55133.37
642.74	54338.75
642.94	55168.18
643.13	54744.25
643.33	55106.74
643.52	55137.46
643.72	54879.42
643.91	54404.29
644.10	54588.61
644.30	54951.10
644.49	54518.98
644.69	54658.24
644.88	54873.27
645.08	54512.83
645.27	54736.06
645.46	54965.43
645.66	54797.50
645.85	54674.62
646.05	54901.95
646.24	54506.69
646.43	55084.22
646.63	55211.19
646.82	55461.04
647.02	55159.99
647.21	55063.74
647.40	55125.17
647.60	55217.33
647.79	55112.89
647.99	55262.39
648.18	55108.79
648.37	55772.33
648.57	55268.53
648.76	55481.52
648.96	55045.30
649.15	55755.95
649.34	55678.13
649.54	55311.54
649.73	54951.10
649.92	55028.92
650.12	55221.43
650.31	55772.33
650.51	55311.54
650.70	55334.07
650.89	55004.34
651.09	56120.49
651.28	55315.64
651.47	55620.78
651.67	55456.95
651.86	56177.83
652.06	55045.30
652.25	55692.46
652.44	55753.90
652.64	55465.14
652.83	55469.23
653.02	55243.96
653.22	55321.78
653.41	55237.81
653.60	55631.02
653.80	55424.18
653.99	56169.64
654.18	55917.74
654.38	55528.62
654.57	55545.01
654.76	55370.93
654.96	55749.81
655.15	55612.59
655.34	55631.02
655.54	55467.19
655.73	55489.71
655.92	55604.40
656.12	55862.44
656.31	55618.74
656.50	55502.00
656.70	55618.74
656.89	55575.73
657.08	56034.47
657.28	56214.69
657.47	55923.88
657.66	56032.42
657.86	55901.36
658.05	55760.05
658.24	56054.95
658.43	55743.66
658.63	56376.48
658.82	56042.66
659.01	56251.56
659.21	56173.73
659.40	55932.07
659.59	55737.52
659.79	56190.12
659.98	56159.40
660.17	56689.82
660.36	56388.77
660.56	56159.40
660.75	56315.04
660.94	56153.26
661.14	56102.06
661.33	55956.65
661.52	55399.60
661.71	56636.58
661.91	55526.58
662.10	56599.71
662.29	55925.93
662.49	55823.53
662.68	56396.96
662.87	56634.53
663.06	56554.66
663.26	56065.19
663.45	56220.84
663.64	56269.99
663.83	56513.70
664.03	56714.40
664.22	56300.71
664.41	56095.91
664.60	56409.25
664.80	56382.63
664.99	56157.35
665.18	56343.72
665.37	56396.96
665.57	56865.95
665.76	56243.37
665.95	56612.00
666.14	56161.45
666.34	56525.99
666.53	56075.43
666.72	56075.43
666.91	56442.02
667.11	56278.18
667.30	56349.86
667.49	56057.00
667.68	56509.60
667.87	56202.41
668.07	56439.97
668.26	56503.46
668.45	56245.41
668.64	55766.19
668.84	56964.25
669.03	56710.30
669.22	56423.59
669.41	56640.67
669.60	56417.44
669.80	56136.87
669.99	56571.04
670.18	55880.88
670.37	56243.37
670.57	56648.86
670.76	56249.51
670.95	56988.83
671.14	56173.73
671.33	56233.13
671.53	56726.69
671.72	56136.87
671.91	56704.16
672.10	56372.39
672.29	56399.01
672.48	56292.52
672.68	56603.81
672.87	56511.65
673.06	56595.62
673.25	56505.51
673.44	56265.89
673.64	56120.49
673.83	56067.24
674.02	56263.85
674.21	56194.21
674.40	56456.35
674.59	56214.69
674.79	56065.19
674.98	55975.08
675.17	56296.61
675.36	56302.76
675.55	56358.05
675.74	56183.97
675.94	56511.65
676.13	56128.68
676.32	56661.15
676.51	56702.11
676.70	56231.08
676.89	56706.21
677.08	56525.99
677.28	56206.50
677.47	57099.42
677.66	56878.24
677.85	56710.30
678.04	56628.38
678.23	56816.80
678.42	56749.21
678.62	55901.36
678.81	56372.39
679.00	56333.48
679.19	57021.59
679.38	56251.56
679.57	56612.00
679.76	56450.21
679.96	56333.48
680.15	56319.14
680.34	56169.64
680.53	56200.36
680.72	56667.30
680.91	56382.63
681.10	56452.26
681.29	56251.56
681.48	56024.23
681.68	56372.39
681.87	56466.59
682.06	56013.99
682.25	56243.37
682.44	56075.43
682.63	56380.58
682.82	55860.40
683.01	56251.56
683.20	55950.51
683.39	56546.47
683.59	55856.30
683.78	55667.89
683.97	56220.84
684.16	55786.67
684.35	55549.10
684.54	55930.03
684.73	56087.72
684.92	55669.93
685.11	55616.69
685.30	55962.79
685.49	55862.44
685.69	55846.06
685.88	56044.71
686.07	55825.58
686.26	55655.60
686.45	55825.58
686.64	55702.70
686.83	55803.05
687.02	55948.46
687.21	56128.68
687.40	55768.24
687.59	55731.37
687.78	55954.60
687.97	55862.44
688.16	55925.93
688.35	55604.40
688.54	55571.63
688.74	56159.40
688.93	55620.78
689.12	55485.62
689.31	55704.75
689.50	55753.90
689.69	55186.61
689.88	54770.88
690.07	55553.20
690.26	55540.91
690.45	56005.80
690.64	55424.18
690.83	55706.80
691.02	55203.00
691.21	55043.26
691.40	55489.71
691.59	55284.92
691.78	55786.67
691.97	55639.22
692.16	55301.30
692.35	55383.22
692.54	55518.38
692.73	55624.88
692.92	55104.70
693.11	55299.25
693.30	55149.75
693.49	55108.79
693.68	55547.06
693.87	55383.22
694.06	54762.68
694.25	55096.50
694.44	55121.08
694.63	55215.29
694.82	55211.19
695.01	55067.83
695.20	55000.25
695.39	54578.37
695.58	54977.72
695.77	54809.79
695.96	54875.32
696.15	55184.57
696.34	54541.50
696.53	54955.19
696.72	55246.00
696.91	54924.47
697.10	55211.19
697.29	54875.32
697.48	54965.43
697.67	54377.67
697.86	54500.54
698.05	54985.91
698.24	54744.25
698.43	54179.01
698.62	54688.96
698.81	54000.84
699.00	54811.84
699.19	54217.92
699.38	54695.10
699.57	54326.47
699.76	54754.49
699.95	54574.27
700.14	54297.80
700.32	54260.93
700.51	54305.99
700.70	54723.77
700.89	54179.01
701.08	54752.44
701.27	54312.13
701.46	54437.06
701.65	53886.15
701.84	54125.77
702.03	54000.84
702.22	53781.71
702.41	54125.77
702.60	54183.11
702.79	54256.84
702.98	53892.30
703.17	53785.80
703.35	53779.66
703.54	53753.04
703.73	53703.88
703.92	53519.57
704.11	53826.76
704.30	53447.89
704.49	53302.48
704.68	53585.10
704.87	53664.97
705.06	53523.66
705.25	53368.02
705.43	53654.73
705.62	53146.84
705.81	53785.80
706.00	53753.04
706.19	53544.14
706.38	53165.27
706.57	52995.29
706.76	53120.21
706.95	53120.21
707.14	53001.43
707.32	53083.35
707.51	52919.51
707.70	53204.18
707.89	52767.96
708.08	53505.23
708.27	52964.57
708.46	53187.80
708.65	52796.63
708.84	53093.59
709.02	52948.18
709.21	53400.79
709.40	52362.46
709.59	52876.51
709.78	52509.92
709.97	53097.69
710.16	52706.52
710.34	52604.13
710.53	52999.38
710.72	52235.49
710.91	52966.62
711.10	52540.64
711.29	53021.91
711.48	52319.46
711.66	52360.42
711.85	52145.38
712.04	52686.04
712.23	52434.14
712.42	52335.84
712.61	51971.30
712.80	52417.76
712.98	52585.69
713.17	52319.46
713.36	52024.55
713.55	52092.13
713.74	51733.74
713.93	52366.56
714.11	51600.62
714.30	51983.59
714.49	52081.89
714.68	52083.94
714.87	51946.73
715.06	51725.55
715.24	51647.72
715.43	51688.68
715.62	51795.18
715.81	51789.03
716.00	52122.85
716.18	51307.76
716.37	51234.03
716.56	51604.72
716.75	51746.03
716.94	51322.10
717.12	51555.57
717.31	51504.37
717.50	51111.16
717.69	51234.03
717.88	51139.83
718.06	51023.09
718.25	51440.88
718.44	50920.70
718.63	51451.12
718.82	50447.61
719.00	50795.77
719.19	50824.44
719.38	50277.63
719.57	50439.42
719.76	49988.87
719.94	50492.67
720.13	50668.79
720.32	50633.98
720.51	50302.21
720.69	50521.34
720.88	50205.95
721.07	50257.15
721.26	49696.01
721.44	49952.01
721.63	50310.40
721.82	49446.16
722.01	49788.17
722.20	50320.64
722.38	49675.53
722.57	49612.04
722.76	49294.61
722.95	49599.76
723.13	49358.09
723.32	49048.85
723.51	49440.01
723.70	48813.34
723.88	49558.80
724.07	48667.93
724.26	49235.22
724.44	48932.12
724.63	49333.52
724.82	49165.59
725.01	48987.41
725.19	49362.19
725.38	48960.79
725.57	48899.35
725.76	49130.77
725.94	48579.87
726.13	48977.17
726.32	49040.66
726.51	48370.97
726.69	48858.39
726.88	48600.35
727.07	48467.23
727.25	48461.08
727.44	48311.58
727.63	48229.66
727.82	48545.05
728.00	48235.81
728.19	48211.23
728.38	48471.32
728.56	48082.21
728.75	48506.14
728.94	48313.63
729.12	48575.77
729.31	48424.22
729.50	48330.01
729.69	48258.34
729.87	47940.90
730.06	48125.22
730.25	48629.02
730.43	48143.65
730.62	48301.34
730.81	48844.05
730.99	48348.45
731.18	48026.92
731.37	48295.20
731.55	48282.91
731.74	48538.91
731.93	48641.31
732.11	48334.11
732.30	48149.79
732.49	47775.02
732.67	47797.54
732.86	47793.45
733.05	47998.24
733.23	47605.03
733.42	48323.87
733.61	48135.46
733.79	48061.73
733.98	48430.36
734.17	48198.94
734.35	47920.42
734.54	47906.08
734.73	48074.02
734.91	48063.78
735.10	47600.94
735.29	47654.18
735.47	47498.54
735.66	47705.38
735.84	48139.55
736.03	47656.23
736.22	47985.96
736.40	47326.51
736.59	47795.49
736.78	47549.74
736.96	47322.41
737.15	47344.94
737.33	47355.18
737.52	47482.16
737.71	47351.09
737.89	47187.25
738.08	46898.48
738.27	46961.97
738.45	47422.76
738.64	47199.54
738.82	47226.16
739.01	47213.87
739.20	46959.92
739.38	47174.96
739.57	47428.91
739.75	47174.96
739.94	47150.38
740.13	46998.83
740.31	46697.78
740.50	47220.02
740.68	47205.68
740.87	46945.59
741.06	47115.57
741.24	46673.21
741.43	46497.08
741.61	46579.00
741.80	46779.70
741.99	46626.10
742.17	45999.43
742.36	46169.41
742.54	46357.82
742.73	46779.70
742.91	46611.77
743.10	46337.34
743.29	46535.99
743.47	46615.86
743.66	46245.18
743.84	46501.18
744.03	46464.32
744.21	46193.98
744.40	46318.91
744.59	46056.77
744.77	46161.22
744.96	46269.76
745.14	46370.11
745.33	46265.66
745.51	45870.40
745.70	46077.25
745.88	45962.56
746.07	46265.66
746.26	45829.44
746.44	45780.29
746.63	46040.39
746.81	46083.39
747.00	45397.32
747.18	45864.26
747.37	45348.17
747.55	46034.24
747.74	46292.29
747.92	45358.41
748.11	45690.18
748.29	45421.90
748.48	45690.18
748.66	45757.77
748.85	45864.26
749.03	45462.86
749.22	45096.27
749.41	45493.58
749.59	45417.80
749.78	45012.31
749.96	44440.92
750.15	45192.53
750.33	45301.07
750.52	45296.97
750.70	45159.76
750.89	44453.21
751.07	44701.01
751.26	44815.70
751.44	44823.89
751.63	44852.56
751.81	44760.40
752.00	44737.88
752.18	44934.48
752.37	44965.20
752.55	44490.07
752.74	44737.88
752.92	44666.20
753.10	44391.77
753.29	44207.45
753.47	44039.52
753.66	44160.35
753.84	44311.90
754.03	43906.40
754.21	43824.48
754.40	44496.22
754.58	44303.71
754.77	44586.33
754.95	43781.48
755.14	43904.35
755.32	43812.20
755.51	43861.35
755.69	43595.11
755.88	43801.96
756.06	43801.96
756.24	43525.48
756.43	44193.12
756.61	44031.33
756.80	43572.58
756.98	43447.66
757.17	43474.28
757.35	43359.59
757.54	43402.60
757.72	43834.72
757.90	43398.51
758.09	43302.25
758.27	43300.20
758.46	43378.03
758.64	43150.70
758.83	43603.30
759.01	43511.14
759.19	43085.17
759.38	43652.45
759.56	43865.44
759.75	42882.42
759.93	43267.44
760.12	42673.52
760.30	43242.86
760.48	43091.31
760.67	42816.88
760.85	43181.42
761.04	43050.35
761.22	43197.80
761.40	42558.84
761.59	42470.78
761.77	42194.30
761.96	42591.61
762.14	42564.98
762.32	42354.04
762.51	42657.14
762.69	42534.26
762.88	42362.23
763.06	42595.70
763.24	42673.52
763.43	42861.94
763.61	42517.88
763.80	42317.18
763.98	42464.63
764.16	42335.61
764.35	41962.88
764.53	41596.29
764.72	42085.76
764.90	42052.99
765.08	42042.75
765.27	41635.20
765.45	42108.29
765.63	41604.49
765.82	41981.31
766.00	41377.16
766.18	41778.56
766.37	41737.60
766.55	41633.16
766.74	41899.39
766.92	41604.49
767.10	41629.06
767.29	41153.93
767.47	40834.45
767.65	41670.02
767.84	41020.81
768.02	41475.46
768.20	40947.09
768.39	41229.71
768.57	41330.06
768.75	41102.73
768.94	41158.03
769.12	41254.28
769.30	40525.21
769.49	41086.35
769.67	40525.21
769.85	40168.86
770.04	40627.60
770.22	40447.38
770.40	40519.06
770.59	40799.63
770.77	40926.61
770.95	40398.23
771.14	40453.53
771.32	40277.40
771.50	40344.98
771.69	40263.07
771.87	40719.76
772.05	40381.85
772.24	40074.65
772.42	40469.91
772.60	39976.35
772.78	39935.39
772.97	39529.89
773.15	39888.29
773.33	39753.12
773.52	40148.38
773.70	40101.28
773.88	40175.00
774.07	39781.79
774.25	39312.81
774.43	40115.61
774.61	39835.04
774.80	39927.20
774.98	40052.12
775.16	40045.98
775.34	39959.97
775.53	40043.93
775.71	40228.25
775.89	40039.84
776.08	39650.72
776.26	40043.93
776.44	39919.01
776.62	39699.87
776.81	40148.38
776.99	40211.87
777.17	40109.47
777.35	40424.86
777.54	40258.97
777.72	39800.22
777.90	40031.65
778.08	40408.47
778.27	39916.96
778.45	40625.56
778.63	40373.66
778.81	39988.64
779.00	41000.33
779.18	40441.24
779.36	40793.49
779.54	40213.91
779.73	40486.29
779.91	40795.54
780.09	40379.80
780.27	40449.43
780.46	40762.77
780.64	40746.39
780.82	40506.77
781.00	40514.97
781.19	40879.50
781.37	40734.10
781.55	40842.64
781.73	41158.03
781.91	40560.02
782.10	40777.11
782.28	40850.83
782.46	40609.17
782.64	40760.72
782.82	41010.57
783.01	40744.34
783.19	41022.86
783.37	40721.81
783.55	40924.56
783.74	41342.35
783.92	40582.55
784.10	41297.29
784.28	40752.53
784.46	40598.93
784.64	40762.77
784.83	40975.76
785.01	41237.90
785.19	41178.51
785.37	41184.65
785.55	40773.01
785.74	40869.26
785.92	40773.01
786.10	40727.95
786.28	40705.43
786.46	40498.58
786.64	40674.71
786.83	40557.97
787.01	40826.26
787.19	40547.73
787.37	41061.77
787.55	40680.85
787.74	40543.64
787.92	40838.54
788.10	40234.39
788.28	40537.49
788.46	40418.71
788.64	40373.66
788.82	40693.14
789.01	40166.81
789.19	40662.42
789.37	40121.76
789.55	40166.81
789.73	39726.50
789.91	40111.52
790.09	39820.70
790.28	39720.35
790.46	39865.76
790.64	40084.89
790.82	39701.92
791.00	39583.14
791.18	39466.41
791.36	39484.84
791.55	39458.21
791.73	39503.27
791.91	39341.48
792.09	39169.45
792.27	39409.06
792.45	39214.51
792.63	38997.42
792.81	38972.85
793.00	38872.49
793.18	38577.59
793.36	38628.79
793.54	38731.18
793.72	38778.29
793.90	38698.42
794.08	38512.05
794.26	38622.64
794.44	38399.41
794.62	38196.67
794.81	38686.13
794.99	38286.78
795.17	37959.10
795.35	37979.58
795.53	38262.20
795.71	38145.47
795.89	37676.48
796.07	37545.41
796.25	37467.59
796.43	37438.92
796.61	37447.11
796.80	37119.43
796.98	37574.08
797.16	37465.54
797.34	37291.46
797.52	36924.88
797.70	37311.94
797.88	37096.91
798.06	37318.09
798.24	36906.44
798.42	36668.88
798.60	36648.40
798.78	36623.83
798.96	36705.74
799.14	36642.26
799.32	36445.65
799.51	36316.63
799.69	36679.12
799.87	36648.40
800.05	36066.78
800.23	35931.61
800.41	35775.97
800.59	36009.43
800.77	35769.82
800.95	35585.50
801.13	36054.49
801.31	35642.85
801.49	36054.49
801.67	35702.24
801.85	35423.72
802.03	34924.01
802.21	35263.97
802.39	34868.72
802.57	35476.96
802.75	35112.42
802.93	34969.07
803.11	34893.29
803.29	34735.60
803.47	34735.60
803.65	34786.80
803.83	35071.46
804.01	34809.32
804.19	33893.88
804.37	34455.03
804.55	34680.30
804.73	33953.27
804.91	34135.54
805.09	34391.54
805.27	34160.12
805.45	34063.86
805.63	34254.33
805.81	34119.16
805.99	34299.38
806.17	33764.86
806.35	33916.41
806.53	33746.43
806.71	33906.17
806.89	33723.90
807.07	33420.80
807.25	33691.13
807.43	33138.18
807.61	33377.79
807.79	33361.41
807.97	33297.92
808.15	33023.50
808.33	33086.98
808.51	33000.97
808.69	32974.34
808.87	32411.15
809.05	32507.41
809.23	32613.90
809.41	32464.40
809.59	32415.25
809.77	32835.08
809.95	32183.83
810.13	32740.88
810.31	32472.59
810.49	32728.59
810.67	32368.15
810.84	32022.04
811.02	31809.05
811.20	31817.24
811.38	31929.88
811.56	31600.16
811.74	31747.61
811.92	32052.76
812.10	31768.09
812.28	31921.69
812.46	31686.17
812.64	31667.74
812.82	31612.45
813.00	31608.35
813.18	31434.27
813.36	31063.59
813.53	31192.61
813.71	31569.44
813.89	31127.08
814.07	31342.11
814.25	31299.11
814.43	30922.28
814.61	30875.18
814.79	31071.78
814.97	30862.89
815.15	31219.24
815.33	30631.47
815.50	30844.46
815.68	30674.48
815.86	30877.22
816.04	30324.27
816.22	30496.30
816.40	30301.75
816.58	30123.57
816.76	30547.50
816.94	30303.79
817.11	30561.84
817.29	30473.78
817.47	29992.50
817.65	30414.38
817.83	30105.14
818.01	29988.41
818.19	30133.81
818.37	30117.43
818.54	29799.99
818.72	29683.26
818.90	30041.65
819.08	29779.51
819.26	29789.75
819.44	29537.85
819.62	29840.95
819.80	29722.17
819.97	29662.78
820.15	29421.12
820.33	29144.64
820.51	29531.71
820.69	28882.50
820.87	29242.95
821.05	29337.15
821.22	29345.34
821.40	29337.15
821.58	29034.05
821.76	29099.59
821.94	29054.53
822.12	28900.94
822.29	29091.40
822.47	29189.70
822.65	28962.37
822.83	29292.10
823.01	29234.75
823.19	28872.26
823.36	28356.18
823.54	28681.80
823.72	28436.05
823.90	28403.28
824.08	28507.72
824.25	28669.51
824.43	28515.92
824.61	28505.68
824.79	28554.83
824.97	28509.77
825.15	28175.95
825.32	28606.03
825.50	28057.17
825.68	28130.90
825.86	28485.20
826.04	28100.18
826.21	28167.76
826.39	28290.64
826.57	28157.52
826.75	28096.08
826.93	27973.21
827.10	27911.77
827.28	27969.11
827.46	28171.86
827.64	27758.17
827.81	27649.63
827.99	27844.18
828.17	27659.87
828.35	27496.03
828.53	27598.43
828.70	27356.77
828.88	27536.99
829.06	27440.73
829.24	27694.68
829.41	27131.49
829.59	27397.73
829.77	27604.57
829.95	27330.14
830.12	27260.51
830.30	27276.90
830.48	27526.75
830.66	27194.98
830.84	27266.66
831.01	27231.84
831.19	27545.18
831.37	27162.21
831.55	26879.59
831.72	26850.92
831.90	26957.41
832.08	26775.14
832.25	26580.59
832.43	26619.50
832.61	26926.69
832.79	26725.99
832.96	26689.13
833.14	26707.56
833.32	26682.98
833.50	26566.25
833.67	26527.34
833.85	26513.00
834.03	26418.80
834.20	26666.60
834.38	26513.00
834.56	26306.16
834.74	26435.18
834.91	26519.15
835.09	26246.77
835.27	25915.00
835.44	26377.84
835.62	25751.16
835.80	26048.11
835.98	26007.16
836.15	25642.62
836.33	26039.92
836.51	26248.82
836.68	26007.16
836.86	26127.99
837.04	26007.16
837.21	25851.51
837.39	26142.32
837.57	26127.99
837.75	25871.99
837.92	25570.94
838.10	25947.76
838.28	25525.88
838.45	25742.97
838.63	25615.99
838.81	25472.64
838.98	25675.38
839.16	25417.34
839.34	25480.83
839.51	25214.59
839.69	25171.58
839.87	25382.52
840.04	25271.93
840.22	25603.71
840.40	25233.02
840.57	25187.97
840.75	25218.69
840.93	24843.91
841.10	24972.93
841.28	25222.78
841.46	25089.67
841.63	25349.76
841.81	24999.55
841.98	24970.88
842.16	25202.30
842.34	25108.10
842.51	24805.00
842.69	24911.49
842.87	25036.42
843.04	24899.20
843.22	24753.80
843.40	24743.56
843.57	24886.92
843.75	24718.98
843.92	24790.66
844.10	24589.96
844.28	24970.88
844.45	24792.71
844.63	24565.39
844.81	24792.71
844.98	24598.15
845.16	24403.60
845.33	24653.45
845.51	24338.06
845.69	24592.01
845.86	24536.71
846.04	24221.33
846.21	24376.97
846.39	24448.65
846.57	24202.89
846.74	24254.09
846.92	24311.44
847.09	24163.98
847.27	24129.17
847.45	24161.94
847.62	24475.27
847.80	24419.98
847.97	24065.68
848.15	24315.53
848.32	24008.34
848.50	23848.60
848.68	23639.70
848.85	24100.50
849.03	23508.63
849.20	23692.95
849.38	23836.31
849.56	23664.28
849.73	23600.79
849.91	23697.05
850.08	23948.95
850.26	23457.43
850.43	23754.39
850.61	23684.76
850.78	23703.19
850.96	23631.51
851.14	23461.53
851.31	23471.77
851.49	23215.77
851.66	23463.58
851.84	23246.49
852.01	23473.82
852.19	23156.38
852.36	23215.77
852.54	23316.12
852.71	23283.36
852.89	23396.00
853.07	23494.30
853.24	23183.01
853.42	23152.29
853.59	23320.22
853.77	23191.20
853.94	23137.95
854.12	23244.45
854.29	23174.81
854.47	22795.94
854.64	22838.95
854.82	22951.59
854.99	22834.85
855.17	22779.56
855.34	22562.47
855.52	23047.84
855.69	23131.81
855.87	22693.54
856.04	22691.49
856.22	22664.87
856.39	22326.96
856.57	22576.81
856.74	22779.56
856.92	22646.44
857.09	22525.61
857.27	22263.47
857.44	22402.73
857.62	22343.34
857.79	22335.15
857.97	22535.85
858.14	22615.72
858.32	22488.74
858.49	22388.39
858.67	22044.34
858.84	21993.14
859.02	22128.30
859.19	22036.14
859.37	21804.72
859.54	21956.27
859.72	22126.25
859.89	22095.53
860.06	22138.54
860.24	21958.32
860.41	22261.42
860.59	21919.41
860.76	22109.87
860.94	21589.69
861.11	21802.68
861.29	21880.50
861.46	21696.18
861.64	21806.77
861.81	21604.02
861.98	21585.59
862.16	21444.28
862.33	21231.29
862.51	21272.25
862.68	21683.89
862.86	21804.72
863.03	21505.72
863.21	21477.05
863.38	21419.71
863.55	21141.18
863.73	21231.29
863.90	21284.54
864.08	21444.28
864.25	21526.20
864.43	21388.99
864.60	21120.70
864.77	21300.92
864.95	21225.15
865.12	21069.50
865.30	21034.69
865.47	21081.79
865.64	21053.12
865.82	20971.20
865.99	20981.44
866.17	21069.50
866.34	21145.28
866.51	20897.47
866.69	21001.92
866.86	20586.18
867.04	20512.46
867.21	20795.07
867.38	20659.91
867.56	20690.63
867.73	20670.15
867.91	20768.45
868.08	20371.15
868.25	20516.55
868.43	20547.27
868.60	20412.10
868.78	20446.92
868.95	20383.43
869.12	20467.40
869.30	20131.53
869.47	20360.91
869.64	19994.32
869.82	20106.96
869.99	19914.45
870.16	20516.55
870.34	20057.81
870.51	20256.46
870.69	19734.23
870.86	19990.22
871.03	20221.64
871.21	20092.62
871.38	19775.19
871.55	19889.87
871.73	20106.96
871.90	19787.47
872.07	19777.23
872.25	19476.18
872.42	19650.26
872.59	19838.67
872.77	19476.18
872.94	19500.76
873.11	19640.02
873.29	19734.23
873.46	19529.43
873.63	19891.92
873.81	19480.28
873.98	19302.11
874.15	19216.09
874.33	19080.92
874.50	19037.92
874.67	19236.57
874.85	19250.91
875.02	18992.86
875.19	18898.66
875.37	19019.49
875.54	18835.17
875.71	18892.51
875.88	18597.60
876.06	18888.42
876.23	18779.87
876.40	18665.19
876.58	18927.33
876.75	18663.14
876.92	18884.32
877.10	18763.49
877.27	18677.48
877.44	18552.55
877.61	18466.53
877.79	18669.28
877.96	18521.83
878.13	18446.05
878.31	18323.18
878.48	18292.46
878.65	18091.76
878.82	17909.49
879.00	18204.39
879.17	18114.28
879.34	18220.78
879.51	17989.36
879.69	17757.94
879.86	17968.88
880.03	18038.51
880.21	17862.38
880.38	18274.03
880.55	18261.74
880.72	17727.22
880.90	18222.83
881.07	17835.76
881.24	17731.31
881.41	17821.42
881.59	17817.33
881.76	17757.94
881.93	17587.96
882.10	17438.45
882.28	17508.08
882.45	17868.53
882.62	17514.23
882.79	17737.46
882.96	17215.23
883.14	17618.68
883.31	17397.49
883.48	17342.20
883.65	17325.82
883.83	17561.33
884.00	17354.49
884.17	17239.80
884.34	17094.40
884.51	17250.04
884.69	17303.29
884.86	17276.66
885.03	17186.55
885.20	16975.61
885.38	17078.01
885.55	17260.28
885.72	16963.33
885.89	16992.00
886.06	17116.92
886.24	16903.93
886.41	16979.71
886.58	17223.42
886.75	17170.17
886.92	16910.08
887.10	17012.48
887.27	16606.98
887.44	16838.40
887.61	17071.87
887.78	17090.30
887.95	17215.23
888.13	16789.25
888.30	16639.75
888.47	16662.27
888.64	16869.12
888.81	16719.62
888.99	16576.26
889.16	16287.50
889.33	16584.45
889.50	16348.93
889.67	16684.80
889.84	16449.28
890.01	16455.43
890.19	16508.68
890.36	16185.10
890.53	16326.41
890.70	16207.62
890.87	16353.03
891.04	16291.59
891.22	16137.99
891.39	16508.68
891.56	16039.69
891.73	16160.52
891.90	16031.50
892.07	15728.40
892.24	15882.00
892.42	15927.05
892.59	15849.23
892.76	15886.09
892.93	15853.33
893.10	16035.60
893.27	15968.01
893.44	15896.33
893.61	15595.28
893.79	16105.23
893.96	15857.42
894.13	16004.88
894.30	16023.31
894.47	15789.84
894.64	15841.04
894.81	15675.15
894.98	15845.13
895.15	15894.29
895.33	15605.52
895.50	15605.52
895.67	16011.02
895.84	15689.49
896.01	15847.18
896.18	15638.29
896.35	15767.31
896.52	15587.09
896.69	15423.25
896.86	15818.51
897.04	15562.51
897.21	15601.43
897.38	15589.14
897.55	15675.15
897.72	15757.07
897.89	15400.72
898.06	15396.63
898.23	15658.77
898.40	15480.60
898.57	15580.95
898.74	15466.26
898.91	15554.32
899.08	15521.56
899.26	15372.05
899.43	15453.97
899.60	15554.32
899.77	15646.48
899.94	15458.07
900.11	15544.08
900.28	15157.02
900.45	15378.20
900.62	15263.51
900.79	15628.05
900.96	15447.83
901.13	15503.12
901.30	15388.44
901.47	15552.27
901.64	15585.04
901.81	15408.92
901.98	15347.48
902.15	15748.88
902.32	15427.35
902.49	15302.42
902.66	15507.22
902.83	15314.71
903.01	15347.48
903.18	15466.26
903.35	15245.08
903.52	15415.06
903.69	15507.22
903.86	15554.32
904.03	15605.52
904.20	15542.03
904.37	15546.13
904.54	15339.29
904.71	15197.98
904.88	15238.94
905.05	15130.39
905.22	15496.98
905.39	15183.64
905.56	15585.04
905.73	15367.96
905.90	15372.05
906.07	15359.77
906.24	15259.42
906.41	15073.05
906.58	15445.78
906.75	15263.51
906.92	15451.92
907.09	15367.96
907.26	15161.11
907.43	15292.18
907.60	15122.20
907.77	15361.81
907.93	15095.58
908.10	15183.64
908.27	15298.33
908.44	15161.11
908.61	15132.44
908.78	15101.72
908.95	15140.63
909.12	15042.33
909.29	15148.82
909.46	15111.96
909.63	15107.87
909.80	15118.11
909.97	15083.29
910.14	15109.91
910.31	14962.46
910.48	15146.78
910.65	15050.52
910.82	14927.64
910.99	15066.91
911.16	15001.37
911.33	15071.00
911.50	15068.95
911.66	15007.52
911.83	15034.14
912.00	14735.14
912.17	14642.98
912.34	14733.09
912.51	14655.26
912.68	14616.35
912.85	14563.11
913.02	14780.19
913.19	14528.29
913.36	14790.43
913.53	14673.70
913.70	14542.63
913.86	14669.60
914.03	14317.35
914.20	14595.87
914.37	14737.18
914.54	14354.21
914.71	14659.36
914.88	14520.10
915.05	14401.32
915.22	14313.25
915.39	14493.47
915.55	14335.78
915.72	14217.00
915.89	14217.00
916.06	14227.24
916.23	14018.35
916.40	14118.70
916.57	13897.52
916.74	14139.18
916.91	13770.54
917.07	13764.40
917.24	13891.37
917.41	14098.22
917.58	13918.00
917.75	13748.01
917.92	13768.49
918.09	13782.83
918.26	13801.26
918.42	13715.25
918.59	13707.05
918.76	13616.94
918.93	13545.27
919.10	13352.76
919.27	13506.35
919.44	13352.76
919.60	13186.87
919.77	13571.89
919.94	13023.03
920.11	13336.37
920.28	13266.74
920.45	13156.15
920.61	13176.63
920.78	13223.73
920.95	13102.90
921.12	12994.36
921.29	13025.08
921.46	12838.72
921.62	12779.32
921.79	12787.52
921.96	12717.89
922.13	12764.99
922.30	12560.19
922.47	12709.69
922.63	12517.18
922.80	12586.82
922.97	12422.98
923.14	12324.68
923.31	12476.23
923.47	12367.68
923.64	12508.99
923.81	12271.43
923.98	12150.60
924.15	12183.37
924.32	12144.45
924.48	12062.54
924.65	12318.53
924.82	11943.75
924.99	11923.27
925.15	11773.77
925.32	11929.42
925.49	11755.34
925.66	11857.74
925.83	11339.60
925.99	11724.62
926.16	11700.05
926.33	11734.86
926.50	11390.80
926.67	11509.58
926.83	11423.57
927.00	11274.07
927.17	11331.41
927.34	11216.72
927.50	11245.40
927.67	11464.53
927.84	11165.53
928.01	11202.39
928.17	11073.37
928.34	11138.90
928.51	11020.12
928.68	10985.30
928.84	10874.71
929.01	10860.38
929.18	10766.17
929.35	10680.16
929.51	10717.02
929.68	10633.05
929.85	10753.88
930.02	10493.79
930.18	10522.46
930.35	10370.91
930.52	10440.54
930.69	10465.12
930.85	10393.44
931.02	10383.20
931.19	10268.52
931.36	10233.70
931.52	10241.89
931.69	10248.04
931.86	10069.86
932.02	10139.49
932.19	9744.24
932.36	9871.21
932.53	9922.41
932.69	9793.39
932.86	9977.70
933.03	9852.78
933.19	9647.98
933.36	9590.64
933.53	9805.67
933.70	9453.42
933.86	9619.31
934.03	9627.50
934.20	9318.26
934.36	9572.21
934.53	9367.41
934.70	9158.52
934.86	9127.80
935.03	9062.26
935.20	9082.74
935.36	8877.94
935.53	8836.99
935.70	8845.18
935.86	8836.99
936.03	8671.10
936.20	8523.65
936.36	8650.62
936.53	8394.62
936.70	8529.79
936.86	8521.60
937.03	8243.07
937.20	8073.09
937.36	8435.58
937.53	8030.09
937.70	7925.64
937.86	7931.78
938.03	7761.80
938.20	7761.80
938.36	7712.65
938.53	7673.74
938.70	7311.25
938.86	7397.26
939.03	7483.28
939.20	7229.33
939.36	7294.86
939.53	7182.23
939.70	7305.10
939.86	7012.24
940.03	6825.88
940.19	6754.20
940.36	6639.51
940.53	6827.93
940.69	6606.75
940.86	6743.96
941.03	6567.84
941.19	6326.18
941.36	6291.36
941.52	6301.60
941.69	6227.87
941.86	6350.75
942.02	6037.41
942.19	5930.92
942.35	5955.49
942.52	6135.71
942.69	5904.29
942.85	5812.14
943.02	5904.29
943.18	5838.76
943.35	5812.14
943.52	5697.45
943.68	5554.09
943.85	5588.91
944.01	5633.96
944.18	5566.38
944.35	5631.91
944.51	5629.87
944.68	5451.69
944.84	5392.30
945.01	5328.81
945.17	5474.22
945.34	5449.64
945.51	5369.77
945.67	5496.75
945.84	5410.73
946.00	5310.38
946.17	5279.66
946.33	5201.84
946.50	5402.54
946.67	5328.81
946.83	5263.28
947.00	5312.43
947.16	5312.43
947.33	5146.55
947.49	5232.56
947.66	5164.98
947.82	5283.76
947.99	5224.37
948.16	5189.55
948.32	5220.27
948.49	5339.05
948.65	5361.58
948.82	5294.00
948.98	5328.81
949.15	5203.89
949.31	5218.22
949.48	5222.32
949.64	5312.43
949.81	5263.28
949.97	5113.78
950.14	5353.39
950.30	5222.32
950.47	5382.06
950.63	5181.36
950.80	5306.29
950.96	5289.90
951.13	5285.81
951.30	5300.14
951.46	5240.75
951.63	5404.59
951.79	5308.34
951.96	5406.64
952.12	5255.09
952.29	5291.95
952.45	5328.81
952.62	5109.68
952.78	5296.05
952.94	5294.00
953.11	5410.73
953.27	5167.03
953.44	5433.26
953.60	5351.34
953.77	5410.73
953.93	5437.36
954.10	5394.35
954.26	5380.01
954.43	5287.86
954.59	5371.82
954.76	5443.50
954.92	5334.96
955.09	5427.12
955.25	5410.73
955.42	5414.83
955.58	5539.76
955.75	5408.69
955.91	5269.42
956.07	5394.35
956.24	5504.94
956.40	5294.00
956.57	5398.45
956.73	5392.30
956.90	5550.00
957.06	5492.65
957.23	5369.77
957.39	5418.93
957.56	5441.45
957.72	5298.10
957.88	5330.86
958.05	5392.30
958.21	5474.22
958.38	5459.88
958.54	5459.88
958.71	5605.29
958.87	5341.10
959.03	5423.02
959.20	5343.15
959.36	5183.41
959.53	5423.02
959.69	5361.58
959.85	5441.45
960.02	5334.96
960.18	5392.30
960.35	5451.69
960.51	5420.97
960.68	5285.81
960.84	5316.53
961.00	5398.45
961.17	5420.97
961.33	5371.82
961.50	5353.39
961.66	5457.84
961.82	5320.62
961.99	5406.64
962.15	5296.05
962.31	5343.15
962.48	5275.57
962.64	5406.64
962.81	5441.45
962.97	5404.59
963.13	5283.76
963.30	5318.57
963.46	5314.48
963.62	5382.06
963.79	5306.29
963.95	5244.85
964.12	5250.99
964.28	5220.27
964.44	5312.43
964.61	5420.97
964.77	5222.32
964.93	5296.05
965.10	5328.81
965.26	5375.92
965.42	5189.55
965.59	5214.13
965.75	5228.46
965.92	5322.67
966.08	5246.90
966.24	5263.28
966.41	5195.70
966.57	5205.94
966.73	5169.07
966.90	5244.85
967.06	5154.74
967.22	5130.16
967.39	5212.08
967.55	5038.00
967.71	5226.42
967.88	5300.14
968.04	5173.17
968.20	5007.28
968.37	5066.67
968.53	5042.10
968.69	5181.36
968.85	5097.39
969.02	5136.31
969.18	5015.48
969.34	5113.78
969.51	5181.36
969.67	5222.32
969.83	4992.95
970.00	5121.97
970.16	4995.00
970.32	5076.91
970.48	4972.47
970.65	5023.67
970.81	4825.01
970.97	5021.62
971.14	4820.92
971.30	5138.35
971.46	4949.94
971.63	4954.04
971.79	5040.05
971.95	4827.06
972.11	4861.88
972.28	4802.49
972.44	4870.07
972.60	4951.99
972.76	4829.11
972.93	4796.34
973.09	5070.77
973.25	4892.60
973.42	4921.27
973.58	4753.34
973.74	4931.51
973.90	4814.77
974.07	4591.55
974.23	4685.75
974.39	4896.69
974.55	4816.82
974.72	4806.58
974.88	4634.55
975.04	4679.61
975.20	4671.42
975.37	4769.72
975.53	4667.32
975.69	4812.73
975.85	4519.87
976.01	4671.42
976.18	4630.46
976.34	4599.74
976.50	4794.29
976.66	4837.30
976.83	4569.02
976.99	4605.88
977.15	4605.88
977.31	4532.15
977.47	4605.88
977.64	4634.55
977.80	4550.59
977.96	4513.72
978.12	4462.52
978.29	4419.52
978.45	4431.80
978.61	4409.28
978.77	4483.00
978.93	4466.62
979.10	4452.28
979.26	4464.57
979.42	4368.32
979.58	4315.07
979.74	4374.46
979.91	4343.74
980.07	4337.60
980.23	4345.79
980.39	4378.56
980.55	4345.79
980.71	4192.19
980.88	4382.65
981.04	4212.67
981.20	4239.30
981.36	4329.41
981.52	4093.89
981.68	4239.30
981.85	4491.20
982.01	4208.58
982.17	4235.20
982.33	4186.05
982.49	4337.60
982.65	4192.19
982.82	4218.82
982.98	4374.46
983.14	4136.90
983.30	4255.68
983.46	4190.14
983.62	4198.34
983.79	4184.00
983.95	4014.02
984.11	4128.70
984.27	4097.99
984.43	4294.59
984.59	4128.70
984.75	4206.53
984.91	3985.35
985.08	4081.60
985.24	4034.50
985.40	4009.92
985.56	4014.02
985.72	4204.48
985.88	4112.32
986.04	4145.09
986.20	4063.17
986.37	4052.93
986.53	3999.68
986.69	3907.52
986.85	3991.49
987.01	4046.79
987.17	4095.94
987.33	3866.56
987.49	3968.96
987.65	3973.06
987.82	3848.13
987.98	3833.80
988.14	3821.51
988.30	3817.41
988.46	3907.52
988.62	3829.70
988.78	3755.97
988.94	3862.47
989.10	3784.65
989.26	3788.74
989.42	3807.17
989.59	3682.25
989.75	3706.82
989.91	3835.85
990.07	3715.02
990.23	3778.50
990.39	3684.30
990.55	3807.17
990.71	3686.34
990.87	3721.16
991.03	3712.97
991.19	3653.58
991.35	3723.21
991.51	3708.87
991.67	3913.67
991.83	3690.44
992.00	3690.44
992.16	3774.41
992.32	3655.62
992.48	3772.36
992.64	3534.79
992.80	3594.19
992.96	3657.67
993.12	3557.32
993.28	3639.24
993.44	3600.33
993.60	3639.24
993.76	3590.09
993.92	3600.33
994.08	3629.00
994.24	3551.18
994.40	3596.23
994.56	3635.14
994.72	3526.60
994.88	3549.13
995.04	3491.79
995.20	3475.40
995.36	3442.64
995.52	3477.45
995.68	3452.88
995.84	3393.48
996.00	3512.27
996.16	3411.92
996.32	3442.64
996.48	3364.81
996.64	3516.36
996.80	3321.81
996.96	3387.34
997.12	3442.64
997.28	3258.32
997.44	3268.56
997.60	3321.81
997.76	3270.61
997.92	3344.33
998.08	3266.51
998.24	3227.60
998.40	3393.48
998.56	3350.48
998.72	3231.69
998.88	3307.47
999.04	3352.52
999.20	3336.14
999.36	3243.98
999.52	3344.33
999.68	3289.04
999.84	3239.89
1000.00	3246.03
1000.16	3248.08
1000.32	3145.68
1000.48	3397.58
1000.64	3133.39
1000.80	3190.74
1000.95	3170.26
1001.11	3157.97
1001.27	3039.19
1001.43	3141.58
1001.59	3080.14
1001.75	3069.91
1001.91	3078.10
1002.07	3030.99
1002.23	3149.78
1002.39	3096.53
1002.55	3055.57
1002.71	3080.14
1002.87	3098.58
1003.03	3030.99
1003.19	3033.04
1003.34	2977.75
1003.50	3006.42
1003.66	3006.42
1003.82	3117.01
1003.98	2940.88
1004.14	3008.47
1004.30	2861.01
1004.46	2940.88
1004.62	3061.71
1004.78	2934.74
1004.94	2975.70
1005.09	3030.99
1005.25	3086.29
1005.41	2975.70
1005.57	2975.70
1005.73	2944.98
1005.89	2983.89
1006.05	3055.57
1006.21	2891.73
1006.37	2990.03
1006.52	2813.91
1006.68	2772.95
1006.84	2990.03
1007.00	2889.68
1007.16	2912.21
1007.32	2815.96
1007.48	2842.58
1007.64	2893.78
1007.79	2854.87
1007.95	2820.05
1008.11	2967.51
1008.27	2904.02
1008.43	2850.77
1008.59	2801.62
1008.75	2818.00
1008.91	2799.57
1009.06	2723.80
1009.22	2844.63
1009.38	2768.85
1009.54	2834.39
1009.70	2723.80
1009.86	2822.10
1010.01	2787.29
1010.17	2742.23
1010.33	2764.76
1010.49	2793.43
1010.65	2809.81
1010.81	2598.87
1010.96	2875.35
1011.12	2650.07
1011.28	2715.61
1011.44	2727.89
1011.60	2754.52
1011.76	2643.93
1011.91	2719.70
1012.07	2654.17
1012.23	2484.19
1012.39	2588.63
1012.55	2686.94
1012.71	2648.02
1012.86	2607.06
1013.02	2701.27
1013.18	2525.15
1013.34	2559.96
1013.50	2682.84
1013.65	2635.74
1013.81	2582.49
1013.97	2580.44
1014.13	2580.44
1014.29	2594.78
1014.44	2615.26
1014.60	2506.71
1014.76	2455.51
1014.92	2482.14
1015.07	2516.95
1015.23	2471.90
1015.39	2387.93
1015.55	2482.14
1015.71	2584.54
1015.86	2500.57
1016.02	2514.91
1016.18	2428.89
1016.34	2510.81
1016.49	2514.91
1016.65	2445.27
1016.81	2596.82
1016.97	2461.66
1017.12	2525.15
1017.28	2322.40
1017.44	2416.60
1017.60	2437.08
1017.75	2496.47
1017.91	2459.61
1018.07	2383.84
1018.23	2402.27
1018.38	2369.50
1018.54	2396.12
1018.70	2461.66
1018.86	2426.84
1019.01	2367.45
1019.17	2322.40
1019.33	2453.47
1019.49	2484.19
1019.64	2363.36
1019.80	2502.62
1019.96	2420.70
1020.12	2400.22
1020.27	2275.29
1020.43	2486.23
1020.59	2420.70
1020.74	2398.17
1020.90	2398.17
1021.06	2291.68
1021.22	2365.40
1021.37	2377.69
1021.53	2324.44
1021.69	2373.60
1021.84	2248.67
1022.00	2293.72
1022.16	2271.20
1022.31	2359.26
1022.47	2283.49
1022.63	2287.58
1022.79	2195.42
1022.94	2238.43
1023.10	2344.92
1023.26	2353.12
1023.41	2336.73
1023.57	2254.81
1023.73	2217.95
1023.88	2222.05
1024.04	2213.85
1024.20	2250.72
1024.35	2310.11
1024.51	2322.40
1024.67	2232.29
1024.82	2316.25
1024.98	2199.52
1025.14	2197.47
1025.29	2220.00
1025.45	2273.25
1025.61	2103.26
1025.76	2174.94
1025.92	2150.37
1026.08	2207.71
1026.23	2230.24
1026.39	2306.01
1026.55	2222.05
1026.70	2148.32
1026.86	2099.17
1027.02	2224.09
1027.17	2156.51
1027.33	2097.12
1027.48	2115.55
1027.64	2107.36
1027.80	2162.66
1027.95	2230.24
1028.11	2119.65
1028.27	2162.66
1028.42	2119.65
1028.58	2066.40
1028.73	2060.26
1028.89	1986.53
1029.05	2207.71
1029.20	2070.50
>>>>>End Processed Spectral Data<<<<<
