SpectraSuite Data File
++++++++++++++++++++++++++++++++++++
Date: Fri Jun 02 14:52:25 CEST 2017
User: INFO_000
Dark Spectrum Present: No
Reference Spectrum Present: No
Number of Sampled Component Spectra: 1
Spectrometers: USB4H00879
Integration Time (usec): 80000 (USB4H00879)
Spectra Averaged: 1 (USB4H00879)
Boxcar Smoothing: 0 (USB4H00879)
Correct for Electrical Dark: No (USB4H00879)
Strobe/Lamp Enabled: No (USB4H00879)
Correct for Detector Non-linearity: No (USB4H00879)
Correct for Stray Light: No (USB4H00879)
Number of Pixels in Processed Spectrum: 3648
>>>>>Begin Processed Spectral Data<<<<<
345.13	1290.22
345.34	1290.22
345.56	1290.22
345.78	1273.84
345.99	1357.80
346.21	1697.77
346.42	1746.92
346.64	1671.14
346.86	1730.53
347.07	1746.92
347.29	1652.71
347.50	1630.18
347.72	1691.62
347.94	1738.73
348.15	1552.36
348.37	1597.42
348.59	1687.53
348.80	1669.09
349.02	1843.17
349.23	1888.23
349.45	1857.51
349.67	1910.75
349.88	1802.21
350.10	2013.15
350.31	1802.21
350.53	1794.02
350.75	1877.99
350.96	1783.78
351.18	1906.66
351.39	1875.94
351.61	1826.79
351.82	1920.99
352.04	1916.90
352.26	1837.03
352.47	1935.33
352.69	1896.42
352.90	1732.58
353.12	1808.36
353.34	1851.36
353.55	1966.05
353.77	1837.03
353.98	1863.65
354.20	1900.52
354.41	1900.52
354.63	1984.48
354.85	1939.43
355.06	1839.08
355.28	1787.88
355.49	1941.47
355.71	1908.71
355.92	1912.80
356.14	1943.52
356.35	1890.28
356.57	1877.99
356.79	1968.10
357.00	1873.89
357.22	1947.62
357.43	1818.60
357.65	1935.33
357.86	1863.65
358.08	1875.94
358.29	1904.61
358.51	2019.30
358.72	1916.90
358.94	1910.75
359.16	1966.05
359.37	1957.86
359.59	1978.34
359.80	1984.48
360.02	1992.67
360.23	2009.06
360.45	1990.63
360.66	1822.69
360.88	1877.99
361.09	1851.36
361.31	2015.20
361.52	1953.76
361.74	2050.02
361.95	2119.65
362.17	1982.43
362.38	2103.26
362.60	2033.63
362.81	2035.68
363.03	1982.43
363.24	1957.86
363.46	2119.65
363.67	2035.68
363.89	2009.06
364.10	2019.30
364.32	2043.87
364.53	2142.18
364.75	1826.79
364.96	2007.01
365.18	2080.74
365.39	2007.01
365.61	1978.34
365.82	2088.93
366.04	1990.63
366.25	1998.82
366.47	1978.34
366.68	2052.06
366.90	1935.33
367.11	2031.58
367.33	2084.83
367.54	2084.83
367.76	2095.07
367.97	2133.98
368.19	2035.68
368.40	2070.50
368.62	2035.68
368.83	2062.30
369.05	2027.49
369.26	2007.01
369.48	2009.06
369.69	2047.97
369.91	2088.93
370.12	2060.26
370.33	2101.22
370.55	1996.77
370.76	2070.50
370.98	2127.84
371.19	2078.69
371.41	2009.06
371.62	2013.15
371.84	2031.58
372.05	2207.71
372.27	2103.26
372.48	2144.22
372.69	2047.97
372.91	2123.74
373.12	2138.08
373.34	2050.02
373.55	2109.41
373.77	2133.98
373.98	2095.07
374.20	2166.75
374.41	2289.63
374.62	2146.27
374.84	2281.44
375.05	2197.47
375.27	2170.85
375.48	2217.95
375.70	2244.57
375.91	2179.04
376.12	2306.01
376.34	2150.37
376.55	2256.86
376.77	2205.66
376.98	2113.50
377.19	2183.13
377.41	2136.03
377.62	2176.99
377.84	2217.95
378.05	2344.92
378.27	2162.66
378.48	2299.87
378.69	2256.86
378.91	2293.72
379.12	2217.95
379.34	2230.24
379.55	2299.87
379.76	2271.20
379.98	2195.42
380.19	2279.39
380.41	2293.72
380.62	2306.01
380.83	2254.81
381.05	2211.81
381.26	2430.94
381.47	2295.77
381.69	2326.49
381.90	2383.84
382.12	2365.40
382.33	2254.81
382.54	2349.02
382.76	2281.44
382.97	2357.21
383.19	2328.54
383.40	2387.93
383.61	2394.08
383.83	2377.69
384.04	2322.40
384.25	2394.08
384.47	2389.98
384.68	2344.92
384.89	2269.15
385.11	2344.92
385.32	2365.40
385.54	2410.46
385.75	2402.27
385.96	2463.71
386.18	2443.23
386.39	2510.81
386.60	2408.41
386.82	2453.47
387.03	2478.04
387.24	2457.56
387.46	2553.82
387.67	2439.13
387.88	2619.35
388.10	2502.62
388.31	2519.00
388.52	2725.85
388.74	2588.63
388.95	2514.91
389.16	2480.09
389.38	2494.43
389.59	2594.78
389.80	2699.22
390.02	2652.12
390.23	2670.55
390.44	2502.62
390.66	2594.78
390.87	2551.77
391.08	2668.50
391.30	2818.00
391.51	2609.11
391.72	2729.94
391.94	2605.02
392.15	2629.59
392.36	2693.08
392.58	2719.70
392.79	2682.84
393.00	2746.33
393.22	2805.72
393.43	2830.29
393.64	2764.76
393.85	2764.76
394.07	2701.27
394.28	2781.14
394.49	2766.81
394.71	2789.33
394.92	2807.77
395.13	2725.85
395.35	2795.48
395.56	2844.63
395.77	2752.47
395.98	2854.87
396.20	2942.93
396.41	2926.55
396.62	3006.42
396.84	2875.35
397.05	2883.54
397.26	2981.84
397.47	2920.40
397.69	2832.34
397.90	3164.11
398.11	2912.21
398.32	2877.40
398.54	2990.03
398.75	2969.55
398.96	2959.31
399.18	3129.30
399.39	2981.84
399.60	3123.15
399.81	2953.17
400.03	3018.71
400.24	3170.26
400.45	2961.36
400.66	3039.19
400.88	3006.42
401.09	3082.19
401.30	3084.24
401.51	3196.88
401.73	3182.54
401.94	3094.48
402.15	3084.24
402.36	3035.09
402.58	3241.93
402.79	3252.17
403.00	3057.62
403.21	3117.01
403.43	3221.45
403.64	3286.99
403.85	3170.26
404.06	3311.57
404.27	3203.02
404.49	3207.12
404.70	3096.53
404.91	3370.96
405.12	3301.33
405.34	3260.37
405.55	3481.55
405.76	3141.58
405.97	3209.17
406.19	3330.00
406.40	3215.31
406.61	3430.35
406.82	3440.59
407.03	3340.24
407.25	3311.57
407.46	3391.44
407.67	3487.69
407.88	3354.57
408.09	3293.13
408.31	3399.63
408.52	3502.03
408.73	3436.49
408.94	3368.91
409.15	3481.55
409.37	3485.64
409.58	3522.51
409.79	3487.69
410.00	3590.09
410.21	3512.27
410.43	3600.33
410.64	3489.74
410.85	3553.23
411.06	3454.92
411.27	3600.33
411.48	3594.19
411.70	3618.76
411.91	3588.04
412.12	3653.58
412.33	3655.62
412.54	3712.97
412.76	3649.48
412.97	3739.59
413.18	3491.79
413.39	3706.82
413.60	3706.82
413.81	3698.63
414.03	3643.34
414.24	3690.44
414.45	3864.52
414.66	3649.48
414.87	3624.90
415.08	3753.93
415.30	3794.89
415.51	3786.69
415.72	3905.48
415.93	3815.37
416.14	3751.88
416.35	3870.66
416.56	3776.45
416.78	3813.32
416.99	3889.09
417.20	3897.28
417.41	3878.85
417.62	4005.83
417.83	3932.10
418.04	3852.23
418.26	3981.25
418.47	3905.48
418.68	4009.92
418.89	4030.40
419.10	4116.42
419.31	3960.77
419.52	4136.90
419.73	4050.88
419.95	4202.43
420.16	3880.90
420.37	4079.55
420.58	4104.13
420.79	3919.81
421.00	4206.53
421.21	4249.54
421.42	4044.74
421.63	4313.02
421.85	4104.13
422.06	4278.21
422.27	4204.48
422.48	4188.10
422.69	4382.65
422.90	4276.16
423.11	4353.98
423.32	4343.74
423.53	4546.49
423.75	4372.41
423.96	4456.38
424.17	4503.48
424.38	4759.48
424.59	4444.09
424.80	4691.90
425.01	4515.77
425.22	4411.32
425.43	4521.92
425.64	4853.69
425.85	4704.18
426.06	4673.46
426.28	4667.32
426.49	4597.69
426.70	4431.80
426.91	4745.14
427.12	4726.71
427.33	4773.82
427.54	4739.00
427.75	4706.23
427.96	4872.12
428.17	4857.78
428.38	4923.32
428.59	4984.76
428.80	4851.64
429.01	4812.73
429.23	4929.46
429.44	5144.50
429.65	4925.36
429.86	5087.15
430.07	5033.91
430.28	4853.69
430.49	5183.41
430.70	5310.38
430.91	5250.99
431.12	5058.48
431.33	5429.17
431.54	5298.10
431.75	5136.31
431.96	5179.31
432.17	5244.85
432.38	5220.27
432.59	5488.56
432.80	5377.97
433.01	5451.69
433.22	5494.70
433.43	5463.98
433.64	5435.31
433.85	5386.16
434.06	5615.53
434.27	5396.40
434.49	5697.45
434.70	5683.11
434.91	5509.04
435.12	5607.34
435.33	5660.59
435.54	5734.31
435.75	5431.21
435.96	5631.91
436.17	5588.91
436.38	5734.31
436.59	5758.89
436.80	5666.73
437.01	5912.49
437.22	5922.73
437.43	5722.02
437.64	5660.59
437.85	5791.66
438.06	5875.62
438.27	5896.10
438.48	5896.10
438.69	6006.69
438.90	5932.97
439.11	5887.91
439.32	6145.95
439.53	5885.86
439.74	6059.94
439.95	6098.85
440.16	5998.50
440.37	6086.56
440.57	5998.50
440.78	6162.34
440.99	6094.76
441.20	6127.52
441.41	6113.19
441.62	6154.15
441.83	6031.27
442.04	6162.34
442.25	6211.49
442.46	6111.14
442.67	6387.61
442.88	6686.62
443.09	6094.76
443.30	6135.71
443.51	6277.02
443.72	6522.78
443.93	6191.01
444.14	6547.36
444.35	6236.06
444.56	6410.14
444.77	6422.43
444.98	6475.68
445.19	6539.16
445.40	6500.25
445.61	6578.08
445.81	6690.71
446.02	6526.88
446.23	6506.40
446.44	6420.38
446.65	6477.73
446.86	6610.84
447.07	6752.15
447.28	6825.88
447.49	6829.98
447.70	6743.96
447.91	6784.92
448.12	6721.43
448.33	7026.58
448.54	6700.95
448.74	6635.42
448.95	6789.02
449.16	6807.45
449.37	7143.32
449.58	6848.41
449.79	7088.02
450.00	6750.10
450.21	7163.79
450.42	7040.92
450.63	7198.61
450.84	6922.13
451.05	7176.08
451.25	7124.88
451.46	7131.03
451.67	7237.52
451.88	7282.58
452.09	7186.32
452.30	7204.75
452.51	6940.57
452.72	7417.74
452.93	7589.77
453.13	7028.63
453.34	7298.96
453.55	7255.95
453.76	7507.85
453.97	7608.20
454.18	7530.38
454.39	7415.69
454.60	7505.81
454.81	7477.13
455.01	7532.43
455.22	7344.02
455.43	7557.00
455.64	7843.72
455.85	7923.59
456.06	7958.41
456.27	7675.79
456.48	7726.99
456.68	7946.12
456.89	7937.93
457.10	7919.50
457.31	7980.93
457.52	8048.52
457.73	8048.52
457.94	8247.17
458.14	8011.65
458.35	8386.43
458.56	8173.44
458.77	8060.80
458.98	8286.08
459.19	8204.16
459.39	8451.97
459.60	8560.51
459.81	8597.37
460.02	8517.50
460.23	8558.46
460.44	8873.85
460.65	8781.69
460.85	8761.21
461.06	8847.22
461.27	8537.98
461.48	9006.97
461.69	8906.62
461.89	8648.57
462.10	8910.71
462.31	8744.83
462.52	8970.10
462.73	8951.67
462.94	9387.89
463.14	9099.13
463.35	8892.28
463.56	9641.84
463.77	9490.29
463.98	9236.34
464.18	9471.86
464.39	9604.97
464.60	9828.20
464.81	9777.00
465.02	9578.35
465.23	9875.31
465.43	9713.52
465.64	9910.12
465.85	9688.94
466.06	9856.87
466.27	10211.17
466.47	10256.23
466.68	10149.73
466.89	10055.53
467.10	10307.43
467.30	9928.55
467.51	10436.45
467.72	10497.89
467.93	10317.67
468.14	10499.94
468.34	10743.64
468.55	10585.95
468.76	10815.32
468.97	10553.18
469.17	10940.25
469.38	10985.30
469.59	11169.62
469.80	10895.19
470.01	11046.74
470.21	11085.65
470.42	11327.32
470.63	11241.30
470.84	11183.96
471.04	11571.02
471.25	11601.74
471.46	11493.20
471.67	11904.84
471.87	11714.38
472.08	11519.82
472.29	12066.63
472.50	11839.31
472.70	11863.88
472.91	11841.36
473.12	12320.58
473.33	12148.55
473.53	12556.10
473.74	12326.72
473.95	12443.46
474.16	12633.92
474.36	12605.25
474.57	13010.75
474.78	13104.95
474.99	12894.01
475.19	12945.21
475.40	13219.64
475.61	13276.98
475.81	13338.42
476.02	13639.47
476.23	13442.87
476.44	13752.11
476.64	14090.02
476.85	13807.41
477.06	13836.08
477.27	14098.22
477.47	14223.14
477.68	14413.60
477.89	14452.52
478.09	14421.80
478.30	14429.99
478.51	14440.23
478.71	14735.14
478.92	14782.24
479.13	14978.84
479.34	15007.52
479.54	15195.93
479.75	15204.12
479.96	15253.27
480.16	15132.44
480.37	15267.61
480.58	15480.60
480.78	15736.59
480.99	15738.64
481.20	15984.40
481.41	16011.02
481.61	15820.56
481.82	16150.28
482.03	16097.03
482.23	16330.50
482.44	16432.90
482.65	16183.05
482.85	16924.41
483.06	16604.93
483.27	16893.69
483.47	16828.16
483.68	16809.73
483.89	16914.17
484.09	17002.24
484.30	17219.32
484.51	17411.83
484.71	17608.44
484.92	17463.03
485.13	17501.94
485.33	17671.92
485.54	17682.16
485.75	17977.07
485.95	18233.07
486.16	17989.36
486.37	18478.82
486.57	18079.47
486.78	18499.30
486.98	18351.85
487.19	18661.09
487.40	18738.91
487.60	18743.01
487.81	18640.61
488.02	19029.73
488.22	18824.93
488.43	19105.50
488.64	19058.40
488.84	19230.43
489.05	19351.26
489.25	19316.44
489.46	19590.87
489.67	19664.60
489.87	19812.05
490.08	19816.15
490.29	19801.81
490.49	20180.68
490.70	20055.76
490.90	20313.80
491.11	20039.37
491.32	20307.66
491.52	20555.46
491.73	20491.98
491.94	20541.13
492.14	20571.85
492.35	20831.94
492.55	21036.74
492.76	20911.81
492.97	21178.04
493.17	21157.57
493.38	21233.34
493.58	21298.88
493.79	21534.39
494.00	21313.21
494.20	21198.52
494.41	21677.75
494.61	21675.70
494.82	21642.93
495.02	21606.07
495.23	21802.68
495.44	21765.81
495.64	22077.10
495.85	21837.49
496.05	22179.50
496.26	22093.49
496.47	22437.55
496.67	22150.83
496.88	22632.10
497.08	22156.97
497.29	22920.87
497.49	22394.54
497.70	22681.25
497.91	22793.89
498.11	22652.58
498.32	22967.97
498.52	23021.22
498.73	23615.13
498.93	23287.45
499.14	23287.45
499.34	23471.77
499.55	23412.38
499.76	23314.08
499.96	23482.01
500.17	23850.64
500.37	23512.73
500.58	23461.53
500.78	23840.40
500.99	23617.18
501.19	23875.22
501.40	23760.53
501.60	23795.35
501.81	23918.23
502.02	24155.79
502.22	23877.27
502.43	24252.05
502.63	24444.56
502.84	24329.87
503.04	24184.46
503.25	24342.16
503.45	24635.02
503.66	24641.16
503.86	24309.39
504.07	24872.58
504.27	24479.37
504.48	25011.84
504.68	24966.79
504.89	25308.80
505.09	25171.58
505.30	25050.75
505.50	24882.82
505.71	25073.28
505.91	25448.06
506.12	25269.89
506.32	25235.07
506.53	25263.74
506.73	25370.24
506.94	25577.08
507.14	25433.72
507.35	25501.31
507.55	25624.18
507.76	26052.21
507.96	25695.86
508.17	25585.27
508.37	25740.92
508.58	25798.26
508.78	25804.41
508.99	26111.60
509.19	26148.46
509.40	26066.55
509.60	26162.80
509.81	26334.83
510.01	26291.82
510.22	26488.43
510.42	26259.06
510.63	26443.37
510.83	26496.62
511.04	26592.87
511.24	26762.86
511.44	26441.32
511.65	26648.17
511.85	26459.76
512.06	26582.63
512.26	26842.73
512.47	27143.78
512.67	26996.32
512.88	27020.90
513.08	26824.29
513.29	26914.41
513.49	27115.11
513.69	27008.61
513.90	27012.71
514.10	27190.88
514.31	27418.21
514.51	27078.24
514.72	27270.75
514.92	27829.85
515.13	27274.85
515.33	27805.27
515.53	27520.60
515.74	27770.46
515.94	27704.92
516.15	27864.66
516.35	27588.19
516.56	27954.77
516.76	27842.14
516.96	27801.18
517.17	28059.22
517.37	28085.84
517.58	28204.63
517.78	28534.35
517.99	28364.37
518.19	28888.65
518.39	28606.03
518.60	28794.44
518.80	28390.99
519.01	28849.74
519.21	28837.45
519.41	29083.20
519.62	28646.99
519.82	28868.17
520.03	29023.81
520.23	29042.24
520.43	28810.82
520.64	29318.72
520.84	29709.88
521.05	29367.87
521.25	29802.04
521.45	29562.43
521.66	29773.37
521.86	29838.90
522.07	29922.87
522.27	29875.77
522.47	29705.79
522.68	30109.24
522.88	29947.45
523.08	30524.97
523.29	30309.94
523.49	30150.20
523.70	30522.93
523.90	30662.19
524.10	30492.21
524.31	30760.49
524.51	30848.55
524.71	30785.07
524.92	30717.48
525.12	31024.68
525.33	30793.26
525.53	30969.38
525.73	31225.38
525.94	31315.49
526.14	31327.78
526.34	31643.17
526.55	31653.40
526.75	31948.31
526.95	32134.68
527.16	31761.95
527.36	31839.77
527.56	32368.15
527.77	32028.18
527.97	32441.87
528.17	32519.70
528.38	32554.51
528.58	32503.31
528.78	32769.55
528.99	32618.00
529.19	33107.46
529.39	32521.74
529.60	33234.44
529.80	32974.34
530.00	32949.77
530.21	33291.78
530.41	33881.60
530.61	33431.04
530.82	33400.32
531.02	33707.52
531.22	34051.58
531.43	33924.60
531.63	34059.77
531.83	34344.44
532.04	34741.74
532.24	34457.07
532.44	34776.56
532.64	34819.56
532.85	34997.74
533.05	35053.03
533.25	35024.36
533.46	34844.14
533.66	35452.39
533.86	35087.85
534.07	35681.76
534.27	35624.42
534.47	35687.90
534.67	35542.50
534.88	35501.54
535.08	36013.53
535.28	36095.45
535.49	36273.62
535.69	36459.99
535.89	36408.79
536.09	36115.93
536.30	36603.35
536.50	36830.67
536.70	36793.81
536.91	37219.78
537.11	37105.10
537.31	36877.77
537.51	37449.16
537.72	37428.68
537.92	37416.39
538.12	37627.33
538.32	37381.57
538.53	37680.58
538.73	37735.87
538.93	37717.44
539.13	37574.08
539.34	37717.44
539.54	38213.05
539.74	38270.39
539.94	38614.45
540.15	38485.43
540.35	38512.05
540.55	38329.78
540.75	38831.54
540.96	38823.34
541.16	38507.96
541.36	38784.43
541.56	38915.50
541.77	39347.62
541.97	39476.65
542.17	39669.15
542.37	39433.64
542.58	39419.30
542.78	39185.83
542.98	39736.74
543.18	39720.35
543.38	40185.24
543.59	40148.38
543.79	39853.47
543.99	40023.45
544.19	40193.43
544.40	39947.68
544.60	40402.33
544.80	39845.28
545.00	40435.10
545.20	40539.54
545.41	40261.02
545.61	40306.07
545.81	41063.82
546.01	40797.59
546.21	40043.93
546.42	40523.16
546.62	41217.42
546.82	40981.90
547.02	40940.94
547.22	41006.48
547.43	41276.81
547.63	41635.20
547.83	41481.61
548.03	41125.26
548.23	41303.43
548.44	41270.67
548.64	41788.80
548.84	41483.66
549.04	41713.03
549.24	41727.36
549.45	42042.75
549.65	41506.18
549.85	41969.02
550.05	42114.43
550.25	42038.65
550.45	42507.64
550.66	42282.36
550.86	41794.95
551.06	42517.88
551.26	42302.84
551.46	42642.81
551.66	42454.39
551.87	42530.17
552.07	42575.22
552.27	42397.05
552.47	42802.55
552.67	42982.77
552.87	42534.26
553.07	42780.02
553.28	43081.07
553.48	43009.39
553.68	42683.76
553.88	43273.58
554.08	43365.74
554.28	43369.83
554.48	43132.27
554.69	43003.25
554.89	43089.26
555.09	43365.74
555.29	43029.87
555.49	43656.55
555.69	43476.33
555.89	42825.07
556.10	43552.10
556.30	43588.97
556.50	43550.06
556.70	43162.99
556.90	43427.18
557.10	43801.96
557.30	43437.42
557.50	44055.90
557.70	44004.70
557.91	43771.24
558.11	43713.89
558.31	43709.80
558.51	43857.25
558.71	43775.33
558.91	44027.23
559.11	43724.13
559.31	44096.86
559.51	43574.63
559.72	43963.75
559.92	44135.77
560.12	43601.25
560.32	44062.05
560.52	43933.03
560.72	44270.94
560.92	44500.31
561.12	44100.96
561.32	44414.30
561.52	44275.04
561.72	44696.92
561.93	43818.34
562.13	44197.21
562.33	43689.32
562.53	44580.18
562.73	44328.28
562.93	44092.77
563.13	44739.93
563.33	44352.86
563.53	44582.23
563.73	44275.04
563.93	44356.96
564.13	44797.27
564.33	44471.64
564.53	44547.42
564.74	44580.18
564.94	44442.97
565.14	44537.18
565.34	44287.32
565.54	44985.68
565.74	44838.23
565.94	45090.13
566.14	44838.23
566.34	44567.90
566.54	45079.89
566.74	44356.96
566.94	44862.80
567.14	44897.62
567.34	44774.74
567.54	45163.85
567.74	44840.28
567.94	44639.57
568.14	45110.61
568.34	45241.68
568.54	44846.42
568.74	45561.16
568.94	45108.56
569.14	45266.25
569.34	45086.03
569.54	45256.01
569.75	44901.71
569.95	45385.04
570.15	45452.62
570.35	45366.60
570.55	45327.69
570.75	45456.71
570.95	45413.71
571.15	45407.56
571.35	45065.55
571.55	45843.78
571.75	45589.83
571.95	45284.68
572.15	45133.14
572.35	45684.04
572.55	45507.91
572.75	45538.63
572.95	45638.98
573.15	45612.36
573.35	45792.58
573.55	45475.15
573.75	45442.38
573.95	45706.57
574.15	45890.88
574.35	45829.44
574.55	45354.32
574.75	45727.05
574.95	46163.26
575.15	45450.57
575.34	45987.14
575.54	46169.41
575.74	46130.50
575.94	46196.03
576.14	45937.99
576.34	46007.62
576.54	46292.29
576.74	46167.36
576.94	46288.19
577.14	46396.73
577.34	46658.87
577.54	46212.41
577.74	46880.05
577.94	46499.13
578.14	46550.33
578.34	46550.33
578.54	46155.07
578.74	46447.93
578.94	46503.23
579.14	46331.20
579.34	46826.81
579.54	46648.63
579.74	46886.20
579.94	46605.62
580.13	47011.12
580.33	47068.47
580.53	46982.45
580.73	47258.93
580.93	46638.39
581.13	47086.90
581.33	47349.04
581.53	47435.05
581.73	46961.97
581.93	47465.77
582.13	47498.54
582.33	47457.58
582.53	47246.64
582.73	47201.58
582.92	47602.99
583.12	48110.88
583.32	47428.91
583.52	47643.94
583.72	47799.59
583.92	47609.13
584.12	47953.19
584.32	47949.09
584.52	47787.30
584.72	47961.38
584.92	48049.44
585.11	48317.73
585.31	48080.16
585.51	47969.57
585.71	48235.81
585.91	48164.13
586.11	48045.35
586.31	48309.53
586.51	48252.19
586.71	48379.17
586.91	48530.72
587.10	48534.81
587.30	48426.27
587.50	48436.51
587.70	48569.63
587.90	48903.45
588.10	48317.73
588.30	48557.34
588.50	48909.59
588.69	48782.62
588.89	48731.42
589.09	48792.86
589.29	48739.61
589.49	49161.49
589.69	48663.83
589.89	49313.04
590.08	49190.16
590.28	48993.56
590.48	48944.41
590.68	48973.08
590.88	49282.32
591.08	48973.08
591.28	49419.53
591.47	49265.94
591.67	49333.52
591.87	49612.04
592.07	49333.52
592.27	49718.54
592.47	49468.69
592.67	49104.15
592.86	49554.70
593.06	49730.83
593.26	49659.15
593.46	49419.53
593.66	50046.21
593.86	49833.22
594.05	49745.16
594.25	49935.62
594.45	49915.14
594.65	50140.42
594.85	49880.33
595.05	50115.84
595.24	49906.95
595.44	50310.40
595.64	50167.04
595.84	50275.58
596.04	50824.44
596.23	50504.96
596.43	50812.15
596.63	50302.21
596.83	50785.53
597.03	50889.98
597.22	51143.92
597.42	50824.44
597.62	50791.67
597.82	51283.19
598.02	50717.95
598.21	51078.39
598.41	50816.25
598.61	51012.85
598.81	51010.81
599.01	51440.88
599.20	51772.65
599.40	51229.94
599.60	51627.24
599.80	51836.14
600.00	51641.58
600.19	51766.51
600.39	51696.88
600.59	51969.26
600.79	52217.06
600.98	51750.12
601.18	52116.71
601.38	51827.95
601.58	52331.75
601.78	52024.55
601.97	52018.41
602.17	52724.96
602.37	52317.41
602.57	52432.10
602.76	52970.71
602.96	52450.53
603.16	52868.31
603.36	52634.84
603.55	52892.89
603.75	52759.77
603.95	52514.01
604.15	53249.24
604.34	52786.39
604.54	52915.42
604.74	53277.91
604.94	53468.37
605.13	53200.08
605.33	53255.38
605.53	53417.17
605.73	53558.48
605.92	53521.62
606.12	53802.19
606.32	53431.50
606.52	53910.73
606.71	53718.22
606.91	53828.81
607.11	53693.64
607.30	54041.80
607.50	54084.81
607.70	54222.02
607.90	54056.14
608.09	53796.04
608.29	54156.49
608.49	53925.07
608.68	54322.37
608.88	54740.16
609.08	54363.33
609.28	54258.88
609.47	53994.70
609.67	54811.84
609.87	54777.02
610.06	54631.61
610.26	54535.36
610.46	54871.23
610.66	54813.88
610.85	54639.81
611.05	54848.70
611.25	55110.84
611.44	54797.50
611.64	55463.09
611.84	55096.50
612.03	55080.12
612.23	54822.08
612.43	55164.09
612.62	55192.76
612.82	55166.13
613.02	55307.44
613.21	55469.23
613.41	55350.45
613.61	55188.66
613.80	55246.00
614.00	55551.15
614.20	55858.35
614.39	55205.05
614.59	55780.52
614.79	55475.38
614.98	55016.63
615.18	55532.72
615.38	55469.23
615.57	55557.30
615.77	56226.98
615.97	55846.06
616.16	55530.67
616.36	55809.20
616.56	56009.90
616.75	56145.06
616.95	55532.72
617.15	55415.99
617.34	55678.13
617.54	55755.95
617.74	55985.32
617.93	56054.95
618.13	55874.73
618.32	55762.09
618.52	55751.85
618.72	55876.78
618.91	55481.52
619.11	55418.03
619.31	56186.02
619.50	55975.08
619.70	56153.26
619.90	56274.09
620.09	55854.25
620.29	55874.73
620.48	56204.45
620.68	56218.79
620.88	55440.56
621.07	56202.41
621.27	56104.10
621.46	55846.06
621.66	56349.86
621.86	55993.51
622.05	56220.84
622.25	56734.88
622.44	56296.61
622.64	56112.30
622.84	55944.36
623.03	56073.38
623.23	56542.37
623.42	56415.40
623.62	56626.34
623.82	56698.01
624.01	56077.48
624.21	56202.41
624.40	56097.96
624.60	56482.98
624.80	56149.16
624.99	56216.74
625.19	55833.77
625.38	56329.38
625.58	56036.52
625.77	56614.05
625.97	56757.41
626.17	56054.95
626.36	56753.31
626.56	56609.95
626.75	56272.04
626.95	56568.99
627.14	56147.11
627.34	56943.77
627.54	56583.33
627.73	56798.37
627.93	56511.65
628.12	56419.49
628.32	56986.78
628.51	56196.26
628.71	56849.56
628.90	56605.86
629.10	56464.55
629.30	56691.87
629.49	56458.40
629.69	57044.12
629.88	56353.96
630.08	56958.11
630.27	56687.78
630.47	56722.59
630.66	56648.86
630.86	56636.58
631.05	56274.09
631.25	57349.27
631.44	56941.72
631.64	56824.99
631.84	56874.14
632.03	57164.95
632.23	57005.21
632.42	56990.87
632.62	56794.27
632.81	56583.33
633.01	56708.25
633.20	57027.74
633.40	57062.55
633.59	57345.17
633.79	56743.07
633.98	57349.27
634.18	57046.17
634.37	57236.63
634.57	57386.13
634.76	57398.42
634.96	57449.62
635.15	57367.70
635.35	57040.03
635.54	57033.88
635.74	57353.36
635.93	56626.34
636.13	57443.48
636.32	57226.39
636.52	57144.47
636.71	57009.31
636.91	57095.32
637.10	57078.94
637.30	56882.33
637.49	56968.35
637.69	57361.56
637.88	57128.09
638.08	56833.18
638.27	57339.03
638.46	57306.26
638.66	57095.32
638.85	57199.77
639.05	57275.54
639.24	57185.43
639.44	57511.06
639.63	57412.76
639.83	57693.33
640.02	56882.33
640.22	57586.83
640.41	57791.63
640.61	56741.02
640.80	57242.77
640.99	57103.51
641.19	57724.05
641.38	57398.42
641.58	57459.86
641.77	57666.70
641.97	57334.93
642.16	57205.91
642.36	57691.28
642.55	57937.04
642.74	57148.57
642.94	57873.55
643.13	57181.34
643.33	57136.28
643.52	57728.14
643.72	58164.36
643.91	57830.54
644.10	57992.33
644.30	58115.21
644.49	57846.93
644.69	58217.61
644.88	57603.22
645.08	57846.93
645.27	57824.40
645.46	57070.75
645.66	57666.70
645.85	57476.24
646.05	57685.14
646.24	57453.72
646.43	57879.69
646.63	58123.40
646.82	58086.54
647.02	57902.22
647.21	58016.91
647.40	57844.88
647.60	58340.49
647.79	57515.15
647.99	57984.14
648.18	57726.10
648.37	58477.70
648.57	57908.36
648.76	57652.37
648.96	58043.53
649.15	57693.33
649.34	58035.34
649.54	58283.14
649.73	57291.93
649.92	57986.19
650.12	58193.03
650.31	58043.53
650.51	57773.20
650.70	58305.67
650.89	58125.45
651.09	58453.12
651.28	58270.85
651.47	58481.80
651.67	58309.77
651.86	58436.74
652.06	57523.35
652.25	57830.54
652.44	57867.40
652.64	57408.66
652.83	57736.34
653.02	57631.89
653.22	57564.31
653.41	57779.34
653.60	57826.45
653.80	57851.02
653.99	57957.52
654.18	57762.96
654.38	57992.33
654.57	57756.81
654.76	57693.33
654.96	57433.24
655.15	57357.46
655.34	57828.49
655.54	57762.96
655.73	57752.72
655.92	57818.25
656.12	57990.28
656.31	57697.42
656.50	57791.63
656.70	58160.26
656.89	57769.10
657.08	57752.72
657.28	57597.07
657.47	57590.93
657.66	58258.57
657.86	57504.91
658.05	57941.13
658.24	58317.96
658.43	57607.31
658.63	57953.42
658.82	58180.74
659.01	57898.12
659.21	57922.70
659.40	57853.07
659.59	57590.93
659.79	57883.79
659.98	57443.48
660.17	58254.47
660.36	57894.03
660.56	57576.59
660.75	57859.21
660.94	57846.93
661.14	57754.77
661.33	57625.74
661.52	57222.29
661.71	57642.13
661.91	57535.63
662.10	57287.83
662.29	57644.18
662.49	57668.75
662.68	57607.31
662.87	57418.90
663.06	57582.74
663.26	57382.04
663.45	58053.77
663.64	57437.33
663.83	58047.63
664.03	57457.81
664.22	57674.90
664.41	57635.98
664.60	57613.46
664.80	57480.34
664.99	57633.94
665.18	56890.52
665.37	57349.27
665.57	57484.43
665.76	56876.19
665.95	57398.42
666.14	57390.23
666.34	57531.54
666.53	57029.79
666.72	57287.83
666.91	57210.01
667.11	56951.96
667.30	57443.48
667.49	56824.99
667.68	56890.52
667.87	56773.79
668.07	57668.75
668.26	57472.15
668.45	57097.37
668.64	56908.96
668.84	57699.47
669.03	57316.50
669.22	57080.98
669.41	57504.91
669.60	57083.03
669.80	57058.46
669.99	57259.16
670.18	57091.22
670.37	56966.30
670.57	57347.22
670.76	57138.33
670.95	57087.13
671.14	56681.63
671.33	56663.20
671.53	57314.45
671.72	57093.27
671.91	57312.41
672.10	56732.83
672.29	57146.52
672.48	56573.09
672.68	57644.18
672.87	56636.58
673.06	56792.22
673.25	56902.81
673.44	57013.40
673.64	56515.75
673.83	56542.37
674.02	56304.80
674.21	56173.73
674.40	56616.10
674.59	56095.91
674.79	56292.52
674.98	56106.15
675.17	56779.93
675.36	56399.01
675.55	56630.43
675.74	56210.60
675.94	56192.17
676.13	56104.10
676.32	56579.23
676.51	56857.76
676.70	56628.38
676.89	56327.33
677.08	56370.34
677.28	55907.50
677.47	56448.16
677.66	56571.04
677.85	56124.58
678.04	56403.11
678.23	56278.18
678.42	56493.22
678.62	55968.94
678.81	56732.83
679.00	56210.60
679.19	56861.85
679.38	56087.72
679.57	56237.22
679.76	56513.70
679.96	56497.31
680.15	56013.99
680.34	56013.99
680.53	55964.84
680.72	55770.28
680.91	56360.10
681.10	56091.82
681.29	55878.83
681.48	55844.01
681.68	55649.45
681.87	55964.84
682.06	55575.73
682.25	55811.24
682.44	55352.50
682.63	55514.29
682.82	55766.19
683.01	55442.61
683.20	55356.60
683.39	55960.75
683.59	55391.41
683.78	55573.68
683.97	55219.38
684.16	55499.95
684.35	55053.50
684.54	55522.48
684.73	55753.90
684.92	55461.04
685.11	54928.57
685.30	54973.63
685.49	55286.96
685.69	55526.58
685.88	55440.56
686.07	54983.86
686.26	55239.86
686.45	55166.13
686.64	55379.12
686.83	55069.88
687.02	55299.25
687.21	55231.67
687.40	55309.49
687.59	55205.05
687.78	55207.09
687.97	55346.36
688.16	55033.02
688.35	54940.86
688.54	54949.05
688.74	54838.46
688.93	55043.26
689.12	54985.91
689.31	54899.90
689.50	54977.72
689.69	54596.80
689.88	54672.57
690.07	54903.99
690.26	54531.26
690.45	55143.61
690.64	54903.99
690.83	54582.46
691.02	54160.58
691.21	54457.54
691.40	54416.58
691.59	54822.08
691.78	54211.78
691.97	54752.44
692.16	54283.46
692.35	54621.37
692.54	54275.27
692.73	54168.77
692.92	54502.59
693.11	54621.37
693.30	54416.58
693.49	54154.44
693.68	54115.53
693.87	54703.29
694.06	54211.78
694.25	53966.02
694.44	53859.53
694.63	54348.99
694.82	54287.56
695.01	54441.15
695.20	54101.19
695.39	54033.61
695.58	53935.30
695.77	53638.35
695.96	53732.56
696.15	54025.42
696.34	53603.53
696.53	53943.50
696.72	54545.60
696.91	54064.33
697.10	53918.92
697.29	53920.97
697.48	53794.00
697.67	53628.11
697.86	53730.51
698.05	53601.49
698.24	53875.91
698.43	53507.28
698.62	53902.54
698.81	53628.11
699.00	53933.26
699.19	53656.78
699.38	53701.84
699.57	53056.73
699.76	53963.98
699.95	53363.92
700.14	53716.17
700.32	53445.84
700.51	53263.57
700.70	53959.88
700.89	53562.57
701.08	53523.66
701.27	53322.96
701.46	54021.32
701.65	53040.34
701.84	53107.93
702.03	53558.48
702.22	53427.41
702.41	53386.45
702.60	53347.54
702.79	53128.41
702.98	53060.82
703.17	52872.41
703.35	53204.18
703.54	52831.45
703.73	53040.34
703.92	53062.87
704.11	52917.46
704.30	52690.14
704.49	52933.85
704.68	53134.55
704.87	52643.04
705.06	53040.34
705.25	52362.46
705.43	52894.94
705.62	53103.83
705.81	52602.08
706.00	52671.71
706.19	52526.30
706.38	52552.93
706.57	52944.09
706.76	52622.56
706.95	52866.27
707.14	52817.11
707.32	52548.83
707.51	52208.87
707.70	52294.88
707.89	52554.97
708.08	52356.32
708.27	52872.41
708.46	52745.44
708.65	52020.45
708.84	52606.17
709.02	52583.65
709.21	52661.47
709.40	53023.96
709.59	52165.86
709.78	51950.82
709.97	52215.01
710.16	52372.70
710.34	52454.62
710.53	52321.51
710.72	52106.47
710.91	52557.02
711.10	52372.70
711.29	52395.23
711.48	52165.86
711.66	52006.12
711.85	52516.06
712.04	51895.53
712.23	51860.71
712.42	52194.53
712.61	52122.85
712.80	52333.79
712.98	52159.72
713.17	52335.84
713.36	51770.60
713.55	52028.65
713.74	51809.51
713.93	52307.17
714.11	51565.81
714.30	51793.13
714.49	51727.59
714.68	51547.37
714.87	51922.15
715.06	51829.99
715.24	51786.99
715.43	51533.04
715.62	51246.32
715.81	51320.05
716.00	51844.33
716.18	51414.26
716.37	51490.03
716.56	51295.47
716.75	51762.41
716.94	51262.71
717.12	50982.13
717.31	51477.74
717.50	51522.80
717.69	51326.19
717.88	51684.59
718.06	51170.55
718.25	51473.65
718.44	50945.27
718.63	51367.15
718.82	51217.65
719.00	51006.71
719.19	51279.09
719.38	51279.09
719.57	50337.02
719.76	50115.84
719.94	50535.68
720.13	50523.39
720.32	50652.41
720.51	50795.77
720.69	50760.95
720.88	50265.34
721.07	50476.29
721.26	50472.19
721.44	50480.38
721.63	50427.13
721.82	49849.61
722.01	50283.78
722.20	50785.53
722.38	50367.74
722.57	49698.06
722.76	50257.15
722.95	49851.66
723.13	49585.42
723.32	50091.27
723.51	49464.59
723.70	49562.89
723.88	50394.37
724.07	49745.16
724.26	49857.80
724.44	49521.93
724.63	49886.47
724.82	49517.84
725.01	49536.27
725.19	49874.18
725.38	49591.56
725.57	49548.56
725.76	50056.45
725.94	49446.16
726.13	49519.88
726.32	49607.95
726.51	49380.62
726.69	49429.77
726.88	49548.56
727.07	49354.00
727.25	49632.52
727.44	49538.32
727.63	49323.28
727.82	49046.80
728.00	49538.32
728.19	49517.84
728.38	49411.34
728.56	48821.53
728.75	49579.28
728.94	49274.13
729.12	49536.27
729.31	49370.38
729.50	49620.23
729.69	49419.53
729.87	49374.48
730.06	49603.85
730.25	49464.59
730.43	49749.26
730.62	48794.90
730.81	49589.52
730.99	49696.01
731.18	49341.71
731.37	49186.07
731.55	49401.10
731.74	50019.59
731.93	49736.97
732.11	49491.21
732.30	49634.57
732.49	49288.46
732.67	49292.56
732.86	49616.14
733.05	49521.93
733.23	49151.25
733.42	49523.98
733.61	49573.13
733.79	49431.82
733.98	49831.18
734.17	49421.58
734.35	49632.52
734.54	49792.26
734.73	49814.79
734.91	49317.14
735.10	48848.15
735.29	49593.61
735.47	49433.87
735.66	49382.67
735.84	49263.89
736.03	49200.40
736.22	49644.81
736.40	49366.29
736.59	49485.07
736.78	48805.14
736.96	48792.86
737.15	49177.87
737.33	48962.84
737.52	49192.21
737.71	49304.85
737.89	49175.83
738.08	48868.63
738.27	49235.22
738.45	49419.53
738.64	49005.84
738.82	49018.13
739.01	48868.63
739.20	48551.20
739.38	49018.13
739.57	49519.88
739.75	49388.81
739.94	48727.32
740.13	49202.45
740.31	48731.42
740.50	48989.46
740.68	48717.08
740.87	48850.20
741.06	49169.68
741.24	49001.75
741.43	48495.90
741.61	48901.40
741.80	49091.86
741.99	48647.45
742.17	48708.89
742.36	48475.42
742.54	48401.69
742.73	48823.58
742.91	48700.70
743.10	48446.75
743.29	49020.18
743.47	48887.06
743.66	48305.44
743.84	48536.86
744.03	48934.17
744.21	48395.55
744.40	48684.31
744.59	48610.59
744.77	48076.07
744.96	48653.59
745.14	48592.15
745.33	48282.91
745.51	47875.37
745.70	48217.38
745.88	48270.62
746.07	48323.87
746.26	48485.66
746.44	48436.51
746.63	48258.34
746.81	48465.18
747.00	47678.76
747.18	48100.64
747.37	48170.27
747.55	48282.91
747.74	48297.25
747.92	48131.36
748.11	47877.41
748.29	48166.18
748.48	47734.06
748.66	47658.28
748.85	48182.56
749.03	47779.11
749.22	47926.56
749.41	47441.20
749.59	47914.28
749.78	47486.25
749.96	47486.25
750.15	47633.71
750.33	47492.40
750.52	47574.31
750.70	47404.33
750.89	46961.97
751.07	47215.92
751.26	46949.68
751.44	47072.56
751.63	47346.99
751.81	46865.72
752.00	47279.41
752.18	47330.61
752.37	47256.88
752.55	46765.37
752.74	47123.76
752.92	46892.34
753.10	46798.13
753.29	47306.03
753.47	46767.41
753.66	46505.27
753.84	47031.60
754.03	47129.90
754.21	46675.26
754.40	46744.89
754.58	47017.27
754.77	47052.08
754.95	46523.71
755.14	46767.41
755.32	46683.45
755.51	46538.04
755.69	46323.01
755.88	46429.50
756.06	46681.40
756.24	46265.66
756.43	46277.95
756.61	46409.02
756.80	46390.59
756.98	46101.82
757.17	46169.41
757.35	46122.30
757.54	46230.85
757.72	46640.44
757.90	46036.29
758.09	45628.74
758.27	46521.66
758.46	45817.16
758.64	45976.90
758.83	46280.00
759.01	46134.59
759.19	46118.21
759.38	45819.20
759.56	46300.48
759.75	45958.47
759.93	46095.68
760.12	45790.53
760.30	45905.22
760.48	45442.38
760.67	45690.18
760.85	45573.45
761.04	45835.59
761.22	45491.53
761.40	45868.36
761.59	45681.99
761.77	45235.53
761.96	45440.33
762.14	45696.33
762.32	45018.45
762.51	45094.22
762.69	45325.64
762.88	45143.38
763.06	45176.14
763.24	45663.56
763.43	45098.32
763.61	44832.08
763.80	44754.26
763.98	45004.11
764.16	44832.08
764.35	44694.87
764.53	44279.13
764.72	44778.84
764.90	44604.76
765.08	44064.10
765.27	44684.63
765.45	44346.72
765.63	44330.33
765.82	44553.56
766.00	44193.12
766.18	43910.50
766.37	44426.59
766.55	44201.31
766.74	44434.78
766.92	44137.82
767.10	44127.58
767.29	43748.71
767.47	43599.21
767.65	43672.93
767.84	43543.91
768.02	43861.35
768.20	43474.28
768.39	43865.44
768.57	43912.55
768.75	43724.13
768.94	43580.78
769.12	43734.37
769.30	43472.23
769.49	43552.10
769.67	43099.50
769.85	43148.65
770.04	43111.79
770.22	42927.47
770.40	43140.46
770.59	42859.89
770.77	43300.20
770.95	42904.95
771.14	42681.72
771.32	42720.63
771.50	42683.76
771.69	42206.59
771.87	42773.88
772.05	42761.59
772.24	42524.02
772.42	42575.22
772.60	42339.71
772.78	42526.07
772.97	42335.61
773.15	42689.91
773.33	42382.71
773.52	42182.01
773.70	42607.99
773.88	42427.77
774.07	42143.10
774.25	42378.62
774.43	42374.52
774.61	42331.51
774.80	42104.19
774.98	42317.18
775.16	42171.77
775.34	42358.14
775.53	42009.98
775.71	42728.82
775.89	42489.21
776.08	42147.20
776.26	42708.34
776.44	42542.45
776.62	42128.77
776.81	42175.87
776.99	42718.58
777.17	42640.76
777.35	42485.11
777.54	42354.04
777.72	42589.56
777.90	42511.74
778.08	42632.57
778.27	42261.88
778.45	42491.26
778.63	43126.13
778.81	42231.16
779.00	43238.76
779.18	42521.98
779.36	43142.51
779.54	42567.03
779.73	42607.99
779.91	42997.10
780.09	42642.81
780.27	43033.97
780.46	42962.29
780.64	43357.55
780.82	42806.64
781.00	42827.12
781.19	42786.16
781.37	43072.88
781.55	43095.41
781.73	43357.55
781.91	43025.78
782.10	42999.15
782.28	43316.59
782.46	43081.07
782.64	43337.07
782.82	42720.63
783.01	43097.45
783.19	43060.59
783.37	43226.48
783.55	42937.71
783.74	43277.68
783.92	42751.35
784.10	43541.86
784.28	42685.81
784.46	42659.19
784.64	43013.49
784.83	42847.60
785.01	43181.42
785.19	43158.89
785.37	42859.89
785.55	43308.40
785.74	42763.64
785.92	42460.54
786.10	43031.92
786.28	43011.44
786.46	42214.78
786.64	42300.79
786.83	42904.95
787.01	42710.39
787.19	42435.96
787.37	42536.31
787.55	42458.49
787.74	42298.75
787.92	42403.19
788.10	42376.57
788.28	41885.06
788.46	41966.98
788.64	41995.65
788.82	42331.51
789.01	42509.69
789.19	42093.95
789.37	41915.78
789.55	42012.03
789.73	41792.90
789.91	41907.58
790.09	41760.13
790.28	41631.11
790.46	41606.53
790.64	41917.82
790.82	41264.52
791.00	41309.58
791.18	41614.72
791.36	41213.32
791.55	41563.53
791.73	41006.48
791.91	40760.72
792.09	40938.90
792.27	40770.96
792.45	40867.22
792.63	40971.66
792.81	40338.84
793.00	40613.27
793.18	40572.31
793.36	40367.51
793.54	40088.99
793.72	40015.26
793.90	40105.37
794.08	40457.62
794.26	39882.14
794.44	39687.59
794.62	39355.82
794.81	39447.97
794.99	39667.11
795.17	39452.07
795.35	39247.27
795.53	39519.65
795.71	39546.28
795.89	39239.08
796.07	38870.45
796.25	38917.55
796.43	38780.34
796.61	38731.18
796.80	39017.90
796.98	38862.26
797.16	38149.56
797.34	38657.46
797.52	38358.45
797.70	38446.52
797.88	38440.37
798.06	37844.41
798.24	38041.02
798.42	37834.17
798.60	38030.78
798.78	37696.96
798.96	37944.76
799.14	37406.15
799.32	37391.81
799.51	36945.36
799.69	37393.86
799.87	37514.69
800.05	37154.25
800.23	36982.22
800.41	36951.50
800.59	36820.43
800.77	36947.40
800.95	36199.90
801.13	36638.16
801.31	36552.15
801.49	36769.23
801.67	35911.13
801.85	36263.38
802.03	35956.19
802.21	35757.53
802.39	36191.70
802.57	35999.19
802.75	35814.88
802.93	36079.07
803.11	35952.09
803.29	35628.51
803.47	35436.00
803.65	35268.07
803.83	35204.58
804.01	35188.20
804.19	34719.21
804.37	34870.76
804.55	35100.14
804.73	35075.56
804.91	34805.23
805.09	34993.64
805.27	34969.07
805.45	34661.87
805.63	34745.84
805.81	34442.74
805.99	34751.98
806.17	34616.82
806.35	34369.01
806.53	34180.60
806.71	34100.73
806.89	33795.58
807.07	34307.57
807.25	34403.83
807.43	33916.41
807.61	34047.48
807.79	34098.68
807.97	33764.86
808.15	33385.99
808.33	33283.59
808.51	33349.12
808.69	33308.16
808.87	33168.90
809.05	33271.30
809.23	33230.34
809.41	32691.73
809.59	32886.28
809.77	32931.34
809.95	32769.55
810.13	32515.60
810.31	32529.94
810.49	32738.83
810.67	32409.11
810.84	32749.07
811.02	32380.43
811.20	32257.56
811.38	32484.88
811.56	31968.79
811.74	32247.32
811.92	31792.67
812.10	32183.83
812.28	32261.65
812.46	31852.06
812.64	31839.77
812.82	31866.39
813.00	31858.20
813.18	31690.27
813.36	31594.01
813.53	31559.20
813.71	31440.42
813.89	31229.48
814.07	31641.12
814.25	31426.08
814.43	31288.87
814.61	31297.06
814.79	31116.84
814.97	31129.12
815.15	31059.49
815.33	30971.43
815.50	30436.91
815.68	31082.02
815.86	31110.69
816.04	30600.75
816.22	30629.42
816.40	30279.22
816.58	30594.61
816.76	30354.99
816.94	30187.06
817.11	30318.13
817.29	30219.83
817.47	30180.92
817.65	29763.13
817.83	30131.76
818.01	29953.59
818.19	30084.66
818.37	30133.81
818.54	29597.24
818.72	29847.10
818.90	29582.91
819.08	29707.83
819.26	29611.58
819.44	29605.44
819.62	30121.52
819.80	29240.90
819.97	29617.72
820.15	29390.40
820.33	28952.13
820.51	29394.50
820.69	28905.03
820.87	29128.26
821.05	29439.55
821.22	29015.62
821.40	29206.08
821.58	29105.73
821.76	28823.11
821.94	29046.34
822.12	28702.28
822.29	29093.44
822.47	28704.33
822.65	28913.22
822.83	28653.13
823.01	28376.66
823.19	28390.99
823.36	28345.94
823.54	28411.47
823.72	28159.57
823.90	28257.87
824.08	28294.74
824.25	28350.03
824.43	27889.24
824.61	28132.95
824.79	28247.63
824.97	27686.49
825.15	28296.78
825.32	28323.41
825.50	27455.07
825.68	27614.81
825.86	28255.82
826.04	28067.41
826.21	27762.26
826.39	27442.78
826.57	27528.80
826.75	27633.24
826.93	27475.55
827.10	27379.29
827.28	27369.05
827.46	27651.67
827.64	27723.35
827.81	27524.70
827.99	27088.48
828.17	26916.45
828.35	27104.87
828.53	27055.72
828.70	27106.91
828.88	27016.80
829.06	27072.10
829.24	26861.16
829.41	26947.17
829.59	27156.07
829.77	27135.59
829.95	26971.75
830.12	26826.34
830.30	26799.72
830.48	27057.76
830.66	26859.11
830.84	27094.63
831.01	26578.54
831.19	26668.65
831.37	26486.38
831.55	26355.31
831.72	26252.91
831.90	26177.14
832.08	26607.21
832.25	26306.16
832.43	26531.44
832.61	26164.85
832.79	26242.67
832.96	25857.65
833.14	26398.32
833.32	26056.31
833.50	26308.21
833.67	26201.71
833.85	26121.84
834.03	25802.36
834.20	26087.03
834.38	26144.37
834.56	25831.03
834.74	25712.25
834.91	26068.59
835.09	25966.20
835.27	25380.48
835.44	25548.41
835.62	25613.95
835.80	25513.59
835.98	25583.23
836.15	25609.85
836.33	25814.65
836.51	25810.55
836.68	25495.16
836.86	25689.72
837.04	25552.51
837.21	25448.06
837.39	25472.64
837.57	25755.26
837.75	25245.31
837.92	25372.28
838.10	25255.55
838.28	25241.21
838.45	25087.62
838.63	25130.62
838.81	25163.39
838.98	24805.00
839.16	24925.83
839.34	24792.71
839.51	25085.57
839.69	24559.24
839.87	24714.89
840.04	24727.17
840.22	25067.14
840.40	24784.52
840.57	24180.37
840.75	24704.65
840.93	24250.00
841.10	24413.84
841.28	25044.61
841.46	24209.04
841.63	24444.56
841.81	24258.19
841.98	24432.27
842.16	24510.09
842.34	24239.76
842.51	24092.30
842.69	24536.71
842.87	24211.09
843.04	24557.19
843.22	23848.60
843.40	23998.10
843.57	23733.91
843.75	24303.25
843.92	24233.61
844.10	24112.78
844.28	23926.42
844.45	24018.58
844.63	24209.04
844.81	24268.43
844.98	23928.47
845.16	23975.57
845.33	24026.77
845.51	23748.25
845.69	23606.94
845.86	23781.01
846.04	23322.27
846.21	23600.79
846.39	23805.59
846.57	23727.77
846.74	23750.29
846.92	23375.52
847.09	23492.25
847.27	23113.38
847.45	23658.14
847.62	23645.85
847.80	23631.51
847.97	23352.99
848.15	23223.97
848.32	23299.74
848.50	23434.91
848.68	23170.72
848.85	23082.66
849.03	22943.39
849.20	23226.01
849.38	23056.03
849.56	22857.38
849.73	22978.21
849.91	23146.14
850.08	23283.36
850.26	22828.71
850.43	23121.57
850.61	23000.74
850.78	22718.12
850.96	22828.71
851.14	22668.97
851.31	22685.35
851.49	22611.62
851.66	22898.34
851.84	22765.22
852.01	22744.74
852.19	22431.40
852.36	22730.41
852.54	22693.54
852.71	22462.12
852.89	22582.95
853.07	22720.17
853.24	22462.12
853.42	22447.79
853.59	22503.08
853.77	22601.38
853.94	22337.20
854.12	22531.75
854.29	22095.53
854.47	22335.15
854.64	22118.06
854.82	22369.96
854.99	22326.96
855.17	22032.05
855.34	22075.06
855.52	22140.59
855.69	22109.87
855.87	22070.96
856.04	21888.69
856.22	22052.53
856.39	21952.18
856.57	21884.59
856.74	21706.42
856.92	21927.60
857.09	21751.48
857.27	21941.94
857.44	21784.24
857.62	21679.80
857.79	21913.27
857.97	21567.16
858.14	21782.20
858.32	21657.27
858.49	21493.43
858.67	21800.63
858.84	21595.83
859.02	21616.31
859.19	21532.34
859.37	21487.29
859.54	21395.13
859.72	21677.75
859.89	21624.50
860.06	21739.19
860.24	21350.07
860.41	21352.12
860.59	21214.91
860.76	21464.76
860.94	21149.37
861.11	21284.54
861.29	21388.99
861.46	21167.80
861.64	21042.88
861.81	21163.71
861.98	21284.54
862.16	20854.47
862.33	20991.68
862.51	20801.22
862.68	21239.48
862.86	20967.10
863.03	21212.86
863.21	21120.70
863.38	20825.79
863.55	20862.66
863.73	20907.71
863.90	20733.64
864.08	20952.77
864.25	20842.18
864.43	20645.57
864.60	20756.16
864.77	20633.29
864.95	20842.18
865.12	20463.30
865.30	20713.16
865.47	20512.46
865.64	20258.51
865.82	20479.69
865.99	20444.87
866.17	20334.28
866.34	20559.56
866.51	20338.38
866.69	20354.76
866.86	20446.92
867.04	20354.76
867.21	20344.52
867.38	20154.06
867.56	20047.57
867.73	20033.23
867.91	20022.99
868.08	20319.95
868.25	19842.77
868.43	19910.35
868.60	20293.32
868.78	19988.18
868.95	19924.69
869.12	19846.87
869.30	19896.02
869.47	19730.13
869.64	19728.08
869.82	19984.08
869.99	19879.63
870.16	19971.79
870.34	19840.72
870.51	19779.28
870.69	19597.01
870.86	19762.90
871.03	19836.63
871.21	19513.05
871.38	19939.02
871.55	19533.53
871.73	19519.19
871.90	19328.73
872.07	19248.86
872.25	19388.12
872.42	19037.92
872.59	19087.07
872.77	19244.76
872.94	19064.54
873.11	19177.18
873.29	19480.28
873.46	18929.38
873.63	19001.05
873.81	19181.28
873.98	19265.24
874.15	18949.85
874.33	18644.71
874.50	18804.45
874.67	18724.58
874.85	18824.93
875.02	18562.79
875.19	18644.71
875.37	18652.90
875.54	18691.81
875.71	18517.73
875.88	18493.16
876.06	18648.80
876.23	18706.15
876.40	18484.97
876.58	18357.99
876.75	18527.97
876.92	18321.13
877.10	18292.46
877.27	18503.40
877.44	18265.83
877.61	18179.82
877.79	18149.10
877.96	18216.68
878.13	18157.29
878.31	17948.40
878.48	17825.52
878.65	17856.24
878.82	17796.85
879.00	17950.45
879.17	18061.04
879.34	18145.00
879.51	17823.47
879.69	17659.63
879.86	17823.47
880.03	17831.66
880.21	17776.37
880.38	17759.98
880.55	17712.88
880.72	17526.52
880.90	17727.22
881.07	17344.25
881.24	17680.11
881.41	17516.28
881.59	17465.08
881.76	17598.20
881.93	17434.36
882.10	17342.20
882.28	17245.94
882.45	17526.52
882.62	17342.20
882.79	17520.37
882.96	17108.73
883.14	17551.09
883.31	17413.88
883.48	17188.60
883.65	17334.01
883.83	17442.55
884.00	17227.51
884.17	17219.32
884.34	17092.35
884.51	17366.78
884.69	17137.40
884.86	16938.75
885.03	17002.24
885.20	17059.58
885.38	17153.79
885.55	16903.93
885.72	16910.08
885.89	16793.34
886.06	16920.32
886.24	16758.53
886.41	16799.49
886.58	17237.75
886.75	17092.35
886.92	16832.26
887.10	16891.65
887.27	16664.32
887.44	16873.21
887.61	16971.52
887.78	16924.41
887.95	16785.15
888.13	16760.58
888.30	16627.46
888.47	16559.88
888.64	16709.38
888.81	16654.08
888.99	16455.43
889.16	16424.71
889.33	16742.14
889.50	16615.17
889.67	16310.02
889.84	16363.27
890.01	16563.97
890.19	16377.61
890.36	16551.68
890.53	16371.46
890.70	16248.58
890.87	16146.19
891.04	16258.82
891.22	16305.93
891.39	16238.34
891.56	16224.01
891.73	16215.82
891.90	16154.38
892.07	15968.01
892.24	15808.27
892.42	15970.06
892.59	16103.18
892.76	15978.25
892.93	16049.93
893.10	15978.25
893.27	15986.44
893.44	15830.80
893.61	15970.06
893.79	16015.12
893.96	15947.53
894.13	15900.43
894.30	15906.57
894.47	15886.09
894.64	16117.51
894.81	15890.19
894.98	15959.82
895.15	16058.12
895.33	16090.89
895.50	15867.66
895.67	15896.33
895.84	15925.00
896.01	15525.65
896.18	15689.49
896.35	15945.48
896.52	15759.12
896.69	15808.27
896.86	16004.88
897.04	15826.70
897.21	15843.09
897.38	15800.08
897.55	15716.11
897.72	15544.08
897.89	15671.06
898.06	15845.13
898.23	15593.23
898.40	15556.37
898.57	15675.15
898.74	15542.03
898.91	15603.47
899.08	15759.12
899.26	15773.46
899.43	15701.78
899.60	15419.16
899.77	15675.15
899.94	15640.34
900.11	15697.68
900.28	15636.24
900.45	15585.04
900.62	15769.36
900.79	15787.79
900.96	15609.62
901.13	15572.75
901.30	15390.49
901.47	15560.47
901.64	15558.42
901.81	15683.34
901.98	15556.37
902.15	15642.39
902.32	15357.72
902.49	15593.23
902.66	15404.82
902.83	15720.21
903.01	15601.43
903.18	15632.15
903.35	15953.68
903.52	15613.71
903.69	15689.49
903.86	15968.01
904.03	15628.05
904.20	15621.91
904.37	16090.89
904.54	15582.99
904.71	15666.96
904.88	15849.23
905.05	15681.30
905.22	15640.34
905.39	15728.40
905.56	15632.15
905.73	15515.41
905.90	15576.85
906.07	15720.21
906.24	15642.39
906.41	15593.23
906.58	15894.29
906.75	15347.48
906.92	15351.57
907.09	15466.26
907.26	15513.36
907.43	15748.88
907.60	15572.75
907.77	15777.55
907.93	15599.38
908.10	15259.42
908.27	15679.25
908.44	15312.66
908.61	15292.18
908.78	15486.74
908.95	15429.40
909.12	15484.69
909.29	15576.85
909.46	15544.08
909.63	15769.36
909.80	15732.50
909.97	15636.24
910.14	15292.18
910.31	15286.04
910.48	15617.81
910.65	15470.36
910.82	15261.46
910.99	15445.78
911.16	15351.57
911.33	15415.06
911.50	15429.40
911.66	15189.78
911.83	15388.44
912.00	15189.78
912.17	15085.34
912.34	14958.36
912.51	15095.58
912.68	15214.36
912.85	15040.28
913.02	15040.28
913.19	14946.08
913.36	15314.71
913.53	15169.30
913.70	14866.21
913.86	15283.99
914.03	14890.78
914.20	14853.92
914.37	14989.08
914.54	14923.55
914.71	14925.60
914.88	14825.25
915.05	14921.50
915.22	14827.29
915.39	14778.14
915.55	14753.57
915.72	14446.37
915.89	14614.30
916.06	14591.78
916.23	14505.76
916.40	14475.04
916.57	14436.13
916.74	14479.14
916.91	14190.38
917.07	14231.33
917.24	14251.81
917.41	14190.38
917.58	14178.09
917.75	13969.19
917.92	13850.41
918.09	14247.72
918.26	13883.18
918.42	14012.20
918.59	14022.44
918.76	13997.87
918.93	13918.00
919.10	13688.62
919.27	13893.42
919.44	14065.45
919.60	13940.52
919.77	13836.08
919.94	13645.62
920.11	13842.22
920.28	13684.53
920.45	13649.71
920.61	13352.76
920.78	13471.54
920.95	13506.35
921.12	13401.91
921.29	13305.65
921.46	13334.32
921.62	13270.84
921.79	13565.74
921.96	13223.73
922.13	13197.11
922.30	13104.95
922.47	13109.05
922.63	13223.73
922.80	13010.75
922.97	12754.75
923.14	12853.05
923.31	12902.20
923.47	12724.03
923.64	12869.44
923.81	12750.65
923.98	12814.14
924.15	12662.59
924.32	12846.91
924.48	12724.03
924.65	12678.97
924.82	12560.19
924.99	12277.57
925.15	12425.03
925.32	12552.00
925.49	12224.33
925.66	12302.15
925.83	12009.29
925.99	12109.64
926.16	12259.14
926.33	12097.35
926.50	11833.16
926.67	11845.45
926.83	11982.67
927.00	11845.45
927.17	11843.40
927.34	11698.00
927.50	11824.97
927.67	11853.64
927.84	11722.57
928.01	11525.97
928.17	11491.15
928.34	11554.64
928.51	11534.16
928.68	11392.85
928.84	11403.09
929.01	11198.29
929.18	11149.14
929.35	10975.06
929.51	11124.57
929.68	11099.99
929.85	10991.45
930.02	11069.27
930.18	11054.94
930.35	10911.58
930.52	10835.80
930.69	11052.89
930.85	10977.11
931.02	10811.23
931.19	10782.56
931.36	10714.97
931.52	10608.48
931.69	10575.71
931.86	10585.95
932.02	10491.74
932.19	10616.67
932.36	10424.16
932.53	10538.85
932.69	10303.33
932.86	10448.74
933.03	10342.24
933.19	10119.01
933.36	10010.47
933.53	10266.47
933.70	9996.14
933.86	9883.50
934.03	9979.75
934.20	9852.78
934.36	9924.46
934.53	9680.75
934.70	9523.05
934.86	9561.97
935.03	9498.48
935.20	9561.97
935.36	9387.89
935.53	9224.05
935.70	9305.97
935.86	9373.55
936.03	9023.35
936.20	9113.46
936.36	9148.28
936.53	9009.01
936.70	8865.66
936.86	8959.86
937.03	8714.11
937.20	8595.32
937.36	8685.44
937.53	8380.29
937.70	8384.38
937.86	8255.36
938.03	8198.02
938.20	8159.11
938.36	8060.80
938.53	8036.23
938.70	7827.34
938.86	7796.62
939.03	7677.83
939.20	7595.92
939.36	7387.02
939.53	7479.18
939.70	7573.39
939.86	7260.05
940.03	7053.20
940.19	7090.07
940.36	7112.60
940.53	7100.31
940.69	6891.41
940.86	6932.37
941.03	6676.38
941.19	6635.42
941.36	6739.87
941.52	6789.02
941.69	6352.80
941.86	6494.11
942.02	6385.57
942.19	6342.56
942.35	6442.91
942.52	6154.15
942.69	6107.04
942.85	6186.91
943.02	6176.67
943.18	6272.93
943.35	6260.64
943.52	6061.99
943.68	5787.56
943.85	5935.01
944.01	5912.49
944.18	5762.98
944.35	5849.00
944.51	5765.03
944.68	5625.77
944.84	5556.14
945.01	5629.87
945.17	5748.65
945.34	5664.68
945.51	5674.92
945.67	5619.63
945.84	5646.25
946.00	5574.57
946.17	5558.19
946.33	5517.23
946.50	5599.15
946.67	5470.12
946.83	5484.46
947.00	5550.00
947.16	5476.27
947.33	5527.47
947.49	5504.94
947.66	5429.17
947.82	5570.48
947.99	5484.46
948.16	5584.81
948.32	5607.34
948.49	5431.21
948.65	5449.64
948.82	5474.22
948.98	5369.77
949.15	5437.36
949.31	5562.28
949.48	5484.46
949.64	5511.08
949.81	5611.43
949.97	5384.11
950.14	5453.74
950.30	5443.50
950.47	5595.05
950.63	5691.31
950.80	5607.34
950.96	5375.92
951.13	5525.42
951.30	5500.84
951.46	5599.15
951.63	5676.97
951.79	5617.58
951.96	5615.53
952.12	5535.66
952.29	5564.33
952.45	5449.64
952.62	5568.43
952.78	5597.10
952.94	5648.30
953.11	5568.43
953.27	5457.84
953.44	5742.50
953.60	5496.75
953.77	5695.40
953.93	5636.01
954.10	5672.87
954.26	5640.11
954.43	5574.57
954.59	5599.15
954.76	5726.12
954.92	5593.00
955.09	5484.46
955.25	5449.64
955.42	5664.68
955.58	5754.79
955.75	5793.70
955.91	5605.29
956.07	5519.28
956.24	5650.35
956.40	5574.57
956.57	5670.83
956.73	5681.07
956.90	5666.73
957.06	5506.99
957.23	5429.17
957.39	5732.26
957.56	5640.11
957.72	5611.43
957.88	5629.87
958.05	5662.63
958.21	5760.94
958.38	5652.39
958.54	5781.42
958.71	5910.44
958.87	5621.67
959.03	5617.58
959.20	5808.04
959.36	5603.24
959.53	5586.86
959.69	5640.11
959.85	5697.45
960.02	5627.82
960.18	5656.49
960.35	5611.43
960.51	5799.85
960.68	5429.17
960.84	5650.35
961.00	5533.61
961.17	5631.91
961.33	5558.19
961.50	5560.24
961.66	5582.76
961.82	5638.06
961.99	5582.76
962.15	5588.91
962.31	5498.80
962.48	5486.51
962.64	5689.26
962.81	5623.72
962.97	5603.24
963.13	5644.20
963.30	5584.81
963.46	5550.00
963.62	5539.76
963.79	5474.22
963.95	5521.32
964.12	5578.67
964.28	5621.67
964.44	5365.68
964.61	5515.18
964.77	5412.78
964.93	5670.83
965.10	5502.89
965.26	5457.84
965.42	5494.70
965.59	5384.11
965.75	5513.13
965.92	5439.40
966.08	5527.47
966.24	5459.88
966.41	5408.69
966.57	5392.30
966.73	5414.83
966.90	5533.61
967.06	5429.17
967.22	5353.39
967.39	5457.84
967.55	5242.80
967.71	5416.88
967.88	5414.83
968.04	5324.72
968.20	5339.05
968.37	5355.44
968.53	5332.91
968.69	5294.00
968.85	5337.01
969.02	5275.57
969.18	5275.57
969.34	5408.69
969.51	5347.25
969.67	5353.39
969.83	5257.14
970.00	5425.07
970.16	5373.87
970.32	5212.08
970.48	5240.75
970.65	5113.78
970.81	5128.11
970.97	5195.70
971.14	5187.50
971.30	5326.77
971.46	5214.13
971.63	5156.79
971.79	5222.32
971.95	5058.48
972.11	5148.59
972.28	5054.39
972.44	5093.30
972.60	4888.50
972.76	5152.69
972.93	4945.84
973.09	5167.03
973.25	5148.59
973.42	5040.05
973.58	5115.83
973.74	4980.66
973.90	4992.95
974.07	4997.04
974.23	4908.98
974.39	4915.12
974.55	5031.86
974.72	5044.15
974.88	4818.87
975.04	5058.48
975.20	4890.55
975.37	4966.32
975.53	4878.26
975.69	4919.22
975.85	4808.63
976.01	4704.18
976.18	4890.55
976.34	4861.88
976.50	4812.73
976.66	4902.84
976.83	4775.86
976.99	4831.16
977.15	4796.34
977.31	4562.87
977.47	4792.25
977.64	4784.06
977.80	4790.20
977.96	4708.28
978.12	4814.77
978.29	4628.41
978.45	4616.12
978.61	4718.52
978.77	4714.42
978.93	4736.95
979.10	4655.03
979.26	4648.89
979.42	4663.22
979.58	4577.21
979.74	4431.80
979.91	4646.84
980.07	4491.20
980.23	4544.44
980.39	4440.00
980.55	4458.43
980.71	4435.90
980.88	4452.28
981.04	4407.23
981.20	4517.82
981.36	4493.24
981.52	4556.73
981.68	4571.07
981.85	4550.59
982.01	4564.92
982.17	4491.20
982.33	4325.31
982.49	4515.77
982.65	4409.28
982.82	4476.86
982.98	4390.84
983.14	4399.04
983.30	4341.69
983.46	4442.04
983.62	4460.48
983.79	4337.60
983.95	4317.12
984.11	4181.95
984.27	4360.13
984.43	4255.68
984.59	4218.82
984.75	4300.73
984.91	4216.77
985.08	4290.49
985.24	4116.42
985.40	4128.70
985.56	4202.43
985.72	4243.39
985.88	4204.48
986.04	4114.37
986.20	4106.18
986.37	4227.01
986.53	4081.60
986.69	4214.72
986.85	4089.79
987.01	4085.70
987.17	3993.54
987.33	4116.42
987.49	3940.29
987.65	4087.75
987.82	4087.75
987.98	4104.13
988.14	4042.69
988.30	4155.33
988.46	4059.07
988.62	4077.51
988.78	3977.16
988.94	3977.16
989.10	3954.63
989.26	3887.04
989.42	3870.66
989.59	3878.85
989.75	3825.61
989.91	3891.14
990.07	3776.45
990.23	3874.76
990.39	3792.84
990.55	3846.09
990.71	3741.64
990.87	3747.78
991.03	3784.65
991.19	3665.86
991.35	3815.37
991.51	3758.02
991.67	3835.85
991.83	3829.70
992.00	3827.65
992.16	3899.33
992.32	3807.17
992.48	3678.15
992.64	3747.78
992.80	3729.35
992.96	3733.45
993.12	3741.64
993.28	3758.02
993.44	3858.37
993.60	3745.73
993.76	3758.02
993.92	3745.73
994.08	3739.59
994.24	3706.82
994.40	3704.78
994.56	3661.77
994.72	3547.08
994.88	3639.24
995.04	3616.71
995.20	3508.17
995.36	3612.62
995.52	3534.79
995.68	3542.99
995.84	3565.51
996.00	3581.90
996.16	3542.99
996.32	3391.44
996.48	3489.74
996.64	3672.01
996.80	3469.26
996.96	3467.21
997.12	3487.69
997.28	3485.64
997.44	3456.97
997.60	3442.64
997.76	3467.21
997.92	3383.24
998.08	3416.01
998.24	3397.58
998.40	3403.72
998.56	3407.82
998.72	3411.92
998.88	3334.09
999.04	3409.87
999.20	3381.20
999.36	3291.09
999.52	3448.78
999.68	3399.63
999.84	3370.96
1000.00	3373.00
1000.16	3452.88
1000.32	3289.04
1000.48	3495.88
1000.64	3280.85
1000.80	3225.55
1000.95	3174.35
1001.11	3358.67
1001.27	3125.20
1001.43	3209.17
1001.59	3145.68
1001.75	3200.98
1001.91	3268.56
1002.07	3231.69
1002.23	3114.96
1002.39	3141.58
1002.55	3131.34
1002.71	3094.48
1002.87	3080.14
1003.03	3133.39
1003.19	3082.19
1003.34	3123.15
1003.50	3125.20
1003.66	3137.49
1003.82	3123.15
1003.98	3182.54
1004.14	3112.91
1004.30	3069.91
1004.46	3069.91
1004.62	3053.52
1004.78	2992.08
1004.94	3164.11
1005.09	2992.08
1005.25	3100.62
1005.41	2949.08
1005.57	3043.28
1005.73	2965.46
1005.89	2920.40
1006.05	3008.47
1006.21	3080.14
1006.37	2871.25
1006.52	2873.30
1006.68	2987.99
1006.84	3112.91
1007.00	2977.75
1007.16	3008.47
1007.32	2854.87
1007.48	2906.07
1007.64	2940.88
1007.79	2908.12
1007.95	2742.23
1008.11	2928.60
1008.27	2846.68
1008.43	2830.29
1008.59	2801.62
1008.75	3037.14
1008.91	2893.78
1009.06	2772.95
1009.22	2828.24
1009.38	2901.97
1009.54	2881.49
1009.70	2781.14
1009.86	2922.45
1010.01	2908.12
1010.17	2701.27
1010.33	2826.20
1010.49	2738.13
1010.65	2875.35
1010.81	2686.94
1010.96	2797.53
1011.12	2742.23
1011.28	2727.89
1011.44	2772.95
1011.60	2789.33
1011.76	2633.69
1011.91	2815.96
1012.07	2723.80
1012.23	2613.21
1012.39	2654.17
1012.55	2688.98
1012.71	2691.03
1012.86	2641.88
1013.02	2670.55
1013.18	2613.21
1013.34	2611.16
1013.50	2693.08
1013.65	2625.50
1013.81	2533.34
1013.97	2566.10
1014.13	2713.56
1014.29	2619.35
1014.44	2674.65
1014.60	2613.21
1014.76	2613.21
1014.92	2609.11
1015.07	2580.44
1015.23	2586.58
1015.39	2519.00
1015.55	2488.28
1015.71	2559.96
1015.86	2535.39
1016.02	2588.63
1016.18	2500.57
1016.34	2602.97
1016.49	2564.06
1016.65	2582.49
1016.81	2459.61
1016.97	2523.10
1017.12	2484.19
1017.28	2480.09
1017.44	2369.50
1017.60	2486.23
1017.75	2478.04
1017.91	2502.62
1018.07	2467.80
1018.23	2494.43
1018.38	2420.70
1018.54	2482.14
1018.70	2435.03
1018.86	2371.55
1019.01	2371.55
1019.17	2469.85
1019.33	2463.71
1019.49	2453.47
1019.64	2418.65
1019.80	2404.32
1019.96	2373.60
1020.12	2402.27
1020.27	2277.34
1020.43	2349.02
1020.59	2410.46
1020.74	2353.12
1020.90	2392.03
1021.06	2324.44
1021.22	2400.22
1021.37	2469.85
1021.53	2355.16
1021.69	2459.61
1021.84	2230.24
1022.00	2330.59
1022.16	2256.86
1022.31	2310.11
1022.47	2299.87
1022.63	2398.17
1022.79	2220.00
1022.94	2306.01
1023.10	2420.70
1023.26	2295.77
1023.41	2195.42
1023.57	2301.92
1023.73	2293.72
1023.88	2236.38
1024.04	2138.08
1024.20	2312.16
1024.35	2283.49
1024.51	2215.90
1024.67	2234.33
1024.82	2322.40
1024.98	2209.76
1025.14	2279.39
1025.29	2199.52
1025.45	2195.42
1025.61	2150.37
1025.76	2183.13
1025.92	2191.33
1026.08	2158.56
1026.23	2256.86
1026.39	2371.55
1026.55	2187.23
1026.70	2142.18
1026.86	2136.03
1027.02	2230.24
1027.17	2240.48
1027.33	2271.20
1027.48	2101.22
1027.64	2093.02
1027.80	2187.23
1027.95	2197.47
1028.11	2025.44
1028.27	2140.13
1028.42	2084.83
1028.58	2213.85
1028.73	2101.22
1028.89	2080.74
1029.05	2254.81
1029.20	2170.85
>>>>>End Processed Spectral Data<<<<<
