SpectraSuite Data File
++++++++++++++++++++++++++++++++++++
Date: Fri Jun 02 14:52:25 CEST 2017
User: INFO_000
Dark Spectrum Present: No
Reference Spectrum Present: No
Number of Sampled Component Spectra: 1
Spectrometers: USB4H00879
Integration Time (usec): 80000 (USB4H00879)
Spectra Averaged: 1 (USB4H00879)
Boxcar Smoothing: 0 (USB4H00879)
Correct for Electrical Dark: No (USB4H00879)
Strobe/Lamp Enabled: No (USB4H00879)
Correct for Detector Non-linearity: No (USB4H00879)
Correct for Stray Light: No (USB4H00879)
Number of Pixels in Processed Spectrum: 3648
>>>>>Begin Processed Spectral Data<<<<<
345.13	1259.50
345.34	1259.50
345.56	1259.50
345.78	1230.83
345.99	1372.14
346.21	1716.20
346.42	1710.05
346.64	1626.09
346.86	1845.22
347.07	1599.46
347.29	1703.91
347.50	1601.51
347.72	1626.09
347.94	1714.15
348.15	1517.54
348.37	1556.46
348.59	1726.44
348.80	1626.09
349.02	1816.55
349.23	1812.45
349.45	1845.22
349.67	1953.76
349.88	1783.78
350.10	1998.82
350.31	1877.99
350.53	1781.73
350.75	2002.91
350.96	1781.73
351.18	1828.84
351.39	1845.22
351.61	1779.68
351.82	1929.19
352.04	2011.11
352.26	1771.49
352.47	1812.45
352.69	1957.86
352.90	1824.74
353.12	1882.08
353.34	1884.13
353.55	1927.14
353.77	1798.12
353.98	1888.23
354.20	1828.84
354.41	1918.95
354.63	2004.96
354.85	2021.35
355.06	1896.42
355.28	1837.03
355.49	1920.99
355.71	1906.66
355.92	1927.14
356.14	1886.18
356.35	1785.83
356.57	1755.11
356.79	2004.96
357.00	1880.04
357.22	1951.71
357.43	1937.38
357.65	2025.44
357.86	1863.65
358.08	2033.63
358.29	1955.81
358.51	2004.96
358.72	1961.95
358.94	1898.47
359.16	1931.23
359.37	2000.87
359.59	1929.19
359.80	1955.81
360.02	1986.53
360.23	2027.49
360.45	2027.49
360.66	1851.36
360.88	1839.08
361.09	1955.81
361.31	1970.15
361.52	1929.19
361.74	2025.44
361.95	2041.82
362.17	1964.00
362.38	2070.50
362.60	2033.63
362.81	2050.02
363.03	1894.37
363.24	2027.49
363.46	2082.78
363.67	2011.11
363.89	2068.45
364.10	2095.07
364.32	1943.52
364.53	2002.91
364.75	1976.29
364.96	2060.26
365.18	2000.87
365.39	2080.74
365.61	1873.89
365.82	2113.50
366.04	2082.78
366.25	2007.01
366.47	2021.35
366.68	2052.06
366.90	1957.86
367.11	2035.68
367.33	2056.16
367.54	2099.17
367.76	2009.06
367.97	2080.74
368.19	1966.05
368.40	2082.78
368.62	2043.87
368.83	1986.53
369.05	1986.53
369.26	2015.20
369.48	2017.25
369.69	2000.87
369.91	2060.26
370.12	2105.31
370.33	2099.17
370.55	1992.67
370.76	2052.06
370.98	2101.22
371.19	2125.79
371.41	2078.69
371.62	2070.50
371.84	2009.06
372.05	2220.00
372.27	2093.02
372.48	2136.03
372.69	2179.04
372.91	2119.65
373.12	2191.33
373.34	2101.22
373.55	2172.89
373.77	2195.42
373.98	2076.64
374.20	2183.13
374.41	2310.11
374.62	2195.42
374.84	2125.79
375.05	2156.51
375.27	2117.60
375.48	2140.13
375.70	2240.48
375.91	2195.42
376.12	2336.73
376.34	2207.71
376.55	2174.94
376.77	2189.28
376.98	2090.98
377.19	2148.32
377.41	2170.85
377.62	2248.67
377.84	2320.35
378.05	2392.03
378.27	2154.46
378.48	2336.73
378.69	2359.26
378.91	2244.57
379.12	2234.33
379.34	2275.29
379.55	2267.10
379.76	2295.77
379.98	2283.49
380.19	2336.73
380.41	2150.37
380.62	2273.25
380.83	2258.91
381.05	2220.00
381.26	2394.08
381.47	2211.81
381.69	2283.49
381.90	2383.84
382.12	2394.08
382.33	2332.64
382.54	2232.29
382.76	2340.83
382.97	2306.01
383.19	2279.39
383.40	2435.03
383.61	2324.44
383.83	2230.24
384.04	2408.41
384.25	2416.60
384.47	2494.43
384.68	2432.99
384.89	2324.44
385.11	2283.49
385.32	2342.88
385.54	2303.96
385.75	2461.66
385.96	2398.17
386.18	2506.71
386.39	2471.90
386.60	2398.17
386.82	2469.85
387.03	2445.27
387.24	2506.71
387.46	2445.27
387.67	2527.19
387.88	2592.73
388.10	2543.58
388.31	2516.95
388.52	2590.68
388.74	2549.72
388.95	2392.03
389.16	2568.15
389.38	2615.26
389.59	2598.87
389.80	2648.02
390.02	2502.62
390.23	2701.27
390.44	2627.54
390.66	2609.11
390.87	2537.43
391.08	2598.87
391.30	2643.93
391.51	2613.21
391.72	2703.32
391.94	2697.17
392.15	2676.70
392.36	2672.60
392.58	2693.08
392.79	2729.94
393.00	2637.78
393.22	2762.71
393.43	2686.94
393.64	2863.06
393.85	2871.25
394.07	2674.65
394.28	2641.88
394.49	2752.47
394.71	2873.30
394.92	2854.87
395.13	2721.75
395.35	2789.33
395.56	2664.41
395.77	2826.20
395.98	2887.64
396.20	2791.38
396.41	2875.35
396.62	2891.73
396.84	2928.60
397.05	2916.31
397.26	2930.64
397.47	2887.64
397.69	2861.01
397.90	3035.09
398.11	2951.12
398.32	2947.03
398.54	2918.36
398.75	2820.05
398.96	2885.59
399.18	3090.38
399.39	2887.64
399.60	2987.99
399.81	3057.62
400.03	3004.37
400.24	3350.48
400.45	3006.42
400.66	3071.95
400.88	3014.61
401.09	3192.78
401.30	3074.00
401.51	3207.12
401.73	3114.96
401.94	3164.11
402.15	3241.93
402.36	3139.54
402.58	3219.41
402.79	3217.36
403.00	3174.35
403.21	3217.36
403.43	3307.47
403.64	3315.66
403.85	3094.48
404.06	3375.05
404.27	3149.78
404.49	3241.93
404.70	3211.22
404.91	3332.05
405.12	3350.48
405.34	3338.19
405.55	3463.12
405.76	3207.12
405.97	3260.37
406.19	3426.25
406.40	3309.52
406.61	3334.09
406.82	3338.19
407.03	3274.70
407.25	3342.28
407.46	3424.20
407.67	3411.92
407.88	3573.71
408.09	3368.91
408.31	3473.36
408.52	3416.01
408.73	3352.52
408.94	3295.18
409.15	3469.26
409.37	3643.34
409.58	3551.18
409.79	3585.99
410.00	3631.05
410.21	3452.88
410.43	3436.49
410.64	3542.99
410.85	3516.36
411.06	3528.65
411.27	3651.53
411.48	3684.30
411.70	3606.47
411.91	3536.84
412.12	3672.01
412.33	3592.14
412.54	3631.05
412.76	3704.78
412.97	3712.97
413.18	3680.20
413.39	3764.17
413.60	3702.73
413.81	3700.68
414.03	3751.88
414.24	3682.25
414.45	3952.58
414.66	3594.19
414.87	3778.50
415.08	3874.76
415.30	3702.73
415.51	3905.48
415.72	3735.50
415.93	3917.76
416.14	3942.34
416.35	3936.20
416.56	3846.09
416.78	3928.00
416.99	3866.56
417.20	3954.63
417.41	3968.96
417.62	3915.72
417.83	4061.12
418.04	4030.40
418.26	3925.96
418.47	3921.86
418.68	4079.55
418.89	4018.11
419.10	4198.34
419.31	4097.99
419.52	4204.48
419.73	4161.47
419.95	4124.61
420.16	4063.17
420.37	4190.14
420.58	4145.09
420.79	4063.17
421.00	4169.66
421.21	4243.39
421.42	4206.53
421.63	4222.91
421.85	4239.30
422.06	4278.21
422.27	4241.34
422.48	4411.32
422.69	4276.16
422.90	4306.88
423.11	4401.08
423.32	4374.46
423.53	4591.55
423.75	4372.41
423.96	4638.65
424.17	4577.21
424.38	4663.22
424.59	4620.22
424.80	4720.57
425.01	4706.23
425.22	4466.62
425.43	4675.51
425.64	4784.06
425.85	4730.81
426.06	4716.47
426.28	4616.12
426.49	4493.24
426.70	4587.45
426.91	4702.14
427.12	4769.72
427.33	4779.96
427.54	4812.73
427.75	4837.30
427.96	4814.77
428.17	4825.01
428.38	4939.70
428.59	4974.52
428.80	4812.73
429.01	4900.79
429.23	4933.56
429.44	5236.66
429.65	5164.98
429.86	5115.83
430.07	5029.81
430.28	4992.95
430.49	5091.25
430.70	5130.16
430.91	5234.61
431.12	5154.74
431.33	5187.50
431.54	5269.42
431.75	5142.45
431.96	5253.04
432.17	5246.90
432.38	5322.67
432.59	5457.84
432.80	5394.35
433.01	5367.73
433.22	5414.83
433.43	5496.75
433.64	5365.68
433.85	5304.24
434.06	5476.27
434.27	5431.21
434.49	5564.33
434.70	5640.11
434.91	5476.27
435.12	5681.07
435.33	5509.04
435.54	5550.00
435.75	5400.49
435.96	5578.67
436.17	5517.23
436.38	5758.89
436.59	5758.89
436.80	5693.35
437.01	5973.92
437.22	5867.43
437.43	5787.56
437.64	5554.09
437.85	5765.03
438.06	5832.62
438.27	5771.18
438.48	5742.50
438.69	5842.85
438.90	5711.78
439.11	5752.74
439.32	5902.25
439.53	5693.35
439.74	6055.84
439.95	5838.76
440.16	5894.05
440.37	5896.10
440.57	5892.01
440.78	6037.41
440.99	6027.17
441.20	6037.41
441.41	5990.31
441.62	6131.62
441.83	6057.89
442.04	6104.99
442.25	5947.30
442.46	6133.67
442.67	6199.20
442.88	6471.58
443.09	6021.03
443.30	6287.26
443.51	6209.44
443.72	6514.59
443.93	6191.01
444.14	6471.58
444.35	6174.63
444.56	6530.97
444.77	6352.80
444.98	6453.15
445.19	6434.72
445.40	6524.83
445.61	6371.23
445.81	6717.34
446.02	6543.26
446.23	6502.30
446.44	6373.28
446.65	6442.91
446.86	6631.32
447.07	6606.75
447.28	6848.41
447.49	6862.74
447.70	6623.13
447.91	6641.56
448.12	6754.20
448.33	6862.74
448.54	6827.93
448.74	6688.67
448.95	6940.57
449.16	6754.20
449.37	7120.79
449.58	6659.99
449.79	6944.66
450.00	6895.51
450.21	6901.65
450.42	7171.99
450.63	7051.16
450.84	6971.29
451.05	7069.59
451.25	6946.71
451.46	7051.16
451.67	7243.67
451.88	7241.62
452.09	7253.91
452.30	7122.84
452.51	7102.36
452.72	7288.72
452.93	7589.77
453.13	7141.27
453.34	7137.17
453.55	7442.32
453.76	7495.57
453.97	7649.16
454.18	7636.88
454.39	7794.57
454.60	7661.45
454.81	7630.73
455.01	7661.45
455.22	7380.88
455.43	7718.79
455.64	7843.72
455.85	7911.30
456.06	8138.63
456.27	7853.96
456.48	7810.95
456.68	7991.17
456.89	7899.02
457.10	8128.39
457.31	8167.30
457.52	8089.48
457.73	8310.66
457.94	8333.18
458.14	7974.79
458.35	8492.93
458.56	8384.38
458.77	8333.18
458.98	8562.56
459.19	8634.24
459.39	8628.09
459.60	8804.22
459.81	8519.55
460.02	8841.08
460.23	8820.60
460.44	8828.79
460.65	9027.45
460.85	9088.89
461.06	9129.84
461.27	8669.05
461.48	9019.25
461.69	9389.94
461.89	9015.16
462.10	9103.22
462.31	8873.85
462.52	9080.69
462.73	9281.39
462.94	9398.13
463.14	9383.79
463.35	9242.48
463.56	9789.29
463.77	9703.28
463.98	9494.38
464.18	9693.04
464.39	9889.64
464.60	10028.90
464.81	9809.77
465.02	9592.69
465.23	10092.39
465.43	9817.96
465.64	10082.15
465.85	10055.53
466.06	10037.09
466.27	10280.80
466.47	10454.88
466.68	10481.50
466.89	10274.66
467.10	10393.44
467.30	10409.83
467.51	10481.50
467.72	10794.84
467.93	10594.14
468.14	10671.97
468.34	11003.74
468.55	10800.99
468.76	10889.05
468.97	10782.56
469.17	11167.57
469.38	11159.38
469.59	11376.47
469.80	11167.57
470.01	11167.57
470.21	11196.25
470.42	11597.65
470.63	11462.48
470.84	11571.02
471.04	11827.02
471.25	11917.13
471.46	11669.33
471.67	11937.61
471.87	12003.14
472.08	11968.33
472.29	12132.17
472.50	11784.01
472.70	12279.62
472.91	12001.10
473.12	12179.27
473.33	12588.86
473.53	12746.56
473.74	12357.44
473.95	12820.28
474.16	12742.46
474.36	12810.04
474.57	12982.07
474.78	13111.10
474.99	13074.23
475.19	13098.81
475.40	13207.35
475.61	13428.53
475.81	13635.38
476.02	13532.98
476.23	13428.53
476.44	13651.76
476.64	14018.35
476.85	14042.92
477.06	14034.73
477.27	14194.47
477.47	14364.45
477.68	14274.34
477.89	14681.89
478.09	14364.45
478.30	14556.96
478.51	14333.73
478.71	14683.94
478.92	14745.38
479.13	14974.75
479.34	15177.50
479.54	14907.16
479.75	14982.94
479.96	15087.39
480.16	15275.80
480.37	15269.66
480.58	15458.07
480.78	15628.05
480.99	15576.85
481.20	15699.73
481.41	15920.91
481.61	15976.20
481.82	16084.75
482.03	16045.84
482.23	16078.60
482.44	16400.13
482.65	16535.30
482.85	16367.37
483.06	16584.45
483.27	16643.84
483.47	16692.99
483.68	16762.62
483.89	17008.38
484.09	16967.42
484.30	16899.84
484.51	17534.71
484.71	17282.81
484.92	17417.97
485.13	17415.93
485.33	17247.99
485.54	17483.51
485.75	17755.89
485.95	17813.23
486.16	17823.47
486.37	17837.81
486.57	18169.58
486.78	18091.76
486.98	17956.59
487.19	18132.72
487.40	18169.58
487.60	18362.09
487.81	18472.68
488.02	18697.95
488.22	18501.35
488.43	18702.05
488.64	18804.45
488.84	19138.27
489.05	19144.41
489.25	18949.85
489.46	19205.85
489.67	19146.46
489.87	19300.06
490.08	19535.57
490.29	19304.15
490.49	19615.44
490.70	19959.50
490.90	20057.81
491.11	19568.34
491.32	20127.44
491.52	20106.96
491.73	19869.39
491.94	20086.48
492.14	19977.94
492.35	20434.63
492.55	20272.84
492.76	20823.75
492.97	20631.24
493.17	20698.82
493.38	20823.75
493.58	20772.55
493.79	20786.88
494.00	20958.91
494.20	20852.42
494.41	21016.26
494.61	21372.60
494.82	21137.09
495.02	21196.48
495.23	21479.10
495.44	21456.57
495.64	21716.66
495.85	21786.29
496.05	21761.72
496.26	21538.49
496.47	21864.11
496.67	21853.87
496.88	22220.46
497.08	22005.42
497.29	22294.19
497.49	22257.32
497.70	22275.76
497.91	22464.17
498.11	22537.90
498.32	22892.19
498.52	22724.26
498.73	22912.67
498.93	22793.89
499.14	22851.24
499.34	23008.93
499.55	23111.33
499.76	23043.74
499.96	23312.03
500.17	23248.54
500.37	23340.70
500.58	23072.42
500.78	23572.12
500.99	23422.62
501.19	23752.34
501.40	23271.07
501.60	23572.12
501.81	23856.79
502.02	23893.65
502.22	23752.34
502.43	24157.84
502.63	24016.53
502.84	24520.33
503.04	24149.65
503.25	24034.96
503.45	24206.99
503.66	24594.06
503.86	24415.88
504.07	24727.17
504.27	24393.36
504.48	24886.92
504.68	24790.66
504.89	24950.40
505.09	25020.03
505.30	24784.52
505.50	25149.06
505.71	24757.89
505.91	25116.29
506.12	25243.26
506.32	25517.69
506.53	25259.65
506.73	25540.22
506.94	25699.96
507.14	25099.90
507.35	25474.68
507.55	25513.59
507.76	25769.59
507.96	25689.72
508.17	25777.78
508.37	25880.18
508.58	25912.95
508.78	25882.23
508.99	26396.27
509.19	26177.14
509.40	26150.51
509.60	26412.65
509.81	26410.60
510.01	26216.05
510.22	26238.58
510.42	26504.81
510.63	26644.07
510.83	26824.29
511.04	26490.48
511.24	26842.73
511.44	26496.62
511.65	27010.66
511.85	26965.60
512.06	26992.23
512.26	27014.76
512.47	27389.53
512.67	27252.32
512.88	27057.76
513.08	27033.19
513.29	27291.23
513.49	27469.40
513.69	27436.64
513.90	27713.11
514.10	27866.71
514.31	27647.58
514.51	27829.85
514.72	27715.16
514.92	27737.69
515.13	28190.29
515.33	27915.86
515.53	28280.40
515.74	28186.19
515.94	28218.96
516.15	28522.06
516.35	28175.95
516.56	28653.13
516.76	28354.13
516.96	28345.94
517.17	28515.92
517.37	28595.79
517.58	28552.78
517.78	28851.78
517.99	29085.25
518.19	29015.62
518.39	29195.84
518.60	29122.12
518.80	29331.01
519.01	29382.21
519.21	29304.38
519.41	29550.14
519.62	29470.27
519.82	29611.58
520.03	29750.84
520.23	29871.67
520.43	29974.07
520.64	30164.53
520.84	30025.27
521.05	30088.76
521.25	30527.02
521.45	30191.16
521.66	30414.38
521.86	30361.14
522.07	30404.14
522.27	30834.22
522.47	30418.48
522.68	31276.58
522.88	30774.83
523.08	31235.62
523.29	30678.57
523.49	31200.80
523.70	31395.36
523.90	31309.35
524.10	31219.24
524.31	31735.32
524.51	31372.83
524.71	31905.31
524.92	31870.49
525.12	31464.99
525.33	31972.89
525.53	31995.42
525.73	31979.03
525.94	32134.68
526.14	32013.85
526.34	32445.97
526.55	32386.58
526.75	32298.52
526.95	32738.83
527.16	32554.51
527.36	32562.70
527.56	33029.64
527.77	33060.36
527.97	33097.22
528.17	33170.95
528.38	33451.52
528.58	33398.27
528.78	33592.83
528.99	33525.25
529.19	33652.22
529.39	33469.95
529.60	33660.41
529.80	33752.57
530.00	33945.08
530.21	33916.41
530.41	34393.59
530.61	34006.52
530.82	34352.63
531.02	34272.76
531.22	34278.90
531.43	34686.45
531.63	34719.21
531.83	34964.97
532.04	35356.13
532.24	34942.44
532.44	35491.30
532.64	35468.77
532.85	35687.90
533.05	35235.30
533.25	35550.69
533.46	35548.64
533.66	35626.46
533.86	35909.08
534.07	36222.42
534.27	35945.95
534.47	36619.73
534.67	36380.12
534.88	36120.02
535.08	36416.98
535.28	36765.14
535.49	36908.49
535.69	37039.56
535.89	36945.36
536.09	37148.11
536.30	37275.08
536.50	37320.13
536.70	37191.11
536.91	37348.81
537.11	37586.37
537.31	37316.04
537.51	37436.87
537.72	37678.53
537.92	37705.15
538.12	38397.37
538.32	37735.87
538.53	38182.33
538.73	37774.78
538.93	38260.15
539.13	38045.12
539.34	38200.76
539.54	38176.19
539.74	38786.48
539.94	38127.03
540.15	38436.28
540.35	38641.07
540.55	38862.26
540.75	38852.02
540.96	38890.93
541.16	38884.78
541.36	39265.70
541.56	39396.77
541.77	39509.41
541.97	39261.61
542.17	39847.33
542.37	39480.74
542.58	39869.86
542.78	39269.80
542.98	39538.08
543.18	40058.27
543.38	40093.08
543.59	40025.50
543.79	39724.45
543.99	40177.05
544.19	39931.29
544.40	40021.41
544.60	40170.91
544.80	40056.22
545.00	40332.70
545.20	40385.94
545.41	40213.91
545.61	40392.09
545.81	40639.89
546.01	40762.77
546.21	40396.18
546.42	40867.22
546.62	40904.08
546.82	40299.93
547.02	40973.71
547.22	40621.46
547.43	40883.60
547.63	40732.05
547.83	41332.11
548.03	40600.98
548.23	40906.13
548.44	41147.79
548.64	41262.47
548.84	40930.70
549.04	41473.42
549.24	41325.96
549.45	41788.80
549.65	41620.87
549.85	41483.66
550.05	41858.43
550.25	41604.49
550.45	41735.56
550.66	41710.98
550.86	41547.14
551.06	41799.04
551.26	41891.20
551.46	41764.23
551.66	41805.19
551.87	42112.38
552.07	41753.99
552.27	42108.29
552.47	41928.06
552.67	42003.84
552.87	42284.41
553.07	41766.27
553.28	42292.60
553.48	42478.97
553.68	42155.39
553.88	42419.58
554.08	42155.39
554.28	42165.63
554.48	42384.76
554.69	42345.85
554.89	42509.69
555.09	42593.65
555.29	42286.46
555.49	42691.96
555.69	42583.41
555.89	42630.52
556.10	42882.42
556.30	42255.74
556.50	42732.92
556.70	42186.11
556.90	42798.45
557.10	42724.72
557.30	42534.26
557.50	43113.84
557.70	43124.08
557.91	43300.20
558.11	42667.38
558.31	43076.97
558.51	42491.26
558.71	42945.90
558.91	42876.27
559.11	43046.26
559.31	43404.65
559.51	43019.63
559.72	42978.67
559.92	43439.47
560.12	43001.20
560.32	43382.12
560.52	43087.21
560.72	43287.92
560.92	43527.53
561.12	43341.16
561.32	43654.50
561.52	43113.84
561.72	43595.11
561.93	43425.13
562.13	43294.06
562.33	42960.24
562.53	44311.90
562.73	43363.69
562.93	43439.47
563.13	43552.10
563.33	43527.53
563.53	43840.87
563.73	43009.39
563.93	43427.18
564.13	43973.98
564.33	43801.96
564.53	43652.45
564.74	43816.29
564.94	43588.97
565.14	43791.72
565.34	43668.84
565.54	43730.28
565.74	43982.18
565.94	44301.66
566.14	43711.84
566.34	44117.34
566.54	44563.80
566.74	44051.81
566.94	44119.39
567.14	44268.89
567.34	43883.87
567.54	44473.69
567.74	44137.82
567.94	43703.65
568.14	44389.72
568.34	44545.37
568.54	44383.58
568.74	44651.86
568.94	44399.96
569.14	44543.32
569.34	44512.60
569.54	44463.45
569.75	44408.15
569.95	44445.02
570.15	44717.40
570.35	44664.15
570.55	44488.03
570.75	44553.56
570.95	44778.84
571.15	44797.27
571.35	44911.95
571.55	44961.11
571.75	44541.27
571.95	44881.24
572.15	44455.26
572.35	44762.45
572.55	44969.30
572.75	45354.32
572.95	44834.13
573.15	45141.33
573.35	44916.05
573.55	44963.15
573.75	45153.62
573.95	45311.31
574.15	45329.74
574.35	45489.48
574.55	45053.26
574.75	45247.82
574.95	45473.10
575.15	45286.73
575.34	45450.57
575.54	46034.24
575.74	45808.96
575.94	45624.65
576.14	45401.42
576.34	46050.63
576.54	46269.76
576.74	46138.69
576.94	45702.47
577.14	46286.14
577.34	46624.06
577.54	45708.61
577.74	45956.42
577.94	46349.63
578.14	46024.00
578.34	46476.60
578.54	46001.47
578.74	46583.10
578.94	46495.03
579.14	46308.67
579.34	46259.52
579.54	46751.03
579.74	46794.04
579.94	46470.46
580.13	46820.66
580.33	47002.93
580.53	47228.21
580.73	47004.98
580.93	46835.00
581.13	47340.85
581.33	47177.01
581.53	47156.53
581.73	47101.23
581.93	47181.10
582.13	47793.45
582.33	47701.29
582.53	47373.61
582.73	47316.27
582.92	47580.46
583.12	47506.73
583.32	47504.68
583.52	47750.44
583.72	47707.43
583.92	47789.35
584.12	48117.03
584.32	48553.24
584.52	47949.09
584.72	48276.77
584.92	48123.17
585.11	48547.10
585.31	48131.36
585.51	48063.78
585.71	48301.34
585.91	48350.49
586.11	48452.89
586.31	48487.71
586.51	48538.91
586.71	48573.72
586.91	48981.27
587.10	48948.50
587.30	48694.55
587.50	48899.35
587.70	49319.18
587.90	49179.92
588.10	48753.94
588.30	48985.36
588.50	49276.18
588.69	49448.21
588.89	49300.75
589.09	49421.58
589.29	49399.05
589.49	49870.09
589.69	49323.28
589.89	50259.20
590.08	49855.75
590.28	49706.25
590.48	49773.83
590.68	49448.21
590.88	49704.20
591.08	49769.74
591.28	50185.47
591.47	50162.95
591.67	50068.74
591.87	50138.37
592.07	50316.54
592.27	49896.71
592.47	50443.52
592.67	50418.94
592.86	50226.43
593.06	50584.83
593.26	50666.75
593.46	50730.23
593.66	50746.62
593.86	51096.82
594.05	50863.35
594.25	51127.54
594.45	50767.10
594.65	51035.38
594.85	50500.86
595.05	51684.59
595.24	51330.29
595.44	51062.00
595.64	51225.84
595.84	51426.54
596.04	51487.98
596.23	51500.27
596.43	51848.42
596.63	51352.82
596.83	51553.52
597.03	52036.84
597.22	52253.92
597.42	51997.93
597.62	51733.74
597.82	52020.45
598.02	51631.34
598.21	52387.04
598.41	51797.23
598.61	52159.72
598.81	52614.37
599.01	52155.62
599.20	52597.98
599.40	52655.32
599.60	52745.44
599.80	53066.97
600.00	52905.18
600.19	53187.80
600.39	52946.14
600.59	53069.01
600.79	52882.65
600.98	52950.23
601.18	53097.69
601.38	53243.09
601.58	53482.70
601.78	53339.35
601.97	53103.83
602.17	53433.55
602.37	53931.21
602.57	53523.66
602.76	54029.51
602.96	53581.01
603.16	53929.16
603.36	53957.83
603.55	54136.01
603.75	54187.21
603.95	54236.36
604.15	54602.94
604.34	54062.28
604.54	54430.91
604.74	54418.63
604.94	54441.15
605.13	54301.89
605.33	54400.19
605.53	54465.73
605.73	55016.63
605.92	55104.70
606.12	54990.01
606.32	55106.74
606.52	54574.27
606.71	55067.83
606.91	55170.23
607.11	54852.80
607.30	55168.18
607.50	55112.89
607.70	55616.69
607.90	55141.56
608.09	55143.61
608.29	55555.25
608.49	55712.94
608.68	55299.25
608.88	55530.67
609.08	55968.94
609.28	55614.64
609.47	55442.61
609.67	56134.82
609.87	55985.32
610.06	55946.41
610.26	55407.79
610.46	55958.70
610.66	55585.97
610.85	55663.79
611.05	55809.20
611.25	56243.37
611.44	55917.74
611.64	56343.72
611.84	55870.64
612.03	55970.99
612.23	55981.23
612.43	56728.73
612.62	56167.59
612.82	56497.31
613.02	56274.09
613.21	56112.30
613.41	56054.95
613.61	56577.18
613.80	56087.72
614.00	56501.41
614.20	56597.66
614.39	56620.19
614.59	56734.88
614.79	56525.99
614.98	56587.42
615.18	56698.01
615.38	56519.84
615.57	56695.97
615.77	57189.53
615.97	56628.38
616.16	56288.42
616.36	56663.20
616.56	56837.28
616.75	56581.28
616.95	56767.65
617.15	56716.45
617.34	56319.14
617.54	56753.31
617.74	56833.18
617.93	56720.54
618.13	56452.26
618.32	57025.69
618.52	56612.00
618.72	56890.52
618.91	56726.69
619.11	56374.44
619.31	56781.98
619.50	56720.54
619.70	56513.70
619.90	56917.15
620.09	56827.04
620.29	56943.77
620.48	56554.66
620.68	56792.22
620.88	56380.58
621.07	56759.45
621.27	56632.48
621.46	56249.51
621.66	56890.52
621.86	56603.81
622.05	56665.25
622.25	57087.13
622.44	57031.83
622.64	56818.84
622.84	57259.16
623.03	56861.85
623.23	56859.80
623.42	56911.00
623.62	57062.55
623.82	57218.20
624.01	56689.82
624.21	56896.67
624.40	56728.73
624.60	57054.36
624.80	56259.75
624.99	56685.73
625.19	56255.65
625.38	56964.25
625.58	56638.62
625.77	56470.69
625.97	57080.98
626.17	56431.78
626.36	56833.18
626.56	57146.52
626.75	56661.15
626.95	56935.58
627.14	56693.92
627.34	57437.33
627.54	56587.42
627.73	56843.42
627.93	57154.71
628.12	56401.06
628.32	56743.07
628.51	56808.61
628.71	56425.64
628.90	56491.17
629.10	56585.38
629.30	56802.46
629.49	56831.13
629.69	56695.97
629.88	56562.85
630.08	57488.53
630.27	57193.62
630.47	56646.82
630.66	56521.89
630.86	56439.97
631.05	56618.14
631.25	57253.01
631.44	56876.19
631.64	56296.61
631.84	56689.82
632.03	56833.18
632.23	56581.28
632.42	56624.29
632.62	57128.09
632.81	56603.81
633.01	56773.79
633.20	56947.87
633.40	56673.44
633.59	56849.56
633.79	56480.93
633.98	56816.80
634.18	57275.54
634.37	56753.31
634.57	56771.74
634.76	57470.10
634.96	56751.26
635.15	56888.48
635.35	56480.93
635.54	56931.48
635.74	57144.47
635.93	56536.23
636.13	57136.28
636.32	56861.85
636.52	56120.49
636.71	56745.12
636.91	57103.51
637.10	57115.80
637.30	56814.75
637.49	56409.25
637.69	56595.62
637.88	57076.89
638.08	56392.87
638.27	56732.83
638.46	56409.25
638.66	55901.36
638.85	56407.20
639.05	56820.89
639.24	56605.86
639.44	56446.11
639.63	56603.81
639.83	56704.16
640.02	56597.66
640.22	56751.26
640.41	56997.02
640.61	56077.48
640.80	56499.36
640.99	56474.79
641.19	57328.79
641.38	56806.56
641.58	56734.88
641.77	56581.28
641.97	56812.70
642.16	56777.89
642.36	57054.36
642.55	57324.69
642.74	56382.63
642.94	57064.60
643.13	56898.72
643.33	57154.71
643.52	57097.37
643.72	57187.48
643.91	56683.68
644.10	56880.28
644.30	56994.97
644.49	56597.66
644.69	57015.45
644.88	57037.98
645.08	56804.51
645.27	56855.71
645.46	56644.77
645.66	57103.51
645.85	56511.65
646.05	56976.54
646.24	56734.88
646.43	56759.45
646.63	57046.17
646.82	57169.05
647.02	56738.97
647.21	57310.36
647.40	57005.21
647.60	56857.76
647.79	56964.25
647.99	57269.40
648.18	56382.63
648.37	57392.28
648.57	56931.48
648.76	56974.49
648.96	57146.52
649.15	56626.34
649.34	56962.20
649.54	56861.85
649.73	56724.64
649.92	57119.90
650.12	56878.24
650.31	57130.14
650.51	56822.94
650.70	57531.54
650.89	56833.18
651.09	57644.18
651.28	56726.69
651.47	57244.82
651.67	57263.25
651.86	57119.90
652.06	56444.07
652.25	56605.86
652.44	56865.95
652.64	56603.81
652.83	56861.85
653.02	56652.96
653.22	56978.59
653.41	56597.66
653.60	56302.76
653.80	56741.02
653.99	57072.79
654.18	57044.12
654.38	56777.89
654.57	56902.81
654.76	56855.71
654.96	56648.86
655.15	56425.64
655.34	56532.13
655.54	56409.25
655.73	56943.77
655.92	56415.40
656.12	57037.98
656.31	57095.32
656.50	56708.25
656.70	56769.69
656.89	56902.81
657.08	56419.49
657.28	56902.81
657.47	57029.79
657.66	56771.74
657.86	56468.64
658.05	56741.02
658.24	56841.37
658.43	56112.30
658.63	56804.51
658.82	56884.38
659.01	56745.12
659.21	56831.13
659.40	56857.76
659.59	56415.40
659.79	56753.31
659.98	56683.68
660.17	57210.01
660.36	57140.38
660.56	56753.31
660.75	56972.44
660.94	56552.61
661.14	56255.65
661.33	56362.15
661.52	56521.89
661.71	57078.94
661.91	56376.48
662.10	56620.19
662.29	56962.20
662.49	56480.93
662.68	56972.44
662.87	56988.83
663.06	56945.82
663.26	56552.61
663.45	56870.04
663.64	56546.47
663.83	56982.68
664.03	56964.25
664.22	56632.48
664.41	56634.53
664.60	56179.88
664.80	56661.15
664.99	56116.39
665.18	56579.23
665.37	56786.08
665.57	56575.14
665.76	56620.19
665.95	56407.20
666.14	56280.23
666.34	56550.56
666.53	56165.54
666.72	56169.64
666.91	56327.33
667.11	56327.33
667.30	56226.98
667.49	56272.04
667.68	56216.74
667.87	56265.89
668.07	56362.15
668.26	56317.09
668.45	56337.57
668.64	56220.84
668.84	56933.53
669.03	56614.05
669.22	56167.59
669.41	56792.22
669.60	56595.62
669.80	56116.39
669.99	56415.40
670.18	55717.04
670.37	56009.90
670.57	56771.74
670.76	56321.19
670.95	56726.69
671.14	56370.34
671.33	56106.15
671.53	56788.13
671.72	56706.21
671.91	56399.01
672.10	56165.54
672.29	56173.73
672.48	56401.06
672.68	56614.05
672.87	56255.65
673.06	56300.71
673.25	56269.99
673.44	56108.20
673.64	55395.51
673.83	55938.22
674.02	55858.35
674.21	56036.52
674.40	56310.95
674.59	55803.05
674.79	56054.95
674.98	55835.82
675.17	55753.90
675.36	55932.07
675.55	56108.20
675.74	55764.14
675.94	55618.74
676.13	55901.36
676.32	56140.97
676.51	56751.26
676.70	56120.49
676.89	56259.75
677.08	56419.49
677.28	55899.31
677.47	56415.40
677.66	56032.42
677.85	55667.89
678.04	56077.48
678.23	56061.10
678.42	56071.34
678.62	55919.79
678.81	56499.36
679.00	55710.89
679.19	56038.57
679.38	56331.43
679.57	55862.44
679.76	55798.96
679.96	56280.23
680.15	55489.71
680.34	56310.95
680.53	55850.16
680.72	56386.72
680.91	56153.26
681.10	55803.05
681.29	56167.59
681.48	55989.42
681.68	56149.16
681.87	55415.99
682.06	55841.96
682.25	55547.06
682.44	55655.60
682.63	55796.91
682.82	55469.23
683.01	55407.79
683.20	55588.02
683.39	55698.61
683.59	55360.69
683.78	55504.05
683.97	55332.02
684.16	55366.84
684.35	55196.85
684.54	55620.78
684.73	55727.28
684.92	55297.20
685.11	55409.84
685.30	55395.51
685.49	55565.49
685.69	55502.00
685.88	55753.90
686.07	55073.98
686.26	55221.43
686.45	55551.15
686.64	55323.83
686.83	55264.44
687.02	55426.23
687.21	55485.62
687.40	55446.71
687.59	55434.42
687.78	55084.22
687.97	55805.10
688.16	55450.80
688.35	54822.08
688.54	55151.80
688.74	55176.37
688.93	55379.12
689.12	55071.93
689.31	55129.27
689.50	55407.79
689.69	54926.52
689.88	54793.40
690.07	55534.77
690.26	55069.88
690.45	55346.36
690.64	54805.69
690.83	54961.34
691.02	54959.29
691.21	55028.92
691.40	54908.09
691.59	55063.74
691.78	54748.35
691.97	55620.78
692.16	54920.38
692.35	55133.37
692.54	55024.82
692.73	55119.03
692.92	55336.12
693.11	54914.23
693.30	54783.16
693.49	55207.09
693.68	54535.36
693.87	54887.61
694.06	54785.21
694.25	54777.02
694.44	54189.25
694.63	54310.08
694.82	54942.91
695.01	54777.02
695.20	54779.07
695.39	54404.29
695.58	54645.95
695.77	54609.09
695.96	54602.94
696.15	54903.99
696.34	54402.24
696.53	54697.15
696.72	54916.28
696.91	54305.99
697.10	54973.63
697.29	54330.56
697.48	54934.71
697.67	54394.05
697.86	54160.58
698.05	54181.06
698.24	54793.40
698.43	54199.49
698.62	54697.15
698.81	54207.68
699.00	54727.87
699.19	54191.30
699.38	54455.49
699.57	54154.44
699.76	54717.63
699.95	54148.29
700.14	54242.50
700.32	54940.86
700.51	53599.44
700.70	54746.30
700.89	54893.75
701.08	54238.40
701.27	54428.87
701.46	54363.33
701.65	53585.10
701.84	54146.25
702.03	54205.64
702.22	53732.56
702.41	54305.99
702.60	54176.97
702.79	54279.36
702.98	53521.62
703.17	54242.50
703.35	53769.42
703.54	53931.21
703.73	54367.43
703.92	54197.44
704.11	53857.48
704.30	53902.54
704.49	53615.82
704.68	53607.63
704.87	53808.33
705.06	53617.87
705.25	53900.49
705.43	53621.97
705.62	54371.52
705.81	53834.95
706.00	53576.91
706.19	53286.10
706.38	53275.86
706.57	53556.43
706.76	53503.18
706.95	53548.24
707.14	53427.41
707.32	53363.92
707.51	53642.45
707.70	53413.07
707.89	53558.48
708.08	53599.44
708.27	53810.38
708.46	54156.49
708.65	53466.32
708.84	53800.14
709.02	53179.60
709.21	54150.34
709.40	53599.44
709.59	53388.50
709.78	52942.04
709.97	53701.84
710.16	53269.72
710.34	53757.13
710.53	53339.35
710.72	53116.12
710.91	53376.21
711.10	53247.19
711.29	53232.85
711.48	53329.11
711.66	53210.32
711.85	53179.60
712.04	53236.95
712.23	53228.76
712.42	53036.25
712.61	53396.69
712.80	52776.15
712.98	53523.66
713.17	53126.36
713.36	52944.09
713.55	53417.17
713.74	53105.88
713.93	52952.28
714.11	53216.47
714.30	53081.30
714.49	53288.15
714.68	53179.60
714.87	52974.81
715.06	53060.82
715.24	52966.62
715.43	52882.65
715.62	52483.30
715.81	52438.24
716.00	52389.09
716.18	52393.18
716.37	52124.90
716.56	52567.26
716.75	53114.07
716.94	52727.00
717.12	52268.26
717.31	52557.02
717.50	52524.25
717.69	52524.25
717.88	52298.98
718.06	52239.59
718.25	52921.56
718.44	52223.20
718.63	52606.17
718.82	52135.14
719.00	52200.68
719.19	52266.21
719.38	51619.05
719.57	51700.97
719.76	51584.24
719.94	51395.82
720.13	51557.61
720.32	51944.68
720.51	51827.95
720.69	51539.18
720.88	52159.72
721.07	51594.48
721.26	51311.86
721.44	51569.90
721.63	51178.74
721.82	51315.95
722.01	51477.74
722.20	51414.26
722.38	50953.46
722.57	50709.75
722.76	51473.65
722.95	50992.37
723.13	50670.84
723.32	50701.56
723.51	50922.74
723.70	50826.49
723.88	50881.78
724.07	50771.19
724.26	51074.29
724.44	50341.12
724.63	51184.88
724.82	50740.47
725.01	50275.58
725.19	50687.23
725.38	50224.39
725.57	50162.95
725.76	50648.32
725.94	49917.19
726.13	50310.40
726.32	50380.03
726.51	50136.32
726.69	50693.37
726.88	50355.46
727.07	50582.78
727.25	50068.74
727.44	50431.23
727.63	50416.89
727.82	50324.74
728.00	50574.59
728.19	50527.48
728.38	50042.12
728.56	50005.25
728.75	50640.12
728.94	50337.02
729.12	50867.45
729.31	50373.89
729.50	50281.73
729.69	50377.98
729.87	49689.87
730.06	50662.65
730.25	50121.99
730.43	50623.74
730.62	50025.73
730.81	50115.84
730.99	50509.05
731.18	50492.67
731.37	50183.43
731.55	50306.30
731.74	50359.55
731.93	50504.96
732.11	50316.54
732.30	50380.03
732.49	50105.60
732.67	50158.85
732.86	49947.91
733.05	50504.96
733.23	49657.10
733.42	50128.13
733.61	49911.05
733.79	50310.40
733.98	50371.84
734.17	50148.61
734.35	50160.90
734.54	50289.92
734.73	50230.53
734.91	50205.95
735.10	49739.02
735.29	50205.95
735.47	50136.32
735.66	50183.43
735.84	50146.56
736.03	49474.83
736.22	50271.49
736.40	49939.72
736.59	50382.08
736.78	49769.74
736.96	49526.03
737.15	49853.70
737.33	49698.06
737.52	49618.19
737.71	49589.52
737.89	49550.60
738.08	49440.01
738.27	49454.35
738.45	49677.58
738.64	49571.08
738.82	49913.09
739.01	49319.18
739.20	49091.86
739.38	49646.86
739.57	49548.56
739.75	49399.05
739.94	49161.49
740.13	49554.70
740.31	49620.23
740.50	49040.66
740.68	49820.94
740.87	49104.15
741.06	49589.52
741.24	48940.31
741.43	48876.82
741.61	49822.98
741.80	49161.49
741.99	49147.15
742.17	49188.11
742.36	49147.15
742.54	49042.71
742.73	48956.69
742.91	49159.44
743.10	49061.14
743.29	49106.19
743.47	49059.09
743.66	48858.39
743.84	48760.09
744.03	48823.58
744.21	48653.59
744.40	48928.02
744.59	48891.16
744.77	48676.12
744.96	48704.79
745.14	48698.65
745.33	48483.61
745.51	48635.16
745.70	48958.74
745.88	48325.92
746.07	48876.82
746.26	48274.72
746.44	48053.54
746.63	48497.95
746.81	48518.43
747.00	47719.72
747.18	48631.07
747.37	48459.04
747.55	48180.51
747.74	48545.05
747.92	47916.32
748.11	48035.11
748.29	47836.45
748.48	48280.86
748.66	47963.43
748.85	48086.31
749.03	48004.39
749.22	47955.24
749.41	47772.97
749.59	48481.56
749.78	47656.23
749.96	47496.49
750.15	48018.72
750.33	47867.17
750.52	47609.13
750.70	47555.88
750.89	47240.50
751.07	47772.97
751.26	47375.66
751.44	47678.76
751.63	47562.03
751.81	47324.46
752.00	47377.71
752.18	47451.44
752.37	47355.18
752.55	46970.16
752.74	46988.60
752.92	47220.02
753.10	46796.09
753.29	47260.97
753.47	46812.47
753.66	46441.79
753.84	47117.62
754.03	46771.51
754.21	46376.25
754.40	46609.72
754.58	47150.38
754.77	46388.54
754.95	46447.93
755.14	46378.30
755.32	46646.58
755.51	46058.82
755.69	46091.58
755.88	46179.65
756.06	46386.49
756.24	46361.92
756.43	46019.91
756.61	46064.96
756.80	46413.12
756.98	45784.39
757.17	46052.67
757.35	46175.55
757.54	45946.18
757.72	46343.48
757.90	45870.40
758.09	45733.19
758.27	45851.97
758.46	45905.22
758.64	45802.82
758.83	45720.90
759.01	46046.53
759.19	45835.59
759.38	45718.85
759.56	45477.19
759.75	45962.56
759.93	45675.85
760.12	45337.93
760.30	45380.94
760.48	45419.85
760.67	45512.01
760.85	45313.36
761.04	45415.76
761.22	45401.42
761.40	45225.29
761.59	44928.34
761.77	44873.04
761.96	45245.77
762.14	44983.63
762.32	44827.99
762.51	44504.41
762.69	45114.70
762.88	44756.31
763.06	44844.37
763.24	44658.01
763.43	44395.87
763.61	44549.46
763.80	44664.15
763.98	44420.44
764.16	44287.32
764.35	44021.09
764.53	43824.48
764.72	43930.98
764.90	44264.80
765.08	44334.43
765.27	44082.53
765.45	44184.93
765.63	43701.61
765.82	44483.93
766.00	43656.55
766.18	43906.40
766.37	43955.55
766.55	43734.37
766.74	43758.95
766.92	43488.62
767.10	43523.43
767.29	43533.67
767.47	42878.32
767.65	43441.51
767.84	43025.78
768.02	43347.31
768.20	43105.65
768.39	43601.25
768.57	43545.96
768.75	42947.95
768.94	43124.08
769.12	43138.41
769.30	43101.55
769.49	42857.84
769.67	42806.64
769.85	42464.63
770.04	43038.06
770.22	42388.86
770.40	42259.84
770.59	42399.10
770.77	42610.04
770.95	42526.07
771.14	42546.55
771.32	42003.84
771.50	41819.52
771.69	42274.17
771.87	42788.21
772.05	42323.32
772.24	41854.34
772.42	41993.60
772.60	41753.99
772.78	41885.06
772.97	41629.06
773.15	41870.72
773.33	41483.66
773.52	41569.67
773.70	41876.86
773.88	41739.65
774.07	41526.66
774.25	41495.94
774.43	41825.67
774.61	41766.27
774.80	41760.13
774.98	41422.22
775.16	41901.44
775.34	41756.03
775.53	41741.70
775.71	42034.56
775.89	41629.06
776.08	41510.28
776.26	41833.86
776.44	41807.23
776.62	41522.57
776.81	41680.26
776.99	41870.72
777.17	41903.49
777.35	41428.36
777.54	42001.79
777.72	41803.14
777.90	41694.60
778.08	42061.18
778.27	41653.64
778.45	42141.05
778.63	42304.89
778.81	41577.86
779.00	42255.74
779.18	42161.53
779.36	42263.93
779.54	41819.52
779.73	41948.54
779.91	41911.68
780.09	42061.18
780.27	42284.41
780.46	42034.56
780.64	42186.11
780.82	42323.32
781.00	42001.79
781.19	42415.48
781.37	42335.61
781.55	42239.36
781.73	42331.51
781.91	41862.53
782.10	42096.00
782.28	42442.10
782.46	42392.95
782.64	42022.27
782.82	42329.47
783.01	42399.10
783.19	42481.02
783.37	42212.73
783.55	42304.89
783.74	42354.04
783.92	42179.96
784.10	42556.79
784.28	42128.77
784.46	42126.72
784.64	42136.96
784.83	42343.80
785.01	42720.63
785.19	42407.29
785.37	42186.11
785.55	42233.21
785.74	41639.30
785.92	41942.40
786.10	41731.46
786.28	42243.45
786.46	42194.30
786.64	41907.58
786.83	41571.72
787.01	41772.42
787.19	41663.88
787.37	41817.47
787.55	41678.21
787.74	41387.40
787.92	41432.46
788.10	41473.42
788.28	41790.85
788.46	41551.24
788.64	41201.04
788.82	41653.64
789.01	41323.91
789.19	41268.62
789.37	41129.36
789.55	41477.51
789.73	40703.38
789.91	41188.75
790.09	41160.08
790.28	40762.77
790.46	40689.04
790.64	40904.08
790.82	40717.71
791.00	40625.56
791.18	40478.10
791.36	40312.22
791.55	40355.22
791.73	40474.01
791.91	39785.89
792.09	40310.17
792.27	40293.79
792.45	40072.60
792.63	39988.64
792.81	39824.80
793.00	39427.49
793.18	39464.36
793.36	39421.35
793.54	39687.59
793.72	39697.83
793.90	39542.18
794.08	38927.79
794.26	39234.99
794.44	39185.83
794.62	38759.86
794.81	39232.94
794.99	38866.35
795.17	38563.25
795.35	38446.52
795.53	38970.80
795.71	38901.17
795.89	38520.24
796.07	38532.53
796.25	38399.41
796.43	38151.61
796.61	38024.64
796.80	38077.88
796.98	37643.71
797.16	37621.19
797.34	37754.30
797.52	37768.64
797.70	37944.76
797.88	37377.48
798.06	37184.97
798.24	37273.03
798.42	37039.56
798.60	37129.67
798.78	37299.65
798.96	37144.01
799.14	36533.71
799.32	37121.48
799.51	36494.80
799.69	37213.64
799.87	36584.91
800.05	36437.46
800.23	36722.13
800.41	36308.44
800.59	36165.08
800.77	36197.85
800.95	36050.39
801.13	36201.94
801.31	35773.92
801.49	36130.26
801.67	35485.15
801.85	35139.05
802.03	35788.25
802.21	35233.25
802.39	35266.02
802.57	35302.89
802.75	35118.57
802.93	35380.71
803.11	34895.34
803.29	35050.99
803.47	34993.64
803.65	35005.93
803.83	34874.86
804.01	34538.99
804.19	34252.28
804.37	34254.33
804.55	34708.97
804.73	34182.65
804.91	34446.83
805.09	34481.65
805.27	34158.07
805.45	34242.04
805.63	34401.78
805.81	33949.18
805.99	34366.96
806.17	34223.61
806.35	33791.48
806.53	33576.45
806.71	33652.22
806.89	33314.31
807.07	33680.89
807.25	33453.57
807.43	33433.09
807.61	33756.67
807.79	33076.74
807.97	32853.51
808.15	33048.07
808.33	33097.22
808.51	32710.16
808.69	32830.99
808.87	33029.64
809.05	32527.89
809.23	32448.02
809.41	32587.28
809.59	32548.37
809.77	32644.62
809.95	32433.68
810.13	32437.78
810.31	32648.72
810.49	32339.47
810.67	32054.81
810.84	32282.13
811.02	32222.74
811.20	31954.46
811.38	31903.26
811.56	31780.38
811.74	31923.74
811.92	31587.87
812.10	31882.78
812.28	32026.14
812.46	31508.00
812.64	31364.64
812.82	31487.52
813.00	31282.72
813.18	31596.06
813.36	31157.80
813.53	31106.60
813.71	31364.64
813.89	30920.23
814.07	31008.29
814.25	31268.39
814.43	30979.62
814.61	30821.93
814.79	30750.25
814.97	30561.84
815.15	30705.20
815.33	30641.71
815.50	30391.86
815.68	30492.21
815.86	30676.52
816.04	30551.60
816.22	30129.72
816.40	30610.99
816.58	30060.09
816.76	30316.08
816.94	29814.33
817.11	29881.91
817.29	29924.92
817.47	29873.72
817.65	29515.33
817.83	29728.31
818.01	29654.59
818.19	29912.63
818.37	29873.72
818.54	29515.33
818.72	29269.57
818.90	29611.58
819.08	29556.28
819.26	29417.02
819.44	29374.02
819.62	29185.60
819.80	29584.96
819.97	29025.86
820.15	29292.10
820.33	28937.80
820.51	29048.39
820.69	28831.30
820.87	29001.29
821.05	28995.14
821.22	28563.02
821.40	28724.81
821.58	28583.50
821.76	28489.29
821.94	28767.82
822.12	28597.84
822.29	28714.57
822.47	28370.51
822.65	28810.82
822.83	28919.37
823.01	28452.43
823.19	28139.09
823.36	28192.34
823.54	28212.82
823.72	28051.03
823.90	28218.96
824.08	27856.47
824.25	28116.56
824.43	27954.77
824.61	27952.73
824.79	27973.21
824.97	27962.97
825.15	28053.08
825.32	27807.32
825.50	27512.41
825.68	27784.79
825.86	27997.78
826.04	27721.30
826.21	27625.05
826.39	27792.98
826.57	27397.73
826.75	27526.75
826.93	27594.33
827.10	27231.84
827.28	27416.16
827.46	27846.23
827.64	27356.77
827.81	27027.04
827.99	27190.88
828.17	27080.29
828.35	27297.38
828.53	27268.70
828.70	27125.35
828.88	26797.67
829.06	27213.41
829.24	27201.12
829.41	26799.72
829.59	27512.41
829.77	27170.40
829.95	26676.84
830.12	26695.27
830.30	26523.24
830.48	26928.74
830.66	26730.09
830.84	26574.44
831.01	26777.19
831.19	26693.22
831.37	26478.19
831.55	26445.42
831.72	26216.05
831.90	26480.24
832.08	26588.78
832.25	26324.59
832.43	26609.26
832.61	26412.65
832.79	26201.71
832.96	26361.45
833.14	26281.58
833.32	26398.32
833.50	26259.06
833.67	26498.67
833.85	26017.40
834.03	26091.12
834.20	25880.18
834.38	25908.85
834.56	26158.70
834.74	25783.93
834.91	26142.32
835.09	25730.68
835.27	25378.43
835.44	25779.83
835.62	25360.00
835.80	25599.61
835.98	25738.87
836.15	25654.90
836.33	25736.82
836.51	25511.55
836.68	25521.79
836.86	25773.69
837.04	25603.71
837.21	25620.09
837.39	25331.33
837.57	25691.77
837.75	25534.07
837.92	25351.81
838.10	25269.89
838.28	24923.78
838.45	25278.08
838.63	25095.81
838.81	25276.03
838.98	24962.69
839.16	25013.89
839.34	24913.54
839.51	24987.27
839.69	25034.37
839.87	24833.67
840.04	24972.93
840.22	25101.95
840.40	24811.14
840.57	24686.22
840.75	24870.53
840.93	24643.21
841.10	24956.55
841.28	25151.10
841.46	24854.15
841.63	24837.76
841.81	24471.18
841.98	24987.27
842.16	24759.94
842.34	24589.96
842.51	24344.20
842.69	24530.57
842.87	24262.29
843.04	24381.07
843.22	24366.73
843.40	24465.03
843.57	24057.49
843.75	24581.77
843.92	24555.15
844.10	24254.09
844.28	24303.25
844.45	24174.22
844.63	24219.28
844.81	24237.71
844.98	24303.25
845.16	24407.69
845.33	24258.19
845.51	24059.54
845.69	23760.53
845.86	24061.58
846.04	23846.55
846.21	23989.91
846.39	23770.77
846.57	23764.63
846.74	23899.80
846.92	23703.19
847.09	23778.97
847.27	23545.50
847.45	23699.09
847.62	23715.48
847.80	23889.56
847.97	23797.40
848.15	23852.69
848.32	23709.33
848.50	23723.67
848.68	23588.50
848.85	23467.67
849.03	23166.62
849.20	23088.80
849.38	23416.47
849.56	23305.88
849.73	23203.49
849.91	23451.29
850.08	23711.38
850.26	23183.01
850.43	23432.86
850.61	23197.34
850.78	22763.17
850.96	23117.47
851.14	22996.64
851.31	23223.97
851.49	22984.35
851.66	23252.64
851.84	23264.92
852.01	22877.86
852.19	22982.31
852.36	22871.72
852.54	23056.03
852.71	22664.87
852.89	22587.05
853.07	23090.85
853.24	22757.03
853.42	22896.29
853.59	22576.81
853.77	22939.30
853.94	23008.93
854.12	22929.06
854.29	22589.10
854.47	22947.49
854.64	22906.53
854.82	22767.27
854.99	22392.49
855.17	22763.17
855.34	22589.10
855.52	22752.93
855.69	22400.68
855.87	22492.84
856.04	22398.63
856.22	22279.85
856.39	22138.54
856.57	22320.81
856.74	22322.86
856.92	22300.33
857.09	21864.11
857.27	22064.82
857.44	22277.80
857.62	22179.50
857.79	22378.15
857.97	22351.53
858.14	22034.10
858.32	22089.39
858.49	22077.10
858.67	22036.14
858.84	21769.91
859.02	21890.74
859.19	21745.33
859.37	21757.62
859.54	21585.59
859.72	21962.42
859.89	21917.36
860.06	22111.92
860.24	21708.47
860.41	21980.85
860.59	21634.74
860.76	21581.49
860.94	21528.25
861.11	21575.35
861.29	21522.10
861.46	21520.06
861.64	21298.88
861.81	21384.89
861.98	21423.80
862.16	21311.16
862.33	21171.90
862.51	21270.20
862.68	21321.40
862.86	21440.18
863.03	21325.50
863.21	21155.52
863.38	21176.00
863.55	21374.65
863.73	21098.17
863.90	21282.49
864.08	21106.37
864.25	21137.09
864.43	21221.05
864.60	20940.48
864.77	20872.90
864.95	21083.84
865.12	20784.83
865.30	20987.58
865.47	20668.10
865.64	20969.15
865.82	20901.57
865.99	20909.76
866.17	20889.28
866.34	21026.50
866.51	20596.42
866.69	20958.91
866.86	20965.06
867.04	20899.52
867.21	20401.86
867.38	20453.06
867.56	20393.67
867.73	20584.13
867.91	20690.63
868.08	20235.98
868.25	20235.98
868.43	20346.57
868.60	20317.90
868.78	20035.28
868.95	20182.73
869.12	20354.76
869.30	20213.45
869.47	20160.20
869.64	19988.18
869.82	20207.31
869.99	20096.72
870.16	20526.79
870.34	19896.02
870.51	20496.07
870.69	20020.94
870.86	20055.76
871.03	20076.24
871.21	20018.89
871.38	20262.60
871.55	19850.96
871.73	19855.06
871.90	19746.51
872.07	19703.51
872.25	19644.12
872.42	19666.64
872.59	19762.90
872.77	19697.36
872.94	19633.88
873.11	19711.70
873.29	19812.05
873.46	19570.39
873.63	19418.84
873.81	19474.13
873.98	19273.43
874.15	19453.66
874.33	19048.16
874.50	18943.71
874.67	19463.90
874.85	19302.11
875.02	19218.14
875.19	19187.42
875.37	19099.36
875.54	18953.95
875.71	18904.80
875.88	18949.85
876.06	19009.25
876.23	18714.34
876.40	19068.64
876.58	18728.67
876.75	18728.67
876.92	18577.12
877.10	18763.49
877.27	18579.17
877.44	18595.56
877.61	18214.63
877.79	18523.88
877.96	18609.89
878.13	18411.24
878.31	18360.04
878.48	18241.26
878.65	18216.68
878.82	18304.74
879.00	18415.34
879.17	18020.08
879.34	18505.45
879.51	18228.97
879.69	18089.71
879.86	18147.05
880.03	18112.24
880.21	18294.50
880.38	18050.80
880.55	18142.96
880.72	17977.07
880.90	17755.89
881.07	18018.03
881.24	17895.15
881.41	18015.98
881.59	17850.10
881.76	18274.03
881.93	17833.71
882.10	17512.18
882.28	17901.29
882.45	17891.06
882.62	17661.68
882.79	17981.17
882.96	17475.32
883.14	17833.71
883.31	17788.66
883.48	17450.74
883.65	17852.14
883.83	17688.31
884.00	17614.58
884.17	17411.83
884.34	17551.09
884.51	17538.80
884.69	17485.56
884.86	17563.38
885.03	17356.54
885.20	17227.51
885.38	17714.93
885.55	17653.49
885.72	17391.35
885.89	17293.05
886.06	17213.18
886.24	17164.03
886.41	17075.96
886.58	17350.39
886.75	17295.10
886.92	17088.25
887.10	17344.25
887.27	17067.77
887.44	17426.17
887.61	17161.98
887.78	17282.81
887.95	17323.77
888.13	16987.90
888.30	17043.20
888.47	16926.46
888.64	16879.36
888.81	16924.41
888.99	16637.70
889.16	16824.06
889.33	16703.23
889.50	16613.12
889.67	16805.63
889.84	16725.76
890.01	16850.69
890.19	16695.04
890.36	16627.46
890.53	16721.66
890.70	16668.42
890.87	16424.71
891.04	16467.72
891.22	16817.92
891.39	16592.64
891.56	16195.34
891.73	16348.93
891.90	16314.12
892.07	16590.59
892.24	16422.66
892.42	16228.10
892.59	16129.80
892.76	16322.31
892.93	16162.57
893.10	16195.34
893.27	16246.54
893.44	16148.23
893.61	16158.47
893.79	16199.43
893.96	16234.25
894.13	16140.04
894.30	16011.02
894.47	16273.16
894.64	16068.36
894.81	15963.92
894.98	16273.16
895.15	16269.06
895.33	16002.83
895.50	16004.88
895.67	16193.29
895.84	16008.97
896.01	16033.55
896.18	15925.00
896.35	16224.01
896.52	15828.75
896.69	16125.71
896.86	16000.78
897.04	16140.04
897.21	16097.03
897.38	15925.00
897.55	16004.88
897.72	15982.35
897.89	15949.58
898.06	15863.57
898.23	16111.37
898.40	16189.19
898.57	16015.12
898.74	15867.66
898.91	15922.96
899.08	15959.82
899.26	15791.89
899.43	16004.88
899.60	15914.77
899.77	15965.96
899.94	15855.37
900.11	15972.11
900.28	15834.89
900.45	15888.14
900.62	15843.09
900.79	15830.80
900.96	15726.35
901.13	16011.02
901.30	15832.85
901.47	15712.02
901.64	15904.53
901.81	15947.53
901.98	15736.59
902.15	15949.58
902.32	15687.44
902.49	16140.04
902.66	15857.42
902.83	15802.13
903.01	15605.52
903.18	15838.99
903.35	15902.48
903.52	15998.73
903.69	16033.55
903.86	15965.96
904.03	15605.52
904.20	15933.20
904.37	16017.16
904.54	15732.50
904.71	15589.14
904.88	15871.76
905.05	15795.98
905.22	15705.87
905.39	15957.77
905.56	15814.41
905.73	15771.41
905.90	15773.46
906.07	15898.38
906.24	15804.17
906.41	15888.14
906.58	15875.85
906.75	15689.49
906.92	15882.00
907.09	15652.63
907.26	15965.96
907.43	15472.40
907.60	15730.45
907.77	15953.68
907.93	15728.40
908.10	15843.09
908.27	15771.41
908.44	15824.65
908.61	15623.95
908.78	15546.13
908.95	15705.87
909.12	15687.44
909.29	15470.36
909.46	15732.50
909.63	15875.85
909.80	15671.06
909.97	15748.88
910.14	15472.40
910.31	15333.14
910.48	15462.16
910.65	15789.84
910.82	15722.26
910.99	15615.76
911.16	15560.47
911.33	15488.79
911.50	15431.44
911.66	15425.30
911.83	15339.29
912.00	15402.77
912.17	15122.20
912.34	15316.76
912.51	15322.90
912.68	15116.06
912.85	15404.82
913.02	15240.98
913.19	15157.02
913.36	15386.39
913.53	15249.18
913.70	15062.81
913.86	15376.15
914.03	15009.56
914.20	14858.01
914.37	15253.27
914.54	14944.03
914.71	14937.88
914.88	14937.88
915.05	14960.41
915.22	14772.00
915.39	14993.18
915.55	14888.73
915.72	14919.45
915.89	14685.98
916.06	14671.65
916.23	14671.65
916.40	14718.75
916.57	14585.63
916.74	14655.26
916.91	14583.59
917.07	14534.43
917.24	14309.16
917.41	14413.60
917.58	14513.95
917.75	14491.43
917.92	14108.46
918.09	14458.66
918.26	14214.95
918.42	14321.45
918.59	14243.62
918.76	14151.46
918.93	14006.06
919.10	14042.92
919.27	13903.66
919.44	14202.66
919.60	13944.62
919.77	14206.76
919.94	13958.96
920.11	14006.06
920.28	13836.08
920.45	13713.20
920.61	13555.51
920.78	13528.88
920.95	13627.18
921.12	13590.32
921.29	13575.98
921.46	13412.15
921.62	13446.96
921.79	13428.53
921.96	13379.38
922.13	13358.90
922.30	13180.73
922.47	13350.71
922.63	12959.55
922.80	13328.18
922.97	13154.10
923.14	13174.58
923.31	12912.44
923.47	12980.03
923.64	12982.07
923.81	12773.18
923.98	12797.76
924.15	12844.86
924.32	12781.37
924.48	12693.31
924.65	12842.81
924.82	12433.22
924.99	12431.17
925.15	12396.35
925.32	12588.86
925.49	12431.17
925.66	12259.14
925.83	12361.54
925.99	12255.04
926.16	12351.30
926.33	12248.90
926.50	12017.48
926.67	11929.42
926.83	11917.13
927.00	11841.36
927.17	11982.67
927.34	11976.52
927.50	11728.72
927.67	11833.16
927.84	11845.45
928.01	11638.61
928.17	11708.24
928.34	11511.63
928.51	11487.06
928.68	11429.71
928.84	11333.46
929.01	11370.32
929.18	11194.20
929.35	11339.60
929.51	11276.12
929.68	11013.98
929.85	11132.76
930.02	11022.17
930.18	10868.57
930.35	10985.30
930.52	10979.16
930.69	10997.59
930.85	10835.80
931.02	10764.12
931.19	10669.92
931.36	10637.15
931.52	10813.28
931.69	10536.80
931.86	10637.15
932.02	10479.46
932.19	10577.76
932.36	10325.86
932.53	10504.03
932.69	10215.27
932.86	10338.15
933.03	10235.75
933.19	10217.32
933.36	10293.09
933.53	10194.79
933.70	10100.58
933.86	10119.01
934.03	9924.46
934.20	9850.73
934.36	9891.69
934.53	9543.53
934.70	9521.01
934.86	9660.27
935.03	9500.53
935.20	9330.55
935.36	9523.05
935.53	9250.67
935.70	9019.25
935.86	9265.01
936.03	9082.74
936.20	8900.47
936.36	9004.92
936.53	8806.27
936.70	8824.70
936.86	8818.55
937.03	8824.70
937.20	8515.45
937.36	8632.19
937.53	8320.90
937.70	8439.68
937.86	8198.02
938.03	8171.40
938.20	8179.59
938.36	8128.39
938.53	8038.28
938.70	7733.13
938.86	7651.21
939.03	7653.26
939.20	7444.37
939.36	7638.92
939.53	7559.05
939.70	7694.22
939.86	7196.56
940.03	7202.71
940.19	7114.64
940.36	7114.64
940.53	7145.36
940.69	6778.78
940.86	6901.65
941.03	6737.82
941.19	6672.28
941.36	6686.62
941.52	6700.95
941.69	6414.24
941.86	6442.91
942.02	6451.10
942.19	6342.56
942.35	6369.18
942.52	6385.57
942.69	6115.23
942.85	6086.56
943.02	6051.75
943.18	6131.62
943.35	5986.21
943.52	5971.88
943.68	6090.66
943.85	5875.62
944.01	5814.18
944.18	5777.32
944.35	5760.94
944.51	5601.19
944.68	5578.67
944.84	5689.26
945.01	5644.20
945.17	5603.24
945.34	5676.97
945.51	5717.93
945.67	5679.02
945.84	5709.74
946.00	5445.55
946.17	5607.34
946.33	5545.90
946.50	5552.04
946.67	5494.70
946.83	5482.41
947.00	5605.29
947.16	5531.56
947.33	5595.05
947.49	5408.69
947.66	5433.26
947.82	5599.15
947.99	5373.87
948.16	5629.87
948.32	5451.69
948.49	5439.40
948.65	5470.12
948.82	5357.49
948.98	5484.46
949.15	5359.53
949.31	5566.38
949.48	5631.91
949.64	5294.00
949.81	5527.47
949.97	5560.24
950.14	5492.65
950.30	5359.53
950.47	5388.21
950.63	5443.50
950.80	5435.31
950.96	5525.42
951.13	5367.73
951.30	5511.08
951.46	5509.04
951.63	5619.63
951.79	5523.37
951.96	5492.65
952.12	5590.95
952.29	5500.84
952.45	5482.41
952.62	5453.74
952.78	5586.86
952.94	5513.13
953.11	5523.37
953.27	5388.21
953.44	5654.44
953.60	5566.38
953.77	5621.67
953.93	5568.43
954.10	5506.99
954.26	5466.03
954.43	5480.36
954.59	5613.48
954.76	5670.83
954.92	5599.15
955.09	5535.66
955.25	5679.02
955.42	5570.48
955.58	5824.42
955.75	5574.57
955.91	5474.22
956.07	5590.95
956.24	5668.78
956.40	5601.19
956.57	5623.72
956.73	5568.43
956.90	5636.01
957.06	5504.94
957.23	5615.53
957.39	5601.19
957.56	5644.20
957.72	5570.48
957.88	5576.62
958.05	5582.76
958.21	5732.26
958.38	5572.52
958.54	5521.32
958.71	5642.15
958.87	5531.56
959.03	5619.63
959.20	5521.32
959.36	5339.05
959.53	5683.11
959.69	5593.00
959.85	5574.57
960.02	5609.39
960.18	5494.70
960.35	5574.57
960.51	5679.02
960.68	5595.05
960.84	5713.83
961.00	5693.35
961.17	5425.07
961.33	5550.00
961.50	5707.69
961.66	5611.43
961.82	5513.13
961.99	5576.62
962.15	5574.57
962.31	5531.56
962.48	5527.47
962.64	5685.16
962.81	5474.22
962.97	5578.67
963.13	5527.47
963.30	5703.59
963.46	5498.80
963.62	5588.91
963.79	5554.09
963.95	5476.27
964.12	5498.80
964.28	5543.85
964.44	5509.04
964.61	5640.11
964.77	5617.58
964.93	5638.06
965.10	5506.99
965.26	5367.73
965.42	5394.35
965.59	5357.49
965.75	5425.07
965.92	5496.75
966.08	5476.27
966.24	5584.81
966.41	5310.38
966.57	5310.38
966.73	5396.40
966.90	5511.08
967.06	5238.70
967.22	5347.25
967.39	5316.53
967.55	5257.14
967.71	5369.77
967.88	5463.98
968.04	5214.13
968.20	5318.57
968.37	5240.75
968.53	5228.46
968.69	5267.38
968.85	5468.08
969.02	5298.10
969.18	5310.38
969.34	5212.08
969.51	5197.74
969.67	5302.19
969.83	5097.39
970.00	5371.82
970.16	5212.08
970.32	5156.79
970.48	5199.79
970.65	5152.69
970.81	5181.36
970.97	5085.11
971.14	5152.69
971.30	5279.66
971.46	5060.53
971.63	4949.94
971.79	5261.23
971.95	4956.08
972.11	4958.13
972.28	5087.15
972.44	5136.31
972.60	4906.93
972.76	5187.50
972.93	5072.82
973.09	5042.10
973.25	5011.38
973.42	5058.48
973.58	4904.89
973.74	4820.92
973.90	4880.31
974.07	4812.73
974.23	4892.60
974.39	5124.02
974.55	4947.89
974.72	4966.32
974.88	4747.19
975.04	4917.17
975.20	4808.63
975.37	4958.13
975.53	4814.77
975.69	4861.88
975.85	4814.77
976.01	4734.90
976.18	4868.02
976.34	4908.98
976.50	5021.62
976.66	4874.17
976.83	4665.27
976.99	4722.62
977.15	4771.77
977.31	4648.89
977.47	4777.91
977.64	4831.16
977.80	4581.31
977.96	4642.75
978.12	4655.03
978.29	4683.70
978.45	4706.23
978.61	4571.07
978.77	4614.07
978.93	4517.82
979.10	4601.79
979.26	4626.36
979.42	4706.23
979.58	4515.77
979.74	4550.59
979.91	4614.07
980.07	4489.15
980.23	4382.65
980.39	4519.87
980.55	4583.35
980.71	4499.39
980.88	4519.87
981.04	4487.10
981.20	4423.61
981.36	4476.86
981.52	4464.57
981.68	4411.32
981.85	4345.79
982.01	4435.90
982.17	4278.21
982.33	4345.79
982.49	4454.33
982.65	4278.21
982.82	4515.77
982.98	4423.61
983.14	4292.54
983.30	4431.80
983.46	4298.69
983.62	4296.64
983.79	4298.69
983.95	4292.54
984.11	4143.04
984.27	4329.41
984.43	4255.68
984.59	4202.43
984.75	4323.26
984.91	4177.86
985.08	4300.73
985.24	4073.41
985.40	4034.50
985.56	4177.86
985.72	4247.49
985.88	4196.29
986.04	4147.14
986.20	4042.69
986.37	4136.90
986.53	3971.01
986.69	4114.37
986.85	4089.79
987.01	4007.87
987.17	4161.47
987.33	4083.65
987.49	4077.51
987.65	4016.07
987.82	4108.23
987.98	3944.39
988.14	4128.70
988.30	3979.20
988.46	4044.74
988.62	4028.35
988.78	3966.92
988.94	3823.56
989.10	3837.89
989.26	3899.33
989.42	3907.52
989.59	3864.52
989.75	3837.89
989.91	3981.25
990.07	3778.50
990.23	3846.09
990.39	3909.57
990.55	3915.72
990.71	3798.98
990.87	3848.13
991.03	3739.59
991.19	3727.30
991.35	3719.11
991.51	3737.54
991.67	3704.78
991.83	3727.30
992.00	3844.04
992.16	3747.78
992.32	3768.26
992.48	3737.54
992.64	3594.19
992.80	3852.23
992.96	3674.06
993.12	3708.87
993.28	3735.50
993.44	3585.99
993.60	3796.93
993.76	3653.58
993.92	3712.97
994.08	3723.21
994.24	3641.29
994.40	3633.10
994.56	3737.54
994.72	3526.60
994.88	3659.72
995.04	3489.74
995.20	3635.14
995.36	3567.56
995.52	3629.00
995.68	3530.70
995.84	3559.37
996.00	3606.47
996.16	3581.90
996.32	3403.72
996.48	3514.31
996.64	3551.18
996.80	3364.81
996.96	3469.26
997.12	3514.31
997.28	3377.10
997.44	3469.26
997.60	3407.82
997.76	3375.05
997.92	3491.79
998.08	3350.48
998.24	3319.76
998.40	3377.10
998.56	3424.20
998.72	3327.95
998.88	3350.48
999.04	3368.91
999.20	3377.10
999.36	3370.96
999.52	3391.44
999.68	3264.46
999.84	3370.96
1000.00	3297.23
1000.16	3330.00
1000.32	3174.35
1000.48	3360.72
1000.64	3180.50
1000.80	3284.94
1000.95	3207.12
1001.11	3289.04
1001.27	3268.56
1001.43	3256.27
1001.59	3149.78
1001.75	3131.34
1001.91	3178.45
1002.07	3223.50
1002.23	3112.91
1002.39	3096.53
1002.55	3194.83
1002.71	3207.12
1002.87	3110.86
1003.03	3117.01
1003.19	3051.47
1003.34	3256.27
1003.50	3074.00
1003.66	3145.68
1003.82	3209.17
1003.98	2942.93
1004.14	3063.76
1004.30	3119.06
1004.46	2981.84
1004.62	2977.75
1004.78	3057.62
1004.94	2934.74
1005.09	3129.30
1005.25	3026.90
1005.41	2955.22
1005.57	3010.51
1005.73	3000.27
1005.89	2842.58
1006.05	3074.00
1006.21	3059.67
1006.37	2895.83
1006.52	2904.02
1006.68	2883.54
1006.84	3108.82
1007.00	2938.84
1007.16	2953.17
1007.32	2867.16
1007.48	2953.17
1007.64	2953.17
1007.79	2912.21
1007.95	2842.58
1008.11	2994.13
1008.27	2826.20
1008.43	2818.00
1008.59	2783.19
1008.75	2861.01
1008.91	2797.53
1009.06	2813.91
1009.22	2856.92
1009.38	2852.82
1009.54	2824.15
1009.70	2770.90
1009.86	2815.96
1010.01	2889.68
1010.17	2738.13
1010.33	2801.62
1010.49	2738.13
1010.65	2822.10
1010.81	2727.89
1010.96	2707.41
1011.12	2605.02
1011.28	2725.85
1011.44	2750.42
1011.60	2703.32
1011.76	2637.78
1011.91	2686.94
1012.07	2695.13
1012.23	2602.97
1012.39	2662.36
1012.55	2721.75
1012.71	2699.22
1012.86	2650.07
1013.02	2617.30
1013.18	2650.07
1013.34	2613.21
1013.50	2701.27
1013.65	2633.69
1013.81	2549.72
1013.97	2596.82
1014.13	2631.64
1014.29	2572.25
1014.44	2686.94
1014.60	2598.87
1014.76	2484.19
1014.92	2602.97
1015.07	2623.45
1015.23	2527.19
1015.39	2492.38
1015.55	2566.10
1015.71	2535.39
1015.86	2533.34
1016.02	2478.04
1016.18	2439.13
1016.34	2484.19
1016.49	2449.37
1016.65	2490.33
1016.81	2471.90
1016.97	2428.89
1017.12	2543.58
1017.28	2412.51
1017.44	2447.32
1017.60	2467.80
1017.75	2510.81
1017.91	2453.47
1018.07	2453.47
1018.23	2412.51
1018.38	2430.94
1018.54	2457.56
1018.70	2437.08
1018.86	2365.40
1019.01	2346.97
1019.17	2441.18
1019.33	2453.47
1019.49	2367.45
1019.64	2469.85
1019.80	2375.64
1019.96	2453.47
1020.12	2416.60
1020.27	2330.59
1020.43	2312.16
1020.59	2369.50
1020.74	2455.51
1020.90	2346.97
1021.06	2263.01
1021.22	2203.61
1021.37	2408.41
1021.53	2281.44
1021.69	2420.70
1021.84	2244.57
1022.00	2353.12
1022.16	2176.99
1022.31	2310.11
1022.47	2328.54
1022.63	2295.77
1022.79	2226.14
1022.94	2338.78
1023.10	2271.20
1023.26	2295.77
1023.41	2285.53
1023.57	2248.67
1023.73	2297.82
1023.88	2246.62
1024.04	2138.08
1024.20	2158.56
1024.35	2281.44
1024.51	2236.38
1024.67	2226.14
1024.82	2232.29
1024.98	2140.13
1025.14	2289.63
1025.29	2297.82
1025.45	2271.20
1025.61	2154.46
1025.76	2160.61
1025.92	2277.34
1026.08	2248.67
1026.23	2164.70
1026.39	2281.44
1026.55	2183.13
1026.70	2131.94
1026.86	2174.94
1027.02	2297.82
1027.17	2174.94
1027.33	2201.57
1027.48	2197.47
1027.64	2150.37
1027.80	2162.66
1027.95	2166.75
1028.11	2013.15
1028.27	2197.47
1028.42	2176.99
1028.58	2129.89
1028.73	2047.97
1028.89	2099.17
1029.05	2217.95
1029.20	2138.08
>>>>>End Processed Spectral Data<<<<<
