SpectraSuite Data File
++++++++++++++++++++++++++++++++++++
Date: Fri Jun 02 14:49:25 CEST 2017
User: INFO_000
Dark Spectrum Present: No
Reference Spectrum Present: No
Number of Sampled Component Spectra: 1
Spectrometers: USB4H00879
Integration Time (usec): 80000 (USB4H00879)
Spectra Averaged: 1 (USB4H00879)
Boxcar Smoothing: 0 (USB4H00879)
Correct for Electrical Dark: No (USB4H00879)
Strobe/Lamp Enabled: No (USB4H00879)
Correct for Detector Non-linearity: No (USB4H00879)
Correct for Stray Light: No (USB4H00879)
Number of Pixels in Processed Spectrum: 3648
>>>>>Begin Processed Spectral Data<<<<<
345.13	1308.65
345.34	1308.65
345.56	1308.65
345.78	1255.40
345.99	1275.88
346.21	1708.01
346.42	1755.11
346.64	1585.13
346.86	1810.40
347.07	1660.90
347.29	1732.58
347.50	1640.42
347.72	1603.56
347.94	1708.01
348.15	1550.31
348.37	1595.37
348.59	1730.53
348.80	1720.29
349.02	1710.05
349.23	1812.45
349.45	1853.41
349.67	1822.69
349.88	1843.17
350.10	2004.96
350.31	1822.69
350.53	1847.27
350.75	1933.28
350.96	1804.26
351.18	1828.84
351.39	1863.65
351.61	1794.02
351.82	1822.69
352.04	1945.57
352.26	1806.31
352.47	1908.71
352.69	1918.95
352.90	1771.49
353.12	1794.02
353.34	1867.75
353.55	1886.18
353.77	1820.64
353.98	1822.69
354.20	1861.60
354.41	1978.34
354.63	1974.24
354.85	2009.06
355.06	1994.72
355.28	1826.79
355.49	1966.05
355.71	1976.29
355.92	1966.05
356.14	1851.36
356.35	1855.46
356.57	1808.36
356.79	1935.33
357.00	1861.60
357.22	2019.30
357.43	1871.84
357.65	1996.77
357.86	1882.08
358.08	1929.19
358.29	1937.38
358.51	2019.30
358.72	2002.91
358.94	1884.13
359.16	1949.67
359.37	1966.05
359.59	1914.85
359.80	1986.53
360.02	1912.80
360.23	1906.66
360.45	2007.01
360.66	1918.95
360.88	1875.94
361.09	1884.13
361.31	1947.62
361.52	1927.14
361.74	2047.97
361.95	2013.15
362.17	1966.05
362.38	2074.59
362.60	2041.82
362.81	1943.52
363.03	1984.48
363.24	1974.24
363.46	2050.02
363.67	2054.11
363.89	1947.62
364.10	2017.25
364.32	2043.87
364.53	1988.58
364.75	1990.63
364.96	2025.44
365.18	2017.25
365.39	1951.71
365.61	1964.00
365.82	2148.32
366.04	2025.44
366.25	1982.43
366.47	2099.17
366.68	2002.91
366.90	2023.39
367.11	2088.93
367.33	2084.83
367.54	2125.79
367.76	1990.63
367.97	2156.51
368.19	2029.54
368.40	2062.30
368.62	1964.00
368.83	1918.95
369.05	2068.45
369.26	1988.58
369.48	1990.63
369.69	1935.33
369.91	2123.74
370.12	2035.68
370.33	2129.89
370.55	1957.86
370.76	2027.49
370.98	2105.31
371.19	2074.59
371.41	2039.78
371.62	2066.40
371.84	1953.76
372.05	2131.94
372.27	2078.69
372.48	2045.92
372.69	2103.26
372.91	2113.50
373.12	2142.18
373.34	2064.35
373.55	2084.83
373.77	2164.70
373.98	2007.01
374.20	2215.90
374.41	2326.49
374.62	2078.69
374.84	2131.94
375.05	2119.65
375.27	2156.51
375.48	2166.75
375.70	2127.84
375.91	2138.08
376.12	2222.05
376.34	2168.80
376.55	2158.56
376.77	2179.04
376.98	2138.08
377.19	2166.75
377.41	2166.75
377.62	2273.25
377.84	2248.67
378.05	2320.35
378.27	2158.56
378.48	2336.73
378.69	2289.63
378.91	2375.64
379.12	2281.44
379.34	2242.53
379.55	2346.97
379.76	2349.02
379.98	2195.42
380.19	2279.39
380.41	2258.91
380.62	2277.34
380.83	2217.95
381.05	2232.29
381.26	2410.46
381.47	2252.77
381.69	2258.91
381.90	2340.83
382.12	2250.72
382.33	2250.72
382.54	2256.86
382.76	2273.25
382.97	2308.06
383.19	2211.81
383.40	2320.35
383.61	2293.72
383.83	2248.67
384.04	2334.68
384.25	2322.40
384.47	2392.03
384.68	2359.26
384.89	2283.49
385.11	2318.30
385.32	2346.97
385.54	2375.64
385.75	2383.84
385.96	2351.07
386.18	2322.40
386.39	2316.25
386.60	2312.16
386.82	2416.60
387.03	2451.42
387.24	2371.55
387.46	2469.85
387.67	2500.57
387.88	2525.15
388.10	2467.80
388.31	2443.23
388.52	2570.20
388.74	2420.70
388.95	2566.10
389.16	2496.47
389.38	2480.09
389.59	2625.50
389.80	2576.34
390.02	2514.91
390.23	2519.00
390.44	2486.23
390.66	2668.50
390.87	2465.75
391.08	2629.59
391.30	2557.91
391.51	2693.08
391.72	2582.49
391.94	2607.06
392.15	2494.43
392.36	2559.96
392.58	2562.01
392.79	2596.82
393.00	2674.65
393.22	2787.29
393.43	2822.10
393.64	2770.90
393.85	2654.17
394.07	2662.36
394.28	2680.79
394.49	2731.99
394.71	2770.90
394.92	2824.15
395.13	2697.17
395.35	2760.66
395.56	2742.23
395.77	2787.29
395.98	2731.99
396.20	2867.16
396.41	2897.88
396.62	2965.46
396.84	2799.57
397.05	2822.10
397.26	2967.51
397.47	2867.16
397.69	2742.23
397.90	3006.42
398.11	2949.08
398.32	2869.20
398.54	2877.40
398.75	2971.60
398.96	2959.31
399.18	3004.37
399.39	3004.37
399.60	2977.75
399.81	2940.88
400.03	2957.27
400.24	3327.95
400.45	2858.96
400.66	3135.44
400.88	3018.71
401.09	3172.30
401.30	3002.32
401.51	3065.81
401.73	3160.02
401.94	3088.34
402.15	3162.06
402.36	3041.23
402.58	3117.01
402.79	3182.54
403.00	3102.67
403.21	3172.30
403.43	3213.26
403.64	3125.20
403.85	3141.58
404.06	3131.34
404.27	3153.87
404.49	3162.06
404.70	3121.10
404.91	3268.56
405.12	3235.79
405.34	3198.93
405.55	3362.76
405.76	3086.29
405.97	3125.20
406.19	3362.76
406.40	3188.69
406.61	3235.79
406.82	3391.44
407.03	3278.80
407.25	3344.33
407.46	3319.76
407.67	3370.96
407.88	3416.01
408.09	3297.23
408.31	3280.85
408.52	3381.20
408.73	3256.27
408.94	3266.51
409.15	3459.02
409.37	3416.01
409.58	3467.21
409.79	3491.79
410.00	3438.54
410.21	3452.88
410.43	3416.01
410.64	3379.15
410.85	3456.97
411.06	3475.40
411.27	3473.36
411.48	3592.14
411.70	3428.30
411.91	3669.96
412.12	3719.11
412.33	3639.24
412.54	3504.07
412.76	3588.04
412.97	3731.40
413.18	3530.70
413.39	3561.42
413.60	3665.86
413.81	3629.00
414.03	3540.94
414.24	3551.18
414.45	3770.31
414.66	3532.75
414.87	3633.10
415.08	3594.19
415.30	3721.16
415.51	3637.19
415.72	3712.97
415.93	3760.07
416.14	3764.17
416.35	3729.35
416.56	3731.40
416.78	3710.92
416.99	3741.64
417.20	3874.76
417.41	3780.55
417.62	3882.95
417.83	3919.81
418.04	3823.56
418.26	3872.71
418.47	3841.99
418.68	3981.25
418.89	3950.53
419.10	4052.93
419.31	4077.51
419.52	4005.83
419.73	3919.81
419.95	4091.84
420.16	3932.10
420.37	3989.44
420.58	4120.51
420.79	3917.76
421.00	4061.12
421.21	4165.57
421.42	4124.61
421.63	4206.53
421.85	3999.68
422.06	4288.45
422.27	4138.94
422.48	4091.84
422.69	4167.62
422.90	4296.64
423.11	4229.06
423.32	4231.10
423.53	4325.31
423.75	4280.25
423.96	4399.04
424.17	4288.45
424.38	4476.86
424.59	4429.76
424.80	4618.17
425.01	4480.96
425.22	4372.41
425.43	4448.19
425.64	4642.75
425.85	4630.46
426.06	4495.29
426.28	4550.59
426.49	4468.67
426.70	4538.30
426.91	4493.24
427.12	4753.34
427.33	4595.64
427.54	4663.22
427.75	4745.14
427.96	4800.44
428.17	4648.89
428.38	4902.84
428.59	4822.97
428.80	4825.01
429.01	4851.64
429.23	4825.01
429.44	4876.21
429.65	4884.41
429.86	4894.65
430.07	4847.54
430.28	4755.38
430.49	5001.14
430.70	5109.68
430.91	5105.59
431.12	5033.91
431.33	5164.98
431.54	5009.33
431.75	5021.62
431.96	5062.58
432.17	5113.78
432.38	5189.55
432.59	5283.76
432.80	5185.46
433.01	5250.99
433.22	5357.49
433.43	5285.81
433.64	5171.12
433.85	5216.18
434.06	5296.05
434.27	5103.54
434.49	5357.49
434.70	5423.02
434.91	5377.97
435.12	5425.07
435.33	5339.05
435.54	5443.50
435.75	5377.97
435.96	5298.10
436.17	5298.10
436.38	5449.64
436.59	5500.84
436.80	5470.12
437.01	5812.14
437.22	5707.69
437.43	5482.41
437.64	5476.27
437.85	5752.74
438.06	5711.78
438.27	5496.75
438.48	5617.58
438.69	5724.07
438.90	5717.93
439.11	5679.02
439.32	5756.84
439.53	5859.24
439.74	5816.23
439.95	5719.98
440.16	5670.83
440.37	5679.02
440.57	5615.53
440.78	5853.09
440.99	5789.61
441.20	5836.71
441.41	5726.12
441.62	5894.05
441.83	5855.14
442.04	5973.92
442.25	5838.76
442.46	5971.88
442.67	6102.95
442.88	6373.28
443.09	5912.49
443.30	6061.99
443.51	5922.73
443.72	6367.13
443.93	6049.70
444.14	6229.92
444.35	6010.79
444.56	6154.15
444.77	6119.33
444.98	6287.26
445.19	6131.62
445.40	6109.09
445.61	6268.83
445.81	6365.09
446.02	6471.58
446.23	6317.98
446.44	6086.56
446.65	6395.81
446.86	6367.13
447.07	6373.28
447.28	6555.55
447.49	6414.24
447.70	6510.49
447.91	6483.87
448.12	6434.72
448.33	6518.68
448.54	6629.27
448.74	6557.60
448.95	6727.58
449.16	6666.14
449.37	6862.74
449.58	6758.30
449.79	6758.30
450.00	6619.04
450.21	6850.46
450.42	6938.52
450.63	6778.78
450.84	6834.07
451.05	6883.22
451.25	6811.54
451.46	6981.53
451.67	7151.51
451.88	7049.11
452.09	6971.29
452.30	6924.18
452.51	7100.31
452.72	7151.51
452.93	7395.22
453.13	7067.54
453.34	7085.97
453.55	7325.58
453.76	7174.03
453.97	7602.06
454.18	7368.59
454.39	7405.46
454.60	7327.63
454.81	7632.78
455.01	7593.87
455.22	7286.67
455.43	7464.85
455.64	7720.84
455.85	7796.62
456.06	7888.78
456.27	7868.30
456.48	7792.52
456.68	7776.14
456.89	7788.43
457.10	7853.96
457.31	8105.86
457.52	7792.52
457.73	8167.30
457.94	8167.30
458.14	7856.01
458.35	8540.03
458.56	8271.75
458.77	8159.11
458.98	8159.11
459.19	8245.12
459.39	8222.59
459.60	8415.10
459.81	8284.03
460.02	8531.84
460.23	8361.86
460.44	8918.90
460.65	8726.39
460.85	8597.37
461.06	8689.53
461.27	8441.73
461.48	8712.06
461.69	9074.55
461.89	8910.71
462.10	8968.06
462.31	8714.11
462.52	8781.69
462.73	8941.43
462.94	9056.12
463.14	9129.84
463.35	8941.43
463.56	9363.31
463.77	9377.65
463.98	9195.38
464.18	9265.01
464.39	9543.53
464.60	9709.42
464.81	9441.14
465.02	9580.40
465.23	9891.69
465.43	9551.73
465.64	9983.85
465.85	9824.11
466.06	9764.72
466.27	10145.64
466.47	9903.98
466.68	9906.02
466.89	9897.83
467.10	10100.58
467.30	9875.31
467.51	10301.28
467.72	10436.45
467.93	10090.34
468.14	10385.25
468.34	10538.85
468.55	10512.22
468.76	10520.42
468.97	10389.35
469.17	10596.19
469.38	10510.18
469.59	10841.95
469.80	10700.64
470.01	10612.57
470.21	10696.54
470.42	11091.80
470.63	10946.39
470.84	11120.47
471.04	11188.05
471.25	11300.69
471.46	11151.19
471.67	11300.69
471.87	11351.89
472.08	11337.56
472.29	11587.41
472.50	11444.05
472.70	11419.47
472.91	11700.05
473.12	11693.90
473.33	11859.79
473.53	11886.41
473.74	11884.36
473.95	11923.27
474.16	12199.75
474.36	12146.50
474.57	12271.43
474.78	12185.41
474.99	12384.07
475.19	12568.38
475.40	12623.68
475.61	12681.02
475.81	12691.26
476.02	12924.73
476.23	12691.26
476.44	12984.12
476.64	12959.55
476.85	13326.13
477.06	12941.11
477.27	13266.74
477.47	13590.32
477.68	13401.91
477.89	13524.79
478.09	13438.77
478.30	13520.69
478.51	13676.34
478.71	13735.73
478.92	13958.96
479.13	14217.00
479.34	14348.07
479.54	14178.09
479.75	14262.05
479.96	14425.89
480.16	14407.46
480.37	14556.96
480.58	14741.28
480.78	15034.14
480.99	14937.88
481.20	15091.48
481.41	15036.19
481.61	15263.51
481.82	15128.35
482.03	15017.75
482.23	15169.30
482.44	15386.39
482.65	15654.67
482.85	15785.74
483.06	15808.27
483.27	15707.92
483.47	15847.18
483.68	16068.36
483.89	15998.73
484.09	15998.73
484.30	16320.26
484.51	16148.23
484.71	16344.84
484.92	16158.47
485.13	16488.20
485.33	16418.57
485.54	16686.85
485.75	17020.67
485.95	16910.08
486.16	17147.64
486.37	17143.55
486.57	17086.20
486.78	17569.52
486.98	17319.67
487.19	17497.84
487.40	17532.66
487.60	17471.22
487.81	17512.18
488.02	17547.00
488.22	17581.81
488.43	17891.06
488.64	18067.18
488.84	18233.07
489.05	18149.10
489.25	18425.57
489.46	18573.03
489.67	18560.74
489.87	18728.67
490.08	18681.57
490.29	18835.17
490.49	19230.43
490.70	19298.01
490.90	19146.46
491.11	19066.59
491.32	19666.64
491.52	19476.18
491.73	19349.21
491.94	19506.90
492.14	19306.20
492.35	19676.88
492.55	19746.51
492.76	20106.96
492.97	20055.76
493.17	20166.35
493.38	20070.09
493.58	20496.07
493.79	20334.28
494.00	20373.19
494.20	20680.39
494.41	20403.91
494.61	20737.73
494.82	20664.00
495.02	20790.98
495.23	21167.80
495.44	21159.61
495.64	21049.02
495.85	21061.31
496.05	21442.23
496.26	21206.72
496.47	21692.08
496.67	21415.61
496.88	21872.31
497.08	21604.02
497.29	21774.00
497.49	21823.16
497.70	22120.11
497.91	22050.48
498.11	22058.67
498.32	22404.78
498.52	22349.48
498.73	22746.79
498.93	22531.75
499.14	22564.52
499.34	22539.94
499.55	22838.95
499.76	22492.84
499.96	22816.42
500.17	22974.11
500.37	23203.49
500.58	23142.05
500.78	23471.77
500.99	23514.78
501.19	23633.56
501.40	23381.66
501.60	23178.91
501.81	23518.87
502.02	23709.33
502.22	23869.08
502.43	23803.54
502.63	24004.24
502.84	23961.23
503.04	23815.83
503.25	24202.89
503.45	24118.93
503.66	24430.22
503.86	24106.64
504.07	24362.64
504.27	24381.07
504.48	25065.09
504.68	24716.93
504.89	24985.22
505.09	24952.45
505.30	24747.65
505.50	24571.53
505.71	25151.10
505.91	24923.78
506.12	25040.51
506.32	25173.63
506.53	25091.71
506.73	25542.27
506.94	25364.09
507.14	25290.37
507.35	25620.09
507.55	25302.65
507.76	25648.76
507.96	25441.92
508.17	25921.14
508.37	25869.94
508.58	25640.57
508.78	26078.83
508.99	26164.85
509.19	25726.58
509.40	26046.07
509.60	26060.40
509.81	26240.62
510.01	26111.60
510.22	26291.82
510.42	26332.78
510.63	26373.74
510.83	26537.58
511.04	26543.72
511.24	26758.76
511.44	26789.48
511.65	26760.81
511.85	26553.96
512.06	26637.93
512.26	26715.75
512.47	26723.94
512.67	26805.86
512.88	27063.91
513.08	26586.73
513.29	27334.24
513.49	27346.53
513.69	27020.90
513.90	27307.62
514.10	27289.18
514.31	27086.43
514.51	27463.26
514.72	27035.24
514.92	27311.71
515.13	27430.49
515.33	27448.93
515.53	27643.48
515.74	27661.91
515.94	27549.28
516.15	27639.39
516.35	27616.86
516.56	27823.70
516.76	27553.37
516.96	28044.88
517.17	27940.44
517.37	27952.73
517.58	28040.79
517.78	27948.63
517.99	28073.56
518.19	28216.91
518.39	28532.30
518.60	28462.67
518.80	28106.32
519.01	28229.20
519.21	28677.71
519.41	28749.39
519.62	28515.92
519.82	28601.93
520.03	28495.44
520.23	28618.32
520.43	28571.21
520.64	29029.96
520.84	29036.10
521.05	28786.25
521.25	29267.52
521.45	29212.23
521.66	29052.48
521.86	28923.46
522.07	29083.20
522.27	29406.78
522.47	29271.62
522.68	29535.81
522.88	29425.22
523.08	29568.57
523.29	29462.08
523.49	29619.77
523.70	29593.15
523.90	29863.48
524.10	29877.82
524.31	30160.44
524.51	29740.60
524.71	30238.26
524.92	29746.75
525.12	30373.42
525.33	30578.22
525.53	30400.05
525.73	30512.69
525.94	30289.46
526.14	30547.50
526.34	30752.30
526.55	30660.14
526.75	30541.36
526.95	31344.16
527.16	31061.54
527.36	31190.56
527.56	31057.45
527.77	31252.00
527.97	31204.90
528.17	31229.48
528.38	31581.73
528.58	31063.59
528.78	31491.62
528.99	31645.21
529.19	31811.10
529.39	31127.08
529.60	31917.59
529.80	31893.02
530.00	31673.88
530.21	32118.29
530.41	32071.19
530.61	31897.11
530.82	32228.88
531.02	32484.88
531.22	32359.95
531.43	32325.14
531.63	32931.34
531.83	32980.49
532.04	32976.39
532.24	32542.22
532.44	33236.48
532.64	32972.30
532.85	33312.26
533.05	33256.96
533.25	33211.91
533.46	33449.47
533.66	33570.30
533.86	33390.08
534.07	33748.48
534.27	33547.78
534.47	34092.54
534.67	34133.50
534.88	33586.69
535.08	34086.39
535.28	34246.13
535.49	34514.42
535.69	34387.44
535.89	34469.36
536.09	34641.39
536.30	34813.42
536.50	34682.35
536.70	35155.43
536.91	34901.48
537.11	35341.80
537.31	35196.39
537.51	35108.33
537.72	35442.15
537.92	35442.15
538.12	36226.52
538.32	35509.73
538.53	35616.22
538.73	35517.92
538.93	35651.04
539.13	35712.48
539.34	36134.36
539.54	35976.67
539.74	36558.29
539.94	36294.10
540.15	36185.56
540.35	36015.58
540.55	36787.66
540.75	36589.01
540.96	36685.26
541.16	36847.05
541.36	37184.97
541.56	37025.23
541.77	37479.88
541.97	37090.76
542.17	37223.88
542.37	37242.31
542.58	37449.16
542.78	37328.33
542.98	37438.92
543.18	37524.93
543.38	37912.00
543.59	37881.28
543.79	37477.83
543.99	37922.24
544.19	37850.56
544.40	38073.79
544.60	38196.67
544.80	38372.79
545.00	38241.72
545.20	38897.07
545.41	38346.17
545.61	38755.76
545.81	38661.55
546.01	38903.21
546.21	38786.48
546.42	38514.10
546.62	39167.40
546.82	39015.85
547.02	39237.03
547.22	38974.89
547.43	39009.71
547.63	39216.55
547.83	39454.12
548.03	39073.20
548.23	39374.25
548.44	39558.56
548.64	39667.11
548.84	39919.01
549.04	39370.15
549.24	40023.45
549.45	40107.42
549.65	40015.26
549.85	39914.91
550.05	40449.43
550.25	40164.76
550.45	40492.44
550.66	40428.95
550.86	40185.24
551.06	40586.64
551.26	40795.54
551.46	40727.95
551.66	40557.97
551.87	40521.11
552.07	40572.31
552.27	40924.56
552.47	40934.80
552.67	41221.52
552.87	41350.54
553.07	40979.85
553.28	41717.12
553.48	41317.77
553.68	41153.93
553.88	41287.05
554.08	41465.22
554.28	41426.31
554.48	41356.68
554.69	41555.33
554.89	41313.67
555.09	41622.92
555.29	41612.68
555.49	41659.78
555.69	41682.31
555.89	41321.87
556.10	42155.39
556.30	41913.73
556.50	41739.65
556.70	41862.53
556.90	42337.66
557.10	42605.94
557.30	41958.78
557.50	42607.99
557.70	42519.93
557.91	42681.72
558.11	42407.29
558.31	42829.17
558.51	42655.09
558.71	42249.60
558.91	42847.60
559.11	42456.44
559.31	42704.24
559.51	42548.60
559.72	43021.68
559.92	42603.89
560.12	42755.44
560.32	42972.53
560.52	42767.73
560.72	43064.69
560.92	43140.46
561.12	42986.86
561.32	43162.99
561.52	42775.92
561.72	43705.70
561.93	43410.79
562.13	42947.95
562.33	42898.80
562.53	43894.11
562.73	43234.67
562.93	43265.39
563.13	43423.08
563.33	43160.94
563.53	43496.81
563.73	43308.40
563.93	43855.20
564.13	44025.18
564.33	43373.93
564.53	43623.78
564.74	43464.04
564.94	43459.94
565.14	43517.29
565.34	43705.70
565.54	43666.79
565.74	43906.40
565.94	44217.69
566.14	43943.27
566.34	43709.80
566.54	44266.84
566.74	43816.29
566.94	43998.56
567.14	44293.47
567.34	43808.10
567.54	44367.20
567.74	43922.79
567.94	43951.46
568.14	44432.73
568.34	44512.60
568.54	43996.51
568.74	44428.63
568.94	44152.16
569.14	44512.60
569.34	44514.65
569.54	44524.89
569.75	44080.48
569.95	44365.15
570.15	44557.66
570.35	44834.13
570.55	44727.64
570.75	44524.89
570.95	44477.79
571.15	44789.08
571.35	44664.15
571.55	45108.56
571.75	44653.91
571.95	45028.69
572.15	45067.60
572.35	45016.40
572.55	44948.82
572.75	44819.80
572.95	44832.08
573.15	45135.18
573.35	44957.01
573.55	44725.59
573.75	45264.21
573.95	45342.03
574.15	44914.00
574.35	45020.50
574.55	45352.27
574.75	44885.33
574.95	45286.73
575.15	44776.79
575.34	45387.08
575.54	45352.27
575.74	45159.76
575.94	45159.76
576.14	45438.28
576.34	45686.09
576.54	45356.36
576.74	45401.42
576.94	45550.92
577.14	45430.09
577.34	46167.36
577.54	45358.41
577.74	45991.23
577.94	45649.22
578.14	46118.21
578.34	46052.67
578.54	45571.40
578.74	46146.88
578.94	46210.37
579.14	46062.91
579.34	45811.01
579.54	46245.18
579.74	46081.34
579.94	46245.18
580.13	46392.64
580.33	46112.06
580.53	46531.90
580.73	46208.32
580.93	46130.50
581.13	46024.00
581.33	46511.42
581.53	46839.09
581.73	46275.90
581.93	46558.52
582.13	46396.73
582.33	46929.20
582.53	46519.61
582.73	46949.68
582.92	46900.53
583.12	46552.38
583.32	46689.59
583.52	46349.63
583.72	47201.58
583.92	46585.15
584.12	46986.55
584.32	47121.71
584.52	47017.27
584.72	46941.49
584.92	47445.29
585.11	47494.44
585.31	47293.74
585.51	47562.03
585.71	47330.61
585.91	47433.00
586.11	47074.61
586.31	47355.18
586.51	47377.71
586.71	47232.30
586.91	47666.47
587.10	47805.73
587.30	47643.94
587.50	47985.96
587.70	47928.61
587.90	47664.42
588.10	47467.82
588.30	47676.71
588.50	47856.93
588.69	47959.33
588.89	47406.38
589.09	47990.05
589.29	48031.01
589.49	48205.09
589.69	47795.49
589.89	48114.98
590.08	48606.49
590.28	48485.66
590.48	47777.06
590.68	48157.99
590.88	48426.27
591.08	48381.21
591.28	48196.90
591.47	48631.07
591.67	48395.55
591.87	48080.16
592.07	48647.45
592.27	48801.05
592.47	48583.96
592.67	48471.32
592.86	48334.11
593.06	48661.79
593.26	49065.24
593.46	48676.12
593.66	48598.30
593.86	48872.73
594.05	48954.64
594.25	48899.35
594.45	49003.80
594.65	49026.32
594.85	48913.69
595.05	49394.96
595.24	49253.65
595.44	49276.18
595.64	49011.99
595.84	49366.29
596.04	49343.76
596.23	49427.73
596.43	49943.81
596.63	49014.04
596.83	49171.73
597.03	49888.52
597.22	50015.49
597.42	49798.41
597.62	50205.95
597.82	50195.71
598.02	49679.63
598.21	50074.88
598.41	49640.71
598.61	50076.93
598.81	50169.09
599.01	50369.79
599.20	49976.58
599.40	50486.53
599.60	50590.97
599.80	50445.57
600.00	50246.91
600.19	51133.68
600.39	50439.42
600.59	50853.11
600.79	50599.16
600.98	51244.27
601.18	51262.71
601.38	51328.24
601.58	51102.96
601.78	51016.95
601.97	51279.09
602.17	51832.04
602.37	51414.26
602.57	51748.07
602.76	51430.64
602.96	51289.33
603.16	51696.88
603.36	51172.60
603.55	51909.86
603.75	51772.65
603.95	51860.71
604.15	51776.75
604.34	51729.64
604.54	51989.73
604.74	51829.99
604.94	51852.52
605.13	52327.65
605.33	52514.01
605.53	52004.07
605.73	52583.65
605.92	52260.07
606.12	52507.87
606.32	52776.15
606.52	52577.50
606.71	52718.81
606.91	53034.20
607.11	52634.84
607.30	53079.25
607.50	52638.94
607.70	53007.58
607.90	52589.79
608.09	53011.67
608.29	53046.49
608.49	53327.06
608.68	53116.12
608.88	53286.10
609.08	53624.01
609.28	53298.39
609.47	53132.50
609.67	53640.40
609.87	53488.85
610.06	54004.94
610.26	53523.66
610.46	53757.13
610.66	53277.91
610.85	54015.18
611.05	53724.36
611.25	53882.06
611.44	53689.55
611.64	53875.91
611.84	53675.21
612.03	54275.27
612.23	53601.49
612.43	54445.25
612.62	53814.47
612.82	53734.60
613.02	54013.13
613.21	54211.78
613.41	54093.00
613.61	54131.91
613.80	53794.00
614.00	54408.39
614.20	54357.19
614.39	54371.52
614.59	54084.81
614.79	54617.28
614.98	54101.19
615.18	54351.04
615.38	54598.85
615.57	53918.92
615.77	54484.16
615.97	54246.60
616.16	54478.02
616.36	54637.76
616.56	54518.98
616.75	54678.72
616.95	54453.44
617.15	54865.08
617.34	54686.91
617.54	54678.72
617.74	54760.64
617.93	54656.19
618.13	54572.22
618.32	55010.49
618.52	54729.92
618.72	55008.44
618.91	54875.32
619.11	54410.43
619.31	54899.90
619.50	54781.12
619.70	54324.42
619.90	54770.88
620.09	54940.86
620.29	54705.34
620.48	54940.86
620.68	54990.01
620.88	54449.35
621.07	54889.66
621.27	54836.41
621.46	54598.85
621.66	54705.34
621.86	54744.25
622.05	54492.35
622.25	54994.10
622.44	55043.26
622.64	54867.13
622.84	54897.85
623.03	54830.27
623.23	54742.20
623.42	55233.72
623.62	54938.81
623.82	55145.65
624.01	54846.65
624.21	55280.82
624.40	54820.03
624.60	55286.96
624.80	54607.04
624.99	55121.08
625.19	54801.60
625.38	55354.55
625.58	54967.48
625.77	55129.27
625.97	55088.31
626.17	54486.21
626.36	54838.46
626.56	54883.51
626.75	54592.70
626.95	54840.51
627.14	55198.90
627.34	55534.77
627.54	55110.84
627.73	55280.82
627.93	55436.47
628.12	54752.44
628.32	55424.18
628.51	54998.20
628.71	54742.20
628.90	55063.74
629.10	54885.56
629.30	55223.48
629.49	55000.25
629.69	54887.61
629.88	54691.01
630.08	55315.64
630.27	55669.93
630.47	55219.38
630.66	54643.90
630.86	54910.14
631.05	54938.81
631.25	55637.17
631.44	55243.96
631.64	54691.01
631.84	55157.94
632.03	55278.77
632.23	55121.08
632.42	55377.08
632.62	55254.20
632.81	54572.22
633.01	54752.44
633.20	55303.35
633.40	55194.81
633.59	54760.64
633.79	55114.94
633.98	54910.14
634.18	55162.04
634.37	54979.77
634.57	55145.65
634.76	55618.74
634.96	55084.22
635.15	55571.63
635.35	55141.56
635.54	55071.93
635.74	55350.45
635.93	55209.14
636.13	55477.43
636.32	55071.93
636.52	54908.09
636.71	55256.24
636.91	55346.36
637.10	55575.73
637.30	55170.23
637.49	54834.36
637.69	54940.86
637.88	55755.95
638.08	55194.81
638.27	55415.99
638.46	55149.75
638.66	55289.01
638.85	54975.67
639.05	54631.61
639.24	55321.78
639.44	55157.94
639.63	55526.58
639.83	55317.68
640.02	55399.60
640.22	54764.73
640.41	55440.56
640.61	55000.25
640.80	55159.99
640.99	54908.09
641.19	55514.29
641.38	55297.20
641.58	55180.47
641.77	54983.86
641.97	55362.74
642.16	55162.04
642.36	55446.71
642.55	55665.84
642.74	55143.61
642.94	56005.80
643.13	55196.85
643.33	55348.40
643.52	55612.59
643.72	55481.52
643.91	55026.87
644.10	55442.61
644.30	55473.33
644.49	54977.72
644.69	55203.00
644.88	55194.81
645.08	54895.80
645.27	54928.57
645.46	55196.85
645.66	55704.75
645.85	54967.48
646.05	55047.35
646.24	55485.62
646.43	55014.58
646.63	55604.40
646.82	55547.06
647.02	55166.13
647.21	55135.41
647.40	55231.67
647.60	55391.41
647.79	55452.85
647.99	55385.27
648.18	55299.25
648.37	55753.90
648.57	55321.78
648.76	55295.16
648.96	54875.32
649.15	55690.41
649.34	55463.09
649.54	55309.49
649.73	55155.89
649.92	55534.77
650.12	55229.62
650.31	55157.94
650.51	55317.68
650.70	55608.50
650.89	55520.43
651.09	55674.03
651.28	55594.16
651.47	55303.35
651.67	55626.93
651.86	55473.33
652.06	54740.16
652.25	55393.46
652.44	55588.02
652.64	55551.15
652.83	54795.45
653.02	55530.67
653.22	55319.73
653.41	54965.43
653.60	54879.42
653.80	54934.71
653.99	55280.82
654.18	55078.07
654.38	55045.30
654.57	55383.22
654.76	55422.13
654.96	55475.38
655.15	55190.71
655.34	55375.03
655.54	54684.86
655.73	54852.80
655.92	55563.44
656.12	55547.06
656.31	55436.47
656.50	55694.51
656.70	54793.40
656.89	54977.72
657.08	55221.43
657.28	55260.34
657.47	55041.21
657.66	55043.26
657.86	54729.92
658.05	54926.52
658.24	55254.20
658.43	54887.61
658.63	55405.75
658.82	55612.59
659.01	55452.85
659.21	55350.45
659.40	55284.92
659.59	55090.36
659.79	55198.90
659.98	55377.08
660.17	55571.63
660.36	55375.03
660.56	55481.52
660.75	55379.12
660.94	55057.59
661.14	55461.04
661.33	55348.40
661.52	54678.72
661.71	55375.03
661.91	54912.19
662.10	55114.94
662.29	55375.03
662.49	55100.60
662.68	55409.84
662.87	54916.28
663.06	54869.18
663.26	54650.05
663.45	55555.25
663.64	55198.90
663.83	55315.64
664.03	55264.44
664.22	55415.99
664.41	55745.71
664.60	55422.13
664.80	55305.40
664.99	55526.58
665.18	55219.38
665.37	55305.40
665.57	55823.53
665.76	55239.86
665.95	55280.82
666.14	55186.61
666.34	55203.00
666.53	55065.78
666.72	54734.01
666.91	54822.08
667.11	54785.21
667.30	55487.67
667.49	55276.72
667.68	55329.97
667.87	54875.32
668.07	55080.12
668.26	55278.77
668.45	55055.54
668.64	54768.83
668.84	55659.69
669.03	55372.98
669.22	55231.67
669.41	55530.67
669.60	55227.57
669.80	54799.55
669.99	55133.37
670.18	55170.23
670.37	55170.23
670.57	55680.17
670.76	55381.17
670.95	55319.73
671.14	55088.31
671.33	54750.40
671.53	55678.13
671.72	55407.79
671.91	55047.35
672.10	55229.62
672.29	55196.85
672.48	55076.02
672.68	55833.77
672.87	55225.53
673.06	55350.45
673.25	54856.89
673.44	54877.37
673.64	55139.51
673.83	54920.38
674.02	55016.63
674.21	54877.37
674.40	54906.04
674.59	55145.65
674.79	55098.55
674.98	55135.41
675.17	55487.67
675.36	54779.07
675.55	55461.04
675.74	54973.63
675.94	54787.26
676.13	55237.81
676.32	55497.91
676.51	55354.55
676.70	55395.51
676.89	55041.21
677.08	55424.18
677.28	54891.71
677.47	55342.26
677.66	55467.19
677.85	55047.35
678.04	55628.98
678.23	55506.10
678.42	55549.10
678.62	55114.94
678.81	55473.33
679.00	55139.51
679.19	55854.25
679.38	55411.89
679.57	55061.69
679.76	55178.42
679.96	55661.74
680.15	54824.12
680.34	55250.10
680.53	55407.79
680.72	55143.61
680.91	55604.40
681.10	54842.56
681.29	55428.27
681.48	55063.74
681.68	55188.66
681.87	55149.75
682.06	55514.29
682.25	54686.91
682.44	54805.69
682.63	55424.18
682.82	54648.00
683.01	54793.40
683.20	54594.75
683.39	55289.01
683.59	55178.42
683.78	54770.88
683.97	55080.12
684.16	55215.29
684.35	54680.77
684.54	55198.90
684.73	55192.76
684.92	54760.64
685.11	54621.37
685.30	54817.98
685.49	55354.55
685.69	54959.29
685.88	54985.91
686.07	54684.86
686.26	55223.48
686.45	55129.27
686.64	55053.50
686.83	54926.52
687.02	54596.80
687.21	55153.85
687.40	55264.44
687.59	55110.84
687.78	54879.42
687.97	55561.39
688.16	55178.42
688.35	54715.58
688.54	54439.11
688.74	54582.46
688.93	54875.32
689.12	54609.09
689.31	54654.14
689.50	54787.26
689.69	54826.17
689.88	54111.43
690.07	54568.13
690.26	54740.16
690.45	55235.77
690.64	55356.60
690.83	54703.29
691.02	54572.22
691.21	54574.27
691.40	54658.24
691.59	55002.30
691.78	54441.15
691.97	55159.99
692.16	54398.15
692.35	54813.88
692.54	54891.71
692.73	54686.91
692.92	54432.96
693.11	54752.44
693.30	54473.92
693.49	54916.28
693.68	54525.12
693.87	54932.67
694.06	54527.17
694.25	54723.77
694.44	54664.38
694.63	54836.41
694.82	54973.63
695.01	54424.77
695.20	54310.08
695.39	54768.83
695.58	54781.12
695.77	54670.53
695.96	54344.90
696.15	54809.79
696.34	53873.87
696.53	54529.22
696.72	54600.89
696.91	54449.35
697.10	54377.67
697.29	54785.21
697.48	54811.84
697.67	54166.73
697.86	54066.38
698.05	54029.51
698.24	54797.50
698.43	54009.03
698.62	54277.32
698.81	54230.21
699.00	54547.65
699.19	54025.42
699.38	54518.98
699.57	54113.48
699.76	55438.51
699.95	54326.47
700.14	54150.34
700.32	54271.17
700.51	53900.49
700.70	54402.24
700.89	54437.06
701.08	54443.20
701.27	54240.45
701.46	54398.15
701.65	53869.77
701.84	54045.90
702.03	54240.45
702.22	54344.90
702.41	53941.45
702.60	54015.18
702.79	54510.78
702.98	53492.94
703.17	54248.64
703.35	53914.83
703.54	53818.57
703.73	54353.09
703.92	53925.07
704.11	53550.29
704.30	53877.96
704.49	53908.68
704.68	53415.12
704.87	53906.63
705.06	53765.32
705.25	53310.67
705.43	53253.33
705.62	53728.46
705.81	53863.63
706.00	53581.01
706.19	53167.32
706.38	53382.35
706.57	53603.53
706.76	53384.40
706.95	53460.18
707.14	53290.19
707.32	53462.22
707.51	53286.10
707.70	53232.85
707.89	53447.89
708.08	53052.63
708.27	53443.79
708.46	53456.08
708.65	53370.07
708.84	53683.40
709.02	53679.31
709.21	53511.38
709.40	52663.52
709.59	53114.07
709.78	53003.48
709.97	52862.17
710.16	53071.06
710.34	53292.24
710.53	53302.48
710.72	52813.02
710.91	52804.83
711.10	53239.00
711.29	53380.31
711.48	52466.91
711.66	52786.39
711.85	52827.35
712.04	52880.60
712.23	52880.60
712.42	52536.54
712.61	52595.93
712.80	52548.83
712.98	52522.21
713.17	52491.49
713.36	52270.31
713.55	52847.83
713.74	52622.56
713.93	52497.63
714.11	52651.23
714.30	52202.72
714.49	52167.91
714.68	52524.25
714.87	52710.62
715.06	52145.38
715.24	52368.61
715.43	51967.21
715.62	52346.08
715.81	52251.87
716.00	52215.01
716.18	51764.46
716.37	52049.13
716.56	51709.16
716.75	52163.81
716.94	51594.48
717.12	51703.02
717.31	52163.81
717.50	51807.47
717.69	51600.62
717.88	51223.79
718.06	52022.50
718.25	52108.52
718.44	51528.94
718.63	51467.50
718.82	51430.64
719.00	51340.53
719.19	50902.26
719.38	51254.51
719.57	50793.72
719.76	50738.43
719.94	50449.66
720.13	51039.48
720.32	50750.71
720.51	50588.92
720.69	50574.59
720.88	50722.04
721.07	50742.52
721.26	50763.00
721.44	50418.94
721.63	50058.50
721.82	50398.46
722.01	50500.86
722.20	50631.93
722.38	50068.74
722.57	49861.90
722.76	50445.57
722.95	49886.47
723.13	49863.94
723.32	49603.85
723.51	49831.18
723.70	49483.02
723.88	49861.90
724.07	49710.35
724.26	49720.59
724.44	48960.79
724.63	50152.71
724.82	49974.53
725.01	49235.22
725.19	49147.15
725.38	49108.24
725.57	49736.97
725.76	49354.00
725.94	48788.76
726.13	48923.93
726.32	48827.67
726.51	48481.56
726.69	49194.26
726.88	49188.11
727.07	49102.10
727.25	48944.41
727.44	48817.43
727.63	48825.62
727.82	48807.19
728.00	48919.83
728.19	48514.33
728.38	48915.73
728.56	48559.39
728.75	49071.38
728.94	48616.73
729.12	48807.19
729.31	49069.33
729.50	48993.56
729.69	49009.94
729.87	48766.23
730.06	48579.87
730.25	49052.95
730.43	48940.31
730.62	48174.37
730.81	48747.80
730.99	48758.04
731.18	48346.40
731.37	48743.70
731.55	48788.76
731.74	49214.74
731.93	48653.59
732.11	48426.27
732.30	48477.47
732.49	48461.08
732.67	48303.39
732.86	48219.42
733.05	48307.49
733.23	48053.54
733.42	48244.00
733.61	48151.84
733.79	48094.50
733.98	48215.33
734.17	48485.66
734.35	48035.11
734.54	48504.09
734.73	48311.58
734.91	48110.88
735.10	47901.99
735.29	48500.00
735.47	47869.22
735.66	48047.39
735.84	47895.85
736.03	47717.67
736.22	48313.63
736.40	47633.71
736.59	47928.61
736.78	47621.42
736.96	47674.66
737.15	47592.75
737.33	47631.66
737.52	47279.41
737.71	47430.96
737.89	47310.13
738.08	47265.07
738.27	46994.74
738.45	47308.08
738.64	47215.92
738.82	47283.50
739.01	47377.71
739.20	47322.41
739.38	47203.63
739.57	47531.31
739.75	47297.84
739.94	47662.38
740.13	46845.24
740.31	46576.95
740.50	47058.23
740.68	46937.40
740.87	46781.75
741.06	47183.15
741.24	46642.49
741.43	46523.71
741.61	46728.50
741.80	46527.80
741.99	46740.79
742.17	46515.51
742.36	46419.26
742.54	46378.30
742.73	46441.79
742.91	46456.12
743.10	46603.58
743.29	46576.95
743.47	46566.71
743.66	46323.01
743.84	46402.88
744.03	46120.26
744.21	46187.84
744.40	46619.96
744.59	46376.25
744.77	45483.34
744.96	46232.89
745.14	45860.16
745.33	46038.34
745.51	45851.97
745.70	46216.51
745.88	46021.95
746.07	45802.82
746.26	45380.94
746.44	45962.56
746.63	45602.12
746.81	46024.00
747.00	45602.12
747.18	46118.21
747.37	45524.30
747.55	45782.34
747.74	45989.19
747.92	45301.07
748.11	45430.09
748.29	45532.49
748.48	45368.65
748.66	45262.16
748.85	45247.82
749.03	45229.39
749.22	45178.19
749.41	44983.63
749.59	45227.34
749.78	45057.36
749.96	44291.42
750.15	45016.40
750.33	44834.13
750.52	44834.13
750.70	44987.73
750.89	44660.05
751.07	44567.90
751.26	44782.93
751.44	44713.30
751.63	44316.00
751.81	44445.02
752.00	44653.91
752.18	44389.72
752.37	44440.92
752.55	44533.08
752.74	44039.52
752.92	44037.47
753.10	44160.35
753.29	44203.36
753.47	44291.42
753.66	43634.02
753.84	44653.91
754.03	43994.46
754.21	43804.00
754.40	43709.80
754.58	43922.79
754.77	43793.76
754.95	43623.78
755.14	43670.89
755.32	43699.56
755.51	43580.78
755.69	43386.22
755.88	43582.82
756.06	43421.03
756.24	43349.35
756.43	43799.91
756.61	43353.45
756.80	43165.04
756.98	43279.72
757.17	43619.69
757.35	43447.66
757.54	43169.13
757.72	43466.09
757.90	43083.12
758.09	42990.96
758.27	43242.86
758.46	43023.73
758.64	42986.86
758.83	43017.58
759.01	43074.93
759.19	42947.95
759.38	43193.71
759.56	43246.96
759.75	42708.34
759.93	42591.61
760.12	42624.37
760.30	42986.86
760.48	42624.37
760.67	42499.45
760.85	42804.59
761.04	42714.48
761.22	42853.75
761.40	42605.94
761.59	42745.20
761.77	42288.51
761.96	42521.98
762.14	42255.74
762.32	42038.65
762.51	42358.14
762.69	42288.51
762.88	42202.49
763.06	42265.98
763.24	42513.78
763.43	42151.29
763.61	41858.43
763.80	41840.00
763.98	42096.00
764.16	41651.59
764.35	41559.43
764.53	41385.35
764.72	41899.39
764.90	41643.40
765.08	41399.69
765.27	41848.19
765.45	41538.95
765.63	41172.36
765.82	41506.18
766.00	41307.53
766.18	41287.05
766.37	41633.16
766.55	41362.82
766.74	41362.82
766.92	41364.87
767.10	41211.28
767.29	40963.47
767.47	40758.67
767.65	41047.44
767.84	40732.05
768.02	40684.95
768.20	40832.40
768.39	41051.53
768.57	40807.83
768.75	40684.95
768.94	40590.74
769.12	40744.34
769.30	40643.99
769.49	40469.91
769.67	40396.18
769.85	40293.79
770.04	40461.72
770.22	40398.23
770.40	40539.54
770.59	40228.25
770.77	40633.75
770.95	40283.55
771.14	39761.31
771.32	39998.88
771.50	39802.27
771.69	40103.32
771.87	40074.65
772.05	39888.29
772.24	39714.21
772.42	39990.69
772.60	39437.73
772.78	39646.63
772.97	39798.18
773.15	39679.39
773.33	39814.56
773.52	39632.29
773.70	39454.12
773.88	39742.88
774.07	39398.82
774.25	39615.91
774.43	39923.10
774.61	39853.47
774.80	39105.96
774.98	39181.74
775.16	39697.83
775.34	40119.71
775.53	39314.86
775.71	39695.78
775.89	39697.83
776.08	39853.47
776.26	40146.33
776.44	39609.76
776.62	40037.79
776.81	39923.10
776.99	40078.75
777.17	39546.28
777.35	40351.13
777.54	40478.10
777.72	39876.00
777.90	40494.49
778.08	40289.69
778.27	40326.55
778.45	40340.89
778.63	40320.41
778.81	40076.70
779.00	40439.19
779.18	40658.32
779.36	40781.20
779.54	40490.39
779.73	40017.31
779.91	40172.96
780.09	40687.00
780.27	40459.67
780.46	40385.94
780.64	40451.48
780.82	40197.53
781.00	40222.11
781.19	40504.73
781.37	41022.86
781.55	40689.04
781.73	41012.62
781.91	40791.44
782.10	40381.85
782.28	40373.66
782.46	41065.87
782.64	40992.14
782.82	40826.26
783.01	40824.21
783.19	41399.69
783.37	41026.96
783.55	40560.02
783.74	40850.83
783.92	40785.30
784.10	40918.42
784.28	40869.26
784.46	40721.81
784.64	40682.90
784.83	40885.65
785.01	41092.49
785.19	40904.08
785.37	41313.67
785.55	40899.98
785.74	40385.94
785.92	40506.77
786.10	40752.53
786.28	40949.14
786.46	40641.94
786.64	40324.50
786.83	40617.36
787.01	40869.26
787.19	40717.71
787.37	41029.01
787.55	40707.47
787.74	40336.79
787.92	40785.30
788.10	40285.59
788.28	40347.03
788.46	40899.98
788.64	40029.60
788.82	40531.35
789.01	40199.58
789.19	40187.29
789.37	40609.17
789.55	40596.88
789.73	40238.49
789.91	40242.59
790.09	40269.21
790.28	40109.47
790.46	39794.08
790.64	39757.22
790.82	39957.92
791.00	39781.79
791.18	39660.96
791.36	39433.64
791.55	40041.88
791.73	39384.49
791.91	39591.33
792.09	39376.30
792.27	39617.96
792.45	39321.00
792.63	39505.32
792.81	39108.01
793.00	39196.07
793.18	39298.47
793.36	38911.41
793.54	38794.67
793.72	38899.12
793.90	38626.74
794.08	38839.73
794.26	39110.06
794.44	38444.47
794.62	38542.77
794.81	38520.24
794.99	38182.33
795.17	38258.10
795.35	38133.18
795.53	38090.17
795.71	38553.01
795.89	38008.25
796.07	38237.62
796.25	37854.65
796.43	37629.38
796.61	37711.30
796.80	37455.30
796.98	37823.93
797.16	37416.39
797.34	37670.34
797.52	37342.66
797.70	37465.54
797.88	37148.11
798.06	37344.71
798.24	37289.42
798.42	36935.12
798.60	36998.60
798.78	36920.78
798.96	36906.44
799.14	36896.20
799.32	36992.46
799.51	36738.51
799.69	36656.59
799.87	36718.03
800.05	36521.43
800.23	36699.60
800.41	36212.18
800.59	36328.92
800.77	36300.25
800.95	35747.29
801.13	36058.59
801.31	35849.69
801.49	36240.86
801.67	35800.54
801.85	35915.23
802.03	35526.11
802.21	35677.66
802.39	35544.55
802.57	35579.36
802.75	35263.97
802.93	35583.46
803.11	35259.88
803.29	35180.01
803.47	34780.65
803.65	35139.05
803.83	35159.53
804.01	35296.74
804.19	34657.78
804.37	34559.47
804.55	34858.48
804.73	34549.23
804.91	34420.21
805.09	34694.64
805.27	34190.84
805.45	34424.31
805.63	34754.03
805.81	34588.14
805.99	34518.51
806.17	34526.71
806.35	34450.93
806.53	33988.09
806.71	34248.18
806.89	34420.21
807.07	34170.36
807.25	34067.96
807.43	33674.75
807.61	34063.86
807.79	33453.57
807.97	33373.70
808.15	33676.80
808.33	33480.19
808.51	33504.77
808.69	33426.95
808.87	32869.90
809.05	33099.27
809.23	33375.75
809.41	32689.68
809.59	32933.39
809.77	33234.44
809.95	32929.29
810.13	33099.27
810.31	32761.36
810.49	32812.56
810.67	32663.05
810.84	32421.39
811.02	32783.88
811.20	32669.20
811.38	32675.34
811.56	32192.02
811.74	32450.06
811.92	32142.87
812.10	32005.66
812.28	32572.94
812.46	32349.71
812.64	32284.18
812.82	31880.73
813.00	31761.95
813.18	32081.43
813.36	32065.05
813.53	31704.60
813.71	31817.24
813.89	31882.78
814.07	31784.48
814.25	31684.12
814.43	31479.33
814.61	31417.89
814.79	31569.44
814.97	31569.44
815.15	31596.06
815.33	31014.44
815.50	31209.00
815.68	31295.01
815.86	31237.67
816.04	31120.93
816.22	31114.79
816.40	31012.39
816.58	30715.44
816.76	30807.59
816.94	30582.32
817.11	30836.27
817.29	30787.11
817.47	30492.21
817.65	30754.35
817.83	30678.57
818.01	30258.74
818.19	30613.04
818.37	30748.20
818.54	30543.41
818.72	30258.74
818.90	30754.35
819.08	30094.90
819.26	30340.66
819.44	29961.78
819.62	29890.10
819.80	30281.27
819.97	29972.02
820.15	29754.94
820.33	29853.24
820.51	30023.22
820.69	29570.62
820.87	29720.12
821.05	29748.79
821.22	29468.22
821.40	29627.96
821.58	29709.88
821.76	29681.21
821.94	29306.43
822.12	29259.33
822.29	29519.42
822.47	29165.12
822.65	29613.63
822.83	29259.33
823.01	29312.58
823.19	29083.20
823.36	29048.39
823.54	28866.12
823.72	29316.67
823.90	29222.47
824.08	28786.25
824.25	29150.79
824.43	28812.87
824.61	28995.14
824.79	28702.28
824.97	28434.00
825.15	28786.25
825.32	28945.99
825.50	28565.07
825.68	28380.75
825.86	28808.78
826.04	28733.00
826.21	28354.13
826.39	28565.07
826.57	28290.64
826.75	28614.22
826.93	27969.11
827.10	27868.76
827.28	28532.30
827.46	28517.96
827.64	28055.12
827.81	27991.64
827.99	28268.11
828.17	27924.05
828.35	27866.71
828.53	28014.16
828.70	28003.92
828.88	27897.43
829.06	28071.51
829.24	28180.05
829.41	27934.29
829.59	27917.91
829.77	27860.57
829.95	27958.87
830.12	27608.67
830.30	27506.27
830.48	27934.29
830.66	27248.22
830.84	27655.77
831.01	27280.99
831.19	27477.60
831.37	27434.59
831.55	27504.22
831.72	27467.36
831.90	27598.43
832.08	27278.94
832.25	27182.69
832.43	27061.86
832.61	26994.28
832.79	27115.11
832.96	27147.87
833.14	26881.64
833.32	27039.33
833.50	26963.56
833.67	26758.76
833.85	26998.37
834.03	26572.39
834.20	26826.34
834.38	26658.41
834.56	26687.08
834.74	26691.18
834.91	26783.34
835.09	26664.55
835.27	26287.73
835.44	26654.31
835.62	26136.18
835.80	26244.72
835.98	26539.63
836.15	26642.03
836.33	26449.52
836.51	26431.08
836.68	26420.84
836.86	26183.28
837.04	26326.64
837.21	26218.10
837.39	26181.23
837.57	26467.95
837.75	26312.30
837.92	25691.77
838.10	26062.45
838.28	25554.55
838.45	25622.14
838.63	25810.55
838.81	25716.34
838.98	25697.91
839.16	25595.51
839.34	25794.17
839.51	25566.84
839.69	25349.76
839.87	25454.20
840.04	25540.22
840.22	25605.75
840.40	25702.01
840.57	25058.95
840.75	25128.58
840.93	25316.99
841.10	25523.83
841.28	25351.81
841.46	25083.52
841.63	25607.80
841.81	25308.80
841.98	25321.09
842.16	25380.48
842.34	24950.40
842.51	24809.09
842.69	25513.59
842.87	25013.89
843.04	24938.12
843.22	24800.90
843.40	25058.95
843.57	24620.68
843.75	25060.99
843.92	24772.23
844.10	24344.20
844.28	24897.16
844.45	24778.37
844.63	24784.52
844.81	24553.10
844.98	24733.32
845.16	24465.03
845.33	24657.54
845.51	24710.79
845.69	24639.11
845.86	24282.77
846.04	24182.42
846.21	24348.30
846.39	24239.76
846.57	24276.62
846.74	24264.33
846.92	24225.42
847.09	24270.48
847.27	23766.68
847.45	24006.29
847.62	24014.48
847.80	24223.37
847.97	24037.01
848.15	24200.85
848.32	23998.10
848.50	23699.09
848.68	23717.53
848.85	23781.01
849.03	23539.35
849.20	23809.68
849.38	23760.53
849.56	23617.18
849.73	23269.02
849.91	23828.12
850.08	23658.14
850.26	23408.28
850.43	23441.05
850.61	23545.50
850.78	23058.08
850.96	23412.38
851.14	23256.73
851.31	23512.73
851.49	23316.12
851.66	23209.63
851.84	22974.11
852.01	23189.15
852.19	22949.54
852.36	22730.41
852.54	23168.67
852.71	23117.47
852.89	22812.32
853.07	23140.00
853.24	23092.90
853.42	22886.05
853.59	22904.48
853.77	23342.75
853.94	23115.42
854.12	22761.12
854.29	23021.22
854.47	22857.38
854.64	22714.02
854.82	22714.02
854.99	22718.12
855.17	22603.43
855.34	22824.61
855.52	22881.95
855.69	22828.71
855.87	22513.32
856.04	22449.83
856.22	22466.22
856.39	22257.32
856.57	22337.20
856.74	22095.53
856.92	22445.74
857.09	21964.46
857.27	22023.86
857.44	22363.82
857.62	22058.67
857.79	22468.27
857.97	21862.07
858.14	21950.13
858.32	22294.19
858.49	22126.25
858.67	21966.51
858.84	21796.53
859.02	21630.65
859.19	21810.87
859.37	21737.14
859.54	21696.18
859.72	21929.65
859.89	21573.30
860.06	21958.32
860.24	21606.07
860.41	21958.32
860.59	21479.10
860.76	21685.94
860.94	21411.51
861.11	21524.15
861.29	21589.69
861.46	21614.26
861.64	21458.62
861.81	21427.90
861.98	21257.92
862.16	21153.47
862.33	21022.40
862.51	20903.62
862.68	21216.96
862.86	20934.34
863.03	21169.85
863.21	20868.80
863.38	20829.89
863.55	20836.03
863.73	20995.78
863.90	20852.42
864.08	21065.41
864.25	21159.61
864.43	21057.21
864.60	20688.58
864.77	20586.18
864.95	20864.71
865.12	20561.61
865.30	20831.94
865.47	20387.53
865.64	20670.15
865.82	20686.53
865.99	20838.08
866.17	20473.54
866.34	20549.32
866.51	20195.02
866.69	20348.62
866.86	20659.91
867.04	20504.26
867.21	20293.32
867.38	20270.79
867.56	20254.41
867.73	20170.44
867.91	20109.01
868.08	19973.84
868.25	20033.23
868.43	19943.12
868.60	19746.51
868.78	19713.75
868.95	20041.42
869.12	19789.52
869.30	19801.81
869.47	19711.70
869.64	19637.97
869.82	19730.13
869.99	19707.60
870.16	19834.58
870.34	20029.13
870.51	19830.48
870.69	19449.56
870.86	19744.47
871.03	19871.44
871.21	19500.76
871.38	19545.81
871.55	19404.50
871.73	19269.34
871.90	19302.11
872.07	18986.72
872.25	19085.02
872.42	19097.31
872.59	19271.39
872.77	19132.12
872.94	18947.81
873.11	18978.53
873.29	19111.64
873.46	18945.76
873.63	19025.63
873.81	18802.40
873.98	18845.41
874.15	18542.31
874.33	18495.21
874.50	18261.74
874.67	18568.93
874.85	18452.20
875.02	18499.30
875.19	18370.28
875.37	18282.22
875.54	18288.36
875.71	18290.41
875.88	18151.15
876.06	18472.68
876.23	18312.94
876.40	18310.89
876.58	18034.41
876.75	18022.12
876.92	18052.84
877.10	17712.88
877.27	17897.20
877.44	17733.36
877.61	18003.69
877.79	17915.63
877.96	18007.79
878.13	17753.84
878.31	17346.30
878.48	17759.98
878.65	17719.03
878.82	17573.62
879.00	17532.66
879.17	17471.22
879.34	17477.37
879.51	17622.77
879.69	17534.71
879.86	17219.32
880.03	17354.49
880.21	17174.27
880.38	17370.87
880.55	17450.74
880.72	17317.62
880.90	17215.23
881.07	17243.90
881.24	17055.48
881.41	17250.04
881.59	16932.61
881.76	17075.96
881.93	17082.11
882.10	17131.26
882.28	16766.72
882.45	16987.90
882.62	16942.85
882.79	16828.16
882.96	16838.40
883.14	17295.10
883.31	16891.65
883.48	16670.47
883.65	16875.26
883.83	16826.11
884.00	16639.75
884.17	16656.13
884.34	16666.37
884.51	16621.31
884.69	16598.79
884.86	16396.04
885.03	16494.34
885.20	16488.20
885.38	16533.25
885.55	16484.10
885.72	16512.77
885.89	16275.21
886.06	16486.15
886.24	16314.12
886.41	16049.93
886.58	16414.47
886.75	16674.56
886.92	16264.97
887.10	16330.50
887.27	16170.76
887.44	16205.58
887.61	16420.61
887.78	16090.89
887.95	16367.37
888.13	16027.40
888.30	16211.72
888.47	16072.46
888.64	16088.84
888.81	15937.29
888.99	16181.00
889.16	15974.16
889.33	15802.13
889.50	15650.58
889.67	15736.59
889.84	15857.42
890.01	15951.63
890.19	15736.59
890.36	16006.92
890.53	15884.05
890.70	15525.65
890.87	15718.16
891.04	15601.43
891.22	15875.85
891.39	15488.79
891.56	15552.27
891.73	15679.25
891.90	15435.54
892.07	15255.32
892.24	15499.03
892.42	15548.18
892.59	15652.63
892.76	15427.35
892.93	15214.36
893.10	15462.16
893.27	15296.28
893.44	15322.90
893.61	15238.94
893.79	15314.71
893.96	15382.29
894.13	15386.39
894.30	15212.31
894.47	15595.28
894.64	15349.53
894.81	15212.31
894.98	15230.74
895.15	15085.34
895.33	15224.60
895.50	14982.94
895.67	15320.85
895.84	15230.74
896.01	14944.03
896.18	15101.72
896.35	14997.28
896.52	15087.39
896.69	15142.68
896.86	14880.54
897.04	15152.92
897.21	15071.00
897.38	14970.65
897.55	14905.12
897.72	15185.69
897.89	15177.50
898.06	15044.38
898.23	14933.79
898.40	14933.79
898.57	15091.48
898.74	15017.75
898.91	15011.61
899.08	15007.52
899.26	14921.50
899.43	14860.06
899.60	15079.19
899.77	15177.50
899.94	14780.19
900.11	14864.16
900.28	14878.49
900.45	14984.99
900.62	14845.73
900.79	14829.34
900.96	14962.46
901.13	14989.08
901.30	14937.88
901.47	14935.84
901.64	14880.54
901.81	14890.78
901.98	14896.92
902.15	14948.12
902.32	14815.01
902.49	14845.73
902.66	15150.87
902.83	14876.44
903.01	14894.88
903.18	14858.01
903.35	14769.95
903.52	14653.22
903.69	14868.25
903.86	14778.14
904.03	15038.23
904.20	15058.71
904.37	15114.01
904.54	14991.13
904.71	14608.16
904.88	15042.33
905.05	14761.76
905.22	14993.18
905.39	14941.98
905.56	14946.08
905.73	14767.90
905.90	14675.74
906.07	14661.41
906.24	14974.75
906.41	14579.49
906.58	14583.59
906.75	14606.11
906.92	14710.56
907.09	14786.33
907.26	14794.53
907.43	14667.55
907.60	14688.03
907.77	15021.85
907.93	14812.96
908.10	14669.60
908.27	14982.94
908.44	14597.92
908.61	14585.63
908.78	14776.09
908.95	14647.07
909.12	14405.41
909.29	14769.95
909.46	14499.62
909.63	14794.53
909.80	14520.10
909.97	14683.94
910.14	14524.19
910.31	14331.69
910.48	14550.82
910.65	14642.98
910.82	14425.89
910.99	14540.58
911.16	14671.65
911.33	14659.36
911.50	14561.06
911.66	14446.37
911.83	14544.67
912.00	14188.33
912.17	14286.63
912.34	14274.34
912.51	14313.25
912.68	14376.74
912.85	14206.76
913.02	14157.61
913.19	14167.85
913.36	14214.95
913.53	14176.04
913.70	14012.20
913.86	14395.17
914.03	14249.77
914.20	14155.56
914.37	14358.31
914.54	14214.95
914.71	14139.18
914.88	14053.16
915.05	13997.87
915.22	14012.20
915.39	14004.01
915.55	13879.08
915.72	13874.99
915.89	13766.45
916.06	13743.92
916.23	13795.12
916.40	13780.78
916.57	13696.82
916.74	13705.01
916.91	13352.76
917.07	13514.55
917.24	13438.77
917.41	13471.54
917.58	13551.41
917.75	13420.34
917.92	13195.06
918.09	13283.13
918.26	13336.37
918.42	13453.11
918.59	13160.25
918.76	13115.19
918.93	13037.37
919.10	13160.25
919.27	13178.68
919.44	13215.54
919.60	12984.12
919.77	13125.43
919.94	12885.82
920.11	12973.88
920.28	12975.93
920.45	12848.96
920.61	12971.83
920.78	12814.14
920.95	12906.30
921.12	12709.69
921.29	12525.38
921.46	12693.31
921.62	12433.22
921.79	12713.79
921.96	12562.24
922.13	12517.18
922.30	12590.91
922.47	12418.88
922.63	12267.33
922.80	12433.22
922.97	12087.11
923.14	12169.03
923.31	12281.67
923.47	12181.32
923.64	12089.16
923.81	11984.71
923.98	12107.59
924.15	12087.11
924.32	11997.00
924.48	11970.38
924.65	12072.78
924.82	11837.26
924.99	11726.67
925.15	11568.98
925.32	11827.02
925.49	11523.92
925.66	11722.57
925.83	11609.93
925.99	11648.85
926.16	11564.88
926.33	11741.00
926.50	11171.67
926.67	11435.86
926.83	11312.98
927.00	11384.66
927.17	11188.05
927.34	11040.60
927.50	11095.89
927.67	11255.64
927.84	11056.98
928.01	10940.25
928.17	10852.19
928.34	11046.74
928.51	10837.85
928.68	10909.53
928.84	10772.32
929.01	10741.60
929.18	10567.52
929.35	10618.72
929.51	10557.28
929.68	10422.11
929.85	10432.35
930.02	10456.93
930.18	10379.11
930.35	10463.07
930.52	10303.33
930.69	10424.16
930.85	10399.59
931.02	10280.80
931.19	10202.98
931.36	10170.21
931.52	10184.55
931.69	10106.73
931.86	10039.14
932.02	9998.18
932.19	9981.80
932.36	9842.54
932.53	9836.39
932.69	9525.10
932.86	9834.35
933.03	9531.25
933.19	9553.77
933.36	9578.35
933.53	9723.76
933.70	9580.40
933.86	9654.12
934.03	9488.24
934.20	9324.40
934.36	9541.49
934.53	9275.25
934.70	8990.58
934.86	9250.67
935.03	9117.56
935.20	8996.73
935.36	9015.16
935.53	8877.94
935.70	8861.56
935.86	8765.31
936.03	8773.50
936.20	8576.89
936.36	8560.51
936.53	8484.73
936.70	8548.22
936.86	8363.90
937.03	8198.02
937.20	8075.14
937.36	8204.16
937.53	7952.26
937.70	7747.47
937.86	7925.64
938.03	7810.95
938.20	7954.31
938.36	7710.60
938.53	7561.10
938.70	7309.20
938.86	7507.85
939.03	7479.18
939.20	7208.85
939.36	7233.43
939.53	7227.28
939.70	7280.53
939.86	6930.33
940.03	6920.09
940.19	6743.96
940.36	6719.39
940.53	6791.06
940.69	6684.57
940.86	6614.94
941.03	6590.36
941.19	6420.38
941.36	6346.66
941.52	6434.72
941.69	6246.30
941.86	6168.48
942.02	6289.31
942.19	6107.04
942.35	6117.28
942.52	6088.61
942.69	6043.56
942.85	6021.03
943.02	5980.07
943.18	5980.07
943.35	5754.79
943.52	5724.07
943.68	5791.66
943.85	5640.11
944.01	5484.46
944.18	5631.91
944.35	5662.63
944.51	5435.31
944.68	5420.97
944.84	5418.93
945.01	5406.64
945.17	5500.84
945.34	5523.37
945.51	5322.67
945.67	5459.88
945.84	5476.27
946.00	5369.77
946.17	5377.97
946.33	5390.25
946.50	5472.17
946.67	5404.59
946.83	5269.42
947.00	5459.88
947.16	5265.33
947.33	5302.19
947.49	5285.81
947.66	5339.05
947.82	5287.86
947.99	5179.31
948.16	5263.28
948.32	5269.42
948.49	5304.24
948.65	5269.42
948.82	5230.51
948.98	5294.00
949.15	5148.59
949.31	5388.21
949.48	5363.63
949.64	5291.95
949.81	5302.19
949.97	5105.59
950.14	5345.20
950.30	5273.52
950.47	5459.88
950.63	5312.43
950.80	5324.72
950.96	5359.53
951.13	5236.66
951.30	5324.72
951.46	5498.80
951.63	5451.69
951.79	5513.13
951.96	5478.32
952.12	5337.01
952.29	5484.46
952.45	5265.33
952.62	5373.87
952.78	5320.62
952.94	5433.26
953.11	5148.59
953.27	5271.47
953.44	5431.21
953.60	5355.44
953.77	5398.45
953.93	5427.12
954.10	5377.97
954.26	5357.49
954.43	5332.91
954.59	5533.61
954.76	5621.67
954.92	5347.25
955.09	5451.69
955.25	5439.40
955.42	5554.09
955.58	5517.23
955.75	5392.30
955.91	5394.35
956.07	5562.28
956.24	5384.11
956.40	5461.93
956.57	5562.28
956.73	5500.84
956.90	5578.67
957.06	5484.46
957.23	5410.73
957.39	5355.44
957.56	5572.52
957.72	5414.83
957.88	5289.90
958.05	5609.39
958.21	5623.72
958.38	5486.51
958.54	5509.04
958.71	5613.48
958.87	5603.24
959.03	5380.01
959.20	5476.27
959.36	5461.93
959.53	5408.69
959.69	5455.79
959.85	5451.69
960.02	5420.97
960.18	5498.80
960.35	5437.36
960.51	5492.65
960.68	5355.44
960.84	5377.97
961.00	5556.14
961.17	5490.60
961.33	5500.84
961.50	5474.22
961.66	5603.24
961.82	5480.36
961.99	5412.78
962.15	5367.73
962.31	5492.65
962.48	5509.04
962.64	5539.76
962.81	5412.78
962.97	5566.38
963.13	5410.73
963.30	5527.47
963.46	5423.02
963.62	5513.13
963.79	5365.68
963.95	5328.81
964.12	5590.95
964.28	5468.08
964.44	5420.97
964.61	5519.28
964.77	5492.65
964.93	5470.12
965.10	5398.45
965.26	5349.29
965.42	5420.97
965.59	5312.43
965.75	5267.38
965.92	5386.16
966.08	5328.81
966.24	5361.58
966.41	5320.62
966.57	5375.92
966.73	5271.47
966.90	5435.31
967.06	5375.92
967.22	5283.76
967.39	5273.52
967.55	5365.68
967.71	5201.84
967.88	5140.40
968.04	5179.31
968.20	5164.98
968.37	5185.46
968.53	5246.90
968.69	5210.03
968.85	5220.27
969.02	5392.30
969.18	5279.66
969.34	5179.31
969.51	5099.44
969.67	5203.89
969.83	5021.62
970.00	5308.34
970.16	5169.07
970.32	5289.90
970.48	5193.65
970.65	5197.74
970.81	5083.06
970.97	4984.76
971.14	5040.05
971.30	5152.69
971.46	5121.97
971.63	5038.00
971.79	5140.40
971.95	5009.33
972.11	5093.30
972.28	4988.85
972.44	4974.52
972.60	4904.89
972.76	5058.48
972.93	4997.04
973.09	5025.72
973.25	5025.72
973.42	4870.07
973.58	4870.07
973.74	5003.19
973.90	4945.84
974.07	4937.65
974.23	4814.77
974.39	4839.35
974.55	4810.68
974.72	4808.63
974.88	4710.33
975.04	5027.76
975.20	4779.96
975.37	4796.34
975.53	4777.91
975.69	4935.60
975.85	4739.00
976.01	4722.62
976.18	4712.38
976.34	4747.19
976.50	4886.45
976.66	4878.26
976.83	4820.92
976.99	4644.79
977.15	4722.62
977.31	4614.07
977.47	4745.14
977.64	4624.31
977.80	4620.22
977.96	4698.04
978.12	4755.38
978.29	4673.46
978.45	4669.37
978.61	4655.03
978.77	4624.31
978.93	4583.35
979.10	4636.60
979.26	4634.55
979.42	4634.55
979.58	4456.38
979.74	4599.74
979.91	4599.74
980.07	4296.64
980.23	4577.21
980.39	4517.82
980.55	4419.52
980.71	4515.77
980.88	4403.13
981.04	4458.43
981.20	4513.72
981.36	4456.38
981.52	4429.76
981.68	4388.80
981.85	4376.51
982.01	4360.13
982.17	4366.27
982.33	4358.08
982.49	4485.05
982.65	4394.94
982.82	4353.98
982.98	4304.83
983.14	4319.17
983.30	4382.65
983.46	4351.93
983.62	4286.40
983.79	4358.08
983.95	4374.46
984.11	4067.27
984.27	4249.54
984.43	4304.83
984.59	4272.06
984.75	4313.02
984.91	4149.18
985.08	4353.98
985.24	4130.75
985.40	4206.53
985.56	4118.47
985.72	4286.40
985.88	4231.10
986.04	4138.94
986.20	4046.79
986.37	4169.66
986.53	4009.92
986.69	4087.75
986.85	4032.45
987.01	4044.74
987.17	4224.96
987.33	4091.84
987.49	4057.03
987.65	4059.07
987.82	4048.83
987.98	3901.38
988.14	4052.93
988.30	4108.23
988.46	3964.87
988.62	3995.59
988.78	3899.33
988.94	4038.59
989.10	4028.35
989.26	3856.33
989.42	3872.71
989.59	3909.57
989.75	3860.42
989.91	3919.81
990.07	3786.69
990.23	3831.75
990.39	3868.61
990.55	3860.42
990.71	3772.36
990.87	3854.28
991.03	3882.95
991.19	3772.36
991.35	3796.93
991.51	3844.04
991.67	3809.22
991.83	3723.21
992.00	3686.34
992.16	3844.04
992.32	3821.51
992.48	3876.80
992.64	3600.33
992.80	3786.69
992.96	3735.50
993.12	3784.65
993.28	3809.22
993.44	3735.50
993.60	3651.53
993.76	3676.10
993.92	3696.58
994.08	3749.83
994.24	3780.55
994.40	3518.41
994.56	3755.97
994.72	3575.75
994.88	3585.99
995.04	3657.67
995.20	3514.31
995.36	3530.70
995.52	3665.86
995.68	3563.47
995.84	3469.26
996.00	3694.54
996.16	3596.23
996.32	3444.68
996.48	3467.21
996.64	3676.10
996.80	3420.11
996.96	3416.01
997.12	3565.51
997.28	3426.25
997.44	3430.35
997.60	3450.83
997.76	3340.24
997.92	3387.34
998.08	3459.02
998.24	3338.19
998.40	3426.25
998.56	3510.22
998.72	3315.66
998.88	3452.88
999.04	3301.33
999.20	3305.42
999.36	3327.95
999.52	3409.87
999.68	3432.40
999.84	3354.57
1000.00	3309.52
1000.16	3436.49
1000.32	3243.98
1000.48	3416.01
1000.64	3268.56
1000.80	3264.46
1000.95	3256.27
1001.11	3180.50
1001.27	3198.93
1001.43	3360.72
1001.59	3160.02
1001.75	3303.37
1001.91	3233.74
1002.07	3270.61
1002.23	3104.72
1002.39	3188.69
1002.55	3276.75
1002.71	3135.44
1002.87	3174.35
1003.03	3071.95
1003.19	3133.39
1003.34	3143.63
1003.50	3024.85
1003.66	3080.14
1003.82	3252.17
1003.98	3086.29
1004.14	3108.82
1004.30	3018.71
1004.46	3051.47
1004.62	3051.47
1004.78	3004.37
1004.94	2994.13
1005.09	3119.06
1005.25	3139.54
1005.41	3045.33
1005.57	2953.17
1005.73	3055.57
1005.89	2885.59
1006.05	3119.06
1006.21	3008.47
1006.37	2918.36
1006.52	2975.70
1006.68	2861.01
1006.84	3051.47
1007.00	2875.35
1007.16	2975.70
1007.32	2881.49
1007.48	2967.51
1007.64	2838.48
1007.79	2918.36
1007.95	2904.02
1008.11	2865.11
1008.27	2826.20
1008.43	2971.60
1008.59	2842.58
1008.75	2969.55
1008.91	2822.10
1009.06	2924.50
1009.22	2807.77
1009.38	2842.58
1009.54	2959.31
1009.70	2756.57
1009.86	2856.92
1010.01	2842.58
1010.17	2650.07
1010.33	2906.07
1010.49	2746.33
1010.65	2990.03
1010.81	2711.51
1010.96	2725.85
1011.12	2750.42
1011.28	2787.29
1011.44	2797.53
1011.60	2709.46
1011.76	2660.31
1011.91	2772.95
1012.07	2641.88
1012.23	2664.41
1012.39	2678.74
1012.55	2654.17
1012.71	2684.89
1012.86	2664.41
1013.02	2648.02
1013.18	2719.70
1013.34	2715.61
1013.50	2697.17
1013.65	2670.55
1013.81	2641.88
1013.97	2557.91
1014.13	2738.13
1014.29	2596.82
1014.44	2750.42
1014.60	2510.81
1014.76	2594.78
1014.92	2600.92
1015.07	2607.06
1015.23	2502.62
1015.39	2609.11
1015.55	2498.52
1015.71	2615.26
1015.86	2543.58
1016.02	2461.66
1016.18	2428.89
1016.34	2514.91
1016.49	2504.67
1016.65	2535.39
1016.81	2510.81
1016.97	2531.29
1017.12	2531.29
1017.28	2504.67
1017.44	2379.74
1017.60	2494.43
1017.75	2480.09
1017.91	2482.14
1018.07	2475.99
1018.23	2445.27
1018.38	2416.60
1018.54	2402.27
1018.70	2320.35
1018.86	2443.23
1019.01	2392.03
1019.17	2459.61
1019.33	2482.14
1019.49	2439.13
1019.64	2506.71
1019.80	2412.51
1019.96	2406.36
1020.12	2494.43
1020.27	2277.34
1020.43	2379.74
1020.59	2355.16
1020.74	2396.12
1020.90	2375.64
1021.06	2416.60
1021.22	2394.08
1021.37	2428.89
1021.53	2357.21
1021.69	2353.12
1021.84	2322.40
1022.00	2404.32
1022.16	2275.29
1022.31	2369.50
1022.47	2332.64
1022.63	2355.16
1022.79	2306.01
1022.94	2230.24
1023.10	2308.06
1023.26	2299.87
1023.41	2191.33
1023.57	2287.58
1023.73	2322.40
1023.88	2211.81
1024.04	2222.05
1024.20	2133.98
1024.35	2232.29
1024.51	2263.01
1024.67	2226.14
1024.82	2297.82
1024.98	2187.23
1025.14	2240.48
1025.29	2183.13
1025.45	2215.90
1025.61	2076.64
1025.76	2269.15
1025.92	2275.29
1026.08	2254.81
1026.23	2195.42
1026.39	2232.29
1026.55	2277.34
1026.70	2156.51
1026.86	2133.98
1027.02	2215.90
1027.17	2197.47
1027.33	2240.48
1027.48	2150.37
1027.64	2195.42
1027.80	2201.57
1027.95	2197.47
1028.11	2017.25
1028.27	2123.74
1028.42	2207.71
1028.58	2131.94
1028.73	2109.41
1028.89	2054.11
1029.05	2197.47
1029.20	2117.60
>>>>>End Processed Spectral Data<<<<<
