SpectraSuite Data File
++++++++++++++++++++++++++++++++++++
Date: Fri Jun 02 14:49:30 CEST 2017
User: INFO_000
Dark Spectrum Present: No
Reference Spectrum Present: No
Number of Sampled Component Spectra: 1
Spectrometers: USB4H00879
Integration Time (usec): 80000 (USB4H00879)
Spectra Averaged: 1 (USB4H00879)
Boxcar Smoothing: 0 (USB4H00879)
Correct for Electrical Dark: No (USB4H00879)
Strobe/Lamp Enabled: No (USB4H00879)
Correct for Detector Non-linearity: No (USB4H00879)
Correct for Stray Light: No (USB4H00879)
Number of Pixels in Processed Spectrum: 3648
>>>>>Begin Processed Spectral Data<<<<<
345.13	1261.55
345.34	1261.55
345.56	1261.55
345.78	1310.70
345.99	1355.76
346.21	1736.68
346.42	1648.61
346.64	1656.81
346.86	1775.59
347.07	1654.76
347.29	1687.53
347.50	1648.61
347.72	1716.20
347.94	1802.21
348.15	1589.22
348.37	1566.70
348.59	1652.71
348.80	1669.09
349.02	1755.11
349.23	1843.17
349.45	1798.12
349.67	1902.56
349.88	1863.65
350.10	1955.81
350.31	1804.26
350.53	1779.68
350.75	1968.10
350.96	1769.44
351.18	1875.94
351.39	1857.51
351.61	1841.12
351.82	1990.63
352.04	1896.42
352.26	1847.27
352.47	1912.80
352.69	1847.27
352.90	1738.73
353.12	1929.19
353.34	1869.80
353.55	1894.37
353.77	1902.56
353.98	1757.16
354.20	1826.79
354.41	1945.57
354.63	1978.34
354.85	1972.19
355.06	1845.22
355.28	1863.65
355.49	1951.71
355.71	1871.84
355.92	1847.27
356.14	1933.28
356.35	1863.65
356.57	1861.60
356.79	1974.24
357.00	1877.99
357.22	1994.72
357.43	1906.66
357.65	1968.10
357.86	1775.59
358.08	1949.67
358.29	1935.33
358.51	1949.67
358.72	1945.57
358.94	1908.71
359.16	1986.53
359.37	1964.00
359.59	1937.38
359.80	2023.39
360.02	1953.76
360.23	1898.47
360.45	1994.72
360.66	1873.89
360.88	1976.29
361.09	1892.32
361.31	1994.72
361.52	1880.04
361.74	2060.26
361.95	2045.92
362.17	1961.95
362.38	2107.36
362.60	2004.96
362.81	2004.96
363.03	1918.95
363.24	2035.68
363.46	2101.22
363.67	2007.01
363.89	1986.53
364.10	2019.30
364.32	1964.00
364.53	1998.82
364.75	1961.95
364.96	1996.77
365.18	1984.48
365.39	1972.19
365.61	1880.04
365.82	2084.83
366.04	1990.63
366.25	1902.56
366.47	2101.22
366.68	2054.11
366.90	1949.67
367.11	2023.39
367.33	2068.45
367.54	2082.78
367.76	2011.11
367.97	2103.26
368.19	2072.54
368.40	2070.50
368.62	2000.87
368.83	2000.87
369.05	2025.44
369.26	2023.39
369.48	1925.09
369.69	2009.06
369.91	2043.87
370.12	2004.96
370.33	2103.26
370.55	1996.77
370.76	2068.45
370.98	2058.21
371.19	2052.06
371.41	1978.34
371.62	2090.98
371.84	2015.20
372.05	2164.70
372.27	2056.16
372.48	2056.16
372.69	2066.40
372.91	2066.40
373.12	2232.29
373.34	2072.54
373.55	2084.83
373.77	2168.80
373.98	2142.18
374.20	2131.94
374.41	2263.01
374.62	2082.78
374.84	2121.70
375.05	2199.52
375.27	2189.28
375.48	2277.34
375.70	2164.70
375.91	2215.90
376.12	2346.97
376.34	2189.28
376.55	2187.23
376.77	2166.75
376.98	2052.06
377.19	2166.75
377.41	2131.94
377.62	2242.53
377.84	2297.82
378.05	2271.20
378.27	2174.94
378.48	2281.44
378.69	2404.32
378.91	2316.25
379.12	2314.20
379.34	2166.75
379.55	2220.00
379.76	2336.73
379.98	2207.71
380.19	2275.29
380.41	2224.09
380.62	2265.05
380.83	2199.52
381.05	2242.53
381.26	2346.97
381.47	2205.66
381.69	2166.75
381.90	2449.37
382.12	2297.82
382.33	2283.49
382.54	2303.96
382.76	2238.43
382.97	2254.81
383.19	2289.63
383.40	2349.02
383.61	2303.96
383.83	2228.19
384.04	2314.20
384.25	2265.05
384.47	2428.89
384.68	2369.50
384.89	2342.88
385.11	2334.68
385.32	2330.59
385.54	2367.45
385.75	2371.55
385.96	2414.56
386.18	2396.12
386.39	2396.12
386.60	2275.29
386.82	2357.21
387.03	2494.43
387.24	2465.75
387.46	2432.99
387.67	2467.80
387.88	2502.62
388.10	2484.19
388.31	2590.68
388.52	2545.63
388.74	2461.66
388.95	2471.90
389.16	2394.08
389.38	2457.56
389.59	2543.58
389.80	2617.30
390.02	2605.02
390.23	2637.78
390.44	2449.37
390.66	2590.68
390.87	2592.73
391.08	2662.36
391.30	2701.27
391.51	2658.26
391.72	2629.59
391.94	2559.96
392.15	2537.43
392.36	2635.74
392.58	2643.93
392.79	2533.34
393.00	2670.55
393.22	2789.33
393.43	2756.57
393.64	2756.57
393.85	2789.33
394.07	2609.11
394.28	2752.47
394.49	2764.76
394.71	2680.79
394.92	2801.62
395.13	2721.75
395.35	2779.09
395.56	2834.39
395.77	2711.51
395.98	2828.24
396.20	2854.87
396.41	2861.01
396.62	2891.73
396.84	2797.53
397.05	2840.53
397.26	2801.62
397.47	2940.88
397.69	2854.87
397.90	2965.46
398.11	2947.03
398.32	2912.21
398.54	2795.48
398.75	2863.06
398.96	2901.97
399.18	2979.79
399.39	2990.03
399.60	3018.71
399.81	2877.40
400.03	2922.45
400.24	3246.03
400.45	2940.88
400.66	3008.47
400.88	2994.13
401.09	3102.67
401.30	3076.05
401.51	3119.06
401.73	3180.50
401.94	3192.78
402.15	3141.58
402.36	3035.09
402.58	3131.34
402.79	3143.63
403.00	3168.21
403.21	3194.83
403.43	3178.45
403.64	3321.81
403.85	3069.91
404.06	3190.74
404.27	3065.81
404.49	3057.62
404.70	3098.58
404.91	3284.94
405.12	3330.00
405.34	3147.73
405.55	3475.40
405.76	3119.06
405.97	3200.98
406.19	3330.00
406.40	3237.84
406.61	3327.95
406.82	3317.71
407.03	3262.41
407.25	3313.61
407.46	3387.34
407.67	3430.35
407.88	3330.00
408.09	3327.95
408.31	3344.33
408.52	3401.68
408.73	3235.79
408.94	3362.76
409.15	3440.59
409.37	3387.34
409.58	3475.40
409.79	3440.59
410.00	3389.39
410.21	3444.68
410.43	3438.54
410.64	3514.31
410.85	3485.64
411.06	3514.31
411.27	3545.03
411.48	3667.91
411.70	3518.41
411.91	3522.51
412.12	3688.39
412.33	3608.52
412.54	3588.04
412.76	3635.14
412.97	3635.14
413.18	3571.66
413.39	3647.43
413.60	3725.26
413.81	3674.06
414.03	3690.44
414.24	3631.05
414.45	3807.17
414.66	3432.40
414.87	3790.79
415.08	3715.02
415.30	3694.54
415.51	3721.16
415.72	3631.05
415.93	3672.01
416.14	3727.30
416.35	3704.78
416.56	3878.85
416.78	3721.16
416.99	3702.73
417.20	3798.98
417.41	3782.60
417.62	3758.02
417.83	3848.13
418.04	3878.85
418.26	3952.58
418.47	3909.57
418.68	3936.20
418.89	3944.39
419.10	4093.89
419.31	3848.13
419.52	4042.69
419.73	3985.35
419.95	4014.02
420.16	3975.11
420.37	4028.35
420.58	4048.83
420.79	3973.06
421.00	4097.99
421.21	4032.45
421.42	4089.79
421.63	4149.18
421.85	4116.42
422.06	4196.29
422.27	4069.31
422.48	4296.64
422.69	4210.62
422.90	4106.18
423.11	4294.59
423.32	4249.54
423.53	4288.45
423.75	4251.58
423.96	4444.09
424.17	4370.37
424.38	4519.87
424.59	4374.46
424.80	4468.67
425.01	4308.93
425.22	4409.28
425.43	4403.13
425.64	4483.00
425.85	4640.70
426.06	4591.55
426.28	4519.87
426.49	4460.48
426.70	4548.54
426.91	4507.58
427.12	4548.54
427.33	4657.08
427.54	4585.40
427.75	4761.53
427.96	4700.09
428.17	4714.42
428.38	4638.65
428.59	4872.12
428.80	4710.33
429.01	4667.32
429.23	4706.23
429.44	5066.67
429.65	5003.19
429.86	4941.75
430.07	4806.58
430.28	4886.45
430.49	4970.42
430.70	5035.96
430.91	4878.26
431.12	4763.58
431.33	5222.32
431.54	5105.59
431.75	5126.07
431.96	5072.82
432.17	5191.60
432.38	5101.49
432.59	5312.43
432.80	5316.53
433.01	5126.07
433.22	5339.05
433.43	5115.83
433.64	5365.68
433.85	5269.42
434.06	5267.38
434.27	5291.95
434.49	5480.36
434.70	5447.60
434.91	5435.31
435.12	5400.49
435.33	5461.93
435.54	5451.69
435.75	5328.81
435.96	5441.45
436.17	5394.35
436.38	5496.75
436.59	5613.48
436.80	5488.56
437.01	5767.08
437.22	5705.64
437.43	5636.01
437.64	5513.13
437.85	5812.14
438.06	5703.59
438.27	5593.00
438.48	5603.24
438.69	5904.29
438.90	5777.32
439.11	5726.12
439.32	5762.98
439.53	5674.92
439.74	5769.13
439.95	5973.92
440.16	5705.64
440.37	5803.94
440.57	5814.18
440.78	5916.58
440.99	6049.70
441.20	5990.31
441.41	5875.62
441.62	5961.64
441.83	5965.73
442.04	5992.36
442.25	5924.77
442.46	5975.97
442.67	6057.89
442.88	6348.70
443.09	6031.27
443.30	6137.76
443.51	6021.03
443.72	6414.24
443.93	6238.11
444.14	6590.36
444.35	6078.37
444.56	6248.35
444.77	6424.48
444.98	6258.59
445.19	6266.78
445.40	6168.48
445.61	6297.50
445.81	6576.03
446.02	6418.33
446.23	6537.12
446.44	6315.94
446.65	6455.20
446.86	6553.50
447.07	6526.88
447.28	6651.80
447.49	6565.79
447.70	6504.35
447.91	6590.36
448.12	6522.78
448.33	6748.06
448.54	6571.93
448.74	6707.10
448.95	6758.30
449.16	6612.89
449.37	7057.30
449.58	6635.42
449.79	7098.26
450.00	6657.95
450.21	6807.45
450.42	6983.57
450.63	6842.26
450.84	6856.60
451.05	6989.72
451.25	6989.72
451.46	6889.37
451.67	7112.60
451.88	7024.53
452.09	7153.55
452.30	7194.51
452.51	7131.03
452.72	7157.65
452.93	7358.35
453.13	7085.97
453.34	7085.97
453.55	7196.56
453.76	7284.62
453.97	7470.99
454.18	7479.18
454.39	7438.22
454.60	7380.88
454.81	7561.10
455.01	7622.54
455.22	7358.35
455.43	7409.55
455.64	7804.81
455.85	7767.95
456.06	7905.16
456.27	7808.90
456.48	7710.60
456.68	7825.29
456.89	8013.70
457.10	7946.12
457.31	7858.06
457.52	7843.72
457.73	8091.52
457.94	8392.58
458.14	8023.94
458.35	8275.84
458.56	8107.91
458.77	7948.17
458.98	8361.86
459.19	8200.07
459.39	8253.31
459.60	8400.77
459.81	8226.69
460.02	8574.85
460.23	8621.95
460.44	8660.86
460.65	8574.85
460.85	8675.20
461.06	8654.72
461.27	8429.44
461.48	8638.33
461.69	9052.02
461.89	8572.80
462.10	8816.51
462.31	8664.96
462.52	8843.13
462.73	9004.92
462.94	9072.50
463.14	9074.55
463.35	9062.26
463.56	9316.21
463.77	9351.03
463.98	9074.55
464.18	9267.06
464.39	9473.90
464.60	9600.88
464.81	9596.78
465.02	9391.98
465.23	9791.34
465.43	9441.14
465.64	9709.42
465.85	9641.84
466.06	9607.02
466.27	9983.85
466.47	9891.69
466.68	9961.32
466.89	9951.08
467.10	10053.48
467.30	10055.53
467.51	10082.15
467.72	10305.38
467.93	10002.28
468.14	10282.85
468.34	10356.58
468.55	10512.22
468.76	10471.26
468.97	10377.06
469.17	10577.76
469.38	10753.88
469.59	10954.58
469.80	10723.16
470.01	10831.71
470.21	10755.93
470.42	11143.00
470.63	11108.18
470.84	10911.58
471.04	11130.71
471.25	11192.15
471.46	11073.37
471.67	11677.52
471.87	11456.34
472.08	11360.08
472.29	11652.94
472.50	11415.38
472.70	11636.56
472.91	11491.15
473.12	11949.90
473.33	11939.66
473.53	12085.06
473.74	11958.09
473.95	12134.21
474.16	12334.92
474.36	12296.00
474.57	12515.14
474.78	12425.03
474.99	12558.14
475.19	12425.03
475.40	12697.41
475.61	12945.21
475.81	13152.06
476.02	13248.31
476.23	12947.26
476.44	13043.51
476.64	13383.48
476.85	13483.83
477.06	13399.86
477.27	13649.71
477.47	13518.64
477.68	13686.58
477.89	13803.31
478.09	13881.13
478.30	13860.65
478.51	13930.28
478.71	14133.03
478.92	14114.60
479.13	14315.30
479.34	14481.19
479.54	14491.43
479.75	14647.07
479.96	14690.08
480.16	14563.11
480.37	14829.34
480.58	14980.89
480.78	15236.89
480.99	15054.62
481.20	15275.80
481.41	15161.11
481.61	15398.68
481.82	15626.00
482.03	15429.40
482.23	15580.95
482.44	15800.08
482.65	15814.41
482.85	15941.39
483.06	16043.79
483.27	15992.59
483.47	16035.60
483.68	16301.83
483.89	16486.15
484.09	16174.86
484.30	16404.23
484.51	16639.75
484.71	16733.95
484.92	16535.30
485.13	16889.60
485.33	16998.14
485.54	16826.11
485.75	17407.73
485.95	17456.89
486.16	17284.86
486.37	17356.54
486.57	17303.29
486.78	17536.76
486.98	17547.00
487.19	17891.06
487.40	18161.39
487.60	18001.65
487.81	18073.32
488.02	18142.96
488.22	18163.43
488.43	18345.70
488.64	18278.12
488.84	18669.28
489.05	18691.81
489.25	18491.11
489.46	19054.30
489.67	18896.61
489.87	19185.37
490.08	18730.72
490.29	19060.45
490.49	19484.37
490.70	19252.95
490.90	19539.67
491.11	19431.13
491.32	19363.54
491.52	19390.17
491.73	19689.17
491.94	19990.22
492.14	19732.18
492.35	19967.70
492.55	20182.73
492.76	20356.81
492.97	20149.96
493.17	20436.68
493.38	20127.44
493.58	20526.79
493.79	20612.81
494.00	20643.52
494.20	20793.03
494.41	20539.08
494.61	20926.14
494.82	20950.72
495.02	20885.19
495.23	21128.89
495.44	21448.38
495.64	21190.33
495.85	21405.37
496.05	21548.73
496.26	21288.64
496.47	21610.17
496.67	21479.10
496.88	21776.05
497.08	21868.21
497.29	22288.04
497.49	21952.18
497.70	22079.15
497.91	22206.13
498.11	22494.89
498.32	22257.32
498.52	22431.40
498.73	22630.05
498.93	22419.11
499.14	22494.89
499.34	22855.33
499.55	22771.36
499.76	22648.49
499.96	22836.90
500.17	22894.24
500.37	22638.25
500.58	22990.50
500.78	22603.43
500.99	23203.49
501.19	23467.67
501.40	23398.04
501.60	23228.06
501.81	23287.45
502.02	23371.42
502.22	23479.96
502.43	23615.13
502.63	23869.08
502.84	24004.24
503.04	23889.56
503.25	23985.81
503.45	23795.35
503.66	24094.35
503.86	24002.19
504.07	24518.28
504.27	23860.88
504.48	24479.37
504.68	24411.79
504.89	24718.98
505.09	24516.23
505.30	24692.36
505.50	24682.12
505.71	24729.22
505.91	24874.63
506.12	25013.89
506.32	24792.71
506.53	24884.87
506.73	25228.93
506.94	24993.41
507.14	25220.74
507.35	25450.11
507.55	25204.35
507.76	25439.87
507.96	25505.40
508.17	25448.06
508.37	25712.25
508.58	25376.38
508.78	25751.16
508.99	26064.50
509.19	25810.55
509.40	25906.80
509.60	26019.44
509.81	26201.71
510.01	25980.53
510.22	26105.46
510.42	26119.79
510.63	26209.90
510.83	26111.60
511.04	26322.54
511.24	26177.14
511.44	26228.34
511.65	26519.15
511.85	26285.68
512.06	26574.44
512.26	26613.35
512.47	26762.86
512.67	26812.01
512.88	26797.67
513.08	26695.27
513.29	26920.55
513.49	27027.04
513.69	27209.31
513.90	26900.07
514.10	27213.41
514.31	26988.13
514.51	27362.91
514.72	26953.32
514.92	27242.08
515.13	26963.56
515.33	27407.97
515.53	27584.09
515.74	27268.70
515.94	27668.06
516.15	27586.14
516.35	27373.15
516.56	27979.35
516.76	27450.97
516.96	27821.66
517.17	27999.83
517.37	27936.34
517.58	27956.82
517.78	28112.47
517.99	28159.57
518.19	28296.78
518.39	28259.92
518.60	28452.43
518.80	28167.76
519.01	28421.71
519.21	28405.33
519.41	28931.65
519.62	28698.19
519.82	28900.94
520.03	28866.12
520.23	28862.02
520.43	29189.70
520.64	29460.03
520.84	29408.83
521.05	29220.42
521.25	29257.28
521.45	29343.30
521.66	29582.91
521.86	29591.10
522.07	29660.73
522.27	29820.47
522.47	29709.88
522.68	30115.38
522.88	30172.72
523.08	30230.07
523.29	29853.24
523.49	29929.02
523.70	30092.85
523.90	30445.10
524.10	30076.47
524.31	30486.06
524.51	30264.88
524.71	30613.04
524.92	30500.40
525.12	30887.46
525.33	30664.24
525.53	31075.88
525.73	31168.04
525.94	31182.37
526.14	30901.80
526.34	31206.95
526.55	31534.62
526.75	31223.33
526.95	31440.42
527.16	31213.09
527.36	31432.22
527.56	31956.50
527.77	31847.96
527.97	31778.33
528.17	32077.33
528.38	32437.78
528.58	32298.52
528.78	32196.12
528.99	31919.64
529.19	32648.72
529.39	32284.18
529.60	32445.97
529.80	32718.35
530.00	32335.38
530.21	32796.17
530.41	33113.61
530.61	32925.19
530.82	33256.96
531.02	33105.41
531.22	33158.66
531.43	33138.18
531.63	33342.98
531.83	33568.26
532.04	33891.83
532.24	33787.39
532.44	33764.86
532.64	33617.41
532.85	34131.45
533.05	34082.30
533.25	33981.95
533.46	34231.80
533.66	34582.00
533.86	34295.28
534.07	34788.85
534.27	34555.38
534.47	34993.64
534.67	35010.03
534.88	34647.54
535.08	34721.26
535.28	35065.32
535.49	35345.89
535.69	35493.35
535.89	35782.11
536.09	35673.57
536.30	35694.05
536.50	35616.22
536.70	35620.32
536.91	35581.41
537.11	35511.78
537.31	35814.88
537.51	35927.52
537.72	36189.66
537.92	36320.73
538.12	36621.78
538.32	36361.69
538.53	36572.63
538.73	36357.59
538.93	36570.58
539.13	36672.98
539.34	36865.49
539.54	36511.19
539.74	36849.10
539.94	36873.68
540.15	37133.77
540.35	37285.32
540.55	37025.23
540.75	36945.36
540.96	37240.26
541.16	37643.71
541.36	37207.50
541.56	37404.10
541.77	37770.69
541.97	37764.54
542.17	37764.54
542.37	37494.21
542.58	37889.47
542.78	38192.57
542.98	38071.74
543.18	38159.80
543.38	38282.68
543.59	38088.12
543.79	38102.46
543.99	38086.07
544.19	38763.95
544.40	38157.75
544.60	38591.92
544.80	38643.12
545.00	38383.03
545.20	38983.09
545.41	38645.17
545.61	38567.35
545.81	39148.97
546.01	39167.40
546.21	38940.08
546.42	38966.70
546.62	39259.56
546.82	39308.71
547.02	39220.65
547.22	39679.39
547.43	39038.38
547.63	39445.93
547.83	39456.17
548.03	39323.05
548.23	39478.69
548.44	39773.60
548.64	39439.78
548.84	39583.14
549.04	39433.64
549.24	40056.22
549.45	40215.96
549.65	39714.21
549.85	40056.22
550.05	39984.54
550.25	40248.73
550.45	40498.58
550.66	39964.06
550.86	40048.03
551.06	40594.84
551.26	40246.68
551.46	40463.77
551.66	40445.33
551.87	40281.50
552.07	40803.73
552.27	40367.51
552.47	40764.82
552.67	40357.27
552.87	40883.60
553.07	40875.41
553.28	40832.40
553.48	41010.57
553.68	40856.98
553.88	41319.82
554.08	40934.80
554.28	40615.32
554.48	40621.46
554.69	41000.33
554.89	41205.13
555.09	40717.71
555.29	41153.93
555.49	41213.32
555.69	41076.11
555.89	41457.03
556.10	41698.69
556.30	41325.96
556.50	41532.81
556.70	41719.17
556.90	41801.09
557.10	41948.54
557.30	41840.00
557.50	42106.24
557.70	41975.17
557.91	41874.82
558.11	41907.58
558.31	41962.88
558.51	42020.22
558.71	41872.77
558.91	42139.00
559.11	41721.22
559.31	42071.42
559.51	41723.27
559.72	41936.26
559.92	42071.42
560.12	42253.69
560.32	42438.01
560.52	42114.43
560.72	42630.52
560.92	42669.43
561.12	42573.17
561.32	42849.65
561.52	42493.30
561.72	42816.88
561.93	42681.72
562.13	42200.44
562.33	42554.74
562.53	42902.90
562.73	42276.22
562.93	42847.60
563.13	43261.29
563.33	43066.73
563.53	43023.73
563.73	42661.24
563.93	42710.39
564.13	43322.73
564.33	43013.49
564.53	43093.36
564.74	43175.28
564.94	42872.18
565.14	43206.00
565.34	42636.66
565.54	43144.56
565.74	43275.63
565.94	43898.21
566.14	43214.19
566.34	43222.38
566.54	43535.72
566.74	43097.45
566.94	43621.73
567.14	43605.35
567.34	43206.00
567.54	43539.82
567.74	43685.22
567.94	43595.11
568.14	43758.95
568.34	44215.65
568.54	43820.39
568.74	44268.89
568.94	44111.20
569.14	44438.87
569.34	44096.86
569.54	44143.97
569.75	43787.62
569.95	43930.98
570.15	44424.54
570.35	44338.52
570.55	44064.10
570.75	44375.39
570.95	44371.29
571.15	44483.93
571.35	44361.05
571.55	44803.41
571.75	44746.07
571.95	45008.21
572.15	44717.40
572.35	45012.31
572.55	44719.45
572.75	44750.17
572.95	44938.58
573.15	44676.44
573.35	44672.34
573.55	44875.09
573.75	44479.83
573.95	45170.00
574.15	44729.69
574.35	45284.68
574.55	45040.98
574.75	44860.76
574.95	45251.92
575.15	44991.83
575.34	45583.69
575.54	45679.94
575.74	45647.18
575.94	45911.36
576.14	45725.00
576.34	46222.65
576.54	45901.12
576.74	45917.51
576.94	45819.20
577.14	45940.04
577.34	46161.22
577.54	45786.44
577.74	46290.24
577.94	46030.15
578.14	46163.26
578.34	46423.36
578.54	46013.76
578.74	45980.99
578.94	46456.12
579.14	46372.16
579.34	46124.35
579.54	46630.20
579.74	46808.37
579.94	46636.34
580.13	46540.09
580.33	46703.93
580.53	47029.55
580.73	46767.41
580.93	47123.76
581.13	47134.00
581.33	47383.85
581.53	47232.30
581.73	47064.37
581.93	47883.56
582.13	47291.69
582.33	47502.64
582.53	47150.38
582.73	47197.49
582.92	47510.83
583.12	47842.60
583.32	47269.17
583.52	47674.66
583.72	48063.78
583.92	47623.47
584.12	47762.73
584.32	48364.83
584.52	48022.82
584.72	47945.00
584.92	48325.92
585.11	48637.21
585.31	47607.08
585.51	48225.57
585.71	48260.38
585.91	48932.12
586.11	48223.52
586.31	48495.90
586.51	48502.04
586.71	48428.32
586.91	48934.17
587.10	48872.73
587.30	48590.11
587.50	49050.90
587.70	48907.54
587.90	48915.73
588.10	48899.35
588.30	48815.38
588.50	49378.57
588.69	49354.00
588.89	49337.62
589.09	48903.45
589.29	49022.23
589.49	49620.23
589.69	49159.44
589.89	49356.05
590.08	49368.33
590.28	49456.40
590.48	49304.85
590.68	49061.14
590.88	49382.67
591.08	49507.60
591.28	49757.45
591.47	50384.13
591.67	49798.41
591.87	49720.59
592.07	50156.80
592.27	49896.71
592.47	50031.88
592.67	50048.26
592.86	50078.98
593.06	50205.95
593.26	50009.35
593.46	50033.92
593.66	50058.50
593.86	50509.05
594.05	50377.98
594.25	50507.01
594.45	50504.96
594.65	50283.78
594.85	49859.85
595.05	50599.16
595.24	50435.33
595.44	50328.83
595.64	50742.52
595.84	50433.28
596.04	50558.20
596.23	50601.21
596.43	50730.23
596.63	50394.37
596.83	50371.84
597.03	51004.66
597.22	51236.08
597.42	51299.57
597.62	51012.85
597.82	51170.55
598.02	51045.62
598.21	51447.02
598.41	51412.21
598.61	51252.47
598.81	51475.69
599.01	51797.23
599.20	51430.64
599.40	51731.69
599.60	51584.24
599.80	52061.41
600.00	51905.77
600.19	51977.45
600.39	51578.09
600.59	51500.27
600.79	51913.96
600.98	51770.60
601.18	52270.31
601.38	51752.17
601.58	51977.45
601.78	52221.16
601.97	51946.73
602.17	52434.14
602.37	52395.23
602.57	52393.18
602.76	52905.18
602.96	52092.13
603.16	52442.34
603.36	52559.07
603.55	52813.02
603.75	52948.18
603.95	52907.22
604.15	52352.23
604.34	52874.46
604.54	53073.11
604.74	52751.58
604.94	53261.52
605.13	53028.05
605.33	52884.70
605.53	52915.42
605.73	53128.41
605.92	53040.34
606.12	53155.03
606.32	53415.12
606.52	53554.38
606.71	53411.02
606.91	53529.81
607.11	53310.67
607.30	53494.99
607.50	53365.97
607.70	53292.24
607.90	53429.46
608.09	53437.65
608.29	53361.87
608.49	53576.91
608.68	53535.95
608.88	53556.43
609.08	53552.33
609.28	53507.28
609.47	53376.21
609.67	53916.87
609.87	53984.46
610.06	53673.16
610.26	53896.39
610.46	54029.51
610.66	53699.79
610.85	54072.52
611.05	53728.46
611.25	53984.46
611.44	53492.94
611.64	53693.64
611.84	53869.77
612.03	53593.29
612.23	54121.67
612.43	53828.81
612.62	53572.81
612.82	54025.42
613.02	53705.93
613.21	54267.08
613.41	53824.71
613.61	54179.01
613.80	53462.22
614.00	54105.29
614.20	53834.95
614.39	54090.95
614.59	53943.50
614.79	54265.03
614.98	53880.01
615.18	53916.87
615.38	54170.82
615.57	53845.19
615.77	54246.60
615.97	54033.61
616.16	54281.41
616.36	53902.54
616.56	54369.47
616.75	54070.47
616.95	53939.40
617.15	53806.28
617.34	54394.05
617.54	54107.33
617.74	54654.14
617.93	54672.57
618.13	53808.33
618.32	54674.62
618.52	54310.08
618.72	54316.23
618.91	54531.26
619.11	54174.92
619.31	54000.84
619.50	54348.99
619.70	53841.10
619.90	54158.53
620.09	54258.88
620.29	54236.36
620.48	53771.47
620.68	54301.89
620.88	53701.84
621.07	54056.14
621.27	54265.03
621.46	53961.93
621.66	54113.48
621.86	53787.85
622.05	53626.06
622.25	54496.45
622.44	53990.60
622.64	53705.93
622.84	54113.48
623.03	53736.65
623.23	53621.97
623.42	53884.11
623.62	53996.74
623.82	53996.74
624.01	53822.67
624.21	54326.47
624.40	54074.57
624.60	54095.05
624.80	53875.91
624.99	53593.29
625.19	53613.77
625.38	54021.32
625.58	53728.46
625.77	53896.39
625.97	53994.70
626.17	53615.82
626.36	53902.54
626.56	54162.63
626.75	53394.64
626.95	54627.52
627.14	54107.33
627.34	54097.09
627.54	54002.89
627.73	53992.65
627.93	54269.12
628.12	53511.38
628.32	54027.46
628.51	53929.16
628.71	54277.32
628.90	54043.85
629.10	53898.44
629.30	53794.00
629.49	54375.62
629.69	54224.07
629.88	54011.08
630.08	54211.78
630.27	54205.64
630.47	54138.05
630.66	54039.75
630.86	54299.84
631.05	53910.73
631.25	54127.81
631.44	54199.49
631.64	53728.46
631.84	54078.66
632.03	54332.61
632.23	54285.51
632.42	54287.56
632.62	54275.27
632.81	53998.79
633.01	53990.60
633.20	54471.87
633.40	54162.63
633.59	54152.39
633.79	53847.24
633.98	54308.04
634.18	54217.92
634.37	53972.17
634.57	54140.10
634.76	54115.53
634.96	54228.16
635.15	53961.93
635.35	54244.55
635.54	54076.61
635.74	54197.44
635.93	54039.75
636.13	54396.10
636.32	54559.94
636.52	53818.57
636.71	54277.32
636.91	54228.16
637.10	54279.36
637.30	54326.47
637.49	54795.45
637.69	54437.06
637.88	54346.95
638.08	54232.26
638.27	54498.50
638.46	54351.04
638.66	54736.06
638.85	54903.99
639.05	54396.10
639.24	54465.73
639.44	54328.52
639.63	54916.28
639.83	54555.84
640.02	54551.74
640.22	54584.51
640.41	55057.59
640.61	54244.55
640.80	54410.43
640.99	54516.93
641.19	55538.86
641.38	54461.63
641.58	54559.94
641.77	54713.53
641.97	54359.23
642.16	54926.52
642.36	54926.52
642.55	55178.42
642.74	54348.99
642.94	55628.98
643.13	54883.51
643.33	54998.20
643.52	55229.62
643.72	55317.68
643.91	55096.50
644.10	55063.74
644.30	55327.92
644.49	54940.86
644.69	55409.84
644.88	54779.07
645.08	55055.54
645.27	55262.39
645.46	55016.63
645.66	55456.95
645.85	54578.37
646.05	55393.46
646.24	55825.58
646.43	55180.47
646.63	55547.06
646.82	55571.63
647.02	55518.38
647.21	55522.48
647.40	55198.90
647.60	55821.48
647.79	55405.75
647.99	55956.65
648.18	55661.74
648.37	56040.62
648.57	55647.41
648.76	55164.09
648.96	55213.24
649.15	55907.50
649.34	56095.91
649.54	55807.15
649.73	55762.09
649.92	55557.30
650.12	55561.39
650.31	56175.78
650.51	55970.99
650.70	56013.99
650.89	55852.20
651.09	56159.40
651.28	55567.54
651.47	56263.85
651.67	55864.49
651.86	56042.66
652.06	55762.09
652.25	56229.03
652.44	55809.20
652.64	55805.10
652.83	55872.68
653.02	55542.96
653.22	56331.43
653.41	55846.06
653.60	55923.88
653.80	55561.39
653.99	56200.36
654.18	55858.35
654.38	56218.79
654.57	56186.02
654.76	55895.21
654.96	56030.38
655.15	56083.62
655.34	55798.96
655.54	55770.28
655.73	55901.36
655.92	56505.51
656.12	56515.75
656.31	56429.73
656.50	56427.68
656.70	56024.23
656.89	56022.19
657.08	56599.71
657.28	56448.16
657.47	56097.96
657.66	56609.95
657.86	56155.30
658.05	56337.57
658.24	56710.30
658.43	56075.43
658.63	56892.57
658.82	56370.34
659.01	56710.30
659.21	56765.60
659.40	56575.14
659.59	56415.40
659.79	56503.46
659.98	56710.30
660.17	56745.12
660.36	56906.91
660.56	56552.61
660.75	56556.70
660.94	56734.88
661.14	56716.45
661.33	56607.90
661.52	56040.62
661.71	56771.74
661.91	56243.37
662.10	56659.10
662.29	57029.79
662.49	56798.37
662.68	56759.45
662.87	56804.51
663.06	56425.64
663.26	56591.52
663.45	56906.91
663.64	56601.76
663.83	57138.33
664.03	56736.93
664.22	56720.54
664.41	56878.24
664.60	57085.08
664.80	57087.13
664.99	56638.62
665.18	57210.01
665.37	56736.93
665.57	56984.73
665.76	56857.76
665.95	56759.45
666.14	56878.24
666.34	56685.73
666.53	56898.72
666.72	56784.03
666.91	56771.74
667.11	56454.31
667.30	57369.75
667.49	56530.08
667.68	56595.62
667.87	56906.91
668.07	56712.35
668.26	56298.66
668.45	56657.06
668.64	56603.81
668.84	57316.50
669.03	57269.40
669.22	56882.33
669.41	56360.10
669.60	57148.57
669.80	56632.48
669.99	57072.79
670.18	56792.22
670.37	57029.79
670.57	57353.36
670.76	56951.96
670.95	57461.91
671.14	56579.23
671.33	56980.63
671.53	57031.83
671.72	56626.34
671.91	56956.06
672.10	56810.65
672.29	57111.70
672.48	56788.13
672.68	57070.75
672.87	57095.32
673.06	56878.24
673.25	56507.55
673.44	56564.90
673.64	56601.76
673.83	56722.59
674.02	56818.84
674.21	56693.92
674.40	57087.13
674.59	56882.33
674.79	56784.03
674.98	56738.97
675.17	56691.87
675.36	56411.30
675.55	56822.94
675.74	56835.23
675.94	56011.95
676.13	56571.04
676.32	56704.16
676.51	57052.31
676.70	56671.39
676.89	56720.54
677.08	57171.10
677.28	56476.83
677.47	57138.33
677.66	56908.96
677.85	56603.81
678.04	56960.15
678.23	57201.82
678.42	56726.69
678.62	56906.91
678.81	57103.51
679.00	56741.02
679.19	57324.69
679.38	56693.92
679.57	56562.85
679.76	56775.84
679.96	56990.87
680.15	56712.35
680.34	56575.14
680.53	56069.29
680.72	56599.71
680.91	56900.76
681.10	56489.12
681.29	56644.77
681.48	56376.48
681.68	56028.33
681.87	55825.58
682.06	56304.80
682.25	55909.55
682.44	55930.03
682.63	56372.39
682.82	56429.73
683.01	55798.96
683.20	55714.99
683.39	56196.26
683.59	55831.72
683.78	55758.00
683.97	56054.95
684.16	55751.85
684.35	55440.56
684.54	56016.04
684.73	55866.54
684.92	56210.60
685.11	55604.40
685.30	55970.99
685.49	56175.78
685.69	55741.61
685.88	55665.84
686.07	55665.84
686.26	55968.94
686.45	55786.67
686.64	56024.23
686.83	55995.56
687.02	55729.33
687.21	55561.39
687.40	55950.51
687.59	55958.70
687.78	55897.26
687.97	55817.39
688.16	55649.45
688.35	55565.49
688.54	55610.54
688.74	55372.98
688.93	55309.49
689.12	55583.92
689.31	55452.85
689.50	55801.00
689.69	55239.86
689.88	54785.21
690.07	55688.37
690.26	54854.84
690.45	55727.28
690.64	55604.40
690.83	54965.43
691.02	55217.33
691.21	54672.57
691.40	54930.62
691.59	55516.34
691.78	54961.34
691.97	55295.16
692.16	55008.44
692.35	55135.41
692.54	55131.32
692.73	54897.85
692.92	54903.99
693.11	55282.87
693.30	54770.88
693.49	54871.23
693.68	54752.44
693.87	55192.76
694.06	54564.03
694.25	54410.43
694.44	55039.16
694.63	54987.96
694.82	54729.92
695.01	54164.68
695.20	54467.78
695.39	54404.29
695.58	54373.57
695.77	54136.01
695.96	54240.45
696.15	54564.03
696.34	54334.66
696.53	54625.47
696.72	54418.63
696.91	54504.64
697.10	54318.28
697.29	54367.43
697.48	54863.03
697.67	54467.78
697.86	54015.18
698.05	54392.00
698.24	54418.63
698.43	53847.24
698.62	54193.35
698.81	53695.69
699.00	54525.12
699.19	53882.06
699.38	53925.07
699.57	53490.90
699.76	54023.37
699.95	53738.70
700.14	53765.32
700.32	54111.43
700.51	53802.19
700.70	53959.88
700.89	53945.54
701.08	53920.97
701.27	53419.22
701.46	53982.41
701.65	53370.07
701.84	53443.79
702.03	53634.25
702.22	53509.33
702.41	53431.50
702.60	53519.57
702.79	53548.24
702.98	52942.04
703.17	53189.84
703.35	52796.63
703.54	52933.85
703.73	53363.92
703.92	53058.77
704.11	53275.86
704.30	52815.07
704.49	52552.93
704.68	52976.86
704.87	53071.06
705.06	52282.59
705.25	52923.61
705.43	52800.73
705.62	52503.77
705.81	52475.10
706.00	52643.04
706.19	52415.71
706.38	52278.50
706.57	52712.67
706.76	52182.24
706.95	52407.52
707.14	52536.54
707.32	52282.59
707.51	51698.92
707.70	52399.33
707.89	52073.70
708.08	52073.70
708.27	52339.94
708.46	52466.91
708.65	51952.87
708.84	52788.44
709.02	52516.06
709.21	52268.26
709.40	51758.31
709.59	51836.14
709.78	51520.75
709.97	52401.38
710.16	51412.21
710.34	51987.69
710.53	52008.17
710.72	51963.11
710.91	52004.07
711.10	52296.93
711.29	52184.29
711.48	51813.61
711.66	51721.45
711.85	51764.46
712.04	51617.00
712.23	51563.76
712.42	51475.69
712.61	51459.31
712.80	51602.67
712.98	51459.31
713.17	51328.24
713.36	51305.71
713.55	51229.94
713.74	51467.50
713.93	51344.62
714.11	51422.45
714.30	51371.25
714.49	51117.30
714.68	51352.82
714.87	51094.77
715.06	51393.78
715.24	51238.13
715.43	51133.68
715.62	50920.70
715.81	50572.54
716.00	51000.57
716.18	50343.17
716.37	50199.81
716.56	50578.68
716.75	50963.70
716.94	50418.94
717.12	50316.54
717.31	50652.41
717.50	50291.97
717.69	50099.46
717.88	50742.52
718.06	50210.05
718.25	50633.98
718.44	50050.31
718.63	50472.19
718.82	50226.43
719.00	50052.36
719.19	49968.39
719.38	50085.12
719.57	49390.86
719.76	49337.62
719.94	49347.86
720.13	49804.55
720.32	49440.01
720.51	49829.13
720.69	49454.35
720.88	49394.96
721.07	49460.49
721.26	49276.18
721.44	49247.50
721.63	48950.55
721.82	49020.18
722.01	49186.07
722.20	49173.78
722.38	49198.35
722.57	48667.93
722.76	48940.31
722.95	48403.74
723.13	48809.24
723.32	48698.65
723.51	48520.48
723.70	48467.23
723.88	48835.86
724.07	48626.97
724.26	48518.43
724.44	47850.79
724.63	48395.55
724.82	48469.28
725.01	48301.34
725.19	48588.06
725.38	48551.20
725.57	48393.50
725.76	48508.19
725.94	48123.17
726.13	48114.98
726.32	47691.05
726.51	47865.13
726.69	48401.69
726.88	48254.24
727.07	48155.94
727.25	47883.56
727.44	48190.75
727.63	47775.02
727.82	47861.03
728.00	47809.83
728.19	47930.66
728.38	48215.33
728.56	47422.76
728.75	48227.62
728.94	47842.60
729.12	47791.40
729.31	48563.48
729.50	47760.68
729.69	47953.19
729.87	47797.54
730.06	47758.63
730.25	47373.61
730.43	47789.35
730.62	47289.65
730.81	47824.17
730.99	48074.02
731.18	47797.54
731.37	47910.18
731.55	47873.32
731.74	47826.21
731.93	47527.21
732.11	47897.89
732.30	47715.62
732.49	47568.17
732.67	47516.97
732.86	47893.80
733.05	47613.23
733.23	47406.38
733.42	47920.42
733.61	47306.03
733.79	47678.76
733.98	48061.73
734.17	47750.44
734.35	47557.93
734.54	48219.42
734.73	47838.50
734.91	47342.89
735.10	47482.16
735.29	47873.32
735.47	47379.76
735.66	47412.52
735.84	47453.48
736.03	46900.53
736.22	47676.71
736.40	47463.72
736.59	47392.04
736.78	47187.25
736.96	47129.90
737.15	47222.06
737.33	47029.55
737.52	47373.61
737.71	46787.89
737.89	47062.32
738.08	46959.92
738.27	47351.09
738.45	47256.88
738.64	47285.55
738.82	47056.18
739.01	47013.17
739.20	46855.48
739.38	46638.39
739.57	47222.06
739.75	47191.34
739.94	46773.56
740.13	46724.41
740.31	46988.60
740.50	47093.04
740.68	46923.06
740.87	47072.56
741.06	47101.23
741.24	46687.54
741.43	46681.40
741.61	46847.29
741.80	46777.65
741.99	46325.05
742.17	46759.22
742.36	46566.71
742.54	46220.61
742.73	46644.54
742.91	46937.40
743.10	46648.63
743.29	46929.20
743.47	46615.86
743.66	46902.58
743.84	46746.93
744.03	46374.20
744.21	46374.20
744.40	46613.82
744.59	46519.61
744.77	46458.17
744.96	46392.64
745.14	46382.40
745.33	46341.44
745.51	46138.69
745.70	46765.37
745.88	46384.44
746.07	46462.27
746.26	45604.17
746.44	46525.75
746.63	46101.82
746.81	45839.68
747.00	46071.10
747.18	46030.15
747.37	46341.44
747.55	46230.85
747.74	46490.94
747.92	45495.63
748.11	45792.58
748.29	45694.28
748.48	46110.02
748.66	45829.44
748.85	45935.94
749.03	45745.48
749.22	45727.05
749.41	45655.37
749.59	45866.31
749.78	45555.02
749.96	45806.92
750.15	45192.53
750.33	45647.18
750.52	45587.78
750.70	45659.46
750.89	45139.28
751.07	45221.20
751.26	45421.90
751.44	45083.98
751.63	45407.56
751.81	45389.13
752.00	45362.51
752.18	45188.43
752.37	45190.48
752.55	44600.66
752.74	45161.81
752.92	44647.77
753.10	44834.13
753.29	45303.12
753.47	44957.01
753.66	44748.12
753.84	45413.71
754.03	45104.46
754.21	44438.87
754.40	44760.40
754.58	44787.03
754.77	44514.65
754.95	44549.46
755.14	44668.25
755.32	44348.76
755.51	44602.71
755.69	44381.53
755.88	44141.92
756.06	44797.27
756.24	44449.11
756.43	44195.17
756.61	44518.74
756.80	44637.53
756.98	43914.59
757.17	44195.17
757.35	44152.16
757.54	44258.65
757.72	44068.19
757.90	44338.52
758.09	43926.88
758.27	44148.06
758.46	43791.72
758.64	44160.35
758.83	44232.03
759.01	44258.65
759.19	44299.61
759.38	43953.51
759.56	43797.86
759.75	44365.15
759.93	44045.66
760.12	43586.92
760.30	43918.69
760.48	43976.03
760.67	43640.17
760.85	43785.57
761.04	44121.44
761.22	43646.31
761.40	43705.70
761.59	43328.87
761.77	43423.08
761.96	43474.28
762.14	43457.90
762.32	43461.99
762.51	43316.59
762.69	43353.45
762.88	43670.89
763.06	43335.02
763.24	43459.94
763.43	43509.10
763.61	43160.94
763.80	43773.28
763.98	43222.38
764.16	43244.91
764.35	43292.01
764.53	43122.03
764.72	43156.85
764.90	42993.01
765.08	43193.71
765.27	43292.01
765.45	42730.87
765.63	42333.56
765.82	42972.53
766.00	42839.41
766.18	42685.81
766.37	42855.79
766.55	42784.12
766.74	42810.74
766.92	42515.83
767.10	42423.67
767.29	42599.80
767.47	41997.70
767.65	42315.13
767.84	41645.44
768.02	42448.25
768.20	42081.66
768.39	42462.58
768.57	42370.43
768.75	42397.05
768.94	42206.59
769.12	42120.57
769.30	42159.48
769.49	41983.36
769.67	41526.66
769.85	41743.75
770.04	41713.03
770.22	41565.57
770.40	41946.50
770.59	41702.79
770.77	41796.99
770.95	42159.48
771.14	41663.88
771.32	41538.95
771.50	41371.02
771.69	41983.36
771.87	41706.88
772.05	41123.21
772.24	41323.91
772.42	41364.87
772.60	41203.08
772.78	41323.91
772.97	41098.64
773.15	41221.52
773.33	41416.07
773.52	40867.22
773.70	41332.11
773.88	41203.08
774.07	41072.01
774.25	41198.99
774.43	41358.73
774.61	41061.77
774.80	41405.83
774.98	41477.51
775.16	41334.15
775.34	41309.58
775.53	41010.57
775.71	41364.87
775.89	41151.88
776.08	40990.09
776.26	41196.94
776.44	41309.58
776.62	40885.65
776.81	40953.23
776.99	41715.08
777.17	41006.48
777.35	41311.63
777.54	41719.17
777.72	41254.28
777.90	41321.87
778.08	41772.42
778.27	41534.85
778.45	41414.02
778.63	41776.51
778.81	41469.32
779.00	42509.69
779.18	41694.60
779.36	41813.38
779.54	41866.63
779.73	41438.60
779.91	41944.45
780.09	41682.31
780.27	41723.27
780.46	41731.46
780.64	41827.71
780.82	41600.39
781.00	41817.47
781.19	41891.20
781.37	42050.94
781.55	42009.98
781.73	42182.01
781.91	42026.37
782.10	42081.66
782.28	42493.30
782.46	42030.46
782.64	42583.41
782.82	41956.74
783.01	42438.01
783.19	42218.88
783.37	42446.20
783.55	41864.58
783.74	42390.91
783.92	42059.13
784.10	42505.59
784.28	42552.69
784.46	42304.89
784.64	41727.36
784.83	42204.54
785.01	42286.46
785.19	42358.14
785.37	42220.92
785.55	41956.74
785.74	41418.12
785.92	41713.03
786.10	41987.46
786.28	41852.29
786.46	42028.41
786.64	41842.05
786.83	41870.72
787.01	41964.93
787.19	42050.94
787.37	41524.61
787.55	41817.47
787.74	41686.40
787.92	42007.94
788.10	41497.99
788.28	41182.60
788.46	41446.79
788.64	40902.03
788.82	41772.42
789.01	41424.26
789.19	41645.44
789.37	41610.63
789.55	40973.71
789.73	41182.60
789.91	40969.61
790.09	40992.14
790.28	40967.57
790.46	40676.76
790.64	40838.54
790.82	40588.69
791.00	40701.33
791.18	40316.31
791.36	40703.38
791.55	40349.08
791.73	40402.33
791.91	40007.07
792.09	40517.01
792.27	40424.86
792.45	40474.01
792.63	40183.19
792.81	40152.48
793.00	39886.24
793.18	39880.10
793.36	39607.72
793.54	39689.63
793.72	39617.96
793.90	39509.41
794.08	39343.53
794.26	39611.81
794.44	39284.14
794.62	39523.75
794.81	39173.55
794.99	39232.94
795.17	38843.82
795.35	38825.39
795.53	39159.21
795.71	39097.77
795.89	38679.99
796.07	38557.11
796.25	38167.99
796.43	38563.25
796.61	38317.50
796.80	37727.68
796.98	38458.81
797.16	37891.52
797.34	38016.44
797.52	38036.92
797.70	38243.77
797.88	37553.60
798.06	37737.92
798.24	37809.60
798.42	37635.52
798.60	37535.17
798.78	37400.01
798.96	37721.54
799.14	37240.26
799.32	37438.92
799.51	37019.08
799.69	37168.58
799.87	37592.51
800.05	36849.10
800.23	36842.96
800.41	36859.34
800.59	36734.42
800.77	36599.25
800.95	36101.59
801.13	36369.88
801.31	36238.81
801.49	36373.97
801.67	35986.91
801.85	35870.17
802.03	35929.56
802.21	35694.05
802.39	35616.22
802.57	36060.63
802.75	35542.50
802.93	35589.60
803.11	35767.77
803.29	35489.25
803.47	35231.21
803.65	35263.97
803.83	35003.88
804.01	35241.45
804.19	34612.72
804.37	34577.90
804.55	34682.35
804.73	34704.88
804.91	34819.56
805.09	34788.85
805.27	34196.98
805.45	34661.87
805.63	34821.61
805.81	34493.94
805.99	34563.57
806.17	34622.96
806.35	34383.35
806.53	34117.11
806.71	34186.74
806.89	33828.35
807.07	33981.95
807.25	33928.70
807.43	33678.85
807.61	33865.21
807.79	33691.13
807.97	33500.67
808.15	33306.12
808.33	33357.32
808.51	32953.87
808.69	33428.99
808.87	32890.38
809.05	32820.75
809.23	33211.91
809.41	32613.90
809.59	32738.83
809.77	32726.54
809.95	32667.15
810.13	32927.24
810.31	32374.29
810.49	32771.60
810.67	32585.23
810.84	32419.35
811.02	32142.87
811.20	32257.56
811.38	32159.25
811.56	31962.65
811.74	31979.03
811.92	31813.15
812.10	32241.17
812.28	32273.94
812.46	31956.50
812.64	31747.61
812.82	31874.59
813.00	31987.22
813.18	31342.11
813.36	31626.78
813.53	31426.08
813.71	31557.15
813.89	31364.64
814.07	31483.42
814.25	31344.16
814.43	31172.13
814.61	30991.91
814.79	31133.22
814.97	30754.35
815.15	30957.10
815.33	30862.89
815.50	30791.21
815.68	30793.26
815.86	30963.24
816.04	30467.63
816.22	30217.78
816.40	30477.87
816.58	30099.00
816.76	30367.28
816.94	30512.69
817.11	30236.21
817.29	30352.94
817.47	30152.24
817.65	30223.92
817.83	30115.38
818.01	29992.50
818.19	30004.79
818.37	30182.96
818.54	29777.47
818.72	29486.65
818.90	29795.90
819.08	29789.75
819.26	29877.82
819.44	29703.74
819.62	29591.10
819.80	29146.69
819.97	29285.95
820.15	29609.53
820.33	29259.33
820.51	29361.73
820.69	28843.59
820.87	29175.36
821.05	29322.82
821.22	29064.77
821.40	29140.55
821.58	28966.47
821.76	28921.41
821.94	28745.29
822.12	29167.17
822.29	28972.61
822.47	28737.10
822.65	28761.67
822.83	28843.59
823.01	28552.78
823.19	28771.91
823.36	28364.37
823.54	28368.46
823.72	28237.39
823.90	28464.72
824.08	28460.62
824.25	28204.63
824.43	28290.64
824.61	28132.95
824.79	28495.44
824.97	28175.95
825.15	28347.98
825.32	27901.53
825.50	27901.53
825.68	27784.79
825.86	28018.26
826.04	27872.85
826.21	27948.63
826.39	27731.54
826.57	27553.37
826.75	27502.17
826.93	27455.07
827.10	27334.24
827.28	27381.34
827.46	27666.01
827.64	27186.79
827.81	27448.93
827.99	27553.37
828.17	27084.39
828.35	27010.66
828.53	27080.29
828.70	27229.79
828.88	27348.57
829.06	27170.40
829.24	27350.62
829.41	26838.63
829.59	27498.08
829.77	26803.82
829.95	26916.45
830.12	27072.10
830.30	26869.35
830.48	26963.56
830.66	26543.72
830.84	26381.93
831.01	26484.33
831.19	26752.62
831.37	26586.73
831.55	26443.37
831.72	26242.67
831.90	26218.10
832.08	26482.28
832.25	26330.73
832.43	26508.91
832.61	26338.93
832.79	25964.15
832.96	26097.27
833.14	26041.97
833.32	26486.38
833.50	26089.07
833.67	25968.24
833.85	26191.47
834.03	26052.21
834.20	26119.79
834.38	25908.85
834.56	26005.11
834.74	26023.54
834.91	25880.18
835.09	25837.17
835.27	25603.71
835.44	25607.80
835.62	25339.52
835.80	25245.31
835.98	25828.98
836.15	25962.10
836.33	25714.30
836.51	25732.73
836.68	25437.82
836.86	25462.40
837.04	25765.49
837.21	25316.99
837.39	25556.60
837.57	25468.54
837.75	25675.38
837.92	25149.06
838.10	25407.10
838.28	24821.38
838.45	25210.50
838.63	24962.69
838.81	25167.49
838.98	24983.17
839.16	24891.01
839.34	24886.92
839.51	24903.30
839.69	24698.50
839.87	24669.83
840.04	25038.47
840.22	25001.60
840.40	24704.65
840.57	24364.68
840.75	24534.67
840.93	24254.09
841.10	24372.88
841.28	24522.38
841.46	24424.08
841.63	24665.74
841.81	24503.95
841.98	24268.43
842.16	24583.82
842.34	24276.62
842.51	24190.61
842.69	24417.93
842.87	24317.58
843.04	24286.86
843.22	24303.25
843.40	23924.37
843.57	24090.26
843.75	23774.87
843.92	24397.45
844.10	24372.88
844.28	24102.54
844.45	23963.28
844.63	24143.50
844.81	24170.13
844.98	23973.52
845.16	23828.12
845.33	23707.29
845.51	24004.24
845.69	23881.36
845.86	23551.64
846.04	23596.70
846.21	23754.39
846.39	23705.24
846.57	23801.49
846.74	23373.47
846.92	23805.59
847.09	23635.61
847.27	23283.36
847.45	23346.84
847.62	23568.02
847.80	23381.66
847.97	23355.04
848.15	23318.17
848.32	23201.44
848.50	23201.44
848.68	23156.38
848.85	23047.84
849.03	22806.18
849.20	22943.39
849.38	23195.29
849.56	22959.78
849.73	22664.87
849.91	23086.75
850.08	23209.63
850.26	22838.95
850.43	23045.79
850.61	22931.11
850.78	22425.26
850.96	22531.75
851.14	22781.60
851.31	22513.32
851.49	22509.22
851.66	22552.23
851.84	22847.14
852.01	22777.51
852.19	22726.31
852.36	22460.07
852.54	22496.94
852.71	22453.93
852.89	22357.67
853.07	22572.71
853.24	22578.86
853.42	22425.26
853.59	22693.54
853.77	22488.74
853.94	22550.18
854.12	22455.98
854.29	22318.76
854.47	22382.25
854.64	22218.41
854.82	22347.44
854.99	22337.20
855.17	22214.32
855.34	22095.53
855.52	21827.25
855.69	22308.52
855.87	21802.68
856.04	21579.45
856.22	22281.90
856.39	21855.92
856.57	21886.64
856.74	21812.92
856.92	21552.82
857.09	21583.54
857.27	21864.11
857.44	21819.06
857.62	21857.97
857.79	21761.72
857.97	21683.89
858.14	21610.17
858.32	21765.81
858.49	21726.90
858.67	21681.85
858.84	21427.90
859.02	21583.54
859.19	21454.52
859.37	21388.99
859.54	21493.43
859.72	21880.50
859.89	21413.56
860.06	21114.56
860.24	21380.79
860.41	21354.17
860.59	21462.71
860.76	21487.29
860.94	20805.31
861.11	21247.68
861.29	21069.50
861.46	20973.25
861.64	20885.19
861.81	21036.74
861.98	21106.37
862.16	20895.43
862.33	20874.95
862.51	20694.72
862.68	21079.74
862.86	20975.30
863.03	20948.67
863.21	20815.55
863.38	20539.08
863.55	20657.86
863.73	20704.96
863.90	20692.68
864.08	20688.58
864.25	20694.72
864.43	20537.03
864.60	20424.39
864.77	20371.15
864.95	20475.59
865.12	20225.74
865.30	20563.65
865.47	20229.84
865.64	20491.98
865.82	20475.59
865.99	20399.82
866.17	20471.50
866.34	20393.67
866.51	20238.03
866.69	20510.41
866.86	20211.40
867.04	20332.23
867.21	19908.30
867.38	20102.86
867.56	20117.20
867.73	19879.63
867.91	19863.25
868.08	19889.87
868.25	19801.81
868.43	19857.10
868.60	19689.17
868.78	19758.80
868.95	19893.97
869.12	19756.75
869.30	19717.84
869.47	19580.63
869.64	19584.73
869.82	19668.69
869.99	19582.68
870.16	19916.50
870.34	19627.73
870.51	19640.02
870.69	19404.50
870.86	19592.92
871.03	19558.10
871.21	19216.09
871.38	19642.07
871.55	19257.05
871.73	19224.28
871.90	19285.72
872.07	19277.53
872.25	18964.19
872.42	19101.40
872.59	19130.08
872.77	19050.21
872.94	18874.08
873.11	19066.59
873.29	19107.55
873.46	18931.42
873.63	18779.87
873.81	18786.02
873.98	18867.94
874.15	18861.79
874.33	18595.56
874.50	18546.40
874.67	18738.91
874.85	18661.09
875.02	18458.34
875.19	18495.21
875.37	18439.91
875.54	18319.08
875.71	18409.19
875.88	18626.28
876.06	18368.23
876.23	18544.36
876.40	18411.24
876.58	18214.63
876.75	18192.11
876.92	18114.28
877.10	18024.17
877.27	17981.17
877.44	18050.80
877.61	17919.73
877.79	18087.66
877.96	17946.35
878.13	18089.71
878.31	17757.94
878.48	17583.86
878.65	17755.89
878.82	17917.68
879.00	17633.01
879.17	17755.89
879.34	17903.34
879.51	17604.34
879.69	17561.33
879.86	17444.60
880.03	17596.15
880.21	17596.15
880.38	17583.86
880.55	17551.09
880.72	17389.30
880.90	17600.24
881.07	17432.31
881.24	17321.72
881.41	17340.15
881.59	17331.96
881.76	17317.62
881.93	17217.27
882.10	17303.29
882.28	17088.25
882.45	17405.69
882.62	17225.47
882.79	17139.45
882.96	16987.90
883.14	17020.67
883.31	17116.92
883.48	17110.78
883.65	16985.85
883.83	17180.41
884.00	17118.97
884.17	17053.44
884.34	17075.96
884.51	16961.28
884.69	17004.28
884.86	16912.13
885.03	16758.53
885.20	16736.00
885.38	17010.43
885.55	16824.06
885.72	16928.51
885.89	16574.21
886.06	16637.70
886.24	16633.60
886.41	16633.60
886.58	16846.59
886.75	16899.84
886.92	16441.09
887.10	16627.46
887.27	16398.09
887.44	16621.31
887.61	16828.16
887.78	16682.75
887.95	16809.73
888.13	16484.10
888.30	16445.19
888.47	16586.50
888.64	16490.24
888.81	16473.86
888.99	16099.08
889.16	16420.61
889.33	16295.69
889.50	16365.32
889.67	16129.80
889.84	16086.79
890.01	16252.68
890.19	16209.67
890.36	16301.83
890.53	16080.65
890.70	16088.84
890.87	15783.70
891.04	16047.88
891.22	15974.16
891.39	15972.11
891.56	15808.27
891.73	15910.67
891.90	15953.68
892.07	15795.98
892.24	16062.22
892.42	15869.71
892.59	15867.66
892.76	15755.02
892.93	15816.46
893.10	15882.00
893.27	15648.53
893.44	15615.76
893.61	15503.12
893.79	15853.33
893.96	15585.04
894.13	15701.78
894.30	15494.93
894.47	15572.75
894.64	15750.93
894.81	15644.43
894.98	15716.11
895.15	15429.40
895.33	15335.19
895.50	15597.33
895.67	15564.56
895.84	15511.32
896.01	15519.51
896.18	15318.81
896.35	15673.10
896.52	15611.67
896.69	15441.68
896.86	15605.52
897.04	15607.57
897.21	15306.52
897.38	15472.40
897.55	15601.43
897.72	15640.34
897.89	15595.28
898.06	15439.64
898.23	15539.99
898.40	15650.58
898.57	15456.02
898.74	15294.23
898.91	15363.86
899.08	15550.23
899.26	15582.99
899.43	15413.01
899.60	15419.16
899.77	15437.59
899.94	15484.69
900.11	15494.93
900.28	15451.92
900.45	15320.85
900.62	15202.07
900.79	15343.38
900.96	15255.32
901.13	15453.97
901.30	15214.36
901.47	15286.04
901.64	15394.58
901.81	15435.54
901.98	15318.81
902.15	15425.30
902.32	15419.16
902.49	15365.91
902.66	15304.47
902.83	15421.20
903.01	15503.12
903.18	15613.71
903.35	15671.06
903.52	15314.71
903.69	15451.92
903.86	15576.85
904.03	15308.57
904.20	15537.94
904.37	15437.59
904.54	15197.98
904.71	15288.09
904.88	15392.53
905.05	15288.09
905.22	15623.95
905.39	15265.56
905.56	15175.45
905.73	15132.44
905.90	15195.93
906.07	15361.81
906.24	15351.57
906.41	15384.34
906.58	15449.88
906.75	15134.49
906.92	15056.67
907.09	15384.34
907.26	15468.31
907.43	15136.54
907.60	15363.86
907.77	15302.42
907.93	15339.29
908.10	15290.13
908.27	15478.55
908.44	15021.85
908.61	14911.26
908.78	15099.67
908.95	15298.33
909.12	15265.56
909.29	15265.56
909.46	15195.93
909.63	15335.19
909.80	15126.30
909.97	15220.50
910.14	15126.30
910.31	15306.52
910.48	15214.36
910.65	15062.81
910.82	15183.64
910.99	15247.13
911.16	14956.32
911.33	14851.87
911.50	14907.16
911.66	14917.40
911.83	15073.05
912.00	14790.43
912.17	14817.05
912.34	14651.17
912.51	14847.77
912.68	14868.25
912.85	14708.51
913.02	14616.35
913.19	14688.03
913.36	14888.73
913.53	14673.70
913.70	14685.98
913.86	14698.27
914.03	14892.83
914.20	14698.27
914.37	14511.91
914.54	14565.15
914.71	14655.26
914.88	14663.46
915.05	14665.50
915.22	14425.89
915.39	14421.80
915.55	14311.21
915.72	14403.36
915.89	14317.35
916.06	14280.49
916.23	14325.54
916.40	13977.39
916.57	14171.94
916.74	14151.46
916.91	14298.92
917.07	14110.50
917.24	14065.45
917.41	13893.42
917.58	13825.84
917.75	13872.94
917.92	13842.22
918.09	13682.48
918.26	13686.58
918.42	13858.60
918.59	13940.52
918.76	13586.22
918.93	13975.34
919.10	13797.17
919.27	13426.48
919.44	13748.01
919.60	13590.32
919.77	13561.65
919.94	13571.89
920.11	13483.83
920.28	13582.13
920.45	13254.45
920.61	13326.13
920.78	13287.22
920.95	13352.76
921.12	13303.60
921.29	12961.59
921.46	13023.03
921.62	13135.67
921.79	13256.50
921.96	12881.72
922.13	12975.93
922.30	12943.16
922.47	12734.27
922.63	12937.02
922.80	12984.12
922.97	12619.58
923.14	12486.47
923.31	12730.17
923.47	12439.36
923.64	12625.73
923.81	12326.72
923.98	12457.79
924.15	12373.83
924.32	12275.52
924.48	12332.87
924.65	12394.31
924.82	12132.17
924.99	12033.86
925.15	12031.82
925.32	12126.02
925.49	12025.67
925.66	12062.54
925.83	11927.37
925.99	11882.31
926.16	12013.38
926.33	11972.43
926.50	11577.17
926.67	11788.11
926.83	11747.15
927.00	11585.36
927.17	11593.55
927.34	11654.99
927.50	11577.17
927.67	11515.73
927.84	11429.71
928.01	11325.27
928.17	11419.47
928.34	11575.12
928.51	11159.38
928.68	11124.57
928.84	11126.61
929.01	11177.81
929.18	11095.89
929.35	11018.07
929.51	11132.76
929.68	10831.71
929.85	10723.16
930.02	10825.56
930.18	10698.59
930.35	10735.45
930.52	10807.13
930.69	10588.00
930.85	10465.12
931.02	10555.23
931.19	10458.98
931.36	10510.18
931.52	10424.16
931.69	10641.25
931.86	10260.32
932.02	10276.71
932.19	10254.18
932.36	10129.25
932.53	10164.07
932.69	10092.39
932.86	10235.75
933.03	10022.76
933.19	9795.43
933.36	9961.32
933.53	10071.91
933.70	9744.24
933.86	9713.52
934.03	9768.81
934.20	9535.34
934.36	9805.67
934.53	9369.46
934.70	9279.35
934.86	9410.42
935.03	9295.73
935.20	9291.63
935.36	9285.49
935.53	9111.41
935.70	9054.07
935.86	9084.79
936.03	8955.77
936.20	8783.74
936.36	8765.31
936.53	8818.55
936.70	8695.68
936.86	8826.75
937.03	8585.08
937.20	8351.62
937.36	8298.37
937.53	8138.63
937.70	8175.49
937.86	7933.83
938.03	7942.02
938.20	8015.75
938.36	7896.97
938.53	7753.61
938.70	7626.64
938.86	7690.12
939.03	7522.19
939.20	7554.96
939.36	7366.54
939.53	7333.78
939.70	7583.63
939.86	7016.34
940.03	7081.88
940.19	7083.92
940.36	7010.20
940.53	7094.16
940.69	6637.47
940.86	6836.12
941.03	6578.08
941.19	6582.17
941.36	6592.41
941.52	6408.09
941.69	6320.03
941.86	6352.80
942.02	6381.47
942.19	6299.55
942.35	6234.02
942.52	6111.14
942.69	6092.71
942.85	6033.32
943.02	5975.97
943.18	5959.59
943.35	6012.84
943.52	5857.19
943.68	5769.13
943.85	5875.62
944.01	5728.17
944.18	5734.31
944.35	5650.35
944.51	5578.67
944.68	5509.04
944.84	5533.61
945.01	5509.04
945.17	5578.67
945.34	5515.18
945.51	5453.74
945.67	5506.99
945.84	5646.25
946.00	5322.67
946.17	5400.49
946.33	5390.25
946.50	5414.83
946.67	5402.54
946.83	5314.48
947.00	5375.92
947.16	5330.86
947.33	5406.64
947.49	5353.39
947.66	5193.65
947.82	5314.48
947.99	5455.79
948.16	5345.20
948.32	5345.20
948.49	5337.01
948.65	5408.69
948.82	5394.35
948.98	5267.38
949.15	5351.34
949.31	5281.71
949.48	5343.15
949.64	5222.32
949.81	5367.73
949.97	5361.58
950.14	5472.17
950.30	5281.71
950.47	5328.81
950.63	5363.63
950.80	5392.30
950.96	5457.84
951.13	5269.42
951.30	5337.01
951.46	5486.51
951.63	5554.09
951.79	5459.88
951.96	5466.03
952.12	5392.30
952.29	5326.77
952.45	5253.04
952.62	5529.52
952.78	5496.75
952.94	5382.06
953.11	5390.25
953.27	5351.34
953.44	5603.24
953.60	5398.45
953.77	5509.04
953.93	5498.80
954.10	5627.82
954.26	5441.45
954.43	5380.01
954.59	5439.40
954.76	5529.52
954.92	5447.60
955.09	5478.32
955.25	5586.86
955.42	5578.67
955.58	5623.72
955.75	5541.80
955.91	5418.93
956.07	5545.90
956.24	5656.49
956.40	5443.50
956.57	5767.08
956.73	5410.73
956.90	5566.38
957.06	5484.46
957.23	5466.03
957.39	5486.51
957.56	5572.52
957.72	5433.26
957.88	5509.04
958.05	5646.25
958.21	5578.67
958.38	5541.80
958.54	5539.76
958.71	5713.83
958.87	5527.47
959.03	5367.73
959.20	5611.43
959.36	5420.97
959.53	5504.94
959.69	5380.01
959.85	5711.78
960.02	5412.78
960.18	5294.00
960.35	5431.21
960.51	5529.52
960.68	5334.96
960.84	5345.20
961.00	5566.38
961.17	5470.12
961.33	5496.75
961.50	5453.74
961.66	5488.56
961.82	5472.17
961.99	5566.38
962.15	5463.98
962.31	5410.73
962.48	5390.25
962.64	5541.80
962.81	5674.92
962.97	5523.37
963.13	5654.44
963.30	5410.73
963.46	5414.83
963.62	5463.98
963.79	5398.45
963.95	5394.35
964.12	5386.16
964.28	5375.92
964.44	5291.95
964.61	5527.47
964.77	5435.31
964.93	5400.49
965.10	5558.19
965.26	5361.58
965.42	5380.01
965.59	5328.81
965.75	5367.73
965.92	5287.86
966.08	5390.25
966.24	5314.48
966.41	5275.57
966.57	5523.37
966.73	5463.98
966.90	5236.66
967.06	5367.73
967.22	5341.10
967.39	5167.03
967.55	5238.70
967.71	5285.81
967.88	5156.79
968.04	5111.73
968.20	5287.86
968.37	5226.42
968.53	5222.32
968.69	5296.05
968.85	5261.23
969.02	5281.71
969.18	5226.42
969.34	5070.77
969.51	5304.24
969.67	5189.55
969.83	5154.74
970.00	5308.34
970.16	5132.21
970.32	5103.54
970.48	5222.32
970.65	5058.48
970.81	4980.66
970.97	5009.33
971.14	4956.08
971.30	5103.54
971.46	4937.65
971.63	5068.72
971.79	5175.22
971.95	4990.90
972.11	4872.12
972.28	4962.23
972.44	4966.32
972.60	4900.79
972.76	5140.40
972.93	4929.46
973.09	4913.08
973.25	5038.00
973.42	5033.91
973.58	4986.80
973.74	4820.92
973.90	4902.84
974.07	4812.73
974.23	4857.78
974.39	4884.41
974.55	5001.14
974.72	4816.82
974.88	4667.32
975.04	4788.15
975.20	4888.50
975.37	4847.54
975.53	4816.82
975.69	4904.89
975.85	4810.68
976.01	4655.03
976.18	4763.58
976.34	4765.62
976.50	4784.06
976.66	4814.77
976.83	4569.02
976.99	4620.22
977.15	4499.39
977.31	4526.01
977.47	4806.58
977.64	4704.18
977.80	4493.24
977.96	4622.27
978.12	4718.52
978.29	4499.39
978.45	4595.64
978.61	4444.09
978.77	4753.34
978.93	4589.50
979.10	4487.10
979.26	4538.30
979.42	4431.80
979.58	4474.81
979.74	4427.71
979.91	4442.04
980.07	4345.79
980.23	4470.72
980.39	4417.47
980.55	4534.20
980.71	4331.45
980.88	4339.65
981.04	4394.94
981.20	4399.04
981.36	4415.42
981.52	4286.40
981.68	4353.98
981.85	4419.52
982.01	4394.94
982.17	4362.17
982.33	4261.82
982.49	4300.73
982.65	4292.54
982.82	4325.31
982.98	4327.36
983.14	4218.82
983.30	4376.51
983.46	4376.51
983.62	4235.20
983.79	4145.09
983.95	4171.71
984.11	4114.37
984.27	4204.48
984.43	4296.64
984.59	4149.18
984.75	4194.24
984.91	4184.00
985.08	4343.74
985.24	3987.40
985.40	4134.85
985.56	4165.57
985.72	4065.22
985.88	4116.42
986.04	4040.64
986.20	4095.94
986.37	4171.71
986.53	3934.15
986.69	4052.93
986.85	4024.26
987.01	3952.58
987.17	4110.27
987.33	4091.84
987.49	3827.65
987.65	4108.23
987.82	3891.14
987.98	3999.68
988.14	3997.64
988.30	4050.88
988.46	3844.04
988.62	3919.81
988.78	3813.32
988.94	3913.67
989.10	3901.38
989.26	3805.13
989.42	3788.74
989.59	3825.61
989.75	3776.45
989.91	3930.05
990.07	3753.93
990.23	3753.93
990.39	3786.69
990.55	3876.80
990.71	3792.84
990.87	3790.79
991.03	3858.37
991.19	3721.16
991.35	3672.01
991.51	3692.49
991.67	3747.78
991.83	3811.27
992.00	3653.58
992.16	3788.74
992.32	3710.92
992.48	3772.36
992.64	3667.91
992.80	3706.82
992.96	3672.01
993.12	3672.01
993.28	3706.82
993.44	3575.75
993.60	3776.45
993.76	3602.38
993.92	3760.07
994.08	3585.99
994.24	3678.15
994.40	3581.90
994.56	3717.06
994.72	3516.36
994.88	3508.17
995.04	3653.58
995.20	3571.66
995.36	3545.03
995.52	3530.70
995.68	3499.98
995.84	3467.21
996.00	3534.79
996.16	3418.06
996.32	3446.73
996.48	3442.64
996.64	3463.12
996.80	3422.16
996.96	3332.05
997.12	3479.50
997.28	3350.48
997.44	3338.19
997.60	3362.76
997.76	3432.40
997.92	3393.48
998.08	3289.04
998.24	3346.38
998.40	3368.91
998.56	3387.34
998.72	3327.95
998.88	3243.98
999.04	3274.70
999.20	3358.67
999.36	3303.37
999.52	3393.48
999.68	3297.23
999.84	3323.85
1000.00	3301.33
1000.16	3266.51
1000.32	3293.13
1000.48	3352.52
1000.64	3137.49
1000.80	3035.09
1000.95	3053.52
1001.11	3286.99
1001.27	3157.97
1001.43	3223.50
1001.59	3094.48
1001.75	2979.79
1001.91	3186.64
1002.07	3067.86
1002.23	3139.54
1002.39	3106.77
1002.55	3086.29
1002.71	3094.48
1002.87	3127.25
1003.03	3067.86
1003.19	2969.55
1003.34	3157.97
1003.50	3028.95
1003.66	3117.01
1003.82	3106.77
1003.98	3024.85
1004.14	3084.24
1004.30	3074.00
1004.46	2914.26
1004.62	3002.32
1004.78	3037.14
1004.94	2883.54
1005.09	3039.19
1005.25	3033.04
1005.41	2871.25
1005.57	2928.60
1005.73	2918.36
1005.89	2971.60
1006.05	2994.13
1006.21	2965.46
1006.37	2822.10
1006.52	2973.65
1006.68	2953.17
1006.84	2916.31
1007.00	2846.68
1007.16	2836.44
1007.32	2865.11
1007.48	3018.71
1007.64	2981.84
1007.79	2783.19
1007.95	2822.10
1008.11	2830.29
1008.27	2828.24
1008.43	2748.37
1008.59	2920.40
1008.75	2779.09
1008.91	2926.55
1009.06	2856.92
1009.22	2863.06
1009.38	2811.86
1009.54	2772.95
1009.70	2764.76
1009.86	2789.33
1010.01	2830.29
1010.17	2772.95
1010.33	2713.56
1010.49	2738.13
1010.65	2799.57
1010.81	2715.61
1010.96	2775.00
1011.12	2688.98
1011.28	2707.41
1011.44	2678.74
1011.60	2705.37
1011.76	2709.46
1011.91	2746.33
1012.07	2570.20
1012.23	2650.07
1012.39	2596.82
1012.55	2693.08
1012.71	2576.34
1012.86	2621.40
1013.02	2592.73
1013.18	2676.70
1013.34	2570.20
1013.50	2678.74
1013.65	2693.08
1013.81	2453.47
1013.97	2531.29
1014.13	2682.84
1014.29	2590.68
1014.44	2617.30
1014.60	2582.49
1014.76	2482.14
1014.92	2572.25
1015.07	2588.63
1015.23	2605.02
1015.39	2492.38
1015.55	2564.06
1015.71	2471.90
1015.86	2519.00
1016.02	2469.85
1016.18	2439.13
1016.34	2523.10
1016.49	2502.62
1016.65	2660.31
1016.81	2508.76
1016.97	2516.95
1017.12	2516.95
1017.28	2394.08
1017.44	2420.70
1017.60	2494.43
1017.75	2445.27
1017.91	2387.93
1018.07	2426.84
1018.23	2447.32
1018.38	2400.22
1018.54	2346.97
1018.70	2414.56
1018.86	2396.12
1019.01	2308.06
1019.17	2365.40
1019.33	2547.67
1019.49	2408.41
1019.64	2367.45
1019.80	2455.51
1019.96	2412.51
1020.12	2332.64
1020.27	2316.25
1020.43	2400.22
1020.59	2428.89
1020.74	2428.89
1020.90	2377.69
1021.06	2328.54
1021.22	2224.09
1021.37	2437.08
1021.53	2271.20
1021.69	2328.54
1021.84	2285.53
1022.00	2312.16
1022.16	2324.44
1022.31	2285.53
1022.47	2334.68
1022.63	2265.05
1022.79	2179.04
1022.94	2318.30
1023.10	2328.54
1023.26	2285.53
1023.41	2195.42
1023.57	2269.15
1023.73	2297.82
1023.88	2197.47
1024.04	2297.82
1024.20	2205.66
1024.35	2269.15
1024.51	2240.48
1024.67	2271.20
1024.82	2320.35
1024.98	2238.43
1025.14	2240.48
1025.29	2101.22
1025.45	2322.40
1025.61	2125.79
1025.76	2236.38
1025.92	2162.66
1026.08	2226.14
1026.23	2273.25
1026.39	2232.29
1026.55	2113.50
1026.70	2162.66
1026.86	2144.22
1027.02	2150.37
1027.17	2226.14
1027.33	2138.08
1027.48	2146.27
1027.64	2150.37
1027.80	2103.26
1027.95	2209.76
1028.11	2109.41
1028.27	2095.07
1028.42	2138.08
1028.58	2101.22
1028.73	2025.44
1028.89	2060.26
1029.05	2144.22
1029.20	2101.22
>>>>>End Processed Spectral Data<<<<<
