SpectraSuite Data File
++++++++++++++++++++++++++++++++++++
Date: Fri Jun 02 14:49:28 CEST 2017
User: INFO_000
Dark Spectrum Present: No
Reference Spectrum Present: No
Number of Sampled Component Spectra: 1
Spectrometers: USB4H00879
Integration Time (usec): 80000 (USB4H00879)
Spectra Averaged: 1 (USB4H00879)
Boxcar Smoothing: 0 (USB4H00879)
Correct for Electrical Dark: No (USB4H00879)
Strobe/Lamp Enabled: No (USB4H00879)
Correct for Detector Non-linearity: No (USB4H00879)
Correct for Stray Light: No (USB4H00879)
Number of Pixels in Processed Spectrum: 3648
>>>>>Begin Processed Spectral Data<<<<<
345.13	1253.36
345.34	1253.36
345.56	1253.36
345.78	1302.51
345.99	1284.08
346.21	1675.24
346.42	1730.53
346.64	1677.29
346.86	1785.83
347.07	1626.09
347.29	1677.29
347.50	1636.33
347.72	1740.77
347.94	1732.58
348.15	1581.03
348.37	1617.90
348.59	1738.73
348.80	1695.72
349.02	1787.88
349.23	1863.65
349.45	1837.03
349.67	1826.79
349.88	1800.16
350.10	1894.37
350.31	1859.56
350.53	1820.64
350.75	1998.82
350.96	1716.20
351.18	1888.23
351.39	1804.26
351.61	1732.58
351.82	1861.60
352.04	1990.63
352.26	1794.02
352.47	1884.13
352.69	1937.38
352.90	1759.21
353.12	1869.80
353.34	1859.56
353.55	1931.23
353.77	1820.64
353.98	1869.80
354.20	1873.89
354.41	1943.52
354.63	1898.47
354.85	2043.87
355.06	1925.09
355.28	1763.30
355.49	1902.56
355.71	1945.57
355.92	1925.09
356.14	1957.86
356.35	1877.99
356.57	1929.19
356.79	1953.76
357.00	1759.21
357.22	1986.53
357.43	1812.45
357.65	1982.43
357.86	1947.62
358.08	1982.43
358.29	1920.99
358.51	1982.43
358.72	1994.72
358.94	1916.90
359.16	1949.67
359.37	1980.39
359.59	1951.71
359.80	1980.39
360.02	2021.35
360.23	1990.63
360.45	1959.91
360.66	1920.99
360.88	1912.80
361.09	1914.85
361.31	2000.87
361.52	2004.96
361.74	2035.68
361.95	2070.50
362.17	1904.61
362.38	2045.92
362.60	2035.68
362.81	1896.42
363.03	1943.52
363.24	1986.53
363.46	2002.91
363.67	2025.44
363.89	2007.01
364.10	2047.97
364.32	1959.91
364.53	1990.63
364.75	1931.23
364.96	2015.20
365.18	1982.43
365.39	2023.39
365.61	1982.43
365.82	2068.45
366.04	1968.10
366.25	1992.67
366.47	2009.06
366.68	2013.15
366.90	1953.76
367.11	2066.40
367.33	2074.59
367.54	2033.63
367.76	2011.11
367.97	2084.83
368.19	2019.30
368.40	2056.16
368.62	2000.87
368.83	1976.29
369.05	2041.82
369.26	1966.05
369.48	2007.01
369.69	1996.77
369.91	2056.16
370.12	2054.11
370.33	2084.83
370.55	2002.91
370.76	2035.68
370.98	2045.92
371.19	2058.21
371.41	2002.91
371.62	2099.17
371.84	2111.46
372.05	2131.94
372.27	1996.77
372.48	2058.21
372.69	2068.45
372.91	2082.78
373.12	2148.32
373.34	2082.78
373.55	2150.37
373.77	2166.75
373.98	2133.98
374.20	2148.32
374.41	2199.52
374.62	2107.36
374.84	2105.31
375.05	2156.51
375.27	2101.22
375.48	2174.94
375.70	2152.42
375.91	2084.83
376.12	2217.95
376.34	2183.13
376.55	2117.60
376.77	2230.24
376.98	2138.08
377.19	2066.40
377.41	2052.06
377.62	2211.81
377.84	2193.37
378.05	2342.88
378.27	2283.49
378.48	2383.84
378.69	2322.40
378.91	2234.33
379.12	2232.29
379.34	2228.19
379.55	2234.33
379.76	2271.20
379.98	2107.36
380.19	2256.86
380.41	2213.85
380.62	2275.29
380.83	2199.52
381.05	2195.42
381.26	2408.41
381.47	2254.81
381.69	2306.01
381.90	2402.27
382.12	2291.68
382.33	2269.15
382.54	2260.96
382.76	2224.09
382.97	2320.35
383.19	2240.48
383.40	2365.40
383.61	2248.67
383.83	2195.42
384.04	2293.72
384.25	2289.63
384.47	2404.32
384.68	2416.60
384.89	2260.96
385.11	2285.53
385.32	2336.73
385.54	2420.70
385.75	2359.26
385.96	2402.27
386.18	2367.45
386.39	2406.36
386.60	2385.88
386.82	2447.32
387.03	2451.42
387.24	2441.18
387.46	2516.95
387.67	2471.90
387.88	2437.08
388.10	2475.99
388.31	2471.90
388.52	2605.02
388.74	2592.73
388.95	2441.18
389.16	2494.43
389.38	2537.43
389.59	2641.88
389.80	2654.17
390.02	2443.23
390.23	2537.43
390.44	2514.91
390.66	2551.77
390.87	2504.67
391.08	2559.96
391.30	2723.80
391.51	2498.52
391.72	2664.41
391.94	2652.12
392.15	2652.12
392.36	2574.30
392.58	2580.44
392.79	2641.88
393.00	2693.08
393.22	2682.84
393.43	2713.56
393.64	2777.05
393.85	2828.24
394.07	2635.74
394.28	2691.03
394.49	2748.37
394.71	2740.18
394.92	2926.55
395.13	2650.07
395.35	2656.22
395.56	2727.89
395.77	2797.53
395.98	2748.37
396.20	2844.63
396.41	2744.28
396.62	2844.63
396.84	2844.63
397.05	2838.48
397.26	2858.96
397.47	3088.34
397.69	2871.25
397.90	3043.28
398.11	2863.06
398.32	2858.96
398.54	2854.87
398.75	2908.12
398.96	2877.40
399.18	3051.47
399.39	2928.60
399.60	3059.67
399.81	3014.61
400.03	2934.74
400.24	3145.68
400.45	2953.17
400.66	3020.75
400.88	2928.60
401.09	3336.14
401.30	3008.47
401.51	3160.02
401.73	3008.47
401.94	3215.31
402.15	2985.94
402.36	3145.68
402.58	3149.78
402.79	3127.25
403.00	3139.54
403.21	3127.25
403.43	3164.11
403.64	3196.88
403.85	3074.00
404.06	3211.22
404.27	2983.89
404.49	3270.61
404.70	3182.54
404.91	3239.89
405.12	3248.08
405.34	3248.08
405.55	3352.52
405.76	3102.67
405.97	3157.97
406.19	3305.42
406.40	3325.90
406.61	3225.55
406.82	3270.61
407.03	3266.51
407.25	3162.06
407.46	3456.97
407.67	3336.14
407.88	3379.15
408.09	3303.37
408.31	3370.96
408.52	3338.19
408.73	3416.01
408.94	3340.24
409.15	3391.44
409.37	3534.79
409.58	3493.83
409.79	3469.26
410.00	3510.22
410.21	3354.57
410.43	3434.44
410.64	3407.82
410.85	3475.40
411.06	3594.19
411.27	3678.15
411.48	3483.59
411.70	3475.40
411.91	3524.55
412.12	3614.66
412.33	3551.18
412.54	3608.52
412.76	3629.00
412.97	3680.20
413.18	3524.55
413.39	3731.40
413.60	3592.14
413.81	3698.63
414.03	3590.09
414.24	3649.48
414.45	3831.75
414.66	3563.47
414.87	3583.95
415.08	3729.35
415.30	3612.62
415.51	3721.16
415.72	3809.22
415.93	3704.78
416.14	3741.64
416.35	3665.86
416.56	3737.54
416.78	3844.04
416.99	3815.37
417.20	3798.98
417.41	3999.68
417.62	3823.56
417.83	3956.68
418.04	3870.66
418.26	3919.81
418.47	3827.65
418.68	4009.92
418.89	3930.05
419.10	4050.88
419.31	4063.17
419.52	4083.65
419.73	3971.01
419.95	4138.94
420.16	3827.65
420.37	4097.99
420.58	4097.99
420.79	3971.01
421.00	4034.50
421.21	4206.53
421.42	4130.75
421.63	4251.58
421.85	4093.89
422.06	4192.19
422.27	4106.18
422.48	4218.82
422.69	4177.86
422.90	4298.69
423.11	4233.15
423.32	4200.38
423.53	4501.44
423.75	4358.08
423.96	4419.52
424.17	4313.02
424.38	4577.21
424.59	4392.89
424.80	4534.20
425.01	4431.80
425.22	4329.41
425.43	4448.19
425.64	4589.50
425.85	4569.02
426.06	4626.36
426.28	4501.44
426.49	4509.63
426.70	4417.47
426.91	4511.68
427.12	4634.55
427.33	4630.46
427.54	4599.74
427.75	4605.88
427.96	4876.21
428.17	4648.89
428.38	4880.31
428.59	4765.62
428.80	4708.28
429.01	4724.66
429.23	4857.78
429.44	5074.87
429.65	4863.93
429.86	4960.18
430.07	4675.51
430.28	4771.77
430.49	4804.53
430.70	4964.28
430.91	5025.72
431.12	4855.73
431.33	5119.92
431.54	5121.97
431.75	5019.57
431.96	5044.15
432.17	5185.46
432.38	5050.29
432.59	5259.18
432.80	5218.22
433.01	5148.59
433.22	5246.90
433.43	5294.00
433.64	5216.18
433.85	5224.37
434.06	5263.28
434.27	5365.68
434.49	5357.49
434.70	5343.15
434.91	5353.39
435.12	5443.50
435.33	5404.59
435.54	5396.40
435.75	5269.42
435.96	5418.93
436.17	5369.77
436.38	5646.25
436.59	5420.97
436.80	5482.41
437.01	5787.56
437.22	5793.70
437.43	5580.71
437.64	5445.55
437.85	5654.44
438.06	5715.88
438.27	5762.98
438.48	5640.11
438.69	5777.32
438.90	5738.41
439.11	5570.48
439.32	5814.18
439.53	5709.74
439.74	5928.87
439.95	5648.30
440.16	5754.79
440.37	5859.24
440.57	5752.74
440.78	5805.99
440.99	5867.43
441.20	5922.73
441.41	5892.01
441.62	5853.09
441.83	5887.91
442.04	6039.46
442.25	6000.55
442.46	5949.35
442.67	6111.14
442.88	6428.57
443.09	5992.36
443.30	6074.28
443.51	6096.80
443.72	6240.16
443.93	6008.74
444.14	6412.19
444.35	6160.29
444.56	6184.87
444.77	6229.92
444.98	6285.22
445.19	6311.84
445.40	6324.13
445.61	6356.90
445.81	6424.48
446.02	6494.11
446.23	6422.43
446.44	6193.06
446.65	6479.77
446.86	6555.55
447.07	6453.15
447.28	6565.79
447.49	6533.02
447.70	6555.55
447.91	6696.86
448.12	6672.28
448.33	6735.77
448.54	6598.56
448.74	6602.65
448.95	6758.30
449.16	6686.62
449.37	6911.89
449.58	6877.08
449.79	6868.89
450.00	6786.97
450.21	6823.83
450.42	6872.98
450.63	7036.82
450.84	6909.85
451.05	6946.71
451.25	6959.00
451.46	7032.72
451.67	7155.60
451.88	7317.39
452.09	6997.91
452.30	7034.77
452.51	7032.72
452.72	7090.07
452.93	7577.48
453.13	7034.77
453.34	7153.55
453.55	7337.87
453.76	7108.50
453.97	7729.03
454.18	7384.98
454.39	7491.47
454.60	7288.72
454.81	7499.66
455.01	7552.91
455.22	7419.79
455.43	7565.20
455.64	7692.17
455.85	7655.31
456.06	7942.02
456.27	7696.27
456.48	7557.00
456.68	7935.88
456.89	7808.90
457.10	7841.67
457.31	7868.30
457.52	7901.06
457.73	8001.41
457.94	8185.73
458.14	8003.46
458.35	8269.70
458.56	8093.57
458.77	8044.42
458.98	8253.31
459.19	8343.42
459.39	8322.94
459.60	8322.94
459.81	8353.66
460.02	8406.91
460.23	8337.28
460.44	8570.75
460.65	8515.45
460.85	8589.18
461.06	8808.31
461.27	8540.03
461.48	8902.52
461.69	8855.42
461.89	8675.20
462.10	8746.87
462.31	8869.75
462.52	8769.40
462.73	8945.53
462.94	9109.36
463.14	8839.03
463.35	9076.60
463.56	9514.86
463.77	9299.83
463.98	9183.09
464.18	9297.78
464.39	9371.50
464.60	9578.35
464.81	9367.41
465.02	9494.38
465.23	9658.22
465.43	9531.25
465.64	9887.59
465.85	9719.66
466.06	9682.80
466.27	9772.91
466.47	9690.99
466.68	10006.38
466.89	9805.67
467.10	10133.35
467.30	9903.98
467.51	10266.47
467.72	10524.51
467.93	9965.42
468.14	10172.26
468.34	10274.66
468.55	10372.96
468.76	10446.69
468.97	10180.45
469.17	10807.13
469.38	10712.92
469.59	10848.09
469.80	10651.49
470.01	10760.03
470.21	10631.01
470.42	10809.18
470.63	11194.20
470.84	11095.89
471.04	11192.15
471.25	11056.98
471.46	11081.56
471.67	11331.41
471.87	11360.08
472.08	11364.18
472.29	11558.74
472.50	11073.37
472.70	11442.00
472.91	11452.24
473.12	11671.37
473.33	11763.53
473.53	12113.74
473.74	11839.31
473.95	11997.00
474.16	12095.30
474.36	12128.07
474.57	12283.72
474.78	12480.32
474.99	12191.56
475.19	12398.40
475.40	12644.16
475.61	12650.30
475.81	12779.32
476.02	12943.16
476.23	12857.15
476.44	13016.89
476.64	13113.14
476.85	13510.45
477.06	13172.54
477.27	13381.43
477.47	13637.42
477.68	13666.10
477.89	13946.67
478.09	13610.80
478.30	13793.07
478.51	14085.93
478.71	14079.79
478.92	14163.75
479.13	14092.07
479.34	14262.05
479.54	14473.00
479.75	14282.53
479.96	14552.87
480.16	14417.70
480.37	14765.85
480.58	14812.96
480.78	14982.94
480.99	14874.40
481.20	15245.08
481.41	15197.98
481.61	15404.82
481.82	15193.88
482.03	15230.74
482.23	15433.49
482.44	15591.19
482.65	15957.77
482.85	15767.31
483.06	15787.79
483.27	15982.35
483.47	16033.55
483.68	16043.79
483.89	16092.94
484.09	16129.80
484.30	16412.42
484.51	16373.51
484.71	16445.19
484.92	16512.77
485.13	17008.38
485.33	16877.31
485.54	16729.86
485.75	17075.96
485.95	17143.55
486.16	17233.66
486.37	17434.36
486.57	17084.16
486.78	17385.21
486.98	17315.58
487.19	17516.28
487.40	17665.78
487.60	17682.16
487.81	17864.43
488.02	17712.88
488.22	18069.23
488.43	17901.29
488.64	18269.93
488.84	18394.86
489.05	18683.62
489.25	18310.89
489.46	18757.35
489.67	18630.37
489.87	18743.01
490.08	19150.56
490.29	18978.53
490.49	19218.14
490.70	19259.10
490.90	19308.25
491.11	19504.85
491.32	19414.74
491.52	19439.32
491.73	19605.20
491.94	19715.80
492.14	19410.65
492.35	20078.29
492.55	19992.27
492.76	19926.74
492.97	20049.61
493.17	20172.49
493.38	20451.02
493.58	20393.67
493.79	20614.85
494.00	20537.03
494.20	20512.46
494.41	20717.25
494.61	20815.55
494.82	20942.53
495.02	21116.61
495.23	21171.90
495.44	21153.47
495.64	21163.71
495.85	21341.88
496.05	21370.55
496.26	21552.82
496.47	21722.80
496.67	21442.23
496.88	22062.77
497.08	21534.39
497.29	21952.18
497.49	21894.83
497.70	21931.70
497.91	22333.10
498.11	22253.23
498.32	22525.61
498.52	22589.10
498.73	22445.74
498.93	22607.53
499.14	22865.57
499.34	22714.02
499.55	22820.52
499.76	22781.60
499.96	22763.17
500.17	22988.45
500.37	23180.96
500.58	22941.35
500.78	23045.79
500.99	23305.88
501.19	23518.87
501.40	23342.75
501.60	23398.04
501.81	23402.14
502.02	23875.22
502.22	23441.05
502.43	23877.27
502.63	23801.49
502.84	24010.39
503.04	23799.44
503.25	23895.70
503.45	24239.76
503.66	24215.18
503.86	24016.53
504.07	24540.81
504.27	24495.75
504.48	24843.91
504.68	24485.51
504.89	24653.45
505.09	24561.29
505.30	25095.81
505.50	24759.94
505.71	24788.61
505.91	25257.60
506.12	24923.78
506.32	25120.38
506.53	25042.56
506.73	25140.86
506.94	25187.97
507.14	24979.07
507.35	25276.03
507.55	25472.64
507.76	25398.91
507.96	25579.13
508.17	25460.35
508.37	25329.28
508.58	25659.00
508.78	25491.07
508.99	26005.11
509.19	25677.43
509.40	25884.28
509.60	25710.20
509.81	25994.87
510.01	26173.04
510.22	25814.65
510.42	26044.02
510.63	26109.55
510.83	26441.32
511.04	26529.39
511.24	26443.37
511.44	26373.74
511.65	26611.31
511.85	26609.26
512.06	26461.80
512.26	26777.19
512.47	26758.76
512.67	26717.80
512.88	27158.11
513.08	26461.80
513.29	27045.48
513.49	26750.57
513.69	26660.46
513.90	27065.96
514.10	27319.90
514.31	27375.20
514.51	27264.61
514.72	27108.96
514.92	27209.31
515.13	27475.55
515.33	27522.65
515.53	27364.96
515.74	27631.19
515.94	27676.25
516.15	27772.50
516.35	27250.27
516.56	27616.86
516.76	27881.05
516.96	28022.36
517.17	27930.20
517.37	28065.36
517.58	27883.09
517.78	28046.93
517.99	28036.69
518.19	28075.60
518.39	28489.29
518.60	28591.69
518.80	28499.53
519.01	28765.77
519.21	28221.01
519.41	28390.99
519.62	28354.13
519.82	28853.83
520.03	28616.27
520.23	28829.26
520.43	28524.11
520.64	29019.72
520.84	29271.62
521.05	29025.86
521.25	29236.80
521.45	29206.08
521.66	29255.23
521.86	29457.98
522.07	29165.12
522.27	29472.32
522.47	29349.44
522.68	29808.19
522.88	29498.94
523.08	29535.81
523.29	30039.61
523.49	29865.53
523.70	30107.19
523.90	30176.82
524.10	30154.29
524.31	30361.14
524.51	30047.80
524.71	30572.08
524.92	30223.92
525.12	30512.69
525.33	30662.19
525.53	30889.51
525.73	31168.04
525.94	30770.73
526.14	31039.01
526.34	30905.90
526.55	31073.83
526.75	31184.42
526.95	31419.94
527.16	31323.68
527.36	31215.14
527.56	31501.86
527.77	31643.17
527.97	31551.01
528.17	31395.36
528.38	32065.05
528.58	31503.90
528.78	31757.85
528.99	31620.64
529.19	32206.36
529.39	31966.74
529.60	32288.28
529.80	32196.12
530.00	32437.78
530.21	32478.74
530.41	32777.74
530.61	32378.39
530.82	32675.34
531.02	32794.12
531.22	32917.00
531.43	32759.31
531.63	32970.25
531.83	33431.04
532.04	33275.40
532.24	33332.74
532.44	33490.43
532.64	33488.38
532.85	33496.58
533.05	33811.96
533.25	33592.83
533.46	34031.10
533.66	34012.66
533.86	33969.66
534.07	34127.35
534.27	34549.23
534.47	34313.72
534.67	34612.72
534.88	34299.38
535.08	34553.33
535.28	34956.78
535.49	34794.99
535.69	35266.02
535.89	34786.80
536.09	35134.95
536.30	34803.18
536.50	35376.61
536.70	35386.85
536.91	35509.73
537.11	35773.92
537.31	35522.02
537.51	35431.91
537.72	36195.80
537.92	36122.07
538.12	36269.53
538.32	36234.71
538.53	36183.51
538.73	35792.35
538.93	36197.85
539.13	36034.01
539.34	35821.02
539.54	36152.79
539.74	36824.53
539.94	36654.54
540.15	36543.95
540.35	36679.12
540.55	36787.66
540.75	36842.96
540.96	36650.45
541.16	37045.71
541.36	37008.84
541.56	36945.36
541.77	37494.21
541.97	36855.25
542.17	37406.15
542.37	37660.10
542.58	37623.23
542.78	37615.04
542.98	37615.04
543.18	37656.00
543.38	38133.18
543.59	38167.99
543.79	37975.48
543.99	37950.91
544.19	38243.77
544.40	38323.64
544.60	38196.67
544.80	38127.03
545.00	38669.75
545.20	38608.31
545.41	38462.90
545.61	38901.17
545.81	38911.41
546.01	38845.87
546.21	38759.86
546.42	38710.71
546.62	38786.48
546.82	38669.75
547.02	39263.66
547.22	39386.54
547.43	39232.94
547.63	39411.11
547.83	39466.41
548.03	39523.75
548.23	39568.80
548.44	39460.26
548.64	39400.87
548.84	39665.06
549.04	39474.60
549.24	39865.76
549.45	39994.78
549.65	39863.71
549.85	39785.89
550.05	40664.47
550.25	39951.77
550.45	40484.25
550.66	40132.00
550.86	40017.31
551.06	40400.28
551.26	39904.67
551.46	40818.07
551.66	40523.16
551.87	40283.55
552.07	40492.44
552.27	40742.29
552.47	40826.26
552.67	40621.46
552.87	40922.51
553.07	40705.43
553.28	41031.05
553.48	41528.71
553.68	40844.69
553.88	41473.42
554.08	41377.16
554.28	41383.30
554.48	41155.98
554.69	41366.92
554.89	41516.42
555.09	41297.29
555.29	41147.79
555.49	41534.85
555.69	41495.94
555.89	41616.77
556.10	42268.03
556.30	41614.72
556.50	41710.98
556.70	41635.20
556.90	41782.66
557.10	42112.38
557.30	41541.00
557.50	42274.17
557.70	42161.53
557.91	42200.44
558.11	42239.36
558.31	42104.19
558.51	42272.12
558.71	42175.87
558.91	42270.08
559.11	42120.57
559.31	42450.30
559.51	42091.90
559.72	42483.06
559.92	42610.04
560.12	42292.60
560.32	42761.59
560.52	42694.00
560.72	42681.72
560.92	42960.24
561.12	42935.66
561.32	43117.93
561.52	42614.13
561.72	43128.17
561.93	43003.25
562.13	42882.42
562.33	42677.62
562.53	43629.93
562.73	43294.06
562.93	43175.28
563.13	43500.90
563.33	43122.03
563.53	43693.41
563.73	42890.61
563.93	43242.86
564.13	43668.84
564.33	43277.68
564.53	43236.72
564.74	43550.06
564.94	43500.90
565.14	43851.11
565.34	43363.69
565.54	43654.50
565.74	43599.21
565.94	43918.69
566.14	43605.35
566.34	43916.64
566.54	44143.97
566.74	43455.85
566.94	44082.53
567.14	44160.35
567.34	43853.15
567.54	43738.47
567.74	43963.75
567.94	43656.55
568.14	44244.32
568.34	44012.90
568.54	43877.73
568.74	44240.22
568.94	44170.59
569.14	44500.31
569.34	44129.63
569.54	44449.11
569.75	44207.45
569.95	44608.86
570.15	44979.54
570.35	44612.95
570.55	44666.20
570.75	44799.32
570.95	44911.95
571.15	44666.20
571.35	44582.23
571.55	45153.62
571.75	44645.72
571.95	44752.21
572.15	44647.77
572.35	45088.08
572.55	45145.42
572.75	45122.90
572.95	45145.42
573.15	45331.79
573.35	45120.85
573.55	44868.95
573.75	45385.04
573.95	45055.31
574.15	44893.52
574.35	45307.21
574.55	44735.83
574.75	45393.23
574.95	45399.37
575.15	45034.83
575.34	45638.98
575.54	45714.76
575.74	45571.40
575.94	45786.44
576.14	45716.81
576.34	45806.92
576.54	46284.09
576.74	45802.82
576.94	45544.78
577.14	46161.22
577.34	46435.64
577.54	45804.87
577.74	46122.30
577.94	45686.09
578.14	45643.08
578.34	46470.46
578.54	46255.42
578.74	46198.08
578.94	46462.27
579.14	46073.15
579.34	45940.04
579.54	46390.59
579.74	46572.86
579.94	46452.03
580.13	46482.75
580.33	46599.48
580.53	46705.98
580.73	46775.61
580.93	46990.64
581.13	46945.59
581.33	47252.78
581.53	47174.96
581.73	47093.04
581.93	47299.89
582.13	47095.09
582.33	47086.90
582.53	46769.46
582.73	47375.66
582.92	47469.87
583.12	47453.48
583.32	47179.06
583.52	47275.31
583.72	47533.35
583.92	47375.66
584.12	47613.23
584.32	47949.09
584.52	47768.87
584.72	47861.03
584.92	47242.54
585.11	48325.92
585.31	47584.55
585.51	48051.49
585.71	47672.62
585.91	48393.50
586.11	47822.12
586.31	47629.61
586.51	47885.61
586.71	47985.96
586.91	48223.52
587.10	48364.83
587.30	48516.38
587.50	48383.26
587.70	48839.96
587.90	48618.78
588.10	48678.17
588.30	48706.84
588.50	48592.15
588.69	48350.49
588.89	48241.95
589.09	48788.76
589.29	48436.51
589.49	48805.14
589.69	48510.24
589.89	49052.95
590.08	48817.43
590.28	48837.91
590.48	48805.14
590.68	48788.76
590.88	48837.91
591.08	48975.12
591.28	48903.45
591.47	49521.93
591.67	48971.03
591.87	49014.04
592.07	49370.38
592.27	48887.06
592.47	49190.16
592.67	49257.74
592.86	49394.96
593.06	49440.01
593.26	49339.66
593.46	49331.47
593.66	49433.87
593.86	49186.07
594.05	49425.68
594.25	49532.17
594.45	49141.01
594.65	49650.95
594.85	49034.52
595.05	49630.47
595.24	49952.01
595.44	49751.30
595.64	50023.68
595.84	49669.39
596.04	49683.72
596.23	50214.15
596.43	50203.91
596.63	50152.71
596.83	50265.34
597.03	50330.88
597.22	50736.38
597.42	50517.25
597.62	50244.87
597.82	50531.58
598.02	50547.96
598.21	50597.12
598.41	50132.23
598.61	50781.43
598.81	50396.42
599.01	50640.12
599.20	51098.87
599.40	50511.10
599.60	51045.62
599.80	50885.88
600.00	50853.11
600.19	51270.90
600.39	50582.78
600.59	51141.88
600.79	50953.46
600.98	51262.71
601.18	51406.06
601.38	51449.07
601.58	51555.57
601.78	51133.68
601.97	51496.17
602.17	51561.71
602.37	51854.57
602.57	51487.98
602.76	51637.48
602.96	51647.72
603.16	51866.86
603.36	51854.57
603.55	52028.65
603.75	51811.56
603.95	51844.33
604.15	52161.76
604.34	51731.69
604.54	52217.06
604.74	52055.27
604.94	52339.94
605.13	52708.57
605.33	52518.11
605.53	52348.13
605.73	52501.73
605.92	52329.70
606.12	52411.62
606.32	52129.00
606.52	52397.28
606.71	52616.41
606.91	53105.88
607.11	52577.50
607.30	52708.57
607.50	52686.04
607.70	53079.25
607.90	52663.52
608.09	52507.87
608.29	52899.03
608.49	53138.65
608.68	53026.01
608.88	53357.78
609.08	52772.06
609.28	53353.68
609.47	53146.84
609.67	54006.98
609.87	53468.37
610.06	53673.16
610.26	53327.06
610.46	53363.92
610.66	53652.69
610.85	53460.18
611.05	53136.60
611.25	53429.46
611.44	53302.48
611.64	54080.71
611.84	53609.68
612.03	53492.94
612.23	53501.14
612.43	53755.08
612.62	53660.88
612.82	53572.81
613.02	53406.93
613.21	53609.68
613.41	53726.41
613.61	54295.75
613.80	53417.17
614.00	54062.28
614.20	54203.59
614.39	54254.79
614.59	54172.87
614.79	53820.62
614.98	53736.65
615.18	54260.93
615.38	53822.67
615.57	53662.93
615.77	53789.90
615.97	53949.64
616.16	54043.85
616.36	53736.65
616.56	54197.44
616.75	53789.90
616.95	53998.79
617.15	53769.42
617.34	54031.56
617.54	54142.15
617.74	54586.56
617.93	53982.41
618.13	54107.33
618.32	54564.03
618.52	54156.49
618.72	54125.77
618.91	54328.52
619.11	53939.40
619.31	54424.77
619.50	54121.67
619.70	54203.59
619.90	54441.15
620.09	54195.40
620.29	54023.37
620.48	54187.21
620.68	54453.44
620.88	53982.41
621.07	54426.82
621.27	54084.81
621.46	54342.85
621.66	54367.43
621.86	54494.40
622.05	54019.27
622.25	54922.43
622.44	54244.55
622.64	54197.44
622.84	54541.50
623.03	54080.71
623.23	54475.97
623.42	53976.26
623.62	54295.75
623.82	54670.53
624.01	54449.35
624.21	54723.77
624.40	53892.30
624.60	54531.26
624.80	54086.85
624.99	54455.49
625.19	53970.12
625.38	54680.77
625.58	54455.49
625.77	54549.70
625.97	54543.55
626.17	54113.48
626.36	54246.60
626.56	54619.33
626.75	54244.55
626.95	54465.73
627.14	54437.06
627.34	54777.02
627.54	54559.94
627.73	54801.60
627.93	54811.84
628.12	54568.13
628.32	54498.50
628.51	54373.57
628.71	54654.14
628.90	54475.97
629.10	54344.90
629.30	54686.91
629.49	54852.80
629.69	54187.21
629.88	54293.70
630.08	54817.98
630.27	55106.74
630.47	54994.10
630.66	54426.82
630.86	54555.84
631.05	54336.71
631.25	54920.38
631.44	54965.43
631.64	54754.49
631.84	54529.22
632.03	54944.95
632.23	54723.77
632.42	55016.63
632.62	55037.11
632.81	54932.67
633.01	54975.67
633.20	54994.10
633.40	54891.71
633.59	54822.08
633.79	54850.75
633.98	54791.36
634.18	55002.30
634.37	55241.91
634.57	54844.60
634.76	55260.34
634.96	55254.20
635.15	54887.61
635.35	55088.31
635.54	54889.66
635.74	55344.31
635.93	55145.65
636.13	55147.70
636.32	55280.82
636.52	54955.19
636.71	54631.61
636.91	55221.43
637.10	54738.11
637.30	55180.47
637.49	55217.33
637.69	55045.30
637.88	55506.10
638.08	54981.82
638.27	55547.06
638.46	55088.31
638.66	54813.88
638.85	55315.64
639.05	55248.05
639.24	55313.59
639.44	55368.88
639.63	55458.99
639.83	55727.28
640.02	55170.23
640.22	54996.15
640.41	55772.33
640.61	55526.58
640.80	55409.84
640.99	55076.02
641.19	56140.97
641.38	55514.29
641.58	55270.58
641.77	55200.95
641.97	54871.23
642.16	55164.09
642.36	55766.19
642.55	55983.27
642.74	55497.91
642.94	55706.80
643.13	55348.40
643.33	55684.27
643.52	55485.62
643.72	56087.72
643.91	55268.53
644.10	55121.08
644.30	55983.27
644.49	55755.95
644.69	55948.46
644.88	55801.00
645.08	55411.89
645.27	55688.37
645.46	55504.05
645.66	55864.49
645.85	55729.33
646.05	55786.67
646.24	56231.08
646.43	55909.55
646.63	56208.55
646.82	55895.21
647.02	56280.23
647.21	55915.69
647.40	55839.92
647.60	55930.03
647.79	56140.97
647.99	55846.06
648.18	55731.37
648.37	56394.92
648.57	56102.06
648.76	55925.93
648.96	55579.82
649.15	56360.10
649.34	56423.59
649.54	56159.40
649.73	55827.63
649.92	56085.67
650.12	56313.00
650.31	56239.27
650.51	56595.62
650.70	56622.24
650.89	55669.93
651.09	56693.92
651.28	56251.56
651.47	56308.90
651.67	56196.26
651.86	56493.22
652.06	55680.17
652.25	56399.01
652.44	56493.22
652.64	56104.10
652.83	55925.93
653.02	55807.15
653.22	56331.43
653.41	55755.95
653.60	55686.32
653.80	55880.88
653.99	56001.71
654.18	55981.23
654.38	56376.48
654.57	56263.85
654.76	56265.89
654.96	56063.14
655.15	55983.27
655.34	55844.01
655.54	55772.33
655.73	56122.54
655.92	56353.96
656.12	56136.87
656.31	56190.12
656.50	56145.06
656.70	55919.79
656.89	56208.55
657.08	55987.37
657.28	56257.70
657.47	56247.46
657.66	55909.55
657.86	56145.06
658.05	56116.39
658.24	56501.41
658.43	56095.91
658.63	56177.83
658.82	56108.20
659.01	56775.84
659.21	56093.86
659.40	56034.47
659.59	56171.69
659.79	56085.67
659.98	56286.37
660.17	56204.45
660.36	56349.86
660.56	56210.60
660.75	56210.60
660.94	56521.89
661.14	56376.48
661.33	55628.98
661.52	55545.01
661.71	56689.82
661.91	55973.03
662.10	56118.44
662.29	56253.61
662.49	56151.21
662.68	56374.44
662.87	56161.45
663.06	56386.72
663.26	56149.16
663.45	56558.75
663.64	56239.27
663.83	56765.60
664.03	56394.92
664.22	56112.30
664.41	56091.82
664.60	55514.29
664.80	56345.76
664.99	56380.58
665.18	56276.13
665.37	56077.48
665.57	56409.25
665.76	56245.41
665.95	56308.90
666.14	56315.04
666.34	55784.62
666.53	55784.62
666.72	56097.96
666.91	55960.75
667.11	55571.63
667.30	55805.10
667.49	56163.50
667.68	55805.10
667.87	55526.58
668.07	56116.39
668.26	55991.47
668.45	56263.85
668.64	55536.82
668.84	56186.02
669.03	56063.14
669.22	55977.13
669.41	56186.02
669.60	55973.03
669.80	55616.69
669.99	55903.40
670.18	55760.05
670.37	55850.16
670.57	56284.33
670.76	55919.79
670.95	55692.46
671.14	55690.41
671.33	55311.54
671.53	56095.91
671.72	55825.58
671.91	55891.12
672.10	55684.27
672.29	55403.70
672.48	55508.14
672.68	56321.19
672.87	55547.06
673.06	55622.83
673.25	55719.09
673.44	55471.28
673.64	55454.90
673.83	55456.95
674.02	55407.79
674.21	55594.16
674.40	55948.46
674.59	55469.23
674.79	55223.48
674.98	55297.20
675.17	55588.02
675.36	55219.38
675.55	55538.86
675.74	55432.37
675.94	55411.89
676.13	55364.79
676.32	55502.00
676.51	56202.41
676.70	55203.00
676.89	55223.48
677.08	55751.85
677.28	55383.22
677.47	56226.98
677.66	55602.35
677.85	55538.86
678.04	55606.45
678.23	55692.46
678.42	55545.01
678.62	55368.88
678.81	55760.05
679.00	55428.27
679.19	55522.48
679.38	55747.76
679.57	55948.46
679.76	55581.87
679.96	55743.66
680.15	55239.86
680.34	55567.54
680.53	55219.38
680.72	54858.94
680.91	55477.43
681.10	54967.48
681.29	55358.64
681.48	55284.92
681.68	55059.64
681.87	54797.50
682.06	55602.35
682.25	54564.03
682.44	55045.30
682.63	55393.46
682.82	55428.27
683.01	54903.99
683.20	54961.34
683.39	55243.96
683.59	54736.06
683.78	54754.49
683.97	54807.74
684.16	54820.03
684.35	55067.83
684.54	54539.46
684.73	55344.31
684.92	54484.16
685.11	54729.92
685.30	54875.32
685.49	55420.08
685.69	54736.06
685.88	54754.49
686.07	54781.12
686.26	54385.86
686.45	54850.75
686.64	54645.95
686.83	54457.54
687.02	54852.80
687.21	54860.99
687.40	54432.96
687.59	54551.74
687.78	53959.88
687.97	54973.63
688.16	55035.06
688.35	54633.66
688.54	54682.81
688.74	54721.72
688.93	54521.02
689.12	54375.62
689.31	54990.01
689.50	54779.07
689.69	54156.49
689.88	53982.41
690.07	54564.03
690.26	54176.97
690.45	54801.60
690.64	54400.19
690.83	54234.31
691.02	53806.28
691.21	54539.46
691.40	53560.53
691.59	54322.37
691.78	54131.91
691.97	54336.71
692.16	53916.87
692.35	54115.53
692.54	53986.50
692.73	54465.73
692.92	54230.21
693.11	54359.23
693.30	54060.23
693.49	54232.26
693.68	54236.36
693.87	54686.91
694.06	53845.19
694.25	54136.01
694.44	54070.47
694.63	54076.61
694.82	53769.42
695.01	54174.92
695.20	53634.25
695.39	53810.38
695.58	53492.94
695.77	53984.46
695.96	53593.29
696.15	53943.50
696.34	53525.71
696.53	54004.94
696.72	53816.52
696.91	53980.36
697.10	53882.06
697.29	53949.64
697.48	54060.23
697.67	53619.92
697.86	53501.14
698.05	53406.93
698.24	53771.47
698.43	53427.41
698.62	53654.73
698.81	53427.41
699.00	53591.25
699.19	53449.94
699.38	53693.64
699.57	53206.23
699.76	53994.70
699.95	53494.99
700.14	52806.87
700.32	53621.97
700.51	53494.99
700.70	53662.93
700.89	53865.67
701.08	53404.88
701.27	53482.70
701.46	53673.16
701.65	52999.38
701.84	53232.85
702.03	53263.57
702.22	53390.55
702.41	52866.27
702.60	53628.11
702.79	53148.88
702.98	52851.93
703.17	53308.63
703.35	53030.10
703.54	53433.55
703.73	53214.42
703.92	53064.92
704.11	52983.00
704.30	52843.74
704.49	53036.25
704.68	52985.05
704.87	52673.76
705.06	52849.88
705.25	52645.08
705.43	53052.63
705.62	53257.43
705.81	52663.52
706.00	52772.06
706.19	52790.49
706.38	53062.87
706.57	52684.00
706.76	52227.30
706.95	52561.12
707.14	52487.39
707.32	52395.23
707.51	52178.15
707.70	52436.19
707.89	52890.84
708.08	52737.24
708.27	52591.84
708.46	53011.67
708.65	52716.76
708.84	52665.56
709.02	52456.67
709.21	52507.87
709.40	52550.88
709.59	52655.32
709.78	52298.98
709.97	52575.45
710.16	52710.62
710.34	52184.29
710.53	52163.81
710.72	52432.10
710.91	52131.04
711.10	52552.93
711.29	52049.13
711.48	52104.42
711.66	52440.29
711.85	52071.65
712.04	52045.03
712.23	52278.50
712.42	51967.21
712.61	52180.20
712.80	52024.55
712.98	52235.49
713.17	51676.40
713.36	51942.63
713.55	51729.64
713.74	51860.71
713.93	52100.32
714.11	52075.75
714.30	51930.34
714.49	51823.85
714.68	51936.49
714.87	51631.34
715.06	51848.42
715.24	51832.04
715.43	51811.56
715.62	51520.75
715.81	51631.34
716.00	51793.13
716.18	51375.34
716.37	51666.16
716.56	51533.04
716.75	51827.95
716.94	51250.42
717.12	50967.80
717.31	51856.62
717.50	51090.68
717.69	51438.83
717.88	51567.85
718.06	51174.64
718.25	51596.52
718.44	50715.90
718.63	51242.23
718.82	50906.36
719.00	51115.25
719.19	51107.06
719.38	50861.30
719.57	50392.32
719.76	50658.56
719.94	50507.01
720.13	50461.95
720.32	50916.60
720.51	50859.26
720.69	50576.64
720.88	50588.92
721.07	50509.05
721.26	50054.40
721.44	50310.40
721.63	50074.88
721.82	49863.94
722.01	50103.56
722.20	50414.85
722.38	50033.92
722.57	49394.96
722.76	49872.14
722.95	49909.00
723.13	49624.33
723.32	50015.49
723.51	49528.08
723.70	49999.11
723.88	49683.72
724.07	49779.98
724.26	49751.30
724.44	49343.76
724.63	49755.40
724.82	49796.36
725.01	49169.68
725.19	49624.33
725.38	49059.09
725.57	49341.71
725.76	49323.28
725.94	49290.51
726.13	49009.94
726.32	49014.04
726.51	48727.32
726.69	49673.48
726.88	48897.30
727.07	49354.00
727.25	48907.54
727.44	49114.39
727.63	49067.28
727.82	49001.75
728.00	49085.72
728.19	48966.93
728.38	49513.74
728.56	48538.91
728.75	49042.71
728.94	48502.04
729.12	48852.25
729.31	49079.57
729.50	48690.46
729.69	49128.72
729.87	48497.95
730.06	48792.86
730.25	48755.99
730.43	48981.27
730.62	48497.95
730.81	49151.25
730.99	48997.65
731.18	48686.36
731.37	48948.50
731.55	49108.24
731.74	49394.96
731.93	49165.59
732.11	48755.99
732.30	49065.24
732.49	48846.10
732.67	49075.48
732.86	48723.22
733.05	48559.39
733.23	48432.41
733.42	48864.53
733.61	48524.57
733.79	48735.51
733.98	49116.43
734.17	48708.89
734.35	48710.94
734.54	48919.83
734.73	48915.73
734.91	48907.54
735.10	48725.27
735.29	48710.94
735.47	47994.15
735.66	48721.18
735.84	48223.52
736.03	48301.34
736.22	48903.45
736.40	48321.82
736.59	48565.53
736.78	48428.32
736.96	48354.59
737.15	48282.91
737.33	48121.12
737.52	48133.41
737.71	47877.41
737.89	48360.73
738.08	47867.17
738.27	47899.94
738.45	48182.56
738.64	48280.86
738.82	48026.92
739.01	48198.94
739.20	47752.49
739.38	48133.41
739.57	48239.90
739.75	47830.31
739.94	47912.23
740.13	47873.32
740.31	47459.63
740.50	47326.51
740.68	47658.28
740.87	47592.75
741.06	47977.76
741.24	47562.03
741.43	47410.48
741.61	47842.60
741.80	47322.41
741.99	47506.73
742.17	47390.00
742.36	47586.60
742.54	47373.61
742.73	47545.64
742.91	47330.61
743.10	47209.78
743.29	47691.05
743.47	47424.81
743.66	47123.76
743.84	47283.50
744.03	47205.68
744.21	46957.88
744.40	47394.09
744.59	46970.16
744.77	46773.56
744.96	46888.24
745.14	47232.30
745.33	46855.48
745.51	46413.12
745.70	46759.22
745.88	46638.39
746.07	46531.90
746.26	46794.04
746.44	46564.67
746.63	46738.74
746.81	47068.47
747.00	46189.89
747.18	46791.99
747.37	46507.32
747.55	46320.96
747.74	46753.08
747.92	46058.82
748.11	46284.09
748.29	46648.63
748.48	46204.22
748.66	46085.44
748.85	46251.33
749.03	46259.52
749.22	46519.61
749.41	45993.28
749.59	46114.11
749.78	45708.61
749.96	45901.12
750.15	45903.17
750.33	46236.99
750.52	46077.25
750.70	45923.65
750.89	45636.94
751.07	45251.92
751.26	45794.63
751.44	45933.89
751.63	45348.17
751.81	45530.44
752.00	44922.19
752.18	45661.51
752.37	45118.80
752.55	45151.57
752.74	45444.43
752.92	45053.26
753.10	44823.89
753.29	45415.76
753.47	45235.53
753.66	44610.90
753.84	45081.94
754.03	45110.61
754.21	44580.18
754.40	44930.39
754.58	45188.43
754.77	45000.02
754.95	44784.98
755.14	44322.14
755.32	44533.08
755.51	44397.91
755.69	44338.52
755.88	44531.03
756.06	44318.04
756.24	44283.23
756.43	44363.10
756.61	44451.16
756.80	44367.20
756.98	44010.85
757.17	44402.01
757.35	44490.07
757.54	43996.51
757.72	44424.54
757.90	44193.12
758.09	43810.15
758.27	43799.91
758.46	43529.58
758.64	43699.56
758.83	43930.98
759.01	44039.52
759.19	43847.01
759.38	43844.96
759.56	44092.77
759.75	43756.90
759.93	43820.39
760.12	43605.35
760.30	43584.87
760.48	43398.51
760.67	43453.80
760.85	43627.88
761.04	43517.29
761.22	43711.84
761.40	43394.41
761.59	43216.24
761.77	43160.94
761.96	43003.25
762.14	42945.90
762.32	42866.03
762.51	43087.21
762.69	42917.23
762.88	42642.81
763.06	42904.95
763.24	42911.09
763.43	43171.18
763.61	42648.95
763.80	42575.22
763.98	42943.86
764.16	42661.24
764.35	42345.85
764.53	42067.33
764.72	42132.86
764.90	42755.44
765.08	42716.53
765.27	42575.22
765.45	42214.78
765.63	41721.22
765.82	42661.24
766.00	41991.55
766.18	42280.31
766.37	42335.61
766.55	41772.42
766.74	42440.06
766.92	42042.75
767.10	41813.38
767.29	41891.20
767.47	41674.12
767.65	41647.49
767.84	41629.06
768.02	41686.40
768.20	41151.88
768.39	41452.94
768.57	41358.73
768.75	41317.77
768.94	41743.75
769.12	41305.48
769.30	41000.33
769.49	41342.35
769.67	41123.21
769.85	40502.68
770.04	40809.87
770.22	41055.63
770.40	40856.98
770.59	40441.24
770.77	40996.24
770.95	40949.14
771.14	40736.15
771.32	40256.92
771.50	40265.11
771.69	40387.99
771.87	40519.06
772.05	40308.12
772.24	40091.04
772.42	40486.29
772.60	40218.01
772.78	40285.59
772.97	39878.05
773.15	40498.58
773.33	40277.40
773.52	39636.39
773.70	40457.62
773.88	40328.60
774.07	39867.81
774.25	39867.81
774.43	40166.81
774.61	39894.43
774.80	40031.65
774.98	39902.62
775.16	40531.35
775.34	40402.33
775.53	39966.11
775.71	40258.97
775.89	40084.89
776.08	39843.23
776.26	40312.22
776.44	40017.31
776.62	40261.02
776.81	40146.33
776.99	40535.45
777.17	40318.36
777.35	40254.87
777.54	40951.18
777.72	40078.75
777.90	40105.37
778.08	40342.94
778.27	40275.35
778.45	40400.28
778.63	40711.57
778.81	39914.91
779.00	40369.56
779.18	40809.87
779.36	40619.41
779.54	40707.47
779.73	40293.79
779.91	40488.34
780.09	40301.98
780.27	41164.17
780.46	40340.89
780.64	40744.34
780.82	40379.80
781.00	40582.55
781.19	40744.34
781.37	40875.41
781.55	40830.35
781.73	41321.87
781.91	40695.19
782.10	40543.64
782.28	40986.00
782.46	40879.50
782.64	41072.01
782.82	40449.43
783.01	41217.42
783.19	41112.97
783.37	41344.39
783.55	40957.33
783.74	41147.79
783.92	40496.53
784.10	41153.93
784.28	40969.61
784.46	40684.95
784.64	40838.54
784.83	40961.42
785.01	41158.03
785.19	40889.74
785.37	41031.05
785.55	40553.88
785.74	40670.61
785.92	40342.94
786.10	41014.67
786.28	40689.04
786.46	40940.94
786.64	40476.05
786.83	40461.72
787.01	40723.86
787.19	40840.59
787.37	40385.94
787.55	40713.62
787.74	40185.24
787.92	40295.83
788.10	40383.90
788.28	39876.00
788.46	40445.33
788.64	39804.32
788.82	40441.24
789.01	40252.83
789.19	40482.20
789.37	40191.39
789.55	40414.62
789.73	39980.45
789.91	40187.29
790.09	39974.30
790.28	39724.45
790.46	39681.44
790.64	39638.44
790.82	39622.05
791.00	40027.55
791.18	39552.42
791.36	39318.95
791.55	39542.18
791.73	39226.79
791.91	39024.04
792.09	39042.48
792.27	39230.89
792.45	38987.18
792.63	38933.93
792.81	38794.67
793.00	38882.73
793.18	38696.37
793.36	38813.10
793.54	38526.39
793.72	38559.16
793.90	38434.23
794.08	38241.72
794.26	38356.41
794.44	37881.28
794.62	37891.52
794.81	38397.37
794.99	38006.20
795.17	37711.30
795.35	38045.12
795.53	37600.71
795.71	38251.96
795.89	37682.62
796.07	37432.77
796.25	37303.75
796.43	37524.93
796.61	37148.11
796.80	36955.60
796.98	37168.58
797.16	37193.16
797.34	37215.69
797.52	36722.13
797.70	36898.25
797.88	37236.17
798.06	36445.65
798.24	36505.04
798.42	36359.64
798.60	36404.69
798.78	36261.33
798.96	36505.04
799.14	36255.19
799.32	36478.42
799.51	36013.53
799.69	36300.25
799.87	36011.48
800.05	36077.02
800.23	35954.14
800.41	35655.14
800.59	35648.99
800.77	35878.36
800.95	35364.32
801.13	35667.42
801.31	35208.68
801.49	35247.59
801.67	34952.68
801.85	35560.93
802.03	34760.17
802.21	35167.72
802.39	34903.53
802.57	34942.44
802.75	34958.83
802.93	34770.41
803.11	34530.80
803.29	34598.38
803.47	34422.26
803.65	34571.76
803.83	34622.96
804.01	34627.06
804.19	34293.24
804.37	33836.54
804.55	34100.73
804.73	34119.16
804.91	33988.09
805.09	34106.87
805.27	33895.93
805.45	33914.36
805.63	33920.51
805.81	33834.49
805.99	33951.23
806.17	33793.53
806.35	33854.97
806.53	33703.42
806.71	33402.37
806.89	33707.52
807.07	33359.36
807.25	33793.53
807.43	33109.51
807.61	33422.85
807.79	33232.39
807.97	33054.22
808.15	32777.74
808.33	32798.22
808.51	32839.18
808.69	32724.49
808.87	32503.31
809.05	32620.05
809.23	32527.89
809.41	32255.51
809.59	32155.16
809.77	32341.52
809.95	31843.87
810.13	32470.54
810.31	32032.28
810.49	32343.57
810.67	31985.18
810.84	32079.38
811.02	32222.74
811.20	31751.71
811.38	31610.40
811.56	31360.55
811.74	31680.03
811.92	31647.26
812.10	31505.95
812.28	31897.11
812.46	31856.15
812.64	31540.77
812.82	31741.47
813.00	31512.10
813.18	31409.70
813.36	31258.15
813.53	30987.82
813.71	31370.79
813.89	31028.77
814.07	30998.06
814.25	31241.76
814.43	31061.54
814.61	30953.00
814.79	30660.14
814.97	30744.11
815.15	30909.99
815.33	30590.51
815.50	30516.78
815.68	31016.49
815.86	30735.92
816.04	30508.59
816.22	30287.41
816.40	30410.29
816.58	30776.87
816.76	30217.78
816.94	30211.64
817.11	29945.40
817.29	30125.62
817.47	30156.34
817.65	30084.66
817.83	29957.69
818.01	29888.06
818.19	29963.83
818.37	29924.92
818.54	30066.23
818.72	29718.07
818.90	29709.88
819.08	30084.66
819.26	29634.11
819.44	29603.39
819.62	29466.17
819.80	29560.38
819.97	29646.40
820.15	29402.69
820.33	29290.05
820.51	29865.53
820.69	29212.23
820.87	29292.10
821.05	29292.10
821.22	29292.10
821.40	29263.43
821.58	29099.59
821.76	28868.17
821.94	28876.36
822.12	28964.42
822.29	29226.56
822.47	28608.08
822.65	29324.86
822.83	28862.02
823.01	28900.94
823.19	28651.08
823.36	28538.44
823.54	28657.23
823.72	28298.83
823.90	28689.99
824.08	28243.54
824.25	28702.28
824.43	28292.69
824.61	28487.25
824.79	28507.72
824.97	28368.46
825.15	28343.89
825.32	28024.40
825.50	28190.29
825.68	27907.67
825.86	28415.57
826.04	28083.80
826.21	28372.56
826.39	28022.36
826.57	27874.90
826.75	27901.53
826.93	27598.43
827.10	28030.55
827.28	27815.51
827.46	28026.45
827.64	27645.53
827.81	27536.99
827.99	27879.00
828.17	27733.59
828.35	27639.39
828.53	27641.43
828.70	27367.01
828.88	27647.58
829.06	27600.47
829.24	27571.80
829.41	27457.12
829.59	27721.30
829.77	27369.05
829.95	27381.34
830.12	27237.98
830.30	27309.66
830.48	27141.73
830.66	27342.43
830.84	27285.09
831.01	27252.32
831.19	27362.91
831.37	26979.94
831.55	26742.38
831.72	26832.49
831.90	27151.97
832.08	26947.17
832.25	26723.94
832.43	26932.84
832.61	26631.79
832.79	26566.25
832.96	26680.94
833.14	26879.59
833.32	26521.20
833.50	26775.14
833.67	26482.28
833.85	26594.92
834.03	26160.75
834.20	26766.95
834.38	26693.22
834.56	26709.61
834.74	26173.04
834.91	26721.90
835.09	26728.04
835.27	25966.20
835.44	26046.07
835.62	25953.91
835.80	26142.32
835.98	26330.73
836.15	26064.50
836.33	26201.71
836.51	26195.57
836.68	26068.59
836.86	25849.46
837.04	26179.18
837.21	25921.14
837.39	26259.06
837.57	26072.69
837.75	25941.62
837.92	25857.65
838.10	26019.44
838.28	25595.51
838.45	25695.86
838.63	25667.19
838.81	25693.82
838.98	25747.06
839.16	25458.30
839.34	25503.35
839.51	25699.96
839.69	25595.51
839.87	25269.89
840.04	25486.97
840.22	25288.32
840.40	25499.26
840.57	25159.30
840.75	25089.67
840.93	25167.49
841.10	25407.10
841.28	25396.86
841.46	25087.62
841.63	25216.64
841.81	25247.36
841.98	24854.15
842.16	25302.65
842.34	25132.67
842.51	24985.22
842.69	25097.86
842.87	24907.40
843.04	25015.94
843.22	24845.96
843.40	24747.65
843.57	24981.12
843.75	24645.26
843.92	24807.05
844.10	25022.08
844.28	24968.84
844.45	24841.86
844.63	24764.04
844.81	24759.94
844.98	24374.92
845.16	24637.06
845.33	24440.46
845.51	24424.08
845.69	24401.55
845.86	24430.22
846.04	24250.00
846.21	24084.11
846.39	24344.20
846.57	24323.72
846.74	24370.83
846.92	24039.06
847.09	24123.02
847.27	24262.29
847.45	24178.32
847.62	24231.57
847.80	24274.57
847.97	24043.15
848.15	24041.11
848.32	23803.54
848.50	24288.91
848.68	23957.14
848.85	23619.22
849.03	23445.15
849.20	23899.80
849.38	23819.92
849.56	23916.18
849.73	23533.21
849.91	23738.01
850.08	23885.46
850.26	23520.92
850.43	23615.13
850.61	23416.47
850.78	23322.27
850.96	23217.82
851.14	23383.71
851.31	23504.54
851.49	23228.06
851.66	23328.41
851.84	23588.50
852.01	23561.88
852.19	23371.42
852.36	23457.43
852.54	23258.78
852.71	23318.17
852.89	23064.22
853.07	22976.16
853.24	23240.35
853.42	22918.82
853.59	23303.84
853.77	23289.50
853.94	23207.58
854.12	23137.95
854.29	22974.11
854.47	23342.75
854.64	22935.20
854.82	22869.67
854.99	22955.68
855.17	22785.70
855.34	23023.26
855.52	22890.15
855.69	22974.11
855.87	22693.54
856.04	22634.15
856.22	22716.07
856.39	22251.18
856.57	22496.94
856.74	22517.42
856.92	22410.92
857.09	22486.70
857.27	22281.90
857.44	22417.07
857.62	22501.03
857.79	22605.48
857.97	22619.81
858.14	22394.54
858.32	22101.68
858.49	22374.06
858.67	22234.80
858.84	22116.01
859.02	22290.09
859.19	22161.07
859.37	21900.98
859.54	22005.42
859.72	22408.87
859.89	22179.50
860.06	21827.25
860.24	22064.82
860.41	22030.00
860.59	22021.81
860.76	21755.57
860.94	21827.25
861.11	21755.57
861.29	21833.39
861.46	21862.07
861.64	21626.55
861.81	21569.21
861.98	21806.77
862.16	21599.93
862.33	21472.95
862.51	21556.92
862.68	21503.67
862.86	21518.01
863.03	21565.11
863.21	21614.26
863.38	21296.83
863.55	21366.46
863.73	21219.00
863.90	21249.72
864.08	21259.96
864.25	21212.86
864.43	21262.01
864.60	20881.09
864.77	20999.87
864.95	21182.14
865.12	20782.79
865.30	21128.89
865.47	20958.91
865.64	20952.77
865.82	20934.34
865.99	20989.63
866.17	20868.80
866.34	21149.37
866.51	20965.06
866.69	20745.92
866.86	20735.68
867.04	20827.84
867.21	20823.75
867.38	20577.99
867.56	20481.74
867.73	20704.96
867.91	20455.11
868.08	20604.61
868.25	20258.51
868.43	20246.22
868.60	20379.34
868.78	20459.21
868.95	20940.48
869.12	20256.46
869.30	20115.15
869.47	19924.69
869.64	19875.54
869.82	20010.70
869.99	20055.76
870.16	20438.73
870.34	20084.43
870.51	20197.07
870.69	19746.51
870.86	19969.74
871.03	19822.29
871.21	19891.92
871.38	19908.30
871.55	19687.12
871.73	19740.37
871.90	19525.33
872.07	19404.50
872.25	19586.77
872.42	19687.12
872.59	19766.99
872.77	19400.41
872.94	19566.29
873.11	19289.82
873.29	19470.04
873.46	19265.24
873.63	19285.72
873.81	19365.59
873.98	18970.33
874.15	19042.01
874.33	18859.74
874.50	18886.37
874.67	19150.56
874.85	18865.89
875.02	19187.42
875.19	18736.87
875.37	18636.52
875.54	18841.31
875.71	18845.41
875.88	18368.23
876.06	18538.21
876.23	18548.45
876.40	18583.27
876.58	18820.83
876.75	18589.41
876.92	18583.27
877.10	18589.41
877.27	18398.95
877.44	18585.32
877.61	18446.05
877.79	18190.06
877.96	18161.39
878.13	18247.40
878.31	18147.05
878.48	17936.11
878.65	17991.41
878.82	17858.29
879.00	18075.37
879.17	17932.01
879.34	17759.98
879.51	17903.34
879.69	17950.45
879.86	17753.84
880.03	17698.55
880.21	17780.46
880.38	17911.53
880.55	17790.70
880.72	17749.75
880.90	17893.10
881.07	17821.42
881.24	17733.36
881.41	17712.88
881.59	17477.37
881.76	17372.92
881.93	17506.04
882.10	17286.90
882.28	17303.29
882.45	17417.97
882.62	17542.90
882.79	17456.89
882.96	17071.87
883.14	17377.01
883.31	17428.21
883.48	17256.18
883.65	17106.68
883.83	16998.14
884.00	17116.92
884.17	16977.66
884.34	17215.23
884.51	17067.77
884.69	17075.96
884.86	16891.65
885.03	16594.69
885.20	16672.51
885.38	16822.02
885.55	16895.74
885.72	16766.72
885.89	16654.08
886.06	16842.50
886.24	16967.42
886.41	16981.76
886.58	16942.85
886.75	17067.77
886.92	16453.38
887.10	16918.27
887.27	16492.29
887.44	16697.09
887.61	17088.25
887.78	16615.17
887.95	16703.23
888.13	16576.26
888.30	16447.24
888.47	16527.11
888.64	16453.38
888.81	16627.46
888.99	16471.81
889.16	16416.52
889.33	16156.43
889.50	16023.31
889.67	16164.62
889.84	16236.30
890.01	16273.16
890.19	16088.84
890.36	15974.16
890.53	16160.52
890.70	15888.14
890.87	16240.39
891.04	15886.09
891.22	15728.40
891.39	15873.81
891.56	15789.84
891.73	16015.12
891.90	15662.86
892.07	15773.46
892.24	15574.80
892.42	15505.17
892.59	15712.02
892.76	15351.57
892.93	15705.87
893.10	15795.98
893.27	15605.52
893.44	15564.56
893.61	15673.10
893.79	15937.29
893.96	15560.47
894.13	15601.43
894.30	15337.24
894.47	15525.65
894.64	15724.30
894.81	15341.33
894.98	15589.14
895.15	15519.51
895.33	15503.12
895.50	15537.94
895.67	15456.02
895.84	15419.16
896.01	15197.98
896.18	15449.88
896.35	15556.37
896.52	15675.15
896.69	15304.47
896.86	15337.24
897.04	15337.24
897.21	15314.71
897.38	15482.64
897.55	15308.57
897.72	15273.75
897.89	14976.80
898.06	15394.58
898.23	15312.66
898.40	15380.25
898.57	15281.94
898.74	15200.02
898.91	15337.24
899.08	15238.94
899.26	15331.09
899.43	15273.75
899.60	15126.30
899.77	15159.06
899.94	15132.44
900.11	15095.58
900.28	15050.52
900.45	15003.42
900.62	15054.62
900.79	15134.49
900.96	15312.66
901.13	15435.54
901.30	15234.84
901.47	14786.33
901.64	15142.68
901.81	15034.14
901.98	15042.33
902.15	15320.85
902.32	15150.87
902.49	15179.54
902.66	15177.50
902.83	15159.06
903.01	15103.77
903.18	15089.43
903.35	15208.22
903.52	15273.75
903.69	15267.61
903.86	15107.87
904.03	15245.08
904.20	15120.15
904.37	15296.28
904.54	14839.58
904.71	15111.96
904.88	15175.45
905.05	14956.32
905.22	14925.60
905.39	14855.97
905.56	15060.76
905.73	14915.36
905.90	15032.09
906.07	15038.23
906.24	15027.99
906.41	14839.58
906.58	15200.02
906.75	14952.22
906.92	14815.01
907.09	14995.23
907.26	15050.52
907.43	14817.05
907.60	14602.02
907.77	15025.95
907.93	14880.54
908.10	14868.25
908.27	14944.03
908.44	14849.82
908.61	14505.76
908.78	14542.63
908.95	14763.81
909.12	14751.52
909.29	14898.97
909.46	14718.75
909.63	14923.55
909.80	14774.05
909.97	14903.07
910.14	14817.05
910.31	14655.26
910.48	14882.59
910.65	14776.09
910.82	14610.21
910.99	14673.70
911.16	14702.37
911.33	14677.79
911.50	14581.54
911.66	14602.02
911.83	14571.30
912.00	14214.95
912.17	14454.56
912.34	14286.63
912.51	14427.94
912.68	14346.02
912.85	14479.14
913.02	14247.72
913.19	14397.22
913.36	14407.46
913.53	14405.41
913.70	14266.15
913.86	14444.32
914.03	14087.98
914.20	14255.91
914.37	14309.16
914.54	14221.10
914.71	14075.69
914.88	13983.53
915.05	14241.57
915.22	14208.81
915.39	14210.86
915.55	14159.66
915.72	14063.40
915.89	13961.00
916.06	13799.21
916.23	13899.56
916.40	13647.66
916.57	13877.04
916.74	13594.42
916.91	13537.07
917.07	13764.40
917.24	13494.07
917.41	13530.93
917.58	13606.70
917.75	13717.29
917.92	13203.25
918.09	13319.99
918.26	13328.18
918.42	13322.04
918.59	13354.80
918.76	13344.56
918.93	13184.82
919.10	13090.62
919.27	13289.27
919.44	13039.42
919.60	13324.08
919.77	13004.60
919.94	13131.58
920.11	12951.35
920.28	13061.94
920.45	12848.96
920.61	12920.63
920.78	12771.13
920.95	12724.03
921.12	12816.19
921.29	12592.96
921.46	12957.50
921.62	12447.55
921.79	12660.54
921.96	12617.54
922.13	12545.86
922.30	12365.64
922.47	12713.79
922.63	12302.15
922.80	12390.21
922.97	12250.95
923.14	11982.67
923.31	12218.18
923.47	11937.61
923.64	12263.24
923.81	12105.54
923.98	12013.38
924.15	12019.53
924.32	11956.04
924.48	11890.51
924.65	12230.47
924.82	11720.53
924.99	11757.39
925.15	11646.80
925.32	11698.00
925.49	11530.06
925.66	11698.00
925.83	11652.94
925.99	11544.40
926.16	11337.56
926.33	11458.39
926.50	11132.76
926.67	11163.48
926.83	11351.89
927.00	11243.35
927.17	11452.24
927.34	11226.96
927.50	11183.96
927.67	11235.16
927.84	11075.42
928.01	11028.31
928.17	10895.19
928.34	10889.05
928.51	10897.24
928.68	10772.32
928.84	10616.67
929.01	10669.92
929.18	10411.87
929.35	10467.17
929.51	10567.52
929.68	10475.36
929.85	10399.59
930.02	10381.15
930.18	10387.30
930.35	10299.23
930.52	10313.57
930.69	10473.31
930.85	10321.76
931.02	10100.58
931.19	10284.90
931.36	10192.74
931.52	10170.21
931.69	10125.16
931.86	9961.32
932.02	9949.03
932.19	9908.07
932.36	9865.07
932.53	9842.54
932.69	9570.16
932.86	9756.52
933.03	9564.01
933.19	9604.97
933.36	9598.83
933.53	9547.63
933.70	9496.43
933.86	9402.22
934.03	9379.70
934.20	9383.79
934.36	9363.31
934.53	9054.07
934.70	8970.10
934.86	9119.60
935.03	8972.15
935.20	8802.17
935.36	8939.38
935.53	8667.00
935.70	8744.83
935.86	8810.36
936.03	8578.94
936.20	8408.96
936.36	8277.89
936.53	8466.30
936.70	8429.44
936.86	8472.45
937.03	8200.07
937.20	8150.92
937.36	8243.07
937.53	7907.21
937.70	8073.09
937.86	7794.57
938.03	7708.55
938.20	7712.65
938.36	7597.96
938.53	7643.02
938.70	7425.93
938.86	7425.93
939.03	7290.77
939.20	7139.22
939.36	7198.61
939.53	7038.87
939.70	7358.35
939.86	6844.31
940.03	6774.68
940.19	6672.28
940.36	6754.20
940.53	6746.01
940.69	6539.16
940.86	6522.78
941.03	6444.96
941.19	6262.69
941.36	6418.33
941.52	6291.36
941.69	6096.80
941.86	6203.30
942.02	6254.50
942.19	5986.21
942.35	6131.62
942.52	5973.92
942.69	5949.35
942.85	5851.05
943.02	5949.35
943.18	5818.28
943.35	5695.40
943.52	5629.87
943.68	5658.54
943.85	5656.49
944.01	5609.39
944.18	5443.50
944.35	5642.15
944.51	5531.56
944.68	5345.20
944.84	5420.97
945.01	5461.93
945.17	5375.92
945.34	5427.12
945.51	5466.03
945.67	5435.31
945.84	5343.15
946.00	5328.81
946.17	5281.71
946.33	5156.79
946.50	5341.10
946.67	5330.86
946.83	5152.69
947.00	5287.86
947.16	5337.01
947.33	5238.70
947.49	5218.22
947.66	5253.04
947.82	5158.83
947.99	5279.66
948.16	5212.08
948.32	5169.07
948.49	5300.14
948.65	5234.61
948.82	5226.42
948.98	5222.32
949.15	5105.59
949.31	5345.20
949.48	5406.64
949.64	5107.63
949.81	5308.34
949.97	5210.03
950.14	5218.22
950.30	5121.97
950.47	5220.27
950.63	5328.81
950.80	5263.28
950.96	5316.53
951.13	5287.86
951.30	5287.86
951.46	5253.04
951.63	5279.66
951.79	5287.86
951.96	5427.12
952.12	5365.68
952.29	5398.45
952.45	5244.85
952.62	5255.09
952.78	5394.35
952.94	5265.33
953.11	5316.53
953.27	5234.61
953.44	5470.12
953.60	5390.25
953.77	5470.12
953.93	5425.07
954.10	5320.62
954.26	5201.84
954.43	5296.05
954.59	5328.81
954.76	5433.26
954.92	5427.12
955.09	5382.06
955.25	5423.02
955.42	5437.36
955.58	5506.99
955.75	5345.20
955.91	5367.73
956.07	5466.03
956.24	5515.18
956.40	5300.14
956.57	5543.85
956.73	5392.30
956.90	5521.32
957.06	5363.63
957.23	5478.32
957.39	5402.54
957.56	5363.63
957.72	5353.39
957.88	5269.42
958.05	5470.12
958.21	5554.09
958.38	5492.65
958.54	5234.61
958.71	5472.17
958.87	5414.83
959.03	5412.78
959.20	5580.71
959.36	5390.25
959.53	5382.06
959.69	5406.64
959.85	5447.60
960.02	5238.70
960.18	5466.03
960.35	5420.97
960.51	5418.93
960.68	5351.34
960.84	5476.27
961.00	5296.05
961.17	5375.92
961.33	5447.60
961.50	5451.69
961.66	5371.82
961.82	5382.06
961.99	5388.21
962.15	5380.01
962.31	5320.62
962.48	5240.75
962.64	5513.13
962.81	5324.72
962.97	5423.02
963.13	5420.97
963.30	5384.11
963.46	5343.15
963.62	5339.05
963.79	5373.87
963.95	5359.53
964.12	5474.22
964.28	5435.31
964.44	5263.28
964.61	5248.94
964.77	5330.86
964.93	5390.25
965.10	5316.53
965.26	5353.39
965.42	5181.36
965.59	5212.08
965.75	5337.01
965.92	5214.13
966.08	5343.15
966.24	5238.70
966.41	5306.29
966.57	5283.76
966.73	5267.38
966.90	5359.53
967.06	5250.99
967.22	5222.32
967.39	5144.50
967.55	5191.60
967.71	5130.16
967.88	5107.63
968.04	5296.05
968.20	5124.02
968.37	5074.87
968.53	5130.16
968.69	5097.39
968.85	5337.01
969.02	5279.66
969.18	5289.90
969.34	5054.39
969.51	5132.21
969.67	5140.40
969.83	5095.35
970.00	5150.64
970.16	5078.96
970.32	5177.26
970.48	5158.83
970.65	4943.80
970.81	5103.54
970.97	5060.53
971.14	5021.62
971.30	5066.67
971.46	4964.28
971.63	4935.60
971.79	5064.63
971.95	5058.48
972.11	4908.98
972.28	4970.42
972.44	4980.66
972.60	4878.26
972.76	4929.46
972.93	4935.60
973.09	5060.53
973.25	4945.84
973.42	4818.87
973.58	4892.60
973.74	4911.03
973.90	4980.66
974.07	4884.41
974.23	4853.69
974.39	4857.78
974.55	4831.16
974.72	4792.25
974.88	4685.75
975.04	4841.40
975.20	4804.53
975.37	4851.64
975.53	4706.23
975.69	4702.14
975.85	4681.66
976.01	4708.28
976.18	4542.39
976.34	4644.79
976.50	4743.10
976.66	4736.95
976.83	4698.04
976.99	4671.42
977.15	4685.75
977.31	4536.25
977.47	4601.79
977.64	4669.37
977.80	4546.49
977.96	4683.70
978.12	4747.19
978.29	4638.65
978.45	4421.56
978.61	4564.92
978.77	4734.90
978.93	4532.15
979.10	4575.16
979.26	4573.11
979.42	4405.18
979.58	4378.56
979.74	4464.57
979.91	4435.90
980.07	4562.87
980.23	4558.78
980.39	4331.45
980.55	4460.48
980.71	4310.97
980.88	4437.95
981.04	4407.23
981.20	4401.08
981.36	4503.48
981.52	4433.85
981.68	4288.45
981.85	4571.07
982.01	4356.03
982.17	4319.17
982.33	4415.42
982.49	4437.95
982.65	4343.74
982.82	4212.67
982.98	4431.80
983.14	4208.58
983.30	4349.89
983.46	4306.88
983.62	4286.40
983.79	4188.10
983.95	4243.39
984.11	4194.24
984.27	4241.34
984.43	4136.90
984.59	4171.71
984.75	4196.29
984.91	4194.24
985.08	4102.08
985.24	4175.81
985.40	4124.61
985.56	4128.70
985.72	4235.20
985.88	4362.17
986.04	4202.43
986.20	4038.59
986.37	4067.27
986.53	3987.40
986.69	4118.47
986.85	4052.93
987.01	4018.11
987.17	4050.88
987.33	4011.97
987.49	3882.95
987.65	4114.37
987.82	3960.77
987.98	3942.34
988.14	3887.04
988.30	3958.72
988.46	3862.47
988.62	3960.77
988.78	3819.46
988.94	3841.99
989.10	3891.14
989.26	3899.33
989.42	3848.13
989.59	3776.45
989.75	3907.52
989.91	3862.47
990.07	3821.51
990.23	3823.56
990.39	3868.61
990.55	3901.38
990.71	3848.13
990.87	3829.70
991.03	3885.00
991.19	3772.36
991.35	3782.60
991.51	3790.79
991.67	3837.89
991.83	3755.97
992.00	3723.21
992.16	3805.13
992.32	3723.21
992.48	3837.89
992.64	3686.34
992.80	3641.29
992.96	3780.55
993.12	3678.15
993.28	3706.82
993.44	3682.25
993.60	3600.33
993.76	3663.82
993.92	3571.66
994.08	3817.41
994.24	3590.09
994.40	3592.14
994.56	3645.38
994.72	3602.38
994.88	3553.23
995.04	3577.80
995.20	3510.22
995.36	3551.18
995.52	3575.75
995.68	3565.51
995.84	3512.27
996.00	3585.99
996.16	3512.27
996.32	3497.93
996.48	3461.07
996.64	3514.31
996.80	3473.36
996.96	3649.48
997.12	3471.31
997.28	3366.86
997.44	3506.12
997.60	3432.40
997.76	3465.16
997.92	3581.90
998.08	3395.53
998.24	3340.24
998.40	3504.07
998.56	3573.71
998.72	3332.05
998.88	3428.30
999.04	3268.56
999.20	3428.30
999.36	3352.52
999.52	3434.44
999.68	3354.57
999.84	3360.72
1000.00	3327.95
1000.16	3307.47
1000.32	3311.57
1000.48	3293.13
1000.64	3272.65
1000.80	3258.32
1000.95	3125.20
1001.11	3182.54
1001.27	3125.20
1001.43	3096.53
1001.59	3153.87
1001.75	3219.41
1001.91	3235.79
1002.07	3217.36
1002.23	3147.73
1002.39	3227.60
1002.55	3121.10
1002.71	3170.26
1002.87	3071.95
1003.03	3190.74
1003.19	3102.67
1003.34	3176.40
1003.50	3080.14
1003.66	3172.30
1003.82	3065.81
1003.98	3160.02
1004.14	3098.58
1004.30	3033.04
1004.46	3026.90
1004.62	3051.47
1004.78	3047.38
1004.94	3110.86
1005.09	3160.02
1005.25	2985.94
1005.41	3020.75
1005.57	3000.27
1005.73	3006.42
1005.89	2904.02
1006.05	2977.75
1006.21	2942.93
1006.37	2947.03
1006.52	2916.31
1006.68	2887.64
1006.84	2891.73
1007.00	2822.10
1007.16	2912.21
1007.32	2926.55
1007.48	2887.64
1007.64	2961.36
1007.79	2969.55
1007.95	2760.66
1008.11	2965.46
1008.27	2867.16
1008.43	2955.22
1008.59	2770.90
1008.75	2947.03
1008.91	2799.57
1009.06	2746.33
1009.22	2983.89
1009.38	2842.58
1009.54	2760.66
1009.70	2891.73
1009.86	2861.01
1010.01	2879.44
1010.17	2729.94
1010.33	2877.40
1010.49	2844.63
1010.65	2828.24
1010.81	2688.98
1010.96	2772.95
1011.12	2795.48
1011.28	2768.85
1011.44	2701.27
1011.60	2721.75
1011.76	2748.37
1011.91	2801.62
1012.07	2682.84
1012.23	2576.34
1012.39	2639.83
1012.55	2656.22
1012.71	2631.64
1012.86	2707.41
1013.02	2713.56
1013.18	2600.92
1013.34	2602.97
1013.50	2734.04
1013.65	2752.47
1013.81	2641.88
1013.97	2582.49
1014.13	2723.80
1014.29	2594.78
1014.44	2648.02
1014.60	2643.93
1014.76	2527.19
1014.92	2574.30
1015.07	2688.98
1015.23	2545.63
1015.39	2551.77
1015.55	2551.77
1015.71	2598.87
1015.86	2478.04
1016.02	2475.99
1016.18	2488.28
1016.34	2586.58
1016.49	2496.47
1016.65	2584.54
1016.81	2588.63
1016.97	2508.76
1017.12	2596.82
1017.28	2461.66
1017.44	2402.27
1017.60	2494.43
1017.75	2445.27
1017.91	2547.67
1018.07	2402.27
1018.23	2432.99
1018.38	2502.62
1018.54	2443.23
1018.70	2371.55
1018.86	2420.70
1019.01	2428.89
1019.17	2402.27
1019.33	2496.47
1019.49	2416.60
1019.64	2449.37
1019.80	2465.75
1019.96	2437.08
1020.12	2426.84
1020.27	2273.25
1020.43	2336.73
1020.59	2389.98
1020.74	2342.88
1020.90	2359.26
1021.06	2404.32
1021.22	2342.88
1021.37	2297.82
1021.53	2238.43
1021.69	2330.59
1021.84	2334.68
1022.00	2330.59
1022.16	2336.73
1022.31	2301.92
1022.47	2359.26
1022.63	2269.15
1022.79	2299.87
1022.94	2289.63
1023.10	2367.45
1023.26	2320.35
1023.41	2265.05
1023.57	2121.70
1023.73	2371.55
1023.88	2250.72
1024.04	2246.62
1024.20	2263.01
1024.35	2248.67
1024.51	2289.63
1024.67	2236.38
1024.82	2314.20
1024.98	2203.61
1025.14	2260.96
1025.29	2275.29
1025.45	2320.35
1025.61	2195.42
1025.76	2228.19
1025.92	2220.00
1026.08	2140.13
1026.23	2295.77
1026.39	2207.71
1026.55	2179.04
1026.70	2148.32
1026.86	2154.46
1027.02	2297.82
1027.17	2254.81
1027.33	2205.66
1027.48	2179.04
1027.64	2215.90
1027.80	2093.02
1027.95	2191.33
1028.11	2140.13
1028.27	2207.71
1028.42	2138.08
1028.58	2045.92
1028.73	2131.94
1028.89	2035.68
1029.05	2179.04
1029.20	2117.60
>>>>>End Processed Spectral Data<<<<<
