SpectraSuite Data File
++++++++++++++++++++++++++++++++++++
Date: Fri Jun 02 14:49:25 CEST 2017
User: INFO_000
Dark Spectrum Present: No
Reference Spectrum Present: No
Number of Sampled Component Spectra: 1
Spectrometers: USB4H00879
Integration Time (usec): 80000 (USB4H00879)
Spectra Averaged: 1 (USB4H00879)
Boxcar Smoothing: 0 (USB4H00879)
Correct for Electrical Dark: No (USB4H00879)
Strobe/Lamp Enabled: No (USB4H00879)
Correct for Detector Non-linearity: No (USB4H00879)
Correct for Stray Light: No (USB4H00879)
Number of Pixels in Processed Spectrum: 3648
>>>>>Begin Processed Spectral Data<<<<<
345.13	1310.70
345.34	1310.70
345.56	1310.70
345.78	1249.26
345.99	1329.13
346.21	1716.20
346.42	1642.47
346.64	1693.67
346.86	1781.73
347.07	1665.00
347.29	1755.11
347.50	1609.70
347.72	1736.68
347.94	1761.25
348.15	1544.17
348.37	1609.70
348.59	1728.49
348.80	1624.04
349.02	1828.84
349.23	1888.23
349.45	1837.03
349.67	1818.60
349.88	1804.26
350.10	1902.56
350.31	1826.79
350.53	1720.29
350.75	2074.59
350.96	1759.21
351.18	1765.35
351.39	1843.17
351.61	1740.77
351.82	1894.37
352.04	1892.32
352.26	1800.16
352.47	1869.80
352.69	1830.88
352.90	1732.58
353.12	1826.79
353.34	1781.73
353.55	1902.56
353.77	1863.65
353.98	1839.08
354.20	1798.12
354.41	1953.76
354.63	1966.05
354.85	2033.63
355.06	1847.27
355.28	1798.12
355.49	1877.99
355.71	1834.98
355.92	1929.19
356.14	1916.90
356.35	1800.16
356.57	1875.94
356.79	1945.57
357.00	1925.09
357.22	1982.43
357.43	1857.51
357.65	1941.47
357.86	1865.70
358.08	1937.38
358.29	1986.53
358.51	1937.38
358.72	1976.29
358.94	1884.13
359.16	1957.86
359.37	1970.15
359.59	1896.42
359.80	1972.19
360.02	1964.00
360.23	2009.06
360.45	2013.15
360.66	1869.80
360.88	1783.78
361.09	1880.04
361.31	1974.24
361.52	1931.23
361.74	2084.83
361.95	2025.44
362.17	1949.67
362.38	2070.50
362.60	1982.43
362.81	1959.91
363.03	1937.38
363.24	1964.00
363.46	2093.02
363.67	2078.69
363.89	1966.05
364.10	1998.82
364.32	1955.81
364.53	2105.31
364.75	1908.71
364.96	2019.30
365.18	1978.34
365.39	1998.82
365.61	2013.15
365.82	2107.36
366.04	2035.68
366.25	1961.95
366.47	2019.30
366.68	2025.44
366.90	1955.81
367.11	2021.35
367.33	2080.74
367.54	2076.64
367.76	2007.01
367.97	2090.98
368.19	1937.38
368.40	2009.06
368.62	1914.85
368.83	2007.01
369.05	2068.45
369.26	1941.47
369.48	2058.21
369.69	1992.67
369.91	2039.78
370.12	1957.86
370.33	2109.41
370.55	2019.30
370.76	2052.06
370.98	2117.60
371.19	2078.69
371.41	2007.01
371.62	2060.26
371.84	1976.29
372.05	2164.70
372.27	2025.44
372.48	2074.59
372.69	2103.26
372.91	2150.37
373.12	2125.79
373.34	2072.54
373.55	2166.75
373.77	2160.61
373.98	2142.18
374.20	2150.37
374.41	2242.53
374.62	2125.79
374.84	2154.46
375.05	2154.46
375.27	2203.61
375.48	2215.90
375.70	2215.90
375.91	2168.80
376.12	2244.57
376.34	2093.02
376.55	2199.52
376.77	2197.47
376.98	2131.94
377.19	2162.66
377.41	2183.13
377.62	2220.00
377.84	2174.94
378.05	2340.83
378.27	2187.23
378.48	2344.92
378.69	2242.53
378.91	2289.63
379.12	2324.44
379.34	2254.81
379.55	2324.44
379.76	2312.16
379.98	2172.89
380.19	2238.43
380.41	2232.29
380.62	2217.95
380.83	2353.12
381.05	2240.48
381.26	2375.64
381.47	2179.04
381.69	2314.20
381.90	2371.55
382.12	2238.43
382.33	2326.49
382.54	2328.54
382.76	2220.00
382.97	2234.33
383.19	2236.38
383.40	2336.73
383.61	2318.30
383.83	2314.20
384.04	2365.40
384.25	2367.45
384.47	2445.27
384.68	2318.30
384.89	2293.72
385.11	2330.59
385.32	2365.40
385.54	2338.78
385.75	2324.44
385.96	2392.03
386.18	2473.95
386.39	2383.84
386.60	2326.49
386.82	2424.80
387.03	2379.74
387.24	2420.70
387.46	2379.74
387.67	2426.84
387.88	2455.51
388.10	2465.75
388.31	2543.58
388.52	2500.57
388.74	2478.04
388.95	2535.39
389.16	2535.39
389.38	2428.89
389.59	2631.64
389.80	2701.27
390.02	2459.61
390.23	2656.22
390.44	2547.67
390.66	2527.19
390.87	2471.90
391.08	2490.33
391.30	2605.02
391.51	2672.60
391.72	2607.06
391.94	2607.06
392.15	2623.45
392.36	2650.07
392.58	2525.15
392.79	2582.49
393.00	2688.98
393.22	2731.99
393.43	2766.81
393.64	2748.37
393.85	2789.33
394.07	2648.02
394.28	2617.30
394.49	2787.29
394.71	2746.33
394.92	2961.36
395.13	2705.37
395.35	2770.90
395.56	2754.52
395.77	2766.81
395.98	2729.94
396.20	2811.86
396.41	2836.44
396.62	2891.73
396.84	2807.77
397.05	2863.06
397.26	2846.68
397.47	2947.03
397.69	2797.53
397.90	2977.75
398.11	2904.02
398.32	2883.54
398.54	2822.10
398.75	2830.29
398.96	2830.29
399.18	3104.72
399.39	2987.99
399.60	3102.67
399.81	2998.23
400.03	2863.06
400.24	3182.54
400.45	2994.13
400.66	3000.27
400.88	3026.90
401.09	3213.26
401.30	2967.51
401.51	3117.01
401.73	3096.53
401.94	3045.33
402.15	3164.11
402.36	3080.14
402.58	3231.69
402.79	3190.74
403.00	2994.13
403.21	3133.39
403.43	3164.11
403.64	3215.31
403.85	3039.19
404.06	3215.31
404.27	3112.91
404.49	3143.63
404.70	3051.47
404.91	3229.65
405.12	3198.93
405.34	3293.13
405.55	3344.33
405.76	3053.52
405.97	3110.86
406.19	3262.41
406.40	3188.69
406.61	3313.61
406.82	3350.48
407.03	3282.89
407.25	3186.64
407.46	3471.31
407.67	3336.14
407.88	3450.83
408.09	3317.71
408.31	3321.81
408.52	3280.85
408.73	3327.95
408.94	3383.24
409.15	3342.28
409.37	3456.97
409.58	3524.55
409.79	3444.68
410.00	3571.66
410.21	3467.21
410.43	3461.07
410.64	3375.05
410.85	3528.65
411.06	3569.61
411.27	3497.93
411.48	3647.43
411.70	3469.26
411.91	3477.45
412.12	3579.85
412.33	3551.18
412.54	3637.19
412.76	3596.23
412.97	3639.24
413.18	3518.41
413.39	3592.14
413.60	3682.25
413.81	3743.69
414.03	3602.38
414.24	3557.32
414.45	3864.52
414.66	3547.08
414.87	3602.38
415.08	3669.96
415.30	3608.52
415.51	3885.00
415.72	3653.58
415.93	3686.34
416.14	3805.13
416.35	3786.69
416.56	3823.56
416.78	3856.33
416.99	3846.09
417.20	3862.47
417.41	3858.37
417.62	3952.58
417.83	3983.30
418.04	3991.49
418.26	3940.29
418.47	3805.13
418.68	4057.03
418.89	4030.40
419.10	4069.31
419.31	3839.94
419.52	4089.79
419.73	3923.91
419.95	4136.90
420.16	3983.30
420.37	3993.54
420.58	4063.17
420.79	3889.09
421.00	4079.55
421.21	4102.08
421.42	4106.18
421.63	4112.32
421.85	4093.89
422.06	4202.43
422.27	4184.00
422.48	4288.45
422.69	4140.99
422.90	4257.73
423.11	4265.92
423.32	4255.68
423.53	4448.19
423.75	4210.62
423.96	4505.53
424.17	4390.84
424.38	4431.80
424.59	4288.45
424.80	4540.35
425.01	4511.68
425.22	4382.65
425.43	4368.32
425.64	4575.16
425.85	4603.83
426.06	4564.92
426.28	4544.44
426.49	4485.05
426.70	4437.95
426.91	4628.41
427.12	4675.51
427.33	4534.20
427.54	4644.79
427.75	4669.37
427.96	4675.51
428.17	4800.44
428.38	4773.82
428.59	4784.06
428.80	4620.22
429.01	4870.07
429.23	4779.96
429.44	4970.42
429.65	5050.29
429.86	4865.97
430.07	4999.09
430.28	4970.42
430.49	4951.99
430.70	5066.67
430.91	4902.84
431.12	4929.46
431.33	5062.58
431.54	5148.59
431.75	5113.78
431.96	5185.46
432.17	4978.61
432.38	5056.43
432.59	5197.74
432.80	5279.66
433.01	5167.03
433.22	5263.28
433.43	5236.66
433.64	5031.86
433.85	5105.59
434.06	5183.41
434.27	5124.02
434.49	5418.93
434.70	5463.98
434.91	5298.10
435.12	5390.25
435.33	5298.10
435.54	5390.25
435.75	5242.80
435.96	5306.29
436.17	5146.55
436.38	5576.62
436.59	5455.79
436.80	5457.84
437.01	5760.94
437.22	5593.00
437.43	5466.03
437.64	5408.69
437.85	5660.59
438.06	5636.01
438.27	5597.10
438.48	5611.43
438.69	5676.97
438.90	5529.52
439.11	5654.44
439.32	5853.09
439.53	5687.21
439.74	5740.46
439.95	5943.21
440.16	5722.02
440.37	5662.63
440.57	5636.01
440.78	5902.25
440.99	5822.38
441.20	5988.26
441.41	5760.94
441.62	5937.06
441.83	5769.13
442.04	5988.26
442.25	5857.19
442.46	5898.15
442.67	5967.78
442.88	6492.06
443.09	5953.45
443.30	5988.26
443.51	5896.10
443.72	6274.98
443.93	6092.71
444.14	6289.31
444.35	6205.35
444.56	6156.19
444.77	6109.09
444.98	6229.92
445.19	6322.08
445.40	6172.58
445.61	6221.73
445.81	6424.48
446.02	6385.57
446.23	6375.33
446.44	6217.63
446.65	6469.53
446.86	6473.63
447.07	6627.23
447.28	6672.28
447.49	6590.36
447.70	6365.09
447.91	6717.34
448.12	6754.20
448.33	6703.00
448.54	6786.97
448.74	6795.16
448.95	6754.20
449.16	6580.12
449.37	6905.75
449.58	6805.40
449.79	7032.72
450.00	6651.80
450.21	6909.85
450.42	6924.18
450.63	7030.68
450.84	6850.46
451.05	6991.77
451.25	6918.04
451.46	6903.70
451.67	7182.23
451.88	7219.09
452.09	7081.88
452.30	7061.40
452.51	6991.77
452.72	7384.98
452.93	7405.46
453.13	6977.43
453.34	7274.38
453.55	7090.07
453.76	7284.62
453.97	7585.68
454.18	7376.78
454.39	7610.25
454.60	7430.03
454.81	7643.02
455.01	7673.74
455.22	7407.50
455.43	7673.74
455.64	7882.63
455.85	7944.07
456.06	7831.43
456.27	7864.20
456.48	7640.97
456.68	7933.83
456.89	8001.41
457.10	8028.04
457.31	8009.61
457.52	7843.72
457.73	7968.65
457.94	8380.29
458.14	8025.99
458.35	8441.73
458.56	8183.68
458.77	8255.36
458.98	8302.47
459.19	8177.54
459.39	8429.44
459.60	8380.29
459.81	8445.82
460.02	8542.08
460.23	8558.46
460.44	8710.01
460.65	8693.63
460.85	8787.83
461.06	8636.28
461.27	8599.42
461.48	8914.81
461.69	9246.58
461.89	8601.47
462.10	8939.38
462.31	8730.49
462.52	8779.64
462.73	8863.61
462.94	9273.20
463.14	9027.45
463.35	8943.48
463.56	9572.21
463.77	9197.43
463.98	9232.24
464.18	9158.52
464.39	9391.98
464.60	9635.69
464.81	9363.31
465.02	9490.29
465.23	9717.61
465.43	9760.62
465.64	9777.00
465.85	9514.86
466.06	9588.59
466.27	10037.09
466.47	9676.65
466.68	9971.56
466.89	10028.90
467.10	9920.36
467.30	9924.46
467.51	10198.88
467.72	10456.93
467.93	10104.68
468.14	10264.42
468.34	10479.46
468.55	10202.98
468.76	10327.91
468.97	10471.26
469.17	10452.83
469.38	10608.48
469.59	10872.67
469.80	10375.01
470.01	10563.42
470.21	10868.57
470.42	10977.11
470.63	11052.89
470.84	10712.92
471.04	11089.75
471.25	11003.74
471.46	11143.00
471.67	11425.62
471.87	11216.72
472.08	11370.32
472.29	11360.08
472.50	11251.54
472.70	11341.65
472.91	11403.09
473.12	11650.89
473.33	11583.31
473.53	11829.07
473.74	11636.56
473.95	11906.89
474.16	11964.23
474.36	11992.90
474.57	12087.11
474.78	12230.47
474.99	12250.95
475.19	12076.87
475.40	12529.47
475.61	12592.96
475.81	12746.56
476.02	12685.12
476.23	12848.96
476.44	12896.06
476.64	13152.06
476.85	13313.84
477.06	12986.17
477.27	13414.20
477.47	13356.85
477.68	13084.47
477.89	13639.47
478.09	13643.57
478.30	13528.88
478.51	13719.34
478.71	13788.97
478.92	13842.22
479.13	14022.44
479.34	14053.16
479.54	14167.85
479.75	14059.31
479.96	14186.28
480.16	14126.89
480.37	14341.93
480.58	14597.92
480.78	14468.90
480.99	14518.05
481.20	14888.73
481.41	15167.26
481.61	15038.23
481.82	15271.70
482.03	15122.20
482.23	15218.46
482.44	15308.57
482.65	15507.22
482.85	15853.33
483.06	15798.03
483.27	15795.98
483.47	15671.06
483.68	16084.75
483.89	16072.46
484.09	16033.55
484.30	16037.64
484.51	16420.61
484.71	16432.90
484.92	16629.51
485.13	16684.80
485.33	16877.31
485.54	16699.14
485.75	17188.60
485.95	17280.76
486.16	17250.04
486.37	17059.58
486.57	17094.40
486.78	17348.34
486.98	17239.80
487.19	17626.87
487.40	17710.83
487.60	17743.60
487.81	17802.99
488.02	18020.08
488.22	17829.62
488.43	18314.98
488.64	18220.78
488.84	18155.24
489.05	18638.56
489.25	18540.26
489.46	18636.52
489.67	18650.85
489.87	18833.12
490.08	18931.42
490.29	19345.11
490.49	19467.99
490.70	19287.77
490.90	19463.90
491.11	19572.44
491.32	19513.05
491.52	19551.96
491.73	19601.11
491.94	19828.43
492.14	19773.14
492.35	20109.01
492.55	20268.75
492.76	20123.34
492.97	20383.43
493.17	20326.09
493.38	20362.95
493.58	20817.60
493.79	20778.69
494.00	20604.61
494.20	21034.69
494.41	20719.30
494.61	20901.57
494.82	20979.39
495.02	21184.19
495.23	21325.50
495.44	21536.44
495.64	21561.02
495.85	21595.83
496.05	21878.45
496.26	21518.01
496.47	22034.10
496.67	21642.93
496.88	22073.01
497.08	22240.94
497.29	22257.32
497.49	22134.45
497.70	22458.03
497.91	22331.05
498.11	22632.10
498.32	22720.17
498.52	22417.07
498.73	22933.15
498.93	23017.12
499.14	22875.81
499.34	22957.73
499.55	23398.04
499.76	22947.49
499.96	23545.50
500.17	23158.43
500.37	23369.37
500.58	23260.83
500.78	23506.59
500.99	23539.35
501.19	23883.41
501.40	23819.92
501.60	23537.30
501.81	23787.16
502.02	23711.38
502.22	23889.56
502.43	24075.92
502.63	24245.90
502.84	24209.04
503.04	24178.32
503.25	24256.14
503.45	24262.29
503.66	24553.10
503.86	24495.75
504.07	24649.35
504.27	24163.98
504.48	24807.05
504.68	24927.88
504.89	25110.14
505.09	25034.37
505.30	24927.88
505.50	24858.24
505.71	25138.82
505.91	25302.65
506.12	25382.52
506.32	25292.41
506.53	25552.51
506.73	25271.93
506.94	25460.35
507.14	25052.80
507.35	25529.98
507.55	25448.06
507.76	25730.68
507.96	25503.35
508.17	25644.66
508.37	25736.82
508.58	25917.04
508.78	25874.04
508.99	26025.59
509.19	26054.26
509.40	26072.69
509.60	26185.33
509.81	26179.18
510.01	25892.47
510.22	26074.74
510.42	26162.80
510.63	26125.94
510.83	26300.01
511.04	26175.09
511.24	26738.28
511.44	26117.75
511.65	26140.27
511.85	26457.71
512.06	26429.04
512.26	26564.20
512.47	26775.14
512.67	26513.00
512.88	26695.27
513.08	26467.95
513.29	26732.14
513.49	26586.73
513.69	26748.52
513.90	27078.24
514.10	26855.01
514.31	26832.49
514.51	27033.19
514.72	27088.48
514.92	27225.70
515.13	27149.92
515.33	27203.17
515.53	27020.90
515.74	27158.11
515.94	27518.56
516.15	27233.89
516.35	27211.36
516.56	27635.29
516.76	27194.98
516.96	27616.86
517.17	27725.40
517.37	27547.23
517.58	27922.01
517.78	27899.48
517.99	27711.07
518.19	28065.36
518.39	28044.88
518.60	27977.30
518.80	27639.39
519.01	28145.23
519.21	28214.87
519.41	28016.21
519.62	28040.79
519.82	28317.26
520.03	28370.51
520.23	28528.20
520.43	28378.70
520.64	28481.10
520.84	28651.08
521.05	28628.56
521.25	28456.53
521.45	28843.59
521.66	28956.23
521.86	28511.82
522.07	28716.62
522.27	29085.25
522.47	28859.98
522.68	29324.86
522.88	28937.80
523.08	29318.72
523.29	29238.85
523.49	29310.53
523.70	29292.10
523.90	29697.59
524.10	29345.34
524.31	29812.28
524.51	29392.45
524.71	29986.36
524.92	29861.43
525.12	29746.75
525.33	29916.73
525.53	30191.16
525.73	30402.10
525.94	30168.63
526.14	30332.47
526.34	30225.97
526.55	30551.60
526.75	30510.64
526.95	30647.85
527.16	30678.57
527.36	30791.21
527.56	30826.03
527.77	31319.59
527.97	30922.28
528.17	30955.05
528.38	31125.03
528.58	31120.93
528.78	31397.41
528.99	31366.69
529.19	32118.29
529.39	31100.45
529.60	31696.41
529.80	31591.97
530.00	31438.37
530.21	32048.66
530.41	32091.67
530.61	31766.04
530.82	32052.76
531.02	32269.84
531.22	32405.01
531.43	32224.79
531.63	32568.85
531.83	32839.18
532.04	33076.74
532.24	32570.90
532.44	32982.54
532.64	33193.48
532.85	33355.27
533.05	33281.54
533.25	33371.65
533.46	34094.58
533.66	34110.97
533.86	33431.04
534.07	34031.10
534.27	33863.16
534.47	34018.81
534.67	34430.45
534.88	34084.34
535.08	34289.14
535.28	34428.40
535.49	34455.03
535.69	35030.51
535.89	34799.08
536.09	34854.38
536.30	35024.36
536.50	34653.68
536.70	35081.70
536.91	34971.11
537.11	35120.62
537.31	35452.39
537.51	35227.11
537.72	35839.45
537.92	35548.64
538.12	36203.99
538.32	35593.70
538.53	35882.46
538.73	36009.43
538.93	36001.24
539.13	36400.60
539.34	36656.59
539.54	35939.80
539.74	36646.35
539.94	36591.06
540.15	36449.75
540.35	37029.32
540.55	37113.29
540.75	36744.66
540.96	37205.45
541.16	37361.09
541.36	37377.48
541.56	37459.40
541.77	37424.58
541.97	37633.47
542.17	37619.14
542.37	37825.98
542.58	37473.73
542.78	37938.62
542.98	37991.87
543.18	37916.09
543.38	38356.41
543.59	38340.02
543.79	37731.78
543.99	38208.95
544.19	38231.48
544.40	38389.17
544.60	38931.89
544.80	38651.31
545.00	38761.90
545.20	38995.37
545.41	39015.85
545.61	39019.95
545.81	39032.24
546.01	39134.63
546.21	39165.35
546.42	39194.03
546.62	39155.11
546.82	39015.85
547.02	39642.53
547.22	39720.35
547.43	39241.13
547.63	39851.42
547.83	39749.03
548.03	39818.66
548.23	39849.38
548.44	39814.56
548.64	39935.39
548.84	40277.40
549.04	40088.99
549.24	40461.72
549.45	40666.52
549.65	40097.18
549.85	40500.63
550.05	40965.52
550.25	40672.66
550.45	41002.38
550.66	41004.43
550.86	40695.19
551.06	40877.46
551.26	40834.45
551.46	40760.72
551.66	40803.73
551.87	41508.23
552.07	41160.08
552.27	41190.80
552.47	41489.80
552.67	41807.23
552.87	41809.28
553.07	41760.13
553.28	41465.22
553.48	41788.80
553.68	41487.75
553.88	41971.07
554.08	41921.92
554.28	41629.06
554.48	41532.81
554.69	42272.12
554.89	41764.23
555.09	42079.61
555.29	41901.44
555.49	42034.56
555.69	42349.95
555.89	42194.30
556.10	42347.90
556.30	42337.66
556.50	42706.29
556.70	41842.05
556.90	42481.02
557.10	42497.40
557.30	42603.89
557.50	42601.85
557.70	42710.39
557.91	42161.53
558.11	42569.08
558.31	42687.86
558.51	42835.31
558.71	42716.53
558.91	43019.63
559.11	42524.02
559.31	42579.32
559.51	42796.40
559.72	42950.00
559.92	43152.75
560.12	42761.59
560.32	43152.75
560.52	42863.99
560.72	42958.19
560.92	43177.33
561.12	43070.83
561.32	43572.58
561.52	42931.57
561.72	43249.00
561.93	42857.84
562.13	43103.60
562.33	42722.68
562.53	43371.88
562.73	42767.73
562.93	43398.51
563.13	43787.62
563.33	43162.99
563.53	43642.21
563.73	43187.56
563.93	43416.94
564.13	43410.79
564.33	43613.54
564.53	43664.74
564.74	43851.11
564.94	43439.47
565.14	43560.30
565.34	43734.37
565.54	43505.00
565.74	43505.00
565.94	43971.94
566.14	43783.52
566.34	43660.65
566.54	44412.25
566.74	43519.34
566.94	44125.53
567.14	44074.34
567.34	43695.46
567.54	44295.52
567.74	43996.51
567.94	44025.18
568.14	44150.11
568.34	44074.34
568.54	44086.62
568.74	44326.24
568.94	43783.52
569.14	44078.43
569.34	44170.59
569.54	44334.43
569.75	43525.48
569.95	44201.31
570.15	44678.49
570.35	44189.02
570.55	44496.22
570.75	44111.20
570.95	44189.02
571.15	44543.32
571.35	44402.01
571.55	44565.85
571.75	44152.16
571.95	44338.52
572.15	44270.94
572.35	44055.90
572.55	44463.45
572.75	44137.82
572.95	44488.03
573.15	44514.65
573.35	44199.26
573.55	44500.31
573.75	45028.69
573.95	44336.48
574.15	44162.40
574.35	44543.32
574.55	44952.91
574.75	44717.40
574.95	44615.00
575.15	44709.21
575.34	44238.17
575.54	44723.54
575.74	45053.26
575.94	45081.94
576.14	44629.34
576.34	45229.39
576.54	45397.32
576.74	45370.70
576.94	45174.09
577.14	45233.49
577.34	45526.35
577.54	44698.97
577.74	45294.92
577.94	45227.34
578.14	45278.54
578.34	45374.80
578.54	44957.01
578.74	45319.50
578.94	45636.94
579.14	45217.10
579.34	45210.96
579.54	45462.86
579.74	45727.05
579.94	45481.29
580.13	45694.28
580.33	45937.99
580.53	45837.64
580.73	45749.57
580.93	45942.08
581.13	45774.15
581.33	46060.87
581.53	45860.16
581.73	45937.99
581.93	46024.00
582.13	46214.46
582.33	46157.12
582.53	46054.72
582.73	46226.75
582.92	46243.13
583.12	46562.62
583.32	46200.13
583.52	45563.21
583.72	46724.41
583.92	46275.90
584.12	46468.41
584.32	46843.19
584.52	46425.40
584.72	46857.52
584.92	46513.47
585.11	47043.89
585.31	46603.58
585.51	46744.89
585.71	46765.37
585.91	46976.31
586.11	47004.98
586.31	46742.84
586.51	46759.22
586.71	47050.03
586.91	47559.98
587.10	47453.48
587.30	47289.65
587.50	47482.16
587.70	47605.03
587.90	47609.13
588.10	47375.66
588.30	47486.25
588.50	47781.16
588.69	47422.76
588.89	47416.62
589.09	48020.77
589.29	47783.21
589.49	48190.75
589.69	47789.35
589.89	48260.38
590.08	47828.26
590.28	48002.34
590.48	47740.20
590.68	48108.83
590.88	47961.38
591.08	47887.65
591.28	47605.03
591.47	48536.86
591.67	48725.27
591.87	48155.94
592.07	48469.28
592.27	48358.69
592.47	48213.28
592.67	48813.34
592.86	48614.68
593.06	48852.25
593.26	48776.47
593.46	48657.69
593.66	48946.45
593.86	48620.83
594.05	48829.72
594.25	49231.12
594.45	48696.60
594.65	48993.56
594.85	48878.87
595.05	49290.51
595.24	49304.85
595.44	48979.22
595.64	49446.16
595.84	49356.05
596.04	48635.16
596.23	49765.64
596.43	49927.43
596.63	49554.70
596.83	49263.89
597.03	49751.30
597.22	50283.78
597.42	49763.59
597.62	50410.75
597.82	49986.82
598.02	50353.41
598.21	50134.28
598.41	50267.39
598.61	49814.79
598.81	50431.23
599.01	50935.03
599.20	50570.49
599.40	50328.83
599.60	50980.09
599.80	50959.61
600.00	50865.40
600.19	51023.09
600.39	50439.42
600.59	51291.38
600.79	50967.80
600.98	51141.88
601.18	51356.91
601.38	51393.78
601.58	51537.13
601.78	51664.11
601.97	51408.11
602.17	51944.68
602.37	51500.27
602.57	51784.94
602.76	52391.14
602.96	51666.16
603.16	51815.66
603.36	51426.54
603.55	51901.67
603.75	52151.52
603.95	52366.56
604.15	52245.73
604.34	52690.14
604.54	52432.10
604.74	52442.34
604.94	52546.78
605.13	52571.36
605.33	52837.59
605.53	52618.46
605.73	53388.50
605.92	52925.66
606.12	53236.95
606.32	53038.29
606.52	52786.39
606.71	53171.41
606.91	53208.28
607.11	53101.78
607.30	53472.46
607.50	53212.37
607.70	53411.02
607.90	53540.05
608.09	53474.51
608.29	53779.66
608.49	53939.40
608.68	53945.54
608.88	53839.05
609.08	53851.34
609.28	53869.77
609.47	53763.28
609.67	54211.78
609.87	53732.56
610.06	54484.16
610.26	54047.94
610.46	54494.40
610.66	53982.41
610.85	54074.57
611.05	53812.43
611.25	54199.49
611.44	54170.82
611.64	54576.32
611.84	54244.55
612.03	54338.75
612.23	54731.96
612.43	54891.71
612.62	54426.82
612.82	54877.37
613.02	54848.70
613.21	54506.69
613.41	54336.71
613.61	54953.15
613.80	54355.14
614.00	54754.49
614.20	55051.45
614.39	54582.46
614.59	55213.24
614.79	54670.53
614.98	54910.14
615.18	55076.02
615.38	54781.12
615.57	54576.32
615.77	55219.38
615.97	55323.83
616.16	54494.40
616.36	55055.54
616.56	55035.06
616.75	55198.90
616.95	54566.08
617.15	54756.54
617.34	55014.58
617.54	55336.12
617.74	55403.70
617.93	55635.12
618.13	54787.26
618.32	55274.68
618.52	54965.43
618.72	55182.52
618.91	55221.43
619.11	54482.11
619.31	55246.00
619.50	55145.65
619.70	55041.21
619.90	55159.99
620.09	55133.37
620.29	55329.97
620.48	55370.93
620.68	55485.62
620.88	55071.93
621.07	55360.69
621.27	55182.52
621.46	55061.69
621.66	55145.65
621.86	55196.85
622.05	55108.79
622.25	55598.26
622.44	54688.96
622.64	55096.50
622.84	55499.95
623.03	55092.41
623.23	55024.82
623.42	55360.69
623.62	55401.65
623.82	55702.70
624.01	55264.44
624.21	55481.52
624.40	55456.95
624.60	55076.02
624.80	55069.88
624.99	55358.64
625.19	55145.65
625.38	55624.88
625.58	55301.30
625.77	55575.73
625.97	55579.82
626.17	55217.33
626.36	55497.91
626.56	55788.72
626.75	55182.52
626.95	55282.87
627.14	55293.11
627.34	55469.23
627.54	55104.70
627.73	55047.35
627.93	55538.86
628.12	54834.36
628.32	55393.46
628.51	55198.90
628.71	55151.80
628.90	55229.62
629.10	54934.71
629.30	55157.94
629.49	55186.61
629.69	55022.78
629.88	54928.57
630.08	55622.83
630.27	55338.16
630.47	54965.43
630.66	54846.65
630.86	55590.06
631.05	54858.94
631.25	55278.77
631.44	55256.24
631.64	54680.77
631.84	55096.50
632.03	55690.41
632.23	54834.36
632.42	55559.34
632.62	54893.75
632.81	55061.69
633.01	55293.11
633.20	55297.20
633.40	55366.84
633.59	55053.50
633.79	55006.39
633.98	55229.62
634.18	55205.05
634.37	54926.52
634.57	55194.81
634.76	55338.16
634.96	55133.37
635.15	55180.47
635.35	54770.88
635.54	54969.53
635.74	55502.00
635.93	54668.48
636.13	55397.55
636.32	54983.86
636.52	54764.73
636.71	54990.01
636.91	55379.12
637.10	54990.01
637.30	55110.84
637.49	55008.44
637.69	54631.61
637.88	55721.13
638.08	54486.21
638.27	54869.18
638.46	54930.62
638.66	54482.11
638.85	54719.68
639.05	55291.06
639.24	55284.92
639.44	54578.37
639.63	55010.49
639.83	54932.67
640.02	54799.55
640.22	54695.10
640.41	54994.10
640.61	54500.54
640.80	54936.76
640.99	54801.60
641.19	55264.44
641.38	54914.23
641.58	55047.35
641.77	55139.51
641.97	54764.73
642.16	54951.10
642.36	55213.24
642.55	55162.04
642.74	55039.16
642.94	55223.48
643.13	54785.21
643.33	55030.97
643.52	55123.13
643.72	55227.57
643.91	54934.71
644.10	54799.55
644.30	55164.09
644.49	54813.88
644.69	55051.45
644.88	55033.02
645.08	54197.44
645.27	54752.44
645.46	54691.01
645.66	55010.49
645.85	54883.51
646.05	54903.99
646.24	54813.88
646.43	55104.70
646.63	54525.12
646.82	55303.35
647.02	54965.43
647.21	54959.29
647.40	54723.77
647.60	54850.75
647.79	54717.63
647.99	54758.59
648.18	54496.45
648.37	55086.26
648.57	55157.94
648.76	54940.86
648.96	54568.13
649.15	55022.78
649.34	55002.30
649.54	55141.56
649.73	54662.33
649.92	55217.33
650.12	54979.77
650.31	55250.10
650.51	55096.50
650.70	55534.77
650.89	55018.68
651.09	55313.59
651.28	54981.82
651.47	55248.05
651.67	55221.43
651.86	55227.57
652.06	54607.04
652.25	54869.18
652.44	55104.70
652.64	54473.92
652.83	55030.97
653.02	54703.29
653.22	54926.52
653.41	54664.38
653.60	54645.95
653.80	54521.02
653.99	54707.39
654.18	54824.12
654.38	54836.41
654.57	54770.88
654.76	54559.94
654.96	54682.81
655.15	55424.18
655.34	54668.48
655.54	54351.04
655.73	54940.86
655.92	54533.31
656.12	54691.01
656.31	54895.80
656.50	55002.30
656.70	54752.44
656.89	54721.72
657.08	54926.52
657.28	55190.71
657.47	54801.60
657.66	55071.93
657.86	54875.32
658.05	55190.71
658.24	55137.46
658.43	54465.73
658.63	55073.98
658.82	54731.96
659.01	55860.40
659.21	55174.33
659.40	54924.47
659.59	54525.12
659.79	55168.18
659.98	55317.68
660.17	54994.10
660.36	55123.13
660.56	55047.35
660.75	54906.04
660.94	55436.47
661.14	54992.06
661.33	54768.83
661.52	54422.72
661.71	55332.02
661.91	54701.25
662.10	54510.78
662.29	55110.84
662.49	54719.68
662.68	55180.47
662.87	55200.95
663.06	55270.58
663.26	54441.15
663.45	55241.91
663.64	54715.58
663.83	55420.08
664.03	55082.17
664.22	55096.50
664.41	55524.53
664.60	54719.68
664.80	54957.24
664.99	54693.05
665.18	54955.19
665.37	55162.04
665.57	55364.79
665.76	54826.17
665.95	55338.16
666.14	55110.84
666.34	54703.29
666.53	54809.79
666.72	54670.53
666.91	54770.88
667.11	54766.78
667.30	55065.78
667.49	55252.15
667.68	54944.95
667.87	54971.58
668.07	55610.54
668.26	55014.58
668.45	54727.87
668.64	55014.58
668.84	55602.35
669.03	55133.37
669.22	54944.95
669.41	54965.43
669.60	55235.77
669.80	54840.51
669.99	55448.75
670.18	55172.28
670.37	55096.50
670.57	55952.55
670.76	55231.67
670.95	55481.52
671.14	54947.00
671.33	54938.81
671.53	55932.07
671.72	54879.42
671.91	54807.74
672.10	54719.68
672.29	55112.89
672.48	55174.33
672.68	55088.31
672.87	55571.63
673.06	54975.67
673.25	55014.58
673.44	55338.16
673.64	54953.15
673.83	55235.77
674.02	55000.25
674.21	54351.04
674.40	55057.59
674.59	54967.48
674.79	54709.44
674.98	54652.09
675.17	55172.28
675.36	55033.02
675.55	55272.63
675.74	54711.49
675.94	55342.26
676.13	55135.41
676.32	55340.21
676.51	55491.76
676.70	55291.06
676.89	55252.15
677.08	55415.99
677.28	55223.48
677.47	55526.58
677.66	55342.26
677.85	55198.90
678.04	55379.12
678.23	55889.07
678.42	55321.78
678.62	55151.80
678.81	55579.82
679.00	54963.39
679.19	55846.06
679.38	55555.25
679.57	55731.37
679.76	55596.21
679.96	55948.46
680.15	55596.21
680.34	54785.21
680.53	55569.58
680.72	55502.00
680.91	55671.98
681.10	55008.44
681.29	55563.44
681.48	55299.25
681.68	55514.29
681.87	55301.30
682.06	55606.45
682.25	55112.89
682.44	55352.50
682.63	56022.19
682.82	55360.69
683.01	55338.16
683.20	54875.32
683.39	55743.66
683.59	55141.56
683.78	54994.10
683.97	55053.50
684.16	55301.30
684.35	55080.12
684.54	55428.27
684.73	55461.04
684.92	55119.03
685.11	55477.43
685.30	55063.74
685.49	55448.75
685.69	55145.65
685.88	55665.84
686.07	55428.27
686.26	55280.82
686.45	54973.63
686.64	55608.50
686.83	55477.43
687.02	55594.16
687.21	55360.69
687.40	55319.73
687.59	55127.22
687.78	55409.84
687.97	55475.38
688.16	55545.01
688.35	54959.29
688.54	55106.74
688.74	55454.90
688.93	55280.82
689.12	55303.35
689.31	55624.88
689.50	55397.55
689.69	55098.55
689.88	55112.89
690.07	55104.70
690.26	55463.09
690.45	55698.61
690.64	55168.18
690.83	55106.74
691.02	55121.08
691.21	55311.54
691.40	54588.61
691.59	55252.15
691.78	55055.54
691.97	55491.76
692.16	54987.96
692.35	55258.29
692.54	54957.24
692.73	55104.70
692.92	55123.13
693.11	55203.00
693.30	54996.15
693.49	55379.12
693.68	55409.84
693.87	55334.07
694.06	55047.35
694.25	54797.50
694.44	54658.24
694.63	54934.71
694.82	55153.85
695.01	55159.99
695.20	55196.85
695.39	55366.84
695.58	54516.93
695.77	54688.96
695.96	54465.73
696.15	55051.45
696.34	54543.55
696.53	55014.58
696.72	55342.26
696.91	54820.03
697.10	55219.38
697.29	54514.88
697.48	55102.65
697.67	54914.23
697.86	54342.85
698.05	54572.22
698.24	55059.64
698.43	54426.82
698.62	54803.64
698.81	54553.79
699.00	54858.94
699.19	54465.73
699.38	55006.39
699.57	54422.72
699.76	54875.32
699.95	54625.47
700.14	54535.36
700.32	54717.63
700.51	55219.38
700.70	55000.25
700.89	54676.67
701.08	55059.64
701.27	54506.69
701.46	54731.96
701.65	53849.29
701.84	54580.42
702.03	54359.23
702.22	54181.06
702.41	54656.19
702.60	54326.47
702.79	54353.09
702.98	54312.13
703.17	54461.63
703.35	54346.95
703.54	54111.43
703.73	54502.59
703.92	54097.09
704.11	54447.30
704.30	53736.65
704.49	54129.86
704.68	53904.59
704.87	53773.52
705.06	53982.41
705.25	53898.44
705.43	53738.70
705.62	53765.32
705.81	53578.96
706.00	53748.94
706.19	53363.92
706.38	53869.77
706.57	53845.19
706.76	53589.20
706.95	53437.65
707.14	53638.35
707.32	53454.03
707.51	53380.31
707.70	53535.95
707.89	53675.21
708.08	53769.42
708.27	53798.09
708.46	53646.54
708.65	53908.68
708.84	53847.24
709.02	53855.43
709.21	53503.18
709.40	53296.34
709.59	53531.86
709.78	52917.46
709.97	53370.07
710.16	53109.97
710.34	53320.91
710.53	53429.46
710.72	52858.07
710.91	53318.87
711.10	53306.58
711.29	53140.69
711.48	53449.94
711.66	53234.90
711.85	52892.89
712.04	52851.93
712.23	53167.32
712.42	52800.73
712.61	52647.13
712.80	52649.18
712.98	53040.34
713.17	52520.16
713.36	52522.21
713.55	52628.70
713.74	52708.57
713.93	52630.75
714.11	52745.44
714.30	52483.30
714.49	52499.68
714.68	52647.13
714.87	52593.89
715.06	52823.26
715.24	52462.82
715.43	52405.47
715.62	52065.51
715.81	52004.07
716.00	52608.22
716.18	51684.59
716.37	51981.54
716.56	51778.79
716.75	52323.55
716.94	51909.86
717.12	51643.63
717.31	52106.47
717.50	51666.16
717.69	52196.58
717.88	52227.30
718.06	52034.79
718.25	51854.57
718.44	51121.40
718.63	51852.52
718.82	51160.31
719.00	51457.26
719.19	51270.90
719.38	51295.47
719.57	50767.10
719.76	50750.71
719.94	50709.75
720.13	50873.59
720.32	50945.27
720.51	50543.87
720.69	50615.55
720.88	50644.22
721.07	50660.60
721.26	50050.31
721.44	50269.44
721.63	50597.12
721.82	50566.40
722.01	50531.58
722.20	50541.82
722.38	50361.60
722.57	49952.01
722.76	49800.46
722.95	50068.74
723.13	49687.82
723.32	49861.90
723.51	49411.34
723.70	49872.14
723.88	49831.18
724.07	49562.89
724.26	49460.49
724.44	49255.70
724.63	49632.52
724.82	49761.54
725.01	49141.01
725.19	49188.11
725.38	49216.78
725.57	49083.67
725.76	49548.56
725.94	48844.05
726.13	48989.46
726.32	48928.02
726.51	49050.90
726.69	48925.97
726.88	49014.04
727.07	49100.05
727.25	48581.91
727.44	49034.52
727.63	48512.28
727.82	48596.25
728.00	48950.55
728.19	48170.27
728.38	48733.46
728.56	48094.50
728.75	48866.58
728.94	48930.07
729.12	48436.51
729.31	48952.60
729.50	48659.74
729.69	48616.73
729.87	48577.82
730.06	48575.77
730.25	48446.75
730.43	48524.57
730.62	47863.08
730.81	48321.82
730.99	48530.72
731.18	48319.77
731.37	48596.25
731.55	48350.49
731.74	48477.47
731.93	48182.56
732.11	48543.00
732.30	48223.52
732.49	48037.16
732.67	47994.15
732.86	48061.73
733.05	48190.75
733.23	48028.96
733.42	47832.36
733.61	47775.02
733.79	48233.76
733.98	48200.99
734.17	48160.03
734.35	48043.30
734.54	48340.25
734.73	48010.53
734.91	47772.97
735.10	47494.44
735.29	48170.27
735.47	47529.26
735.66	47768.87
735.84	47775.02
736.03	47453.48
736.22	47895.85
736.40	47428.91
736.59	48049.44
736.78	47344.94
736.96	47715.62
737.15	47428.91
737.33	47494.44
737.52	47113.52
737.71	47177.01
737.89	46912.82
738.08	47035.70
738.27	46937.40
738.45	47316.27
738.64	46959.92
738.82	47185.20
739.01	46828.85
739.20	46945.59
739.38	46925.11
739.57	47269.17
739.75	47301.93
739.94	46837.05
740.13	46896.44
740.31	46814.52
740.50	46576.95
740.68	46667.06
740.87	46372.16
741.06	46583.10
741.24	46433.60
741.43	46220.61
741.61	46716.22
741.80	46253.37
741.99	46097.73
742.17	45925.70
742.36	46232.89
742.54	46112.06
742.73	46085.44
742.91	46601.53
743.10	45923.65
743.29	46259.52
743.47	46089.54
743.66	46402.88
743.84	46042.43
744.03	46341.44
744.21	45948.23
744.40	46005.57
744.59	45954.37
744.77	45915.46
744.96	45686.09
745.14	45970.75
745.33	46021.95
745.51	45741.38
745.70	46054.72
745.88	45921.60
746.07	45450.57
746.26	45473.10
746.44	45260.11
746.63	45690.18
746.81	45557.06
747.00	45397.32
747.18	45557.06
747.37	45737.29
747.55	45641.03
747.74	45798.73
747.92	45225.29
748.11	45266.25
748.29	45036.88
748.48	44844.37
748.66	45163.85
748.85	45088.08
749.03	44877.14
749.22	44934.48
749.41	44860.76
749.59	45077.84
749.78	44590.42
749.96	44457.31
750.15	44760.40
750.33	44670.29
750.52	44848.47
750.70	44608.86
750.89	44215.65
751.07	44160.35
751.26	44531.03
751.44	43859.30
751.63	44189.02
751.81	44027.23
752.00	44344.67
752.18	44344.67
752.37	44025.18
752.55	44455.26
752.74	44062.05
752.92	43900.26
753.10	43470.18
753.29	44311.90
753.47	44135.77
753.66	43791.72
753.84	43973.98
754.03	43750.76
754.21	43482.47
754.40	43873.63
754.58	43869.54
754.77	43844.96
754.95	43562.34
755.14	43341.16
755.32	43593.06
755.51	43058.54
755.69	43480.42
755.88	43398.51
756.06	43566.44
756.24	43304.30
756.43	43369.83
756.61	43357.55
756.80	43492.71
756.98	43050.35
757.17	43246.96
757.35	42818.93
757.54	43183.47
757.72	43175.28
757.90	43179.37
758.09	42730.87
758.27	42878.32
758.46	42579.32
758.64	42818.93
758.83	43062.64
759.01	42706.29
759.19	42702.20
759.38	43074.93
759.56	42812.79
759.75	42597.75
759.93	42974.58
760.12	42108.29
760.30	42624.37
760.48	42247.55
760.67	42589.56
760.85	42134.91
761.04	42431.86
761.22	42503.54
761.40	42212.73
761.59	42438.01
761.77	41958.78
761.96	42247.55
762.14	41844.10
762.32	41946.50
762.51	42100.09
762.69	41909.63
762.88	41573.77
763.06	42034.56
763.24	41923.97
763.43	41926.02
763.61	41700.74
763.80	41819.52
763.98	41592.20
764.16	41641.35
764.35	41538.95
764.53	41248.14
764.72	41682.31
764.90	41076.11
765.08	41502.09
765.27	42128.77
765.45	41405.83
765.63	41020.81
765.82	41688.45
766.00	41254.28
766.18	41383.30
766.37	41852.29
766.55	41092.49
766.74	41377.16
766.92	41155.98
767.10	40934.80
767.29	40998.29
767.47	40744.34
767.65	41205.13
767.84	40836.50
768.02	40877.46
768.20	40959.38
768.39	40541.59
768.57	40875.41
768.75	40773.01
768.94	40873.36
769.12	40844.69
769.30	40547.73
769.49	40256.92
769.67	40263.07
769.85	39863.71
770.04	40560.02
770.22	40351.13
770.40	39955.87
770.59	40213.91
770.77	40603.03
770.95	40285.59
771.14	40359.32
771.32	39843.23
771.50	39912.86
771.69	39822.75
771.87	39884.19
772.05	40320.41
772.24	39863.71
772.42	40062.36
772.60	39912.86
772.78	39163.31
772.97	39400.87
773.15	40035.74
773.33	39712.16
773.52	39976.35
773.70	39849.38
773.88	39853.47
774.07	39476.65
774.25	39839.14
774.43	39570.85
774.61	39769.51
774.80	39886.24
774.98	39724.45
775.16	39622.05
775.34	39880.10
775.53	39667.11
775.71	39746.98
775.89	40007.07
776.08	39826.85
776.26	39984.54
776.44	39789.98
776.62	39712.16
776.81	39890.34
776.99	40031.65
777.17	39927.20
777.35	39992.73
777.54	40322.46
777.72	39714.21
777.90	40062.36
778.08	40265.11
778.27	39968.16
778.45	40299.93
778.63	40435.10
778.81	39749.03
779.00	40670.61
779.18	40551.83
779.36	40502.68
779.54	39863.71
779.73	40056.22
779.91	40478.10
780.09	40506.77
780.27	40367.51
780.46	40703.38
780.64	40557.97
780.82	40293.79
781.00	40600.98
781.19	40727.95
781.37	40615.32
781.55	40844.69
781.73	41004.43
781.91	40689.04
782.10	40680.85
782.28	41108.88
782.46	41094.54
782.64	41129.36
782.82	41112.97
783.01	40723.86
783.19	40869.26
783.37	40562.07
783.55	40869.26
783.74	41137.55
783.92	40973.71
784.10	41174.41
784.28	41354.63
784.46	40625.56
784.64	40889.74
784.83	41217.42
785.01	41237.90
785.19	41207.18
785.37	41248.14
785.55	41375.11
785.74	40779.15
785.92	41006.48
786.10	40947.09
786.28	40789.39
786.46	40828.30
786.64	40498.58
786.83	40893.84
787.01	40977.81
787.19	40877.46
787.37	40656.28
787.55	40848.78
787.74	40402.33
787.92	40740.24
788.10	40635.80
788.28	40252.83
788.46	40523.16
788.64	40224.15
788.82	40813.97
789.01	40390.04
789.19	40805.78
789.37	40301.98
789.55	40467.86
789.73	39878.05
789.91	40166.81
790.09	40248.73
790.28	40031.65
790.46	39769.51
790.64	40373.66
790.82	39540.13
791.00	39777.70
791.18	39802.27
791.36	39665.06
791.55	39892.38
791.73	39447.97
791.91	39386.54
792.09	39544.23
792.27	39441.83
792.45	39122.35
792.63	39542.18
792.81	39435.69
793.00	39361.96
793.18	38921.65
793.36	39087.53
793.54	39302.57
793.72	39046.57
793.90	39241.13
794.08	39034.28
794.26	39163.31
794.44	38667.70
794.62	38679.99
794.81	38604.21
794.99	38544.82
795.17	38489.52
795.35	38352.31
795.53	38757.81
795.71	38878.64
795.89	38026.68
796.07	37703.10
796.25	37961.15
796.43	37854.65
796.61	37565.89
796.80	37828.03
796.98	37864.89
797.16	37709.25
797.34	38012.35
797.52	37246.41
797.70	37475.78
797.88	37625.28
798.06	37488.07
798.24	37723.58
798.42	37680.58
798.60	37041.61
798.78	37201.35
798.96	37367.24
799.14	36859.34
799.32	36984.27
799.51	36787.66
799.69	36918.73
799.87	36963.79
800.05	36625.87
800.23	36824.53
800.41	36441.56
800.59	36416.98
800.77	36236.76
800.95	36529.62
801.13	36175.32
801.31	36179.42
801.49	36320.73
801.67	36132.31
801.85	36064.73
802.03	36201.94
802.21	35626.46
802.39	35673.57
802.57	35782.11
802.75	35522.02
802.93	35849.69
803.11	35198.44
803.29	35132.90
803.47	35005.93
803.65	35050.99
803.83	35075.56
804.01	35378.66
804.19	34528.75
804.37	34872.81
804.55	34711.02
804.73	35038.70
804.91	34964.97
805.09	34731.50
805.27	35034.60
805.45	34936.30
805.63	34799.08
805.81	34584.05
805.99	34706.93
806.17	34244.09
806.35	34426.35
806.53	34266.61
806.71	34399.73
806.89	34362.87
807.07	34504.18
807.25	34444.79
807.43	34018.81
807.61	34260.47
807.79	34250.23
807.97	33807.87
808.15	33969.66
808.33	33607.17
808.51	33426.95
808.69	33449.47
808.87	33338.88
809.05	33412.61
809.23	33480.19
809.41	32976.39
809.59	33469.95
809.77	33363.46
809.95	32806.41
810.13	33125.89
810.31	33127.94
810.49	33158.66
810.67	32992.78
810.84	32742.92
811.02	33177.09
811.20	32400.91
811.38	32620.05
811.56	32347.67
811.74	32777.74
811.92	32347.67
812.10	32011.80
812.28	32740.88
812.46	32183.83
812.64	32386.58
812.82	32079.38
813.00	32505.36
813.18	32126.49
813.36	31786.52
813.53	31858.20
813.71	32128.53
813.89	31755.80
814.07	32212.50
814.25	32237.08
814.43	31471.14
814.61	31303.20
814.79	31534.62
814.97	31813.15
815.15	31624.73
815.33	31227.43
815.50	31561.25
815.68	31116.84
815.86	31188.52
816.04	31237.67
816.22	31243.81
816.40	31039.01
816.58	30983.72
816.76	30914.09
816.94	30934.57
817.11	30946.86
817.29	30580.27
817.47	30817.83
817.65	30748.20
817.83	30787.11
818.01	30770.73
818.19	30711.34
818.37	30787.11
818.54	30291.51
818.72	30277.17
818.90	30447.15
819.08	30225.97
819.26	30139.96
819.44	30236.21
819.62	30643.76
819.80	30268.98
819.97	30449.20
820.15	30078.52
820.33	29949.50
820.51	29898.30
820.69	29730.36
820.87	29937.21
821.05	29695.55
821.22	29957.69
821.40	29802.04
821.58	29599.29
821.76	29763.13
821.94	29556.28
822.12	29488.70
822.29	29871.67
822.47	29541.95
822.65	29736.51
822.83	29337.15
823.01	29460.03
823.19	29120.07
823.36	28962.37
823.54	28859.98
823.72	28882.50
823.90	28929.61
824.08	29337.15
824.25	29081.16
824.43	29331.01
824.61	28950.09
824.79	29355.58
824.97	28575.31
825.15	28757.58
825.32	28786.25
825.50	28550.73
825.68	28788.30
825.86	28831.30
826.04	28782.15
826.21	28747.34
826.39	28513.87
826.57	28587.60
826.75	28575.31
826.93	28444.24
827.10	28347.98
827.28	28175.95
827.46	28345.94
827.64	28120.66
827.81	27919.96
827.99	28272.21
828.17	27967.06
828.35	27936.34
828.53	28257.87
828.70	27799.13
828.88	27979.35
829.06	27993.68
829.24	28221.01
829.41	27696.73
829.59	28360.27
829.77	28001.88
829.95	27797.08
830.12	27885.14
830.30	27786.84
830.48	27817.56
830.66	27575.90
830.84	27948.63
831.01	27418.21
831.19	27522.65
831.37	27510.36
831.55	27467.36
831.72	27442.78
831.90	27352.67
832.08	27213.41
832.25	27108.96
832.43	27037.28
832.61	27086.43
832.79	26977.89
832.96	26791.53
833.14	27197.02
833.32	27233.89
833.50	27151.97
833.67	27244.13
833.85	26898.02
834.03	26443.37
834.20	26900.07
834.38	27016.80
834.56	26685.03
834.74	26699.37
834.91	26728.04
835.09	26648.17
835.27	26431.08
835.44	26379.89
835.62	26154.61
835.80	26439.28
835.98	26474.09
836.15	26484.33
836.33	26502.76
836.51	26783.34
836.68	26293.87
836.86	26322.54
837.04	26074.74
837.21	26273.39
837.39	26265.20
837.57	26181.23
837.75	26488.43
837.92	25878.13
838.10	25984.63
838.28	25980.53
838.45	25974.39
838.63	25695.86
838.81	26005.11
838.98	25644.66
839.16	25611.90
839.34	25372.28
839.51	25552.51
839.69	25302.65
839.87	25466.49
840.04	25306.75
840.22	25489.02
840.40	24981.12
840.57	25046.66
840.75	25478.78
840.93	25042.56
841.10	25298.56
841.28	25945.72
841.46	25325.18
841.63	25314.94
841.81	25183.87
841.98	25224.83
842.16	25126.53
842.34	25122.43
842.51	24917.64
842.69	25194.11
842.87	25024.13
843.04	25144.96
843.22	24958.60
843.40	24712.84
843.57	24774.28
843.75	24778.37
843.92	25075.33
844.10	24735.37
844.28	25050.75
844.45	24841.86
844.63	24733.32
844.81	24796.81
844.98	24495.75
845.16	24467.08
845.33	24585.86
845.51	24680.07
845.69	24557.19
845.86	24110.74
846.04	24264.33
846.21	24247.95
846.39	24374.92
846.57	24065.68
846.74	24344.20
846.92	23838.36
847.09	23950.99
847.27	23625.37
847.45	23869.08
847.62	24172.18
847.80	23809.68
847.97	24092.30
848.15	24084.11
848.32	23729.81
848.50	23826.07
848.68	23932.56
848.85	23473.82
849.03	23506.59
849.20	23842.45
849.38	23912.08
849.56	23551.64
849.73	23287.45
849.91	23592.60
850.08	23813.78
850.26	23436.95
850.43	23527.06
850.61	23289.50
850.78	23178.91
850.96	23307.93
851.14	23277.21
851.31	23191.20
851.49	22976.16
851.66	23168.67
851.84	23045.79
852.01	23223.97
852.19	22775.46
852.36	23076.51
852.54	23289.50
852.71	23035.55
852.89	23381.66
853.07	23008.93
853.24	23092.90
853.42	22892.19
853.59	22498.98
853.77	22812.32
853.94	22783.65
854.12	22722.21
854.29	22326.96
854.47	22591.14
854.64	22691.49
854.82	22650.53
854.99	22671.01
855.17	22738.60
855.34	22613.67
855.52	22359.72
855.69	22697.64
855.87	22185.65
856.04	22226.60
856.22	22376.11
856.39	22103.73
856.57	22286.00
856.74	22320.81
856.92	22118.06
857.09	21868.21
857.27	21997.23
857.44	22091.44
857.62	22015.66
857.79	22240.94
857.97	22013.62
858.14	22058.67
858.32	22189.74
858.49	21886.64
858.67	22015.66
858.84	21644.98
859.02	21726.90
859.19	21786.29
859.37	21585.59
859.54	21610.17
859.72	21700.28
859.89	21575.35
860.06	21628.60
860.24	21515.96
860.41	21700.28
860.59	21591.73
860.76	21518.01
860.94	21249.72
861.11	21685.94
861.29	21282.49
861.46	21368.51
861.64	21153.47
861.81	21219.00
861.98	21251.77
862.16	20999.87
862.33	20958.91
862.51	20920.00
862.68	21274.30
862.86	21212.86
863.03	20788.93
863.21	20983.49
863.38	21196.48
863.55	20711.11
863.73	20702.92
863.90	21061.31
864.08	20840.13
864.25	20973.25
864.43	20670.15
864.60	20725.44
864.77	20381.38
864.95	20551.37
865.12	20416.20
865.30	20659.91
865.47	20399.82
865.64	20248.27
865.82	20399.82
865.99	20682.44
866.17	20516.55
866.34	20203.21
866.51	19861.20
866.69	20440.78
866.86	20250.32
867.04	20297.42
867.21	20379.34
867.38	20152.01
867.56	20113.10
867.73	19824.34
867.91	20172.49
868.08	20053.71
868.25	19904.21
868.43	19973.84
868.60	19685.08
868.78	19650.26
868.95	20182.73
869.12	19746.51
869.30	19637.97
869.47	19795.67
869.64	19564.25
869.82	19619.54
869.99	19562.20
870.16	19480.28
870.34	19502.81
870.51	19439.32
870.69	19097.31
870.86	19662.55
871.03	19347.16
871.21	19670.74
871.38	19730.13
871.55	19224.28
871.73	19132.12
871.90	19351.26
872.07	18986.72
872.25	18939.62
872.42	19211.99
872.59	19123.93
872.77	19207.90
872.94	19099.36
873.11	18894.56
873.29	18999.01
873.46	18951.90
873.63	18724.58
873.81	18661.09
873.98	18863.84
874.15	18538.21
874.33	18640.61
874.50	18439.91
874.67	18710.24
874.85	18671.33
875.02	18540.26
875.19	18181.87
875.37	18271.98
875.54	18308.84
875.71	18224.87
875.88	18282.22
876.06	18194.15
876.23	18083.56
876.40	18366.18
876.58	18040.56
876.75	17921.77
876.92	18020.08
877.10	18106.09
877.27	17680.11
877.44	17878.77
877.61	17833.71
877.79	17729.27
877.96	17768.18
878.13	18011.89
878.31	17583.86
878.48	17452.79
878.65	17426.17
878.82	17415.93
879.00	17610.48
879.17	17635.06
879.34	17487.61
879.51	17393.40
879.69	17503.99
879.86	17401.59
880.03	17393.40
880.21	17141.50
880.38	17415.93
880.55	17491.70
880.72	17176.31
880.90	17153.79
881.07	16791.30
881.24	17278.71
881.41	16971.52
881.59	17059.58
881.76	17037.05
881.93	16748.29
882.10	16840.45
882.28	16914.17
882.45	16795.39
882.62	16932.61
882.79	17002.24
882.96	16533.25
883.14	16772.86
883.31	16885.50
883.48	16725.76
883.65	16895.74
883.83	16897.79
884.00	16774.91
884.17	16707.33
884.34	16865.02
884.51	16631.55
884.69	16379.65
884.86	16668.42
885.03	16576.26
885.20	16267.02
885.38	16445.19
885.55	16346.89
885.72	16441.09
885.89	16426.76
886.06	16508.68
886.24	16314.12
886.41	16195.34
886.58	16437.00
886.75	16563.97
886.92	16391.94
887.10	16488.20
887.27	16312.07
887.44	16252.68
887.61	16396.04
887.78	16115.47
887.95	16205.58
888.13	16109.32
888.30	15992.59
888.47	15783.70
888.64	16060.17
888.81	16135.95
888.99	16086.79
889.16	15736.59
889.33	15818.51
889.50	15693.58
889.67	15947.53
889.84	15890.19
890.01	15779.60
890.19	15826.70
890.36	15578.90
890.53	15617.81
890.70	15513.36
890.87	15795.98
891.04	15527.70
891.22	15638.29
891.39	15572.75
891.56	15595.28
891.73	15400.72
891.90	15447.83
892.07	15236.89
892.24	15374.10
892.42	15324.95
892.59	15200.02
892.76	15349.53
892.93	15228.70
893.10	15499.03
893.27	15376.15
893.44	15073.05
893.61	15060.76
893.79	15257.37
893.96	15290.13
894.13	15116.06
894.30	15425.30
894.47	15193.88
894.64	15212.31
894.81	15081.24
894.98	15142.68
895.15	15011.61
895.33	15271.70
895.50	14958.36
895.67	15206.17
895.84	15050.52
896.01	15189.78
896.18	14812.96
896.35	15279.89
896.52	15107.87
896.69	14898.97
896.86	14966.56
897.04	14710.56
897.21	14997.28
897.38	14870.30
897.55	14997.28
897.72	15370.01
897.89	14927.64
898.06	14890.78
898.23	14794.53
898.40	15040.28
898.57	15030.04
898.74	15175.45
898.91	14911.26
899.08	14847.77
899.26	15066.91
899.43	15044.38
899.60	14784.29
899.77	14917.40
899.94	14823.20
900.11	15003.42
900.28	14802.72
900.45	14716.70
900.62	14962.46
900.79	14964.51
900.96	14749.47
901.13	14925.60
901.30	14788.38
901.47	14815.01
901.64	15044.38
901.81	14741.28
901.98	14786.33
902.15	14896.92
902.32	14862.11
902.49	14911.26
902.66	14784.29
902.83	14847.77
903.01	14845.73
903.18	14882.59
903.35	14765.85
903.52	14925.60
903.69	15044.38
903.86	14929.69
904.03	14825.25
904.20	14733.09
904.37	14892.83
904.54	14665.50
904.71	14642.98
904.88	14806.81
905.05	14663.46
905.22	14817.05
905.39	14511.91
905.56	14661.41
905.73	14681.89
905.90	14853.92
906.07	14892.83
906.24	14839.58
906.41	14837.53
906.58	14876.44
906.75	14843.68
906.92	14634.78
907.09	14599.97
907.26	14798.62
907.43	14475.04
907.60	14608.16
907.77	14685.98
907.93	14720.80
908.10	14728.99
908.27	14665.50
908.44	14677.79
908.61	14645.02
908.78	14595.87
908.95	14653.22
909.12	14460.71
909.29	14604.07
909.46	14626.59
909.63	14593.83
909.80	14855.97
909.97	14747.42
910.14	14616.35
910.31	14700.32
910.48	14577.44
910.65	14632.74
910.82	14507.81
910.99	14593.83
911.16	14446.37
911.33	14477.09
911.50	14464.80
911.66	14253.86
911.83	14563.11
912.00	14274.34
912.17	14204.71
912.34	14362.40
912.51	14155.56
912.68	14190.38
912.85	14325.54
913.02	13889.32
913.19	14331.69
913.36	14100.26
913.53	14397.22
913.70	13874.99
913.86	14284.58
914.03	13963.05
914.20	14239.53
914.37	14137.13
914.54	14155.56
914.71	14194.47
914.88	14145.32
915.05	13827.88
915.22	13993.77
915.39	14055.21
915.55	13975.34
915.72	13786.93
915.89	14006.06
916.06	13795.12
916.23	13623.09
916.40	13791.02
916.57	13743.92
916.74	13659.95
916.91	13795.12
917.07	13557.55
917.24	13590.32
917.41	13395.76
917.58	13430.58
917.75	13365.04
917.92	13498.16
918.09	13303.60
918.26	13240.12
918.42	13375.28
918.59	13459.25
918.76	13246.26
918.93	13221.69
919.10	12975.93
919.27	13041.46
919.44	13229.88
919.60	13150.01
919.77	13107.00
919.94	12963.64
920.11	12918.59
920.28	12957.50
920.45	12848.96
920.61	12609.34
920.78	12775.23
920.95	12734.27
921.12	12730.17
921.29	12635.97
921.46	12611.39
921.62	12457.79
921.79	12752.70
921.96	12349.25
922.13	12437.31
922.30	12603.20
922.47	12486.47
922.63	12328.77
922.80	12461.89
922.97	12101.45
923.14	11800.40
923.31	12394.31
923.47	12011.34
923.64	12484.42
923.81	12070.73
923.98	12209.99
924.15	12058.44
924.32	11849.55
924.48	11818.83
924.65	12089.16
924.82	11620.17
924.99	11726.67
925.15	11605.84
925.32	11757.39
925.49	11542.35
925.66	11712.33
925.83	11556.69
925.99	11509.58
926.16	11444.05
926.33	11433.81
926.50	11263.83
926.67	11710.29
926.83	11489.10
927.00	11110.23
927.17	11155.29
927.34	11214.68
927.50	11118.42
927.67	11339.60
927.84	11126.61
928.01	10985.30
928.17	10917.72
928.34	10852.19
928.51	10659.68
928.68	10930.01
928.84	10796.89
929.01	10745.69
929.18	10651.49
929.35	10571.61
929.51	10618.72
929.68	10563.42
929.85	10352.48
930.02	10626.91
930.18	10475.36
930.35	10475.36
930.52	10452.83
930.69	10448.74
930.85	10307.43
931.02	10112.87
931.19	10311.52
931.36	10104.68
931.52	10241.89
931.69	10057.57
931.86	9949.03
932.02	9930.60
932.19	9912.17
932.36	9752.43
932.53	9650.03
932.69	9668.46
932.86	9858.92
933.03	9949.03
933.19	9574.25
933.36	9506.67
933.53	9693.04
933.70	9555.82
933.86	9394.03
934.03	9623.41
934.20	9265.01
934.36	9279.35
934.53	9262.96
934.70	9164.66
934.86	9168.76
935.03	9049.97
935.20	8728.44
935.36	8959.86
935.53	8935.29
935.70	8849.27
935.86	8759.16
936.03	8710.01
936.20	8521.60
936.36	8488.83
936.53	8574.85
936.70	8501.12
936.86	8597.37
937.03	8433.54
937.20	8265.60
937.36	8097.67
937.53	7913.35
937.70	7868.30
937.86	7980.93
938.03	7851.91
938.20	7958.41
938.36	7454.61
938.53	7726.99
938.70	7425.93
938.86	7573.39
939.03	7475.09
939.20	7200.66
939.36	7225.23
939.53	7225.23
939.70	7337.87
939.86	6778.78
940.03	6754.20
940.19	6846.36
940.36	6862.74
940.53	6823.83
940.69	6580.12
940.86	6905.75
941.03	6483.87
941.19	6354.85
941.36	6483.87
941.52	6399.90
941.69	6123.43
941.86	6260.64
942.02	6113.19
942.19	6199.20
942.35	6201.25
942.52	5988.26
942.69	5963.68
942.85	5877.67
943.02	5863.33
943.18	5789.61
943.35	5892.01
943.52	5636.01
943.68	5662.63
943.85	5775.27
944.01	5732.26
944.18	5418.93
944.35	5554.09
944.51	5513.13
944.68	5410.73
944.84	5513.13
945.01	5416.88
945.17	5420.97
945.34	5408.69
945.51	5279.66
945.67	5463.98
945.84	5410.73
946.00	5343.15
946.17	5449.64
946.33	5291.95
946.50	5312.43
946.67	5283.76
946.83	5291.95
947.00	5312.43
947.16	5441.45
947.33	5351.34
947.49	5386.16
947.66	5328.81
947.82	5363.63
947.99	5267.38
948.16	5412.78
948.32	5210.03
948.49	5294.00
948.65	5345.20
948.82	5373.87
948.98	5259.18
949.15	5089.20
949.31	5271.47
949.48	5365.68
949.64	5287.86
949.81	5361.58
949.97	5377.97
950.14	5402.54
950.30	5257.14
950.47	5314.48
950.63	5314.48
950.80	5511.08
950.96	5296.05
951.13	5382.06
951.30	5324.72
951.46	5353.39
951.63	5412.78
951.79	5437.36
951.96	5359.53
952.12	5365.68
952.29	5302.19
952.45	5242.80
952.62	5410.73
952.78	5404.59
952.94	5482.41
953.11	5418.93
953.27	5238.70
953.44	5562.28
953.60	5402.54
953.77	5554.09
953.93	5533.61
954.10	5439.40
954.26	5443.50
954.43	5328.81
954.59	5449.64
954.76	5599.15
954.92	5410.73
955.09	5492.65
955.25	5498.80
955.42	5457.84
955.58	5648.30
955.75	5529.52
955.91	5570.48
956.07	5408.69
956.24	5455.79
956.40	5474.22
956.57	5562.28
956.73	5500.84
956.90	5492.65
957.06	5468.08
957.23	5365.68
957.39	5337.01
957.56	5535.66
957.72	5474.22
957.88	5533.61
958.05	5691.31
958.21	5609.39
958.38	5562.28
958.54	5443.50
958.71	5660.59
958.87	5459.88
959.03	5466.03
959.20	5509.04
959.36	5500.84
959.53	5619.63
959.69	5416.88
959.85	5535.66
960.02	5427.12
960.18	5412.78
960.35	5541.80
960.51	5593.00
960.68	5423.02
960.84	5627.82
961.00	5468.08
961.17	5365.68
961.33	5611.43
961.50	5494.70
961.66	5490.60
961.82	5453.74
961.99	5545.90
962.15	5545.90
962.31	5367.73
962.48	5355.44
962.64	5521.32
962.81	5345.20
962.97	5402.54
963.13	5429.17
963.30	5402.54
963.46	5322.67
963.62	5406.64
963.79	5572.52
963.95	5537.71
964.12	5490.60
964.28	5433.26
964.44	5263.28
964.61	5468.08
964.77	5478.32
964.93	5492.65
965.10	5443.50
965.26	5296.05
965.42	5371.82
965.59	5377.97
965.75	5490.60
965.92	5363.63
966.08	5386.16
966.24	5386.16
966.41	5394.35
966.57	5396.40
966.73	5285.81
966.90	5527.47
967.06	5320.62
967.22	5267.38
967.39	5267.38
967.55	5167.03
967.71	5351.34
967.88	5277.62
968.04	5271.47
968.20	5105.59
968.37	5218.22
968.53	5228.46
968.69	5261.23
968.85	5201.84
969.02	5326.77
969.18	5203.89
969.34	5248.94
969.51	5156.79
969.67	5347.25
969.83	5025.72
970.00	5195.70
970.16	5160.88
970.32	5185.46
970.48	5316.53
970.65	5081.01
970.81	5119.92
970.97	5113.78
971.14	5033.91
971.30	5150.64
971.46	5148.59
971.63	5121.97
971.79	5038.00
971.95	4978.61
972.11	4951.99
972.28	4997.04
972.44	5115.83
972.60	5027.76
972.76	5054.39
972.93	4972.47
973.09	5044.15
973.25	5076.91
973.42	4870.07
973.58	4947.89
973.74	5023.67
973.90	4958.13
974.07	4861.88
974.23	5005.24
974.39	4878.26
974.55	4870.07
974.72	4820.92
974.88	4730.81
975.04	4753.34
975.20	4851.64
975.37	4896.69
975.53	4784.06
975.69	4771.77
975.85	4749.24
976.01	4861.88
976.18	4796.34
976.34	4786.10
976.50	4947.89
976.66	4888.50
976.83	4726.71
976.99	4739.00
977.15	4769.72
977.31	4689.85
977.47	4796.34
977.64	4820.92
977.80	4622.27
977.96	4573.11
978.12	4681.66
978.29	4675.51
978.45	4577.21
978.61	4616.12
978.77	4622.27
978.93	4585.40
979.10	4757.43
979.26	4657.08
979.42	4636.60
979.58	4485.05
979.74	4542.39
979.91	4478.91
980.07	4470.72
980.23	4605.88
980.39	4431.80
980.55	4458.43
980.71	4544.44
980.88	4448.19
981.04	4554.68
981.20	4489.15
981.36	4464.57
981.52	4507.58
981.68	4483.00
981.85	4573.11
982.01	4501.44
982.17	4476.86
982.33	4384.70
982.49	4581.31
982.65	4472.76
982.82	4335.55
982.98	4542.39
983.14	4401.08
983.30	4376.51
983.46	4548.54
983.62	4329.41
983.79	4214.72
983.95	4145.09
984.11	4284.35
984.27	4319.17
984.43	4290.49
984.59	4284.35
984.75	4251.58
984.91	4315.07
985.08	4224.96
985.24	4192.19
985.40	4122.56
985.56	4247.49
985.72	4122.56
985.88	4128.70
986.04	4173.76
986.20	4171.71
986.37	4106.18
986.53	4138.94
986.69	4239.30
986.85	4149.18
987.01	4091.84
987.17	4165.57
987.33	3981.25
987.49	4102.08
987.65	4120.51
987.82	3985.35
987.98	3903.43
988.14	4069.31
988.30	4005.83
988.46	3874.76
988.62	3973.06
988.78	3966.92
988.94	3981.25
989.10	3966.92
989.26	3839.94
989.42	3893.19
989.59	3790.79
989.75	3839.94
989.91	3932.10
990.07	3839.94
990.23	3846.09
990.39	3729.35
990.55	3954.63
990.71	3805.13
990.87	3848.13
991.03	3893.19
991.19	3764.17
991.35	3833.80
991.51	3882.95
991.67	3942.34
991.83	3786.69
992.00	3706.82
992.16	3882.95
992.32	3796.93
992.48	3782.60
992.64	3702.73
992.80	3788.74
992.96	3680.20
993.12	3739.59
993.28	3669.96
993.44	3710.92
993.60	3659.72
993.76	3583.95
993.92	3594.19
994.08	3674.06
994.24	3622.86
994.40	3659.72
994.56	3708.87
994.72	3614.66
994.88	3590.09
995.04	3649.48
995.20	3538.89
995.36	3516.36
995.52	3534.79
995.68	3547.08
995.84	3522.51
996.00	3674.06
996.16	3516.36
996.32	3461.07
996.48	3563.47
996.64	3663.82
996.80	3549.13
996.96	3608.52
997.12	3477.45
997.28	3434.44
997.44	3366.86
997.60	3373.00
997.76	3385.29
997.92	3469.26
998.08	3348.43
998.24	3389.39
998.40	3395.53
998.56	3510.22
998.72	3289.04
998.88	3313.61
999.04	3243.98
999.20	3434.44
999.36	3157.97
999.52	3397.58
999.68	3370.96
999.84	3368.91
1000.00	3321.81
1000.16	3248.08
1000.32	3223.50
1000.48	3393.48
1000.64	3246.03
1000.80	3225.55
1000.95	3176.40
1001.11	3309.52
1001.27	3229.65
1001.43	3211.22
1001.59	3250.13
1001.75	3217.36
1001.91	3192.78
1002.07	3090.38
1002.23	3160.02
1002.39	3196.88
1002.55	3286.99
1002.71	3112.91
1002.87	3160.02
1003.03	3117.01
1003.19	3012.56
1003.34	3227.60
1003.50	3117.01
1003.66	3180.50
1003.82	3104.72
1003.98	3092.43
1004.14	3088.34
1004.30	3114.96
1004.46	3080.14
1004.62	3002.32
1004.78	3061.71
1004.94	3112.91
1005.09	3049.43
1005.25	3084.24
1005.41	2938.84
1005.57	3143.63
1005.73	3006.42
1005.89	3010.51
1006.05	2965.46
1006.21	2967.51
1006.37	2850.77
1006.52	2863.06
1006.68	2879.44
1006.84	3024.85
1007.00	2990.03
1007.16	3074.00
1007.32	2887.64
1007.48	2961.36
1007.64	2994.13
1007.79	2889.68
1007.95	2785.24
1008.11	2881.49
1008.27	2762.71
1008.43	2891.73
1008.59	2924.50
1008.75	2928.60
1008.91	2813.91
1009.06	2887.64
1009.22	2883.54
1009.38	2791.38
1009.54	2805.72
1009.70	2809.81
1009.86	2895.83
1010.01	2885.59
1010.17	2795.48
1010.33	2807.77
1010.49	2815.96
1010.65	2846.68
1010.81	2789.33
1010.96	2787.29
1011.12	2697.17
1011.28	2744.28
1011.44	2879.44
1011.60	2746.33
1011.76	2670.55
1011.91	2797.53
1012.07	2533.34
1012.23	2602.97
1012.39	2566.10
1012.55	2672.60
1012.71	2654.17
1012.86	2645.98
1013.02	2619.35
1013.18	2555.86
1013.34	2617.30
1013.50	2672.60
1013.65	2574.30
1013.81	2635.74
1013.97	2506.71
1014.13	2705.37
1014.29	2535.39
1014.44	2723.80
1014.60	2590.68
1014.76	2623.45
1014.92	2629.59
1015.07	2678.74
1015.23	2537.43
1015.39	2549.72
1015.55	2553.82
1015.71	2625.50
1015.86	2471.90
1016.02	2553.82
1016.18	2459.61
1016.34	2588.63
1016.49	2482.14
1016.65	2629.59
1016.81	2500.57
1016.97	2516.95
1017.12	2510.81
1017.28	2469.85
1017.44	2361.31
1017.60	2455.51
1017.75	2484.19
1017.91	2447.32
1018.07	2453.47
1018.23	2394.08
1018.38	2344.92
1018.54	2414.56
1018.70	2451.42
1018.86	2346.97
1019.01	2385.88
1019.17	2387.93
1019.33	2504.67
1019.49	2420.70
1019.64	2463.71
1019.80	2355.16
1019.96	2430.94
1020.12	2465.75
1020.27	2435.03
1020.43	2418.65
1020.59	2385.88
1020.74	2510.81
1020.90	2394.08
1021.06	2279.39
1021.22	2373.60
1021.37	2396.12
1021.53	2303.96
1021.69	2371.55
1021.84	2258.91
1022.00	2269.15
1022.16	2291.68
1022.31	2338.78
1022.47	2326.49
1022.63	2373.60
1022.79	2246.62
1022.94	2285.53
1023.10	2383.84
1023.26	2271.20
1023.41	2199.52
1023.57	2306.01
1023.73	2256.86
1023.88	2273.25
1024.04	2174.94
1024.20	2205.66
1024.35	2193.37
1024.51	2226.14
1024.67	2244.57
1024.82	2263.01
1024.98	2146.27
1025.14	2263.01
1025.29	2207.71
1025.45	2383.84
1025.61	2142.18
1025.76	2164.70
1025.92	2232.29
1026.08	2201.57
1026.23	2248.67
1026.39	2291.68
1026.55	2230.24
1026.70	2174.94
1026.86	2252.77
1027.02	2240.48
1027.17	2131.94
1027.33	2158.56
1027.48	2199.52
1027.64	2123.74
1027.80	2058.21
1027.95	2248.67
1028.11	2066.40
1028.27	2174.94
1028.42	2191.33
1028.58	2127.84
1028.73	2088.93
1028.89	2060.26
1029.05	2179.04
1029.20	2230.24
>>>>>End Processed Spectral Data<<<<<
