SpectraSuite Data File
++++++++++++++++++++++++++++++++++++
Date: Fri Jun 02 14:49:25 CEST 2017
User: INFO_000
Dark Spectrum Present: No
Reference Spectrum Present: No
Number of Sampled Component Spectra: 1
Spectrometers: USB4H00879
Integration Time (usec): 80000 (USB4H00879)
Spectra Averaged: 1 (USB4H00879)
Boxcar Smoothing: 0 (USB4H00879)
Correct for Electrical Dark: No (USB4H00879)
Strobe/Lamp Enabled: No (USB4H00879)
Correct for Detector Non-linearity: No (USB4H00879)
Correct for Stray Light: No (USB4H00879)
Number of Pixels in Processed Spectrum: 3648
>>>>>Begin Processed Spectral Data<<<<<
345.13	1290.22
345.34	1290.22
345.56	1290.22
345.78	1263.60
345.99	1259.50
346.21	1724.39
346.42	1701.86
346.64	1650.66
346.86	1769.44
347.07	1699.81
347.29	1724.39
347.50	1679.33
347.72	1685.48
347.94	1748.97
348.15	1523.69
348.37	1712.10
348.59	1734.63
348.80	1650.66
349.02	1818.60
349.23	1810.40
349.45	1796.07
349.67	1888.23
349.88	1791.97
350.10	1992.67
350.31	1882.08
350.53	1798.12
350.75	1925.09
350.96	1810.40
351.18	1918.95
351.39	1791.97
351.61	1808.36
351.82	1880.04
352.04	1941.47
352.26	1882.08
352.47	1904.61
352.69	1955.81
352.90	1769.44
353.12	1871.84
353.34	1789.92
353.55	1880.04
353.77	1818.60
353.98	1867.75
354.20	1765.35
354.41	1937.38
354.63	1968.10
354.85	2084.83
355.06	1904.61
355.28	1806.31
355.49	1882.08
355.71	1916.90
355.92	1865.70
356.14	1904.61
356.35	1877.99
356.57	1929.19
356.79	1867.75
357.00	1863.65
357.22	1927.14
357.43	1890.28
357.65	1945.57
357.86	1841.12
358.08	1820.64
358.29	1927.14
358.51	1910.75
358.72	1959.91
358.94	1955.81
359.16	1880.04
359.37	1916.90
359.59	1964.00
359.80	2023.39
360.02	1927.14
360.23	1964.00
360.45	2011.11
360.66	1898.47
360.88	1845.22
361.09	1996.77
361.31	1937.38
361.52	1929.19
361.74	2070.50
361.95	2019.30
362.17	2033.63
362.38	2054.11
362.60	2027.49
362.81	2013.15
363.03	1959.91
363.24	1966.05
363.46	2043.87
363.67	2015.20
363.89	2023.39
364.10	2017.25
364.32	1984.48
364.53	2090.98
364.75	1914.85
364.96	2045.92
365.18	2023.39
365.39	2007.01
365.61	1912.80
365.82	2115.55
366.04	2009.06
366.25	2045.92
366.47	2002.91
366.68	2060.26
366.90	1939.43
367.11	1986.53
367.33	2058.21
367.54	2050.02
367.76	2066.40
367.97	2060.26
368.19	1984.48
368.40	2043.87
368.62	1945.57
368.83	1984.48
369.05	1968.10
369.26	1988.58
369.48	1986.53
369.69	1980.39
369.91	2052.06
370.12	1978.34
370.33	2093.02
370.55	2029.54
370.76	2033.63
370.98	2050.02
371.19	2062.30
371.41	2035.68
371.62	2060.26
371.84	1953.76
372.05	2220.00
372.27	2109.41
372.48	2095.07
372.69	2082.78
372.91	2129.89
373.12	2105.31
373.34	2123.74
373.55	2119.65
373.77	2209.76
373.98	2023.39
374.20	2076.64
374.41	2287.58
374.62	2148.32
374.84	2158.56
375.05	2185.18
375.27	2129.89
375.48	2189.28
375.70	2185.18
375.91	2207.71
376.12	2312.16
376.34	2148.32
376.55	2152.42
376.77	2232.29
376.98	2041.82
377.19	2129.89
377.41	2158.56
377.62	2213.85
377.84	2213.85
378.05	2346.97
378.27	2232.29
378.48	2306.01
378.69	2351.07
378.91	2344.92
379.12	2277.34
379.34	2203.61
379.55	2320.35
379.76	2301.92
379.98	2250.72
380.19	2238.43
380.41	2244.57
380.62	2256.86
380.83	2256.86
381.05	2267.10
381.26	2445.27
381.47	2265.05
381.69	2258.91
381.90	2306.01
382.12	2351.07
382.33	2207.71
382.54	2273.25
382.76	2303.96
382.97	2322.40
383.19	2117.60
383.40	2308.06
383.61	2349.02
383.83	2320.35
384.04	2322.40
384.25	2326.49
384.47	2383.84
384.68	2318.30
384.89	2217.95
385.11	2322.40
385.32	2324.44
385.54	2332.64
385.75	2373.60
385.96	2514.91
386.18	2445.27
386.39	2467.80
386.60	2326.49
386.82	2418.65
387.03	2445.27
387.24	2510.81
387.46	2371.55
387.67	2387.93
387.88	2500.57
388.10	2441.18
388.31	2439.13
388.52	2504.67
388.74	2582.49
388.95	2590.68
389.16	2457.56
389.38	2457.56
389.59	2527.19
389.80	2598.87
390.02	2514.91
390.23	2635.74
390.44	2590.68
390.66	2537.43
390.87	2416.60
391.08	2562.01
391.30	2736.09
391.51	2631.64
391.72	2662.36
391.94	2611.16
392.15	2660.31
392.36	2594.78
392.58	2553.82
392.79	2525.15
393.00	2781.14
393.22	2572.25
393.43	2703.32
393.64	2830.29
393.85	2828.24
394.07	2688.98
394.28	2641.88
394.49	2746.33
394.71	2740.18
394.92	2875.35
395.13	2703.32
395.35	2664.41
395.56	2715.61
395.77	2750.42
395.98	2791.38
396.20	2779.09
396.41	2871.25
396.62	2828.24
396.84	2861.01
397.05	2772.95
397.26	2805.72
397.47	2899.92
397.69	2836.44
397.90	3067.86
398.11	2865.11
398.32	2861.01
398.54	2861.01
398.75	2865.11
398.96	2920.40
399.18	3022.80
399.39	2965.46
399.60	3018.71
399.81	2959.31
400.03	2922.45
400.24	3198.93
400.45	2973.65
400.66	3100.62
400.88	3043.28
401.09	3098.58
401.30	2981.84
401.51	3076.05
401.73	3059.67
401.94	3016.66
402.15	3149.78
402.36	3082.19
402.58	3076.05
402.79	3190.74
403.00	3145.68
403.21	3092.43
403.43	3086.29
403.64	3229.65
403.85	3106.77
404.06	3291.09
404.27	3104.72
404.49	3280.85
404.70	3063.76
404.91	3190.74
405.12	3246.03
405.34	3106.77
405.55	3342.28
405.76	3137.49
405.97	3176.40
406.19	3317.71
406.40	3237.84
406.61	3362.76
406.82	3278.80
407.03	3217.36
407.25	3330.00
407.46	3354.57
407.67	3450.83
407.88	3405.77
408.09	3262.41
408.31	3330.00
408.52	3381.20
408.73	3278.80
408.94	3344.33
409.15	3389.39
409.37	3332.05
409.58	3551.18
409.79	3438.54
410.00	3497.93
410.21	3512.27
410.43	3387.34
410.64	3325.90
410.85	3557.32
411.06	3579.85
411.27	3549.13
411.48	3475.40
411.70	3508.17
411.91	3508.17
412.12	3624.90
412.33	3645.38
412.54	3596.23
412.76	3727.30
412.97	3575.75
413.18	3497.93
413.39	3637.19
413.60	3731.40
413.81	3602.38
414.03	3633.10
414.24	3725.26
414.45	3815.37
414.66	3604.42
414.87	3698.63
415.08	3702.73
415.30	3774.41
415.51	3747.78
415.72	3694.54
415.93	3655.62
416.14	3815.37
416.35	3645.38
416.56	3848.13
416.78	3844.04
416.99	3803.08
417.20	3747.78
417.41	3923.91
417.62	3850.18
417.83	3936.20
418.04	3827.65
418.26	3876.80
418.47	3827.65
418.68	3887.04
418.89	3973.06
419.10	4071.36
419.31	3993.54
419.52	3997.64
419.73	3995.59
419.95	3997.64
420.16	3995.59
420.37	4009.92
420.58	3942.34
420.79	3788.74
421.00	4057.03
421.21	4095.94
421.42	3936.20
421.63	4165.57
421.85	4081.60
422.06	4100.03
422.27	4181.95
422.48	4057.03
422.69	4327.36
422.90	4237.25
423.11	4157.38
423.32	4134.85
423.53	4323.26
423.75	4253.63
423.96	4417.47
424.17	4444.09
424.38	4444.09
424.59	4374.46
424.80	4558.78
425.01	4485.05
425.22	4329.41
425.43	4407.23
425.64	4663.22
425.85	4640.70
426.06	4444.09
426.28	4634.55
426.49	4483.00
426.70	4483.00
426.91	4620.22
427.12	4622.27
427.33	4526.01
427.54	4554.68
427.75	4710.33
427.96	4675.51
428.17	4663.22
428.38	4796.34
428.59	4861.88
428.80	4732.86
429.01	4806.58
429.23	4820.92
429.44	4898.74
429.65	4919.22
429.86	5048.24
430.07	4927.41
430.28	4829.11
430.49	4984.76
430.70	5074.87
430.91	5056.43
431.12	5058.48
431.33	5060.53
431.54	5121.97
431.75	5128.11
431.96	5173.17
432.17	5027.76
432.38	5038.00
432.59	5382.06
432.80	5320.62
433.01	5238.70
433.22	5197.74
433.43	5261.23
433.64	5257.14
433.85	5265.33
434.06	5316.53
434.27	5189.55
434.49	5281.71
434.70	5498.80
434.91	5322.67
435.12	5431.21
435.33	5535.66
435.54	5384.11
435.75	5369.77
435.96	5425.07
436.17	5330.86
436.38	5570.48
436.59	5476.27
436.80	5484.46
437.01	5636.01
437.22	5789.61
437.43	5783.46
437.64	5453.74
437.85	5556.14
438.06	5687.21
438.27	5517.23
438.48	5662.63
438.69	5902.25
438.90	5820.33
439.11	5611.43
439.32	5820.33
439.53	5810.09
439.74	5701.54
439.95	5687.21
440.16	5867.43
440.37	5754.79
440.57	5672.87
440.78	5980.07
440.99	5826.47
441.20	5928.87
441.41	5908.39
441.62	6080.42
441.83	5812.14
442.04	5967.78
442.25	5922.73
442.46	5957.54
442.67	6158.24
442.88	6469.53
443.09	6115.23
443.30	6025.12
443.51	6072.23
443.72	6420.38
443.93	6197.15
444.14	6258.59
444.35	6023.08
444.56	6289.31
444.77	6107.04
444.98	6213.54
445.19	6205.35
445.40	6262.69
445.61	6221.73
445.81	6510.49
446.02	6399.90
446.23	6350.75
446.44	6238.11
446.65	6438.81
446.86	6391.71
447.07	6332.32
447.28	6610.84
447.49	6584.22
447.70	6557.60
447.91	6686.62
448.12	6461.34
448.33	6721.43
448.54	6674.33
448.74	6582.17
448.95	6737.82
449.16	6582.17
449.37	6938.52
449.58	6600.60
449.79	7065.49
450.00	6614.94
450.21	7008.15
450.42	6850.46
450.63	6934.42
450.84	6856.60
451.05	6967.19
451.25	6963.09
451.46	6762.39
451.67	7090.07
451.88	7026.58
452.09	6985.62
452.30	7065.49
452.51	6926.23
452.72	7253.91
452.93	7389.07
453.13	7055.25
453.34	7292.82
453.55	7149.46
453.76	7194.51
453.97	7524.24
454.18	7468.94
454.39	7544.72
454.60	7204.75
454.81	7354.26
455.01	7491.47
455.22	7233.43
455.43	7497.61
455.64	7856.01
455.85	7831.43
456.06	7835.53
456.27	7804.81
456.48	7548.81
456.68	7757.71
456.89	7899.02
457.10	7933.83
457.31	7974.79
457.52	7731.08
457.73	8044.42
457.94	7884.68
458.14	7950.21
458.35	8298.37
458.56	8148.87
458.77	7917.45
458.98	8220.55
459.19	8148.87
459.39	8296.32
459.60	8351.62
459.81	8306.56
460.02	8390.53
460.23	8335.23
460.44	8726.39
460.65	8697.72
460.85	8804.22
461.06	8738.68
461.27	8572.80
461.48	8914.81
461.69	8699.77
461.89	8580.99
462.10	8865.66
462.31	8693.63
462.52	8787.83
462.73	8779.64
462.94	9160.56
463.14	8925.05
463.35	9041.78
463.56	9549.68
463.77	9078.65
463.98	9271.15
464.18	9160.56
464.39	9267.06
464.60	9666.41
464.81	9504.62
465.02	9467.76
465.23	9723.76
465.43	9566.06
465.64	9629.55
465.85	9897.83
466.06	9580.40
466.27	10018.66
466.47	9908.07
466.68	9944.94
466.89	9869.16
467.10	10080.10
467.30	9875.31
467.51	10065.77
467.72	10346.34
467.93	10112.87
468.14	10243.94
468.34	10508.13
468.55	10448.74
468.76	10567.52
468.97	10487.65
469.17	10678.11
469.38	10794.84
469.59	10805.08
469.80	10530.66
470.01	10680.16
470.21	10878.81
470.42	10860.38
470.63	11208.53
470.84	11183.96
471.04	11280.21
471.25	11376.47
471.46	11208.53
471.67	11462.48
471.87	11278.16
472.08	11638.61
472.29	11671.37
472.50	11454.29
472.70	11732.81
472.91	11767.63
473.12	12009.29
473.33	11931.47
473.53	12199.75
473.74	11761.48
473.95	12072.78
474.16	12353.35
474.36	12158.79
474.57	12222.28
474.78	12658.49
474.99	12377.92
475.19	12390.21
475.40	12844.86
475.61	12810.04
475.81	12824.38
476.02	13326.13
476.23	12861.24
476.44	13109.05
476.64	13088.57
476.85	13354.80
477.06	13481.78
477.27	13604.66
477.47	13705.01
477.68	13588.27
477.89	13813.55
478.09	13621.04
478.30	13805.36
478.51	13952.81
478.71	13866.80
478.92	14182.18
479.13	14241.57
479.34	14429.99
479.54	14270.25
479.75	14569.25
479.96	14434.08
480.16	14559.01
480.37	14487.33
480.58	14690.08
480.78	15126.30
480.99	15073.05
481.20	15202.07
481.41	15161.11
481.61	15101.72
481.82	15202.07
482.03	15478.55
482.23	15140.63
482.44	15728.40
482.65	15875.85
482.85	15957.77
483.06	15755.02
483.27	15943.44
483.47	15861.52
483.68	16107.27
483.89	16269.06
484.09	16240.39
484.30	16254.73
484.51	16570.12
484.71	16604.93
484.92	16576.26
485.13	16903.93
485.33	16844.54
485.54	16828.16
485.75	17014.52
485.95	17313.53
486.16	17276.66
486.37	17372.92
486.57	17157.88
486.78	17465.08
486.98	17467.13
487.19	17452.79
487.40	17667.83
487.60	17592.05
487.81	17788.66
488.02	17942.25
488.22	17823.47
488.43	18058.99
488.64	18058.99
488.84	18403.05
489.05	18683.62
489.25	18159.34
489.46	18599.65
489.67	18667.24
489.87	18773.73
490.08	18894.56
490.29	18853.60
490.49	19259.10
490.70	19199.71
490.90	19398.36
491.11	18908.90
491.32	19226.33
491.52	19429.08
491.73	19246.81
491.94	19699.41
492.14	19783.38
492.35	19791.57
492.55	19855.06
492.76	20000.46
492.97	20084.43
493.17	20467.40
493.38	20195.02
493.58	20297.42
493.79	20143.82
494.00	20215.50
494.20	20672.20
494.41	20715.20
494.61	20815.55
494.82	20876.99
495.02	20639.43
495.23	21135.04
495.44	20844.23
495.64	21327.55
495.85	21216.96
496.05	21475.00
496.26	21253.82
496.47	21655.22
496.67	21452.47
496.88	21855.92
497.08	21440.18
497.29	21829.30
497.49	21917.36
497.70	22279.85
497.91	22113.97
498.11	22273.71
498.32	22349.48
498.52	22615.72
498.73	22902.43
498.93	22566.57
499.14	22521.51
499.34	22683.30
499.55	23189.15
499.76	22636.20
499.96	23017.12
500.17	23123.62
500.37	22976.16
500.58	22984.35
500.78	23232.16
500.99	23309.98
501.19	23502.49
501.40	23508.63
501.60	22867.62
501.81	23631.51
502.02	23764.63
502.22	23375.52
502.43	23756.44
502.63	24028.82
502.84	24137.36
503.04	24032.91
503.25	24055.44
503.45	23905.94
503.66	24309.39
503.86	23883.41
504.07	24520.33
504.27	24276.62
504.48	24733.32
504.68	24536.71
504.89	24837.76
505.09	24639.11
505.30	24983.17
505.50	24694.41
505.71	24833.67
505.91	24852.10
506.12	24923.78
506.32	24858.24
506.53	25364.09
506.73	25355.90
506.94	25464.44
507.14	25228.93
507.35	25214.59
507.55	25302.65
507.76	25589.37
507.96	25474.68
508.17	25757.30
508.37	25685.62
508.58	25564.79
508.78	25710.20
508.99	26170.99
509.19	25808.50
509.40	25945.72
509.60	26003.06
509.81	26291.82
510.01	26140.27
510.22	26187.38
510.42	26285.68
510.63	26338.93
510.83	26787.43
511.04	26082.93
511.24	26859.11
511.44	26431.08
511.65	26668.65
511.85	26498.67
512.06	26812.01
512.26	26793.58
512.47	27022.95
512.67	26633.83
512.88	26846.82
513.08	26852.97
513.29	27377.25
513.49	27180.64
513.69	27151.97
513.90	27051.62
514.10	26928.74
514.31	27500.12
514.51	27418.21
514.72	27440.73
514.92	27295.33
515.13	27502.17
515.33	27879.00
515.53	27680.35
515.74	27586.14
515.94	27676.25
516.15	27729.50
516.35	27629.15
516.56	27803.22
516.76	28091.99
516.96	28116.56
517.17	28120.66
517.37	27944.53
517.58	27956.82
517.78	28206.67
517.99	28208.72
518.19	28438.09
518.39	28538.44
518.60	28499.53
518.80	28655.18
519.01	28462.67
519.21	28431.95
519.41	28497.49
519.62	28669.51
519.82	28644.94
520.03	28886.60
520.23	28683.85
520.43	29103.68
520.64	29136.45
520.84	29210.18
521.05	29234.75
521.25	29253.19
521.45	29603.39
521.66	29472.32
521.86	29642.30
522.07	29662.78
522.27	29580.86
522.47	29580.86
522.68	29713.98
522.88	29701.69
523.08	29916.73
523.29	29728.31
523.49	30117.43
523.70	30058.04
523.90	29955.64
524.10	29943.35
524.31	30275.12
524.51	30174.77
524.71	30273.07
524.92	30334.51
525.12	30729.77
525.33	30666.28
525.53	30993.96
525.73	30891.56
525.94	30926.38
526.14	30866.98
526.34	30725.68
526.55	31217.19
526.75	31338.02
526.95	31282.72
527.16	31012.39
527.36	31252.00
527.56	31501.86
527.77	31571.49
527.97	31596.06
528.17	31612.45
528.38	31708.70
528.58	31897.11
528.78	31645.21
528.99	31729.18
529.19	32259.60
529.39	31895.07
529.60	32472.59
529.80	31823.39
530.00	31991.32
530.21	32382.48
530.41	32484.88
530.61	32046.62
530.82	32646.67
531.02	32343.57
531.22	32642.57
531.43	32880.14
531.63	33003.02
531.83	32843.27
532.04	33361.41
532.24	32894.47
532.44	33521.15
532.64	33586.69
532.85	33392.13
533.05	33576.45
533.25	33588.74
533.46	33807.87
533.66	34031.10
533.86	34014.71
534.07	34207.22
534.27	33996.28
534.47	34371.06
534.67	34426.35
534.88	34059.77
535.08	34330.10
535.28	34110.97
535.49	34678.25
535.69	35173.86
535.89	34952.68
536.09	35077.61
536.30	35106.28
536.50	35214.82
536.70	35149.29
536.91	34772.46
537.11	34956.78
537.31	35182.06
537.51	35458.53
537.72	35804.64
537.92	35882.46
538.12	36124.12
538.32	35849.69
538.53	35847.64
538.73	35960.28
538.93	36040.15
539.13	35976.67
539.34	36251.09
539.54	36474.32
539.74	36304.34
539.94	36103.64
540.15	36503.00
540.35	36539.86
540.55	36713.94
540.75	36767.18
540.96	36922.83
541.16	36746.70
541.36	37236.17
541.56	36834.77
541.77	37443.01
541.97	37180.87
542.17	37541.32
542.37	37631.43
542.58	37453.25
542.78	37223.88
542.98	37336.52
543.18	37737.92
543.38	38096.31
543.59	38092.22
543.79	37871.04
543.99	37662.15
544.19	38069.69
544.40	38049.21
544.60	38233.53
544.80	38444.47
545.00	38385.08
545.20	38942.13
545.41	38475.19
545.61	38344.12
545.81	38604.21
546.01	38798.77
546.21	38411.70
546.42	38469.04
546.62	39022.00
546.82	38854.06
547.02	39124.40
547.22	39028.14
547.43	39005.61
547.63	39333.29
547.83	39509.41
548.03	38876.59
548.23	39568.80
548.44	39108.01
548.64	40041.88
548.84	39583.14
549.04	39757.22
549.24	39785.89
549.45	39927.20
549.65	39548.32
549.85	39572.90
550.05	40072.60
550.25	39943.58
550.45	40490.39
550.66	40273.31
550.86	40009.12
551.06	40535.45
551.26	40549.78
551.46	40437.14
551.66	40371.61
551.87	40609.17
552.07	40961.42
552.27	41012.62
552.47	40514.97
552.67	40986.00
552.87	40887.70
553.07	41065.87
553.28	40986.00
553.48	40928.66
553.68	40879.50
553.88	41377.16
554.08	41354.63
554.28	41414.02
554.48	40945.04
554.69	41385.35
554.89	41786.75
555.09	41661.83
555.29	41217.42
555.49	41987.46
555.69	41614.72
555.89	41749.89
556.10	42282.36
556.30	41897.34
556.50	42061.18
556.70	41749.89
556.90	42257.79
557.10	42079.61
557.30	42003.84
557.50	42177.92
557.70	41930.11
557.91	42423.67
558.11	42229.12
558.31	42798.45
558.51	42341.75
558.71	42290.55
558.91	42759.54
559.11	42534.26
559.31	42579.32
559.51	42395.00
559.72	42442.10
559.92	42726.77
560.12	42372.47
560.32	42831.22
560.52	42542.45
560.72	43107.69
560.92	43292.01
561.12	42915.19
561.32	43554.15
561.52	42718.58
561.72	43294.06
561.93	43070.83
562.13	43599.21
562.33	42702.20
562.53	43855.20
562.73	43109.74
562.93	43480.42
563.13	43060.59
563.33	43337.07
563.53	43494.76
563.73	43107.69
563.93	43507.05
564.13	44049.76
564.33	43517.29
564.53	43689.32
564.74	43855.20
564.94	43150.70
565.14	43963.75
565.34	43894.11
565.54	43588.97
565.74	43717.99
565.94	44348.76
566.14	44146.01
566.34	43685.22
566.54	44514.65
566.74	44092.77
566.94	44287.32
567.14	44377.43
567.34	43943.27
567.54	44189.02
567.74	43750.76
567.94	43971.94
568.14	44389.72
568.34	44631.38
568.54	44359.00
568.74	44586.33
568.94	44299.61
569.14	44670.29
569.34	44424.54
569.54	44758.36
569.75	44533.08
569.95	44266.84
570.15	45208.91
570.35	44621.14
570.55	44660.05
570.75	44684.63
570.95	44629.34
571.15	45112.66
571.35	44883.28
571.55	45366.60
571.75	44903.76
571.95	45237.58
572.15	44668.25
572.35	44957.01
572.55	44905.81
572.75	45301.07
572.95	45194.57
573.15	45425.99
573.35	45311.31
573.55	45059.41
573.75	45288.78
573.95	45651.27
574.15	45548.87
574.35	45481.29
574.55	45550.92
574.75	45595.98
574.95	45800.77
575.15	45608.26
575.34	46005.57
575.54	45929.80
575.74	45610.31
575.94	45987.14
576.14	45464.91
576.34	46208.32
576.54	46040.39
576.74	45854.02
576.94	45620.55
577.14	46050.63
577.34	46077.25
577.54	45815.11
577.74	46357.82
577.94	46443.84
578.14	46314.81
578.34	46146.88
578.54	45864.26
578.74	45708.61
578.94	46251.33
579.14	46026.05
579.34	46204.22
579.54	46314.81
579.74	46701.88
579.94	46404.92
580.13	46986.55
580.33	46757.17
580.53	46687.54
580.73	47093.04
580.93	46722.36
581.13	46943.54
581.33	47041.84
581.53	47164.72
581.73	46986.55
581.93	46945.59
582.13	46978.36
582.33	47187.25
582.53	47205.68
582.73	47029.55
582.92	47287.60
583.12	47226.16
583.32	47222.06
583.52	47238.45
583.72	47664.42
583.92	47115.57
584.12	47879.46
584.32	47768.87
584.52	47670.57
584.72	47717.67
584.92	47482.16
585.11	47895.85
585.31	47414.57
585.51	47994.15
585.71	47451.44
585.91	48000.29
586.11	47570.22
586.31	47799.59
586.51	47611.18
586.71	47910.18
586.91	48047.39
587.10	47971.62
587.30	48755.99
587.50	48192.80
587.70	48325.92
587.90	48112.93
588.10	48483.61
588.30	47945.00
588.50	48495.90
588.69	48297.25
588.89	48182.56
589.09	48223.52
589.29	48653.59
589.49	48725.27
589.69	48282.91
589.89	48682.27
590.08	48411.93
590.28	48665.88
590.48	48575.77
590.68	48393.50
590.88	48321.82
591.08	48811.29
591.28	48434.46
591.47	49067.28
591.67	48629.02
591.87	48862.49
592.07	49163.54
592.27	48997.65
592.47	48952.60
592.67	48588.06
592.86	48567.58
593.06	49313.04
593.26	49351.95
593.46	49337.62
593.66	49157.39
593.86	49599.76
594.05	49552.65
594.25	49632.52
594.45	49161.49
594.65	49452.30
594.85	49050.90
595.05	49657.10
595.24	49493.26
595.44	49747.21
595.64	49558.80
595.84	49464.59
596.04	49188.11
596.23	49728.78
596.43	49927.43
596.63	50007.30
596.83	49941.77
597.03	50148.61
597.22	50482.43
597.42	49986.82
597.62	50126.08
597.82	49876.23
598.02	50005.25
598.21	50568.44
598.41	50029.83
598.61	50273.54
598.81	50681.08
599.01	50410.75
599.20	50556.16
599.40	50535.68
599.60	50863.35
599.80	50636.03
600.00	50984.18
600.19	51186.93
600.39	50808.06
600.59	51242.23
600.79	50930.93
600.98	50765.05
601.18	51367.15
601.38	51082.48
601.58	51598.57
601.78	51508.46
601.97	51416.30
602.17	51823.85
602.37	51483.89
602.57	51375.34
602.76	51737.83
602.96	51424.50
603.16	51655.92
603.36	51504.37
603.55	52151.52
603.75	51561.71
603.95	52085.99
604.15	51436.78
604.34	51805.42
604.54	52016.36
604.74	51944.68
604.94	52004.07
605.13	52350.18
605.33	52198.63
605.53	52135.14
605.73	52288.74
605.92	52417.76
606.12	52860.12
606.32	52835.55
606.52	52352.23
606.71	52718.81
606.91	52526.30
607.11	52432.10
607.30	52434.14
607.50	52546.78
607.70	52704.48
607.90	52667.61
608.09	52761.82
608.29	53019.86
608.49	53036.25
608.68	52909.27
608.88	53636.30
609.08	53007.58
609.28	53374.16
609.47	52960.47
609.67	53408.98
609.87	53028.05
610.06	53707.98
610.26	53521.62
610.46	53718.22
610.66	53279.96
610.85	53607.63
611.05	52915.42
611.25	53368.02
611.44	53368.02
611.64	53736.65
611.84	53306.58
612.03	53722.32
612.23	53767.37
612.43	53992.65
612.62	53630.16
612.82	53691.60
613.02	53820.62
613.21	53814.47
613.41	53986.50
613.61	54262.98
613.80	53431.50
614.00	54181.06
614.20	53851.34
614.39	54099.14
614.59	54043.85
614.79	54148.29
614.98	53826.76
615.18	54052.04
615.38	54058.18
615.57	53892.30
615.77	54244.55
615.97	54107.33
616.16	54359.23
616.36	54066.38
616.56	54484.16
616.75	54334.66
616.95	54215.88
617.15	54105.29
617.34	54420.67
617.54	54523.07
617.74	54744.25
617.93	54512.83
618.13	53863.63
618.32	54680.77
618.52	54449.35
618.72	54252.74
618.91	54428.87
619.11	54047.94
619.31	54211.78
619.50	54052.04
619.70	54115.53
619.90	54357.19
620.09	54492.35
620.29	54736.06
620.48	54252.74
620.68	55010.49
620.88	54154.44
621.07	54375.62
621.27	54793.40
621.46	54375.62
621.66	54267.08
621.86	54660.29
622.05	54342.85
622.25	55098.55
622.44	54654.14
622.64	54183.11
622.84	54949.05
623.03	54600.89
623.23	54555.84
623.42	54348.99
623.62	54848.70
623.82	55071.93
624.01	54871.23
624.21	55127.22
624.40	54559.94
624.60	54877.37
624.80	54342.85
624.99	54764.73
625.19	54643.90
625.38	54488.26
625.58	54844.60
625.77	55143.61
625.97	54856.89
626.17	54596.80
626.36	54738.11
626.56	54885.56
626.75	54330.56
626.95	54934.71
627.14	54693.05
627.34	55291.06
627.54	54506.69
627.73	54875.32
627.93	54877.37
628.12	54428.87
628.32	54973.63
628.51	55057.59
628.71	54588.61
628.90	54613.18
629.10	54498.50
629.30	54965.43
629.49	54836.41
629.69	54944.95
629.88	55037.11
630.08	55139.51
630.27	54777.02
630.47	55377.08
630.66	54981.82
630.86	55348.40
631.05	54695.10
631.25	55262.39
631.44	55022.78
631.64	54994.10
631.84	55704.75
632.03	55915.69
632.23	55080.12
632.42	55489.71
632.62	55207.09
632.81	54912.19
633.01	55047.35
633.20	55080.12
633.40	55588.02
633.59	55071.93
633.79	54490.30
633.98	55104.70
634.18	55188.66
634.37	55108.79
634.57	54893.75
634.76	55555.25
634.96	55329.97
635.15	55592.11
635.35	55227.57
635.54	55041.21
635.74	55643.31
635.93	55211.19
636.13	55815.34
636.32	55831.72
636.52	54949.05
636.71	55276.72
636.91	55346.36
637.10	55340.21
637.30	55573.68
637.49	55356.60
637.69	55385.27
637.88	55649.45
638.08	55563.44
638.27	55590.06
638.46	55289.01
638.66	55002.30
638.85	55727.28
639.05	55598.26
639.24	55837.87
639.44	55182.52
639.63	55520.43
639.83	55755.95
640.02	55411.89
640.22	55504.05
640.41	55878.83
640.61	55155.89
640.80	55731.37
640.99	55280.82
641.19	55882.92
641.38	55729.33
641.58	55602.35
641.77	55385.27
641.97	55309.49
642.16	55805.10
642.36	55753.90
642.55	55938.22
642.74	55342.26
642.94	56061.10
643.13	55473.33
643.33	55899.31
643.52	55821.48
643.72	55999.66
643.91	55747.76
644.10	55626.93
644.30	55825.58
644.49	55846.06
644.69	55590.06
644.88	55436.47
645.08	55585.97
645.27	55690.41
645.46	55727.28
645.66	56038.57
645.85	55669.93
646.05	55817.39
646.24	55825.58
646.43	56044.71
646.63	56132.78
646.82	55911.59
647.02	55852.20
647.21	55915.69
647.40	55489.71
647.60	55735.47
647.79	55878.83
647.99	56153.26
648.18	55631.02
648.37	56452.26
648.57	55893.16
648.76	55526.58
648.96	55837.87
649.15	56001.71
649.34	56317.09
649.54	56022.19
649.73	55801.00
649.92	55719.09
650.12	56276.13
650.31	56444.07
650.51	56591.52
650.70	56186.02
650.89	55841.96
651.09	56626.34
651.28	56327.33
651.47	55946.41
651.67	56016.04
651.86	56028.33
652.06	55565.49
652.25	56284.33
652.44	56128.68
652.64	55878.83
652.83	55798.96
653.02	55323.83
653.22	56112.30
653.41	55626.93
653.60	56122.54
653.80	55731.37
653.99	56118.44
654.18	55747.76
654.38	55934.12
654.57	56366.24
654.76	56188.07
654.96	55919.79
655.15	55983.27
655.34	55792.81
655.54	55325.88
655.73	55938.22
655.92	55827.63
656.12	55966.89
656.31	56194.21
656.50	56263.85
656.70	55727.28
656.89	55882.92
657.08	55993.51
657.28	55743.66
657.47	55809.20
657.66	56161.45
657.86	56034.47
658.05	55973.03
658.24	55913.64
658.43	55833.77
658.63	56229.03
658.82	55950.51
659.01	56155.30
659.21	56331.43
659.40	55952.55
659.59	55706.80
659.79	56108.20
659.98	56046.76
660.17	55973.03
660.36	56153.26
660.56	55694.51
660.75	55612.59
660.94	55817.39
661.14	55561.39
661.33	56095.91
661.52	55571.63
661.71	56155.30
661.91	55624.88
662.10	55772.33
662.29	56319.14
662.49	55743.66
662.68	56050.86
662.87	56267.94
663.06	55694.51
663.26	55583.92
663.45	56044.71
663.64	55751.85
663.83	56186.02
664.03	56071.34
664.22	55884.97
664.41	55725.23
664.60	55592.11
664.80	55712.94
664.99	55596.21
665.18	55594.16
665.37	56009.90
665.57	55575.73
665.76	55530.67
665.95	55997.61
666.14	56009.90
666.34	55860.40
666.53	55803.05
666.72	55714.99
666.91	55389.36
667.11	55182.52
667.30	55444.66
667.49	55286.96
667.68	55647.41
667.87	55702.70
668.07	55698.61
668.26	55258.29
668.45	55604.40
668.64	55030.97
668.84	56081.58
669.03	55270.58
669.22	55817.39
669.41	55729.33
669.60	56028.33
669.80	55491.76
669.99	56050.86
670.18	55278.77
670.37	55432.37
670.57	55938.22
670.76	55307.44
670.95	55692.46
671.14	55418.03
671.33	55422.13
671.53	55776.43
671.72	55571.63
671.91	56118.44
672.10	55301.30
672.29	55801.00
672.48	55317.68
672.68	55760.05
672.87	55276.72
673.06	55538.86
673.25	55440.56
673.44	55231.67
673.64	55270.58
673.83	55516.34
674.02	54967.48
674.21	55022.78
674.40	55059.64
674.59	55047.35
674.79	55581.87
674.98	55063.74
675.17	55194.81
675.36	54924.47
675.55	55772.33
675.74	55473.33
675.94	55182.52
676.13	55262.39
676.32	55133.37
676.51	55432.37
676.70	55555.25
676.89	55014.58
677.08	55203.00
677.28	55346.36
677.47	55704.75
677.66	55446.71
677.85	55647.41
678.04	55397.55
678.23	55567.54
678.42	55461.04
678.62	55137.46
678.81	55289.01
679.00	54977.72
679.19	55749.81
679.38	55264.44
679.57	55504.05
679.76	55186.61
679.96	55383.22
680.15	55641.26
680.34	54889.66
680.53	54869.18
680.72	55475.38
680.91	55635.12
681.10	54664.38
681.29	55035.06
681.48	54916.28
681.68	54697.15
681.87	55280.82
682.06	55194.81
682.25	54883.51
682.44	54967.48
682.63	55149.75
682.82	54580.42
683.01	55209.14
683.20	54906.04
683.39	54846.65
683.59	54754.49
683.78	54545.60
683.97	54746.30
684.16	55022.78
684.35	54332.61
684.54	54893.75
684.73	54838.46
684.92	54367.43
685.11	54932.67
685.30	54580.42
685.49	54820.03
685.69	54451.39
685.88	54965.43
686.07	55035.06
686.26	55028.92
686.45	54865.08
686.64	54916.28
686.83	54658.24
687.02	54887.61
687.21	54858.94
687.40	54613.18
687.59	54598.85
687.78	54629.57
687.97	55043.26
688.16	55057.59
688.35	54473.92
688.54	54596.80
688.74	54490.30
688.93	54510.78
689.12	54797.50
689.31	54582.46
689.50	54637.76
689.69	54217.92
689.88	54451.39
690.07	54322.37
690.26	54697.15
690.45	55151.80
690.64	54568.13
690.83	54539.46
691.02	54277.32
691.21	54467.78
691.40	54908.09
691.59	54557.89
691.78	54197.44
691.97	54973.63
692.16	54459.58
692.35	54566.08
692.54	54418.63
692.73	54723.77
692.92	54572.22
693.11	54639.81
693.30	54101.19
693.49	54541.50
693.68	54412.48
693.87	54492.35
694.06	54146.25
694.25	53789.90
694.44	54035.66
694.63	54049.99
694.82	54201.54
695.01	54277.32
695.20	54140.10
695.39	53904.59
695.58	54013.13
695.77	53497.04
695.96	53720.27
696.15	54211.78
696.34	54398.15
696.53	53908.68
696.72	54142.15
696.91	53753.04
697.10	53933.26
697.29	54066.38
697.48	54211.78
697.67	53982.41
697.86	53892.30
698.05	53742.80
698.24	54154.44
698.43	53818.57
698.62	53957.83
698.81	53605.58
699.00	54099.14
699.19	53593.29
699.38	53990.60
699.57	53759.18
699.76	54420.67
699.95	53910.73
700.14	53945.54
700.32	54017.22
700.51	53648.59
700.70	53828.81
700.89	53945.54
701.08	53888.20
701.27	53875.91
701.46	53929.16
701.65	53433.55
701.84	53892.30
702.03	53501.14
702.22	53810.38
702.41	53882.06
702.60	53773.52
702.79	53443.79
702.98	53134.55
703.17	53507.28
703.35	53511.38
703.54	53351.63
703.73	53593.29
703.92	53525.71
704.11	53492.94
704.30	53341.39
704.49	52929.75
704.68	52673.76
704.87	53257.43
705.06	53062.87
705.25	52946.14
705.43	53435.60
705.62	53226.71
705.81	53474.51
706.00	53126.36
706.19	53109.97
706.38	53116.12
706.57	52888.79
706.76	52753.63
706.95	53181.65
707.14	53230.80
707.32	53378.26
707.51	52225.25
707.70	52896.98
707.89	53007.58
708.08	53142.74
708.27	52935.90
708.46	53116.12
708.65	52823.26
708.84	53103.83
709.02	52618.46
709.21	53023.96
709.40	52884.70
709.59	52835.55
709.78	52724.96
709.97	53109.97
710.16	52579.55
710.34	52919.51
710.53	52999.38
710.72	52511.97
710.91	52686.04
711.10	52516.06
711.29	52755.68
711.48	52597.98
711.66	52790.49
711.85	53099.73
712.04	52653.28
712.23	52280.55
712.42	52401.38
712.61	52110.56
712.80	52483.30
712.98	52526.30
713.17	52698.33
713.36	52055.27
713.55	52098.28
713.74	52190.44
713.93	52573.41
714.11	52153.57
714.30	51909.86
714.49	52249.83
714.68	52057.32
714.87	52040.93
715.06	52270.31
715.24	51797.23
715.43	52221.16
715.62	51774.70
715.81	52090.09
716.00	51897.58
716.18	51723.50
716.37	51598.57
716.56	51961.06
716.75	52073.70
716.94	51602.67
717.12	51797.23
717.31	52126.95
717.50	51899.62
717.69	51764.46
717.88	51768.55
718.06	51582.19
718.25	52305.12
718.44	51111.16
718.63	51582.19
718.82	50826.49
719.00	51459.31
719.19	51156.21
719.38	51698.92
719.57	50988.28
719.76	51059.96
719.94	50627.84
720.13	50914.55
720.32	51225.84
720.51	51016.95
720.69	50926.84
720.88	50566.40
721.07	50887.93
721.26	50545.92
721.44	50169.09
721.63	50248.96
721.82	50402.56
722.01	50302.21
722.20	50527.48
722.38	50232.58
722.57	49827.08
722.76	50240.77
722.95	50447.61
723.13	50005.25
723.32	49761.54
723.51	49886.47
723.70	50085.12
723.88	49909.00
724.07	49655.05
724.26	50050.31
724.44	49157.39
724.63	49644.81
724.82	50185.47
725.01	49806.60
725.19	49610.00
725.38	49822.98
725.57	49640.71
725.76	49685.77
725.94	49681.67
726.13	49421.58
726.32	49450.25
726.51	49102.10
726.69	49681.67
726.88	49341.71
727.07	49472.78
727.25	49245.46
727.44	49261.84
727.63	49057.04
727.82	49335.57
728.00	49147.15
728.19	49259.79
728.38	49452.30
728.56	48852.25
728.75	49485.07
728.94	48975.12
729.12	48825.62
729.31	48999.70
729.50	48968.98
729.69	49265.94
729.87	48749.85
730.06	48973.08
730.25	49042.71
730.43	49569.04
730.62	49165.59
730.81	48952.60
730.99	49190.16
731.18	48889.11
731.37	48995.60
731.55	49292.56
731.74	49306.90
731.93	49202.45
732.11	48624.92
732.30	48829.72
732.49	48774.42
732.67	48758.04
732.86	48985.36
733.05	48583.96
733.23	48356.64
733.42	48614.68
733.61	48669.98
733.79	48657.69
733.98	49071.38
734.17	48764.18
734.35	48872.73
734.54	48590.11
734.73	48895.25
734.91	49141.01
735.10	48215.33
735.29	48692.50
735.47	48074.02
735.66	48272.67
735.84	48477.47
736.03	48198.94
736.22	48641.31
736.40	48149.79
736.59	48590.11
736.78	48481.56
736.96	48561.44
737.15	48397.60
737.33	48102.69
737.52	47914.28
737.71	47877.41
737.89	48262.43
738.08	47680.81
738.27	47746.34
738.45	48155.94
738.64	47867.17
738.82	47754.54
739.01	47635.75
739.20	47551.79
739.38	47543.59
739.57	48299.30
739.75	48082.21
739.94	47619.37
740.13	47541.55
740.31	47433.00
740.50	47435.05
740.68	47510.83
740.87	47621.42
741.06	47648.04
741.24	47783.21
741.43	47248.69
741.61	47527.21
741.80	46824.76
741.99	47189.30
742.17	46941.49
742.36	47244.59
742.54	47062.32
742.73	47273.26
742.91	47244.59
743.10	47119.66
743.29	47271.21
743.47	47602.99
743.66	47103.28
743.84	46667.06
744.03	46945.59
744.21	46871.86
744.40	47156.53
744.59	46642.49
744.77	47068.47
744.96	46835.00
745.14	46992.69
745.33	46871.86
745.51	46736.69
745.70	47334.70
745.88	46738.74
746.07	46226.75
746.26	46122.30
746.44	46576.95
746.63	46445.88
746.81	46634.30
747.00	46140.74
747.18	46341.44
747.37	46441.79
747.55	46566.71
747.74	46576.95
747.92	46103.87
748.11	46064.96
748.29	46079.30
748.48	46406.97
748.66	45806.92
748.85	46054.72
749.03	46351.68
749.22	45792.58
749.41	45667.66
749.59	45735.24
749.78	45798.73
749.96	45495.63
750.15	45874.50
750.33	45323.60
750.52	45651.27
750.70	45602.12
750.89	45237.58
751.07	45182.29
751.26	45274.45
751.44	45380.94
751.63	45538.63
751.81	44983.63
752.00	45002.07
752.18	45352.27
752.37	45337.93
752.55	44866.90
752.74	44760.40
752.92	44907.86
753.10	44877.14
753.29	45071.70
753.47	44651.86
753.66	44766.55
753.84	44668.25
754.03	44500.31
754.21	44268.89
754.40	45172.05
754.58	44795.22
754.77	44354.91
754.95	44160.35
755.14	44279.13
755.32	44481.88
755.51	44154.21
755.69	44092.77
755.88	44545.37
756.06	44234.08
756.24	44084.58
756.43	44098.91
756.61	44320.09
756.80	43838.82
756.98	43613.54
757.17	44039.52
757.35	43615.59
757.54	43631.97
757.72	44012.90
757.90	43648.36
758.09	43441.51
758.27	43627.88
758.46	43570.54
758.64	43502.95
758.83	43326.83
759.01	43703.65
759.19	43652.45
759.38	43052.40
759.56	43515.24
759.75	43588.97
759.93	43220.33
760.12	43054.45
760.30	43554.15
760.48	42884.47
760.67	42782.07
760.85	43349.35
761.04	43181.42
761.22	42853.75
761.40	42812.79
761.59	42784.12
761.77	42704.24
761.96	42603.89
762.14	42730.87
762.32	42925.42
762.51	42648.95
762.69	42704.24
762.88	42737.01
763.06	42694.00
763.24	42614.13
763.43	42734.96
763.61	42421.62
763.80	42206.59
763.98	42460.54
764.16	42390.91
764.35	42087.81
764.53	41889.15
764.72	41903.49
764.90	41989.50
765.08	41907.58
765.27	42341.75
765.45	42018.17
765.63	41514.37
765.82	41891.20
766.00	41698.69
766.18	41608.58
766.37	42096.00
766.55	41596.29
766.74	41854.34
766.92	41356.68
767.10	41594.25
767.29	41622.92
767.47	41155.98
767.65	41788.80
767.84	41184.65
768.02	41434.50
768.20	40777.11
768.39	40785.30
768.57	41303.43
768.75	41205.13
768.94	41160.08
769.12	40873.36
769.30	41047.44
769.49	40848.78
769.67	40805.78
769.85	40600.98
770.04	40564.12
770.22	40566.16
770.40	40562.07
770.59	40605.08
770.77	40586.64
770.95	40656.28
771.14	40267.16
771.32	39962.01
771.50	40195.48
771.69	40295.83
771.87	39988.64
772.05	40668.56
772.24	40025.50
772.42	40320.41
772.60	40027.55
772.78	39867.81
772.97	39714.21
773.15	39777.70
773.33	40033.69
773.52	39947.68
773.70	39978.40
773.88	40336.79
774.07	39949.73
774.25	39720.35
774.43	39927.20
774.61	39757.22
774.80	39708.07
774.98	39761.31
775.16	39843.23
775.34	40406.42
775.53	39544.23
775.71	40404.38
775.89	39820.70
776.08	40084.89
776.26	40054.17
776.44	39746.98
776.62	39841.18
776.81	40029.60
776.99	40291.74
777.17	39972.25
777.35	39974.30
777.54	40420.76
777.72	40175.00
777.90	39957.92
778.08	40250.78
778.27	40050.08
778.45	40213.91
778.63	40535.45
778.81	40566.16
779.00	40687.00
779.18	40342.94
779.36	40689.04
779.54	40254.87
779.73	40279.45
779.91	40218.01
780.09	40746.39
780.27	40639.89
780.46	40373.66
780.64	40557.97
780.82	40445.33
781.00	40525.21
781.19	40793.49
781.37	40252.83
781.55	40791.44
781.73	40787.35
781.91	40777.11
782.10	40787.35
782.28	40508.82
782.46	40805.78
782.64	40789.39
782.82	40619.41
783.01	40678.80
783.19	40981.90
783.37	40904.08
783.55	40760.72
783.74	41321.87
783.92	40435.10
784.10	41289.10
784.28	41143.69
784.46	40895.89
784.64	40650.13
784.83	40883.60
785.01	40662.42
785.19	40531.35
785.37	40875.41
785.55	40904.08
785.74	40580.50
785.92	40519.06
786.10	40826.26
786.28	40396.18
786.46	40467.86
786.64	40328.60
786.83	40377.75
787.01	40887.70
787.19	40576.40
787.37	40588.69
787.55	40406.42
787.74	40023.45
787.92	40369.56
788.10	40383.90
788.28	39857.57
788.46	40195.48
788.64	40185.24
788.82	40322.46
789.01	40455.57
789.19	40035.74
789.37	40007.07
789.55	40394.14
789.73	39554.47
789.91	39734.69
790.09	39624.10
790.28	39812.51
790.46	39634.34
790.64	39656.87
790.82	39595.43
791.00	39198.12
791.18	39099.82
791.36	39495.08
791.55	39568.80
791.73	39138.73
791.91	39220.65
792.09	39361.96
792.27	38725.04
792.45	39419.30
792.63	39378.34
792.81	38925.74
793.00	38868.40
793.18	38510.00
793.36	38876.59
793.54	38170.04
793.72	38655.41
793.90	38282.68
794.08	38360.50
794.26	38606.26
794.44	38032.83
794.62	38278.58
794.81	38272.44
794.99	38413.75
795.17	38133.18
795.35	38092.22
795.53	38372.79
795.71	38342.07
795.89	37594.56
796.07	37940.67
796.25	37344.71
796.43	37297.61
796.61	37107.15
796.80	37066.19
796.98	37535.17
797.16	37129.67
797.34	37221.83
797.52	36900.30
797.70	37225.93
797.88	37201.35
798.06	36861.39
798.24	37023.18
798.42	36847.05
798.60	36855.25
798.78	36584.91
798.96	36869.58
799.14	36416.98
799.32	36791.76
799.51	36013.53
799.69	36406.74
799.87	36814.29
800.05	35907.04
800.23	35802.59
800.41	36177.37
800.59	36373.97
800.77	35886.56
800.95	35648.99
801.13	35870.17
801.31	35972.57
801.49	35714.53
801.67	35493.35
801.85	35548.64
802.03	34973.16
802.21	35020.27
802.39	34854.38
802.57	34969.07
802.75	34905.58
802.93	35259.88
803.11	34764.27
803.29	34637.30
803.47	34575.86
803.65	34762.22
803.83	34682.35
804.01	35145.19
804.19	34668.02
804.37	34385.40
804.55	34418.16
804.73	34213.37
804.91	34117.11
805.09	34096.63
805.27	34205.17
805.45	34563.57
805.63	34072.06
805.81	33940.99
805.99	34221.56
806.17	34190.84
806.35	34006.52
806.53	33904.12
806.71	33992.19
806.89	33732.09
807.07	33295.88
807.25	33723.90
807.43	33396.23
807.61	33842.68
807.79	33132.04
807.97	33193.48
808.15	33347.08
808.33	33252.87
808.51	33228.29
808.69	33287.68
808.87	32816.65
809.05	32644.62
809.23	32773.64
809.41	32402.96
809.59	32830.99
809.77	32919.05
809.95	32783.88
810.13	32921.10
810.31	32392.72
810.49	32464.40
810.67	32493.07
810.84	32181.78
811.02	32208.40
811.20	32044.57
811.38	31938.07
811.56	31850.01
811.74	32101.91
811.92	31862.30
812.10	32302.61
812.28	31962.65
812.46	31819.29
812.64	32183.83
812.82	31804.95
813.00	31342.11
813.18	31847.96
813.36	31948.31
813.53	31317.54
813.71	31407.65
813.89	31397.41
814.07	31413.79
814.25	31518.24
814.43	31467.04
814.61	31172.13
814.79	31106.60
814.97	31233.57
815.15	31229.48
815.33	30807.59
815.50	31165.99
815.68	30895.66
815.86	31415.84
816.04	30484.01
816.22	30774.83
816.40	30930.47
816.58	30975.53
816.76	30447.15
816.94	30580.27
817.11	30455.34
817.29	30314.03
817.47	30367.28
817.65	30125.62
817.83	30545.45
818.01	30215.73
818.19	30099.00
818.37	30279.22
818.54	29851.19
818.72	29783.61
818.90	30137.91
819.08	29804.09
819.26	30072.37
819.44	30201.40
819.62	29967.93
819.80	30096.95
819.97	30156.34
820.15	29763.13
820.33	29533.76
820.51	29654.59
820.69	29224.51
820.87	29713.98
821.05	29607.48
821.22	29515.33
821.40	29609.53
821.58	29333.06
821.76	29668.92
821.94	29494.85
822.12	29138.50
822.29	29388.35
822.47	29136.45
822.65	29769.27
822.83	29081.16
823.01	29181.51
823.19	28790.34
823.36	28919.37
823.54	28972.61
823.72	28972.61
823.90	28759.63
824.08	28771.91
824.25	28896.84
824.43	28368.46
824.61	28900.94
824.79	28845.64
824.97	28212.82
825.15	28839.50
825.32	28747.34
825.50	28542.54
825.68	28360.27
825.86	28782.15
826.04	28706.38
826.21	28339.79
826.39	28315.22
826.57	28149.33
826.75	28134.99
826.93	28493.39
827.10	28145.23
827.28	28243.54
827.46	28261.97
827.64	28139.09
827.81	27829.85
827.99	28012.12
828.17	27901.53
828.35	27651.67
828.53	27553.37
828.70	27805.27
828.88	27704.92
829.06	27559.52
829.24	27801.18
829.41	27942.49
829.59	27551.32
829.77	27541.08
829.95	27758.17
830.12	27393.63
830.30	27502.17
830.48	27444.83
830.66	27280.99
830.84	27522.65
831.01	27358.81
831.19	27479.64
831.37	27223.65
831.55	27197.02
831.72	27338.33
831.90	27055.72
832.08	27291.23
832.25	27111.01
832.43	27174.50
832.61	26807.91
832.79	26746.47
832.96	26836.58
833.14	27315.81
833.32	27172.45
833.50	27108.96
833.67	26791.53
833.85	26697.32
834.03	26558.06
834.20	26824.29
834.38	26990.18
834.56	26795.62
834.74	26424.94
834.91	26807.91
835.09	26525.29
835.27	26410.60
835.44	26617.45
835.62	26058.35
835.80	26156.66
835.98	26383.98
836.15	26426.99
836.33	26369.65
836.51	26775.14
836.68	26068.59
836.86	26435.18
837.04	26156.66
837.21	25855.61
837.39	26123.89
837.57	26504.81
837.75	26545.77
837.92	25917.04
838.10	25943.67
838.28	25824.89
838.45	25712.25
838.63	25644.66
838.81	26039.92
838.98	25769.59
839.16	25749.11
839.34	25462.40
839.51	25699.96
839.69	25314.94
839.87	25679.48
840.04	25478.78
840.22	25726.58
840.40	25615.99
840.57	25480.83
840.75	25409.15
840.93	25228.93
841.10	25298.56
841.28	25843.32
841.46	25296.51
841.63	25687.67
841.81	25394.81
841.98	25171.58
842.16	25327.23
842.34	25190.02
842.51	24903.30
842.69	25147.01
842.87	25228.93
843.04	25063.04
843.22	25163.39
843.40	24843.91
843.57	25017.99
843.75	24942.21
843.92	25099.90
844.10	24938.12
844.28	24882.82
844.45	24911.49
844.63	24721.03
844.81	24426.12
844.98	25046.66
845.16	24845.96
845.33	24886.92
845.51	24440.46
845.69	24389.26
845.86	24577.67
846.04	24303.25
846.21	24704.65
846.39	24327.82
846.57	24331.92
846.74	24579.72
846.92	24610.44
847.09	24645.26
847.27	24215.18
847.45	24395.40
847.62	24198.80
847.80	24137.36
847.97	24098.45
848.15	24020.63
848.32	23854.74
848.50	24053.39
848.68	24004.24
848.85	23602.84
849.03	23600.79
849.20	24094.35
849.38	23635.61
849.56	24000.15
849.73	23557.78
849.91	23957.14
850.08	23879.32
850.26	23781.01
850.43	23699.09
850.61	23905.94
850.78	23309.98
850.96	23752.34
851.14	23193.25
851.31	23518.87
851.49	23563.93
851.66	23604.89
851.84	23199.39
852.01	23516.83
852.19	23207.58
852.36	23283.36
852.54	23045.79
852.71	23226.01
852.89	23410.33
853.07	23455.39
853.24	23371.42
853.42	23158.43
853.59	23086.75
853.77	22998.69
853.94	22908.58
854.12	23258.78
854.29	23037.60
854.47	22924.96
854.64	23056.03
854.82	22785.70
854.99	23178.91
855.17	22924.96
855.34	22644.39
855.52	22994.59
855.69	22900.39
855.87	22818.47
856.04	22544.04
856.22	22513.32
856.39	22443.69
856.57	22238.89
856.74	22562.47
856.92	22722.21
857.09	22089.39
857.27	22273.71
857.44	22701.73
857.62	22455.98
857.79	22351.53
857.97	22245.04
858.14	22255.28
858.32	22433.45
858.49	22038.19
858.67	22095.53
858.84	22017.71
859.02	21960.37
859.19	22003.38
859.37	21991.09
859.54	21720.76
859.72	22085.30
859.89	21939.89
860.06	22056.62
860.24	21980.85
860.41	21841.59
860.59	21636.79
860.76	21767.86
860.94	21687.99
861.11	21651.13
861.29	21604.02
861.46	21591.73
861.64	21454.52
861.81	21649.08
861.98	21653.17
862.16	21499.58
862.33	21266.11
862.51	21325.50
862.68	21311.16
862.86	21264.06
863.03	21499.58
863.21	21429.94
863.38	21374.65
863.55	21018.30
863.73	21128.89
863.90	21102.27
864.08	21208.76
864.25	21042.88
864.43	21173.95
864.60	21024.45
864.77	20582.09
864.95	20924.10
865.12	20899.52
865.30	21026.50
865.47	20983.49
865.64	20723.40
865.82	21276.35
865.99	20827.84
866.17	20606.66
866.34	21008.06
866.51	20494.02
866.69	20981.44
866.86	20561.61
867.04	20623.05
867.21	20428.49
867.38	20358.86
867.56	20233.93
867.73	20203.21
867.91	20256.46
868.08	20246.22
868.25	20373.19
868.43	20438.73
868.60	20152.01
868.78	20022.99
868.95	20387.53
869.12	20170.44
869.30	19924.69
869.47	20123.34
869.64	19924.69
869.82	20076.24
869.99	19943.12
870.16	20188.88
870.34	20016.85
870.51	20002.51
870.69	19853.01
870.86	19936.98
871.03	19816.15
871.21	19820.24
871.38	19879.63
871.55	19646.16
871.73	19594.96
871.90	19554.01
872.07	19623.64
872.25	19267.29
872.42	19271.39
872.59	19357.40
872.77	19455.70
872.94	19222.23
873.11	19287.77
873.29	19246.81
873.46	19085.02
873.63	19154.65
873.81	18964.19
873.98	18636.52
874.15	18745.06
874.33	18845.41
874.50	18638.56
874.67	18833.12
874.85	18925.28
875.02	18710.24
875.19	18464.49
875.37	18872.03
875.54	18630.37
875.71	18482.92
875.88	18429.67
876.06	18753.25
876.23	18558.69
876.40	18384.62
876.58	18487.01
876.75	18398.95
876.92	18226.92
877.10	18376.42
877.27	18145.00
877.44	18181.87
877.61	17970.93
877.79	18366.18
877.96	17950.45
878.13	17968.88
878.31	18079.47
878.48	17884.91
878.65	17800.94
878.82	17710.83
879.00	17846.00
879.17	17788.66
879.34	17796.85
879.51	17479.41
879.69	17633.01
879.86	17415.93
880.03	17676.02
880.21	17805.04
880.38	17698.55
880.55	17755.89
880.72	17364.73
880.90	17620.72
881.07	17366.78
881.24	17694.45
881.41	17417.97
881.59	17266.42
881.76	17522.42
881.93	17364.73
882.10	17135.35
882.28	17139.45
882.45	17420.02
882.62	17178.36
882.79	17440.50
882.96	16811.78
883.14	17139.45
883.31	17204.99
883.48	17010.43
883.65	17215.23
883.83	17125.11
884.00	16916.22
884.17	16803.58
884.34	17135.35
884.51	16568.07
884.69	16731.90
884.86	16721.66
885.03	17002.24
885.20	16473.86
885.38	16774.91
885.55	16695.04
885.72	16793.34
885.89	16482.05
886.06	16736.00
886.24	16531.20
886.41	16588.55
886.58	16934.65
886.75	16688.90
886.92	16510.72
887.10	16707.33
887.27	16531.20
887.44	16330.50
887.61	16725.76
887.78	16664.32
887.95	16404.23
888.13	16502.53
888.30	16420.61
888.47	16346.89
888.64	16531.20
888.81	16187.14
888.99	16344.84
889.16	16189.19
889.33	15978.25
889.50	16021.26
889.67	16107.27
889.84	15877.90
890.01	16084.75
890.19	16008.97
890.36	16109.32
890.53	16123.66
890.70	15986.44
890.87	15818.51
891.04	15867.66
891.22	15836.94
891.39	15673.10
891.56	15820.56
891.73	15570.71
891.90	15640.34
892.07	15603.47
892.24	15800.08
892.42	15632.15
892.59	15423.25
892.76	15679.25
892.93	15466.26
893.10	15511.32
893.27	15669.01
893.44	15429.40
893.61	15372.05
893.79	15478.55
893.96	15585.04
894.13	15611.67
894.30	15609.62
894.47	15380.25
894.64	15560.47
894.81	15378.20
894.98	15331.09
895.15	15453.97
895.33	15357.72
895.50	15277.85
895.67	15281.94
895.84	15503.12
896.01	15251.22
896.18	15316.76
896.35	15193.88
896.52	15279.89
896.69	15206.17
896.86	15091.48
897.04	15089.43
897.21	15195.93
897.38	15071.00
897.55	15228.70
897.72	15120.15
897.89	14972.70
898.06	15040.28
898.23	15218.46
898.40	15023.90
898.57	15093.53
898.74	15114.01
898.91	15038.23
899.08	15390.49
899.26	15009.56
899.43	14999.32
899.60	14937.88
899.77	15050.52
899.94	14991.13
900.11	14819.10
900.28	14991.13
900.45	14925.60
900.62	14853.92
900.79	15136.54
900.96	14888.73
901.13	15044.38
901.30	14905.12
901.47	14939.93
901.64	15118.11
901.81	14763.81
901.98	14923.55
902.15	15132.44
902.32	14827.29
902.49	14946.08
902.66	15052.57
902.83	15036.19
903.01	15142.68
903.18	14923.55
903.35	15083.29
903.52	15023.90
903.69	15027.99
903.86	14923.55
904.03	14690.08
904.20	15034.14
904.37	14911.26
904.54	14741.28
904.71	14737.18
904.88	14858.01
905.05	14827.29
905.22	15003.42
905.39	14651.17
905.56	14937.88
905.73	14802.72
905.90	14980.89
906.07	14907.16
906.24	14995.23
906.41	14847.77
906.58	14716.70
906.75	14888.73
906.92	14749.47
907.09	14966.56
907.26	14888.73
907.43	14907.16
907.60	14669.60
907.77	15093.53
907.93	14690.08
908.10	14790.43
908.27	15007.52
908.44	14780.19
908.61	14659.36
908.78	14628.64
908.95	14786.33
909.12	14636.83
909.29	14698.27
909.46	14493.47
909.63	14872.35
909.80	14794.53
909.97	14827.29
910.14	14726.94
910.31	14624.54
910.48	14604.07
910.65	14677.79
910.82	14657.31
910.99	14735.14
911.16	14489.38
911.33	14587.68
911.50	14618.40
911.66	14440.23
911.83	14534.43
912.00	14573.35
912.17	14331.69
912.34	14217.00
912.51	14366.50
912.68	14235.43
912.85	14233.38
913.02	14192.42
913.19	14440.23
913.36	14221.10
913.53	14167.85
913.70	14171.94
913.86	14534.43
914.03	14102.31
914.20	14178.09
914.37	14055.21
914.54	14378.79
914.71	14217.00
914.88	14130.98
915.05	13913.90
915.22	13862.70
915.39	14077.74
915.55	14022.44
915.72	13715.25
915.89	13903.66
916.06	13987.63
916.23	13831.98
916.40	13662.00
916.57	13754.16
916.74	13672.24
916.91	13578.03
917.07	13711.15
917.24	13424.44
917.41	13539.12
917.58	13360.95
917.75	13461.30
917.92	13168.44
918.09	13737.77
918.26	13225.78
918.42	13379.38
918.59	13489.97
918.76	13129.53
918.93	13150.01
919.10	13156.15
919.27	12945.21
919.44	13186.87
919.60	13211.45
919.77	13123.38
919.94	13023.03
920.11	13104.95
920.28	13014.84
920.45	12861.24
920.61	12756.80
920.78	12611.39
920.95	12719.93
921.12	12644.16
921.29	12805.95
921.46	12527.42
921.62	12406.59
921.79	12580.67
921.96	12390.21
922.13	12486.47
922.30	12379.97
922.47	12371.78
922.63	12296.00
922.80	12177.22
922.97	12228.42
923.14	11988.81
923.31	12144.45
923.47	11921.23
923.64	12064.58
923.81	12087.11
923.98	12029.77
924.15	12001.10
924.32	11937.61
924.48	11937.61
924.65	12074.82
924.82	11636.56
924.99	11867.98
925.15	11808.59
925.32	11691.85
925.49	11470.67
925.66	11609.93
925.83	11536.21
925.99	11446.10
926.16	11620.17
926.33	11718.48
926.50	11255.64
926.67	11378.51
926.83	11355.99
927.00	11235.16
927.17	11226.96
927.34	10968.92
927.50	11046.74
927.67	11204.44
927.84	11118.42
928.01	11052.89
928.17	10958.68
928.34	10891.10
928.51	10919.77
928.68	10770.27
928.84	10706.78
929.01	10778.46
929.18	10526.56
929.35	10428.26
929.51	10637.15
929.68	10717.02
929.85	10377.06
930.02	10508.13
930.18	10422.11
930.35	10411.87
930.52	10338.15
930.69	10260.32
930.85	10385.25
931.02	10153.83
931.19	10139.49
931.36	10211.17
931.52	10299.23
931.69	9998.18
931.86	9822.06
932.02	9949.03
932.19	9897.83
932.36	9682.80
932.53	9766.76
932.69	9799.53
932.86	9824.11
933.03	9746.28
933.19	9525.10
933.36	9744.24
933.53	9656.17
933.70	9631.60
933.86	9400.18
934.03	9332.59
934.20	9359.22
934.36	9293.68
934.53	8992.63
934.70	8877.94
934.86	9127.80
935.03	8816.51
935.20	9158.52
935.36	8859.51
935.53	8957.82
935.70	8879.99
935.86	8966.01
936.03	8533.89
936.20	8435.58
936.36	8380.29
936.53	8380.29
936.70	8361.86
936.86	8486.78
937.03	8212.35
937.20	8093.57
937.36	8261.51
937.53	7853.96
937.70	8042.37
937.86	7911.30
938.03	7741.32
938.20	7995.27
938.36	7538.57
938.53	7700.36
938.70	7520.14
938.86	7432.08
939.03	7307.15
939.20	7106.45
939.36	7141.27
939.53	7178.13
939.70	7290.77
939.86	6918.04
940.03	6825.88
940.19	6815.64
940.36	6752.15
940.53	6698.91
940.69	6547.36
940.86	6555.55
941.03	6434.72
941.19	6250.40
941.36	6342.56
941.52	6279.07
941.69	6244.26
941.86	6244.26
942.02	6191.01
942.19	6049.70
942.35	6057.89
942.52	6039.46
942.69	5849.00
942.85	5785.51
943.02	5777.32
943.18	5771.18
943.35	5808.04
943.52	5711.78
943.68	5636.01
943.85	5697.45
944.01	5584.81
944.18	5629.87
944.35	5652.39
944.51	5590.95
944.68	5386.16
944.84	5349.29
945.01	5423.02
945.17	5482.41
945.34	5541.80
945.51	5478.32
945.67	5341.10
945.84	5486.51
946.00	5287.86
946.17	5345.20
946.33	5232.56
946.50	5298.10
946.67	5330.86
946.83	5287.86
947.00	5250.99
947.16	5357.49
947.33	5261.23
947.49	5154.74
947.66	5078.96
947.82	5425.07
947.99	5197.74
948.16	5240.75
948.32	5232.56
948.49	5201.84
948.65	5380.01
948.82	5242.80
948.98	5220.27
949.15	5197.74
949.31	5314.48
949.48	5386.16
949.64	5140.40
949.81	5283.76
949.97	5214.13
950.14	5343.15
950.30	5253.04
950.47	5474.22
950.63	5365.68
950.80	5392.30
950.96	5294.00
951.13	5322.67
951.30	5279.66
951.46	5369.77
951.63	5420.97
951.79	5322.67
951.96	5459.88
952.12	5226.42
952.29	5390.25
952.45	5353.39
952.62	5222.32
952.78	5375.92
952.94	5380.01
953.11	5312.43
953.27	5238.70
953.44	5472.17
953.60	5449.64
953.77	5439.40
953.93	5349.29
954.10	5400.49
954.26	5255.09
954.43	5363.63
954.59	5625.77
954.76	5490.60
954.92	5277.62
955.09	5459.88
955.25	5384.11
955.42	5408.69
955.58	5588.91
955.75	5533.61
955.91	5412.78
956.07	5564.33
956.24	5496.75
956.40	5603.24
956.57	5398.45
956.73	5337.01
956.90	5457.84
957.06	5468.08
957.23	5468.08
957.39	5425.07
957.56	5466.03
957.72	5349.29
957.88	5406.64
958.05	5490.60
958.21	5537.71
958.38	5429.17
958.54	5388.21
958.71	5599.15
958.87	5404.59
959.03	5412.78
959.20	5451.69
959.36	5525.42
959.53	5513.13
959.69	5349.29
959.85	5443.50
960.02	5580.71
960.18	5427.12
960.35	5375.92
960.51	5545.90
960.68	5486.51
960.84	5384.11
961.00	5337.01
961.17	5476.27
961.33	5578.67
961.50	5463.98
961.66	5484.46
961.82	5226.42
961.99	5496.75
962.15	5339.05
962.31	5484.46
962.48	5382.06
962.64	5580.71
962.81	5466.03
962.97	5500.84
963.13	5556.14
963.30	5349.29
963.46	5480.36
963.62	5279.66
963.79	5320.62
963.95	5404.59
964.12	5431.21
964.28	5406.64
964.44	5302.19
964.61	5250.99
964.77	5369.77
964.93	5390.25
965.10	5347.25
965.26	5246.90
965.42	5414.83
965.59	5222.32
965.75	5341.10
965.92	5320.62
966.08	5322.67
966.24	5248.94
966.41	5316.53
966.57	5367.73
966.73	5343.15
966.90	5334.96
967.06	5330.86
967.22	5271.47
967.39	5238.70
967.55	5230.51
967.71	5289.90
967.88	5283.76
968.04	5144.50
968.20	5236.66
968.37	5171.12
968.53	5103.54
968.69	5171.12
968.85	5248.94
969.02	5152.69
969.18	5269.42
969.34	5109.68
969.51	5134.26
969.67	5234.61
969.83	5093.30
970.00	5316.53
970.16	5070.77
970.32	5046.20
970.48	5189.55
970.65	5070.77
970.81	5011.38
970.97	5167.03
971.14	5132.21
971.30	5199.79
971.46	5085.11
971.63	4970.42
971.79	4988.85
971.95	5017.52
972.11	5048.24
972.28	4890.55
972.44	5062.58
972.60	4947.89
972.76	4990.90
972.93	5007.28
973.09	4915.12
973.25	4995.00
973.42	4888.50
973.58	4976.56
973.74	4902.84
973.90	4904.89
974.07	4841.40
974.23	4886.45
974.39	4849.59
974.55	4853.69
974.72	4949.94
974.88	4722.62
975.04	4831.16
975.20	4808.63
975.37	4790.20
975.53	4779.96
975.69	4698.04
975.85	4704.18
976.01	4898.74
976.18	4603.83
976.34	4794.29
976.50	4829.11
976.66	4820.92
976.83	4695.99
976.99	4724.66
977.15	4655.03
977.31	4745.14
977.47	4808.63
977.64	4728.76
977.80	4671.42
977.96	4769.72
978.12	4581.31
978.29	4577.21
978.45	4528.06
978.61	4474.81
978.77	4673.46
978.93	4485.05
979.10	4698.04
979.26	4544.44
979.42	4589.50
979.58	4362.17
979.74	4532.15
979.91	4507.58
980.07	4497.34
980.23	4534.20
980.39	4323.26
980.55	4411.32
980.71	4458.43
980.88	4405.18
981.04	4435.90
981.20	4444.09
981.36	4472.76
981.52	4407.23
981.68	4415.42
981.85	4483.00
982.01	4413.37
982.17	4370.37
982.33	4323.26
982.49	4474.81
982.65	4310.97
982.82	4358.08
982.98	4306.88
983.14	4310.97
983.30	4396.99
983.46	4403.13
983.62	4237.25
983.79	4253.63
983.95	4276.16
984.11	4177.86
984.27	4247.49
984.43	4237.25
984.59	4290.49
984.75	4288.45
984.91	4138.94
985.08	4243.39
985.24	4153.28
985.40	4112.32
985.56	4276.16
985.72	4114.37
985.88	4132.80
986.04	4153.28
986.20	4065.22
986.37	4106.18
986.53	4073.41
986.69	4249.54
986.85	4198.34
987.01	4122.56
987.17	4204.48
987.33	3977.16
987.49	4030.40
987.65	4110.27
987.82	4102.08
987.98	3952.58
988.14	3983.30
988.30	3993.54
988.46	3993.54
988.62	4022.21
988.78	3960.77
988.94	3921.86
989.10	3753.93
989.26	3891.14
989.42	3876.80
989.59	3803.08
989.75	3966.92
989.91	3923.91
990.07	3760.07
990.23	3829.70
990.39	3844.04
990.55	3872.71
990.71	3905.48
990.87	3839.94
991.03	3833.80
991.19	3825.61
991.35	3805.13
991.51	3690.44
991.67	3852.23
991.83	3829.70
992.00	3674.06
992.16	3887.04
992.32	3776.45
992.48	3727.30
992.64	3667.91
992.80	3747.78
992.96	3737.54
993.12	3731.40
993.28	3583.95
993.44	3794.89
993.60	3669.96
993.76	3772.36
993.92	3710.92
994.08	3624.90
994.24	3626.95
994.40	3532.75
994.56	3598.28
994.72	3569.61
994.88	3649.48
995.04	3635.14
995.20	3571.66
995.36	3633.10
995.52	3516.36
995.68	3575.75
995.84	3434.44
996.00	3641.29
996.16	3571.66
996.32	3465.16
996.48	3530.70
996.64	3516.36
996.80	3430.35
996.96	3567.56
997.12	3534.79
997.28	3391.44
997.44	3536.84
997.60	3491.79
997.76	3436.49
997.92	3440.59
998.08	3553.23
998.24	3350.48
998.40	3479.50
998.56	3516.36
998.72	3350.48
998.88	3368.91
999.04	3282.89
999.20	3454.92
999.36	3280.85
999.52	3354.57
999.68	3264.46
999.84	3340.24
1000.00	3346.38
1000.16	3338.19
1000.32	3270.61
1000.48	3332.05
1000.64	3217.36
1000.80	3286.99
1000.95	3239.89
1001.11	3276.75
1001.27	3133.39
1001.43	3268.56
1001.59	3264.46
1001.75	3110.86
1001.91	3274.70
1002.07	3129.30
1002.23	3246.03
1002.39	3117.01
1002.55	3233.74
1002.71	3016.66
1002.87	3227.60
1003.03	3139.54
1003.19	3022.80
1003.34	3203.02
1003.50	3092.43
1003.66	3174.35
1003.82	3065.81
1003.98	3016.66
1004.14	3123.15
1004.30	3074.00
1004.46	3049.43
1004.62	3012.56
1004.78	3053.52
1004.94	3018.71
1005.09	3133.39
1005.25	3067.86
1005.41	2926.55
1005.57	2953.17
1005.73	2895.83
1005.89	2865.11
1006.05	3014.61
1006.21	3008.47
1006.37	2881.49
1006.52	2922.45
1006.68	2914.26
1006.84	3016.66
1007.00	2938.84
1007.16	2914.26
1007.32	2895.83
1007.48	2940.88
1007.64	3026.90
1007.79	2959.31
1007.95	2936.79
1008.11	2895.83
1008.27	2818.00
1008.43	2928.60
1008.59	2826.20
1008.75	2969.55
1008.91	2897.88
1009.06	2850.77
1009.22	2977.75
1009.38	2852.82
1009.54	2895.83
1009.70	2760.66
1009.86	2731.99
1010.01	2877.40
1010.17	2754.52
1010.33	2768.85
1010.49	2818.00
1010.65	2881.49
1010.81	2676.70
1010.96	2631.64
1011.12	2721.75
1011.28	2721.75
1011.44	2731.99
1011.60	2707.41
1011.76	2713.56
1011.91	2770.90
1012.07	2772.95
1012.23	2605.02
1012.39	2695.13
1012.55	2717.65
1012.71	2623.45
1012.86	2645.98
1013.02	2623.45
1013.18	2656.22
1013.34	2611.16
1013.50	2691.03
1013.65	2721.75
1013.81	2658.26
1013.97	2596.82
1014.13	2547.67
1014.29	2635.74
1014.44	2629.59
1014.60	2639.83
1014.76	2584.54
1014.92	2541.53
1015.07	2605.02
1015.23	2607.06
1015.39	2484.19
1015.55	2566.10
1015.71	2551.77
1015.86	2562.01
1016.02	2609.11
1016.18	2369.50
1016.34	2590.68
1016.49	2549.72
1016.65	2541.53
1016.81	2502.62
1016.97	2574.30
1017.12	2514.91
1017.28	2463.71
1017.44	2449.37
1017.60	2412.51
1017.75	2492.38
1017.91	2490.33
1018.07	2521.05
1018.23	2514.91
1018.38	2441.18
1018.54	2353.12
1018.70	2355.16
1018.86	2457.56
1019.01	2406.36
1019.17	2443.23
1019.33	2521.05
1019.49	2404.32
1019.64	2459.61
1019.80	2402.27
1019.96	2414.56
1020.12	2414.56
1020.27	2287.58
1020.43	2301.92
1020.59	2340.83
1020.74	2381.79
1020.90	2418.65
1021.06	2312.16
1021.22	2463.71
1021.37	2344.92
1021.53	2252.77
1021.69	2351.07
1021.84	2271.20
1022.00	2306.01
1022.16	2359.26
1022.31	2344.92
1022.47	2359.26
1022.63	2330.59
1022.79	2314.20
1022.94	2275.29
1023.10	2349.02
1023.26	2303.96
1023.41	2293.72
1023.57	2299.87
1023.73	2246.62
1023.88	2303.96
1024.04	2265.05
1024.20	2193.37
1024.35	2279.39
1024.51	2320.35
1024.67	2342.88
1024.82	2297.82
1024.98	2199.52
1025.14	2287.58
1025.29	2174.94
1025.45	2260.96
1025.61	2144.22
1025.76	2166.75
1025.92	2121.70
1026.08	2181.09
1026.23	2217.95
1026.39	2224.09
1026.55	2193.37
1026.70	2187.23
1026.86	2197.47
1027.02	2240.48
1027.17	2164.70
1027.33	2199.52
1027.48	2144.22
1027.64	2064.35
1027.80	2230.24
1027.95	2156.51
1028.11	2072.54
1028.27	2174.94
1028.42	2162.66
1028.58	2076.64
1028.73	2131.94
1028.89	2109.41
1029.05	2181.09
1029.20	2199.52
>>>>>End Processed Spectral Data<<<<<
