SpectraSuite Data File
++++++++++++++++++++++++++++++++++++
Date: Fri Jun 02 14:49:25 CEST 2017
User: INFO_000
Dark Spectrum Present: No
Reference Spectrum Present: No
Number of Sampled Component Spectra: 1
Spectrometers: USB4H00879
Integration Time (usec): 80000 (USB4H00879)
Spectra Averaged: 1 (USB4H00879)
Boxcar Smoothing: 0 (USB4H00879)
Correct for Electrical Dark: No (USB4H00879)
Strobe/Lamp Enabled: No (USB4H00879)
Correct for Detector Non-linearity: No (USB4H00879)
Correct for Stray Light: No (USB4H00879)
Number of Pixels in Processed Spectrum: 3648
>>>>>Begin Processed Spectral Data<<<<<
345.13	1290.22
345.34	1290.22
345.56	1290.22
345.78	1271.79
345.99	1275.88
346.21	1746.92
346.42	1695.72
346.64	1671.14
346.86	1738.73
347.07	1730.53
347.29	1656.81
347.50	1658.85
347.72	1712.10
347.94	1738.73
348.15	1630.18
348.37	1654.76
348.59	1708.01
348.80	1662.95
349.02	1753.06
349.23	1796.07
349.45	1806.31
349.67	1863.65
349.88	1800.16
350.10	1908.71
350.31	1820.64
350.53	1781.73
350.75	1900.52
350.96	1800.16
351.18	1884.13
351.39	1798.12
351.61	1837.03
351.82	1820.64
352.04	1894.37
352.26	1802.21
352.47	1834.98
352.69	1863.65
352.90	1783.78
353.12	1841.12
353.34	1892.32
353.55	2011.11
353.77	1941.47
353.98	1841.12
354.20	1791.97
354.41	1972.19
354.63	1966.05
354.85	2058.21
355.06	1896.42
355.28	1779.68
355.49	1855.46
355.71	1923.04
355.92	1869.80
356.14	1949.67
356.35	1918.95
356.57	1888.23
356.79	1920.99
357.00	1806.31
357.22	1888.23
357.43	1910.75
357.65	2058.21
357.86	1892.32
358.08	1875.94
358.29	1945.57
358.51	1996.77
358.72	2009.06
358.94	1974.24
359.16	1941.47
359.37	1882.08
359.59	1949.67
359.80	1953.76
360.02	1955.81
360.23	1947.62
360.45	1990.63
360.66	1902.56
360.88	1777.64
361.09	2017.25
361.31	1945.57
361.52	1904.61
361.74	2013.15
361.95	2113.50
362.17	1982.43
362.38	2037.73
362.60	1947.62
362.81	1943.52
363.03	1978.34
363.24	1961.95
363.46	2064.35
363.67	2074.59
363.89	2013.15
364.10	2019.30
364.32	1929.19
364.53	1974.24
364.75	1925.09
364.96	2007.01
365.18	2035.68
365.39	1988.58
365.61	1966.05
365.82	2099.17
366.04	2039.78
366.25	1970.15
366.47	2060.26
366.68	2080.74
366.90	2062.30
367.11	1994.72
367.33	2047.97
367.54	2041.82
367.76	2031.58
367.97	2035.68
368.19	1984.48
368.40	2047.97
368.62	2017.25
368.83	2007.01
369.05	2080.74
369.26	2035.68
369.48	1959.91
369.69	1925.09
369.91	2060.26
370.12	1978.34
370.33	2140.13
370.55	1949.67
370.76	2039.78
370.98	2123.74
371.19	2017.25
371.41	1996.77
371.62	1982.43
371.84	1920.99
372.05	2183.13
372.27	2047.97
372.48	2105.31
372.69	2146.27
372.91	2158.56
373.12	2099.17
373.34	2138.08
373.55	2113.50
373.77	2209.76
373.98	2078.69
374.20	2207.71
374.41	2263.01
374.62	2148.32
374.84	2111.46
375.05	2113.50
375.27	2150.37
375.48	2140.13
375.70	2164.70
375.91	2256.86
376.12	2256.86
376.34	2199.52
376.55	2224.09
376.77	2205.66
376.98	2158.56
377.19	2172.89
377.41	2209.76
377.62	2203.61
377.84	2207.71
378.05	2320.35
378.27	2211.81
378.48	2326.49
378.69	2375.64
378.91	2236.38
379.12	2242.53
379.34	2205.66
379.55	2299.87
379.76	2252.77
379.98	2199.52
380.19	2209.76
380.41	2283.49
380.62	2281.44
380.83	2240.48
381.05	2263.01
381.26	2394.08
381.47	2228.19
381.69	2283.49
381.90	2400.22
382.12	2340.83
382.33	2240.48
382.54	2316.25
382.76	2277.34
382.97	2252.77
383.19	2205.66
383.40	2338.78
383.61	2387.93
383.83	2244.57
384.04	2346.97
384.25	2359.26
384.47	2367.45
384.68	2338.78
384.89	2310.11
385.11	2320.35
385.32	2326.49
385.54	2369.50
385.75	2344.92
385.96	2461.66
386.18	2392.03
386.39	2435.03
386.60	2334.68
386.82	2430.94
387.03	2346.97
387.24	2516.95
387.46	2385.88
387.67	2535.39
387.88	2453.47
388.10	2387.93
388.31	2510.81
388.52	2516.95
388.74	2418.65
388.95	2496.47
389.16	2432.99
389.38	2574.30
389.59	2529.24
389.80	2697.17
390.02	2516.95
390.23	2545.63
390.44	2578.39
390.66	2559.96
390.87	2590.68
391.08	2588.63
391.30	2697.17
391.51	2574.30
391.72	2641.88
391.94	2662.36
392.15	2580.44
392.36	2607.06
392.58	2512.86
392.79	2674.65
393.00	2666.46
393.22	2707.41
393.43	2707.41
393.64	2813.91
393.85	2775.00
394.07	2662.36
394.28	2643.93
394.49	2688.98
394.71	2777.05
394.92	2869.20
395.13	2762.71
395.35	2842.58
395.56	2756.57
395.77	2713.56
395.98	2789.33
396.20	2912.21
396.41	2881.49
396.62	2813.91
396.84	2719.70
397.05	2772.95
397.26	2887.64
397.47	2965.46
397.69	2844.63
397.90	2979.79
398.11	2775.00
398.32	2916.31
398.54	2791.38
398.75	2840.53
398.96	2992.08
399.18	2998.23
399.39	2981.84
399.60	2981.84
399.81	2842.58
400.03	3037.14
400.24	3229.65
400.45	3010.51
400.66	2992.08
400.88	2936.79
401.09	3155.92
401.30	3037.14
401.51	3174.35
401.73	3141.58
401.94	3141.58
402.15	3004.37
402.36	2975.70
402.58	3184.59
402.79	3186.64
403.00	3086.29
403.21	3112.91
403.43	3157.97
403.64	3235.79
403.85	3074.00
404.06	3280.85
404.27	3190.74
404.49	3186.64
404.70	3174.35
404.91	3321.81
405.12	3221.45
405.34	3256.27
405.55	3393.48
405.76	3010.51
405.97	3239.89
406.19	3311.57
406.40	3356.62
406.61	3270.61
406.82	3282.89
407.03	3309.52
407.25	3248.08
407.46	3366.86
407.67	3309.52
407.88	3401.68
408.09	3379.15
408.31	3317.71
408.52	3342.28
408.73	3321.81
408.94	3295.18
409.15	3370.96
409.37	3422.16
409.58	3477.45
409.79	3362.76
410.00	3573.71
410.21	3354.57
410.43	3477.45
410.64	3467.21
410.85	3504.07
411.06	3461.07
411.27	3428.30
411.48	3553.23
411.70	3567.56
411.91	3485.64
412.12	3665.86
412.33	3477.45
412.54	3581.90
412.76	3669.96
412.97	3704.78
413.18	3596.23
413.39	3602.38
413.60	3655.62
413.81	3653.58
414.03	3659.72
414.24	3631.05
414.45	3807.17
414.66	3430.35
414.87	3682.25
415.08	3555.27
415.30	3596.23
415.51	3790.79
415.72	3798.98
415.93	3710.92
416.14	3868.61
416.35	3856.33
416.56	3846.09
416.78	3860.42
416.99	3762.12
417.20	3825.61
417.41	3852.23
417.62	3862.47
417.83	3899.33
418.04	3825.61
418.26	3809.22
418.47	3866.56
418.68	3915.72
418.89	3917.76
419.10	4083.65
419.31	4007.87
419.52	4057.03
419.73	3964.87
419.95	4171.71
420.16	3917.76
420.37	3839.94
420.58	4026.31
420.79	3827.65
421.00	4009.92
421.21	3983.30
421.42	3915.72
421.63	4130.75
421.85	4063.17
422.06	4155.33
422.27	4112.32
422.48	4108.23
422.69	4104.13
422.90	4161.47
423.11	4186.05
423.32	4227.01
423.53	4343.74
423.75	4263.87
423.96	4413.37
424.17	4347.84
424.38	4388.80
424.59	4349.89
424.80	4493.24
425.01	4319.17
425.22	4327.36
425.43	4300.73
425.64	4591.55
425.85	4655.03
426.06	4509.63
426.28	4456.38
426.49	4489.15
426.70	4526.01
426.91	4448.19
427.12	4612.03
427.33	4612.03
427.54	4566.97
427.75	4704.18
427.96	4800.44
428.17	4773.82
428.38	4923.32
428.59	4763.58
428.80	4794.29
429.01	4728.76
429.23	4777.91
429.44	4966.32
429.65	4880.31
429.86	4878.26
430.07	4773.82
430.28	4859.83
430.49	4982.71
430.70	4911.03
430.91	5101.49
431.12	4900.79
431.33	5099.44
431.54	5171.12
431.75	5193.65
431.96	5074.87
432.17	4974.52
432.38	5152.69
432.59	5312.43
432.80	5232.56
433.01	5279.66
433.22	5236.66
433.43	5277.62
433.64	5156.79
433.85	5314.48
434.06	5281.71
434.27	5128.11
434.49	5259.18
434.70	5459.88
434.91	5320.62
435.12	5552.04
435.33	5212.08
435.54	5359.53
435.75	5220.27
435.96	5312.43
436.17	5328.81
436.38	5672.87
436.59	5498.80
436.80	5353.39
437.01	5605.29
437.22	5572.52
437.43	5582.76
437.64	5365.68
437.85	5613.48
438.06	5722.02
438.27	5625.77
438.48	5668.78
438.69	5810.09
438.90	5640.11
439.11	5781.42
439.32	5730.22
439.53	5713.83
439.74	5760.94
439.95	5748.65
440.16	5736.36
440.37	5859.24
440.57	5701.54
440.78	6000.55
440.99	5930.92
441.20	5898.15
441.41	5787.56
441.62	5924.77
441.83	5926.82
442.04	5980.07
442.25	6025.12
442.46	5963.68
442.67	6121.38
442.88	6518.68
443.09	6064.04
443.30	6080.42
443.51	6172.58
443.72	6326.18
443.93	6102.95
444.14	6467.49
444.35	6004.64
444.56	6297.50
444.77	6279.07
444.98	6186.91
445.19	6369.18
445.40	6311.84
445.61	6172.58
445.81	6428.57
446.02	6498.20
446.23	6340.51
446.44	6287.26
446.65	6371.23
446.86	6510.49
447.07	6506.40
447.28	6610.84
447.49	6573.98
447.70	6528.92
447.91	6639.51
448.12	6557.60
448.33	6870.94
448.54	6731.67
448.74	6621.08
448.95	6647.71
449.16	6653.85
449.37	7067.54
449.58	6684.57
449.79	6819.74
450.00	6741.91
450.21	6889.37
450.42	6938.52
450.63	7079.83
450.84	6721.43
451.05	6870.94
451.25	7024.53
451.46	6975.38
451.67	6987.67
451.88	7141.27
452.09	6995.86
452.30	7026.58
452.51	7034.77
452.72	7075.73
452.93	7475.09
453.13	7065.49
453.34	7182.23
453.55	7292.82
453.76	7165.84
453.97	7569.29
454.18	7384.98
454.39	7444.37
454.60	7444.37
454.81	7507.85
455.01	7497.61
455.22	7321.49
455.43	7540.62
455.64	7589.77
455.85	7739.27
456.06	7829.38
456.27	7638.92
456.48	7622.54
456.68	7704.46
456.89	7860.10
457.10	7729.03
457.31	7808.90
457.52	7931.78
457.73	7796.62
457.94	8073.09
458.14	7970.69
458.35	8296.32
458.56	7974.79
458.77	8130.44
458.98	8333.18
459.19	8007.56
459.39	8304.51
459.60	8454.02
459.81	8185.73
460.02	8507.26
460.23	8365.95
460.44	8621.95
460.65	8568.70
460.85	8677.24
461.06	8834.94
461.27	8515.45
461.48	8828.79
461.69	8632.19
461.89	8486.78
462.10	8806.27
462.31	8789.88
462.52	8781.69
462.73	8746.87
462.94	9101.17
463.14	8859.51
463.35	9029.49
463.56	9326.45
463.77	9244.53
463.98	8994.68
464.18	9230.20
464.39	9412.46
464.60	9604.97
464.81	9281.39
465.02	9332.59
465.23	9590.64
465.43	9353.07
465.64	9740.14
465.85	9578.35
466.06	9521.01
466.27	10006.38
466.47	9844.59
466.68	9987.94
466.89	9777.00
467.10	10100.58
467.30	9828.20
467.51	10116.97
467.72	10348.39
467.93	9789.29
468.14	10233.70
468.34	10315.62
468.55	10403.68
468.76	10456.93
468.97	10135.40
469.17	10420.06
469.38	10481.50
469.59	10563.42
469.80	10405.73
470.01	10743.64
470.21	10766.17
470.42	11132.76
470.63	10901.34
470.84	11065.18
471.04	11063.13
471.25	11079.51
471.46	11079.51
471.67	11521.87
471.87	11269.97
472.08	11538.26
472.29	11605.84
472.50	11198.29
472.70	11642.70
472.91	11280.21
473.12	11628.37
473.33	11808.59
473.53	11865.93
473.74	11759.44
473.95	12144.45
474.16	12214.09
474.36	12302.15
474.57	12238.66
474.78	12480.32
474.99	12283.72
475.19	12230.47
475.40	12769.09
475.61	12732.22
475.81	12857.15
476.02	13051.70
476.23	12887.87
476.44	12971.83
476.64	13195.06
476.85	13346.61
477.06	13272.89
477.27	13463.35
477.47	13428.53
477.68	13614.90
477.89	13838.12
478.09	13627.18
478.30	13874.99
478.51	13831.98
478.71	13973.29
478.92	14034.73
479.13	14255.91
479.34	14466.85
479.54	14509.86
479.75	14395.17
479.96	14325.54
480.16	14503.71
480.37	14821.15
480.58	15152.92
480.78	14982.94
480.99	15025.95
481.20	15343.38
481.41	15255.32
481.61	15197.98
481.82	15513.36
482.03	15558.42
482.23	15435.54
482.44	15580.95
482.65	15904.53
482.85	15929.10
483.06	15736.59
483.27	16056.08
483.47	15861.52
483.68	16168.71
483.89	16314.12
484.09	16330.50
484.30	16508.68
484.51	16785.15
484.71	16613.12
484.92	16623.36
485.13	16723.71
485.33	17061.63
485.54	17010.43
485.75	17342.20
485.95	17460.98
486.16	17417.97
486.37	17307.38
486.57	17313.53
486.78	17393.40
486.98	17612.53
487.19	17759.98
487.40	17901.29
487.60	17831.66
487.81	17903.34
488.02	17921.77
488.22	18040.56
488.43	18200.30
488.64	18374.38
488.84	18267.88
489.05	18622.18
489.25	18235.11
489.46	18814.69
489.67	18556.64
489.87	18953.95
490.08	19025.63
490.29	18820.83
490.49	19439.32
490.70	18898.66
490.90	19160.80
491.11	19275.48
491.32	19633.88
491.52	19435.22
491.73	19709.65
491.94	19635.92
492.14	19719.89
492.35	19711.70
492.55	19934.93
492.76	20201.16
492.97	19908.30
493.17	20174.54
493.38	20432.58
493.58	20545.22
493.79	20518.60
494.00	20618.95
494.20	20700.87
494.41	20752.07
494.61	21089.98
494.82	21020.35
495.02	20747.97
495.23	20946.62
495.44	21278.40
495.64	21130.94
495.85	21667.51
496.05	21128.89
496.26	21026.50
496.47	21595.83
496.67	21413.56
496.88	21921.46
497.08	21311.16
497.29	21880.50
497.49	21585.59
497.70	21913.27
497.91	22208.17
498.11	22290.09
498.32	22062.77
498.52	22380.20
498.73	22531.75
498.93	22558.38
499.14	22585.00
499.34	22654.63
499.55	22847.14
499.76	22464.17
499.96	22861.48
500.17	22838.95
500.37	22892.19
500.58	23137.95
500.78	22998.69
500.99	23135.90
501.19	23219.87
501.40	23434.91
501.60	23213.73
501.81	23309.98
502.02	23467.67
502.22	23332.51
502.43	23565.98
502.63	23772.82
502.84	23959.19
503.04	23699.09
503.25	23895.70
503.45	23815.83
503.66	24018.58
503.86	23883.41
504.07	24493.71
504.27	24139.41
504.48	24626.82
504.68	24424.08
504.89	24428.17
505.09	24465.03
505.30	24401.55
505.50	24690.31
505.71	24798.85
505.91	24637.06
506.12	24923.78
506.32	24792.71
506.53	24710.79
506.73	24934.02
506.94	25276.03
507.14	24780.42
507.35	24827.53
507.55	25181.82
507.76	25042.56
507.96	25296.51
508.17	25603.71
508.37	25343.61
508.58	25429.63
508.78	25183.87
508.99	25921.14
509.19	25863.80
509.40	25675.38
509.60	25798.26
509.81	25908.85
510.01	25650.81
510.22	25810.55
510.42	25992.82
510.63	26297.97
510.83	25912.95
511.04	25998.96
511.24	26252.91
511.44	26248.82
511.65	26302.06
511.85	26222.19
512.06	26394.22
512.26	26599.02
512.47	26662.51
512.67	26584.68
512.88	26537.58
513.08	26277.49
513.29	26965.60
513.49	26697.32
513.69	27197.02
513.90	26717.80
514.10	27147.87
514.31	27311.71
514.51	27029.09
514.72	27301.47
514.92	27205.22
515.13	27086.43
515.33	27033.19
515.53	27299.42
515.74	27078.24
515.94	27696.73
516.15	27623.00
516.35	27328.10
516.56	27440.73
516.76	27586.14
516.96	27461.21
517.17	27713.11
517.37	27950.68
517.58	27893.33
517.78	28065.36
517.99	27973.21
518.19	27977.30
518.39	28104.28
518.60	28210.77
518.80	28325.46
519.01	28200.53
519.21	28513.87
519.41	28347.98
519.62	28534.35
519.82	28661.32
520.03	28620.36
520.23	28644.94
520.43	28610.12
520.64	29136.45
520.84	29091.40
521.05	28896.84
521.25	29236.80
521.45	29032.00
521.66	29341.25
521.86	29324.86
522.07	29193.79
522.27	29263.43
522.47	29480.51
522.68	29816.38
522.88	29230.66
523.08	29939.26
523.29	30060.09
523.49	29679.16
523.70	29892.15
523.90	30105.14
524.10	30187.06
524.31	30094.90
524.51	30012.98
524.71	30565.93
524.92	30219.83
525.12	30766.63
525.33	30371.38
525.53	30780.97
525.73	31010.34
525.94	30785.07
526.14	30697.00
526.34	30897.70
526.55	30909.99
526.75	31034.92
526.95	31143.46
527.16	31249.96
527.36	31153.70
527.56	31954.46
527.77	31565.34
527.97	31305.25
528.17	31712.80
528.38	31792.67
528.58	31907.35
528.78	32040.47
528.99	32036.38
529.19	32323.09
529.39	31804.95
529.60	32380.43
529.80	32495.12
530.00	31989.27
530.21	32464.40
530.41	32761.36
530.61	32708.11
530.82	33062.41
531.02	32574.99
531.22	33203.72
531.43	32900.62
531.63	33113.61
531.83	33523.20
532.04	33824.25
532.24	33203.72
532.44	33943.03
532.64	33680.89
532.85	33732.09
533.05	33545.73
533.25	34012.66
533.46	33904.12
533.66	34000.38
533.86	34076.15
534.07	34412.02
534.27	34192.89
534.47	34293.24
534.67	34688.49
534.88	34477.55
535.08	34645.49
535.28	34653.68
535.49	35137.00
535.69	35175.91
535.89	34977.26
536.09	35137.00
536.30	35339.75
536.50	35286.50
536.70	35384.80
536.91	35374.56
537.11	35648.99
537.31	35573.22
537.51	35827.17
537.72	36060.63
537.92	35976.67
538.12	36427.22
538.32	35771.87
538.53	36072.92
538.73	36115.93
538.93	36042.20
539.13	36365.78
539.34	36345.30
539.54	36353.49
539.74	36730.32
539.94	36670.93
540.15	36466.13
540.35	36826.57
540.55	36994.51
540.75	37248.46
540.96	37133.77
541.16	37105.10
541.36	37572.03
541.56	37436.87
541.77	37639.62
541.97	37821.89
542.17	37436.87
542.37	37287.37
542.58	37535.17
542.78	37467.59
542.98	37623.23
543.18	37848.51
543.38	38413.75
543.59	38565.30
543.79	37592.51
543.99	38159.80
544.19	38161.85
544.40	38061.50
544.60	38659.51
544.80	38436.28
545.00	38471.09
545.20	38653.36
545.41	38643.12
545.61	38510.00
545.81	38688.18
546.01	38981.04
546.21	38788.53
546.42	38538.68
546.62	39144.87
546.82	38757.81
547.02	38815.15
547.22	39095.72
547.43	39314.86
547.63	39349.67
547.83	39400.87
548.03	39071.15
548.23	39357.86
548.44	39830.94
548.64	39460.26
548.84	39794.08
549.04	39359.91
549.24	39826.85
549.45	40240.54
549.65	39607.72
549.85	39638.44
550.05	40019.36
550.25	39699.87
550.45	40662.42
550.66	39986.59
550.86	39880.10
551.06	40424.86
551.26	40224.15
551.46	40498.58
551.66	40322.46
551.87	40318.36
552.07	40492.44
552.27	40285.59
552.47	40732.05
552.67	40631.70
552.87	40986.00
553.07	40770.96
553.28	41037.20
553.48	41065.87
553.68	41196.94
553.88	41270.67
554.08	41026.96
554.28	41061.77
554.48	40572.31
554.69	41364.87
554.89	41108.88
555.09	41088.40
555.29	40877.46
555.49	41072.01
555.69	41418.12
555.89	40994.19
556.10	41500.04
556.30	41315.72
556.50	41530.76
556.70	41338.25
556.90	41592.20
557.10	42052.99
557.30	41917.82
557.50	41842.05
557.70	41907.58
557.91	41733.51
558.11	41731.46
558.31	42030.46
558.51	42030.46
558.71	42124.67
558.91	42229.12
559.11	42364.28
559.31	41971.07
559.51	42044.80
559.72	42548.60
559.92	42210.68
560.12	42050.94
560.32	42421.62
560.52	42075.52
560.72	42317.18
560.92	42411.38
561.12	42511.74
561.32	42681.72
561.52	42122.62
561.72	43199.85
561.93	42177.92
562.13	42714.48
562.33	42308.99
562.53	43369.83
562.73	42530.17
562.93	42599.80
563.13	42648.95
563.33	42816.88
563.53	43167.09
563.73	42413.43
563.93	42849.65
564.13	43029.87
564.33	43021.68
564.53	43244.91
564.74	43392.36
564.94	42708.34
565.14	42823.03
565.34	42945.90
565.54	43505.00
565.74	43328.87
565.94	43468.14
566.14	43179.37
566.34	43265.39
566.54	43345.26
566.74	43466.09
566.94	43312.49
567.14	43806.05
567.34	43474.28
567.54	43584.87
567.74	43539.82
567.94	43361.64
568.14	44010.85
568.34	43826.53
568.54	43441.51
568.74	43976.03
568.94	43472.23
569.14	43986.27
569.34	43621.73
569.54	43969.89
569.75	43826.53
569.95	44103.01
570.15	44344.67
570.35	44014.94
570.55	44035.42
570.75	44461.40
570.95	44461.40
571.15	44318.04
571.35	44651.86
571.55	44150.11
571.75	44416.35
571.95	44776.79
572.15	44615.00
572.35	44741.97
572.55	44655.96
572.75	44760.40
572.95	44709.21
573.15	44844.37
573.35	44692.82
573.55	44551.51
573.75	44934.48
573.95	44938.58
574.15	44721.49
574.35	45368.65
574.55	45061.46
574.75	44971.35
574.95	45065.55
575.15	44608.86
575.34	45208.91
575.54	45327.69
575.74	45745.48
575.94	45339.98
576.14	44985.68
576.34	45634.89
576.54	45866.31
576.74	45688.13
576.94	45518.15
577.14	45765.96
577.34	45901.12
577.54	45991.23
577.74	45954.37
577.94	45716.81
578.14	45868.36
578.34	45995.33
578.54	45364.56
578.74	45950.27
578.94	46535.99
579.14	45942.08
579.34	45919.56
579.54	45776.20
579.74	46648.63
579.94	46341.44
580.13	46642.49
580.33	46351.68
580.53	46753.08
580.73	46585.15
580.93	46585.15
581.13	46667.06
581.33	47185.20
581.53	46900.53
581.73	47123.76
581.93	47281.45
582.13	47191.34
582.33	47293.74
582.53	46576.95
582.73	46945.59
582.92	47187.25
583.12	47134.00
583.32	47303.98
583.52	47052.08
583.72	47353.13
583.92	47121.71
584.12	47275.31
584.32	47955.24
584.52	47703.34
584.72	47674.66
584.92	47807.78
585.11	48411.93
585.31	47957.28
585.51	48049.44
585.71	47742.25
585.91	48131.36
586.11	47711.53
586.31	48225.57
586.51	47979.81
586.71	48364.83
586.91	48325.92
587.10	48420.13
587.30	48463.13
587.50	48586.01
587.70	48438.56
587.90	48512.28
588.10	48297.25
588.30	48563.48
588.50	48336.16
588.69	48733.46
588.89	48350.49
589.09	48854.29
589.29	49034.52
589.49	49067.28
589.69	48860.44
589.89	48862.49
590.08	48842.01
590.28	48719.13
590.48	48862.49
590.68	49100.05
590.88	49460.49
591.08	48792.86
591.28	48817.43
591.47	49243.41
591.67	49089.81
591.87	49454.35
592.07	49464.59
592.27	49683.72
592.47	49528.08
592.67	49085.72
592.86	49310.99
593.06	49763.59
593.26	49351.95
593.46	49562.89
593.66	49716.49
593.86	49988.87
594.05	49724.68
594.25	49954.05
594.45	49808.65
594.65	50216.19
594.85	49919.24
595.05	49964.29
595.24	50164.99
595.44	49933.57
595.64	50050.31
595.84	49949.96
596.04	50332.93
596.23	50216.19
596.43	50566.40
596.63	50449.66
596.83	50472.19
597.03	51098.87
597.22	50771.19
597.42	50674.94
597.62	50646.27
597.82	50412.80
598.02	51160.31
598.21	50912.50
598.41	50468.09
598.61	51043.57
598.81	50875.64
599.01	51197.17
599.20	51055.86
599.40	50930.93
599.60	51096.82
599.80	51246.32
600.00	51070.20
600.19	51416.30
600.39	51139.83
600.59	51551.47
600.79	51500.27
600.98	51143.92
601.18	51549.42
601.38	51756.27
601.58	51864.81
601.78	52180.20
601.97	52065.51
602.17	52053.22
602.37	51946.73
602.57	51733.74
602.76	51983.59
602.96	51834.09
603.16	52393.18
603.36	52073.70
603.55	52161.76
603.75	52397.28
603.95	52423.90
604.15	52139.24
604.34	52198.63
604.54	52473.06
604.74	52491.49
604.94	52454.62
605.13	52788.44
605.33	52798.68
605.53	52727.00
605.73	52595.93
605.92	52409.57
606.12	53017.82
606.32	52759.77
606.52	52616.41
606.71	52962.52
606.91	53206.23
607.11	52786.39
607.30	53181.65
607.50	53122.26
607.70	53365.97
607.90	52866.27
608.09	53007.58
608.29	53335.25
608.49	53132.50
608.68	52706.52
608.88	53365.97
609.08	53404.88
609.28	53898.44
609.47	53417.17
609.67	53683.40
609.87	53705.93
610.06	53558.48
610.26	53226.71
610.46	53540.05
610.66	53343.44
610.85	53820.62
611.05	53654.73
611.25	53542.10
611.44	53402.83
611.64	53837.00
611.84	53607.63
612.03	53236.95
612.23	54072.52
612.43	53841.10
612.62	53689.55
612.82	53896.39
613.02	53564.62
613.21	53476.56
613.41	53798.09
613.61	53691.60
613.80	53589.20
614.00	54187.21
614.20	54021.32
614.39	53994.70
614.59	54125.77
614.79	53785.80
614.98	53712.08
615.18	53900.49
615.38	53458.13
615.57	53951.69
615.77	54088.90
615.97	54197.44
616.16	53673.16
616.36	53880.01
616.56	54138.05
616.75	53753.04
616.95	53419.22
617.15	54205.64
617.34	54328.52
617.54	53679.31
617.74	54074.57
617.93	53863.63
618.13	53775.56
618.32	54490.30
618.52	54015.18
618.72	54279.36
618.91	53900.49
619.11	53511.38
619.31	53884.11
619.50	53839.05
619.70	53982.41
619.90	54029.51
620.09	53703.88
620.29	53753.04
620.48	53724.36
620.68	54193.35
620.88	53630.16
621.07	53933.26
621.27	54172.87
621.46	53699.79
621.66	54076.61
621.86	54068.42
622.05	53486.80
622.25	54285.51
622.44	54043.85
622.64	53925.07
622.84	54473.92
623.03	54086.85
623.23	53773.52
623.42	53460.18
623.62	54375.62
623.82	54219.97
624.01	53996.74
624.21	54072.52
624.40	53896.39
624.60	53826.76
624.80	53888.20
624.99	54117.57
625.19	53552.33
625.38	54428.87
625.58	53990.60
625.77	54148.29
625.97	54305.99
626.17	53705.93
626.36	54203.59
626.56	54228.16
626.75	53423.31
626.95	54269.12
627.14	53906.63
627.34	54822.08
627.54	53609.68
627.73	54291.65
627.93	53861.58
628.12	53783.76
628.32	53720.27
628.51	53945.54
628.71	54080.71
628.90	53632.21
629.10	53851.34
629.30	53941.45
629.49	54129.86
629.69	53998.79
629.88	53677.26
630.08	54381.76
630.27	54226.12
630.47	54361.28
630.66	53945.54
630.86	54316.23
631.05	53245.14
631.25	54506.69
631.44	54189.25
631.64	54164.68
631.84	54332.61
632.03	54162.63
632.23	54371.52
632.42	54148.29
632.62	54449.35
632.81	53722.32
633.01	53996.74
633.20	54723.77
633.40	54158.53
633.59	54219.97
633.79	54166.73
633.98	53976.26
634.18	54463.68
634.37	54387.91
634.57	54564.03
634.76	54695.10
634.96	54541.50
635.15	54351.04
635.35	53929.16
635.54	54506.69
635.74	54680.77
635.93	54099.14
636.13	54574.27
636.32	54664.38
636.52	54379.71
636.71	54527.17
636.91	54609.09
637.10	54635.71
637.30	54617.28
637.49	54346.95
637.69	54348.99
637.88	54942.91
638.08	54770.88
638.27	54478.02
638.46	54027.46
638.66	54408.39
638.85	54574.27
639.05	54596.80
639.24	54799.55
639.44	54418.63
639.63	54623.42
639.83	54953.15
640.02	54576.32
640.22	54953.15
640.41	55024.82
640.61	54013.13
640.80	54686.91
640.99	54561.98
641.19	54875.32
641.38	54838.46
641.58	54809.79
641.77	55018.68
641.97	54521.02
642.16	54885.56
642.36	55213.24
642.55	55250.10
642.74	55051.45
642.94	55553.20
643.13	54412.48
643.33	55121.08
643.52	55481.52
643.72	55567.54
643.91	55073.98
644.10	54600.89
644.30	55846.06
644.49	54908.09
644.69	55391.41
644.88	55055.54
645.08	55301.30
645.27	55131.32
645.46	54717.63
645.66	55096.50
645.85	55289.01
646.05	54918.33
646.24	55686.32
646.43	55047.35
646.63	55739.57
646.82	55858.35
647.02	55407.79
647.21	55688.37
647.40	55211.19
647.60	55368.88
647.79	55657.65
647.99	55540.91
648.18	54996.15
648.37	55659.69
648.57	55692.46
648.76	55520.43
648.96	55424.18
649.15	55735.47
649.34	56325.28
649.54	55760.05
649.73	55792.81
649.92	55504.05
650.12	55643.31
650.31	55907.50
650.51	56343.72
650.70	56188.07
650.89	55557.30
651.09	56247.46
651.28	55876.78
651.47	55817.39
651.67	55905.45
651.86	56538.27
652.06	55307.44
652.25	55766.19
652.44	55991.47
652.64	55893.16
652.83	56022.19
653.02	55567.54
653.22	55801.00
653.41	55696.56
653.60	55829.68
653.80	55790.76
653.99	55655.60
654.18	55823.53
654.38	55882.92
654.57	55981.23
654.76	55911.59
654.96	55784.62
655.15	55923.88
655.34	55860.40
655.54	55407.79
655.73	55778.48
655.92	56028.33
656.12	56038.57
656.31	55860.40
656.50	56132.78
656.70	56181.93
656.89	55862.44
657.08	56267.94
657.28	56136.87
657.47	55739.57
657.66	56247.46
657.86	56130.73
658.05	55801.00
658.24	56407.20
658.43	55426.23
658.63	56329.38
658.82	56599.71
659.01	56038.57
659.21	56282.28
659.40	56255.65
659.59	56063.14
659.79	56425.64
659.98	56439.97
660.17	56345.76
660.36	56321.19
660.56	56433.83
660.75	56446.11
660.94	56781.98
661.14	56003.75
661.33	55966.89
661.52	55745.71
661.71	56513.70
661.91	56157.35
662.10	56024.23
662.29	56872.09
662.49	56607.90
662.68	56327.33
662.87	56562.85
663.06	56147.11
663.26	56212.65
663.45	56489.12
663.64	56390.82
663.83	56771.74
664.03	56579.23
664.22	56274.09
664.41	56560.80
664.60	56157.35
664.80	56704.16
664.99	56333.48
665.18	56489.12
665.37	56157.35
665.57	56415.40
665.76	56591.52
665.95	56403.11
666.14	56296.61
666.34	56523.94
666.53	56124.58
666.72	56145.06
666.91	56155.30
667.11	56124.58
667.30	56456.35
667.49	56057.00
667.68	56628.38
667.87	56054.95
668.07	56147.11
668.26	56292.52
668.45	56329.38
668.64	55962.79
668.84	56499.36
669.03	56548.51
669.22	56022.19
669.41	56525.99
669.60	56464.55
669.80	55979.18
669.99	56431.78
670.18	56210.60
670.37	56337.57
670.57	56898.72
670.76	56290.47
670.95	56491.17
671.14	56540.32
671.33	56106.15
671.53	56779.93
671.72	56558.75
671.91	56054.95
672.10	55975.08
672.29	56104.10
672.48	56048.81
672.68	56173.73
672.87	56067.24
673.06	56521.89
673.25	56028.33
673.44	55596.21
673.64	55952.55
673.83	56100.01
674.02	56079.53
674.21	55884.97
674.40	56315.04
674.59	55731.37
674.79	56419.49
674.98	55690.41
675.17	56054.95
675.36	55768.24
675.55	56214.69
675.74	55864.49
675.94	55719.09
676.13	55813.29
676.32	56464.55
676.51	56239.27
676.70	56151.21
676.89	56186.02
677.08	55899.31
677.28	55368.88
677.47	56110.25
677.66	55915.69
677.85	55495.86
678.04	56048.81
678.23	56360.10
678.42	56136.87
678.62	56167.59
678.81	56153.26
679.00	55919.79
679.19	56568.99
679.38	55620.78
679.57	55661.74
679.76	55837.87
679.96	56315.04
680.15	55686.32
680.34	55540.91
680.53	55841.96
680.72	55717.04
680.91	55792.81
681.10	55735.47
681.29	56001.71
681.48	55841.96
681.68	55817.39
681.87	55297.20
682.06	55553.20
682.25	55295.16
682.44	55458.99
682.63	56065.19
682.82	55596.21
683.01	55166.13
683.20	55110.84
683.39	55473.33
683.59	55159.99
683.78	55231.67
683.97	54998.20
684.16	55303.35
684.35	55151.80
684.54	55272.63
684.73	55164.09
684.92	55006.39
685.11	55280.82
685.30	55213.24
685.49	55409.84
685.69	55055.54
685.88	55440.56
686.07	54936.76
686.26	55317.68
686.45	54906.04
686.64	55186.61
686.83	54992.06
687.02	54981.82
687.21	55239.86
687.40	55524.53
687.59	55092.41
687.78	54885.56
687.97	55295.16
688.16	54987.96
688.35	54727.87
688.54	54346.95
688.74	54727.87
688.93	54707.39
689.12	54754.49
689.31	55006.39
689.50	54709.44
689.69	54604.99
689.88	54074.57
690.07	54758.59
690.26	54441.15
690.45	55088.31
690.64	54738.11
690.83	54514.88
691.02	54226.12
691.21	54482.11
691.40	54129.86
691.59	54594.75
691.78	54435.01
691.97	54385.86
692.16	54527.17
692.35	54564.03
692.54	54195.40
692.73	54123.72
692.92	54279.36
693.11	54238.40
693.30	54240.45
693.49	54156.49
693.68	53929.16
693.87	54217.92
694.06	54080.71
694.25	54228.16
694.44	53886.15
694.63	54011.08
694.82	54404.29
695.01	53927.11
695.20	53994.70
695.39	53632.21
695.58	53687.50
695.77	54095.05
695.96	53566.67
696.15	54025.42
696.34	53564.62
696.53	53818.57
696.72	53685.45
696.91	54109.38
697.10	53882.06
697.29	53843.15
697.48	53945.54
697.67	53843.15
697.86	53474.51
698.05	53548.24
698.24	53972.17
698.43	52987.10
698.62	53310.67
698.81	52958.42
699.00	54033.61
699.19	53349.59
699.38	53959.88
699.57	53161.17
699.76	53963.98
699.95	53224.66
700.14	53322.96
700.32	53327.06
700.51	53445.84
700.70	53724.36
700.89	53851.34
701.08	53488.85
701.27	53433.55
701.46	53331.15
701.65	52712.67
701.84	53140.69
702.03	53644.49
702.22	53071.06
702.41	53226.71
702.60	52950.23
702.79	53056.73
702.98	53036.25
703.17	52815.07
703.35	52767.96
703.54	52853.98
703.73	52868.31
703.92	53017.82
704.11	52600.03
704.30	52337.89
704.49	52640.99
704.68	52319.46
704.87	53134.55
705.06	52364.51
705.25	52303.07
705.43	52407.52
705.62	52878.55
705.81	52251.87
706.00	52872.41
706.19	52270.31
706.38	52389.09
706.57	52538.59
706.76	52163.81
706.95	52565.21
707.14	52149.48
707.32	52559.07
707.51	51811.56
707.70	52405.47
707.89	52145.38
708.08	52608.22
708.27	52434.14
708.46	52376.80
708.65	52149.48
708.84	52384.99
709.02	52268.26
709.21	52198.63
709.40	52217.06
709.59	52303.07
709.78	51776.75
709.97	52395.23
710.16	52083.94
710.34	52077.80
710.53	52002.02
710.72	51780.84
710.91	51713.26
711.10	51770.60
711.29	51827.95
711.48	51971.30
711.66	51778.79
711.85	51868.90
712.04	52126.95
712.23	52135.14
712.42	51733.74
712.61	51455.21
712.80	51725.55
712.98	51684.59
713.17	51102.96
713.36	51705.07
713.55	51621.10
713.74	51782.89
713.93	51717.35
714.11	51617.00
714.30	51111.16
714.49	51565.81
714.68	51080.44
714.87	51557.61
715.06	51688.68
715.24	51309.81
715.43	51539.18
715.62	51117.30
715.81	50586.88
716.00	51313.90
716.18	50828.54
716.37	50861.30
716.56	51152.12
716.75	51045.62
716.94	50840.82
717.12	50918.65
717.31	50926.84
717.50	50621.69
717.69	50486.53
717.88	50726.14
718.06	50914.55
718.25	51240.18
718.44	50441.47
718.63	50701.56
718.82	50377.98
719.00	50771.19
719.19	50316.54
719.38	50566.40
719.57	49917.19
719.76	49648.91
719.94	49890.57
720.13	50109.70
720.32	50343.17
720.51	50076.93
720.69	49788.17
720.88	50363.65
721.07	49976.58
721.26	49751.30
721.44	49390.86
721.63	49820.94
721.82	49534.22
722.01	49263.89
722.20	49960.20
722.38	49581.32
722.57	49356.05
722.76	49538.32
722.95	49251.60
723.13	49308.94
723.32	49202.45
723.51	49081.62
723.70	48760.09
723.88	49796.36
724.07	48788.76
724.26	49521.93
724.44	48772.38
724.63	48782.62
724.82	49261.84
725.01	49034.52
725.19	48975.12
725.38	48837.91
725.57	49044.76
725.76	48991.51
725.94	48485.66
726.13	48592.15
726.32	48588.06
726.51	48141.60
726.69	49044.76
726.88	48661.79
727.07	48524.57
727.25	48387.36
727.44	48526.62
727.63	48635.16
727.82	48131.36
728.00	48313.63
728.19	48385.31
728.38	48762.14
728.56	47535.40
728.75	48643.35
728.94	48045.35
729.12	48393.50
729.31	48389.41
729.50	48602.39
729.69	48190.75
729.87	48366.88
730.06	48018.72
730.25	48268.58
730.43	48801.05
730.62	47631.66
730.81	48477.47
730.99	48231.71
731.18	48348.45
731.37	48493.85
731.55	48428.32
731.74	48508.19
731.93	48647.45
732.11	48389.41
732.30	48182.56
732.49	48250.14
732.67	48422.17
732.86	48413.98
733.05	48225.57
733.23	48018.72
733.42	48198.94
733.61	47785.25
733.79	48028.96
733.98	47953.19
734.17	48143.65
734.35	48006.44
734.54	48317.73
734.73	48272.67
734.91	47971.62
735.10	47811.88
735.29	48366.88
735.47	47674.66
735.66	48112.93
735.84	47846.69
736.03	47699.24
736.22	47936.80
736.40	47912.23
736.59	47592.75
736.78	47793.45
736.96	47699.24
737.15	47850.79
737.33	47627.56
737.52	47756.58
737.71	47572.27
737.89	47349.04
738.08	47404.33
738.27	47281.45
738.45	47914.28
738.64	47717.67
738.82	47260.97
739.01	47367.47
739.20	47482.16
739.38	47486.25
739.57	47289.65
739.75	47410.48
739.94	47570.22
740.13	47443.24
740.31	47342.89
740.50	46953.78
740.68	46970.16
740.87	47220.02
741.06	47342.89
741.24	47291.69
741.43	46896.44
741.61	47123.76
741.80	47000.88
741.99	46914.87
742.17	46984.50
742.36	46992.69
742.54	46652.73
742.73	46662.97
742.91	47064.37
743.10	46650.68
743.29	47045.94
743.47	46757.17
743.66	46665.02
743.84	46615.86
744.03	46914.87
744.21	46433.60
744.40	46959.92
744.59	46126.40
744.77	46175.55
744.96	46525.75
745.14	46308.67
745.33	46640.44
745.51	46441.79
745.70	46384.44
745.88	46746.93
746.07	46296.38
746.26	46357.82
746.44	46241.09
746.63	46249.28
746.81	46660.92
747.00	46370.11
747.18	46239.04
747.37	46069.06
747.55	46206.27
747.74	46355.77
747.92	46021.95
748.11	45827.40
748.29	45970.75
748.48	46347.58
748.66	45897.03
748.85	45880.64
749.03	45620.55
749.22	45870.40
749.41	45696.33
749.59	45540.68
749.78	45909.32
749.96	45845.83
750.15	45655.37
750.33	45897.03
750.52	45817.16
750.70	45464.91
750.89	45643.08
751.07	45602.12
751.26	45151.57
751.44	45190.48
751.63	45612.36
751.81	45126.99
752.00	45196.62
752.18	45382.99
752.37	45200.72
752.55	45069.65
752.74	44840.28
752.92	44629.34
753.10	44604.76
753.29	45235.53
753.47	45256.01
753.66	44596.57
753.84	45280.59
754.03	44643.67
754.21	44430.68
754.40	44832.08
754.58	44764.50
754.77	44594.52
754.95	43941.22
755.14	44092.77
755.32	44320.09
755.51	44186.97
755.69	44146.01
755.88	44408.15
756.06	44414.30
756.24	44019.04
756.43	44203.36
756.61	44209.50
756.80	44320.09
756.98	43947.36
757.17	44037.47
757.35	44086.62
757.54	44320.09
757.72	44090.72
757.90	43771.24
758.09	43867.49
758.27	43482.47
758.46	43621.73
758.64	43754.85
758.83	44119.39
759.01	43824.48
759.19	44084.58
759.38	43580.78
759.56	43699.56
759.75	43550.06
759.93	43439.47
760.12	43484.52
760.30	43656.55
760.48	43545.96
760.67	43113.84
760.85	43797.86
761.04	43322.73
761.22	43185.52
761.40	43556.20
761.59	42872.18
761.77	43072.88
761.96	43095.41
762.14	43459.94
762.32	43009.39
762.51	43187.56
762.69	42890.61
762.88	42769.78
763.06	43201.90
763.24	43019.63
763.43	43029.87
763.61	42950.00
763.80	42532.22
763.98	42628.47
764.16	42526.07
764.35	42786.16
764.53	42042.75
764.72	42341.75
764.90	42720.63
765.08	42433.91
765.27	42601.85
765.45	42087.81
765.63	41825.67
765.82	42227.07
766.00	42239.36
766.18	42153.34
766.37	42478.97
766.55	42083.71
766.74	41964.93
766.92	42083.71
767.10	41676.16
767.29	41733.51
767.47	41579.91
767.65	41776.51
767.84	41704.84
768.02	41751.94
768.20	40965.52
768.39	41676.16
768.57	41461.13
768.75	41424.26
768.94	41467.27
769.12	41321.87
769.30	41072.01
769.49	41338.25
769.67	41293.19
769.85	40719.76
770.04	41198.99
770.22	41059.73
770.40	40818.07
770.59	40584.60
770.77	40959.38
770.95	40947.09
771.14	40836.50
771.32	40449.43
771.50	40578.45
771.69	40867.22
771.87	40805.78
772.05	41059.73
772.24	40617.36
772.42	40920.46
772.60	40344.98
772.78	40328.60
772.97	39953.82
773.15	40541.59
773.33	40490.39
773.52	40336.79
773.70	40600.98
773.88	40590.74
774.07	40050.08
774.25	40525.21
774.43	40846.74
774.61	40236.44
774.80	40568.21
774.98	40301.98
775.16	40553.88
775.34	40132.00
775.53	40039.84
775.71	40695.19
775.89	40476.05
776.08	40357.27
776.26	40529.30
776.44	40658.32
776.62	40134.04
776.81	40002.97
776.99	40431.00
777.17	40588.69
777.35	40308.12
777.54	40973.71
777.72	40441.24
777.90	40512.92
778.08	40877.46
778.27	40674.71
778.45	41244.04
778.63	40846.74
778.81	40643.99
779.00	41076.11
779.18	40600.98
779.36	41090.44
779.54	40508.82
779.73	40773.01
779.91	41227.66
780.09	40656.28
780.27	41172.36
780.46	41012.62
780.64	41164.17
780.82	40656.28
781.00	40461.72
781.19	41364.87
781.37	41207.18
781.55	41002.38
781.73	41362.82
781.91	41194.89
782.10	40899.98
782.28	40787.35
782.46	41354.63
782.64	41246.09
782.82	41084.30
783.01	41311.63
783.19	41233.80
783.37	41096.59
783.55	41020.81
783.74	41612.68
783.92	40672.66
784.10	41180.56
784.28	41395.59
784.46	41088.40
784.64	41059.73
784.83	41377.16
785.01	41139.60
785.19	41508.23
785.37	41500.04
785.55	40770.96
785.74	40940.94
785.92	41006.48
786.10	41383.30
786.28	41227.66
786.46	40871.31
786.64	40478.10
786.83	40998.29
787.01	40881.55
787.19	41160.08
787.37	40727.95
787.55	40691.09
787.74	40469.91
787.92	40619.41
788.10	40697.24
788.28	40328.60
788.46	40904.08
788.64	40498.58
788.82	40975.76
789.01	40400.28
789.19	40799.63
789.37	40654.23
789.55	40340.89
789.73	40545.69
789.91	40064.41
790.09	40181.15
790.28	39863.71
790.46	39814.56
790.64	39947.68
790.82	40058.27
791.00	39634.34
791.18	39773.60
791.36	39794.08
791.55	39785.89
791.73	39671.20
791.91	39521.70
792.09	39415.21
792.27	39407.01
792.45	39679.39
792.63	39081.39
792.81	39376.30
793.00	39312.81
793.18	39007.66
793.36	38722.99
793.54	38755.76
793.72	38657.46
793.90	38778.29
794.08	38397.37
794.26	38569.40
794.44	38057.40
794.62	37905.85
794.81	38340.02
794.99	38282.68
795.17	38000.06
795.35	38204.86
795.53	38563.25
795.71	38319.54
795.89	38067.64
796.07	37578.18
796.25	37258.70
796.43	37459.40
796.61	37176.78
796.80	37715.39
796.98	37262.79
797.16	37529.03
797.34	37316.04
797.52	37158.34
797.70	37418.44
797.88	37002.70
798.06	37164.49
798.24	36816.33
798.42	36742.61
798.60	36912.59
798.78	36750.80
798.96	37010.89
799.14	36470.23
799.32	36820.43
799.51	36244.95
799.69	36365.78
799.87	36347.35
800.05	36271.57
800.23	36132.31
800.41	36185.56
800.59	36314.58
800.77	35663.33
800.95	35642.85
801.13	35902.94
801.31	35780.06
801.49	35966.43
801.67	35374.56
801.85	35614.18
802.03	35216.87
802.21	35325.41
802.39	35239.40
802.57	34971.11
802.75	34952.68
802.93	34993.64
803.11	34897.39
803.29	34690.54
803.47	34631.15
803.65	34797.04
803.83	34909.68
804.01	34911.72
804.19	34319.86
804.37	34418.16
804.55	34283.00
804.73	34391.54
804.91	34389.49
805.09	34057.72
805.27	34199.03
805.45	34588.14
805.63	34110.97
805.81	34289.14
805.99	33961.47
806.17	34117.11
806.35	33641.98
806.53	33775.10
806.71	33877.50
806.89	33613.31
807.07	33486.34
807.25	33363.46
807.43	33420.80
807.61	33576.45
807.79	33183.24
807.97	32871.95
808.15	33111.56
808.33	32691.73
808.51	32941.58
808.69	32876.04
808.87	32669.20
809.05	32626.19
809.23	32638.48
809.41	32685.58
809.59	32773.64
809.77	32503.31
809.95	31872.54
810.13	32800.27
810.31	32353.81
810.49	32640.53
810.67	32075.29
810.84	31929.88
811.02	32247.32
811.20	31837.72
811.38	32112.15
811.56	31659.55
811.74	31927.83
811.92	32005.66
812.10	31788.57
812.28	31780.38
812.46	31704.60
812.64	31839.77
812.82	31215.14
813.00	31499.81
813.18	31557.15
813.36	31469.09
813.53	30944.81
813.71	31344.16
813.89	31364.64
814.07	31407.65
814.25	31090.21
814.43	31114.79
814.61	30955.05
814.79	30973.48
814.97	30801.45
815.15	30973.48
815.33	30342.70
815.50	30156.34
815.68	30723.63
815.86	30596.65
816.04	30772.78
816.22	30443.06
816.40	30381.62
816.58	30127.67
816.76	30086.71
816.94	30412.34
817.11	30099.00
817.29	30271.03
817.47	30252.59
817.65	29855.29
817.83	30146.10
818.01	30105.14
818.19	29822.52
818.37	29994.55
818.54	29972.02
818.72	29787.71
818.90	29939.26
819.08	29787.71
819.26	29736.51
819.44	29331.01
819.62	29494.85
819.80	29505.09
819.97	29625.92
820.15	29257.28
820.33	29048.39
820.51	29509.18
820.69	28980.81
820.87	29093.44
821.05	29218.37
821.22	28816.97
821.40	29216.32
821.58	28972.61
821.76	28966.47
821.94	28724.81
822.12	28880.46
822.29	29468.22
822.47	28825.16
822.65	28788.30
822.83	29056.58
823.01	28862.02
823.19	28470.86
823.36	28616.27
823.54	28569.16
823.72	28563.02
823.90	28538.44
824.08	28378.70
824.25	28548.68
824.43	28425.81
824.61	28575.31
824.79	28296.78
824.97	28378.70
825.15	28286.54
825.32	28008.02
825.50	28427.85
825.68	27926.10
825.86	27987.54
826.04	28227.15
826.21	28032.60
826.39	27930.20
826.57	27690.59
826.75	27733.59
826.93	27729.50
827.10	27868.76
827.28	28126.80
827.46	27911.77
827.64	27637.34
827.81	27442.78
827.99	27512.41
828.17	27541.08
828.35	27268.70
828.53	27602.52
828.70	27393.63
828.88	27364.96
829.06	27211.36
829.24	27360.86
829.41	27326.05
829.59	27133.54
829.77	27260.51
829.95	27395.68
830.12	26863.21
830.30	27035.24
830.48	26926.69
830.66	27076.19
830.84	26955.36
831.01	26738.28
831.19	27180.64
831.37	26975.84
831.55	26975.84
831.72	26615.40
831.90	26996.32
832.08	26650.22
832.25	26697.32
832.43	26379.89
832.61	26773.10
832.79	26756.71
832.96	26513.00
833.14	26351.21
833.32	26300.01
833.50	26539.63
833.67	26265.20
833.85	26222.19
834.03	26248.82
834.20	26340.97
834.38	26291.82
834.56	26457.71
834.74	26103.41
834.91	26084.98
835.09	26232.43
835.27	26007.16
835.44	25943.67
835.62	25556.60
835.80	25749.11
835.98	25759.35
836.15	25765.49
836.33	25962.10
836.51	25964.15
836.68	25519.74
836.86	25654.90
837.04	25855.61
837.21	25671.29
837.39	25773.69
837.57	25835.13
837.75	25794.17
837.92	25409.15
838.10	25491.07
838.28	25255.55
838.45	25755.26
838.63	25409.15
838.81	25341.57
838.98	25161.34
839.16	25245.31
839.34	25271.93
839.51	25214.59
839.69	25013.89
839.87	25140.86
840.04	25011.84
840.22	25138.82
840.40	25220.74
840.57	24800.90
840.75	25147.01
840.93	24471.18
841.10	24882.82
841.28	25200.26
841.46	24694.41
841.63	24958.60
841.81	24888.96
841.98	24714.89
842.16	25083.52
842.34	25132.67
842.51	24630.92
842.69	24635.02
842.87	24524.43
843.04	24874.63
843.22	24243.85
843.40	24213.13
843.57	24573.58
843.75	24542.86
843.92	24448.65
844.10	24516.23
844.28	24530.57
844.45	24559.24
844.63	24465.03
844.81	24344.20
844.98	24559.24
845.16	24262.29
845.33	24370.83
845.51	24393.36
845.69	24053.39
845.86	24010.39
846.04	23918.23
846.21	23914.13
846.39	24041.11
846.57	23664.28
846.74	23926.42
846.92	23836.31
847.09	24024.72
847.27	23668.37
847.45	23846.55
847.62	24051.34
847.80	23969.43
847.97	23766.68
848.15	23889.56
848.32	23645.85
848.50	23680.66
848.68	23529.11
848.85	23459.48
849.03	23439.00
849.20	23240.35
849.38	23367.32
849.56	23414.43
849.73	23314.08
849.91	23287.45
850.08	23570.07
850.26	23082.66
850.43	23207.58
850.61	23174.81
850.78	23183.01
850.96	23064.22
851.14	22900.39
851.31	23027.36
851.49	23066.27
851.66	23242.40
851.84	22828.71
852.01	22937.25
852.19	23015.07
852.36	22931.11
852.54	22789.80
852.71	22611.62
852.89	23008.93
853.07	22531.75
853.24	22660.77
853.42	22781.60
853.59	22738.60
853.77	22791.84
853.94	22675.11
854.12	22742.69
854.29	22535.85
854.47	22795.94
854.64	22572.71
854.82	22650.53
854.99	22683.30
855.17	22570.66
855.34	22433.45
855.52	22646.44
855.69	22509.22
855.87	22265.52
856.04	22300.33
856.22	22472.36
856.39	22316.72
856.57	22218.41
856.74	22034.10
856.92	22281.90
857.09	21829.30
857.27	22134.45
857.44	22263.47
857.62	21976.75
857.79	21974.70
857.97	22054.58
858.14	22140.59
858.32	21907.12
858.49	22095.53
858.67	21903.03
858.84	21974.70
859.02	21442.23
859.19	21878.45
859.37	21728.95
859.54	21728.95
859.72	21753.52
859.89	21597.88
860.06	21751.48
860.24	21644.98
860.41	21753.52
860.59	21679.80
860.76	21667.51
860.94	21405.37
861.11	21468.86
861.29	21485.24
861.46	21370.55
861.64	21407.42
861.81	21102.27
861.98	21462.71
862.16	21075.65
862.33	21216.96
862.51	20934.34
862.68	21403.32
862.86	21180.09
863.03	21001.92
863.21	21292.73
863.38	21104.32
863.55	21001.92
863.73	21137.09
863.90	20784.83
864.08	20903.62
864.25	20782.79
864.43	20977.34
864.60	20580.04
864.77	20694.72
864.95	20715.20
865.12	20567.75
865.30	20723.40
865.47	20453.06
865.64	20833.99
865.82	20399.82
865.99	20836.03
866.17	20516.55
866.34	20428.49
866.51	20084.43
866.69	20590.28
866.86	20676.29
867.04	20430.54
867.21	20336.33
867.38	20287.18
867.56	20362.95
867.73	20303.56
867.91	20250.32
868.08	20127.44
868.25	19840.72
868.43	19799.76
868.60	19781.33
868.78	19908.30
868.95	20354.76
869.12	19861.20
869.30	19781.33
869.47	19943.12
869.64	19582.68
869.82	19877.58
869.99	19646.16
870.16	20096.72
870.34	19343.06
870.51	19924.69
870.69	19484.37
870.86	19594.96
871.03	19695.32
871.21	19519.19
871.38	19807.95
871.55	19447.51
871.73	19218.14
871.90	19566.29
872.07	19295.96
872.25	19338.97
872.42	19101.40
872.59	19351.26
872.77	19234.52
872.94	19095.26
873.11	19033.82
873.29	19150.56
873.46	19025.63
873.63	19109.60
873.81	19152.60
873.98	18763.49
874.15	19050.21
874.33	18552.55
874.50	18724.58
874.67	18702.05
874.85	18824.93
875.02	18745.06
875.19	18302.70
875.37	18507.49
875.54	18585.32
875.71	18695.91
875.88	18329.32
876.06	18282.22
876.23	18417.38
876.40	18116.33
876.58	18448.10
876.75	18308.84
876.92	18151.15
877.10	18329.32
877.27	18173.67
877.44	18022.12
877.61	17950.45
877.79	17950.45
877.96	18151.15
878.13	18247.40
878.31	17839.86
878.48	17860.34
878.65	17856.24
878.82	17864.43
879.00	17526.52
879.17	17659.63
879.34	17846.00
879.51	17706.74
879.69	17633.01
879.86	17573.62
880.03	17446.65
880.21	17434.36
880.38	17655.54
880.55	17731.31
880.72	17551.09
880.90	17532.66
881.07	17430.26
881.24	17336.06
881.41	17274.62
881.59	17483.51
881.76	17405.69
881.93	17215.23
882.10	17063.68
882.28	17260.28
882.45	17458.93
882.62	17123.07
882.79	17356.54
882.96	16858.88
883.14	17092.35
883.31	17354.49
883.48	16877.31
883.65	16959.23
883.83	17078.01
884.00	17053.44
884.17	16854.78
884.34	17078.01
884.51	16926.46
884.69	17008.38
884.86	16748.29
885.03	16944.89
885.20	16711.42
885.38	16664.32
885.55	16635.65
885.72	16672.51
885.89	16774.91
886.06	16666.37
886.24	16633.60
886.41	16445.19
886.58	16733.95
886.75	16916.22
886.92	16795.39
887.10	16551.68
887.27	16463.62
887.44	16246.54
887.61	16869.12
887.78	16809.73
887.95	16533.25
888.13	16361.22
888.30	16410.37
888.47	16355.08
888.64	16410.37
888.81	16402.18
888.99	16453.38
889.16	16387.85
889.33	16111.37
889.50	16193.29
889.67	16322.31
889.84	16121.61
890.01	16013.07
890.19	16230.15
890.36	16000.78
890.53	15927.05
890.70	16033.55
890.87	15890.19
891.04	15619.86
891.22	15838.99
891.39	15929.10
891.56	15675.15
891.73	15765.26
891.90	15593.23
892.07	15601.43
892.24	15574.80
892.42	15527.70
892.59	15673.10
892.76	15415.06
892.93	15419.16
893.10	15718.16
893.27	15542.03
893.44	15423.25
893.61	15589.14
893.79	15654.67
893.96	15644.43
894.13	15611.67
894.30	15576.85
894.47	15494.93
894.64	15666.96
894.81	15370.01
894.98	15533.84
895.15	15642.39
895.33	15437.59
895.50	15488.79
895.67	15443.73
895.84	15329.05
896.01	15380.25
896.18	15257.37
896.35	15408.92
896.52	15120.15
896.69	15255.32
896.86	15148.82
897.04	15283.99
897.21	15376.15
897.38	15437.59
897.55	15503.12
897.72	15310.61
897.89	15341.33
898.06	15318.81
898.23	15118.11
898.40	15275.80
898.57	15466.26
898.74	14991.13
898.91	15501.08
899.08	15191.83
899.26	15470.36
899.43	14987.04
899.60	15177.50
899.77	15183.64
899.94	15367.96
900.11	15068.95
900.28	15083.29
900.45	15148.82
900.62	15238.94
900.79	15167.26
900.96	15314.71
901.13	15132.44
901.30	15101.72
901.47	14898.97
901.64	14919.45
901.81	15228.70
901.98	15030.04
902.15	15238.94
902.32	15099.67
902.49	15165.21
902.66	15367.96
902.83	14962.46
903.01	15095.58
903.18	14919.45
903.35	15175.45
903.52	15036.19
903.69	15316.76
903.86	15120.15
904.03	15021.85
904.20	15134.49
904.37	14984.99
904.54	15206.17
904.71	14976.80
904.88	15337.24
905.05	14886.68
905.22	15261.46
905.39	15073.05
905.56	14980.89
905.73	14878.49
905.90	15042.33
906.07	15175.45
906.24	14886.68
906.41	14991.13
906.58	14935.84
906.75	15064.86
906.92	14866.21
907.09	15038.23
907.26	15154.97
907.43	14802.72
907.60	14917.40
907.77	15197.98
907.93	15048.47
908.10	14991.13
908.27	14974.75
908.44	14786.33
908.61	14667.55
908.78	14692.13
908.95	15146.78
909.12	15134.49
909.29	14815.01
909.46	15118.11
909.63	15060.76
909.80	14843.68
909.97	14931.74
910.14	14810.91
910.31	14819.10
910.48	14882.59
910.65	15056.67
910.82	14878.49
910.99	15015.71
911.16	14884.64
911.33	14733.09
911.50	14526.24
911.66	14473.00
911.83	14696.22
912.00	14608.16
912.17	14585.63
912.34	14618.40
912.51	14495.52
912.68	14528.29
912.85	14481.19
913.02	14634.78
913.19	14386.98
913.36	14366.50
913.53	14569.25
913.70	14315.30
913.86	14630.69
914.03	14585.63
914.20	14208.81
914.37	14231.33
914.54	14452.52
914.71	14333.73
914.88	14393.12
915.05	14274.34
915.22	14094.12
915.39	14227.24
915.55	14049.07
915.72	14071.59
915.89	14346.02
916.06	13940.52
916.23	14032.68
916.40	13807.41
916.57	13668.14
916.74	13694.77
916.91	13793.07
917.07	13707.05
917.24	13864.75
917.41	13494.07
917.58	13854.51
917.75	13590.32
917.92	13610.80
918.09	13752.11
918.26	13717.29
918.42	13518.64
918.59	13600.56
918.76	13266.74
918.93	13264.69
919.10	13276.98
919.27	13193.01
919.44	13444.91
919.60	13408.05
919.77	13045.56
919.94	13168.44
920.11	13168.44
920.28	13125.43
920.45	13010.75
920.61	13057.85
920.78	13066.04
920.95	12920.63
921.12	12844.86
921.29	12865.34
921.46	12750.65
921.62	12781.37
921.79	12654.40
921.96	12697.41
922.13	12812.09
922.30	12549.95
922.47	12607.30
922.63	12592.96
922.80	12629.82
922.97	12494.66
923.14	12238.66
923.31	12359.49
923.47	12216.13
923.64	12592.96
923.81	12089.16
923.98	12267.33
924.15	12099.40
924.32	12136.26
924.48	12005.19
924.65	12199.75
924.82	11829.07
924.99	11798.35
925.15	11730.76
925.32	11861.84
925.49	11652.94
925.66	11710.29
925.83	11784.01
925.99	11667.28
926.16	11622.22
926.33	11698.00
926.50	11435.86
926.67	11362.13
926.83	11407.19
927.00	11327.32
927.17	11321.17
927.34	11188.05
927.50	11190.10
927.67	11403.09
927.84	11112.28
928.01	11274.07
928.17	11044.70
928.34	11075.42
928.51	11087.70
928.68	10622.81
928.84	10915.67
929.01	10921.82
929.18	10819.42
929.35	10782.56
929.51	10504.03
929.68	10555.23
929.85	10608.48
930.02	10628.96
930.18	10534.75
930.35	10418.02
930.52	10501.98
930.69	10561.37
930.85	10516.32
931.02	10243.94
931.19	10313.57
931.36	10248.04
931.52	10231.65
931.69	10135.40
931.86	10110.82
932.02	10123.11
932.19	10067.81
932.36	9969.51
932.53	10008.42
932.69	9858.92
932.86	10018.66
933.03	9877.35
933.19	9707.37
933.36	9633.64
933.53	9852.78
933.70	9766.76
933.86	9430.90
934.03	9504.62
934.20	9334.64
934.36	9463.66
934.53	9199.48
934.70	9170.80
934.86	9398.13
935.03	9166.71
935.20	9047.93
935.36	8892.28
935.53	8785.79
935.70	8994.68
935.86	8761.21
936.03	8640.38
936.20	8634.24
936.36	8578.94
936.53	8523.65
936.70	8368.00
936.86	8478.59
937.03	8507.26
937.20	8275.84
937.36	8220.55
937.53	8054.66
937.70	7944.07
937.86	7835.53
938.03	7810.95
938.20	7915.40
938.36	7442.32
938.53	7876.49
938.70	7470.99
938.86	7393.17
939.03	7317.39
939.20	7245.71
939.36	7290.77
939.53	7354.26
939.70	7374.74
939.86	6846.36
940.03	7069.59
940.19	6860.70
940.36	6915.99
940.53	6819.74
940.69	6666.14
940.86	6688.67
941.03	6541.21
941.19	6461.34
941.36	6320.03
941.52	6209.44
941.69	6277.02
941.86	6205.35
942.02	6143.91
942.19	6217.63
942.35	6123.43
942.52	6051.75
942.69	5961.64
942.85	5943.21
943.02	5941.16
943.18	5887.91
943.35	5767.08
943.52	5674.92
943.68	5640.11
943.85	5621.67
944.01	5588.91
944.18	5517.23
944.35	5535.66
944.51	5445.55
944.68	5441.45
944.84	5513.13
945.01	5369.77
945.17	5476.27
945.34	5398.45
945.51	5334.96
945.67	5287.86
945.84	5375.92
946.00	5355.44
946.17	5318.57
946.33	5328.81
946.50	5453.74
946.67	5351.34
946.83	5253.04
947.00	5412.78
947.16	5287.86
947.33	5355.44
947.49	5310.38
947.66	5185.46
947.82	5289.90
947.99	5257.14
948.16	5230.51
948.32	5289.90
948.49	5433.26
948.65	5332.91
948.82	5093.30
948.98	5259.18
949.15	5273.52
949.31	5263.28
949.48	5289.90
949.64	5257.14
949.81	5271.47
949.97	5187.50
950.14	5253.04
950.30	5269.42
950.47	5377.97
950.63	5308.34
950.80	5351.34
950.96	5267.38
951.13	5459.88
951.30	5261.23
951.46	5283.76
951.63	5351.34
951.79	5298.10
951.96	5418.93
952.12	5269.42
952.29	5386.16
952.45	5316.53
952.62	5337.01
952.78	5388.21
952.94	5466.03
953.11	5320.62
953.27	5140.40
953.44	5484.46
953.60	5322.67
953.77	5363.63
953.93	5392.30
954.10	5445.55
954.26	5420.97
954.43	5269.42
954.59	5531.56
954.76	5418.93
954.92	5529.52
955.09	5496.75
955.25	5371.82
955.42	5443.50
955.58	5490.60
955.75	5445.55
955.91	5402.54
956.07	5427.12
956.24	5459.88
956.40	5605.29
956.57	5412.78
956.73	5392.30
956.90	5517.23
957.06	5380.01
957.23	5310.38
957.39	5351.34
957.56	5367.73
957.72	5216.18
957.88	5312.43
958.05	5636.01
958.21	5570.48
958.38	5496.75
958.54	5318.57
958.71	5621.67
958.87	5455.79
959.03	5386.16
959.20	5314.48
959.36	5326.77
959.53	5394.35
959.69	5410.73
959.85	5461.93
960.02	5369.77
960.18	5416.88
960.35	5533.61
960.51	5451.69
960.68	5316.53
960.84	5492.65
961.00	5353.39
961.17	5283.76
961.33	5466.03
961.50	5453.74
961.66	5506.99
961.82	5281.71
961.99	5515.18
962.15	5494.70
962.31	5425.07
962.48	5492.65
962.64	5445.55
962.81	5482.41
962.97	5384.11
963.13	5457.84
963.30	5402.54
963.46	5214.13
963.62	5367.73
963.79	5304.24
963.95	5279.66
964.12	5365.68
964.28	5437.36
964.44	5242.80
964.61	5275.57
964.77	5445.55
964.93	5345.20
965.10	5310.38
965.26	5371.82
965.42	5138.35
965.59	5261.23
965.75	5126.07
965.92	5318.57
966.08	5179.31
966.24	5275.57
966.41	5248.94
966.57	5343.15
966.73	5404.59
966.90	5357.49
967.06	5244.85
967.22	5271.47
967.39	5169.07
967.55	5134.26
967.71	5201.84
967.88	5216.18
968.04	5134.26
968.20	5115.83
968.37	5031.86
968.53	5019.57
968.69	5267.38
968.85	5152.69
969.02	5236.66
969.18	5259.18
969.34	5238.70
969.51	5189.55
969.67	5187.50
969.83	5038.00
970.00	5238.70
970.16	5042.10
970.32	5068.72
970.48	5207.98
970.65	4900.79
970.81	4908.98
970.97	5136.31
971.14	4970.42
971.30	5033.91
971.46	5091.25
971.63	5048.24
971.79	5003.19
971.95	4937.65
972.11	4911.03
972.28	4980.66
972.44	4972.47
972.60	4827.06
972.76	4861.88
972.93	4962.23
973.09	4925.36
973.25	4915.12
973.42	4779.96
973.58	4984.76
973.74	4845.49
973.90	4966.32
974.07	4798.39
974.23	4917.17
974.39	4782.01
974.55	4941.75
974.72	4812.73
974.88	4775.86
975.04	4890.55
975.20	4865.97
975.37	4771.77
975.53	4788.15
975.69	4911.03
975.85	4757.43
976.01	4736.95
976.18	4800.44
976.34	4650.94
976.50	4700.09
976.66	4820.92
976.83	4661.18
976.99	4757.43
977.15	4712.38
977.31	4579.26
977.47	4648.89
977.64	4550.59
977.80	4566.97
977.96	4573.11
978.12	4523.96
978.29	4462.52
978.45	4523.96
978.61	4558.78
978.77	4585.40
978.93	4452.28
979.10	4446.14
979.26	4521.92
979.42	4540.35
979.58	4302.78
979.74	4499.39
979.91	4540.35
980.07	4347.84
980.23	4517.82
980.39	4411.32
980.55	4403.13
980.71	4480.96
980.88	4534.20
981.04	4298.69
981.20	4419.52
981.36	4483.00
981.52	4419.52
981.68	4358.08
981.85	4435.90
982.01	4198.34
982.17	4288.45
982.33	4323.26
982.49	4401.08
982.65	4261.82
982.82	4255.68
982.98	4263.87
983.14	4313.02
983.30	4206.53
983.46	4302.78
983.62	4372.41
983.79	4132.80
983.95	4169.66
984.11	4065.22
984.27	4276.16
984.43	4263.87
984.59	4104.13
984.75	4147.14
984.91	4138.94
985.08	4272.06
985.24	4097.99
985.40	4042.69
985.56	4173.76
985.72	4065.22
985.88	4177.86
986.04	4083.65
986.20	3975.11
986.37	4007.87
986.53	4003.78
986.69	4018.11
986.85	3938.24
987.01	3985.35
987.17	4081.60
987.33	4095.94
987.49	3893.19
987.65	4007.87
987.82	3928.00
987.98	3895.24
988.14	3788.74
988.30	4001.73
988.46	3932.10
988.62	3999.68
988.78	3786.69
988.94	3928.00
989.10	3858.37
989.26	3846.09
989.42	3780.55
989.59	3741.64
989.75	3801.03
989.91	3837.89
990.07	3776.45
990.23	3737.54
990.39	3788.74
990.55	3831.75
990.71	3712.97
990.87	3882.95
991.03	3846.09
991.19	3688.39
991.35	3772.36
991.51	3809.22
991.67	3790.79
991.83	3753.93
992.00	3739.59
992.16	3780.55
992.32	3702.73
992.48	3721.16
992.64	3672.01
992.80	3751.88
992.96	3583.95
993.12	3637.19
993.28	3663.82
993.44	3641.29
993.60	3522.51
993.76	3563.47
993.92	3545.03
994.08	3672.01
994.24	3651.53
994.40	3653.58
994.56	3643.34
994.72	3600.33
994.88	3502.03
995.04	3499.98
995.20	3581.90
995.36	3510.22
995.52	3426.25
995.68	3452.88
995.84	3508.17
996.00	3719.11
996.16	3491.79
996.32	3444.68
996.48	3442.64
996.64	3489.74
996.80	3375.05
996.96	3502.03
997.12	3485.64
997.28	3428.30
997.44	3307.47
997.60	3514.31
997.76	3350.48
997.92	3305.42
998.08	3268.56
998.24	3311.57
998.40	3401.68
998.56	3313.61
998.72	3231.69
998.88	3325.90
999.04	3231.69
999.20	3393.48
999.36	3311.57
999.52	3397.58
999.68	3266.51
999.84	3319.76
1000.00	3354.57
1000.16	3327.95
1000.32	3239.89
1000.48	3426.25
1000.64	3174.35
1000.80	3180.50
1000.95	3155.92
1001.11	3223.50
1001.27	3145.68
1001.43	3223.50
1001.59	3135.44
1001.75	3170.26
1001.91	3200.98
1002.07	3006.42
1002.23	3131.34
1002.39	3102.67
1002.55	3100.62
1002.71	3123.15
1002.87	3065.81
1003.03	3076.05
1003.19	2957.27
1003.34	3151.82
1003.50	3035.09
1003.66	3133.39
1003.82	3149.78
1003.98	2975.70
1004.14	3100.62
1004.30	3035.09
1004.46	3008.47
1004.62	3028.95
1004.78	3065.81
1004.94	2992.08
1005.09	3014.61
1005.25	2977.75
1005.41	2983.89
1005.57	3037.14
1005.73	3035.09
1005.89	2957.27
1006.05	2906.07
1006.21	3004.37
1006.37	2777.05
1006.52	2877.40
1006.68	2854.87
1006.84	2998.23
1007.00	2869.20
1007.16	2885.59
1007.32	2904.02
1007.48	2928.60
1007.64	2938.84
1007.79	2936.79
1007.95	2842.58
1008.11	2961.36
1008.27	2813.91
1008.43	2875.35
1008.59	2768.85
1008.75	2871.25
1008.91	2758.61
1009.06	2789.33
1009.22	2854.87
1009.38	2748.37
1009.54	2770.90
1009.70	2711.51
1009.86	2797.53
1010.01	2838.48
1010.17	2697.17
1010.33	2861.01
1010.49	2725.85
1010.65	2871.25
1010.81	2650.07
1010.96	2729.94
1011.12	2588.63
1011.28	2656.22
1011.44	2865.11
1011.60	2748.37
1011.76	2654.17
1011.91	2699.22
1012.07	2727.89
1012.23	2639.83
1012.39	2682.84
1012.55	2555.86
1012.71	2648.02
1012.86	2625.50
1013.02	2586.58
1013.18	2678.74
1013.34	2738.13
1013.50	2731.99
1013.65	2549.72
1013.81	2625.50
1013.97	2510.81
1014.13	2555.86
1014.29	2531.29
1014.44	2703.32
1014.60	2559.96
1014.76	2641.88
1014.92	2521.05
1015.07	2615.26
1015.23	2508.76
1015.39	2465.75
1015.55	2482.14
1015.71	2533.34
1015.86	2502.62
1016.02	2441.18
1016.18	2437.08
1016.34	2525.15
1016.49	2469.85
1016.65	2555.86
1016.81	2349.02
1016.97	2492.38
1017.12	2535.39
1017.28	2416.60
1017.44	2480.09
1017.60	2432.99
1017.75	2453.47
1017.91	2502.62
1018.07	2496.47
1018.23	2312.16
1018.38	2402.27
1018.54	2461.66
1018.70	2508.76
1018.86	2410.46
1019.01	2338.78
1019.17	2371.55
1019.33	2562.01
1019.49	2402.27
1019.64	2402.27
1019.80	2426.84
1019.96	2467.80
1020.12	2412.51
1020.27	2338.78
1020.43	2478.04
1020.59	2320.35
1020.74	2340.83
1020.90	2398.17
1021.06	2215.90
1021.22	2277.34
1021.37	2322.40
1021.53	2310.11
1021.69	2248.67
1021.84	2217.95
1022.00	2338.78
1022.16	2328.54
1022.31	2422.75
1022.47	2306.01
1022.63	2400.22
1022.79	2170.85
1022.94	2353.12
1023.10	2430.94
1023.26	2306.01
1023.41	2197.47
1023.57	2248.67
1023.73	2357.21
1023.88	2297.82
1024.04	2189.28
1024.20	2226.14
1024.35	2287.58
1024.51	2297.82
1024.67	2195.42
1024.82	2232.29
1024.98	2181.09
1025.14	2197.47
1025.29	2220.00
1025.45	2246.62
1025.61	2187.23
1025.76	2252.77
1025.92	2146.27
1026.08	2287.58
1026.23	2232.29
1026.39	2273.25
1026.55	2119.65
1026.70	2109.41
1026.86	2117.60
1027.02	2250.72
1027.17	2275.29
1027.33	2205.66
1027.48	2154.46
1027.64	2111.46
1027.80	2107.36
1027.95	2205.66
1028.11	2045.92
1028.27	2142.18
1028.42	2154.46
1028.58	2070.50
1028.73	2054.11
1028.89	2133.98
1029.05	2172.89
1029.20	2156.51
>>>>>End Processed Spectral Data<<<<<
