SpectraSuite Data File
++++++++++++++++++++++++++++++++++++
Date: Fri Jun 02 14:49:30 CEST 2017
User: INFO_000
Dark Spectrum Present: No
Reference Spectrum Present: No
Number of Sampled Component Spectra: 1
Spectrometers: USB4H00879
Integration Time (usec): 80000 (USB4H00879)
Spectra Averaged: 1 (USB4H00879)
Boxcar Smoothing: 0 (USB4H00879)
Correct for Electrical Dark: No (USB4H00879)
Strobe/Lamp Enabled: No (USB4H00879)
Correct for Detector Non-linearity: No (USB4H00879)
Correct for Stray Light: No (USB4H00879)
Number of Pixels in Processed Spectrum: 3648
>>>>>Begin Processed Spectral Data<<<<<
345.13	1339.37
345.34	1339.37
345.56	1339.37
345.78	1243.12
345.99	1314.80
346.21	1689.57
346.42	1624.04
346.64	1605.61
346.86	1818.60
347.07	1703.91
347.29	1722.34
347.50	1718.25
347.72	1691.62
347.94	1730.53
348.15	1605.61
348.37	1654.76
348.59	1738.73
348.80	1673.19
349.02	1769.44
349.23	1837.03
349.45	1882.08
349.67	1896.42
349.88	1822.69
350.10	1949.67
350.31	1834.98
350.53	1867.75
350.75	1937.38
350.96	1755.11
351.18	1814.50
351.39	1937.38
351.61	1771.49
351.82	1914.85
352.04	1994.72
352.26	1789.92
352.47	1822.69
352.69	1904.61
352.90	1730.53
353.12	1853.41
353.34	1824.74
353.55	1884.13
353.77	1888.23
353.98	1888.23
354.20	1824.74
354.41	1845.22
354.63	2037.73
354.85	2037.73
355.06	1918.95
355.28	1771.49
355.49	1945.57
355.71	1902.56
355.92	1798.12
356.14	1974.24
356.35	1867.75
356.57	1904.61
356.79	1937.38
357.00	1853.41
357.22	1931.23
357.43	1873.89
357.65	1910.75
357.86	1845.22
358.08	1871.84
358.29	1902.56
358.51	1984.48
358.72	1908.71
358.94	1873.89
359.16	1843.17
359.37	1996.77
359.59	1966.05
359.80	1982.43
360.02	1964.00
360.23	1923.04
360.45	1920.99
360.66	2013.15
360.88	1875.94
361.09	1939.43
361.31	1929.19
361.52	1908.71
361.74	1992.67
361.95	2090.98
362.17	1968.10
362.38	2025.44
362.60	2031.58
362.81	1945.57
363.03	1894.37
363.24	1976.29
363.46	2054.11
363.67	1984.48
363.89	2013.15
364.10	2031.58
364.32	1927.14
364.53	2070.50
364.75	1892.32
364.96	2011.11
365.18	2039.78
365.39	1992.67
365.61	2009.06
365.82	2068.45
366.04	1972.19
366.25	1949.67
366.47	1947.62
366.68	2066.40
366.90	1933.28
367.11	2066.40
367.33	2066.40
367.54	1986.53
367.76	2035.68
367.97	2105.31
368.19	2041.82
368.40	2170.85
368.62	1914.85
368.83	2031.58
369.05	2047.97
369.26	1968.10
369.48	2033.63
369.69	2129.89
369.91	2029.54
370.12	1935.33
370.33	2076.64
370.55	1974.24
370.76	2050.02
370.98	2076.64
371.19	1990.63
371.41	2041.82
371.62	2009.06
371.84	2015.20
372.05	2131.94
372.27	1968.10
372.48	2060.26
372.69	2099.17
372.91	2103.26
373.12	2244.57
373.34	2086.88
373.55	2140.13
373.77	2162.66
373.98	2060.26
374.20	2193.37
374.41	2279.39
374.62	2148.32
374.84	2158.56
375.05	2213.85
375.27	2283.49
375.48	2156.51
375.70	2142.18
375.91	2265.05
376.12	2197.47
376.34	2117.60
376.55	2230.24
376.77	2267.10
376.98	2109.41
377.19	2154.46
377.41	2115.55
377.62	2260.96
377.84	2176.99
378.05	2265.05
378.27	2197.47
378.48	2291.68
378.69	2410.46
378.91	2301.92
379.12	2207.71
379.34	2172.89
379.55	2248.67
379.76	2312.16
379.98	2273.25
380.19	2168.80
380.41	2183.13
380.62	2303.96
380.83	2205.66
381.05	2174.94
381.26	2342.88
381.47	2312.16
381.69	2213.85
381.90	2439.13
382.12	2281.44
382.33	2242.53
382.54	2295.77
382.76	2320.35
382.97	2289.63
383.19	2211.81
383.40	2426.84
383.61	2332.64
383.83	2242.53
384.04	2285.53
384.25	2281.44
384.47	2363.36
384.68	2285.53
384.89	2256.86
385.11	2299.87
385.32	2387.93
385.54	2310.11
385.75	2383.84
385.96	2441.18
386.18	2353.12
386.39	2432.99
386.60	2373.60
386.82	2412.51
387.03	2359.26
387.24	2535.39
387.46	2312.16
387.67	2467.80
387.88	2551.77
388.10	2490.33
388.31	2453.47
388.52	2531.29
388.74	2445.27
388.95	2490.33
389.16	2502.62
389.38	2439.13
389.59	2568.15
389.80	2643.93
390.02	2547.67
390.23	2645.98
390.44	2432.99
390.66	2590.68
390.87	2437.08
391.08	2514.91
391.30	2666.46
391.51	2635.74
391.72	2691.03
391.94	2586.58
392.15	2590.68
392.36	2621.40
392.58	2475.99
392.79	2723.80
393.00	2662.36
393.22	2742.23
393.43	2719.70
393.64	2844.63
393.85	2719.70
394.07	2670.55
394.28	2609.11
394.49	2699.22
394.71	2713.56
394.92	2836.44
395.13	2619.35
395.35	2719.70
395.56	2678.74
395.77	2801.62
395.98	2858.96
396.20	2856.92
396.41	2836.44
396.62	2877.40
396.84	2805.72
397.05	2936.79
397.26	2789.33
397.47	2879.44
397.69	2803.67
397.90	2873.30
398.11	2934.74
398.32	2867.16
398.54	2824.15
398.75	2908.12
398.96	2858.96
399.18	2994.13
399.39	2975.70
399.60	2985.94
399.81	2934.74
400.03	2869.20
400.24	3276.75
400.45	2928.60
400.66	3010.51
400.88	3047.38
401.09	3164.11
401.30	3057.62
401.51	3168.21
401.73	3121.10
401.94	3135.44
402.15	3114.96
402.36	3194.83
402.58	3203.02
402.79	3203.02
403.00	3055.57
403.21	3237.84
403.43	3139.54
403.64	3278.80
403.85	3110.86
404.06	3264.46
404.27	3076.05
404.49	3254.22
404.70	3223.50
404.91	3272.65
405.12	3164.11
405.34	3198.93
405.55	3422.16
405.76	3211.22
405.97	3182.54
406.19	3321.81
406.40	3270.61
406.61	3368.91
406.82	3401.68
407.03	3229.65
407.25	3293.13
407.46	3432.40
407.67	3368.91
407.88	3547.08
408.09	3330.00
408.31	3346.38
408.52	3364.81
408.73	3436.49
408.94	3381.20
409.15	3489.74
409.37	3590.09
409.58	3516.36
409.79	3487.69
410.00	3522.51
410.21	3332.05
410.43	3536.84
410.64	3493.83
410.85	3461.07
411.06	3540.94
411.27	3559.37
411.48	3565.51
411.70	3573.71
411.91	3573.71
412.12	3645.38
412.33	3514.31
412.54	3518.41
412.76	3684.30
412.97	3682.25
413.18	3540.94
413.39	3672.01
413.60	3704.78
413.81	3690.44
414.03	3540.94
414.24	3698.63
414.45	3839.94
414.66	3563.47
414.87	3792.84
415.08	3647.43
415.30	3649.48
415.51	3725.26
415.72	3772.36
415.93	3674.06
416.14	3872.71
416.35	3854.28
416.56	3764.17
416.78	3833.80
416.99	3796.93
417.20	3870.66
417.41	3837.89
417.62	3887.04
417.83	3993.54
418.04	3911.62
418.26	3844.04
418.47	3907.52
418.68	4042.69
418.89	3987.40
419.10	4134.85
419.31	3829.70
419.52	4050.88
419.73	3854.28
419.95	4124.61
420.16	3885.00
420.37	3936.20
420.58	4153.28
420.79	3839.94
421.00	4052.93
421.21	4100.03
421.42	3946.44
421.63	4181.95
421.85	4126.66
422.06	4104.13
422.27	4255.68
422.48	4235.20
422.69	4261.82
422.90	4222.91
423.11	4212.67
423.32	4161.47
423.53	4235.20
423.75	4368.32
423.96	4378.56
424.17	4351.93
424.38	4386.75
424.59	4358.08
424.80	4562.87
425.01	4419.52
425.22	4415.42
425.43	4435.90
425.64	4573.11
425.85	4607.93
426.06	4503.48
426.28	4415.42
426.49	4478.91
426.70	4544.44
426.91	4544.44
427.12	4665.27
427.33	4554.68
427.54	4591.55
427.75	4693.94
427.96	4833.21
428.17	4714.42
428.38	4712.38
428.59	4743.10
428.80	4751.29
429.01	4968.37
429.23	4880.31
429.44	4945.84
429.65	4829.11
429.86	4933.56
430.07	4769.72
430.28	4806.58
430.49	4945.84
430.70	5132.21
430.91	5093.30
431.12	4951.99
431.33	5101.49
431.54	5076.91
431.75	5121.97
431.96	5101.49
432.17	5042.10
432.38	5169.07
432.59	5365.68
432.80	5201.84
433.01	5216.18
433.22	5236.66
433.43	5257.14
433.64	5257.14
433.85	5144.50
434.06	5429.17
434.27	5189.55
434.49	5484.46
434.70	5537.71
434.91	5408.69
435.12	5410.73
435.33	5410.73
435.54	5492.65
435.75	5367.73
435.96	5443.50
436.17	5357.49
436.38	5681.07
436.59	5545.90
436.80	5480.36
437.01	5775.27
437.22	5672.87
437.43	5537.71
437.64	5443.50
437.85	5640.11
438.06	5820.33
438.27	5652.39
438.48	5713.83
438.69	5842.85
438.90	5619.63
439.11	5705.64
439.32	5916.58
439.53	5783.46
439.74	5810.09
439.95	5980.07
440.16	5820.33
440.37	5996.45
440.57	5838.76
440.78	6090.66
440.99	6023.08
441.20	5912.49
441.41	5857.19
441.62	5928.87
441.83	5926.82
442.04	6090.66
442.25	6121.38
442.46	6064.04
442.67	6197.15
442.88	6408.09
443.09	6008.74
443.30	6102.95
443.51	6129.57
443.72	6326.18
443.93	6211.49
444.14	6385.57
444.35	6274.98
444.56	6262.69
444.77	6334.37
444.98	6330.27
445.19	6381.47
445.40	6299.55
445.61	6447.01
445.81	6582.17
446.02	6498.20
446.23	6338.46
446.44	6377.37
446.65	6453.15
446.86	6557.60
447.07	6662.04
447.28	6707.10
447.49	6647.71
447.70	6438.81
447.91	6772.63
448.12	6625.18
448.33	6760.34
448.54	6918.04
448.74	6635.42
448.95	6854.55
449.16	6649.75
449.37	7116.69
449.58	6789.02
449.79	7075.73
450.00	6844.31
450.21	6940.57
450.42	7143.32
450.63	6887.32
450.84	7004.05
451.05	7026.58
451.25	6971.29
451.46	7016.34
451.67	7317.39
451.88	7227.28
452.09	7131.03
452.30	7245.71
452.51	7133.08
452.72	7266.19
452.93	7565.20
453.13	7221.14
453.34	7040.92
453.55	7333.78
453.76	7446.41
453.97	7731.08
454.18	7491.47
454.39	7569.29
454.60	7507.85
454.81	7341.97
455.01	7704.46
455.22	7331.73
455.43	7557.00
455.64	7944.07
455.85	7823.24
456.06	7919.50
456.27	7739.27
456.48	7763.85
456.68	7679.88
456.89	7901.06
457.10	8019.85
457.31	7976.84
457.52	7899.02
457.73	8095.62
457.94	8376.19
458.14	7946.12
458.35	8380.29
458.56	8069.00
458.77	7980.93
458.98	8378.24
459.19	8324.99
459.39	8439.68
459.60	8361.86
459.81	8433.54
460.02	8576.89
460.23	8542.08
460.44	8724.35
460.65	8685.44
460.85	8525.69
461.06	8605.56
461.27	8445.82
461.48	8701.82
461.69	9043.83
461.89	8595.32
462.10	8963.96
462.31	8583.04
462.52	8744.83
462.73	8900.47
462.94	9099.13
463.14	9092.98
463.35	8974.20
463.56	9492.34
463.77	9070.45
463.98	9181.04
464.18	9013.11
464.39	9265.01
464.60	9543.53
464.81	9437.04
465.02	9215.86
465.23	9494.38
465.43	9303.92
465.64	9623.41
465.85	9568.11
466.06	9660.27
466.27	9992.04
466.47	9942.89
466.68	9887.59
466.89	9994.09
467.10	10153.83
467.30	9822.06
467.51	9996.14
467.72	10194.79
467.93	9979.75
468.14	10426.21
468.34	10508.13
468.55	10303.33
468.76	10366.82
468.97	10346.34
469.17	10575.71
469.38	10588.00
469.59	10860.38
469.80	10571.61
470.01	10653.53
470.21	10671.97
470.42	10843.99
470.63	11110.23
470.84	10825.56
471.04	10942.30
471.25	11388.75
471.46	11032.41
471.67	11370.32
471.87	11235.16
472.08	11433.81
472.29	11800.40
472.50	11132.76
472.70	11386.71
472.91	11603.79
473.12	11759.44
473.33	11888.46
473.53	12126.02
473.74	11880.27
473.95	12035.91
474.16	12412.74
474.36	12300.10
474.57	12361.54
474.78	12379.97
474.99	12488.51
475.19	12402.50
475.40	12779.32
475.61	12906.30
475.81	13084.47
476.02	13129.53
476.23	13035.32
476.44	13127.48
476.64	13055.80
476.85	13502.26
477.06	13338.42
477.27	13588.27
477.47	13668.14
477.68	13688.62
477.89	13918.00
478.09	13926.19
478.30	13889.32
478.51	14044.97
478.71	14069.55
478.92	14133.03
479.13	14282.53
479.34	14540.58
479.54	14473.00
479.75	14386.98
479.96	14380.84
480.16	14655.26
480.37	14741.28
480.58	14970.65
480.78	15204.12
480.99	15048.47
481.20	15187.74
481.41	15206.17
481.61	15496.98
481.82	15705.87
482.03	15648.53
482.23	15546.13
482.44	15580.95
482.65	15929.10
482.85	15961.87
483.06	16090.89
483.27	15974.16
483.47	15867.66
483.68	16240.39
483.89	16242.44
484.09	16484.10
484.30	16649.99
484.51	16844.54
484.71	16709.38
484.92	16787.20
485.13	16869.12
485.33	17098.49
485.54	17041.15
485.75	17508.08
485.95	17387.25
486.16	17442.55
486.37	17616.63
486.57	17669.87
486.78	17759.98
486.98	17688.31
487.19	18034.41
487.40	17848.05
487.60	18089.71
487.81	18357.99
488.02	18202.35
488.22	18122.48
488.43	18480.87
488.64	18487.01
488.84	18771.68
489.05	18759.39
489.25	18390.76
489.46	18872.03
489.67	19011.29
489.87	19076.83
490.08	19228.38
490.29	19144.41
490.49	19592.92
490.70	19314.39
490.90	19640.02
491.11	19177.18
491.32	19844.82
491.52	19562.20
491.73	19740.37
491.94	20111.05
492.14	20027.09
492.35	20305.61
492.55	20149.96
492.76	20500.17
492.97	20680.39
493.17	20405.96
493.38	20510.41
493.58	20842.18
493.79	20876.99
494.00	20844.23
494.20	20999.87
494.41	20883.14
494.61	21294.78
494.82	21264.06
495.02	21219.00
495.23	21452.47
495.44	21403.32
495.64	21634.74
495.85	21581.49
496.05	21507.77
496.26	21446.33
496.47	21829.30
496.67	21894.83
496.88	22171.31
497.08	21868.21
497.29	22183.60
497.49	22138.54
497.70	22482.60
497.91	22175.41
498.11	22636.20
498.32	22621.86
498.52	22666.92
498.73	22927.01
498.93	22761.12
499.14	22957.73
499.34	23021.22
499.55	23160.48
499.76	22773.41
499.96	23264.92
500.17	23209.63
500.37	23103.14
500.58	23127.71
500.78	23314.08
500.99	23453.34
501.19	23813.78
501.40	23484.06
501.60	23408.28
501.81	23701.14
502.02	23801.49
502.22	23815.83
502.43	23748.25
502.63	24172.18
502.84	24188.56
503.04	23979.67
503.25	24307.34
503.45	24264.33
503.66	24237.71
503.86	24403.60
504.07	24288.91
504.27	24094.35
504.48	24450.70
504.68	24534.67
504.89	24716.93
505.09	24856.20
505.30	24786.57
505.50	24864.39
505.71	24770.18
505.91	24911.49
506.12	24987.27
506.32	24997.51
506.53	25159.30
506.73	24966.79
506.94	25015.94
507.14	25009.79
507.35	25208.45
507.55	25462.40
507.76	25298.56
507.96	25386.62
508.17	25446.01
508.37	25656.95
508.58	25419.39
508.78	25726.58
508.99	25955.96
509.19	25876.09
509.40	25630.33
509.60	25710.20
509.81	25874.04
510.01	25855.61
510.22	25853.56
510.42	26099.31
510.63	26437.23
510.83	26109.55
511.04	26166.90
511.24	26216.05
511.44	26265.20
511.65	26472.04
511.85	26418.80
512.06	26615.40
512.26	26304.11
512.47	26629.74
512.67	26682.98
512.88	26783.34
513.08	26474.09
513.29	26728.04
513.49	26633.83
513.69	26773.10
513.90	26846.82
514.10	26852.97
514.31	27068.00
514.51	26930.79
514.72	26846.82
514.92	26957.41
515.13	27139.68
515.33	27360.86
515.53	27278.94
515.74	27311.71
515.94	27510.36
516.15	27319.90
516.35	27076.19
516.56	27346.53
516.76	27723.35
516.96	27553.37
517.17	27747.93
517.37	27739.74
517.58	28061.27
517.78	27676.25
517.99	27745.88
518.19	28112.47
518.39	28186.19
518.60	28132.95
518.80	28018.26
519.01	28192.34
519.21	28161.62
519.41	28098.13
519.62	28255.82
519.82	28335.70
520.03	28614.22
520.23	28833.35
520.43	28747.34
520.64	29058.63
520.84	28933.70
521.05	28866.12
521.25	29126.21
521.45	29263.43
521.66	29544.00
521.86	29105.73
522.07	29113.92
522.27	29324.86
522.47	29509.18
522.68	29910.58
522.88	29292.10
523.08	29632.06
523.29	29720.12
523.49	29976.12
523.70	29953.59
523.90	29939.26
524.10	29691.45
524.31	30248.50
524.51	30037.56
524.71	30570.03
524.92	30254.64
525.12	30311.99
525.33	30449.20
525.53	30621.23
525.73	30969.38
525.94	30907.94
526.14	30914.09
526.34	30686.76
526.55	31252.00
526.75	31188.52
526.95	31454.75
527.16	31366.69
527.36	31184.42
527.56	31669.79
527.77	31909.40
527.97	31610.40
528.17	31559.20
528.38	31622.69
528.58	31872.54
528.78	31927.83
528.99	32028.18
529.19	32157.21
529.39	32093.72
529.60	32435.73
529.80	32292.37
530.00	32261.65
530.21	32484.88
530.41	32771.60
530.61	32714.25
530.82	32615.95
531.02	32757.26
531.22	33273.35
531.43	32953.87
531.63	33496.58
531.83	33336.84
532.04	33584.64
532.24	33201.67
532.44	34012.66
532.64	33828.35
532.85	33881.60
533.05	34065.91
533.25	33801.72
533.46	33617.41
533.66	34473.46
533.86	34313.72
534.07	34866.67
534.27	34450.93
534.47	34467.31
534.67	35282.41
534.88	34768.37
535.08	35261.93
535.28	35132.90
535.49	35296.74
535.69	35831.26
535.89	35395.04
536.09	35532.26
536.30	35683.81
536.50	35565.03
536.70	35773.92
536.91	35544.55
537.11	35927.52
537.31	36111.83
537.51	36105.69
537.72	36271.57
537.92	36357.59
538.12	36259.29
538.32	36158.94
538.53	36861.39
538.73	36396.50
538.93	36652.50
539.13	36838.86
539.34	36617.68
539.54	36863.44
539.74	37014.99
539.94	37082.57
540.15	36832.72
540.35	37254.60
540.55	37344.71
540.75	37545.41
540.96	37656.00
541.16	37463.49
541.36	37805.50
541.56	37449.16
541.77	38366.65
541.97	37842.37
542.17	38018.49
542.37	38567.35
542.58	38251.96
542.78	38057.40
542.98	38323.64
543.18	38682.03
543.38	38534.58
543.59	38778.29
543.79	38495.67
543.99	38446.52
544.19	39011.76
544.40	38714.80
544.60	38841.78
544.80	39030.19
545.00	39065.00
545.20	39445.93
545.41	39247.27
545.61	39185.83
545.81	39306.66
546.01	39595.43
546.21	39595.43
546.42	39355.82
546.62	39908.77
546.82	39533.99
547.02	39484.84
547.22	39650.72
547.43	39720.35
547.63	40005.02
547.83	40213.91
548.03	39830.94
548.23	40052.12
548.44	40330.65
548.64	40326.55
548.84	40416.66
549.04	40228.25
549.24	40234.39
549.45	40666.52
549.65	40265.11
549.85	40150.43
550.05	40719.76
550.25	40629.65
550.45	41244.04
550.66	41035.15
550.86	40490.39
551.06	41096.59
551.26	40695.19
551.46	40967.57
551.66	41061.77
551.87	41006.48
552.07	41266.57
552.27	41088.40
552.47	41371.02
552.67	41663.88
552.87	41254.28
553.07	41665.92
553.28	41667.97
553.48	41594.25
553.68	41442.70
553.88	41735.56
554.08	41340.30
554.28	41876.86
554.48	41915.78
554.69	41653.64
554.89	42163.58
555.09	41579.91
555.29	41692.55
555.49	41803.14
555.69	42116.48
555.89	41829.76
556.10	42153.34
556.30	41989.50
556.50	42298.75
556.70	41751.94
556.90	42364.28
557.10	42519.93
557.30	41864.58
557.50	42202.49
557.70	42356.09
557.91	42415.48
558.11	42509.69
558.31	42507.64
558.51	42272.12
558.71	42911.09
558.91	42904.95
559.11	42495.35
559.31	42804.59
559.51	42487.16
559.72	42753.40
559.92	42532.22
560.12	42179.96
560.32	42843.51
560.52	42628.47
560.72	42993.01
560.92	43138.41
561.12	43113.84
561.32	43349.35
561.52	43511.14
561.72	43152.75
561.93	42947.95
562.13	42997.10
562.33	43021.68
562.53	43859.30
562.73	42780.02
562.93	43234.67
563.13	42929.52
563.33	43185.52
563.53	43963.75
563.73	43134.32
563.93	43498.86
564.13	43586.92
564.33	43541.86
564.53	43529.58
564.74	43699.56
564.94	43292.01
565.14	43308.40
565.34	43152.75
565.54	43480.42
565.74	43527.53
565.94	44006.75
566.14	43429.23
566.34	43517.29
566.54	43855.20
566.74	43726.18
566.94	43771.24
567.14	44000.61
567.34	43818.34
567.54	43898.21
567.74	44113.25
567.94	44072.29
568.14	44199.26
568.34	44062.05
568.54	44412.25
568.74	44057.95
568.94	43965.79
569.14	44371.29
569.34	44016.99
569.54	44053.86
569.75	43883.87
569.95	44041.57
570.15	44258.65
570.35	44600.66
570.55	44309.85
570.75	44637.53
570.95	44373.34
571.15	44754.26
571.35	44215.65
571.55	44672.34
571.75	44453.21
571.95	44588.38
572.15	44381.53
572.35	44719.45
572.55	44682.58
572.75	44733.78
572.95	44625.24
573.15	45036.88
573.35	44629.34
573.55	44674.39
573.75	44995.92
573.95	45563.21
574.15	44793.17
574.35	45014.35
574.55	44950.87
574.75	44627.29
574.95	45004.11
575.15	44799.32
575.34	44899.67
575.54	45669.70
575.74	45299.02
575.94	45040.98
576.14	45301.07
576.34	45325.64
576.54	45548.87
576.74	45610.31
576.94	45485.39
577.14	45641.03
577.34	45612.36
577.54	45614.41
577.74	45765.96
577.94	45653.32
578.14	45942.08
578.34	46005.57
578.54	45315.40
578.74	45892.93
578.94	45888.84
579.14	45929.80
579.34	45827.40
579.54	46220.61
579.74	46253.37
579.94	46030.15
580.13	46601.53
580.33	46468.41
580.53	46400.83
580.73	46638.39
580.93	46144.83
581.13	46759.22
581.33	46767.41
581.53	46812.47
581.73	46486.84
581.93	46937.40
582.13	46454.08
582.33	46779.70
582.53	46923.06
582.73	47009.07
582.92	47041.84
583.12	47150.38
583.32	46816.57
583.52	46763.32
583.72	47076.66
583.92	46970.16
584.12	47324.46
584.32	47508.78
584.52	46953.78
584.72	47119.66
584.92	47265.07
585.11	47838.50
585.31	47402.28
585.51	47998.24
585.71	47559.98
585.91	48067.87
586.11	47760.68
586.31	47873.32
586.51	47613.23
586.71	48076.07
586.91	48262.43
587.10	48045.35
587.30	48162.08
587.50	48524.57
587.70	48264.48
587.90	47719.72
588.10	48518.43
588.30	48223.52
588.50	48465.18
588.69	48203.04
588.89	48571.67
589.09	48729.37
589.29	48162.08
589.49	48733.46
589.69	48311.58
589.89	48923.93
590.08	48753.94
590.28	48708.89
590.48	48413.98
590.68	48471.32
590.88	48987.41
591.08	49050.90
591.28	48475.42
591.47	49233.17
591.67	49175.83
591.87	49034.52
592.07	49321.23
592.27	49055.00
592.47	49257.74
592.67	49495.31
592.86	49397.01
593.06	49476.88
593.26	49962.25
593.46	49501.45
593.66	49763.59
593.86	49661.19
594.05	49358.09
594.25	49896.71
594.45	49696.01
594.65	49874.18
594.85	49292.56
595.05	49956.10
595.24	50046.21
595.44	49755.40
595.64	49665.29
595.84	50201.86
596.04	49749.26
596.23	50291.97
596.43	50476.29
596.63	50232.58
596.83	50259.20
597.03	50447.61
597.22	51109.11
597.42	50382.08
597.62	50957.56
597.82	51025.14
598.02	50443.52
598.21	50955.51
598.41	50310.40
598.61	50681.08
598.81	51174.64
599.01	51012.85
599.20	51250.42
599.40	50390.27
599.60	51164.40
599.80	51262.71
600.00	51660.01
600.19	51746.03
600.39	51281.14
600.59	51885.29
600.79	51434.74
600.98	51717.35
601.18	51291.38
601.38	51887.34
601.58	51881.19
601.78	52006.12
601.97	51883.24
602.17	52317.41
602.37	52405.47
602.57	52083.94
602.76	52430.05
602.96	51797.23
603.16	52165.86
603.36	51725.55
603.55	52329.70
603.75	52237.54
603.95	52477.15
604.15	52552.93
604.34	52360.42
604.54	53177.56
604.74	52491.49
604.94	52888.79
605.13	52802.78
605.33	52718.81
605.53	52847.83
605.73	52972.76
605.92	52851.93
606.12	53232.85
606.32	53081.30
606.52	53257.43
606.71	53243.09
606.91	53638.35
607.11	53353.68
607.30	53662.93
607.50	53413.07
607.70	53552.33
607.90	53605.58
608.09	53595.34
608.29	53290.19
608.49	53802.19
608.68	53581.01
608.88	54035.66
609.08	54338.75
609.28	53595.34
609.47	53873.87
609.67	54219.97
609.87	53951.69
610.06	54412.48
610.26	53994.70
610.46	54080.71
610.66	54240.45
610.85	54392.00
611.05	54062.28
611.25	54166.73
611.44	54072.52
611.64	54398.15
611.84	54232.26
612.03	53943.50
612.23	54625.47
612.43	54639.81
612.62	54478.02
612.82	54805.69
613.02	54654.14
613.21	54527.17
613.41	54543.55
613.61	54697.15
613.80	54641.85
614.00	55067.83
614.20	54815.93
614.39	54734.01
614.59	54901.95
614.79	54725.82
614.98	54490.30
615.18	54459.58
615.38	54711.49
615.57	54600.89
615.77	55241.91
615.97	54770.88
616.16	54930.62
616.36	54799.55
616.56	54568.13
616.75	54887.61
616.95	54428.87
617.15	55469.23
617.34	54846.65
617.54	54867.13
617.74	54963.39
617.93	55399.60
618.13	54660.29
618.32	55047.35
618.52	54899.90
618.72	55008.44
618.91	55098.55
619.11	54936.76
619.31	55139.51
619.50	54754.49
619.70	54856.89
619.90	54959.29
620.09	55430.32
620.29	54867.13
620.48	55047.35
620.68	55297.20
620.88	54949.05
621.07	55428.27
621.27	55098.55
621.46	55035.06
621.66	55055.54
621.86	54666.43
622.05	54666.43
622.25	55377.08
622.44	55096.50
622.64	55037.11
622.84	54932.67
623.03	54607.04
623.23	55051.45
623.42	55061.69
623.62	54598.85
623.82	55350.45
624.01	55096.50
624.21	55256.24
624.40	54863.03
624.60	55067.83
624.80	54975.67
624.99	55153.85
625.19	54998.20
625.38	55248.05
625.58	55211.19
625.77	55018.68
625.97	55235.77
626.17	55168.18
626.36	55356.60
626.56	54926.52
626.75	54525.12
626.95	55303.35
627.14	54990.01
627.34	55925.93
627.54	55104.70
627.73	54836.41
627.93	55084.22
628.12	54879.42
628.32	55035.06
628.51	55178.42
628.71	55037.11
628.90	55205.05
629.10	55082.17
629.30	54965.43
629.49	55002.30
629.69	55096.50
629.88	55080.12
630.08	55301.30
630.27	55622.83
630.47	55338.16
630.66	55092.41
630.86	55569.58
631.05	54920.38
631.25	55710.89
631.44	55377.08
631.64	55338.16
631.84	55442.61
632.03	55413.94
632.23	55456.95
632.42	55248.05
632.62	55030.97
632.81	54940.86
633.01	54854.84
633.20	55477.43
633.40	55549.10
633.59	55430.32
633.79	55092.41
633.98	55276.72
634.18	55551.15
634.37	55092.41
634.57	55100.60
634.76	55123.13
634.96	55211.19
635.15	55510.19
635.35	55104.70
635.54	55418.03
635.74	55370.93
635.93	55159.99
636.13	55372.98
636.32	55706.80
636.52	54691.01
636.71	55473.33
636.91	55188.66
637.10	55522.48
637.30	55375.03
637.49	55051.45
637.69	55352.50
637.88	55440.56
638.08	54777.02
638.27	55432.37
638.46	55153.85
638.66	55395.51
638.85	55012.54
639.05	55227.57
639.24	55487.67
639.44	55145.65
639.63	55041.21
639.83	55907.50
640.02	55368.88
640.22	55057.59
640.41	55518.38
640.61	54901.95
640.80	55575.73
640.99	54924.47
641.19	55839.92
641.38	55407.79
641.58	55581.87
641.77	55153.85
641.97	55497.91
642.16	55366.84
642.36	55846.06
642.55	55948.46
642.74	55047.35
642.94	56308.90
643.13	54994.10
643.33	55557.30
643.52	55844.01
643.72	55932.07
643.91	55772.33
644.10	55514.29
644.30	55678.13
644.49	55342.26
644.69	55633.07
644.88	55674.03
645.08	55123.13
645.27	55112.89
645.46	54883.51
645.66	55327.92
645.85	55295.16
646.05	55649.45
646.24	55293.11
646.43	55719.09
646.63	55780.52
646.82	55839.92
647.02	55219.38
647.21	55325.88
647.40	55661.74
647.60	55530.67
647.79	55776.43
647.99	55819.44
648.18	55061.69
648.37	55899.31
648.57	56009.90
648.76	55653.55
648.96	55305.40
649.15	55553.20
649.34	55897.26
649.54	56138.92
649.73	55305.40
649.92	55626.93
650.12	55612.59
650.31	55882.92
650.51	56183.97
650.70	55864.49
650.89	55794.86
651.09	55930.03
651.28	55760.05
651.47	56120.49
651.67	56030.38
651.86	56145.06
652.06	55321.78
652.25	55792.81
652.44	55624.88
652.64	55643.31
652.83	55510.19
653.02	55215.29
653.22	55717.04
653.41	55407.79
653.60	55489.71
653.80	55878.83
653.99	55768.24
654.18	55635.12
654.38	55770.28
654.57	55760.05
654.76	56007.85
654.96	55741.61
655.15	55616.69
655.34	55635.12
655.54	55145.65
655.73	55633.07
655.92	55684.27
656.12	55743.66
656.31	55473.33
656.50	55731.37
656.70	55710.89
656.89	56040.62
657.08	55790.76
657.28	56013.99
657.47	55723.18
657.66	55927.98
657.86	55012.54
658.05	55772.33
658.24	55944.36
658.43	55768.24
658.63	55702.70
658.82	56038.57
659.01	55782.57
659.21	56214.69
659.40	55803.05
659.59	55497.91
659.79	56294.56
659.98	55495.86
660.17	56075.43
660.36	55702.70
660.56	56001.71
660.75	55751.85
660.94	55833.77
661.14	55399.60
661.33	55706.80
661.52	55655.60
661.71	55968.94
661.91	55833.77
662.10	55674.03
662.29	55911.59
662.49	55499.95
662.68	55747.76
662.87	55588.02
663.06	55764.14
663.26	55663.79
663.45	55702.70
663.64	55807.15
663.83	56331.43
664.03	55987.37
664.22	55815.34
664.41	55647.41
664.60	55760.05
664.80	55956.65
664.99	55522.48
665.18	55532.72
665.37	55985.32
665.57	55856.30
665.76	55682.22
665.95	55964.84
666.14	55887.02
666.34	55733.42
666.53	55536.82
666.72	55420.08
666.91	55585.97
667.11	55739.57
667.30	55932.07
667.49	55637.17
667.68	55149.75
667.87	55694.51
668.07	55911.59
668.26	55534.77
668.45	55846.06
668.64	55801.00
668.84	56222.89
669.03	55936.17
669.22	56165.54
669.41	55919.79
669.60	56022.19
669.80	55772.33
669.99	55856.30
670.18	56061.10
670.37	55790.76
670.57	56210.60
670.76	55784.62
670.95	56054.95
671.14	55741.61
671.33	55467.19
671.53	56407.20
671.72	55362.74
671.91	55882.92
672.10	55643.31
672.29	55487.67
672.48	55846.06
672.68	55946.41
672.87	55577.78
673.06	55524.53
673.25	55714.99
673.44	55432.37
673.64	55329.97
673.83	55661.74
674.02	55526.58
674.21	55336.12
674.40	55669.93
674.59	55133.37
674.79	55356.60
674.98	55633.07
675.17	55719.09
675.36	55289.01
675.55	55641.26
675.74	55342.26
675.94	55360.69
676.13	55631.02
676.32	56034.47
676.51	56081.58
676.70	55721.13
676.89	55727.28
677.08	56091.82
677.28	55362.74
677.47	56419.49
677.66	55870.64
677.85	55182.52
678.04	55782.57
678.23	55758.00
678.42	55661.74
678.62	55565.49
678.81	55960.75
679.00	55694.51
679.19	56378.53
679.38	55522.48
679.57	55485.62
679.76	55438.51
679.96	55950.51
680.15	55635.12
680.34	56032.42
680.53	55358.64
680.72	55514.29
680.91	56136.87
681.10	55919.79
681.29	55811.24
681.48	55563.44
681.68	55497.91
681.87	54979.77
682.06	55432.37
682.25	55366.84
682.44	55282.87
682.63	55743.66
682.82	54928.57
683.01	54955.19
683.20	54543.55
683.39	55256.24
683.59	54629.57
683.78	55104.70
683.97	54803.64
684.16	55088.31
684.35	55180.47
684.54	55045.30
684.73	55260.34
684.92	54873.27
685.11	54766.78
685.30	55159.99
685.49	55516.34
685.69	55305.40
685.88	54920.38
686.07	55327.92
686.26	55030.97
686.45	55268.53
686.64	55010.49
686.83	54756.54
687.02	55506.10
687.21	55332.02
687.40	54975.67
687.59	55182.52
687.78	55424.18
687.97	55411.89
688.16	55116.98
688.35	54760.64
688.54	54686.91
688.74	54842.56
688.93	54930.62
689.12	55112.89
689.31	55190.71
689.50	55159.99
689.69	54826.17
689.88	54232.26
690.07	54863.03
690.26	54883.51
690.45	55280.82
690.64	54422.72
690.83	54654.14
691.02	54297.80
691.21	54938.81
691.40	54547.65
691.59	54523.07
691.78	54867.13
691.97	54842.56
692.16	54932.67
692.35	55215.29
692.54	54916.28
692.73	54809.79
692.92	54660.29
693.11	54645.95
693.30	54385.86
693.49	54625.47
693.68	54924.47
693.87	54334.66
694.06	54381.76
694.25	54654.14
694.44	54631.61
694.63	54338.75
694.82	54844.60
695.01	54545.60
695.20	54580.42
695.39	54531.26
695.58	54461.63
695.77	54164.68
695.96	54015.18
696.15	54453.44
696.34	54609.09
696.53	54389.95
696.72	54486.21
696.91	54561.98
697.10	54332.61
697.29	54142.15
697.48	55071.93
697.67	54277.32
697.86	54183.11
698.05	54297.80
698.24	54623.42
698.43	54197.44
698.62	54295.75
698.81	53871.82
699.00	54672.57
699.19	54095.05
699.38	54183.11
699.57	53949.64
699.76	54723.77
699.95	54340.80
700.14	53763.28
700.32	53859.53
700.51	53974.22
700.70	54400.19
700.89	54244.55
701.08	54449.35
701.27	53814.47
701.46	54088.90
701.65	53750.99
701.84	53814.47
702.03	53949.64
702.22	53599.44
702.41	53896.39
702.60	54129.86
702.79	53941.45
702.98	53478.61
703.17	53853.39
703.35	53642.45
703.54	54199.49
703.73	54004.94
703.92	53564.62
704.11	53722.32
704.30	53554.38
704.49	53574.86
704.68	53581.01
704.87	53531.86
705.06	53488.85
705.25	53427.41
705.43	53568.72
705.62	53226.71
705.81	53517.52
706.00	53337.30
706.19	53079.25
706.38	53155.03
706.57	53378.26
706.76	52899.03
706.95	53290.19
707.14	53159.12
707.32	52966.62
707.51	52849.88
707.70	53433.55
707.89	53146.84
708.08	53142.74
708.27	53101.78
708.46	53355.73
708.65	53433.55
708.84	53634.25
709.02	53146.84
709.21	53163.22
709.40	52919.51
709.59	53374.16
709.78	53071.06
709.97	52919.51
710.16	52909.27
710.34	53028.05
710.53	53097.69
710.72	52487.39
710.91	52520.16
711.10	53345.49
711.29	52413.66
711.48	52966.62
711.66	52845.79
711.85	52600.03
712.04	52370.66
712.23	52800.73
712.42	52497.63
712.61	52698.33
712.80	52495.58
712.98	52419.81
713.17	52290.79
713.36	52483.30
713.55	52341.99
713.74	52393.18
713.93	52411.62
714.11	52729.05
714.30	52575.45
714.49	52384.99
714.68	52454.62
714.87	52434.14
715.06	52548.83
715.24	52198.63
715.43	52389.09
715.62	51563.76
715.81	51829.99
716.00	52036.84
716.18	52225.25
716.37	52024.55
716.56	51711.21
716.75	52102.37
716.94	52040.93
717.12	51926.25
717.31	52212.96
717.50	51985.64
717.69	51987.69
717.88	51571.95
718.06	51676.40
718.25	52073.70
718.44	51518.70
718.63	51600.62
718.82	51549.42
719.00	51766.51
719.19	51289.33
719.38	51248.37
719.57	51205.36
719.76	50777.34
719.94	50711.80
720.13	51166.45
720.32	50746.62
720.51	50910.46
720.69	50763.00
720.88	50699.51
721.07	50480.38
721.26	50300.16
721.44	50586.88
721.63	50797.82
721.82	50304.26
722.01	50279.68
722.20	50420.99
722.38	50310.40
722.57	49960.20
722.76	50369.79
722.95	50345.22
723.13	49806.60
723.32	50105.60
723.51	50017.54
723.70	49794.31
723.88	50058.50
724.07	49984.77
724.26	49972.49
724.44	49354.00
724.63	50371.84
724.82	49835.27
725.01	49909.00
725.19	49595.66
725.38	49739.02
725.57	49540.36
725.76	49671.43
725.94	49548.56
726.13	49620.23
726.32	49632.52
726.51	49198.35
726.69	49648.91
726.88	49497.36
727.07	49456.40
727.25	49042.71
727.44	48956.69
727.63	49452.30
727.82	49331.47
728.00	49052.95
728.19	49100.05
728.38	49298.70
728.56	48796.95
728.75	49165.59
728.94	49315.09
729.12	49327.38
729.31	49159.44
729.50	48874.77
729.69	49425.68
729.87	48915.73
730.06	48913.69
730.25	49001.75
730.43	49589.52
730.62	48614.68
730.81	49057.04
730.99	49499.40
731.18	48973.08
731.37	49032.47
731.55	48831.77
731.74	49362.19
731.93	49272.08
732.11	49130.77
732.30	48850.20
732.49	48579.87
732.67	48790.81
732.86	48805.14
733.05	48731.42
733.23	48336.16
733.42	48336.16
733.61	48782.62
733.79	48762.14
733.98	48858.39
734.17	48749.85
734.35	48641.31
734.54	48567.58
734.73	49110.29
734.91	48704.79
735.10	48512.28
735.29	48823.58
735.47	48913.69
735.66	48516.38
735.84	48620.83
736.03	48579.87
736.22	48979.22
736.40	48112.93
736.59	48571.67
736.78	48676.12
736.96	48698.65
737.15	48223.52
737.33	48092.45
737.52	48358.69
737.71	47873.32
737.89	48129.31
738.08	47887.65
738.27	47834.41
738.45	48669.98
738.64	48135.46
738.82	47969.57
739.01	47779.11
739.20	47701.29
739.38	48264.48
739.57	47844.65
739.75	48248.10
739.94	47930.66
740.13	47611.18
740.31	47330.61
740.50	48106.79
740.68	47693.10
740.87	47834.41
741.06	47691.05
741.24	47490.35
741.43	47232.30
741.61	47406.38
741.80	47342.89
741.99	47205.68
742.17	47580.46
742.36	47793.45
742.54	47506.73
742.73	47203.63
742.91	47449.39
743.10	47090.99
743.29	47635.75
743.47	47543.59
743.66	47131.95
743.84	47410.48
744.03	47605.03
744.21	46847.29
744.40	47394.09
744.59	46849.33
744.77	46835.00
744.96	46857.52
745.14	46642.49
745.33	47230.26
745.51	46968.12
745.70	47437.10
745.88	46423.36
746.07	47205.68
746.26	46857.52
746.44	46337.34
746.63	46759.22
746.81	46914.87
747.00	46566.71
747.18	46677.30
747.37	46736.69
747.55	46599.48
747.74	46585.15
747.92	46019.91
748.11	46400.83
748.29	46298.43
748.48	46617.91
748.66	46400.83
748.85	46249.28
749.03	46273.85
749.22	46265.66
749.41	45827.40
749.59	46372.16
749.78	45876.55
749.96	45419.85
750.15	45737.29
750.33	45970.75
750.52	46069.06
750.70	45751.62
750.89	45407.56
751.07	45462.86
751.26	45712.71
751.44	45718.85
751.63	45677.90
751.81	45077.84
752.00	45229.39
752.18	45735.24
752.37	45516.11
752.55	44911.95
752.74	45339.98
752.92	44991.83
753.10	44799.32
753.29	45194.57
753.47	44938.58
753.66	44821.84
753.84	44942.67
754.03	45010.26
754.21	44989.78
754.40	44901.71
754.58	45147.47
754.77	44957.01
754.95	44496.22
755.14	44610.90
755.32	44940.63
755.51	44342.62
755.69	44561.75
755.88	44483.93
756.06	44854.61
756.24	44174.69
756.43	44391.77
756.61	44481.88
756.80	44336.48
756.98	43861.35
757.17	43945.31
757.35	44479.83
757.54	44182.88
757.72	44336.48
757.90	43988.32
758.09	43890.02
758.27	44004.70
758.46	43584.87
758.64	43971.94
758.83	43887.97
759.01	44313.95
759.19	43601.25
759.38	44117.34
759.56	43873.63
759.75	44062.05
759.93	44215.65
760.12	43515.24
760.30	43804.00
760.48	43689.32
760.67	43414.89
760.85	43693.41
761.04	43582.82
761.22	43898.21
761.40	43457.90
761.59	43257.20
761.77	42982.77
761.96	43185.52
762.14	42849.65
762.32	42491.26
762.51	42661.24
762.69	43107.69
762.88	43103.60
763.06	42747.25
763.24	42972.53
763.43	43189.61
763.61	42579.32
763.80	42732.92
763.98	42698.10
764.16	42829.17
764.35	42407.29
764.53	42132.86
764.72	42417.53
764.90	42489.21
765.08	42698.10
765.27	42663.28
765.45	42222.97
765.63	42132.86
765.82	42526.07
766.00	41876.86
766.18	42124.67
766.37	42323.32
766.55	41733.51
766.74	42102.14
766.92	42014.08
767.10	41940.35
767.29	42048.89
767.47	41649.54
767.65	41731.46
767.84	41727.36
768.02	41747.84
768.20	41254.28
768.39	41094.54
768.57	41850.24
768.75	41479.56
768.94	41586.05
769.12	41661.83
769.30	41291.15
769.49	41317.77
769.67	41178.51
769.85	41004.43
770.04	41090.44
770.22	40861.07
770.40	40762.77
770.59	40664.47
770.77	40652.18
770.95	40879.50
771.14	40271.26
771.32	40525.21
771.50	40140.19
771.69	40179.10
771.87	40502.68
772.05	40326.55
772.24	40248.73
772.42	40306.07
772.60	40308.12
772.78	40154.52
772.97	39851.42
773.15	40250.78
773.33	39949.73
773.52	39720.35
773.70	40013.21
773.88	40396.18
774.07	40349.08
774.25	39957.92
774.43	40156.57
774.61	40396.18
774.80	40043.93
774.98	40105.37
775.16	39642.53
775.34	40232.35
775.53	40052.12
775.71	40385.94
775.89	40486.29
776.08	39740.83
776.26	40211.87
776.44	39695.78
776.62	39761.31
776.81	39505.32
776.99	40150.43
777.17	39826.85
777.35	40082.84
777.54	40539.54
777.72	40125.85
777.90	40011.17
778.08	40803.73
778.27	40301.98
778.45	40650.13
778.63	40799.63
778.81	40906.13
779.00	40981.90
779.18	40422.81
779.36	40949.14
779.54	40435.10
779.73	40596.88
779.91	40826.26
780.09	40736.15
780.27	40570.26
780.46	40979.85
780.64	40969.61
780.82	40957.33
781.00	40654.23
781.19	40713.62
781.37	40641.94
781.55	40928.66
781.73	41092.49
781.91	41047.44
782.10	40537.49
782.28	40842.64
782.46	40957.33
782.64	40637.84
782.82	40584.60
783.01	40977.81
783.19	41334.15
783.37	41061.77
783.55	40879.50
783.74	41106.83
783.92	40785.30
784.10	41317.77
784.28	41008.53
784.46	40973.71
784.64	40555.93
784.83	41250.19
785.01	41299.34
785.19	40947.09
785.37	41483.66
785.55	41016.72
785.74	40764.82
785.92	40598.93
786.10	40830.35
786.28	40613.27
786.46	40783.25
786.64	40342.94
786.83	39992.73
787.01	41098.64
787.19	40773.01
787.37	40598.93
787.55	40375.70
787.74	40328.60
787.92	40447.38
788.10	40375.70
788.28	40160.67
788.46	40109.47
788.64	39919.01
788.82	40383.90
789.01	40285.59
789.19	40248.73
789.37	39947.68
789.55	40189.34
789.73	40197.53
789.91	39646.63
790.09	40002.97
790.28	39751.07
790.46	39470.50
790.64	39736.74
790.82	39454.12
791.00	39574.95
791.18	39146.92
791.36	39480.74
791.55	39456.17
791.73	39474.60
791.91	39224.75
792.09	39134.63
792.27	38892.97
792.45	39044.52
792.63	38921.65
792.81	38895.02
793.00	38811.06
793.18	38909.36
793.36	38430.13
793.54	38462.90
793.72	38409.65
793.90	38192.57
794.08	38124.99
794.26	38567.35
794.44	38409.65
794.62	37846.46
794.81	37842.37
794.99	38159.80
795.17	37758.40
795.35	37764.54
795.53	38016.44
795.71	38165.95
795.89	37758.40
796.07	37598.66
796.25	37410.25
796.43	37504.45
796.61	37080.52
796.80	37258.70
796.98	37434.82
797.16	37119.43
797.34	37332.42
797.52	36701.65
797.70	36945.36
797.88	36808.14
798.06	36652.50
798.24	36564.43
798.42	36603.35
798.60	36840.91
798.78	36390.36
798.96	36695.50
799.14	36130.26
799.32	36363.73
799.51	36185.56
799.69	36421.08
799.87	35878.36
800.05	36128.22
800.23	36445.65
800.41	35982.81
800.59	35872.22
800.77	35870.17
800.95	35405.28
801.13	35558.88
801.31	35282.41
801.49	35567.07
801.67	35390.95
801.85	34969.07
802.03	34938.35
802.21	35134.95
802.39	35204.58
802.57	34915.82
802.75	34897.39
802.93	35069.42
803.11	34856.43
803.29	34778.61
803.47	34686.45
803.65	34264.57
803.83	34510.32
804.01	34065.91
804.19	34315.76
804.37	34108.92
804.55	34248.18
804.73	34115.06
804.91	34237.94
805.09	34203.13
805.27	33846.78
805.45	34031.10
805.63	34385.40
805.81	33785.34
805.99	33981.95
806.17	33631.74
806.35	33764.86
806.53	33553.92
806.71	33523.20
806.89	33437.19
807.07	33492.48
807.25	33459.71
807.43	33242.63
807.61	33486.34
807.79	33054.22
807.97	32847.37
808.15	32615.95
808.33	32935.43
808.51	32974.34
808.69	32818.70
808.87	32736.78
809.05	32728.59
809.23	32620.05
809.41	32744.97
809.59	32628.24
809.77	32597.52
809.95	32169.49
810.13	32275.99
810.31	32232.98
810.49	32249.36
810.67	32099.86
810.84	32054.81
811.02	32237.08
811.20	31784.48
811.38	31811.10
811.56	31651.36
811.74	31821.34
811.92	31815.19
812.10	31655.45
812.28	31764.00
812.46	31583.77
812.64	31972.89
812.82	31055.40
813.00	31364.64
813.18	31256.10
813.36	31161.89
813.53	31159.84
813.71	31221.28
813.89	31270.43
814.07	31239.72
814.25	31344.16
814.43	30803.50
814.61	30975.53
814.79	30811.69
814.97	30674.48
815.15	30559.79
815.33	30316.08
815.50	30522.93
815.68	30512.69
815.86	30762.54
816.04	30699.05
816.22	30428.72
816.40	30383.66
816.58	30017.08
816.76	30064.18
816.94	30320.18
817.11	29886.01
817.29	30246.45
817.47	30051.89
817.65	29926.97
817.83	30015.03
818.01	29886.01
818.19	29847.10
818.37	29957.69
818.54	30012.98
818.72	29740.60
818.90	29765.18
819.08	29716.03
819.26	29687.36
819.44	29572.67
819.62	29292.10
819.80	29505.09
819.97	29658.68
820.15	29349.44
820.33	28972.61
820.51	29322.82
820.69	29156.93
820.87	29118.02
821.05	29072.96
821.22	29013.57
821.40	29085.25
821.58	28843.59
821.76	28974.66
821.94	28993.09
822.12	28722.76
822.29	29064.77
822.47	28659.27
822.65	28886.60
822.83	28786.25
823.01	28708.43
823.19	28816.97
823.36	28554.83
823.54	28390.99
823.72	28755.53
823.90	28511.82
824.08	28503.63
824.25	28431.95
824.43	28540.49
824.61	28474.96
824.79	28522.06
824.97	28198.48
825.15	28409.42
825.32	28036.69
825.50	28091.99
825.68	27995.73
825.86	28245.58
826.04	28178.00
826.21	28157.52
826.39	27928.15
826.57	27967.06
826.75	27737.69
826.93	28048.98
827.10	27733.59
827.28	27917.91
827.46	27895.38
827.64	27731.54
827.81	27555.42
827.99	27719.26
828.17	27254.37
828.35	27510.36
828.53	27487.84
828.70	27412.06
828.88	27276.90
829.06	27278.94
829.24	27201.12
829.41	27491.93
829.59	27469.40
829.77	27137.63
829.95	27356.77
830.12	26846.82
830.30	27457.12
830.48	27141.73
830.66	27190.88
830.84	27489.88
831.01	26725.99
831.19	27244.13
831.37	26916.45
831.55	27033.19
831.72	26861.16
831.90	26910.31
832.08	26873.45
832.25	26789.48
832.43	26820.20
832.61	26809.96
832.79	26439.28
832.96	26680.94
833.14	26744.42
833.32	26713.70
833.50	26646.12
833.67	26695.27
833.85	26797.67
834.03	26498.67
834.20	26265.20
834.38	26832.49
834.56	26467.95
834.74	26246.77
834.91	26592.87
835.09	26603.11
835.27	26056.31
835.44	26216.05
835.62	25919.09
835.80	26005.11
835.98	25994.87
836.15	26232.43
836.33	26001.01
836.51	26461.80
836.68	25863.80
836.86	25843.32
837.04	26039.92
837.21	25812.60
837.39	26308.21
837.57	26183.28
837.75	26148.46
837.92	25685.62
838.10	25736.82
838.28	25540.22
838.45	25615.99
838.63	25728.63
838.81	25491.07
838.98	25650.81
839.16	25482.88
839.34	25562.75
839.51	25529.98
839.69	25306.75
839.87	25325.18
840.04	25513.59
840.22	25403.00
840.40	25413.24
840.57	25151.10
840.75	25132.67
840.93	24974.98
841.10	25179.78
841.28	25439.87
841.46	25089.67
841.63	25208.45
841.81	25282.17
841.98	25040.51
842.16	25163.39
842.34	25063.04
842.51	24809.09
842.69	25081.47
842.87	24977.03
843.04	25106.05
843.22	24704.65
843.40	24731.27
843.57	24694.41
843.75	24995.46
843.92	24608.39
844.10	24925.83
844.28	24893.06
844.45	24995.46
844.63	24821.38
844.81	24653.45
844.98	24786.57
845.16	24725.13
845.33	24938.12
845.51	24350.35
845.69	24555.15
845.86	24348.30
846.04	24284.81
846.21	24139.41
846.39	24198.80
846.57	23864.98
846.74	24608.39
846.92	24280.72
847.09	24227.47
847.27	24120.98
847.45	24161.94
847.62	24172.18
847.80	24247.95
847.97	24002.19
848.15	24073.87
848.32	23918.23
848.50	24219.28
848.68	23625.37
848.85	24006.29
849.03	23594.65
849.20	23633.56
849.38	23592.60
849.56	23699.09
849.73	23604.89
849.91	23631.51
850.08	23819.92
850.26	23434.91
850.43	23656.09
850.61	23711.38
850.78	23453.34
850.96	23576.22
851.14	23213.73
851.31	23471.77
851.49	23400.09
851.66	23606.94
851.84	23406.23
852.01	23510.68
852.19	23375.52
852.36	22920.87
852.54	23453.34
852.71	23164.57
852.89	23371.42
853.07	23271.07
853.24	23389.85
853.42	23385.76
853.59	23305.88
853.77	23396.00
853.94	23226.01
854.12	23408.28
854.29	22855.33
854.47	23119.52
854.64	23101.09
854.82	22949.54
854.99	22908.58
855.17	23062.18
855.34	22785.70
855.52	23205.53
855.69	23230.11
855.87	23031.46
856.04	22759.08
856.22	22857.38
856.39	22623.91
856.57	22853.28
856.74	22591.14
856.92	22695.59
857.09	22503.08
857.27	22249.13
857.44	22611.62
857.62	22644.39
857.79	22523.56
857.97	22707.88
858.14	22523.56
858.32	22470.31
858.49	22550.18
858.67	22439.59
858.84	22318.76
859.02	22357.67
859.19	22240.94
859.37	22142.64
859.54	21927.60
859.72	22279.85
859.89	22023.86
860.06	22109.87
860.24	22081.20
860.41	22267.56
860.59	22134.45
860.76	22042.29
860.94	21921.46
861.11	22226.60
861.29	22007.47
861.46	22085.30
861.64	21747.38
861.81	21655.22
861.98	21720.76
862.16	21608.12
862.33	21305.02
862.51	21540.54
862.68	21948.08
862.86	21325.50
863.03	21313.21
863.21	21395.13
863.38	21300.92
863.55	21753.52
863.73	21180.09
863.90	21538.49
864.08	21171.90
864.25	21454.52
864.43	21368.51
864.60	21311.16
864.77	21100.22
864.95	21151.42
865.12	21321.40
865.30	21315.26
865.47	21018.30
865.64	21020.35
865.82	21407.42
865.99	21085.89
866.17	21010.11
866.34	20715.20
866.51	20842.18
866.69	21008.06
866.86	21202.62
867.04	20717.25
867.21	20946.62
867.38	20569.80
867.56	20829.89
867.73	20559.56
867.91	20674.24
868.08	20621.00
868.25	20455.11
868.43	20731.59
868.60	20391.62
868.78	20051.66
868.95	20518.60
869.12	20281.03
869.30	20274.89
869.47	20307.66
869.64	20391.62
869.82	20528.84
869.99	20278.99
870.16	20403.91
870.34	20432.58
870.51	20166.35
870.69	20010.70
870.86	20199.12
871.03	20029.13
871.21	20025.04
871.38	20068.05
871.55	19777.23
871.73	19779.28
871.90	19650.26
872.07	19678.93
872.25	19816.15
872.42	19900.11
872.59	19828.43
872.77	19730.13
872.94	19814.10
873.11	19578.58
873.29	19842.77
873.46	19465.94
873.63	19711.70
873.81	19766.99
873.98	19390.17
874.15	19191.52
874.33	19320.54
874.50	19056.35
874.67	19549.91
874.85	19193.56
875.02	18986.72
875.19	19302.11
875.37	19085.02
875.54	18878.18
875.71	18941.66
875.88	18912.99
876.06	19209.95
876.23	18869.98
876.40	18867.94
876.58	18646.76
876.75	18953.95
876.92	18837.22
877.10	18894.56
877.27	18654.95
877.44	18648.80
877.61	18585.32
877.79	18269.93
877.96	18499.30
878.13	18450.15
878.31	18429.67
878.48	18116.33
878.65	18476.77
878.82	17975.02
879.00	18151.15
879.17	18183.91
879.34	18396.90
879.51	18161.39
879.69	18036.46
879.86	17837.81
880.03	18319.08
880.21	17997.55
880.38	17948.40
880.55	18061.04
880.72	17657.59
880.90	17835.76
881.07	17868.53
881.24	17702.64
881.41	17706.74
881.59	17802.99
881.76	17653.49
881.93	17604.34
882.10	17555.19
882.28	17456.89
882.45	17684.21
882.62	17501.94
882.79	17592.05
882.96	17207.03
883.14	17616.63
883.31	17415.93
883.48	17276.66
883.65	17305.34
883.83	17600.24
884.00	17284.86
884.17	17401.59
884.34	17293.05
884.51	17336.06
884.69	17258.23
884.86	17172.22
885.03	17280.76
885.20	17028.86
885.38	17184.51
885.55	17032.96
885.72	17157.88
885.89	17008.38
886.06	16983.80
886.24	16828.16
886.41	16916.22
886.58	17170.17
886.75	17340.15
886.92	16899.84
887.10	16809.73
887.27	16686.85
887.44	16951.04
887.61	17084.16
887.78	17133.31
887.95	16938.75
888.13	16787.20
888.30	16809.73
888.47	16695.04
888.64	16637.70
888.81	16531.20
888.99	16576.26
889.16	16639.75
889.33	16533.25
889.50	16539.40
889.67	16574.21
889.84	16279.30
890.01	16437.00
890.19	16238.34
890.36	16314.12
890.53	16326.41
890.70	16066.31
890.87	16111.37
891.04	16307.98
891.22	16267.02
891.39	16191.24
891.56	16113.42
891.73	16019.21
891.90	15965.96
892.07	15970.06
892.24	16060.17
892.42	16037.64
892.59	16066.31
892.76	15955.72
892.93	15927.05
893.10	15925.00
893.27	15998.73
893.44	15904.53
893.61	15750.93
893.79	15816.46
893.96	15859.47
894.13	16142.09
894.30	15888.14
894.47	15965.96
894.64	15855.37
894.81	15515.41
894.98	15824.65
895.15	15879.95
895.33	15841.04
895.50	15646.48
895.67	15798.03
895.84	15359.77
896.01	15757.07
896.18	15671.06
896.35	15755.02
896.52	15429.40
896.69	15707.92
896.86	15773.46
897.04	15587.09
897.21	15714.06
897.38	15370.01
897.55	15296.28
897.72	15585.04
897.89	15619.86
898.06	15693.58
898.23	15480.60
898.40	15445.78
898.57	15505.17
898.74	15611.67
898.91	15576.85
899.08	15765.26
899.26	15556.37
899.43	15716.11
899.60	15429.40
899.77	15623.95
899.94	15539.99
900.11	15351.57
900.28	15290.13
900.45	15331.09
900.62	15361.81
900.79	15664.91
900.96	15419.16
901.13	15535.89
901.30	15136.54
901.47	15189.78
901.64	15365.91
901.81	15398.68
901.98	15202.07
902.15	15587.09
902.32	15224.60
902.49	15486.74
902.66	15230.74
902.83	15408.92
903.01	15316.76
903.18	15130.39
903.35	15277.85
903.52	15337.24
903.69	15359.77
903.86	15193.88
904.03	15374.10
904.20	15437.59
904.37	15415.06
904.54	15339.29
904.71	15152.92
904.88	15437.59
905.05	15265.56
905.22	15425.30
905.39	15050.52
905.56	15343.38
905.73	15396.63
905.90	15068.95
906.07	15359.77
906.24	15255.32
906.41	15277.85
906.58	15286.04
906.75	15138.58
906.92	15066.91
907.09	15337.24
907.26	15404.82
907.43	15025.95
907.60	15099.67
907.77	15310.61
907.93	15062.81
908.10	14966.56
908.27	15458.07
908.44	14984.99
908.61	14956.32
908.78	15005.47
908.95	15060.76
909.12	15220.50
909.29	15085.34
909.46	15091.48
909.63	15232.79
909.80	15202.07
909.97	15058.71
910.14	15052.57
910.31	15038.23
910.48	15071.00
910.65	14939.93
910.82	14696.22
910.99	14876.44
911.16	14913.31
911.33	14948.12
911.50	14698.27
911.66	14655.26
911.83	14677.79
912.00	14845.73
912.17	14747.42
912.34	14864.16
912.51	14751.52
912.68	14690.08
912.85	14716.70
913.02	14614.30
913.19	14276.39
913.36	14475.04
913.53	14645.02
913.70	14511.91
913.86	14546.72
914.03	14456.61
914.20	14464.80
914.37	14487.33
914.54	14520.10
914.71	14380.84
914.88	14516.00
915.05	14434.08
915.22	14260.01
915.39	14186.28
915.55	14270.25
915.72	14014.25
915.89	14085.93
916.06	14085.93
916.23	14130.98
916.40	13975.34
916.57	13889.32
916.74	13948.72
916.91	13831.98
917.07	13602.61
917.24	13696.82
917.41	13764.40
917.58	13856.56
917.75	14020.39
917.92	13514.55
918.09	13578.03
918.26	13702.96
918.42	13627.18
918.59	13831.98
918.76	13324.08
918.93	13258.55
919.10	13326.13
919.27	13295.41
919.44	13477.68
919.60	13504.31
919.77	13322.04
919.94	13152.06
920.11	12934.97
920.28	13250.36
920.45	13252.41
920.61	13098.81
920.78	13039.42
920.95	13127.48
921.12	13029.18
921.29	12977.98
921.46	12664.64
921.62	12648.26
921.79	12744.51
921.96	12670.78
922.13	12879.68
922.30	12748.61
922.47	12500.80
922.63	12508.99
922.80	12422.98
922.97	12324.68
923.14	12287.81
923.31	12435.27
923.47	12207.94
923.64	12453.70
923.81	11933.51
923.98	12224.33
924.15	12285.76
924.32	12089.16
924.48	12310.34
924.65	12119.88
924.82	11812.68
924.99	11958.09
925.15	11743.05
925.32	11941.71
925.49	11679.57
925.66	11890.51
925.83	11755.34
925.99	11411.28
926.16	11599.70
926.33	11808.59
926.50	11093.85
926.67	11609.93
926.83	11360.08
927.00	11470.67
927.17	11216.72
927.34	11097.94
927.50	11169.62
927.67	11388.75
927.84	11069.27
928.01	10968.92
928.17	10932.06
928.34	10850.14
928.51	11028.31
928.68	10811.23
928.84	10940.25
929.01	10833.75
929.18	10706.78
929.35	10803.04
929.51	10817.37
929.68	10497.89
929.85	10424.16
930.02	10395.49
930.18	10485.60
930.35	10438.50
930.52	10303.33
930.69	10301.28
930.85	10516.32
931.02	10241.89
931.19	10239.84
931.36	10096.49
931.52	10241.89
931.69	10039.14
931.86	10092.39
932.02	10192.74
932.19	10114.92
932.36	9824.11
932.53	9854.83
932.69	9676.65
932.86	10067.81
933.03	9832.30
933.19	9713.52
933.36	9496.43
933.53	9736.04
933.70	9549.68
933.86	9553.77
934.03	9527.15
934.20	9539.44
934.36	9322.35
934.53	9133.94
934.70	8884.09
934.86	9267.06
935.03	8927.10
935.20	8843.13
935.36	8955.77
935.53	8886.14
935.70	8783.74
935.86	8869.75
936.03	8734.59
936.20	8482.69
936.36	8447.87
936.53	8480.64
936.70	8314.75
936.86	8437.63
937.03	8298.37
937.20	8112.00
937.36	8226.69
937.53	7958.41
937.70	7929.74
937.86	7856.01
938.03	7743.37
938.20	7825.29
938.36	7442.32
938.53	7544.72
938.70	7407.50
938.86	7446.41
939.03	7290.77
939.20	7249.81
939.36	7102.36
939.53	7139.22
939.70	7237.52
939.86	6954.90
940.03	6850.46
940.19	6655.90
940.36	6729.63
940.53	6690.71
940.69	6483.87
940.86	6328.22
941.03	6440.86
941.19	6258.59
941.36	6365.09
941.52	6293.41
941.69	6229.92
941.86	6141.86
942.02	6023.08
942.19	6104.99
942.35	6002.60
942.52	5812.14
942.69	5916.58
942.85	5775.27
943.02	5742.50
943.18	5846.95
943.35	5717.93
943.52	5816.23
943.68	5670.83
943.85	5566.38
944.01	5574.57
944.18	5640.11
944.35	5425.07
944.51	5498.80
944.68	5451.69
944.84	5404.59
945.01	5513.13
945.17	5433.26
945.34	5380.01
945.51	5517.23
945.67	5377.97
945.84	5326.77
946.00	5255.09
946.17	5283.76
946.33	5212.08
946.50	5269.42
946.67	5263.28
946.83	5367.73
947.00	5361.58
947.16	5283.76
947.33	5113.78
947.49	5214.13
947.66	5169.07
947.82	5228.46
947.99	5236.66
948.16	5285.81
948.32	5322.67
948.49	5283.76
948.65	5179.31
948.82	5107.63
948.98	5179.31
949.15	5181.36
949.31	5337.01
949.48	5181.36
949.64	5113.78
949.81	5351.34
949.97	5083.06
950.14	5242.80
950.30	5060.53
950.47	5357.49
950.63	5183.41
950.80	5154.74
950.96	5162.93
951.13	5382.06
951.30	5238.70
951.46	5205.94
951.63	5349.29
951.79	5314.48
951.96	5357.49
952.12	5152.69
952.29	5306.29
952.45	5228.46
952.62	5267.38
952.78	5144.50
952.94	5234.61
953.11	5283.76
953.27	5201.84
953.44	5414.83
953.60	5302.19
953.77	5377.97
953.93	5285.81
954.10	5269.42
954.26	5349.29
954.43	5351.34
954.59	5392.30
954.76	5343.15
954.92	5445.55
955.09	5463.98
955.25	5244.85
955.42	5337.01
955.58	5568.43
955.75	5402.54
955.91	5285.81
956.07	5296.05
956.24	5255.09
956.40	5367.73
956.57	5437.36
956.73	5273.52
956.90	5326.77
957.06	5320.62
957.23	5334.96
957.39	5414.83
957.56	5310.38
957.72	5318.57
957.88	5318.57
958.05	5427.12
958.21	5390.25
958.38	5398.45
958.54	5187.50
958.71	5466.03
958.87	5361.58
959.03	5263.28
959.20	5302.19
959.36	5210.03
959.53	5396.40
959.69	5341.10
959.85	5310.38
960.02	5248.94
960.18	5490.60
960.35	5310.38
960.51	5447.60
960.68	5341.10
960.84	5431.21
961.00	5275.57
961.17	5275.57
961.33	5232.56
961.50	5449.64
961.66	5412.78
961.82	5392.30
961.99	5451.69
962.15	5308.34
962.31	5361.58
962.48	5408.69
962.64	5431.21
962.81	5349.29
962.97	5238.70
963.13	5273.52
963.30	5322.67
963.46	5183.41
963.62	5183.41
963.79	5248.94
963.95	5365.68
964.12	5334.96
964.28	5423.02
964.44	5173.17
964.61	5119.92
964.77	5248.94
964.93	5334.96
965.10	5197.74
965.26	5173.17
965.42	5099.44
965.59	5195.70
965.75	5250.99
965.92	5232.56
966.08	5263.28
966.24	5197.74
966.41	5148.59
966.57	5269.42
966.73	5136.31
966.90	5167.03
967.06	5179.31
967.22	5162.93
967.39	5181.36
967.55	5193.65
967.71	5115.83
967.88	5054.39
968.04	5070.77
968.20	5113.78
968.37	5187.50
968.53	5044.15
968.69	5048.24
968.85	5025.72
969.02	5197.74
969.18	5164.98
969.34	5105.59
969.51	5093.30
969.67	5132.21
969.83	4960.18
970.00	5167.03
970.16	5013.43
970.32	5009.33
970.48	5169.07
970.65	4978.61
970.81	5066.67
970.97	5023.67
971.14	4878.26
971.30	4995.00
971.46	4900.79
971.63	4964.28
971.79	5052.34
971.95	4880.31
972.11	4863.93
972.28	4976.56
972.44	4904.89
972.60	4853.69
972.76	4845.49
972.93	4917.17
973.09	4841.40
973.25	4847.54
973.42	4931.51
973.58	4845.49
973.74	4884.41
973.90	4857.78
974.07	4722.62
974.23	4638.65
974.39	4796.34
974.55	4757.43
974.72	4882.36
974.88	4665.27
975.04	4759.48
975.20	4665.27
975.37	4827.06
975.53	4636.60
975.69	4786.10
975.85	4710.33
976.01	4644.79
976.18	4743.10
976.34	4630.46
976.50	4616.12
976.66	4730.81
976.83	4597.69
976.99	4622.27
977.15	4607.93
977.31	4560.83
977.47	4632.51
977.64	4548.54
977.80	4452.28
977.96	4530.11
978.12	4495.29
978.29	4542.39
978.45	4390.84
978.61	4560.83
978.77	4632.51
978.93	4554.68
979.10	4595.64
979.26	4675.51
979.42	4558.78
979.58	4403.13
979.74	4480.96
979.91	4288.45
980.07	4349.89
980.23	4411.32
980.39	4399.04
980.55	4353.98
980.71	4390.84
980.88	4313.02
981.04	4335.55
981.20	4190.14
981.36	4384.70
981.52	4380.61
981.68	4265.92
981.85	4360.13
982.01	4251.58
982.17	4198.34
982.33	4288.45
982.49	4290.49
982.65	4386.75
982.82	4179.90
982.98	4204.48
983.14	4200.38
983.30	4337.60
983.46	4231.10
983.62	4194.24
983.79	4110.27
983.95	4128.70
984.11	4093.89
984.27	4249.54
984.43	4196.29
984.59	4222.91
984.75	4239.30
984.91	4046.79
985.08	4218.82
985.24	4028.35
985.40	3905.48
985.56	4011.97
985.72	4106.18
985.88	4026.31
986.04	4057.03
986.20	4038.59
986.37	4140.99
986.53	3942.34
986.69	4110.27
986.85	3846.09
987.01	3925.96
987.17	4118.47
987.33	3999.68
987.49	3864.52
987.65	3948.48
987.82	3964.87
987.98	3801.03
988.14	3960.77
988.30	3948.48
988.46	3852.23
988.62	3895.24
988.78	3878.85
988.94	3895.24
989.10	3743.69
989.26	3864.52
989.42	3764.17
989.59	3776.45
989.75	3844.04
989.91	3829.70
990.07	3598.28
990.23	3762.12
990.39	3684.30
990.55	3782.60
990.71	3639.24
990.87	3786.69
991.03	3798.98
991.19	3688.39
991.35	3614.66
991.51	3760.07
991.67	3751.88
991.83	3729.35
992.00	3735.50
992.16	3657.67
992.32	3743.69
992.48	3747.78
992.64	3653.58
992.80	3641.29
992.96	3704.78
993.12	3727.30
993.28	3624.90
993.44	3647.43
993.60	3708.87
993.76	3528.65
993.92	3694.54
994.08	3661.77
994.24	3608.52
994.40	3612.62
994.56	3516.36
994.72	3444.68
994.88	3545.03
995.04	3530.70
995.20	3436.49
995.36	3502.03
995.52	3508.17
995.68	3495.88
995.84	3373.00
996.00	3647.43
996.16	3395.53
996.32	3426.25
996.48	3432.40
996.64	3502.03
996.80	3450.83
996.96	3499.98
997.12	3442.64
997.28	3387.34
997.44	3280.85
997.60	3411.92
997.76	3278.80
997.92	3375.05
998.08	3403.72
998.24	3260.37
998.40	3418.06
998.56	3305.42
998.72	3200.98
998.88	3194.83
999.04	3360.72
999.20	3325.90
999.36	3248.08
999.52	3434.44
999.68	3246.03
999.84	3305.42
1000.00	3416.01
1000.16	3405.77
1000.32	3172.30
1000.48	3276.75
1000.64	3203.02
1000.80	3055.57
1000.95	3123.15
1001.11	3266.51
1001.27	3102.67
1001.43	3291.09
1001.59	3061.71
1001.75	3162.06
1001.91	3141.58
1002.07	3192.78
1002.23	3172.30
1002.39	3117.01
1002.55	3182.54
1002.71	3088.34
1002.87	3123.15
1003.03	3076.05
1003.19	2977.75
1003.34	3119.06
1003.50	3092.43
1003.66	3141.58
1003.82	3074.00
1003.98	2977.75
1004.14	3117.01
1004.30	2959.31
1004.46	2918.36
1004.62	2969.55
1004.78	3080.14
1004.94	3037.14
1005.09	3071.95
1005.25	3028.95
1005.41	2953.17
1005.57	2916.31
1005.73	2891.73
1005.89	2904.02
1006.05	2938.84
1006.21	2977.75
1006.37	2895.83
1006.52	2889.68
1006.68	2854.87
1006.84	3104.72
1007.00	2881.49
1007.16	2955.22
1007.32	2801.62
1007.48	2883.54
1007.64	2953.17
1007.79	2871.25
1007.95	2838.48
1008.11	2922.45
1008.27	2830.29
1008.43	2746.33
1008.59	2809.81
1008.75	2891.73
1008.91	2854.87
1009.06	2748.37
1009.22	2793.43
1009.38	2889.68
1009.54	2809.81
1009.70	2711.51
1009.86	2736.09
1010.01	2795.48
1010.17	2709.46
1010.33	2764.76
1010.49	2678.74
1010.65	2775.00
1010.81	2699.22
1010.96	2676.70
1011.12	2678.74
1011.28	2639.83
1011.44	2785.24
1011.60	2639.83
1011.76	2658.26
1011.91	2660.31
1012.07	2656.22
1012.23	2617.30
1012.39	2582.49
1012.55	2674.65
1012.71	2670.55
1012.86	2680.79
1013.02	2660.31
1013.18	2627.54
1013.34	2568.15
1013.50	2705.37
1013.65	2635.74
1013.81	2521.05
1013.97	2615.26
1014.13	2658.26
1014.29	2551.77
1014.44	2703.32
1014.60	2512.86
1014.76	2541.53
1014.92	2549.72
1015.07	2619.35
1015.23	2590.68
1015.39	2539.48
1015.55	2527.19
1015.71	2574.30
1015.86	2484.19
1016.02	2492.38
1016.18	2432.99
1016.34	2420.70
1016.49	2539.48
1016.65	2594.78
1016.81	2498.52
1016.97	2482.14
1017.12	2492.38
1017.28	2367.45
1017.44	2439.13
1017.60	2447.32
1017.75	2453.47
1017.91	2484.19
1018.07	2408.41
1018.23	2484.19
1018.38	2402.27
1018.54	2361.31
1018.70	2473.95
1018.86	2432.99
1019.01	2361.31
1019.17	2420.70
1019.33	2437.08
1019.49	2371.55
1019.64	2435.03
1019.80	2418.65
1019.96	2478.04
1020.12	2406.36
1020.27	2367.45
1020.43	2367.45
1020.59	2412.51
1020.74	2377.69
1020.90	2387.93
1021.06	2203.61
1021.22	2379.74
1021.37	2404.32
1021.53	2291.68
1021.69	2310.11
1021.84	2303.96
1022.00	2269.15
1022.16	2316.25
1022.31	2338.78
1022.47	2381.79
1022.63	2342.88
1022.79	2222.05
1022.94	2236.38
1023.10	2371.55
1023.26	2250.72
1023.41	2285.53
1023.57	2164.70
1023.73	2287.58
1023.88	2230.24
1024.04	2189.28
1024.20	2226.14
1024.35	2330.59
1024.51	2244.57
1024.67	2265.05
1024.82	2238.43
1024.98	2142.18
1025.14	2338.78
1025.29	2197.47
1025.45	2263.01
1025.61	2215.90
1025.76	2215.90
1025.92	2220.00
1026.08	2197.47
1026.23	2160.61
1026.39	2273.25
1026.55	2224.09
1026.70	2207.71
1026.86	2176.99
1027.02	2234.33
1027.17	2211.81
1027.33	2234.33
1027.48	2191.33
1027.64	2056.16
1027.80	2160.61
1027.95	2226.14
1028.11	2056.16
1028.27	2121.70
1028.42	2142.18
1028.58	2101.22
1028.73	2097.12
1028.89	2004.96
1029.05	2201.57
1029.20	2191.33
>>>>>End Processed Spectral Data<<<<<
