SpectraSuite Data File
++++++++++++++++++++++++++++++++++++
Date: Fri Jun 02 14:49:24 CEST 2017
User: INFO_000
Dark Spectrum Present: No
Reference Spectrum Present: No
Number of Sampled Component Spectra: 1
Spectrometers: USB4H00879
Integration Time (usec): 80000 (USB4H00879)
Spectra Averaged: 1 (USB4H00879)
Boxcar Smoothing: 0 (USB4H00879)
Correct for Electrical Dark: No (USB4H00879)
Strobe/Lamp Enabled: No (USB4H00879)
Correct for Detector Non-linearity: No (USB4H00879)
Correct for Stray Light: No (USB4H00879)
Number of Pixels in Processed Spectrum: 3648
>>>>>Begin Processed Spectral Data<<<<<
345.13	1361.90
345.34	1361.90
345.56	1361.90
345.78	1290.22
345.99	1257.45
346.21	1732.58
346.42	1689.57
346.64	1607.66
346.86	1808.36
347.07	1683.43
347.29	1699.81
347.50	1611.75
347.72	1732.58
347.94	1837.03
348.15	1572.84
348.37	1609.70
348.59	1744.87
348.80	1652.71
349.02	1746.92
349.23	1785.83
349.45	1720.29
349.67	1789.92
349.88	1806.31
350.10	1964.00
350.31	1777.64
350.53	1716.20
350.75	1832.93
350.96	1710.05
351.18	1744.87
351.39	1734.63
351.61	1765.35
351.82	1855.46
352.04	1767.40
352.26	1712.10
352.47	1820.64
352.69	1841.12
352.90	1640.42
353.12	1806.31
353.34	1742.82
353.55	1789.92
353.77	1714.15
353.98	1746.92
354.20	1683.43
354.41	1871.84
354.63	1818.60
354.85	1978.34
355.06	1767.40
355.28	1722.34
355.49	1826.79
355.71	1820.64
355.92	1720.29
356.14	1759.21
356.35	1771.49
356.57	1728.49
356.79	1877.99
357.00	1716.20
357.22	1929.19
357.43	1800.16
357.65	1824.74
357.86	1718.25
358.08	1744.87
358.29	1834.98
358.51	1810.40
358.72	1824.74
358.94	1869.80
359.16	1916.90
359.37	1736.68
359.59	1841.12
359.80	1906.66
360.02	1857.51
360.23	1892.32
360.45	1865.70
360.66	1857.51
360.88	1806.31
361.09	1728.49
361.31	1814.50
361.52	1794.02
361.74	1966.05
361.95	1986.53
362.17	1865.70
362.38	1986.53
362.60	1998.82
362.81	1837.03
363.03	1755.11
363.24	1810.40
363.46	1978.34
363.67	1900.52
363.89	1798.12
364.10	1916.90
364.32	1849.32
364.53	1867.75
364.75	1802.21
364.96	1802.21
365.18	1945.57
365.39	1828.84
365.61	1871.84
365.82	2088.93
366.04	1923.04
366.25	1818.60
366.47	1912.80
366.68	1910.75
366.90	1769.44
367.11	1937.38
367.33	1884.13
367.54	2011.11
367.76	1953.76
367.97	1966.05
368.19	1841.12
368.40	2033.63
368.62	1826.79
368.83	1740.77
369.05	1839.08
369.26	1851.36
369.48	1877.99
369.69	1839.08
369.91	1886.18
370.12	1871.84
370.33	1988.58
370.55	1818.60
370.76	1826.79
370.98	1966.05
371.19	1886.18
371.41	1882.08
371.62	1865.70
371.84	1843.17
372.05	2039.78
372.27	1937.38
372.48	1968.10
372.69	1896.42
372.91	2088.93
373.12	2037.73
373.34	1951.71
373.55	1955.81
373.77	1929.19
373.98	1910.75
374.20	2146.27
374.41	2093.02
374.62	1992.67
374.84	2060.26
375.05	1996.77
375.27	2002.91
375.48	1978.34
375.70	1955.81
375.91	2047.97
376.12	2256.86
376.34	2113.50
376.55	1992.67
376.77	2105.31
376.98	1986.53
377.19	2039.78
377.41	2066.40
377.62	2140.13
377.84	2142.18
378.05	2238.43
378.27	2133.98
378.48	2181.09
378.69	2162.66
378.91	2131.94
379.12	2121.70
379.34	2090.98
379.55	2068.45
379.76	2099.17
379.98	2158.56
380.19	2158.56
380.41	2230.24
380.62	2185.18
380.83	2240.48
381.05	1976.29
381.26	2273.25
381.47	2035.68
381.69	2093.02
381.90	2306.01
382.12	2164.70
382.33	2156.51
382.54	2113.50
382.76	2250.72
382.97	2240.48
383.19	2142.18
383.40	2306.01
383.61	2215.90
383.83	2158.56
384.04	2123.74
384.25	2248.67
384.47	2322.40
384.68	2183.13
384.89	2238.43
385.11	2220.00
385.32	2260.96
385.54	2306.01
385.75	2207.71
385.96	2275.29
386.18	2314.20
386.39	2312.16
386.60	2287.58
386.82	2379.74
387.03	2365.40
387.24	2371.55
387.46	2387.93
387.67	2355.16
387.88	2443.23
388.10	2408.41
388.31	2373.60
388.52	2459.61
388.74	2406.36
388.95	2471.90
389.16	2418.65
389.38	2381.79
389.59	2484.19
389.80	2469.85
390.02	2408.41
390.23	2648.02
390.44	2496.47
390.66	2482.14
390.87	2351.07
391.08	2494.43
391.30	2758.61
391.51	2633.69
391.72	2541.53
391.94	2607.06
392.15	2613.21
392.36	2605.02
392.58	2516.95
392.79	2623.45
393.00	2596.82
393.22	2695.13
393.43	2656.22
393.64	2684.89
393.85	2811.86
394.07	2594.78
394.28	2627.54
394.49	2729.94
394.71	2746.33
394.92	2754.52
395.13	2629.59
395.35	2658.26
395.56	2674.65
395.77	2695.13
395.98	2830.29
396.20	2830.29
396.41	2793.43
396.62	2791.38
396.84	2713.56
397.05	2846.68
397.26	2803.67
397.47	2957.27
397.69	2809.81
397.90	2967.51
398.11	2922.45
398.32	2828.24
398.54	2932.69
398.75	2877.40
398.96	2815.96
399.18	3004.37
399.39	2883.54
399.60	3082.19
399.81	2789.33
400.03	2910.16
400.24	3198.93
400.45	2914.26
400.66	3051.47
400.88	2990.03
401.09	3084.24
401.30	2934.74
401.51	3131.34
401.73	3131.34
401.94	3147.73
402.15	3166.16
402.36	3194.83
402.58	3092.43
402.79	3069.91
403.00	3121.10
403.21	3170.26
403.43	3104.72
403.64	3223.50
403.85	3129.30
404.06	3231.69
404.27	3182.54
404.49	3180.50
404.70	3203.02
404.91	3229.65
405.12	3239.89
405.34	3260.37
405.55	3352.52
405.76	3166.16
405.97	3114.96
406.19	3338.19
406.40	3162.06
406.61	3307.47
406.82	3430.35
407.03	3194.83
407.25	3284.94
407.46	3391.44
407.67	3428.30
407.88	3418.06
408.09	3256.27
408.31	3321.81
408.52	3295.18
408.73	3241.93
408.94	3389.39
409.15	3424.20
409.37	3438.54
409.58	3403.72
409.79	3547.08
410.00	3520.46
410.21	3383.24
410.43	3395.53
410.64	3295.18
410.85	3622.86
411.06	3575.75
411.27	3549.13
411.48	3528.65
411.70	3524.55
411.91	3641.29
412.12	3706.82
412.33	3569.61
412.54	3585.99
412.76	3622.86
412.97	3694.54
413.18	3489.74
413.39	3573.71
413.60	3651.53
413.81	3569.61
414.03	3610.57
414.24	3577.80
414.45	3696.58
414.66	3594.19
414.87	3657.67
415.08	3739.59
415.30	3702.73
415.51	3835.85
415.72	3704.78
415.93	3653.58
416.14	3651.53
416.35	3704.78
416.56	3778.50
416.78	3997.64
416.99	3782.60
417.20	3762.12
417.41	3882.95
417.62	3819.46
417.83	3887.04
418.04	3936.20
418.26	3893.19
418.47	3870.66
418.68	3979.20
418.89	3921.86
419.10	4161.47
419.31	3891.14
419.52	3938.24
419.73	3952.58
419.95	4130.75
420.16	3911.62
420.37	3981.25
420.58	4044.74
420.79	4038.59
421.00	4001.73
421.21	4011.97
421.42	3928.00
421.63	4130.75
421.85	4097.99
422.06	4073.41
422.27	4071.36
422.48	4091.84
422.69	4216.77
422.90	4335.55
423.11	4306.88
423.32	4315.07
423.53	4351.93
423.75	4310.97
423.96	4392.89
424.17	4245.44
424.38	4368.32
424.59	4345.79
424.80	4581.31
425.01	4526.01
425.22	4499.39
425.43	4390.84
425.64	4581.31
425.85	4681.66
426.06	4532.15
426.28	4534.20
426.49	4501.44
426.70	4513.72
426.91	4605.88
427.12	4542.39
427.33	4624.31
427.54	4523.96
427.75	4652.98
427.96	4765.62
428.17	4712.38
428.38	4745.14
428.59	4808.63
428.80	4736.95
429.01	4739.00
429.23	4808.63
429.44	4995.00
429.65	4982.71
429.86	5021.62
430.07	4753.34
430.28	4739.00
430.49	4937.65
430.70	5038.00
430.91	5144.50
431.12	4958.13
431.33	5136.31
431.54	5058.48
431.75	5050.29
431.96	5164.98
432.17	5058.48
432.38	5101.49
432.59	5320.62
432.80	5234.61
433.01	5085.11
433.22	5326.77
433.43	5253.04
433.64	5312.43
433.85	5162.93
434.06	5420.97
434.27	5248.94
434.49	5361.58
434.70	5337.01
434.91	5425.07
435.12	5386.16
435.33	5449.64
435.54	5406.64
435.75	5296.05
435.96	5250.99
436.17	5310.38
436.38	5689.26
436.59	5566.38
436.80	5570.48
437.01	5601.19
437.22	5742.50
437.43	5752.74
437.64	5353.39
437.85	5730.22
438.06	5762.98
438.27	5619.63
438.48	5644.20
438.69	5853.09
438.90	5709.74
439.11	5689.26
439.32	5883.81
439.53	5754.79
439.74	5857.19
439.95	5828.52
440.16	5797.80
440.37	5875.62
440.57	5783.46
440.78	5930.92
440.99	5889.96
441.20	6008.74
441.41	6039.46
441.62	6039.46
441.83	5865.38
442.04	5924.77
442.25	5932.97
442.46	5990.31
442.67	6078.37
442.88	6528.92
443.09	5935.01
443.30	6090.66
443.51	6178.72
443.72	6504.35
443.93	6059.94
444.14	6422.43
444.35	6059.94
444.56	6258.59
444.77	6272.93
444.98	6277.02
445.19	6428.57
445.40	6291.36
445.61	6281.12
445.81	6360.99
446.02	6508.44
446.23	6336.42
446.44	6258.59
446.65	6502.30
446.86	6492.06
447.07	6623.13
447.28	6604.70
447.49	6657.95
447.70	6483.87
447.91	6498.20
448.12	6455.20
448.33	6866.84
448.54	6791.06
448.74	6598.56
448.95	6737.82
449.16	6588.32
449.37	6979.48
449.58	6631.32
449.79	6862.74
450.00	6612.89
450.21	6795.16
450.42	6999.96
450.63	7059.35
450.84	6922.13
451.05	6942.61
451.25	6948.76
451.46	6817.69
451.67	7018.39
451.88	7296.91
452.09	7038.87
452.30	7169.94
452.51	7110.55
452.72	7212.95
452.93	7643.02
453.13	7135.12
453.34	7112.60
453.55	7251.86
453.76	7223.19
453.97	7497.61
454.18	7427.98
454.39	7522.19
454.60	7466.89
454.81	7341.97
455.01	7628.68
455.22	7298.96
455.43	7460.75
455.64	7720.84
455.85	7841.67
456.06	8034.18
456.27	7606.16
456.48	7647.12
456.68	7661.45
456.89	7819.14
457.10	7851.91
457.31	7876.49
457.52	7982.98
457.73	8220.55
457.94	8118.15
458.14	7757.71
458.35	8263.55
458.56	8183.68
458.77	8241.03
458.98	8193.92
459.19	8120.20
459.39	8349.57
459.60	8595.32
459.81	8118.15
460.02	8417.15
460.23	8531.84
460.44	8576.89
460.65	8523.65
460.85	8757.11
461.06	8800.12
461.27	8374.14
461.48	8793.98
461.69	8943.48
461.89	8595.32
462.10	8742.78
462.31	8658.81
462.52	8654.72
462.73	8976.25
462.94	9013.11
463.14	9043.83
463.35	8904.57
463.56	9490.29
463.77	9545.58
463.98	8945.53
464.18	9097.08
464.39	9365.36
464.60	9656.17
464.81	9463.66
465.02	9338.74
465.23	9703.28
465.43	9418.61
465.64	9650.03
465.85	9547.63
466.06	9699.18
466.27	9879.40
466.47	9938.79
466.68	9977.70
466.89	10088.29
467.10	10157.92
467.30	9719.66
467.51	10147.69
467.72	10243.94
467.93	10100.58
468.14	10157.92
468.34	10428.26
468.55	10323.81
468.76	10291.04
468.97	10563.42
469.17	10446.69
469.38	10760.03
469.59	10696.54
469.80	10561.37
470.01	10538.85
470.21	10737.50
470.42	11202.39
470.63	11265.88
470.84	11091.80
471.04	11163.48
471.25	11140.95
471.46	11110.23
471.67	11618.13
471.87	11226.96
472.08	11429.71
472.29	11562.83
472.50	11497.30
472.70	11409.23
472.91	11614.03
473.12	11829.07
473.33	11800.40
473.53	11921.23
473.74	12025.67
473.95	12283.72
474.16	12207.94
474.36	12099.40
474.57	12379.97
474.78	12474.18
474.99	12345.16
475.19	12367.68
475.40	12810.04
475.61	12830.52
475.81	12879.68
476.02	12949.31
476.23	12998.46
476.44	13031.23
476.64	13383.48
476.85	13160.25
477.06	13178.68
477.27	13422.39
477.47	13715.25
477.68	13666.10
477.89	13659.95
478.09	13807.41
478.30	13705.01
478.51	13821.74
478.71	14214.95
478.92	14180.14
479.13	14135.08
479.34	14429.99
479.54	14464.80
479.75	14473.00
479.96	14610.21
480.16	14632.74
480.37	14866.21
480.58	14886.68
480.78	15097.63
480.99	14894.88
481.20	15187.74
481.41	15099.67
481.61	15324.95
481.82	15626.00
482.03	15449.88
482.23	15339.29
482.44	15642.39
482.65	15996.68
482.85	15818.51
483.06	15894.29
483.27	15748.88
483.47	15957.77
483.68	16017.16
483.89	16381.70
484.09	16420.61
484.30	16316.17
484.51	16840.45
484.71	16887.55
484.92	16582.40
485.13	16793.34
485.33	16811.78
485.54	16930.56
485.75	17100.54
485.95	17372.92
486.16	17190.65
486.37	17520.37
486.57	17368.82
486.78	17401.59
486.98	17688.31
487.19	17671.92
487.40	17727.22
487.60	17751.79
487.81	18067.18
488.02	17860.34
488.22	18163.43
488.43	18022.12
488.64	18284.26
488.84	18480.87
489.05	18665.19
489.25	18515.69
489.46	18794.21
489.67	18634.47
489.87	18958.05
490.08	18882.27
490.29	19132.12
490.49	19457.75
490.70	19295.96
490.90	19463.90
491.11	19205.85
491.32	19680.98
491.52	19576.53
491.73	19461.85
491.94	19738.32
492.14	19558.10
492.35	19955.41
492.55	20123.34
492.76	20041.42
492.97	20045.52
493.17	20338.38
493.38	20287.18
493.58	20797.12
493.79	20508.36
494.00	20442.82
494.20	20541.13
494.41	20854.47
494.61	20692.68
494.82	20889.28
495.02	20670.15
495.23	20928.19
495.44	20936.38
495.64	21225.15
495.85	21690.04
496.05	21362.36
496.26	21448.38
496.47	21696.18
496.67	21513.91
496.88	21802.68
497.08	21802.68
497.29	21827.25
497.49	21925.55
497.70	21857.97
497.91	22195.89
498.11	22122.16
498.32	22388.39
498.52	22601.38
498.73	22867.62
498.93	22339.24
499.14	22494.89
499.34	22666.92
499.55	22976.16
499.76	22638.25
499.96	22787.75
500.17	22636.20
500.37	23160.48
500.58	23099.04
500.78	22935.20
500.99	23162.53
501.19	23256.73
501.40	23238.30
501.60	23199.39
501.81	23365.28
502.02	23588.50
502.22	23574.17
502.43	23568.02
502.63	23623.32
502.84	23684.76
503.04	23819.92
503.25	23809.68
503.45	23799.44
503.66	24135.31
503.86	23963.28
504.07	24274.57
504.27	24084.11
504.48	24536.71
504.68	24381.07
504.89	24637.06
505.09	24567.43
505.30	24546.95
505.50	24637.06
505.71	24882.82
505.91	24790.66
506.12	24784.52
506.32	24977.03
506.53	24800.90
506.73	25085.57
506.94	25276.03
507.14	25032.32
507.35	25095.81
507.55	25120.38
507.76	25374.33
507.96	25398.91
508.17	25532.03
508.37	25452.16
508.58	25824.89
508.78	25646.71
508.99	25722.49
509.19	25591.42
509.40	25628.28
509.60	26015.35
509.81	25943.67
510.01	25945.72
510.22	25939.57
510.42	26199.66
510.63	26187.38
510.83	26328.69
511.04	25802.36
511.24	26261.10
511.44	26170.99
511.65	26476.14
511.85	26578.54
512.06	26470.00
512.26	26519.15
512.47	26533.48
512.67	26459.76
512.88	26564.20
513.08	26633.83
513.29	26887.78
513.49	26900.07
513.69	26756.71
513.90	27061.86
514.10	27010.66
514.31	26963.56
514.51	27225.70
514.72	27180.64
514.92	27276.90
515.13	27446.88
515.33	27321.95
515.53	27512.41
515.74	27629.15
515.94	27344.48
516.15	27498.08
516.35	27244.13
516.56	27985.49
516.76	27588.19
516.96	27635.29
517.17	27971.16
517.37	28171.86
517.58	28155.47
517.78	28139.09
517.99	28352.08
518.19	28153.43
518.39	28241.49
518.60	28241.49
518.80	28419.66
519.01	28679.75
519.21	28628.56
519.41	28683.85
519.62	28444.24
519.82	28558.92
520.03	28702.28
520.23	28919.37
520.43	28737.10
520.64	28909.13
520.84	29081.16
521.05	29306.43
521.25	29201.99
521.45	29390.40
521.66	29523.52
521.86	29404.74
522.07	29746.75
522.27	29509.18
522.47	29670.97
522.68	29955.64
522.88	29587.00
523.08	29677.12
523.29	29806.14
523.49	30027.32
523.70	30023.22
523.90	29804.09
524.10	30363.18
524.31	30137.91
524.51	30340.66
524.71	30772.78
524.92	30275.12
525.12	30604.84
525.33	30555.69
525.53	30846.51
525.73	31079.97
525.94	30866.98
526.14	30873.13
526.34	30914.09
526.55	31239.72
526.75	31284.77
526.95	31313.44
527.16	31249.96
527.36	31198.76
527.56	31682.08
527.77	31675.93
527.97	31847.96
528.17	31299.11
528.38	31976.98
528.58	31821.34
528.78	31946.26
528.99	31733.28
529.19	32259.60
529.39	31952.41
529.60	32314.90
529.80	32267.80
530.00	32169.49
530.21	32689.68
530.41	32917.00
530.61	32695.82
530.82	32929.29
531.02	33107.46
531.22	33103.37
531.43	32968.20
531.63	33191.43
531.83	33291.78
532.04	33533.44
532.24	32902.67
532.44	33365.51
532.64	33295.88
532.85	33928.70
533.05	33854.97
533.25	33983.99
533.46	33734.14
533.66	34041.34
533.86	34121.21
534.07	34819.56
534.27	34119.16
534.47	34360.82
534.67	34526.71
534.88	34330.10
535.08	34729.45
535.28	34971.11
535.49	35126.76
535.69	35036.65
535.89	35192.30
536.09	35096.04
536.30	35261.93
536.50	35438.05
536.70	35433.96
536.91	35485.15
537.11	35349.99
537.31	35263.97
537.51	35767.77
537.72	36373.97
537.92	36128.22
538.12	36369.88
538.32	35825.12
538.53	36378.07
538.73	36335.06
538.93	36224.47
539.13	36263.38
539.34	36451.80
539.54	36431.32
539.74	36656.59
539.94	36462.04
540.15	36404.69
540.35	37311.94
540.55	37133.77
540.75	36859.34
540.96	37068.23
541.16	37451.20
541.36	37066.19
541.56	37232.07
541.77	37492.16
541.97	37404.10
542.17	37455.30
542.37	37629.38
542.58	38084.03
542.78	37531.08
542.98	37596.61
543.18	38124.99
543.38	38446.52
543.59	37752.26
543.79	37955.00
543.99	38012.35
544.19	38294.97
544.40	38143.42
544.60	38311.35
544.80	38440.37
545.00	38733.23
545.20	38852.02
545.41	38297.02
545.61	38835.63
545.81	39099.82
546.01	39155.11
546.21	38708.66
546.42	38897.07
546.62	39282.09
546.82	38809.01
547.02	39142.83
547.22	39241.13
547.43	39431.59
547.63	39636.39
547.83	39658.91
548.03	39220.65
548.23	39849.38
548.44	39482.79
548.64	39699.87
548.84	39722.40
549.04	39857.57
549.24	39781.79
549.45	40107.42
549.65	39554.47
549.85	39871.90
550.05	40015.26
550.25	39824.80
550.45	40521.11
550.66	40396.18
550.86	40218.01
551.06	40721.81
551.26	40191.39
551.46	40549.78
551.66	40517.01
551.87	40803.73
552.07	40244.63
552.27	40527.25
552.47	40463.77
552.67	40752.53
552.87	40695.19
553.07	40994.19
553.28	40979.85
553.48	40918.42
553.68	40719.76
553.88	41254.28
554.08	40871.31
554.28	41211.28
554.48	41061.77
554.69	41629.06
554.89	41289.10
555.09	41176.46
555.29	41317.77
555.49	41403.78
555.69	41174.41
555.89	41678.21
556.10	41725.32
556.30	41893.25
556.50	41917.82
556.70	41833.86
556.90	42042.75
557.10	41766.27
557.30	41735.56
557.50	42024.32
557.70	41696.64
557.91	42274.17
558.11	41764.23
558.31	42077.57
558.51	42134.91
558.71	42089.85
558.91	42147.20
559.11	42120.57
559.31	42048.89
559.51	41923.97
559.72	42691.96
559.92	42444.15
560.12	42550.65
560.32	42630.52
560.52	41874.82
560.72	42423.67
560.92	42395.00
561.12	42370.43
561.32	43040.11
561.52	42395.00
561.72	42706.29
561.93	42628.47
562.13	42415.48
562.33	42397.05
562.53	43318.64
562.73	42784.12
562.93	43054.45
563.13	43042.16
563.33	42939.76
563.53	43068.78
563.73	42677.62
563.93	43138.41
564.13	43369.83
564.33	43328.87
564.53	43314.54
564.74	43185.52
564.94	43003.25
565.14	43515.24
565.34	43230.57
565.54	43677.03
565.74	43361.64
565.94	43670.89
566.14	43423.08
566.34	43365.74
566.54	43726.18
566.74	43294.06
566.94	43953.51
567.14	43611.49
567.34	43668.84
567.54	43941.22
567.74	43644.26
567.94	43507.05
568.14	43746.66
568.34	43908.45
568.54	43924.83
568.74	43955.55
568.94	43601.25
569.14	44354.91
569.34	44248.41
569.54	43853.15
569.75	44234.08
569.95	44293.47
570.15	44332.38
570.35	44455.26
570.55	44123.49
570.75	44711.25
570.95	44377.43
571.15	44621.14
571.35	44696.92
571.55	44404.06
571.75	44631.38
571.95	44627.29
572.15	44293.47
572.35	44664.15
572.55	44371.29
572.75	44709.21
572.95	44533.08
573.15	45055.31
573.35	44651.86
573.55	44524.89
573.75	44989.78
573.95	45401.42
574.15	44586.33
574.35	44815.70
574.55	45004.11
574.75	44336.48
574.95	45129.04
575.15	45161.81
575.34	45118.80
575.54	45147.47
575.74	45411.66
575.94	45413.71
576.14	45360.46
576.34	45983.04
576.54	45507.91
576.74	45751.62
576.94	45423.95
577.14	45751.62
577.34	46024.00
577.54	45331.79
577.74	45927.75
577.94	45864.26
578.14	46110.02
578.34	46060.87
578.54	45452.62
578.74	45573.45
578.94	46167.36
579.14	46046.53
579.34	45804.87
579.54	46374.20
579.74	46617.91
579.94	46148.93
580.13	46841.14
580.33	46542.14
580.53	46771.51
580.73	46443.84
580.93	46763.32
581.13	46636.34
581.33	46447.93
581.53	47349.04
581.73	47297.84
581.93	47134.00
582.13	46964.02
582.33	46888.24
582.53	47148.34
582.73	46710.07
582.92	47224.11
583.12	47404.33
583.32	47164.72
583.52	46859.57
583.72	47846.69
583.92	47021.36
584.12	47332.65
584.32	48176.42
584.52	47555.88
584.72	47973.67
584.92	47736.10
585.11	47619.37
585.31	47871.27
585.51	48006.44
585.71	47785.25
585.91	47906.08
586.11	47959.33
586.31	48112.93
586.51	48188.70
586.71	48131.36
586.91	48207.14
587.10	48141.60
587.30	48375.07
587.50	48444.70
587.70	48696.60
587.90	48602.39
588.10	49005.84
588.30	48530.72
588.50	48827.67
588.69	48643.35
588.89	48665.88
589.09	48985.36
589.29	49046.80
589.49	49046.80
589.69	48524.57
589.89	49169.68
590.08	49181.97
590.28	49163.54
590.48	49274.13
590.68	49110.29
590.88	49153.30
591.08	48858.39
591.28	49241.36
591.47	49564.94
591.67	49397.01
591.87	49485.07
592.07	49378.57
592.27	49550.60
592.47	49440.01
592.67	49599.76
592.86	49310.99
593.06	49450.25
593.26	49794.31
593.46	49495.31
593.66	49872.14
593.86	50400.51
594.05	50056.45
594.25	50140.42
594.45	49405.20
594.65	49822.98
594.85	49689.87
595.05	50017.54
595.24	50038.02
595.44	50224.39
595.64	50228.48
595.84	50369.79
596.04	50179.33
596.23	50619.64
596.43	50742.52
596.63	50435.33
596.83	50554.11
597.03	50502.91
597.22	51111.16
597.42	50625.79
597.62	51086.58
597.82	50640.12
598.02	50971.89
598.21	51223.79
598.41	50959.61
598.61	50748.67
598.81	51002.61
599.01	51066.10
599.20	51365.10
599.40	51125.49
599.60	51500.27
599.80	51453.17
600.00	51584.24
600.19	51856.62
600.39	51692.78
600.59	51541.23
600.79	51543.28
600.98	51762.41
601.18	51684.59
601.38	51983.59
601.58	51969.26
601.78	52577.50
601.97	51715.31
602.17	52393.18
602.37	52323.55
602.57	52272.35
602.76	52360.42
602.96	52241.63
603.16	51950.82
603.36	52096.23
603.55	52532.45
603.75	52479.20
603.95	52387.04
604.15	52552.93
604.34	52524.25
604.54	52358.37
604.74	52341.99
604.94	52688.09
605.13	52765.91
605.33	52870.36
605.53	52751.58
605.73	53101.78
605.92	52946.14
606.12	52927.70
606.32	53329.11
606.52	53134.55
606.71	52872.41
606.91	53062.87
607.11	53007.58
607.30	53048.53
607.50	53314.77
607.70	53279.96
607.90	53243.09
608.09	53482.70
608.29	53470.42
608.49	53474.51
608.68	53535.95
608.88	53701.84
609.08	53740.75
609.28	53701.84
609.47	53435.60
609.67	54228.16
609.87	53519.57
610.06	53316.82
610.26	53654.73
610.46	53642.45
610.66	53597.39
610.85	53976.26
611.05	54049.99
611.25	54203.59
611.44	53724.36
611.64	53413.07
611.84	53562.57
612.03	53468.37
612.23	54045.90
612.43	53880.01
612.62	53746.89
612.82	53667.02
613.02	54435.01
613.21	53871.82
613.41	53742.80
613.61	53847.24
613.80	53308.63
614.00	53724.36
614.20	53982.41
614.39	53814.47
614.59	54146.25
614.79	54058.18
614.98	53720.27
615.18	54060.23
615.38	53834.95
615.57	53755.08
615.77	54244.55
615.97	54168.77
616.16	53978.31
616.36	54064.33
616.56	54138.05
616.75	54150.34
616.95	53906.63
617.15	53972.17
617.34	54131.91
617.54	53728.46
617.74	54099.14
617.93	54439.11
618.13	53920.97
618.32	53929.16
618.52	54203.59
618.72	54142.15
618.91	54297.80
619.11	53648.59
619.31	54176.97
619.50	54199.49
619.70	54072.52
619.90	54185.16
620.09	54093.00
620.29	54176.97
620.48	53753.04
620.68	54420.67
620.88	53638.35
621.07	54150.34
621.27	53994.70
621.46	53787.85
621.66	54400.19
621.86	54138.05
622.05	53400.79
622.25	54154.44
622.44	54000.84
622.64	53806.28
622.84	53849.29
623.03	53931.21
623.23	53783.76
623.42	54025.42
623.62	53791.95
623.82	54125.77
624.01	54205.64
624.21	54297.80
624.40	54299.84
624.60	54303.94
624.80	54002.89
624.99	54170.82
625.19	53849.29
625.38	54144.20
625.58	54027.46
625.77	54420.67
625.97	54035.66
626.17	53742.80
626.36	54248.64
626.56	54064.33
626.75	54035.66
626.95	54252.74
627.14	54375.62
627.34	54637.76
627.54	54121.67
627.73	54416.58
627.93	54000.84
628.12	53589.20
628.32	53714.12
628.51	54009.03
628.71	54506.69
628.90	54285.51
629.10	54199.49
629.30	54105.29
629.49	54002.89
629.69	54144.20
629.88	53941.45
630.08	54564.03
630.27	54586.56
630.47	54230.21
630.66	54508.74
630.86	54453.44
631.05	53712.08
631.25	54564.03
631.44	54514.88
631.64	54021.32
631.84	54162.63
632.03	54557.89
632.23	54402.24
632.42	54738.11
632.62	54570.18
632.81	54056.14
633.01	53996.74
633.20	54613.18
633.40	54518.98
633.59	54441.15
633.79	53908.68
633.98	54369.47
634.18	54668.48
634.37	54668.48
634.57	54205.64
634.76	54926.52
634.96	54576.32
635.15	54615.23
635.35	54394.05
635.54	54539.46
635.74	54535.36
635.93	54172.87
636.13	54783.16
636.32	54793.40
636.52	54232.26
636.71	54697.15
636.91	54973.63
637.10	54715.58
637.30	54760.64
637.49	54582.46
637.69	54658.24
637.88	54936.76
638.08	54600.89
638.27	55088.31
638.46	54451.39
638.66	54672.57
638.85	54860.99
639.05	55155.89
639.24	55323.83
639.44	54670.53
639.63	55053.50
639.83	55059.64
640.02	55123.13
640.22	54688.96
640.41	55325.88
640.61	55010.49
640.80	54768.83
640.99	54697.15
641.19	55600.30
641.38	55092.41
641.58	54930.62
641.77	54893.75
641.97	54797.50
642.16	55121.08
642.36	54930.62
642.55	55565.49
642.74	54932.67
642.94	55612.59
643.13	55364.79
643.33	55805.10
643.52	55344.31
643.72	55784.62
643.91	54965.43
644.10	55166.13
644.30	55817.39
644.49	55186.61
644.69	55727.28
644.88	55143.61
645.08	55268.53
645.27	55463.09
645.46	55518.38
645.66	55755.95
645.85	55078.07
646.05	55702.70
646.24	55989.42
646.43	55590.06
646.63	55938.22
646.82	55848.11
647.02	55690.41
647.21	55178.42
647.40	55743.66
647.60	55970.99
647.79	55944.36
647.99	55665.84
648.18	55647.41
648.37	56331.43
648.57	55565.49
648.76	55735.47
648.96	55567.54
649.15	56013.99
649.34	56267.94
649.54	55674.03
649.73	55635.12
649.92	56065.19
650.12	55964.84
650.31	55817.39
650.51	56095.91
650.70	56034.47
650.89	55917.74
651.09	56370.34
651.28	56071.34
651.47	55858.35
651.67	55985.32
651.86	56358.05
652.06	55547.06
652.25	56638.62
652.44	55792.81
652.64	55846.06
652.83	55655.60
653.02	55686.32
653.22	55907.50
653.41	55868.59
653.60	55729.33
653.80	55925.93
653.99	56495.27
654.18	56112.30
654.38	56112.30
654.57	56200.36
654.76	56241.32
654.96	55940.27
655.15	55950.51
655.34	55850.16
655.54	55858.35
655.73	56026.28
655.92	56366.24
656.12	56186.02
656.31	56177.83
656.50	56116.39
656.70	55952.55
656.89	56126.63
657.08	56468.64
657.28	55858.35
657.47	56140.97
657.66	56005.80
657.86	55735.47
658.05	56366.24
658.24	55964.84
658.43	55780.52
658.63	56173.73
658.82	56100.01
659.01	56341.67
659.21	56415.40
659.40	56581.28
659.59	56130.73
659.79	56294.56
659.98	56292.52
660.17	56120.49
660.36	56435.87
660.56	56304.80
660.75	56128.68
660.94	55993.51
661.14	56179.88
661.33	56470.69
661.52	55661.74
661.71	56304.80
661.91	56071.34
662.10	55983.27
662.29	56503.46
662.49	55653.55
662.68	56177.83
662.87	56263.85
663.06	56100.01
663.26	55821.48
663.45	56343.72
663.64	56100.01
663.83	56630.43
664.03	56356.00
664.22	56337.57
664.41	56597.66
664.60	56294.56
664.80	56421.54
664.99	55819.44
665.18	55989.42
665.37	56138.92
665.57	56388.77
665.76	56235.17
665.95	56456.35
666.14	56374.44
666.34	56089.77
666.53	56292.52
666.72	56073.38
666.91	55927.98
667.11	56126.63
667.30	56128.68
667.49	55927.98
667.68	55964.84
667.87	55960.75
668.07	56323.24
668.26	55442.61
668.45	55911.59
668.64	55841.96
668.84	56876.19
669.03	56208.55
669.22	56079.53
669.41	56120.49
669.60	56444.07
669.80	56310.95
669.99	56491.17
670.18	56120.49
670.37	56235.17
670.57	56200.36
670.76	56009.90
670.95	56300.71
671.14	56063.14
671.33	55674.03
671.53	56575.14
671.72	56310.95
671.91	56202.41
672.10	55923.88
672.29	55891.12
672.48	55762.09
672.68	56786.08
672.87	56147.11
673.06	55678.13
673.25	55690.41
673.44	55551.15
673.64	55690.41
673.83	55559.34
674.02	55340.21
674.21	55618.74
674.40	56366.24
674.59	55264.44
674.79	55600.30
674.98	55569.58
675.17	56050.86
675.36	55719.09
675.55	55422.13
675.74	55727.28
675.94	55803.05
676.13	55747.76
676.32	56155.30
676.51	55893.16
676.70	55932.07
676.89	55872.68
677.08	55803.05
677.28	55706.80
677.47	55893.16
677.66	56351.91
677.85	55571.63
678.04	56147.11
678.23	56038.57
678.42	56218.79
678.62	55489.71
678.81	55923.88
679.00	56046.76
679.19	56136.87
679.38	56063.14
679.57	55942.31
679.76	55979.18
679.96	56030.38
680.15	55938.22
680.34	55581.87
680.53	55579.82
680.72	55749.81
680.91	55862.44
681.10	55528.62
681.29	55516.34
681.48	55555.25
681.68	55893.16
681.87	55370.93
682.06	55760.05
682.25	55211.19
682.44	55194.81
682.63	55850.16
682.82	55729.33
683.01	55133.37
683.20	55291.06
683.39	55782.57
683.59	55284.92
683.78	55291.06
683.97	55391.41
684.16	55205.05
684.35	55123.13
684.54	55403.70
684.73	55262.39
684.92	55209.14
685.11	55583.92
685.30	55551.15
685.49	55622.83
685.69	55190.71
685.88	55213.24
686.07	55481.52
686.26	54920.38
686.45	55547.06
686.64	55473.33
686.83	55125.17
687.02	55407.79
687.21	54998.20
687.40	55024.82
687.59	55221.43
687.78	55141.56
687.97	55391.41
688.16	55280.82
688.35	54645.95
688.54	54955.19
688.74	55377.08
688.93	55162.04
689.12	55327.92
689.31	54961.34
689.50	55243.96
689.69	54305.99
689.88	54727.87
690.07	55438.51
690.26	54863.03
690.45	55628.98
690.64	55342.26
690.83	54990.01
691.02	54813.88
691.21	55114.94
691.40	54645.95
691.59	54795.45
691.78	54523.07
691.97	55065.78
692.16	54551.74
692.35	54836.41
692.54	54908.09
692.73	54940.86
692.92	54381.76
693.11	54779.07
693.30	54686.91
693.49	55020.73
693.68	54701.25
693.87	54920.38
694.06	54373.57
694.25	54916.28
694.44	54537.41
694.63	54846.65
694.82	54883.51
695.01	54500.54
695.20	54011.08
695.39	54557.89
695.58	54361.28
695.77	54222.02
695.96	54404.29
696.15	54383.81
696.34	54197.44
696.53	54508.74
696.72	54244.55
696.91	54457.54
697.10	54351.04
697.29	53732.56
697.48	54424.77
697.67	54187.21
697.86	53959.88
698.05	54000.84
698.24	54457.54
698.43	53581.01
698.62	54428.87
698.81	53605.58
699.00	54430.91
699.19	54099.14
699.38	54121.67
699.57	53595.34
699.76	54832.32
699.95	54170.82
700.14	53974.22
700.32	53525.71
700.51	53875.91
700.70	54047.94
700.89	54113.48
701.08	54002.89
701.27	54049.99
701.46	54342.85
701.65	53171.41
701.84	53503.18
702.03	53400.79
702.22	53329.11
702.41	53650.64
702.60	53470.42
702.79	53912.78
702.98	53417.17
703.17	53290.19
703.35	53378.26
703.54	53531.86
703.73	53697.74
703.92	53302.48
704.11	53085.40
704.30	53101.78
704.49	53243.09
704.68	53136.60
704.87	53169.36
705.06	52657.37
705.25	53337.30
705.43	53077.21
705.62	53507.28
705.81	53062.87
706.00	53265.62
706.19	52804.83
706.38	52800.73
706.57	53159.12
706.76	52667.61
706.95	53210.32
707.14	52772.06
707.32	52851.93
707.51	52499.68
707.70	52884.70
707.89	52329.70
708.08	53169.36
708.27	52700.38
708.46	53308.63
708.65	52761.82
708.84	52845.79
709.02	52786.39
709.21	52335.84
709.40	52704.48
709.59	52837.59
709.78	51946.73
709.97	52786.39
710.16	52393.18
710.34	52346.08
710.53	52194.53
710.72	52374.75
710.91	52425.95
711.10	52276.45
711.29	52716.76
711.48	52518.11
711.66	52503.77
711.85	52106.47
712.04	52200.68
712.23	52192.48
712.42	52012.26
712.61	51649.77
712.80	51535.09
712.98	51862.76
713.17	52210.92
713.36	51696.88
713.55	52051.17
713.74	51823.85
713.93	51537.13
714.11	51406.06
714.30	51180.79
714.49	51428.59
714.68	51717.35
714.87	51762.41
715.06	51789.03
715.24	51371.25
715.43	51809.51
715.62	51305.71
715.81	51096.82
716.00	51518.70
716.18	51172.60
716.37	50914.55
716.56	50713.85
716.75	51535.09
716.94	51143.92
717.12	50955.51
717.31	51160.31
717.50	50707.71
717.69	50722.04
717.88	50945.27
718.06	50736.38
718.25	51404.02
718.44	50537.72
718.63	50947.32
718.82	50476.29
719.00	50584.83
719.19	50240.77
719.38	50279.68
719.57	50099.46
719.76	49818.89
719.94	49970.44
720.13	49898.76
720.32	50156.80
720.51	50081.03
720.69	49659.15
720.88	49820.94
721.07	49745.16
721.26	49331.47
721.44	49620.23
721.63	49354.00
721.82	49444.11
722.01	49337.62
722.20	49732.87
722.38	48944.41
722.57	49239.31
722.76	49315.09
722.95	49067.28
723.13	48882.97
723.32	48993.56
723.51	48530.72
723.70	48719.13
723.88	48653.59
724.07	48590.11
724.26	49061.14
724.44	48516.38
724.63	49014.04
724.82	49227.02
725.01	48510.24
725.19	48477.47
725.38	48792.86
725.57	48448.80
725.76	48543.00
725.94	48293.15
726.13	48479.52
726.32	48278.82
726.51	48121.12
726.69	48641.31
726.88	48166.18
727.07	48323.87
727.25	47654.18
727.44	48233.76
727.63	48170.27
727.82	47693.10
728.00	48190.75
728.19	48227.62
728.38	48225.57
728.56	47439.15
728.75	48035.11
728.94	47901.99
729.12	47852.84
729.31	48166.18
729.50	48010.53
729.69	48121.12
729.87	47772.97
730.06	47719.72
730.25	47928.61
730.43	47957.28
730.62	47445.29
730.81	47844.65
730.99	47953.19
731.18	47871.27
731.37	48420.13
731.55	48213.28
731.74	48510.24
731.93	48051.49
732.11	47832.36
732.30	48026.92
732.49	47437.10
732.67	47578.41
732.86	47523.11
733.05	47818.02
733.23	47416.62
733.42	47799.59
733.61	47674.66
733.79	47512.88
733.98	48035.11
734.17	47875.37
734.35	47654.18
734.54	47967.52
734.73	48180.51
734.91	47721.77
735.10	47496.49
735.29	47691.05
735.47	46923.06
735.66	47392.04
735.84	47650.09
736.03	47265.07
736.22	47445.29
736.40	47070.51
736.59	47658.28
736.78	47846.69
736.96	47230.26
737.15	47449.39
737.33	47004.98
737.52	46953.78
737.71	46972.21
737.89	47437.10
738.08	47228.21
738.27	46953.78
738.45	47455.53
738.64	47301.93
738.82	46968.12
739.01	47123.76
739.20	46558.52
739.38	46927.16
739.57	47166.77
739.75	47265.07
739.94	46773.56
740.13	47084.85
740.31	46855.48
740.50	46773.56
740.68	46701.88
740.87	46908.72
741.06	46538.04
741.24	46894.39
741.43	46499.13
741.61	46755.13
741.80	46454.08
741.99	46318.91
742.17	46568.76
742.36	46724.41
742.54	46097.73
742.73	46527.80
742.91	46976.31
743.10	46298.43
743.29	46730.55
743.47	46568.76
743.66	46159.17
743.84	46617.91
744.03	46503.23
744.21	46089.54
744.40	46546.23
744.59	45978.95
744.77	45757.77
744.96	46191.94
745.14	46275.90
745.33	46241.09
745.51	46087.49
745.70	46175.55
745.88	45909.32
746.07	45962.56
746.26	46064.96
746.44	46429.50
746.63	46314.81
746.81	45751.62
747.00	46007.62
747.18	46267.71
747.37	45927.75
747.55	46060.87
747.74	46128.45
747.92	45741.38
748.11	45815.11
748.29	45839.68
748.48	45823.30
748.66	45667.66
748.85	45483.34
749.03	45634.89
749.22	45782.34
749.41	45129.04
749.59	45389.13
749.78	45512.01
749.96	45446.47
750.15	45260.11
750.33	45569.35
750.52	45716.81
750.70	45491.53
750.89	44983.63
751.07	44836.18
751.26	45141.33
751.44	45380.94
751.63	45090.13
751.81	44512.60
752.00	44895.57
752.18	45065.55
752.37	45030.74
752.55	44590.42
752.74	44791.12
752.92	45188.43
753.10	44664.15
753.29	44813.65
753.47	44916.05
753.66	44338.52
753.84	44817.75
754.03	44707.16
754.21	44381.53
754.40	44686.68
754.58	45122.90
754.77	44678.49
754.95	44479.83
755.14	44576.09
755.32	44430.68
755.51	44234.08
755.69	44289.37
755.88	44574.04
756.06	44809.56
756.24	44254.56
756.43	44279.13
756.61	44440.92
756.80	44217.69
756.98	43930.98
757.17	44111.20
757.35	44313.95
757.54	43937.12
757.72	44131.68
757.90	43902.31
758.09	43847.01
758.27	44193.12
758.46	43869.54
758.64	44057.95
758.83	44393.82
759.01	43902.31
759.19	43771.24
759.38	43976.03
759.56	44316.00
759.75	44111.20
759.93	43392.36
760.12	43474.28
760.30	43933.03
760.48	43578.73
760.67	43638.12
760.85	43787.62
761.04	44008.80
761.22	43660.65
761.40	43736.42
761.59	43554.15
761.77	43089.26
761.96	43492.71
762.14	42995.06
762.32	43160.94
762.51	43003.25
762.69	43394.41
762.88	43382.12
763.06	43564.39
763.24	43048.30
763.43	43234.67
763.61	43070.83
763.80	43201.90
763.98	42950.00
764.16	43511.14
764.35	42993.01
764.53	42653.05
764.72	42734.96
764.90	42812.79
765.08	42898.80
765.27	43017.58
765.45	42325.37
765.63	42464.63
765.82	42618.23
766.00	42165.63
766.18	42759.54
766.37	42362.23
766.55	42595.70
766.74	42530.17
766.92	42374.52
767.10	42440.06
767.29	42182.01
767.47	41506.18
767.65	42182.01
767.84	41923.97
768.02	42261.88
768.20	41969.02
768.39	41993.60
768.57	42186.11
768.75	41776.51
768.94	42073.47
769.12	42308.99
769.30	41670.02
769.49	41467.27
769.67	41610.63
769.85	41117.07
770.04	41354.63
770.22	41293.19
770.40	41248.14
770.59	41422.22
770.77	41819.52
770.95	41360.78
771.14	41149.84
771.32	40955.28
771.50	40975.76
771.69	41084.30
771.87	41092.49
772.05	41268.62
772.24	40701.33
772.42	41432.46
772.60	41014.67
772.78	40732.05
772.97	40840.59
773.15	41033.10
773.33	40957.33
773.52	40674.71
773.70	40949.14
773.88	40891.79
774.07	40504.73
774.25	40879.50
774.43	40959.38
774.61	40979.85
774.80	40797.59
774.98	41188.75
775.16	41076.11
775.34	40758.67
775.53	40746.39
775.71	41059.73
775.89	41016.72
776.08	40732.05
776.26	41160.08
776.44	41026.96
776.62	40924.56
776.81	40711.57
776.99	41072.01
777.17	41029.01
777.35	40818.07
777.54	41475.46
777.72	40865.17
777.90	40965.52
778.08	41420.17
778.27	40793.49
778.45	41237.90
778.63	41264.52
778.81	40834.45
779.00	41758.08
779.18	41375.11
779.36	41889.15
779.54	40965.52
779.73	41039.25
779.91	41487.75
780.09	41377.16
780.27	41796.99
780.46	41541.00
780.64	41457.03
780.82	41411.98
781.00	41207.18
781.19	41663.88
781.37	41792.90
781.55	41524.61
781.73	41690.50
781.91	41424.26
782.10	41692.55
782.28	41803.14
782.46	41624.96
782.64	41952.64
782.82	41592.20
783.01	42235.26
783.19	41768.32
783.37	41856.39
783.55	41766.27
783.74	41876.86
783.92	41618.82
784.10	41997.70
784.28	41942.40
784.46	41807.23
784.64	41407.88
784.83	41379.21
785.01	42220.92
785.19	41696.64
785.37	41598.34
785.55	42276.22
785.74	41321.87
785.92	41735.56
786.10	41809.28
786.28	41395.59
786.46	41379.21
786.64	41536.90
786.83	41512.33
787.01	41102.73
787.19	41381.26
787.37	41383.30
787.55	41598.34
787.74	40961.42
787.92	41127.31
788.10	41215.37
788.28	41272.71
788.46	41098.64
788.64	40754.58
788.82	40902.03
789.01	41002.38
789.19	41229.71
789.37	40854.93
789.55	40902.03
789.73	40590.74
789.91	40668.56
790.09	40480.15
790.28	40394.14
790.46	40111.52
790.64	40445.33
790.82	40596.88
791.00	40209.82
791.18	39876.00
791.36	40058.27
791.55	40166.81
791.73	39656.87
791.91	39658.91
792.09	39927.20
792.27	39761.31
792.45	39550.37
792.63	39394.73
792.81	39503.27
793.00	39339.43
793.18	38800.82
793.36	39155.11
793.54	39202.22
793.72	38868.40
793.90	38919.60
794.08	38960.56
794.26	38989.23
794.44	38438.33
794.62	38327.74
794.81	39028.14
794.99	38653.36
795.17	38606.26
795.35	38231.48
795.53	38784.43
795.71	38667.70
795.89	37979.58
796.07	37938.62
796.25	37680.58
796.43	37905.85
796.61	37705.15
796.80	37658.05
796.98	38098.36
797.16	37471.68
797.34	37531.08
797.52	37598.66
797.70	37922.24
797.88	37430.72
798.06	37238.22
798.24	37162.44
798.42	37258.70
798.60	36672.98
798.78	37080.52
798.96	36988.36
799.14	36396.50
799.32	36885.97
799.51	36636.11
799.69	36384.21
799.87	36535.76
800.05	36570.58
800.23	36349.40
800.41	36068.83
800.59	36001.24
800.77	36009.43
800.95	35960.28
801.13	35894.75
801.31	35837.41
801.49	36005.34
801.67	35313.13
801.85	35417.57
802.03	35231.21
802.21	35640.80
802.39	35290.60
802.57	35487.20
802.75	34938.35
802.93	34924.01
803.11	34889.20
803.29	34870.76
803.47	34713.07
803.65	34508.27
803.83	34448.88
804.01	34405.88
804.19	34313.72
804.37	34186.74
804.55	34393.59
804.73	33895.93
804.91	34135.54
805.09	34016.76
805.27	34102.78
805.45	34174.45
805.63	34041.34
805.81	33887.74
805.99	34031.10
806.17	33586.69
806.35	33754.62
806.53	33682.94
806.71	33644.03
806.89	33555.97
807.07	33431.04
807.25	33347.08
807.43	33336.84
807.61	33785.34
807.79	33129.99
807.97	32947.72
808.15	32620.05
808.33	33095.18
808.51	32488.98
808.69	32749.07
808.87	32458.26
809.05	32263.70
809.23	32540.18
809.41	32243.22
809.59	32728.59
809.77	32572.94
809.95	32060.95
810.13	32017.94
810.31	32192.02
810.49	32044.57
810.67	31753.76
810.84	31997.46
811.02	32019.99
811.20	31688.22
811.38	32007.70
811.56	31473.18
811.74	31548.96
811.92	31475.23
812.10	31634.97
812.28	31591.97
812.46	31272.48
812.64	31356.45
812.82	31219.24
813.00	31397.41
813.18	31524.38
813.36	31163.94
813.53	31043.11
813.71	31082.02
813.89	31270.43
814.07	31213.09
814.25	30971.43
814.43	30561.84
814.61	30789.16
814.79	31036.97
814.97	30506.54
815.15	30815.79
815.33	30168.63
815.50	30369.33
815.68	30354.99
815.86	30459.44
816.04	30455.34
816.22	30320.18
816.40	30264.88
816.58	30058.04
816.76	30062.13
816.94	29980.21
817.11	30271.03
817.29	29980.21
817.47	29558.33
817.65	30041.65
817.83	29861.43
818.01	29621.82
818.19	29761.08
818.37	29654.59
818.54	29554.24
818.72	28958.28
818.90	29347.39
819.08	29544.00
819.26	29345.34
819.44	29257.28
819.62	29480.51
819.80	29265.47
819.97	29027.91
820.15	29118.02
820.33	28737.10
820.51	28937.80
820.69	28794.44
820.87	28958.28
821.05	29363.78
821.22	28935.75
821.40	28833.35
821.58	28782.15
821.76	28743.24
821.94	28624.46
822.12	28610.12
822.29	28919.37
822.47	28573.26
822.65	28767.82
822.83	28520.01
823.01	28583.50
823.19	28415.57
823.36	28218.96
823.54	28159.57
823.72	28538.44
823.90	28145.23
824.08	28134.99
824.25	28180.05
824.43	28118.61
824.61	28208.72
824.79	27893.33
824.97	28055.12
825.15	27903.57
825.32	27772.50
825.50	27821.66
825.68	27580.00
825.86	28003.92
826.04	27702.87
826.21	27850.33
826.39	27879.00
826.57	27651.67
826.75	27678.30
826.93	27407.97
827.10	27215.46
827.28	27180.64
827.46	27749.98
827.64	27395.68
827.81	27145.83
827.99	27512.41
828.17	26971.75
828.35	27309.66
828.53	26981.99
828.70	27057.76
828.88	27082.34
829.06	27172.45
829.24	27350.62
829.41	27319.90
829.59	27264.61
829.77	26887.78
829.95	27106.91
830.12	26857.06
830.30	26758.76
830.48	26875.49
830.66	26844.77
830.84	26889.83
831.01	26807.91
831.19	26793.58
831.37	26685.03
831.55	26506.86
831.72	26658.41
831.90	26687.08
832.08	26584.68
832.25	26420.84
832.43	26664.55
832.61	26617.45
832.79	26252.91
832.96	26156.66
833.14	26510.96
833.32	26271.34
833.50	26271.34
833.67	26244.72
833.85	26443.37
834.03	26084.98
834.20	26441.32
834.38	26383.98
834.56	26336.88
834.74	26226.29
834.91	26058.35
835.09	25966.20
835.27	25517.69
835.44	26136.18
835.62	25517.69
835.80	25884.28
835.98	25917.04
836.15	25779.83
836.33	25667.19
836.51	25968.24
836.68	25906.80
836.86	25732.73
837.04	25902.71
837.21	25378.43
837.39	25798.26
837.57	25945.72
837.75	25806.45
837.92	25472.64
838.10	25683.58
838.28	25529.98
838.45	25468.54
838.63	25527.93
838.81	25304.70
838.98	25237.12
839.16	25245.31
839.34	25124.48
839.51	25298.56
839.69	24997.51
839.87	25091.71
840.04	25091.71
840.22	25261.69
840.40	25120.38
840.57	24639.11
840.75	24917.64
840.93	24583.82
841.10	24952.45
841.28	24876.68
841.46	25056.90
841.63	25054.85
841.81	24721.03
841.98	24624.78
842.16	24585.86
842.34	24823.43
842.51	24528.52
842.69	24940.16
842.87	24628.87
843.04	24637.06
843.22	24211.09
843.40	24258.19
843.57	24604.30
843.75	24489.61
843.92	24497.80
844.10	24675.98
844.28	24295.05
844.45	24438.41
844.63	24667.78
844.81	24338.06
844.98	24665.74
845.16	24370.83
845.33	24553.10
845.51	24290.96
845.69	24059.54
845.86	24356.49
846.04	23924.37
846.21	23918.23
846.39	24206.99
846.57	24112.78
846.74	23592.60
846.92	24186.51
847.09	24168.08
847.27	23989.91
847.45	24000.15
847.62	24143.50
847.80	24028.82
847.97	24057.49
848.15	23942.80
848.32	23746.20
848.50	23658.14
848.68	23279.26
848.85	23768.73
849.03	23473.82
849.20	23338.65
849.38	23547.54
849.56	23365.28
849.73	23367.32
849.91	23502.49
850.08	23690.90
850.26	23377.56
850.43	23432.86
850.61	23424.67
850.78	23049.89
850.96	23320.22
851.14	23215.77
851.31	23279.26
851.49	23312.03
851.66	23281.31
851.84	23111.33
852.01	23156.38
852.19	22892.19
852.36	23039.65
852.54	22976.16
852.71	23004.83
852.89	23080.61
853.07	23279.26
853.24	23049.89
853.42	23230.11
853.59	23158.43
853.77	22910.63
853.94	22806.18
854.12	23039.65
854.29	22640.29
854.47	22820.52
854.64	22816.42
854.82	22662.82
854.99	22675.11
855.17	22834.85
855.34	22847.14
855.52	22597.29
855.69	22804.13
855.87	22363.82
856.04	22562.47
856.22	22464.17
856.39	22245.04
856.57	22607.53
856.74	22322.86
856.92	22236.84
857.09	22189.74
857.27	22314.67
857.44	22333.10
857.62	22267.56
857.79	22470.31
857.97	22429.35
858.14	22417.07
858.32	22185.65
858.49	22171.31
858.67	21968.56
858.84	21788.34
859.02	21960.37
859.19	21997.23
859.37	21892.79
859.54	21821.11
859.72	22044.34
859.89	21931.70
860.06	21917.36
860.24	21835.44
860.41	22177.45
860.59	21454.52
860.76	21626.55
860.94	21495.48
861.11	21841.59
861.29	21696.18
861.46	21503.67
861.64	21534.39
861.81	21761.72
861.98	21526.20
862.16	21450.42
862.33	21354.17
862.51	20958.91
862.68	21466.81
862.86	21280.44
863.03	21485.24
863.21	21415.61
863.38	21171.90
863.55	20979.39
863.73	21190.33
863.90	21026.50
864.08	21241.53
864.25	21298.88
864.43	21159.61
864.60	21102.27
864.77	20743.88
864.95	21126.85
865.12	20850.37
865.30	20995.78
865.47	20866.75
865.64	20762.31
865.82	20825.79
865.99	20817.60
866.17	20850.37
866.34	20954.82
866.51	20577.99
866.69	20827.84
866.86	21030.59
867.04	20625.09
867.21	20571.85
867.38	20381.38
867.56	20553.41
867.73	20154.06
867.91	20123.34
868.08	20031.18
868.25	20213.45
868.43	20063.95
868.60	20283.08
868.78	20133.58
868.95	20528.84
869.12	20102.86
869.30	19973.84
869.47	19965.65
869.64	19859.15
869.82	20000.46
869.99	20012.75
870.16	20066.00
870.34	19955.41
870.51	20242.12
870.69	19723.99
870.86	19793.62
871.03	19834.58
871.21	19857.10
871.38	19975.89
871.55	19533.53
871.73	19689.17
871.90	19558.10
872.07	19449.56
872.25	19427.03
872.42	19248.86
872.59	19353.30
872.77	19404.50
872.94	19228.38
873.11	19498.71
873.29	19283.67
873.46	19154.65
873.63	19400.41
873.81	19164.89
873.98	19189.47
874.15	19267.29
874.33	18804.45
874.50	18949.85
874.67	18824.93
874.85	18970.33
875.02	18722.53
875.19	18732.77
875.37	18894.56
875.54	18515.69
875.71	18697.95
875.88	18597.60
876.06	18673.38
876.23	18558.69
876.40	18470.63
876.58	18452.20
876.75	18622.18
876.92	18515.69
877.10	18446.05
877.27	18321.13
877.44	18286.31
877.61	18312.94
877.79	18099.95
877.96	18108.14
878.13	18040.56
878.31	18034.41
878.48	17993.45
878.65	17835.76
878.82	17768.18
879.00	17970.93
879.17	17977.07
879.34	17975.02
879.51	17493.75
879.69	17604.34
879.86	17520.37
880.03	17622.77
880.21	17633.01
880.38	17680.11
880.55	17569.52
880.72	17487.61
880.90	17727.22
881.07	17448.69
881.24	17499.89
881.41	17540.85
881.59	17460.98
881.76	17463.03
881.93	17100.54
882.10	17387.25
882.28	17379.06
882.45	17411.83
882.62	17204.99
882.79	17356.54
882.96	17078.01
883.14	17346.30
883.31	17417.97
883.48	17272.57
883.65	17147.64
883.83	17139.45
884.00	17166.07
884.17	16733.95
884.34	17135.35
884.51	16914.17
884.69	16975.61
884.86	17116.92
885.03	17014.52
885.20	16733.95
885.38	16983.80
885.55	16955.13
885.72	16918.27
885.89	16645.89
886.06	16908.03
886.24	16965.37
886.41	16453.38
886.58	16666.37
886.75	16998.14
886.92	16629.51
887.10	16361.22
887.27	16477.96
887.44	16547.59
887.61	16674.56
887.78	16604.93
887.95	16719.62
888.13	16398.09
888.30	16324.36
888.47	16568.07
888.64	16355.08
888.81	16363.27
888.99	16332.55
889.16	16146.19
889.33	16154.38
889.50	16064.27
889.67	16148.23
889.84	16178.95
890.01	16232.20
890.19	16021.26
890.36	16000.78
890.53	15845.13
890.70	15898.38
890.87	15877.90
891.04	15863.57
891.22	16006.92
891.39	16015.12
891.56	15722.26
891.73	15609.62
891.90	15660.82
892.07	15568.66
892.24	15900.43
892.42	15656.72
892.59	15630.10
892.76	15527.70
892.93	15499.03
893.10	15701.78
893.27	15525.65
893.44	15525.65
893.61	15472.40
893.79	15499.03
893.96	15357.72
894.13	15621.91
894.30	15433.49
894.47	15599.38
894.64	15509.27
894.81	15425.30
894.98	15662.86
895.15	15419.16
895.33	15275.80
895.50	15335.19
895.67	15777.55
895.84	15320.85
896.01	15357.72
896.18	15494.93
896.35	15402.77
896.52	15249.18
896.69	15243.03
896.86	15146.78
897.04	15415.06
897.21	15281.94
897.38	15277.85
897.55	15150.87
897.72	15243.03
897.89	15429.40
898.06	15333.14
898.23	14896.92
898.40	15089.43
898.57	15331.09
898.74	15173.40
898.91	15249.18
899.08	15302.42
899.26	15177.50
899.43	15394.58
899.60	15060.76
899.77	15126.30
899.94	15175.45
900.11	15120.15
900.28	15114.01
900.45	15075.10
900.62	15189.78
900.79	15374.10
900.96	15126.30
901.13	15073.05
901.30	14915.36
901.47	15013.66
901.64	15038.23
901.81	15214.36
901.98	15208.22
902.15	15107.87
902.32	14946.08
902.49	15161.11
902.66	15187.74
902.83	15097.63
903.01	14896.92
903.18	14935.84
903.35	15097.63
903.52	15173.40
903.69	14997.28
903.86	15118.11
904.03	15085.34
904.20	14964.51
904.37	15165.21
904.54	15048.47
904.71	15056.67
904.88	15218.46
905.05	15124.25
905.22	15265.56
905.39	15068.95
905.56	14831.39
905.73	15062.81
905.90	15083.29
906.07	15318.81
906.24	14960.41
906.41	14925.60
906.58	15009.56
906.75	15105.82
906.92	14853.92
907.09	15009.56
907.26	14954.27
907.43	14677.79
907.60	14642.98
907.77	15214.36
907.93	15066.91
908.10	14884.64
908.27	15230.74
908.44	14587.68
908.61	14954.27
908.78	14851.87
908.95	14898.97
909.12	14563.11
909.29	14989.08
909.46	14798.62
909.63	14651.17
909.80	15021.85
909.97	15071.00
910.14	14956.32
910.31	14964.51
910.48	14915.36
910.65	14726.94
910.82	14741.28
910.99	14624.54
911.16	14493.47
911.33	14831.39
911.50	14714.66
911.66	14559.01
911.83	14618.40
912.00	14640.93
912.17	14380.84
912.34	14462.76
912.51	14628.64
912.68	14233.38
912.85	14452.52
913.02	14479.14
913.19	14223.14
913.36	14456.61
913.53	14462.76
913.70	14159.66
913.86	14593.83
914.03	14417.70
914.20	14432.04
914.37	14184.23
914.54	14100.26
914.71	14186.28
914.88	14149.42
915.05	14415.65
915.22	13991.72
915.39	14231.33
915.55	14288.68
915.72	14075.69
915.89	14010.15
916.06	14090.02
916.23	13831.98
916.40	13778.73
916.57	13860.65
916.74	13872.94
916.91	13770.54
917.07	13569.84
917.24	13616.94
917.41	13735.73
917.58	13643.57
917.75	13571.89
917.92	13549.36
918.09	13647.66
918.26	13584.18
918.42	13520.69
918.59	13653.81
918.76	13164.34
918.93	12971.83
919.10	13295.41
919.27	13109.05
919.44	13281.08
919.60	13455.15
919.77	13150.01
919.94	13219.64
920.11	13012.79
920.28	13090.62
920.45	12904.25
920.61	12939.07
920.78	12814.14
920.95	13047.61
921.12	12953.40
921.29	12754.75
921.46	12552.00
921.62	12529.47
921.79	12625.73
921.96	12678.97
922.13	12611.39
922.30	12582.72
922.47	12597.06
922.63	12586.82
922.80	12496.71
922.97	12396.35
923.14	12328.77
923.31	12328.77
923.47	12277.57
923.64	12533.57
923.81	12113.74
923.98	12234.57
924.15	12191.56
924.32	12054.34
924.48	11997.00
924.65	12107.59
924.82	11831.12
924.99	11900.75
925.15	11718.48
925.32	11929.42
925.49	11659.09
925.66	11837.26
925.83	11693.90
925.99	11525.97
926.16	11714.38
926.33	11689.81
926.50	11192.15
926.67	11530.06
926.83	11337.56
927.00	11312.98
927.17	11482.96
927.34	11280.21
927.50	11425.62
927.67	11329.36
927.84	11263.83
928.01	11315.03
928.17	11110.23
928.34	10940.25
928.51	11032.41
928.68	10856.28
928.84	10901.34
929.01	10776.41
929.18	10915.67
929.35	10768.22
929.51	10530.66
929.68	10551.14
929.85	10669.92
930.02	10424.16
930.18	10510.18
930.35	10588.00
930.52	10534.75
930.69	10579.81
930.85	10415.97
931.02	10393.44
931.19	10489.70
931.36	10237.80
931.52	10149.73
931.69	10286.95
931.86	10119.01
932.02	10141.54
932.19	10057.57
932.36	10164.07
932.53	10039.14
932.69	9748.33
932.86	10084.20
933.03	9918.31
933.19	9578.35
933.36	9619.31
933.53	9817.96
933.70	9686.89
933.86	9594.73
934.03	9602.93
934.20	9506.67
934.36	9527.15
934.53	9142.13
934.70	9176.95
934.86	9283.44
935.03	9072.50
935.20	9162.61
935.36	9129.84
935.53	8955.77
935.70	8959.86
935.86	8894.33
936.03	8822.65
936.20	8714.11
936.36	8718.20
936.53	8793.98
936.70	8621.95
936.86	8566.65
937.03	8345.47
937.20	8124.29
937.36	8189.83
937.53	7942.02
937.70	8114.05
937.86	7843.72
938.03	7767.95
938.20	7907.21
938.36	7667.60
938.53	7696.27
938.70	7577.48
938.86	7497.61
939.03	7434.13
939.20	7305.10
939.36	7313.30
939.53	7292.82
939.70	7268.24
939.86	7061.40
940.03	6883.22
940.19	6952.85
940.36	6918.04
940.53	6850.46
940.69	6672.28
940.86	6823.83
941.03	6563.74
941.19	6528.92
941.36	6436.77
941.52	6360.99
941.69	6348.70
941.86	6178.72
942.02	6150.05
942.19	6088.61
942.35	5990.31
942.52	6084.52
942.69	5953.45
942.85	5953.45
943.02	5994.40
943.18	5914.53
943.35	5717.93
943.52	5756.84
943.68	5705.64
943.85	5681.07
944.01	5676.97
944.18	5713.83
944.35	5730.22
944.51	5478.32
944.68	5480.36
944.84	5380.01
945.01	5394.35
945.17	5425.07
945.34	5517.23
945.51	5476.27
945.67	5509.04
945.84	5511.08
946.00	5371.82
946.17	5351.34
946.33	5257.14
946.50	5439.40
946.67	5380.01
946.83	5386.16
947.00	5484.46
947.16	5320.62
947.33	5408.69
947.49	5345.20
947.66	5291.95
947.82	5418.93
947.99	5263.28
948.16	5277.62
948.32	5373.87
948.49	5343.15
948.65	5347.25
948.82	5330.86
948.98	5388.21
949.15	5234.61
949.31	5308.34
949.48	5267.38
949.64	5341.10
949.81	5279.66
949.97	5232.56
950.14	5474.22
950.30	5173.17
950.47	5328.81
950.63	5416.88
950.80	5308.34
950.96	5314.48
951.13	5291.95
951.30	5294.00
951.46	5537.71
951.63	5343.15
951.79	5367.73
951.96	5476.27
952.12	5371.82
952.29	5361.58
952.45	5246.90
952.62	5455.79
952.78	5552.04
952.94	5341.10
953.11	5410.73
953.27	5277.62
953.44	5455.79
953.60	5289.90
953.77	5439.40
953.93	5459.88
954.10	5439.40
954.26	5543.85
954.43	5384.11
954.59	5672.87
954.76	5459.88
954.92	5330.86
955.09	5582.76
955.25	5435.31
955.42	5423.02
955.58	5506.99
955.75	5459.88
955.91	5478.32
956.07	5484.46
956.24	5480.36
956.40	5562.28
956.57	5545.90
956.73	5597.10
956.90	5451.69
957.06	5590.95
957.23	5550.00
957.39	5433.26
957.56	5326.77
957.72	5390.25
957.88	5455.79
958.05	5654.44
958.21	5593.00
958.38	5564.33
958.54	5494.70
958.71	5611.43
958.87	5455.79
959.03	5537.71
959.20	5445.55
959.36	5435.31
959.53	5367.73
959.69	5236.66
959.85	5541.80
960.02	5494.70
960.18	5533.61
960.35	5406.64
960.51	5515.18
960.68	5472.17
960.84	5484.46
961.00	5588.91
961.17	5470.12
961.33	5463.98
961.50	5523.37
961.66	5484.46
961.82	5480.36
961.99	5445.55
962.15	5611.43
962.31	5468.08
962.48	5502.89
962.64	5531.56
962.81	5341.10
962.97	5541.80
963.13	5443.50
963.30	5521.32
963.46	5408.69
963.62	5326.77
963.79	5404.59
963.95	5365.68
964.12	5367.73
964.28	5435.31
964.44	5312.43
964.61	5515.18
964.77	5369.77
964.93	5523.37
965.10	5363.63
965.26	5259.18
965.42	5377.97
965.59	5287.86
965.75	5238.70
965.92	5420.97
966.08	5400.49
966.24	5382.06
966.41	5314.48
966.57	5398.45
966.73	5283.76
966.90	5435.31
967.06	5330.86
967.22	5345.20
967.39	5267.38
967.55	5191.60
967.71	5205.94
967.88	5142.45
968.04	5050.29
968.20	5257.14
968.37	5140.40
968.53	5193.65
968.69	5197.74
968.85	5306.29
969.02	5355.44
969.18	5304.24
969.34	5255.09
969.51	5181.36
969.67	5121.97
969.83	5205.94
970.00	5171.12
970.16	5226.42
970.32	5271.47
970.48	5105.59
970.65	4941.75
970.81	5154.74
970.97	5095.35
971.14	4939.70
971.30	5236.66
971.46	5101.49
971.63	5007.28
971.79	5038.00
971.95	4999.09
972.11	5009.33
972.28	5083.06
972.44	5035.96
972.60	4890.55
972.76	5124.02
972.93	4861.88
973.09	5093.30
973.25	4999.09
973.42	5021.62
973.58	4954.04
973.74	4886.45
973.90	4900.79
974.07	4853.69
974.23	4960.18
974.39	4882.36
974.55	4812.73
974.72	4902.84
974.88	4644.79
975.04	4808.63
975.20	4908.98
975.37	4706.23
975.53	4872.12
975.69	4765.62
975.85	4689.85
976.01	4890.55
976.18	4763.58
976.34	4734.90
976.50	4720.57
976.66	4769.72
976.83	4798.39
976.99	4786.10
977.15	4695.99
977.31	4624.31
977.47	4761.53
977.64	4517.82
977.80	4609.98
977.96	4751.29
978.12	4652.98
978.29	4532.15
978.45	4573.11
978.61	4442.04
978.77	4587.45
978.93	4581.31
979.10	4534.20
979.26	4556.73
979.42	4532.15
979.58	4390.84
979.74	4421.56
979.91	4509.63
980.07	4521.92
980.23	4464.57
980.39	4409.28
980.55	4448.19
980.71	4472.76
980.88	4362.17
981.04	4489.15
981.20	4431.80
981.36	4429.76
981.52	4456.38
981.68	4351.93
981.85	4462.52
982.01	4431.80
982.17	4390.84
982.33	4364.22
982.49	4538.30
982.65	4243.39
982.82	4231.10
982.98	4294.59
983.14	4304.83
983.30	4329.41
983.46	4419.52
983.62	4302.78
983.79	4116.42
983.95	4304.83
984.11	4143.04
984.27	4263.87
984.43	4333.50
984.59	4315.07
984.75	4167.62
984.91	4106.18
985.08	4208.58
985.24	4042.69
985.40	4112.32
985.56	4114.37
985.72	4116.42
985.88	4100.03
986.04	4011.97
986.20	3968.96
986.37	4120.51
986.53	4018.11
986.69	4067.27
986.85	3989.44
987.01	3964.87
987.17	4046.79
987.33	3938.24
987.49	4005.83
987.65	3973.06
987.82	4007.87
987.98	3917.76
988.14	4100.03
988.30	3825.61
988.46	3946.44
988.62	3977.16
988.78	3897.28
988.94	3827.65
989.10	3827.65
989.26	3819.46
989.42	3946.44
989.59	3751.88
989.75	3811.27
989.91	3708.87
990.07	3665.86
990.23	3841.99
990.39	3737.54
990.55	3868.61
990.71	3723.21
990.87	3813.32
991.03	3747.78
991.19	3694.54
991.35	3688.39
991.51	3743.69
991.67	3858.37
991.83	3760.07
992.00	3706.82
992.16	3850.18
992.32	3741.64
992.48	3692.49
992.64	3655.62
992.80	3745.73
992.96	3575.75
993.12	3731.40
993.28	3717.06
993.44	3641.29
993.60	3631.05
993.76	3606.47
993.92	3616.71
994.08	3641.29
994.24	3641.29
994.40	3643.34
994.56	3545.03
994.72	3524.55
994.88	3602.38
995.04	3540.94
995.20	3502.03
995.36	3538.89
995.52	3530.70
995.68	3467.21
995.84	3418.06
996.00	3633.10
996.16	3407.82
996.32	3362.76
996.48	3493.83
996.64	3510.22
996.80	3293.13
996.96	3387.34
997.12	3454.92
997.28	3338.19
997.44	3375.05
997.60	3448.78
997.76	3332.05
997.92	3508.17
998.08	3358.67
998.24	3330.00
998.40	3258.32
998.56	3375.05
998.72	3299.28
998.88	3379.15
999.04	3330.00
999.20	3289.04
999.36	3342.28
999.52	3274.70
999.68	3246.03
999.84	3354.57
1000.00	3311.57
1000.16	3368.91
1000.32	3151.82
1000.48	3381.20
1000.64	3112.91
1000.80	3160.02
1000.95	3133.39
1001.11	3243.98
1001.27	3137.49
1001.43	3264.46
1001.59	3196.88
1001.75	3153.87
1001.91	3133.39
1002.07	3104.72
1002.23	3180.50
1002.39	3076.05
1002.55	3074.00
1002.71	3200.98
1002.87	3028.95
1003.03	3067.86
1003.19	3008.47
1003.34	3141.58
1003.50	3000.27
1003.66	3096.53
1003.82	3094.48
1003.98	3100.62
1004.14	3127.25
1004.30	2961.36
1004.46	2990.03
1004.62	2994.13
1004.78	2951.12
1004.94	2932.69
1005.09	3008.47
1005.25	3049.43
1005.41	2983.89
1005.57	3057.62
1005.73	2971.60
1005.89	2918.36
1006.05	2885.59
1006.21	2953.17
1006.37	2961.36
1006.52	2936.79
1006.68	2779.09
1006.84	2998.23
1007.00	2926.55
1007.16	2975.70
1007.32	2854.87
1007.48	2930.64
1007.64	2834.39
1007.79	2789.33
1007.95	2764.76
1008.11	2944.98
1008.27	2813.91
1008.43	2787.29
1008.59	2760.66
1008.75	2928.60
1008.91	2805.72
1009.06	2795.48
1009.22	2803.67
1009.38	2863.06
1009.54	2832.34
1009.70	2801.62
1009.86	2828.24
1010.01	2789.33
1010.17	2744.28
1010.33	2832.34
1010.49	2746.33
1010.65	2738.13
1010.81	2781.14
1010.96	2688.98
1011.12	2570.20
1011.28	2637.78
1011.44	2707.41
1011.60	2731.99
1011.76	2705.37
1011.91	2668.50
1012.07	2631.64
1012.23	2578.39
1012.39	2578.39
1012.55	2527.19
1012.71	2617.30
1012.86	2535.39
1013.02	2537.43
1013.18	2559.96
1013.34	2523.10
1013.50	2650.07
1013.65	2484.19
1013.81	2568.15
1013.97	2531.29
1014.13	2537.43
1014.29	2498.52
1014.44	2650.07
1014.60	2521.05
1014.76	2410.46
1014.92	2547.67
1015.07	2576.34
1015.23	2631.64
1015.39	2453.47
1015.55	2404.32
1015.71	2471.90
1015.86	2398.17
1016.02	2453.47
1016.18	2443.23
1016.34	2394.08
1016.49	2414.56
1016.65	2484.19
1016.81	2443.23
1016.97	2523.10
1017.12	2447.32
1017.28	2359.26
1017.44	2357.21
1017.60	2334.68
1017.75	2373.60
1017.91	2410.46
1018.07	2465.75
1018.23	2416.60
1018.38	2375.64
1018.54	2369.50
1018.70	2408.41
1018.86	2336.73
1019.01	2338.78
1019.17	2394.08
1019.33	2428.89
1019.49	2265.05
1019.64	2318.30
1019.80	2344.92
1019.96	2289.63
1020.12	2326.49
1020.27	2226.14
1020.43	2289.63
1020.59	2269.15
1020.74	2408.41
1020.90	2336.73
1021.06	2224.09
1021.22	2181.09
1021.37	2138.08
1021.53	2207.71
1021.69	2287.58
1021.84	2123.74
1022.00	2279.39
1022.16	2174.94
1022.31	2185.18
1022.47	2166.75
1022.63	2193.37
1022.79	2129.89
1022.94	2109.41
1023.10	2316.25
1023.26	2160.61
1023.41	2109.41
1023.57	2133.98
1023.73	2191.33
1023.88	2084.83
1024.04	2082.78
1024.20	2056.16
1024.35	2185.18
1024.51	2228.19
1024.67	2195.42
1024.82	2142.18
1024.98	1939.43
1025.14	2084.83
1025.29	1957.86
1025.45	2105.31
1025.61	2037.73
1025.76	2115.55
1025.92	2095.07
1026.08	2035.68
1026.23	2105.31
1026.39	2107.36
1026.55	2031.58
1026.70	2004.96
1026.86	2072.54
1027.02	2084.83
1027.17	2066.40
1027.33	2084.83
1027.48	2052.06
1027.64	1974.24
1027.80	1929.19
1027.95	2072.54
1028.11	1943.52
1028.27	1984.48
1028.42	1994.72
1028.58	1953.76
1028.73	1912.80
1028.89	1892.32
1029.05	2101.22
1029.20	1953.76
>>>>>End Processed Spectral Data<<<<<
