SpectraSuite Data File
++++++++++++++++++++++++++++++++++++
Date: Fri Jun 02 14:49:29 CEST 2017
User: INFO_000
Dark Spectrum Present: No
Reference Spectrum Present: No
Number of Sampled Component Spectra: 1
Spectrometers: USB4H00879
Integration Time (usec): 80000 (USB4H00879)
Spectra Averaged: 1 (USB4H00879)
Boxcar Smoothing: 0 (USB4H00879)
Correct for Electrical Dark: No (USB4H00879)
Strobe/Lamp Enabled: No (USB4H00879)
Correct for Detector Non-linearity: No (USB4H00879)
Correct for Stray Light: No (USB4H00879)
Number of Pixels in Processed Spectrum: 3648
>>>>>Begin Processed Spectral Data<<<<<
345.13	1298.41
345.34	1298.41
345.56	1298.41
345.78	1236.97
345.99	1241.07
346.21	1796.07
346.42	1695.72
346.64	1673.19
346.86	1802.21
347.07	1730.53
347.29	1718.25
347.50	1619.94
347.72	1710.05
347.94	1730.53
348.15	1562.60
348.37	1568.74
348.59	1691.62
348.80	1648.61
349.02	1775.59
349.23	1890.28
349.45	1877.99
349.67	1929.19
349.88	1785.83
350.10	1908.71
350.31	1810.40
350.53	1851.36
350.75	1945.57
350.96	1798.12
351.18	1890.28
351.39	1828.84
351.61	1802.21
351.82	1869.80
352.04	1931.23
352.26	1810.40
352.47	1935.33
352.69	1992.67
352.90	1746.92
353.12	1818.60
353.34	1888.23
353.55	1902.56
353.77	1849.32
353.98	1853.41
354.20	1892.32
354.41	1968.10
354.63	1986.53
354.85	1978.34
355.06	1912.80
355.28	1693.67
355.49	1890.28
355.71	1908.71
355.92	1828.84
356.14	2025.44
356.35	1869.80
356.57	1773.54
356.79	1943.52
357.00	1918.95
357.22	1957.86
357.43	1789.92
357.65	1888.23
357.86	1777.64
358.08	1892.32
358.29	1947.62
358.51	1970.15
358.72	2031.58
358.94	1910.75
359.16	1927.14
359.37	2009.06
359.59	1974.24
359.80	2035.68
360.02	1945.57
360.23	1982.43
360.45	2068.45
360.66	1900.52
360.88	1867.75
361.09	1916.90
361.31	1953.76
361.52	2019.30
361.74	2050.02
361.95	2105.31
362.17	1931.23
362.38	1974.24
362.60	2013.15
362.81	1955.81
363.03	1951.71
363.24	1982.43
363.46	2072.54
363.67	1980.39
363.89	1953.76
364.10	2068.45
364.32	2007.01
364.53	2023.39
364.75	1896.42
364.96	2066.40
365.18	1951.71
365.39	1961.95
365.61	1914.85
365.82	2064.35
366.04	1957.86
366.25	1961.95
366.47	1994.72
366.68	1982.43
366.90	2019.30
367.11	1988.58
367.33	2074.59
367.54	1984.48
367.76	1972.19
367.97	2031.58
368.19	1978.34
368.40	2080.74
368.62	1906.66
368.83	2017.25
369.05	2050.02
369.26	1972.19
369.48	2019.30
369.69	1986.53
369.91	2123.74
370.12	2000.87
370.33	2115.55
370.55	2029.54
370.76	1982.43
370.98	2103.26
371.19	2047.97
371.41	2058.21
371.62	2146.27
371.84	1986.53
372.05	2125.79
372.27	2060.26
372.48	2007.01
372.69	2088.93
372.91	2109.41
373.12	2074.59
373.34	2109.41
373.55	2158.56
373.77	2166.75
373.98	2162.66
374.20	2207.71
374.41	2248.67
374.62	2115.55
374.84	2166.75
375.05	2205.66
375.27	2117.60
375.48	2140.13
375.70	2103.26
375.91	2203.61
376.12	2351.07
376.34	2183.13
376.55	2138.08
376.77	2136.03
376.98	2084.83
377.19	2117.60
377.41	2142.18
377.62	2246.62
377.84	2283.49
378.05	2295.77
378.27	2168.80
378.48	2396.12
378.69	2334.68
378.91	2246.62
379.12	2197.47
379.34	2226.14
379.55	2340.83
379.76	2248.67
379.98	2197.47
380.19	2332.64
380.41	2240.48
380.62	2299.87
380.83	2314.20
381.05	2181.09
381.26	2420.70
381.47	2174.94
381.69	2314.20
381.90	2432.99
382.12	2314.20
382.33	2260.96
382.54	2287.58
382.76	2322.40
382.97	2271.20
383.19	2185.18
383.40	2414.56
383.61	2297.82
383.83	2297.82
384.04	2263.01
384.25	2318.30
384.47	2387.93
384.68	2346.97
384.89	2299.87
385.11	2320.35
385.32	2310.11
385.54	2310.11
385.75	2353.12
385.96	2412.51
386.18	2342.88
386.39	2482.14
386.60	2318.30
386.82	2377.69
387.03	2385.88
387.24	2465.75
387.46	2445.27
387.67	2439.13
387.88	2459.61
388.10	2496.47
388.31	2516.95
388.52	2584.54
388.74	2500.57
388.95	2478.04
389.16	2568.15
389.38	2465.75
389.59	2551.77
389.80	2582.49
390.02	2535.39
390.23	2541.53
390.44	2545.63
390.66	2543.58
390.87	2516.95
391.08	2625.50
391.30	2656.22
391.51	2508.76
391.72	2680.79
391.94	2648.02
392.15	2617.30
392.36	2570.20
392.58	2596.82
392.79	2605.02
393.00	2686.94
393.22	2602.97
393.43	2711.51
393.64	2783.19
393.85	2795.48
394.07	2664.41
394.28	2652.12
394.49	2752.47
394.71	2717.65
394.92	2779.09
395.13	2736.09
395.35	2760.66
395.56	2709.46
395.77	2764.76
395.98	2797.53
396.20	2947.03
396.41	2813.91
396.62	2983.89
396.84	2772.95
397.05	2719.70
397.26	2828.24
397.47	2885.59
397.69	2691.03
397.90	3102.67
398.11	2940.88
398.32	2865.11
398.54	2858.96
398.75	2891.73
398.96	2961.36
399.18	2992.08
399.39	2867.16
399.60	3063.76
399.81	2918.36
400.03	2957.27
400.24	3219.41
400.45	3026.90
400.66	3114.96
400.88	2928.60
401.09	3174.35
401.30	3065.81
401.51	3106.77
401.73	3172.30
401.94	3153.87
402.15	3147.73
402.36	3069.91
402.58	3162.06
402.79	3131.34
403.00	3166.16
403.21	3268.56
403.43	3182.54
403.64	3268.56
403.85	3094.48
404.06	3278.80
404.27	3125.20
404.49	3215.31
404.70	3123.15
404.91	3268.56
405.12	3182.54
405.34	3307.47
405.55	3518.41
405.76	3239.89
405.97	3237.84
406.19	3342.28
406.40	3264.46
406.61	3295.18
406.82	3391.44
407.03	3344.33
407.25	3311.57
407.46	3448.78
407.67	3284.94
407.88	3413.96
408.09	3375.05
408.31	3262.41
408.52	3459.02
408.73	3319.76
408.94	3346.38
409.15	3330.00
409.37	3420.11
409.58	3456.97
409.79	3481.55
410.00	3518.41
410.21	3397.58
410.43	3397.58
410.64	3448.78
410.85	3530.70
411.06	3530.70
411.27	3581.90
411.48	3461.07
411.70	3508.17
411.91	3655.62
412.12	3620.81
412.33	3616.71
412.54	3518.41
412.76	3661.77
412.97	3657.67
413.18	3547.08
413.39	3540.94
413.60	3596.23
413.81	3579.85
414.03	3602.38
414.24	3585.99
414.45	3807.17
414.66	3555.27
414.87	3682.25
415.08	3637.19
415.30	3715.02
415.51	3635.14
415.72	3667.91
415.93	3743.69
416.14	3776.45
416.35	3794.89
416.56	3809.22
416.78	3813.32
416.99	3864.52
417.20	3786.69
417.41	3801.03
417.62	3760.07
417.83	3876.80
418.04	3966.92
418.26	3891.14
418.47	3708.87
418.68	3948.48
418.89	3844.04
419.10	4095.94
419.31	4030.40
419.52	3993.54
419.73	3899.33
419.95	4124.61
420.16	4159.42
420.37	4095.94
420.58	3975.11
420.79	3805.13
421.00	4132.80
421.21	4079.55
421.42	3944.39
421.63	4241.34
421.85	4001.73
422.06	4124.61
422.27	4177.86
422.48	4120.51
422.69	4161.47
422.90	4296.64
423.11	4323.26
423.32	4218.82
423.53	4136.90
423.75	4304.83
423.96	4452.28
424.17	4280.25
424.38	4464.57
424.59	4347.84
424.80	4526.01
425.01	4368.32
425.22	4440.00
425.43	4421.56
425.64	4452.28
425.85	4622.27
426.06	4478.91
426.28	4556.73
426.49	4501.44
426.70	4499.39
426.91	4528.06
427.12	4622.27
427.33	4702.14
427.54	4583.35
427.75	4636.60
427.96	4730.81
428.17	4724.66
428.38	4755.38
428.59	4837.30
428.80	4677.56
429.01	4960.18
429.23	4814.77
429.44	4978.61
429.65	4984.76
429.86	4906.93
430.07	4769.72
430.28	4812.73
430.49	4827.06
430.70	5103.54
430.91	5099.44
431.12	4986.80
431.33	5099.44
431.54	5054.39
431.75	5074.87
431.96	5048.24
432.17	5011.38
432.38	5097.39
432.59	5316.53
432.80	5291.95
433.01	5390.25
433.22	5277.62
433.43	5171.12
433.64	5355.44
433.85	5265.33
434.06	5384.11
434.27	5214.13
434.49	5451.69
434.70	5482.41
434.91	5582.76
435.12	5386.16
435.33	5318.57
435.54	5375.92
435.75	5320.62
435.96	5455.79
436.17	5197.74
436.38	5697.45
436.59	5679.02
436.80	5406.64
437.01	5765.03
437.22	5638.06
437.43	5762.98
437.64	5619.63
437.85	5820.33
438.06	5777.32
438.27	5734.31
438.48	5572.52
438.69	5799.85
438.90	5775.27
439.11	5621.67
439.32	6025.12
439.53	5865.38
439.74	5877.67
439.95	5840.81
440.16	5922.73
440.37	5943.21
440.57	5803.94
440.78	5973.92
440.99	5965.73
441.20	6010.79
441.41	5842.85
441.62	5752.74
441.83	5896.10
442.04	6250.40
442.25	5965.73
442.46	6160.29
442.67	6109.09
442.88	6414.24
443.09	5949.35
443.30	6098.85
443.51	6115.23
443.72	6295.46
443.93	6158.24
444.14	6434.72
444.35	6084.52
444.56	6274.98
444.77	6272.93
444.98	6227.87
445.19	6432.67
445.40	6342.56
445.61	6301.60
445.81	6393.76
446.02	6430.62
446.23	6432.67
446.44	6260.64
446.65	6526.88
446.86	6438.81
447.07	6688.67
447.28	6684.57
447.49	6594.46
447.70	6463.39
447.91	6666.14
448.12	6537.12
448.33	6848.41
448.54	6614.94
448.74	6606.75
448.95	6731.67
449.16	6653.85
449.37	6885.27
449.58	6598.56
449.79	6870.94
450.00	6627.23
450.21	6895.51
450.42	7176.08
450.63	7008.15
450.84	6934.42
451.05	6832.02
451.25	7196.56
451.46	6866.84
451.67	7014.29
451.88	7122.84
452.09	7036.82
452.30	6973.33
452.51	6930.33
452.72	7030.68
452.93	7430.03
453.13	6987.67
453.34	7290.77
453.55	7372.69
453.76	7171.99
453.97	7514.00
454.18	7327.63
454.39	7483.28
454.60	7427.98
454.81	7509.90
455.01	7315.34
455.22	7198.61
455.43	7638.92
455.64	7481.23
455.85	7835.53
456.06	7837.58
456.27	7569.29
456.48	7634.83
456.68	7886.73
456.89	7884.68
457.10	7808.90
457.31	7872.39
457.52	7761.80
457.73	8003.46
457.94	8247.17
458.14	7989.13
458.35	8343.42
458.56	8120.20
458.77	8013.70
458.98	8028.04
459.19	7999.37
459.39	8327.04
459.60	8333.18
459.81	8230.79
460.02	8368.00
460.23	8519.55
460.44	8699.77
460.65	8554.37
460.85	8562.56
461.06	8544.13
461.27	8318.85
461.48	8918.90
461.69	8902.52
461.89	8486.78
462.10	8802.17
462.31	8695.68
462.52	8781.69
462.73	8994.68
462.94	9127.80
463.14	9082.74
463.35	8947.58
463.56	9512.81
463.77	9353.07
463.98	9013.11
464.18	9199.48
464.39	9391.98
464.60	9553.77
464.81	9396.08
465.02	9441.14
465.23	9498.48
465.43	9518.96
465.64	9854.83
465.85	9709.42
466.06	9551.73
466.27	9930.60
466.47	9910.12
466.68	9944.94
466.89	9922.41
467.10	10178.40
467.30	9924.46
467.51	10164.07
467.72	10342.24
467.93	10071.91
468.14	10282.85
468.34	10493.79
468.55	10604.38
468.76	10588.00
468.97	10461.02
469.17	10667.87
469.38	10766.17
469.59	10729.31
469.80	10710.88
470.01	10821.47
470.21	10774.36
470.42	11165.53
470.63	11097.94
470.84	11005.78
471.04	11265.88
471.25	11263.83
471.46	11186.01
471.67	11566.93
471.87	11454.29
472.08	11738.96
472.29	11663.18
472.50	11218.77
472.70	11628.37
472.91	11695.95
473.12	12015.43
473.33	11906.89
473.53	12181.32
473.74	12044.10
473.95	12093.26
474.16	12488.51
474.36	12248.90
474.57	12504.90
474.78	13059.90
474.99	12570.43
475.19	12451.65
475.40	12916.54
475.61	12764.99
475.81	12969.79
476.02	13350.71
476.23	12906.30
476.44	13162.30
476.64	13379.38
476.85	13537.07
477.06	13457.20
477.27	13635.38
477.47	13913.90
477.68	13739.82
477.89	13870.89
478.09	13944.62
478.30	13926.19
478.51	13780.78
478.71	14319.40
478.92	14296.87
479.13	14290.73
479.34	14477.09
479.54	14616.35
479.75	14583.59
479.96	14626.59
480.16	14733.09
480.37	14429.99
480.58	15083.29
480.78	15099.67
480.99	15089.43
481.20	15396.63
481.41	15351.57
481.61	15372.05
481.82	15605.52
482.03	15529.75
482.23	15576.85
482.44	15732.50
482.65	16035.60
482.85	15996.68
483.06	16123.66
483.27	16088.84
483.47	16068.36
483.68	15988.49
483.89	16232.20
484.09	16295.69
484.30	16490.24
484.51	16801.54
484.71	16711.42
484.92	16711.42
485.13	16934.65
485.33	16918.27
485.54	16998.14
485.75	17198.84
485.95	17254.14
486.16	17260.28
486.37	17362.68
486.57	17272.57
486.78	17444.60
486.98	17706.74
487.19	17608.44
487.40	17460.98
487.60	17958.64
487.81	18024.17
488.02	17952.49
488.22	18052.84
488.43	18147.05
488.64	18233.07
488.84	18415.34
489.05	18607.84
489.25	18589.41
489.46	18700.00
489.67	18493.16
489.87	18982.62
490.08	18826.98
490.29	18859.74
490.49	19570.39
490.70	19191.52
490.90	19390.17
491.11	19238.62
491.32	19463.90
491.52	19484.37
491.73	19359.45
491.94	19535.57
492.14	19484.37
492.35	19836.63
492.55	19873.49
492.76	20012.75
492.97	20127.44
493.17	20158.16
493.38	20141.77
493.58	20512.46
493.79	20575.94
494.00	19910.35
494.20	20301.51
494.41	20713.16
494.61	20543.17
494.82	20588.23
495.02	20694.72
495.23	20797.12
495.44	20956.86
495.64	21038.78
495.85	21018.30
496.05	21356.22
496.26	21288.64
496.47	21698.23
496.67	21194.43
496.88	21673.65
497.08	21040.83
497.29	21978.80
497.49	21601.97
497.70	21896.88
497.91	21870.26
498.11	22167.21
498.32	21958.32
498.52	22118.06
498.73	22517.42
498.93	22322.86
499.14	22410.92
499.34	22335.15
499.55	22722.21
499.76	22367.91
499.96	22718.12
500.17	22709.93
500.37	22765.22
500.58	22754.98
500.78	22910.63
500.99	22838.95
501.19	23215.77
501.40	23178.91
501.60	22924.96
501.81	23406.23
502.02	23078.56
502.22	23189.15
502.43	23291.55
502.63	24012.43
502.84	23651.99
503.04	23735.96
503.25	23764.63
503.45	23932.56
503.66	24151.70
503.86	23907.99
504.07	24080.02
504.27	24016.53
504.48	24387.21
504.68	24391.31
504.89	24788.61
505.09	24510.09
505.30	24512.14
505.50	24698.50
505.71	24786.57
505.91	24751.75
506.12	24729.22
506.32	24770.18
506.53	25073.28
506.73	24843.91
506.94	25335.42
507.14	24884.87
507.35	25325.18
507.55	25372.28
507.76	25235.07
507.96	25642.62
508.17	25566.84
508.37	25636.47
508.58	25382.52
508.78	25681.53
508.99	25751.16
509.19	26011.25
509.40	26117.75
509.60	25695.86
509.81	26170.99
510.01	25904.76
510.22	26138.23
510.42	26224.24
510.63	26576.49
510.83	26355.31
511.04	26365.55
511.24	26725.99
511.44	26562.15
511.65	26746.47
511.85	26529.39
512.06	26701.42
512.26	27022.95
512.47	26838.63
512.67	26846.82
512.88	27197.02
513.08	26672.74
513.29	27309.66
513.49	27031.14
513.69	27070.05
513.90	27133.54
514.10	27442.78
514.31	27280.99
514.51	27514.46
514.72	27586.14
514.92	27524.70
515.13	27475.55
515.33	27719.26
515.53	27928.15
515.74	27553.37
515.94	27838.04
516.15	27969.11
516.35	27749.98
516.56	27983.44
516.76	27883.09
516.96	28208.72
517.17	27965.01
517.37	28096.08
517.58	28282.45
517.78	28780.10
517.99	28489.29
518.19	28823.11
518.39	28601.93
518.60	29017.67
518.80	28534.35
519.01	28991.05
519.21	28773.96
519.41	29421.12
519.62	28700.23
519.82	29478.46
520.03	29515.33
520.23	29425.22
520.43	29118.02
520.64	29816.38
520.84	29697.59
521.05	29742.65
521.25	29689.40
521.45	29455.93
521.66	29996.60
521.86	30037.56
522.07	29785.66
522.27	29875.77
522.47	29642.30
522.68	30473.78
522.88	29787.71
523.08	30357.04
523.29	30318.13
523.49	30453.30
523.70	30402.10
523.90	30731.82
524.10	30459.44
524.31	30946.86
524.51	30393.90
524.71	30832.17
524.92	30875.18
525.12	31327.78
525.33	30756.39
525.53	30871.08
525.73	31618.59
525.94	31190.56
526.14	31170.08
526.34	31690.27
526.55	31475.23
526.75	31434.27
526.95	31897.11
527.16	31536.67
527.36	31753.76
527.56	31956.50
527.77	32337.43
527.97	32304.66
528.17	32237.08
528.38	32402.96
528.58	31972.89
528.78	32513.55
528.99	32314.90
529.19	32663.05
529.39	32523.79
529.60	32800.27
529.80	32800.27
530.00	32839.18
530.21	32646.67
530.41	33349.12
530.61	32929.29
530.82	32949.77
531.02	33267.20
531.22	33441.28
531.43	33291.78
531.63	33662.46
531.83	33672.70
532.04	33746.43
532.24	33453.57
532.44	34239.99
532.64	33703.42
532.85	34188.79
533.05	33687.04
533.25	34059.77
533.46	34190.84
533.66	34272.76
533.86	34326.00
534.07	34487.79
534.27	34371.06
534.47	34602.48
534.67	34827.76
534.88	34416.11
535.08	34655.73
535.28	34885.10
535.49	35110.38
535.69	35151.34
535.89	35347.94
536.09	35120.62
536.30	35395.04
536.50	35522.02
536.70	35421.67
536.91	35673.57
537.11	35407.33
537.31	35356.13
537.51	35853.79
537.72	36185.56
537.92	35802.59
538.12	36224.47
538.32	35991.00
538.53	36163.03
538.73	35902.94
538.93	35890.65
539.13	36181.46
539.34	36201.94
539.54	36369.88
539.74	37027.28
539.94	36652.50
540.15	36498.90
540.35	36552.15
540.55	36718.03
540.75	36601.30
540.96	36724.18
541.16	36556.24
541.36	36877.77
541.56	36814.29
541.77	37526.98
541.97	36951.50
542.17	37408.20
542.37	37248.46
542.58	37504.45
542.78	36855.25
542.98	37483.97
543.18	37357.00
543.38	38065.60
543.59	37739.97
543.79	37967.29
543.99	37565.89
544.19	38127.03
544.40	37813.70
544.60	38094.27
544.80	38245.82
545.00	38131.13
545.20	38467.00
545.41	38292.92
545.61	37985.72
545.81	38294.97
546.01	38639.03
546.21	38520.24
546.42	38258.10
546.62	38763.95
546.82	38739.38
547.02	38794.67
547.22	38903.21
547.43	38522.29
547.63	39089.58
547.83	38858.16
548.03	38731.18
548.23	38854.06
548.44	38692.27
548.64	39116.20
548.84	39103.92
549.04	39001.52
549.24	39706.02
549.45	39630.24
549.65	39546.28
549.85	39275.94
550.05	39798.18
550.25	39206.31
550.45	39968.16
550.66	40058.27
550.86	39775.65
551.06	39925.15
551.26	40043.93
551.46	40005.02
551.66	40084.89
551.87	39646.63
552.07	40258.97
552.27	40009.12
552.47	40238.49
552.67	40148.38
552.87	40205.72
553.07	40500.63
553.28	40465.81
553.48	40617.36
553.68	40777.11
553.88	40674.71
554.08	40637.84
554.28	40400.28
554.48	40564.12
554.69	40664.47
554.89	40922.51
555.09	40699.28
555.29	40820.11
555.49	41248.14
555.69	41125.26
555.89	41166.22
556.10	41272.71
556.30	41348.49
556.50	41158.03
556.70	41495.94
556.90	41473.42
557.10	41719.17
557.30	41170.32
557.50	41565.57
557.70	41827.71
557.91	41889.15
558.11	41483.66
558.31	41848.19
558.51	42036.61
558.71	41909.63
558.91	41878.91
559.11	42063.23
559.31	41764.23
559.51	41932.16
559.72	41852.29
559.92	42253.69
560.12	42382.71
560.32	42057.09
560.52	42091.90
560.72	42315.13
560.92	42630.52
561.12	42491.26
561.32	42767.73
561.52	42048.89
561.72	43017.58
561.93	42546.55
562.13	42546.55
562.33	42722.68
562.53	43586.92
562.73	42435.96
562.93	42673.52
563.13	42997.10
563.33	43085.17
563.53	43537.77
563.73	42878.32
563.93	43216.24
564.13	43603.30
564.33	43074.93
564.53	43378.03
564.74	43963.75
564.94	43326.83
565.14	43914.59
565.34	43406.70
565.54	43679.08
565.74	44043.62
565.94	44078.43
566.14	43804.00
566.34	43304.30
566.54	44117.34
566.74	43631.97
566.94	43785.57
567.14	44299.61
567.34	44062.05
567.54	44258.65
567.74	43939.17
567.94	44012.90
568.14	44365.15
568.34	44207.45
568.54	44522.84
568.74	44608.86
568.94	44430.68
569.14	44516.70
569.34	44434.78
569.54	44842.32
569.75	44221.79
569.95	44213.60
570.15	45032.78
570.35	44852.56
570.55	44692.82
570.75	45266.25
570.95	44821.84
571.15	44795.22
571.35	45225.29
571.55	45417.80
571.75	45305.16
571.95	45131.09
572.15	45036.88
572.35	45448.52
572.55	45681.99
572.75	45081.94
572.95	45768.01
573.15	45776.20
573.35	45743.43
573.55	45358.41
573.75	45997.38
573.95	46009.67
574.15	45737.29
574.35	45651.27
574.55	45843.78
574.75	45509.96
574.95	46142.78
575.15	46114.11
575.34	46042.43
575.54	46605.62
575.74	46660.92
575.94	46144.83
576.14	46036.29
576.34	46724.41
576.54	46615.86
576.74	46574.91
576.94	46595.38
577.14	46310.72
577.34	46988.60
577.54	46656.82
577.74	47025.46
577.94	46540.09
578.14	46882.10
578.34	47033.65
578.54	46718.26
578.74	46759.22
578.94	47265.07
579.14	46806.33
579.34	47134.00
579.54	47117.62
579.74	47424.81
579.94	46970.16
580.13	47367.47
580.33	47303.98
580.53	47476.01
580.73	47402.28
580.93	47195.44
581.13	47680.81
581.33	47764.78
581.53	47981.86
581.73	47672.62
581.93	48069.92
582.13	47531.31
582.33	48272.67
582.53	47840.55
582.73	47834.41
582.92	47586.60
583.12	48067.87
583.32	48020.77
583.52	47932.71
583.72	48690.46
583.92	47936.80
584.12	48262.43
584.32	48612.63
584.52	48616.73
584.72	48344.35
584.92	48743.70
585.11	48971.03
585.31	48471.32
585.51	48528.67
585.71	48274.72
585.91	48784.66
586.11	48805.14
586.31	48782.62
586.51	48715.03
586.71	49001.75
586.91	49069.33
587.10	49055.00
587.30	49018.13
587.50	49042.71
587.70	49321.23
587.90	49315.09
588.10	49126.67
588.30	48569.63
588.50	49034.52
588.69	48958.74
588.89	49419.53
589.09	49063.19
589.29	49442.06
589.49	49446.16
589.69	48936.21
589.89	49521.93
590.08	49595.66
590.28	49444.11
590.48	49247.50
590.68	49290.51
590.88	49001.75
591.08	49841.42
591.28	49241.36
591.47	49845.51
591.67	49857.80
591.87	49458.45
592.07	49302.80
592.27	49812.74
592.47	49997.06
592.67	49659.15
592.86	49827.08
593.06	50029.83
593.26	49927.43
593.46	49896.71
593.66	49943.81
593.86	50246.91
594.05	50007.30
594.25	50525.44
594.45	49894.66
594.65	50068.74
594.85	49425.68
595.05	50220.29
595.24	50244.87
595.44	49534.22
595.64	50210.05
595.84	49962.25
596.04	49992.97
596.23	50238.72
596.43	50640.12
596.63	50515.20
596.83	49958.15
597.03	50398.46
597.22	50939.13
597.42	50308.35
597.62	50705.66
597.82	50570.49
598.02	50537.72
598.21	50638.08
598.41	50468.09
598.61	50742.52
598.81	50636.03
599.01	50668.79
599.20	51164.40
599.40	50957.56
599.60	51135.73
599.80	51045.62
600.00	51283.19
600.19	50990.33
600.39	50963.70
600.59	51281.14
600.79	51242.23
600.98	51066.10
601.18	51246.32
601.38	51086.58
601.58	51358.96
601.78	51524.85
601.97	51295.47
602.17	51436.78
602.37	51598.57
602.57	51444.98
602.76	51539.18
602.96	51346.67
603.16	51442.93
603.36	51721.45
603.55	51901.67
603.75	51733.74
603.95	51776.75
604.15	51934.44
604.34	51946.73
604.54	51758.31
604.74	52065.51
604.94	51952.87
605.13	52237.54
605.33	52004.07
605.53	51973.35
605.73	52198.63
605.92	52112.61
606.12	52243.68
606.32	52370.66
606.52	52264.16
606.71	52182.24
606.91	52526.30
607.11	52061.41
607.30	52638.94
607.50	52333.79
607.70	52696.28
607.90	52288.74
608.09	52522.21
608.29	52710.62
608.49	52821.21
608.68	52593.89
608.88	52696.28
609.08	52917.46
609.28	52448.48
609.47	52663.52
609.67	53259.48
609.87	52632.80
610.06	53066.97
610.26	52808.92
610.46	53494.99
610.66	52712.67
610.85	52983.00
611.05	53191.89
611.25	53220.56
611.44	52632.80
611.64	52974.81
611.84	53073.11
612.03	52847.83
612.23	53433.55
612.43	53294.29
612.62	53019.86
612.82	53146.84
613.02	53525.71
613.21	53200.08
613.41	53198.04
613.61	52960.47
613.80	52802.78
614.00	53333.20
614.20	52909.27
614.39	53241.04
614.59	53576.91
614.79	53138.65
614.98	53423.31
615.18	53429.46
615.38	53507.28
615.57	53062.87
615.77	53734.60
615.97	53095.64
616.16	53388.50
616.36	53488.85
616.56	53914.83
616.75	53148.88
616.95	53515.47
617.15	53605.58
617.34	53744.84
617.54	53056.73
617.74	53855.43
617.93	54070.47
618.13	53327.06
618.32	53748.94
618.52	53515.47
618.72	53515.47
618.91	53728.46
619.11	53007.58
619.31	53855.43
619.50	53566.67
619.70	53290.19
619.90	53925.07
620.09	54019.27
620.29	54101.19
620.48	53505.23
620.68	53988.55
620.88	53646.54
621.07	53621.97
621.27	53877.96
621.46	53560.53
621.66	53873.87
621.86	53877.96
622.05	53345.49
622.25	54006.98
622.44	53630.16
622.64	53560.53
622.84	53877.96
623.03	53515.47
623.23	53705.93
623.42	53896.39
623.62	54064.33
623.82	54199.49
624.01	54080.71
624.21	53951.69
624.40	53994.70
624.60	54179.01
624.80	53728.46
624.99	53871.82
625.19	53572.81
625.38	54246.60
625.58	54224.07
625.77	54197.44
625.97	53992.65
626.17	54027.46
626.36	53867.72
626.56	54385.86
626.75	53845.19
626.95	54553.79
627.14	54328.52
627.34	54389.95
627.54	53990.60
627.73	54121.67
627.93	54383.81
628.12	54052.04
628.32	54371.52
628.51	54121.67
628.71	54236.36
628.90	54492.35
629.10	54297.80
629.30	54494.40
629.49	54482.11
629.69	54209.73
629.88	54811.84
630.08	54623.42
630.27	54559.94
630.47	54457.54
630.66	54244.55
630.86	55057.59
631.05	53880.01
631.25	54899.90
631.44	54703.29
631.64	54940.86
631.84	54959.29
632.03	55088.31
632.23	54531.26
632.42	55047.35
632.62	54684.86
632.81	54217.92
633.01	54469.82
633.20	54922.43
633.40	55039.16
633.59	54580.42
633.79	54811.84
633.98	54869.18
634.18	54957.24
634.37	55301.30
634.57	55057.59
634.76	55227.57
634.96	55180.47
635.15	55061.69
635.35	54899.90
635.54	55379.12
635.74	55626.93
635.93	54981.82
636.13	55198.90
636.32	55329.97
636.52	54676.67
636.71	55080.12
636.91	55483.57
637.10	55030.97
637.30	55018.68
637.49	55542.96
637.69	55379.12
637.88	55970.99
638.08	55653.55
638.27	55874.73
638.46	55264.44
638.66	55469.23
638.85	55420.08
639.05	55100.60
639.24	55745.71
639.44	55454.90
639.63	55678.13
639.83	55878.83
640.02	55278.77
640.22	55915.69
640.41	56118.44
640.61	55686.32
640.80	56063.14
640.99	55434.42
641.19	56161.45
641.38	55805.10
641.58	56378.53
641.77	55661.74
641.97	55641.26
642.16	56108.20
642.36	56063.14
642.55	56546.47
642.74	55585.97
642.94	56362.15
643.13	56005.80
643.33	56452.26
643.52	56513.70
643.72	56513.70
643.91	56077.48
644.10	56456.35
644.30	56325.28
644.49	56353.96
644.69	56566.94
644.88	56335.52
645.08	56136.87
645.27	56102.06
645.46	56069.29
645.66	56546.47
645.85	56132.78
646.05	56343.72
646.24	56675.49
646.43	56341.67
646.63	56751.26
646.82	56865.95
647.02	56122.54
647.21	56777.89
647.40	56016.04
647.60	56859.80
647.79	56499.36
647.99	57078.94
648.18	56499.36
648.37	57418.90
648.57	56605.86
648.76	56882.33
648.96	56681.63
649.15	56837.28
649.34	56923.29
649.54	56986.78
649.73	56906.91
649.92	57025.69
650.12	56976.54
650.31	57091.22
650.51	57236.63
650.70	57402.52
650.89	56687.78
651.09	57689.23
651.28	57019.55
651.47	57318.55
651.67	57025.69
651.86	57783.44
652.06	56474.79
652.25	57064.60
652.44	57093.27
652.64	56956.06
652.83	56878.24
653.02	56687.78
653.22	56730.78
653.41	57193.62
653.60	56233.13
653.80	56425.64
653.99	57226.39
654.18	57214.10
654.38	56632.48
654.57	56978.59
654.76	56591.52
654.96	56661.15
655.15	56638.62
655.34	56837.28
655.54	56677.54
655.73	57119.90
655.92	56886.43
656.12	57388.18
656.31	57162.90
656.50	57228.44
656.70	56929.44
656.89	56900.76
657.08	56939.68
657.28	56980.63
657.47	57001.11
657.66	57506.96
657.86	56849.56
658.05	56741.02
658.24	56906.91
658.43	56687.78
658.63	57480.34
658.82	57128.09
659.01	57160.86
659.21	57160.86
659.40	57029.79
659.59	56956.06
659.79	57123.99
659.98	56743.07
660.17	57345.17
660.36	57244.82
660.56	56997.02
660.75	57042.07
660.94	56958.11
661.14	56865.95
661.33	56702.11
661.52	56499.36
661.71	57150.62
661.91	56798.37
662.10	56683.68
662.29	56880.28
662.49	56863.90
662.68	56999.07
662.87	57214.10
663.06	56726.69
663.26	56640.67
663.45	56939.68
663.64	56761.50
663.83	57255.06
664.03	57080.98
664.22	56919.20
664.41	57236.63
664.60	56751.26
664.80	57240.73
664.99	56761.50
665.18	57115.80
665.37	56710.30
665.57	56667.30
665.76	56589.47
665.95	56601.76
666.14	56736.93
666.34	56345.76
666.53	56394.92
666.72	56702.11
666.91	56695.97
667.11	56478.88
667.30	57152.66
667.49	56163.50
667.68	56734.88
667.87	56126.63
668.07	56618.14
668.26	55878.83
668.45	56384.68
668.64	55891.12
668.84	56980.63
669.03	56206.50
669.22	56521.89
669.41	56392.87
669.60	56288.42
669.80	56093.86
669.99	56337.57
670.18	56048.81
670.37	56425.64
670.57	56241.32
670.76	56329.38
670.95	56349.86
671.14	55991.47
671.33	55983.27
671.53	56554.66
671.72	56304.80
671.91	56300.71
672.10	56149.16
672.29	56009.90
672.48	55858.35
672.68	56540.32
672.87	55901.36
673.06	55659.69
673.25	55571.63
673.44	55514.29
673.64	55678.13
673.83	55901.36
674.02	55833.77
674.21	56001.71
674.40	56368.29
674.59	55413.94
674.79	55864.49
674.98	55327.92
675.17	55862.44
675.36	55465.14
675.55	55698.61
675.74	55446.71
675.94	55596.21
676.13	55747.76
676.32	55993.51
676.51	56030.38
676.70	55426.23
676.89	55176.37
677.08	55651.50
677.28	55628.98
677.47	55706.80
677.66	56380.58
677.85	55575.73
678.04	55313.59
678.23	55870.64
678.42	55342.26
678.62	55143.61
678.81	55604.40
679.00	55194.81
679.19	56063.14
679.38	55446.71
679.57	55305.40
679.76	55252.15
679.96	55725.23
680.15	55260.34
680.34	55151.80
680.53	55168.18
680.72	55422.13
680.91	55338.16
681.10	54985.91
681.29	55508.14
681.48	55209.14
681.68	54854.84
681.87	54844.60
682.06	55215.29
682.25	54662.33
682.44	55100.60
682.63	55028.92
682.82	54713.53
683.01	54703.29
683.20	54895.80
683.39	54824.12
683.59	54625.47
683.78	54551.74
683.97	54707.39
684.16	55178.42
684.35	54412.48
684.54	54893.75
684.73	54883.51
684.92	54293.70
685.11	54187.21
685.30	54258.88
685.49	54688.96
685.69	54412.48
685.88	54346.95
686.07	54828.22
686.26	54508.74
686.45	54797.50
686.64	54240.45
686.83	54490.30
687.02	54090.95
687.21	54645.95
687.40	54084.81
687.59	54662.33
687.78	54054.09
687.97	54320.32
688.16	53902.54
688.35	54086.85
688.54	54129.86
688.74	54389.95
688.93	54262.98
689.12	53714.12
689.31	54140.10
689.50	54146.25
689.69	53972.17
689.88	53572.81
690.07	54154.44
690.26	53804.24
690.45	54437.06
690.64	54191.30
690.83	53867.72
691.02	53652.69
691.21	54224.07
691.40	53777.61
691.59	53720.27
691.78	53562.57
691.97	53929.16
692.16	53804.24
692.35	54136.01
692.54	53918.92
692.73	54334.66
692.92	53812.43
693.11	53992.65
693.30	53650.64
693.49	53638.35
693.68	53574.86
693.87	53730.51
694.06	53601.49
694.25	53656.78
694.44	53218.52
694.63	53521.62
694.82	53505.23
695.01	53413.07
695.20	53505.23
695.39	53368.02
695.58	53613.77
695.77	52741.34
695.96	53179.60
696.15	52843.74
696.34	53157.08
696.53	53394.64
696.72	53474.51
696.91	53228.76
697.10	53451.98
697.29	53294.29
697.48	53396.69
697.67	53386.45
697.86	52694.24
698.05	53073.11
698.24	53222.61
698.43	52522.21
698.62	53318.87
698.81	52802.78
699.00	53458.13
699.19	52868.31
699.38	53589.20
699.57	52538.59
699.76	53615.82
699.95	52987.10
700.14	53171.41
700.32	52815.07
700.51	52894.94
700.70	53337.30
700.89	53066.97
701.08	53224.66
701.27	52516.06
701.46	53425.36
701.65	52503.77
701.84	52681.95
702.03	52757.72
702.22	52204.77
702.41	52886.74
702.60	52681.95
702.79	52616.41
702.98	52509.92
703.17	52346.08
703.35	52540.64
703.54	52428.00
703.73	53056.73
703.92	53179.60
704.11	51999.97
704.30	52085.99
704.49	52229.35
704.68	52196.58
704.87	52118.76
705.06	52172.00
705.25	52245.73
705.43	52227.30
705.62	52358.37
705.81	52352.23
706.00	52061.41
706.19	52258.02
706.38	52098.28
706.57	52471.01
706.76	51678.44
706.95	52282.59
707.14	52139.24
707.32	52028.65
707.51	51827.95
707.70	52278.50
707.89	51789.03
708.08	51735.79
708.27	52419.81
708.46	52509.92
708.65	52063.46
708.84	52810.97
709.02	52069.61
709.21	51821.80
709.40	51909.86
709.59	52141.28
709.78	51617.00
709.97	52499.68
710.16	51971.30
710.34	52067.56
710.53	52307.17
710.72	52114.66
710.91	51950.82
711.10	51762.41
711.29	52112.61
711.48	52247.78
711.66	51660.01
711.85	51719.40
712.04	52004.07
712.23	51868.90
712.42	51846.38
712.61	51528.94
712.80	51973.35
712.98	51930.34
713.17	51772.65
713.36	51518.70
713.55	51946.73
713.74	52110.56
713.93	52018.41
714.11	51467.50
714.30	51492.08
714.49	51528.94
714.68	51881.19
714.87	51485.93
715.06	51721.45
715.24	51750.12
715.43	51361.01
715.62	51449.07
715.81	51197.17
716.00	51367.15
716.18	51408.11
716.37	51414.26
716.56	51221.75
716.75	51698.92
716.94	51363.06
717.12	50806.01
717.31	51487.98
717.50	51270.90
717.69	51643.63
717.88	51297.52
718.06	51377.39
718.25	51510.51
718.44	51008.76
718.63	51143.92
718.82	50775.29
719.00	50906.36
719.19	50722.04
719.38	50861.30
719.57	50703.61
719.76	50334.98
719.94	50500.86
720.13	50449.66
720.32	50564.35
720.51	50314.50
720.69	49978.63
720.88	50492.67
721.07	50560.25
721.26	49831.18
721.44	50347.26
721.63	50263.30
721.82	50242.82
722.01	50451.71
722.20	50015.49
722.38	49906.95
722.57	50236.67
722.76	49493.26
722.95	50128.13
723.13	49943.81
723.32	49769.74
723.51	49466.64
723.70	49497.36
723.88	49470.73
724.07	49665.29
724.26	49902.85
724.44	49186.07
724.63	49675.53
724.82	49896.71
725.01	49366.29
725.19	49630.47
725.38	49282.32
725.57	48829.72
725.76	49370.38
725.94	49102.10
726.13	49028.37
726.32	48960.79
726.51	49159.44
726.69	49831.18
726.88	49093.91
727.07	49446.16
727.25	49327.38
727.44	49165.59
727.63	48944.41
727.82	49349.90
728.00	49358.09
728.19	49022.23
728.38	49446.16
728.56	48524.57
728.75	49403.15
728.94	49333.52
729.12	49095.95
729.31	49063.19
729.50	49079.57
729.69	49345.81
729.87	48731.42
730.06	49210.64
730.25	48878.87
730.43	49200.40
730.62	48616.73
730.81	49284.37
730.99	49345.81
731.18	48858.39
731.37	48989.46
731.55	49499.40
731.74	49753.35
731.93	48975.12
732.11	49108.24
732.30	49528.08
732.49	49108.24
732.67	49167.63
732.86	49433.87
733.05	49354.00
733.23	48919.83
733.42	49110.29
733.61	49055.00
733.79	48858.39
733.98	49038.61
734.17	49116.43
734.35	49138.96
734.54	49222.93
734.73	49310.99
734.91	49227.02
735.10	49001.75
735.29	48928.02
735.47	48899.35
735.66	48971.03
735.84	48948.50
736.03	48514.33
736.22	49104.15
736.40	48395.55
736.59	48983.32
736.78	48461.08
736.96	48590.11
737.15	48770.33
737.33	48315.68
737.52	48518.43
737.71	48620.83
737.89	48616.73
738.08	48246.05
738.27	48239.90
738.45	48991.51
738.64	48887.06
738.82	48145.70
739.01	48622.87
739.20	48514.33
739.38	48821.53
739.57	48612.63
739.75	48635.16
739.94	48618.78
740.13	48526.62
740.31	47777.06
740.50	48500.00
740.68	48219.42
740.87	48368.93
741.06	48684.31
741.24	48074.02
741.43	47766.82
741.61	48112.93
741.80	47738.15
741.99	47453.48
742.17	47912.23
742.36	48014.63
742.54	47670.57
742.73	47901.99
742.91	48342.30
743.10	48108.83
743.29	48114.98
743.47	48448.80
743.66	47736.10
743.84	47732.01
744.03	47891.75
744.21	47527.21
744.40	47971.62
744.59	47572.27
744.77	47453.48
744.96	47363.37
745.14	47826.21
745.33	48090.40
745.51	47152.43
745.70	47068.47
745.88	47398.19
746.07	47488.30
746.26	47172.91
746.44	47287.60
746.63	47211.82
746.81	47400.24
747.00	47007.03
747.18	46925.11
747.37	47236.40
747.55	46697.78
747.74	47346.99
747.92	46361.92
748.11	47248.69
748.29	47127.86
748.48	47199.54
748.66	46671.16
748.85	46605.62
749.03	46800.18
749.22	46701.88
749.41	46818.61
749.59	46986.55
749.78	46497.08
749.96	46552.38
750.15	46427.45
750.33	46196.03
750.52	46325.05
750.70	46302.53
750.89	46249.28
751.07	46273.85
751.26	46069.06
751.44	46226.75
751.63	45835.59
751.81	45802.82
752.00	45849.92
752.18	45825.35
752.37	45970.75
752.55	45358.41
752.74	45630.79
752.92	45243.73
753.10	45163.85
753.29	45444.43
753.47	45645.13
753.66	45309.26
753.84	45718.85
754.03	45516.11
754.21	45088.08
754.40	45720.90
754.58	45649.22
754.77	45337.93
754.95	45272.40
755.14	45239.63
755.32	45106.51
755.51	44688.73
755.69	45000.02
755.88	45088.08
756.06	45233.49
756.24	44905.81
756.43	44737.88
756.61	44807.51
756.80	45057.36
756.98	44561.75
757.17	44569.94
757.35	44895.57
757.54	44559.70
757.72	44522.84
757.90	44369.24
758.09	44653.91
758.27	44780.88
758.46	44268.89
758.64	44311.90
758.83	44653.91
759.01	44178.78
759.19	44612.95
759.38	44242.27
759.56	44221.79
759.75	44162.40
759.93	44094.82
760.12	44131.68
760.30	43947.36
760.48	43906.40
760.67	44139.87
760.85	44031.33
761.04	43797.86
761.22	44010.85
761.40	43423.08
761.59	43699.56
761.77	43580.78
761.96	43545.96
762.14	43550.06
762.32	43156.85
762.51	43332.97
762.69	43148.65
762.88	43658.60
763.06	43292.01
763.24	43687.27
763.43	43238.76
763.61	43107.69
763.80	43042.16
763.98	43087.21
764.16	43054.45
764.35	42900.85
764.53	42491.26
764.72	43052.40
764.90	42364.28
765.08	42874.23
765.27	42773.88
765.45	42679.67
765.63	42296.70
765.82	42569.08
766.00	41766.27
766.18	42571.13
766.37	42734.96
766.55	42540.41
766.74	42564.98
766.92	41975.17
767.10	42368.38
767.29	42345.85
767.47	41446.79
767.65	42169.72
767.84	41725.32
768.02	42096.00
768.20	41479.56
768.39	41815.43
768.57	41670.02
768.75	41796.99
768.94	42030.46
769.12	41858.43
769.30	41487.75
769.49	41289.10
769.67	41319.82
769.85	41037.20
770.04	40971.66
770.22	40816.02
770.40	40760.72
770.59	41047.44
770.77	41022.86
770.95	41117.07
771.14	40555.93
771.32	40543.64
771.50	40396.18
771.69	40963.47
771.87	41065.87
772.05	40760.72
772.24	40263.07
772.42	40750.48
772.60	40605.08
772.78	40797.59
772.97	40156.57
773.15	40809.87
773.33	40543.64
773.52	40134.04
773.70	40721.81
773.88	40328.60
774.07	40093.08
774.25	40011.17
774.43	40107.42
774.61	40043.93
774.80	40342.94
774.98	40252.83
775.16	40293.79
775.34	40187.29
775.53	40127.90
775.71	40654.23
775.89	40240.54
776.08	40000.93
776.26	40351.13
776.44	40406.42
776.62	40498.58
776.81	40146.33
776.99	40560.02
777.17	39910.82
777.35	40289.69
777.54	40691.09
777.72	40127.90
777.90	40510.87
778.08	40627.60
778.27	40324.50
778.45	40883.60
778.63	40639.89
778.81	40066.46
779.00	41059.73
779.18	40508.82
779.36	40617.36
779.54	40449.43
779.73	40175.00
779.91	40574.36
780.09	40625.56
780.27	40842.64
780.46	40705.43
780.64	40437.14
780.82	40269.21
781.00	40379.80
781.19	40969.61
781.37	40820.11
781.55	40488.34
781.73	41037.20
781.91	40453.53
782.10	41006.48
782.28	40463.77
782.46	40629.65
782.64	41035.15
782.82	40490.39
783.01	41303.43
783.19	40875.41
783.37	40934.80
783.55	40934.80
783.74	41055.63
783.92	40740.24
784.10	41448.84
784.28	41010.57
784.46	40779.15
784.64	40355.22
784.83	40908.18
785.01	40693.14
785.19	40902.03
785.37	41237.90
785.55	40824.21
785.74	40359.32
785.92	40596.88
786.10	40301.98
786.28	40908.18
786.46	40590.74
786.64	40218.01
786.83	40586.64
787.01	40586.64
787.19	40611.22
787.37	40654.23
787.55	40340.89
787.74	39974.30
787.92	40326.55
788.10	39943.58
788.28	40394.14
788.46	40236.44
788.64	40023.45
788.82	40379.80
789.01	39968.16
789.19	40166.81
789.37	39806.37
789.55	40082.84
789.73	39390.63
789.91	39720.35
790.09	39681.44
790.28	39394.73
790.46	39331.24
790.64	39562.66
790.82	39075.24
791.00	39437.73
791.18	39368.10
791.36	39296.42
791.55	39501.22
791.73	39261.61
791.91	38634.93
792.09	38890.93
792.27	39155.11
792.45	38991.28
792.63	38839.73
792.81	38137.27
793.00	38335.93
793.18	38563.25
793.36	38131.13
793.54	38380.98
793.72	38122.94
793.90	38045.12
794.08	37744.06
794.26	38274.49
794.44	37715.39
794.62	37475.78
794.81	37866.94
794.99	37805.50
795.17	37606.85
795.35	37617.09
795.53	37979.58
795.71	37686.72
795.89	37176.78
796.07	37146.06
796.25	37135.82
796.43	37033.42
796.61	36689.36
796.80	36918.73
796.98	37029.32
797.16	36742.61
797.34	36709.84
797.52	36478.42
797.70	37004.75
797.88	36695.50
798.06	36779.47
798.24	36390.36
798.42	36152.79
798.60	35968.48
798.78	36427.22
798.96	36017.63
799.14	35808.73
799.32	36117.98
799.51	35921.37
799.69	36085.21
799.87	35948.00
800.05	35689.95
800.23	35671.52
800.41	35786.21
800.59	35538.40
800.77	35440.10
800.95	34956.78
801.13	35376.61
801.31	35014.12
801.49	35386.85
801.67	34856.43
801.85	34772.46
802.03	34625.01
802.21	34473.46
802.39	34354.68
802.57	34663.92
802.75	34756.08
802.93	34698.73
803.11	34199.03
803.29	34024.95
803.47	33877.50
803.65	33930.75
803.83	34354.68
804.01	34174.45
804.19	33703.42
804.37	33539.58
804.55	33992.19
804.73	33607.17
804.91	33771.00
805.09	33775.10
805.27	33254.92
805.45	33746.43
805.63	33590.78
805.81	33820.16
805.99	33814.01
806.17	33666.56
806.35	33492.48
806.53	33285.64
806.71	33064.46
806.89	33146.37
807.07	32986.63
807.25	33015.30
807.43	32871.95
807.61	33027.59
807.79	32525.84
807.97	32628.24
808.15	32523.79
808.33	32519.70
808.51	32536.08
808.69	32335.38
808.87	32063.00
809.05	32423.44
809.23	32232.98
809.41	31626.78
809.59	32116.25
809.77	32308.76
809.95	32009.75
810.13	31946.26
810.31	31796.76
810.49	31882.78
810.67	31968.79
810.84	31702.56
811.02	32136.73
811.20	31448.61
811.38	31905.31
811.56	31024.68
811.74	31462.94
811.92	31192.61
812.10	31495.71
812.28	31354.40
812.46	31743.52
812.64	30955.05
812.82	31139.36
813.00	31163.94
813.18	31350.31
813.36	31020.58
813.53	31008.29
813.71	30760.49
813.89	31247.91
814.07	30977.58
814.25	30860.84
814.43	30494.25
814.61	30924.33
814.79	30684.72
814.97	30334.51
815.15	30674.48
815.33	30000.69
815.50	30205.49
815.68	30398.00
815.86	30203.44
816.04	30228.02
816.22	30211.64
816.40	30076.47
816.58	29926.97
816.76	30189.11
816.94	30096.95
817.11	29785.66
817.29	29812.28
817.47	29437.50
817.65	29799.99
817.83	29843.00
818.01	29695.55
818.19	29578.81
818.37	29855.29
818.54	29699.64
818.72	29802.04
818.90	29595.20
819.08	29365.82
819.26	29175.36
819.44	29349.44
819.62	29111.88
819.80	29343.30
819.97	28984.90
820.15	29173.31
820.33	28857.93
820.51	28972.61
820.69	29023.81
820.87	28741.19
821.05	29298.24
821.22	28941.89
821.40	28878.41
821.58	28792.39
821.76	28755.53
821.94	28575.31
822.12	28792.39
822.29	28886.60
822.47	28579.40
822.65	29173.31
822.83	28737.10
823.01	28618.32
823.19	28374.61
823.36	28472.91
823.54	28425.81
823.72	28452.43
823.90	28724.81
824.08	28409.42
824.25	28173.91
824.43	28089.94
824.61	28075.60
824.79	28337.74
824.97	27817.56
825.15	28603.98
825.32	28165.71
825.50	27838.04
825.68	27829.85
825.86	28192.34
826.04	28005.97
826.21	28020.31
826.39	27766.36
826.57	27850.33
826.75	27653.72
826.93	27815.51
827.10	27418.21
827.28	27668.06
827.46	27956.82
827.64	27606.62
827.81	27698.78
827.99	27623.00
828.17	27668.06
828.35	27264.61
828.53	27450.97
828.70	27403.87
828.88	27276.90
829.06	27481.69
829.24	27694.68
829.41	27432.54
829.59	27721.30
829.77	27313.76
829.95	27151.97
830.12	27254.37
830.30	27338.33
830.48	27256.42
830.66	27137.63
830.84	27031.14
831.01	27225.70
831.19	26957.41
831.37	26951.27
831.55	27031.14
831.72	26852.97
831.90	26844.77
832.08	26644.07
832.25	26830.44
832.43	26777.19
832.61	26556.01
832.79	26510.96
832.96	26783.34
833.14	26570.35
833.32	26850.92
833.50	26617.45
833.67	26742.38
833.85	26556.01
834.03	26355.31
834.20	26670.70
834.38	26314.35
834.56	26635.88
834.74	26383.98
834.91	26322.54
835.09	26302.06
835.27	26039.92
835.44	25972.34
835.62	26117.75
835.80	26142.32
835.98	26279.54
836.15	26214.00
836.33	26205.81
836.51	26164.85
836.68	25896.56
836.86	26066.55
837.04	25888.37
837.21	26275.44
837.39	25820.79
837.57	26179.18
837.75	26015.35
837.92	25609.85
838.10	25783.93
838.28	25626.23
838.45	25687.67
838.63	25575.03
838.81	25734.78
838.98	25749.11
839.16	25806.45
839.34	25392.76
839.51	25771.64
839.69	25314.94
839.87	25284.22
840.04	25114.24
840.22	25523.83
840.40	25605.75
840.57	24772.23
840.75	25384.57
840.93	25089.67
841.10	25163.39
841.28	25292.41
841.46	25202.30
841.63	25310.85
841.81	25163.39
841.98	25280.13
842.16	25091.71
842.34	25179.78
842.51	25032.32
842.69	24979.07
842.87	25210.50
843.04	25187.97
843.22	25040.51
843.40	24872.58
843.57	24841.86
843.75	25040.51
843.92	24714.89
844.10	24700.55
844.28	25001.60
844.45	24960.64
844.63	25060.99
844.81	24680.07
844.98	24845.96
845.16	24729.22
845.33	24856.20
845.51	24825.48
845.69	24329.87
845.86	24342.16
846.04	24528.52
846.21	24434.32
846.39	24725.13
846.57	24155.79
846.74	24665.74
846.92	24342.16
847.09	24217.23
847.27	24256.14
847.45	24397.45
847.62	24331.92
847.80	24462.99
847.97	24303.25
848.15	24086.16
848.32	24022.67
848.50	24211.09
848.68	24137.36
848.85	23748.25
849.03	23914.13
849.20	23967.38
849.38	23799.44
849.56	24112.78
849.73	23991.95
849.91	23907.99
850.08	24211.09
850.26	23512.73
850.43	23889.56
850.61	23516.83
850.78	23387.80
850.96	23561.88
851.14	23361.18
851.31	23559.83
851.49	23529.11
851.66	23791.25
851.84	23639.70
852.01	23570.07
852.19	23631.51
852.36	23393.95
852.54	23320.22
852.71	23258.78
852.89	23340.70
853.07	23418.52
853.24	23561.88
853.42	23373.47
853.59	23338.65
853.77	23232.16
853.94	23242.40
854.12	23484.06
854.29	22773.41
854.47	22992.55
854.64	22920.87
854.82	23107.23
854.99	23176.86
855.17	22894.24
855.34	23039.65
855.52	22910.63
855.69	23064.22
855.87	22675.11
856.04	22757.03
856.22	23004.83
856.39	22556.33
856.57	22570.66
856.74	22541.99
856.92	22765.22
857.09	22509.22
857.27	22638.25
857.44	22490.79
857.62	22959.78
857.79	22566.57
857.97	22740.64
858.14	22476.46
858.32	22689.45
858.49	22648.49
858.67	22470.31
858.84	22367.91
859.02	22392.49
859.19	22484.65
859.37	22064.82
859.54	22130.35
859.72	22515.37
859.89	22197.93
860.06	22298.28
860.24	22140.59
860.41	22286.00
860.59	21835.44
860.76	22204.08
860.94	22001.33
861.11	22267.56
861.29	22226.60
861.46	21978.80
861.64	21757.62
861.81	21763.76
861.98	21679.80
862.16	21679.80
862.33	21526.20
862.51	21522.10
862.68	21657.27
862.86	21419.71
863.03	21685.94
863.21	21702.32
863.38	21630.65
863.55	21735.09
863.73	21475.00
863.90	21339.83
864.08	21388.99
864.25	21579.45
864.43	21436.09
864.60	21221.05
864.77	20952.77
864.95	21366.46
865.12	21085.89
865.30	21374.65
865.47	21061.31
865.64	21069.50
865.82	21159.61
865.99	21020.35
866.17	21016.26
866.34	20940.48
866.51	20727.49
866.69	21300.92
866.86	20856.51
867.04	20737.73
867.21	20952.77
867.38	20973.25
867.56	20721.35
867.73	20504.26
867.91	20672.20
868.08	20788.93
868.25	20610.76
868.43	20391.62
868.60	20481.74
868.78	20344.52
868.95	20739.78
869.12	20508.36
869.30	20455.11
869.47	20283.08
869.64	20500.17
869.82	20387.53
869.99	20143.82
870.16	20516.55
870.34	20201.16
870.51	20246.22
870.69	20293.32
870.86	20410.06
871.03	20324.04
871.21	20313.80
871.38	20278.99
871.55	19926.74
871.73	19941.07
871.90	19738.32
872.07	19730.13
872.25	19635.92
872.42	19883.73
872.59	19797.71
872.77	19721.94
872.94	19707.60
873.11	19613.40
873.29	19662.55
873.46	19437.27
873.63	19736.27
873.81	19861.20
873.98	19275.48
874.15	19357.40
874.33	19005.15
874.50	19273.43
874.67	19334.87
874.85	19236.57
875.02	19187.42
875.19	19056.35
875.37	18888.42
875.54	18802.40
875.71	19197.66
875.88	19021.53
876.06	18984.67
876.23	18669.28
876.40	18706.15
876.58	18867.94
876.75	18755.30
876.92	18732.77
877.10	18613.99
877.27	18497.25
877.44	18779.87
877.61	18460.39
877.79	18423.53
877.96	18366.18
878.13	18665.19
878.31	18300.65
878.48	18325.22
878.65	18136.81
878.82	18296.55
879.00	18200.30
879.17	18259.69
879.34	18319.08
879.51	18128.62
879.69	17948.40
879.86	17788.66
880.03	18188.01
880.21	17913.58
880.38	17731.31
880.55	17792.75
880.72	18003.69
880.90	18005.74
881.07	17882.86
881.24	17716.98
881.41	17741.55
881.59	17725.17
881.76	17577.72
881.93	17624.82
882.10	17471.22
882.28	17516.28
882.45	17719.03
882.62	17577.72
882.79	17749.75
882.96	17159.93
883.14	17706.74
883.31	17647.35
883.48	17417.97
883.65	17534.71
883.83	17358.58
884.00	17338.10
884.17	17159.93
884.34	17366.78
884.51	17204.99
884.69	17491.70
884.86	17063.68
885.03	17305.34
885.20	16781.06
885.38	17125.11
885.55	17057.53
885.72	17125.11
885.89	16858.88
886.06	17145.59
886.24	16889.60
886.41	16828.16
886.58	17010.43
886.75	17069.82
886.92	16930.56
887.10	16846.59
887.27	16801.54
887.44	16779.01
887.61	17182.46
887.78	16926.46
887.95	17090.30
888.13	16645.89
888.30	16416.52
888.47	16582.40
888.64	16635.65
888.81	16553.73
888.99	16500.48
889.16	16287.50
889.33	16516.87
889.50	16406.28
889.67	16250.63
889.84	16226.06
890.01	16357.13
890.19	16402.18
890.36	16058.12
890.53	16303.88
890.70	15890.19
890.87	16299.78
891.04	16135.95
891.22	16031.50
891.39	16336.65
891.56	16105.23
891.73	16047.88
891.90	16000.78
892.07	15705.87
892.24	15771.41
892.42	15761.17
892.59	15912.72
892.76	15884.05
892.93	15687.44
893.10	15681.30
893.27	15689.49
893.44	15447.83
893.61	15666.96
893.79	15896.33
893.96	15890.19
894.13	15836.94
894.30	15767.31
894.47	15453.97
894.64	15816.46
894.81	15732.50
894.98	15646.48
895.15	15642.39
895.33	15578.90
895.50	15503.12
895.67	15759.12
895.84	15515.41
896.01	15343.38
896.18	15435.54
896.35	15703.82
896.52	15578.90
896.69	15507.22
896.86	15464.21
897.04	15533.84
897.21	15222.55
897.38	15331.09
897.55	15345.43
897.72	15443.73
897.89	15212.31
898.06	15359.77
898.23	15314.71
898.40	15413.01
898.57	15292.18
898.74	15154.97
898.91	15214.36
899.08	15308.57
899.26	15263.51
899.43	15456.02
899.60	15193.88
899.77	15396.63
899.94	15167.26
900.11	15044.38
900.28	15404.82
900.45	15152.92
900.62	15441.68
900.79	15421.20
900.96	15075.10
901.13	15331.09
901.30	15232.79
901.47	15200.02
901.64	15456.02
901.81	15296.28
901.98	15122.20
902.15	15345.43
902.32	14989.08
902.49	15396.63
902.66	15275.80
902.83	15378.20
903.01	15128.35
903.18	15200.02
903.35	15228.70
903.52	15134.49
903.69	15114.01
903.86	15027.99
904.03	15279.89
904.20	15281.94
904.37	15449.88
904.54	15054.62
904.71	15214.36
904.88	15185.69
905.05	14886.68
905.22	15124.25
905.39	14792.48
905.56	15163.16
905.73	15034.14
905.90	14772.00
906.07	15111.96
906.24	15054.62
906.41	15052.57
906.58	15056.67
906.75	15154.97
906.92	14843.68
907.09	14825.25
907.26	15025.95
907.43	15064.86
907.60	14864.16
907.77	15099.67
907.93	15036.19
908.10	15011.61
908.27	14974.75
908.44	14796.57
908.61	14901.02
908.78	14769.95
908.95	14825.25
909.12	14780.19
909.29	14927.64
909.46	14618.40
909.63	14966.56
909.80	14917.40
909.97	14941.98
910.14	14655.26
910.31	14692.13
910.48	14905.12
910.65	14878.49
910.82	14765.85
910.99	14624.54
911.16	14602.02
911.33	14597.92
911.50	14542.63
911.66	14692.13
911.83	14864.16
912.00	14595.87
912.17	14475.04
912.34	14468.90
912.51	14587.68
912.68	14225.19
912.85	14473.00
913.02	14419.75
913.19	14429.99
913.36	14411.56
913.53	14448.42
913.70	14364.45
913.86	14173.99
914.03	14264.10
914.20	14534.43
914.37	14217.00
914.54	14073.64
914.71	14561.06
914.88	14331.69
915.05	14294.82
915.22	13981.48
915.39	14133.03
915.55	14016.30
915.72	13905.71
915.89	13932.33
916.06	14212.90
916.23	13614.90
916.40	13725.49
916.57	13774.64
916.74	13713.20
916.91	13678.38
917.07	13709.10
917.24	13438.77
917.41	13651.76
917.58	13594.42
917.75	13584.18
917.92	13297.46
918.09	13299.51
918.26	13494.07
918.42	13360.95
918.59	13475.63
918.76	13139.77
918.93	13152.06
919.10	13082.42
919.27	13000.51
919.44	13236.02
919.60	13213.49
919.77	13188.92
919.94	12949.31
920.11	13182.77
920.28	13240.12
920.45	12891.96
920.61	12715.84
920.78	12922.68
920.95	12801.85
921.12	12670.78
921.29	12607.30
921.46	12420.93
921.62	12533.57
921.79	12521.28
921.96	12666.69
922.13	12713.79
922.30	12394.31
922.47	12226.37
922.63	12296.00
922.80	12347.20
922.97	12271.43
923.14	12189.51
923.31	12232.52
923.47	12064.58
923.64	12422.98
923.81	12058.44
923.98	11933.51
924.15	12048.20
924.32	12031.82
924.48	11953.99
924.65	11824.97
924.82	11835.21
924.99	11968.33
925.15	11474.77
925.32	11734.86
925.49	11532.11
925.66	11603.79
925.83	11380.56
925.99	11554.64
926.16	11507.54
926.33	11513.68
926.50	11188.05
926.67	11368.27
926.83	11251.54
927.00	10995.54
927.17	11099.99
927.34	11018.07
927.50	11104.09
927.67	11018.07
927.84	11052.89
928.01	11128.66
928.17	10831.71
928.34	10997.59
928.51	10682.20
928.68	10745.69
928.84	10731.36
929.01	10690.40
929.18	10604.38
929.35	10596.19
929.51	10567.52
929.68	10540.90
929.85	10428.26
930.02	10424.16
930.18	10321.76
930.35	10526.56
930.52	10360.67
930.69	10393.44
930.85	10151.78
931.02	10125.16
931.19	10143.59
931.36	10045.29
931.52	10061.67
931.69	10178.40
931.86	10039.14
932.02	9897.83
932.19	9813.87
932.36	9979.75
932.53	9734.00
932.69	9834.35
932.86	9791.34
933.03	9631.60
933.19	9615.21
933.36	9557.87
933.53	9580.40
933.70	9353.07
933.86	9543.53
934.03	9359.22
934.20	9299.83
934.36	9285.49
934.53	9017.21
934.70	9039.73
934.86	9097.08
935.03	8923.00
935.20	8988.53
935.36	8812.41
935.53	8697.72
935.70	8677.24
935.86	8615.80
936.03	8654.72
936.20	8306.56
936.36	8470.40
936.53	8427.39
936.70	8386.43
936.86	8318.85
937.03	8292.23
937.20	7978.89
937.36	8185.73
937.53	7778.19
937.70	7712.65
937.86	7667.60
938.03	7677.83
938.20	7829.38
938.36	7489.42
938.53	7438.22
938.70	7413.65
938.86	7434.13
939.03	7327.63
939.20	7214.99
939.36	7317.39
939.53	7090.07
939.70	7251.86
939.86	6944.66
940.03	6879.13
940.19	6766.49
940.36	6778.78
940.53	6666.14
940.69	6522.78
940.86	6471.58
941.03	6252.45
941.19	6272.93
941.36	6393.76
941.52	6264.74
941.69	6164.39
941.86	6059.94
942.02	6139.81
942.19	6098.85
942.35	6014.88
942.52	5949.35
942.69	5814.18
942.85	5885.86
943.02	5803.94
943.18	5814.18
943.35	5689.26
943.52	5648.30
943.68	5658.54
943.85	5738.41
944.01	5488.56
944.18	5478.32
944.35	5552.04
944.51	5341.10
944.68	5328.81
944.84	5341.10
945.01	5187.50
945.17	5451.69
945.34	5406.64
945.51	5332.91
945.67	5390.25
945.84	5275.57
946.00	5236.66
946.17	5310.38
946.33	5132.21
946.50	5328.81
946.67	5232.56
946.83	5222.32
947.00	5154.74
947.16	5164.98
947.33	5320.62
947.49	5232.56
947.66	5179.31
947.82	5195.70
947.99	5253.04
948.16	5310.38
948.32	5181.36
948.49	5337.01
948.65	5078.96
948.82	5238.70
948.98	5169.07
949.15	5146.55
949.31	5203.89
949.48	5179.31
949.64	5152.69
949.81	5193.65
949.97	5078.96
950.14	5273.52
950.30	5244.85
950.47	5201.84
950.63	5244.85
950.80	5334.96
950.96	5076.91
951.13	5316.53
951.30	5136.31
951.46	5306.29
951.63	5300.14
951.79	5162.93
951.96	5285.81
952.12	5312.43
952.29	5447.60
952.45	5115.83
952.62	5201.84
952.78	5294.00
952.94	5341.10
953.11	5212.08
953.27	5197.74
953.44	5402.54
953.60	5390.25
953.77	5337.01
953.93	5281.71
954.10	5285.81
954.26	5392.30
954.43	5275.57
954.59	5515.18
954.76	5486.51
954.92	5398.45
955.09	5369.77
955.25	5386.16
955.42	5345.20
955.58	5431.21
955.75	5337.01
955.91	5351.34
956.07	5308.34
956.24	5455.79
956.40	5447.60
956.57	5398.45
956.73	5351.34
956.90	5461.93
957.06	5326.77
957.23	5392.30
957.39	5334.96
957.56	5267.38
957.72	5277.62
957.88	5152.69
958.05	5511.08
958.21	5631.91
958.38	5361.58
958.54	5275.57
958.71	5535.66
958.87	5468.08
959.03	5357.49
959.20	5517.23
959.36	5337.01
959.53	5371.82
959.69	5257.14
959.85	5492.65
960.02	5259.18
960.18	5406.64
960.35	5265.33
960.51	5603.24
960.68	5406.64
960.84	5377.97
961.00	5349.29
961.17	5425.07
961.33	5289.90
961.50	5343.15
961.66	5451.69
961.82	5394.35
961.99	5369.77
962.15	5519.28
962.31	5296.05
962.48	5302.19
962.64	5531.56
962.81	5191.60
962.97	5261.23
963.13	5400.49
963.30	5412.78
963.46	5216.18
963.62	5316.53
963.79	5124.02
963.95	5240.75
964.12	5345.20
964.28	5263.28
964.44	5324.72
964.61	5400.49
964.77	5349.29
964.93	5427.12
965.10	5343.15
965.26	5300.14
965.42	5300.14
965.59	5173.17
965.75	5197.74
965.92	5291.95
966.08	5240.75
966.24	5275.57
966.41	5214.13
966.57	5189.55
966.73	5187.50
966.90	5218.22
967.06	5220.27
967.22	5195.70
967.39	5105.59
967.55	5167.03
967.71	5138.35
967.88	5136.31
968.04	5220.27
968.20	5232.56
968.37	5177.26
968.53	5033.91
968.69	5134.26
968.85	5201.84
969.02	5105.59
969.18	5261.23
969.34	4956.08
969.51	5089.20
969.67	5111.73
969.83	4888.50
970.00	5255.09
970.16	5140.40
970.32	5189.55
970.48	5023.67
970.65	5197.74
970.81	5038.00
970.97	4997.04
971.14	5052.34
971.30	5091.25
971.46	4986.80
971.63	5021.62
971.79	4972.47
971.95	4886.45
972.11	4919.22
972.28	4986.80
972.44	5027.76
972.60	4810.68
972.76	4908.98
972.93	4904.89
973.09	4902.84
973.25	5005.24
973.42	4911.03
973.58	5023.67
973.74	4960.18
973.90	4759.48
974.07	4890.55
974.23	4849.59
974.39	4796.34
974.55	4693.94
974.72	4933.56
974.88	4730.81
975.04	4870.07
975.20	4718.52
975.37	4765.62
975.53	4720.57
975.69	4827.06
975.85	4687.80
976.01	4710.33
976.18	4599.74
976.34	4687.80
976.50	4716.47
976.66	4777.91
976.83	4634.55
976.99	4786.10
977.15	4718.52
977.31	4595.64
977.47	4663.22
977.64	4605.88
977.80	4528.06
977.96	4593.59
978.12	4640.70
978.29	4493.24
978.45	4394.94
978.61	4616.12
978.77	4691.90
978.93	4378.56
979.10	4583.35
979.26	4509.63
979.42	4485.05
979.58	4347.84
979.74	4497.34
979.91	4509.63
980.07	4444.09
980.23	4573.11
980.39	4431.80
980.55	4384.70
980.71	4382.65
980.88	4374.46
981.04	4396.99
981.20	4290.49
981.36	4429.76
981.52	4437.95
981.68	4270.01
981.85	4302.78
982.01	4296.64
982.17	4216.77
982.33	4331.45
982.49	4386.75
982.65	4376.51
982.82	4188.10
982.98	4302.78
983.14	4151.23
983.30	4304.83
983.46	4192.19
983.62	4302.78
983.79	4122.56
983.95	4192.19
984.11	4216.77
984.27	4257.73
984.43	4384.70
984.59	4190.14
984.75	4212.67
984.91	4157.38
985.08	4267.97
985.24	4042.69
985.40	3971.01
985.56	4171.71
985.72	4177.86
985.88	4081.60
986.04	4038.59
986.20	3981.25
986.37	3997.64
986.53	4085.70
986.69	4046.79
986.85	4065.22
987.01	4003.78
987.17	4110.27
987.33	4048.83
987.49	3942.34
987.65	4048.83
987.82	3905.48
987.98	3872.71
988.14	3903.43
988.30	3827.65
988.46	3958.72
988.62	3878.85
988.78	3950.53
988.94	3958.72
989.10	3872.71
989.26	3762.12
989.42	3827.65
989.59	3731.40
989.75	3782.60
989.91	3928.00
990.07	3735.50
990.23	3790.79
990.39	3772.36
990.55	3823.56
990.71	3702.73
990.87	3710.92
991.03	3792.84
991.19	3702.73
991.35	3772.36
991.51	3700.68
991.67	3784.65
991.83	3792.84
992.00	3747.78
992.16	3794.89
992.32	3764.17
992.48	3768.26
992.64	3633.10
992.80	3706.82
992.96	3745.73
993.12	3655.62
993.28	3682.25
993.44	3583.95
993.60	3672.01
993.76	3588.04
993.92	3776.45
994.08	3696.58
994.24	3694.54
994.40	3583.95
994.56	3657.67
994.72	3547.08
994.88	3499.98
995.04	3608.52
995.20	3606.47
995.36	3557.32
995.52	3602.38
995.68	3540.94
995.84	3438.54
996.00	3596.23
996.16	3506.12
996.32	3514.31
996.48	3569.61
996.64	3473.36
996.80	3469.26
996.96	3499.98
997.12	3473.36
997.28	3413.96
997.44	3493.83
997.60	3389.39
997.76	3485.64
997.92	3364.81
998.08	3542.99
998.24	3334.09
998.40	3401.68
998.56	3354.57
998.72	3370.96
998.88	3368.91
999.04	3434.44
999.20	3334.09
999.36	3200.98
999.52	3416.01
999.68	3430.35
999.84	3442.64
1000.00	3319.76
1000.16	3317.71
1000.32	3231.69
1000.48	3327.95
1000.64	3139.54
1000.80	3168.21
1000.95	3243.98
1001.11	3217.36
1001.27	3291.09
1001.43	3323.85
1001.59	3112.91
1001.75	3114.96
1001.91	3252.17
1002.07	3137.49
1002.23	3246.03
1002.39	3133.39
1002.55	3137.49
1002.71	3069.91
1002.87	3047.38
1003.03	3106.77
1003.19	3139.54
1003.34	3155.92
1003.50	3088.34
1003.66	3168.21
1003.82	3104.72
1003.98	3209.17
1004.14	3133.39
1004.30	3022.80
1004.46	2949.08
1004.62	3053.52
1004.78	3055.57
1004.94	3084.24
1005.09	3074.00
1005.25	2940.88
1005.41	2983.89
1005.57	3035.09
1005.73	3078.10
1005.89	3006.42
1006.05	3045.33
1006.21	3020.75
1006.37	2957.27
1006.52	2842.58
1006.68	2867.16
1006.84	2971.60
1007.00	2994.13
1007.16	3014.61
1007.32	2961.36
1007.48	2863.06
1007.64	3100.62
1007.79	2852.82
1007.95	2885.59
1008.11	2916.31
1008.27	2830.29
1008.43	2936.79
1008.59	2820.05
1008.75	2908.12
1008.91	2793.43
1009.06	2854.87
1009.22	2875.35
1009.38	2758.61
1009.54	2908.12
1009.70	2846.68
1009.86	2844.63
1010.01	2777.05
1010.17	2842.58
1010.33	2844.63
1010.49	2809.81
1010.65	2850.77
1010.81	2707.41
1010.96	2723.80
1011.12	2762.71
1011.28	2688.98
1011.44	2707.41
1011.60	2699.22
1011.76	2670.55
1011.91	2805.72
1012.07	2699.22
1012.23	2588.63
1012.39	2635.74
1012.55	2750.42
1012.71	2674.65
1012.86	2693.08
1013.02	2607.06
1013.18	2650.07
1013.34	2633.69
1013.50	2772.95
1013.65	2645.98
1013.81	2643.93
1013.97	2582.49
1014.13	2615.26
1014.29	2609.11
1014.44	2658.26
1014.60	2551.77
1014.76	2682.84
1014.92	2613.21
1015.07	2623.45
1015.23	2613.21
1015.39	2527.19
1015.55	2451.42
1015.71	2680.79
1015.86	2527.19
1016.02	2547.67
1016.18	2445.27
1016.34	2582.49
1016.49	2557.91
1016.65	2615.26
1016.81	2555.86
1016.97	2539.48
1017.12	2510.81
1017.28	2486.23
1017.44	2430.94
1017.60	2482.14
1017.75	2416.60
1017.91	2498.52
1018.07	2473.95
1018.23	2592.73
1018.38	2437.08
1018.54	2494.43
1018.70	2539.48
1018.86	2494.43
1019.01	2457.56
1019.17	2389.98
1019.33	2465.75
1019.49	2469.85
1019.64	2342.88
1019.80	2492.38
1019.96	2420.70
1020.12	2392.03
1020.27	2410.46
1020.43	2357.21
1020.59	2334.68
1020.74	2445.27
1020.90	2465.75
1021.06	2342.88
1021.22	2398.17
1021.37	2394.08
1021.53	2277.34
1021.69	2389.98
1021.84	2336.73
1022.00	2295.77
1022.16	2185.18
1022.31	2277.34
1022.47	2357.21
1022.63	2383.84
1022.79	2158.56
1022.94	2303.96
1023.10	2457.56
1023.26	2271.20
1023.41	2273.25
1023.57	2238.43
1023.73	2344.92
1023.88	2256.86
1024.04	2260.96
1024.20	2252.77
1024.35	2365.40
1024.51	2303.96
1024.67	2205.66
1024.82	2297.82
1024.98	2232.29
1025.14	2277.34
1025.29	2189.28
1025.45	2238.43
1025.61	2217.95
1025.76	2285.53
1025.92	2215.90
1026.08	2170.85
1026.23	2148.32
1026.39	2297.82
1026.55	2154.46
1026.70	2121.70
1026.86	2220.00
1027.02	2222.05
1027.17	2193.37
1027.33	2164.70
1027.48	2093.02
1027.64	2111.46
1027.80	2115.55
1027.95	2181.09
1028.11	2138.08
1028.27	2170.85
1028.42	2148.32
1028.58	2172.89
1028.73	2052.06
1028.89	2090.98
1029.05	2158.56
1029.20	2158.56
>>>>>End Processed Spectral Data<<<<<
