SpectraSuite Data File
++++++++++++++++++++++++++++++++++++
Date: Fri Jun 02 14:49:26 CEST 2017
User: INFO_000
Dark Spectrum Present: No
Reference Spectrum Present: No
Number of Sampled Component Spectra: 1
Spectrometers: USB4H00879
Integration Time (usec): 80000 (USB4H00879)
Spectra Averaged: 1 (USB4H00879)
Boxcar Smoothing: 0 (USB4H00879)
Correct for Electrical Dark: No (USB4H00879)
Strobe/Lamp Enabled: No (USB4H00879)
Correct for Detector Non-linearity: No (USB4H00879)
Correct for Stray Light: No (USB4H00879)
Number of Pixels in Processed Spectrum: 3648
>>>>>Begin Processed Spectral Data<<<<<
345.13	1247.21
345.34	1247.21
345.56	1247.21
345.78	1327.08
345.99	1236.97
346.21	1667.05
346.42	1751.01
346.64	1665.00
346.86	1830.88
347.07	1679.33
347.29	1648.61
347.50	1603.56
347.72	1695.72
347.94	1716.20
348.15	1585.13
348.37	1581.03
348.59	1740.77
348.80	1595.37
349.02	1755.11
349.23	1869.80
349.45	1804.26
349.67	1951.71
349.88	1794.02
350.10	1912.80
350.31	1865.70
350.53	1773.54
350.75	1947.62
350.96	1798.12
351.18	1951.71
351.39	1824.74
351.61	1763.30
351.82	1824.74
352.04	1837.03
352.26	1783.78
352.47	1894.37
352.69	1974.24
352.90	1781.73
353.12	1828.84
353.34	1789.92
353.55	1945.57
353.77	1933.28
353.98	1853.41
354.20	1808.36
354.41	1920.99
354.63	1886.18
354.85	2000.87
355.06	1912.80
355.28	1804.26
355.49	1873.89
355.71	1916.90
355.92	1859.56
356.14	1920.99
356.35	1908.71
356.57	1855.46
356.79	1923.04
357.00	1900.52
357.22	2000.87
357.43	1859.56
357.65	1929.19
357.86	1808.36
358.08	1912.80
358.29	1935.33
358.51	1990.63
358.72	1884.13
358.94	1931.23
359.16	1920.99
359.37	1978.34
359.59	1912.80
359.80	1990.63
360.02	2043.87
360.23	1994.72
360.45	1941.47
360.66	1978.34
360.88	1863.65
361.09	1851.36
361.31	1968.10
361.52	1918.95
361.74	2029.54
361.95	2066.40
362.17	2023.39
362.38	2027.49
362.60	1998.82
362.81	1994.72
363.03	1974.24
363.24	1990.63
363.46	2107.36
363.67	1976.29
363.89	2019.30
364.10	2027.49
364.32	1935.33
364.53	2031.58
364.75	1918.95
364.96	2011.11
365.18	2086.88
365.39	1933.28
365.61	1957.86
365.82	2123.74
366.04	1972.19
366.25	1910.75
366.47	2009.06
366.68	2039.78
366.90	1900.52
367.11	2039.78
367.33	2064.35
367.54	2072.54
367.76	2052.06
367.97	1998.82
368.19	2058.21
368.40	2109.41
368.62	2031.58
368.83	1937.38
369.05	2031.58
369.26	1986.53
369.48	2039.78
369.69	2027.49
369.91	2105.31
370.12	2025.44
370.33	2035.68
370.55	2007.01
370.76	2043.87
370.98	2113.50
371.19	2052.06
371.41	1984.48
371.62	2054.11
371.84	2031.58
372.05	2146.27
372.27	2107.36
372.48	2090.98
372.69	2136.03
372.91	2125.79
373.12	2207.71
373.34	2064.35
373.55	2080.74
373.77	2197.47
373.98	2107.36
374.20	2181.09
374.41	2207.71
374.62	2119.65
374.84	2152.42
375.05	2181.09
375.27	2183.13
375.48	2140.13
375.70	2174.94
375.91	2154.46
376.12	2250.72
376.34	2138.08
376.55	2240.48
376.77	2230.24
376.98	2074.59
377.19	2068.45
377.41	2164.70
377.62	2181.09
377.84	2179.04
378.05	2273.25
378.27	2166.75
378.48	2258.91
378.69	2357.21
378.91	2303.96
379.12	2215.90
379.34	2148.32
379.55	2213.85
379.76	2265.05
379.98	2297.82
380.19	2172.89
380.41	2265.05
380.62	2330.59
380.83	2226.14
381.05	2246.62
381.26	2361.31
381.47	2277.34
381.69	2244.57
381.90	2379.74
382.12	2230.24
382.33	2228.19
382.54	2301.92
382.76	2279.39
382.97	2361.31
383.19	2146.27
383.40	2394.08
383.61	2334.68
383.83	2289.63
384.04	2394.08
384.25	2394.08
384.47	2346.97
384.68	2273.25
384.89	2320.35
385.11	2355.16
385.32	2349.02
385.54	2361.31
385.75	2322.40
385.96	2402.27
386.18	2385.88
386.39	2420.70
386.60	2369.50
386.82	2418.65
387.03	2435.03
387.24	2519.00
387.46	2461.66
387.67	2459.61
387.88	2490.33
388.10	2461.66
388.31	2396.12
388.52	2566.10
388.74	2496.47
388.95	2496.47
389.16	2445.27
389.38	2566.10
389.59	2541.53
389.80	2598.87
390.02	2531.29
390.23	2627.54
390.44	2611.16
390.66	2525.15
390.87	2514.91
391.08	2562.01
391.30	2723.80
391.51	2576.34
391.72	2629.59
391.94	2650.07
392.15	2592.73
392.36	2629.59
392.58	2535.39
392.79	2684.89
393.00	2639.83
393.22	2734.04
393.43	2674.65
393.64	2750.42
393.85	2729.94
394.07	2582.49
394.28	2674.65
394.49	2779.09
394.71	2756.57
394.92	2844.63
395.13	2639.83
395.35	2707.41
395.56	2656.22
395.77	2686.94
395.98	2787.29
396.20	2891.73
396.41	2830.29
396.62	2785.24
396.84	2815.96
397.05	2797.53
397.26	2992.08
397.47	2906.07
397.69	2766.81
397.90	2893.78
398.11	2897.88
398.32	2873.30
398.54	2879.44
398.75	2977.75
398.96	3002.32
399.18	3067.86
399.39	2967.51
399.60	3065.81
399.81	3057.62
400.03	2928.60
400.24	3184.59
400.45	2904.02
400.66	3061.71
400.88	2861.01
401.09	3196.88
401.30	2934.74
401.51	2994.13
401.73	3088.34
401.94	3098.58
402.15	3164.11
402.36	3000.27
402.58	3094.48
402.79	3149.78
403.00	3112.91
403.21	3217.36
403.43	3147.73
403.64	3327.95
403.85	3067.86
404.06	3286.99
404.27	3020.75
404.49	3180.50
404.70	3108.82
404.91	3280.85
405.12	3194.83
405.34	3219.41
405.55	3456.97
405.76	3108.82
405.97	3229.65
406.19	3432.40
406.40	3180.50
406.61	3315.66
406.82	3319.76
407.03	3291.09
407.25	3223.50
407.46	3409.87
407.67	3370.96
407.88	3332.05
408.09	3340.24
408.31	3362.76
408.52	3364.81
408.73	3366.86
408.94	3264.46
409.15	3327.95
409.37	3383.24
409.58	3495.88
409.79	3338.19
410.00	3590.09
410.21	3442.64
410.43	3485.64
410.64	3336.14
410.85	3557.32
411.06	3469.26
411.27	3489.74
411.48	3528.65
411.70	3551.18
411.91	3528.65
412.12	3561.42
412.33	3542.99
412.54	3532.75
412.76	3653.58
412.97	3549.13
413.18	3538.89
413.39	3583.95
413.60	3602.38
413.81	3659.72
414.03	3633.10
414.24	3692.49
414.45	3688.39
414.66	3502.03
414.87	3715.02
415.08	3602.38
415.30	3741.64
415.51	3739.59
415.72	3790.79
415.93	3635.14
416.14	3768.26
416.35	3672.01
416.56	3678.15
416.78	3778.50
416.99	3784.65
417.20	3885.00
417.41	3907.52
417.62	3899.33
417.83	3887.04
418.04	3774.41
418.26	3780.55
418.47	3735.50
418.68	4073.41
418.89	3917.76
419.10	4071.36
419.31	3960.77
419.52	4024.26
419.73	4046.79
419.95	3995.59
420.16	3885.00
420.37	3964.87
420.58	3893.19
420.79	3885.00
421.00	4050.88
421.21	4102.08
421.42	4044.74
421.63	3991.49
421.85	4028.35
422.06	4095.94
422.27	4108.23
422.48	4014.02
422.69	3999.68
422.90	4149.18
423.11	4190.14
423.32	4220.86
423.53	4267.97
423.75	4282.30
423.96	4386.75
424.17	4331.45
424.38	4509.63
424.59	4388.80
424.80	4583.35
425.01	4435.90
425.22	4374.46
425.43	4446.14
425.64	4620.22
425.85	4687.80
426.06	4532.15
426.28	4489.15
426.49	4558.78
426.70	4413.37
426.91	4564.92
427.12	4648.89
427.33	4671.42
427.54	4456.38
427.75	4673.46
427.96	4935.60
428.17	4491.20
428.38	4728.76
428.59	4802.49
428.80	4773.82
429.01	4851.64
429.23	4839.35
429.44	5052.34
429.65	4898.74
429.86	4984.76
430.07	4876.21
430.28	4812.73
430.49	4972.47
430.70	5089.20
430.91	4958.13
431.12	5009.33
431.33	5105.59
431.54	5195.70
431.75	5027.76
431.96	5046.20
432.17	5083.06
432.38	5167.03
432.59	5365.68
432.80	5287.86
433.01	5062.58
433.22	5296.05
433.43	5222.32
433.64	5197.74
433.85	5216.18
434.06	5318.57
434.27	5244.85
434.49	5263.28
434.70	5414.83
434.91	5392.30
435.12	5433.26
435.33	5345.20
435.54	5353.39
435.75	5146.55
435.96	5490.60
436.17	5349.29
436.38	5554.09
436.59	5566.38
436.80	5511.08
437.01	5699.50
437.22	5621.67
437.43	5590.95
437.64	5451.69
437.85	5691.31
438.06	5750.70
438.27	5525.42
438.48	5605.29
438.69	5767.08
438.90	5750.70
439.11	5646.25
439.32	5849.00
439.53	5619.63
439.74	5879.72
439.95	5910.44
440.16	5771.18
440.37	5769.13
440.57	5812.14
440.78	5963.68
440.99	5795.75
441.20	5935.01
441.41	5842.85
441.62	5990.31
441.83	5859.24
442.04	6049.70
442.25	5980.07
442.46	6014.88
442.67	6145.95
442.88	6494.11
443.09	5975.97
443.30	5912.49
443.51	5994.40
443.72	6336.42
443.93	6148.00
444.14	6348.70
444.35	6143.91
444.56	6197.15
444.77	6152.10
444.98	6404.00
445.19	6242.21
445.40	6428.57
445.61	6260.64
445.81	6404.00
446.02	6473.63
446.23	6373.28
446.44	6119.33
446.65	6449.05
446.86	6418.33
447.07	6533.02
447.28	6670.23
447.49	6631.32
447.70	6612.89
447.91	6573.98
448.12	6528.92
448.33	6641.56
448.54	6725.53
448.74	6635.42
448.95	6719.39
449.16	6430.62
449.37	6926.23
449.58	6670.23
449.79	7061.40
450.00	6518.68
450.21	6887.32
450.42	6895.51
450.63	6950.81
450.84	6850.46
451.05	6997.91
451.25	7034.77
451.46	6909.85
451.67	7049.11
451.88	7161.75
452.09	7028.63
452.30	6932.37
452.51	6942.61
452.72	7303.06
452.93	7495.57
453.13	7022.48
453.34	7180.18
453.55	7292.82
453.76	7239.57
453.97	7522.19
454.18	7520.14
454.39	7475.09
454.60	7301.01
454.81	7356.30
455.01	7606.16
455.22	7262.10
455.43	7612.30
455.64	7778.19
455.85	7876.49
456.06	7958.41
456.27	7567.24
456.48	7520.14
456.68	7710.60
456.89	7602.06
457.10	7964.55
457.31	7905.16
457.52	7751.56
457.73	8032.13
457.94	8130.44
458.14	7935.88
458.35	8241.03
458.56	8101.76
458.77	7962.50
458.98	8118.15
459.19	8112.00
459.39	8474.49
459.60	8513.41
459.81	8312.71
460.02	8331.14
460.23	8497.02
460.44	8558.46
460.65	8568.70
460.85	8646.52
461.06	8617.85
461.27	8359.81
461.48	8882.04
461.69	8816.51
461.89	8388.48
462.10	8679.29
462.31	8728.44
462.52	8789.88
462.73	8945.53
462.94	8867.70
463.14	8949.62
463.35	9043.83
463.56	9527.15
463.77	9387.89
463.98	9107.32
464.18	9211.76
464.39	9490.29
464.60	9584.49
464.81	9338.74
465.02	9301.87
465.23	9754.48
465.43	9656.17
465.64	9772.91
465.85	9668.46
466.06	9664.36
466.27	9998.18
466.47	9817.96
466.68	10061.67
466.89	9846.63
467.10	10053.48
467.30	9858.92
467.51	10137.45
467.72	10129.25
467.93	10129.25
468.14	10166.12
468.34	10614.62
468.55	10542.94
468.76	10387.30
468.97	10440.54
469.17	10590.05
469.38	10938.20
469.59	10870.62
469.80	10700.64
470.01	10639.20
470.21	11020.12
470.42	11091.80
470.63	11124.57
470.84	11263.83
471.04	11167.57
471.25	11321.17
471.46	11392.85
471.67	11493.20
471.87	11433.81
472.08	11616.08
472.29	11728.72
472.50	11280.21
472.70	11540.30
472.91	11644.75
473.12	11997.00
473.33	11951.95
473.53	12056.39
473.74	11872.07
473.95	12042.06
474.16	12420.93
474.36	12144.45
474.57	12357.44
474.78	12384.07
474.99	12511.04
475.19	12566.34
475.40	12873.53
475.61	12578.62
475.81	12967.74
476.02	13045.56
476.23	13045.56
476.44	12998.46
476.64	13279.03
476.85	13657.90
477.06	13190.97
477.27	13440.82
477.47	13528.88
477.68	13602.61
477.89	13741.87
478.09	13838.12
478.30	13821.74
478.51	13803.31
478.71	14051.11
478.92	13956.91
479.13	14331.69
479.34	14272.29
479.54	14493.47
479.75	14573.35
479.96	14219.05
480.16	14616.35
480.37	14778.14
480.58	14935.84
480.78	14999.32
480.99	15226.65
481.20	15320.85
481.41	15138.58
481.61	15392.53
481.82	15458.07
482.03	15288.09
482.23	15689.49
482.44	15759.12
482.65	15873.81
482.85	15795.98
483.06	15550.23
483.27	15841.04
483.47	16119.56
483.68	16156.43
483.89	16336.65
484.09	16045.84
484.30	16377.61
484.51	16473.86
484.71	16799.49
484.92	16666.37
485.13	16844.54
485.33	16830.21
485.54	16858.88
485.75	17143.55
485.95	17182.46
486.16	17147.64
486.37	17334.01
486.57	17196.79
486.78	17135.35
486.98	17579.76
487.19	17866.48
487.40	17819.38
487.60	17731.31
487.81	17874.67
488.02	17712.88
488.22	17940.21
488.43	18095.85
488.64	18079.47
488.84	18351.85
489.05	18489.06
489.25	18292.46
489.46	18761.44
489.67	18466.53
489.87	18683.62
490.08	18679.52
490.29	18865.89
490.49	19187.42
490.70	19293.91
490.90	19467.99
491.11	19091.16
491.32	19220.19
491.52	19402.46
491.73	19457.75
491.94	19554.01
492.14	19560.15
492.35	19838.67
492.55	20059.85
492.76	19891.92
492.97	19994.32
493.17	19891.92
493.38	20055.76
493.58	20420.30
493.79	20528.84
494.00	20303.56
494.20	20623.05
494.41	20625.09
494.61	20862.66
494.82	20928.19
495.02	20625.09
495.23	21065.41
495.44	21149.37
495.64	20985.54
495.85	21364.41
496.05	21358.27
496.26	21192.38
496.47	21874.35
496.67	21210.81
496.88	21720.76
497.08	21601.97
497.29	21837.49
497.49	21497.53
497.70	22027.95
497.91	21995.18
498.11	22161.07
498.32	22136.49
498.52	22132.40
498.73	22318.76
498.93	22306.48
499.14	22458.03
499.34	22570.66
499.55	22742.69
499.76	22449.83
499.96	22943.39
500.17	22802.08
500.37	23133.86
500.58	22695.59
500.78	23092.90
500.99	23109.28
501.19	23312.03
501.40	23236.25
501.60	23279.26
501.81	23178.91
502.02	23096.99
502.22	23299.74
502.43	23862.93
502.63	23619.22
502.84	23719.57
503.04	23705.24
503.25	23977.62
503.45	24039.06
503.66	24250.00
503.86	24243.85
504.07	24225.42
504.27	24069.78
504.48	24667.78
504.68	24250.00
504.89	24637.06
505.09	24905.35
505.30	24897.16
505.50	24528.52
505.71	24870.53
505.91	24905.35
506.12	25085.57
506.32	25038.47
506.53	24829.57
506.73	24974.98
506.94	25132.67
507.14	25312.89
507.35	25011.84
507.55	25499.26
507.76	25345.66
507.96	25325.18
508.17	25542.27
508.37	25419.39
508.58	25654.90
508.78	25695.86
508.99	25904.76
509.19	25747.06
509.40	25691.77
509.60	26068.59
509.81	25767.54
510.01	25943.67
510.22	26257.01
510.42	26082.93
510.63	26519.15
510.83	26216.05
511.04	26470.00
511.24	26336.88
511.44	26437.23
511.65	26541.68
511.85	26535.53
512.06	26111.60
512.26	26834.53
512.47	26752.62
512.67	26973.80
512.88	26734.18
513.08	26504.81
513.29	26764.90
513.49	26973.80
513.69	26734.18
513.90	27233.89
514.10	27319.90
514.31	27104.87
514.51	27260.51
514.72	27160.16
514.92	27256.42
515.13	27342.43
515.33	27567.71
515.53	27696.73
515.74	27541.08
515.94	27324.00
516.15	27561.56
516.35	27528.80
516.56	27926.10
516.76	27700.83
516.96	28014.16
517.17	28214.87
517.37	27997.78
517.58	28071.51
517.78	28155.47
517.99	28255.82
518.19	28298.83
518.39	28403.28
518.60	28386.89
518.80	28159.57
519.01	28548.68
519.21	28393.04
519.41	28624.46
519.62	28298.83
519.82	28898.89
520.03	28970.57
520.23	28907.08
520.43	28739.15
520.64	29269.57
520.84	29251.14
521.05	29259.33
521.25	29447.74
521.45	29402.69
521.66	29570.62
521.86	29658.68
522.07	29474.37
522.27	29318.72
522.47	29630.01
522.68	29982.26
522.88	30068.28
523.08	30182.96
523.29	29775.42
523.49	30119.48
523.70	30015.03
523.90	30254.64
524.10	30041.65
524.31	30156.34
524.51	29775.42
524.71	30660.14
524.92	30645.80
525.12	30602.80
525.33	30795.31
525.53	31020.58
525.73	31104.55
525.94	30731.82
526.14	31043.11
526.34	30893.61
526.55	31135.27
526.75	31389.22
526.95	31313.44
527.16	31112.74
527.36	31397.41
527.56	31239.72
527.77	31575.58
527.97	31501.86
528.17	31718.94
528.38	31868.44
528.58	32042.52
528.78	32212.50
528.99	31796.76
529.19	32443.92
529.39	31972.89
529.60	32163.35
529.80	32378.39
530.00	32417.30
530.21	32255.51
530.41	32728.59
530.61	32310.80
530.82	32820.75
531.02	32372.24
531.22	33097.22
531.43	32611.85
531.63	32980.49
531.83	33377.79
532.04	33617.41
532.24	33160.71
532.44	33801.72
532.64	33846.78
532.85	33664.51
533.05	34131.45
533.25	33840.64
533.46	33793.53
533.66	34117.11
533.86	34287.09
534.07	34196.98
534.27	34170.36
534.47	34391.54
534.67	34383.35
534.88	34360.82
535.08	34149.88
535.28	34551.28
535.49	35003.88
535.69	35032.55
535.89	35182.06
536.09	35225.06
536.30	35231.21
536.50	35411.43
536.70	35282.41
536.91	35765.73
537.11	35290.60
537.31	35630.56
537.51	35519.97
537.72	35640.80
537.92	35571.17
538.12	36034.01
538.32	35726.81
538.53	36036.06
538.73	35491.30
538.93	36140.50
539.13	36134.36
539.34	36185.56
539.54	36175.32
539.74	36388.31
539.94	36093.40
540.15	36306.39
540.35	36412.88
540.55	36763.09
540.75	36920.78
540.96	36601.30
541.16	37289.42
541.36	37225.93
541.56	37025.23
541.77	37574.08
541.97	37062.09
542.17	37068.23
542.37	36980.17
542.58	37508.55
542.78	37133.77
542.98	37651.91
543.18	37367.24
543.38	38227.38
543.59	37928.38
543.79	37619.14
543.99	38034.88
544.19	37752.26
544.40	37750.21
544.60	38241.72
544.80	38073.79
545.00	38329.78
545.20	38788.53
545.41	38333.88
545.61	38219.19
545.81	38903.21
546.01	38663.60
546.21	38675.89
546.42	38565.30
546.62	38868.40
546.82	38587.83
547.02	38741.42
547.22	38993.32
547.43	38948.27
547.63	39392.68
547.83	38933.93
548.03	39056.81
548.23	39284.14
548.44	39075.24
548.64	39050.67
548.84	39323.05
549.04	39380.39
549.24	39306.66
549.45	39853.47
549.65	39468.45
549.85	39564.71
550.05	39855.52
550.25	40084.89
550.45	40600.98
550.66	40158.62
550.86	39949.73
551.06	40330.65
551.26	40234.39
551.46	40543.64
551.66	40158.62
551.87	40115.61
552.07	40291.74
552.27	40555.93
552.47	40764.82
552.67	40543.64
552.87	40699.28
553.07	40639.89
553.28	40658.32
553.48	40654.23
553.68	40764.82
553.88	40949.14
554.08	40897.94
554.28	41069.97
554.48	40910.22
554.69	41039.25
554.89	41110.92
555.09	41106.83
555.29	40689.04
555.49	41420.17
555.69	41463.18
555.89	41387.40
556.10	41624.96
556.30	41096.59
556.50	41579.91
556.70	41497.99
556.90	41538.95
557.10	41678.21
557.30	41395.59
557.50	41680.26
557.70	41446.79
557.91	41956.74
558.11	41491.85
558.31	42220.92
558.51	41993.60
558.71	42216.83
558.91	42177.92
559.11	42128.77
559.31	42431.86
559.51	41973.12
559.72	42005.89
559.92	42190.20
560.12	42108.29
560.32	42646.90
560.52	42501.50
560.72	42417.53
560.92	42898.80
561.12	42196.35
561.32	42771.83
561.52	42331.51
561.72	43003.25
561.93	42421.62
562.13	43048.30
562.33	42644.85
562.53	43023.73
562.73	42607.99
562.93	42655.09
563.13	42911.09
563.33	42679.67
563.53	43029.87
563.73	42743.16
563.93	43066.73
564.13	43695.46
564.33	42972.53
564.53	42962.29
564.74	43500.90
564.94	43345.26
565.14	43199.85
565.34	43177.33
565.54	43500.90
565.74	43130.22
565.94	44121.44
566.14	43244.91
566.34	43203.95
566.54	43722.08
566.74	43408.75
566.94	43787.62
567.14	43828.58
567.34	44076.38
567.54	43912.55
567.74	44045.66
567.94	43740.52
568.14	44053.86
568.34	44236.12
568.54	44193.12
568.74	44143.97
568.94	44148.06
569.14	44410.20
569.34	44463.45
569.54	44348.76
569.75	43935.07
569.95	44432.73
570.15	44719.45
570.35	44635.48
570.55	44588.38
570.75	44817.75
570.95	44184.93
571.15	44711.25
571.35	44602.71
571.55	44733.78
571.75	44864.85
571.95	44981.59
572.15	45151.57
572.35	44969.30
572.55	44764.50
572.75	45116.75
572.95	45047.12
573.15	44858.71
573.35	45151.57
573.55	44672.34
573.75	44914.00
573.95	45444.43
574.15	45047.12
574.35	45356.36
574.55	45405.52
574.75	45196.62
574.95	45366.60
575.15	45241.68
575.34	45458.76
575.54	45552.97
575.74	45659.46
575.94	45538.63
576.14	45710.66
576.34	46021.95
576.54	46331.20
576.74	45626.70
576.94	45784.39
577.14	46110.02
577.34	46118.21
577.54	45616.46
577.74	46351.68
577.94	46396.73
578.14	46161.22
578.34	46376.25
578.54	45864.26
578.74	46417.21
578.94	46515.51
579.14	46234.94
579.34	46294.33
579.54	46325.05
579.74	47138.10
579.94	46650.68
580.13	46875.96
580.33	46521.66
580.53	46787.89
580.73	46880.05
580.93	47064.37
581.13	46896.44
581.33	47476.01
581.53	47252.78
581.73	47086.90
581.93	47611.18
582.13	47258.93
582.33	47242.54
582.53	47355.18
582.73	47754.54
582.92	47134.00
583.12	47717.67
583.32	47355.18
583.52	47359.28
583.72	47367.47
583.92	47670.57
584.12	47506.73
584.32	48174.37
584.52	47404.33
584.72	47699.24
584.92	47592.75
585.11	48237.86
585.31	47910.18
585.51	47826.21
585.71	47555.88
585.91	48176.42
586.11	47887.65
586.31	47899.94
586.51	48272.67
586.71	48190.75
586.91	48157.99
587.10	47994.15
587.30	48276.77
587.50	48379.17
587.70	48530.72
587.90	48379.17
588.10	48538.91
588.30	48395.55
588.50	48809.24
588.69	48434.46
588.89	48305.44
589.09	48844.05
589.29	48749.85
589.49	48956.69
589.69	48502.04
589.89	48971.03
590.08	48844.05
590.28	49104.15
590.48	49042.71
590.68	48882.97
590.88	49190.16
591.08	48827.67
591.28	48821.53
591.47	49564.94
591.67	49640.71
591.87	49298.70
592.07	49034.52
592.27	49292.56
592.47	49577.23
592.67	49372.43
592.86	49190.16
593.06	49569.04
593.26	49544.46
593.46	49224.98
593.66	49218.83
593.86	49628.43
594.05	49853.70
594.25	50101.51
594.45	49505.55
594.65	49595.66
594.85	49548.56
595.05	50015.49
595.24	50017.54
595.44	49943.81
595.64	49986.82
595.84	49779.98
596.04	49978.63
596.23	50208.00
596.43	50291.97
596.63	50070.79
596.83	49960.20
597.03	50697.47
597.22	50509.05
597.42	50212.10
597.62	50738.43
597.82	50527.48
598.02	50345.22
598.21	50654.46
598.41	50586.88
598.61	50892.02
598.81	50519.29
599.01	50918.65
599.20	51023.09
599.40	50771.19
599.60	50978.04
599.80	51088.63
600.00	50685.18
600.19	51561.71
600.39	50709.75
600.59	51041.53
600.79	51205.36
600.98	50914.55
601.18	51442.93
601.38	51019.00
601.58	51092.72
601.78	51563.76
601.97	51496.17
602.17	51606.76
602.37	51815.66
602.57	51401.97
602.76	51877.10
602.96	51746.03
603.16	51924.20
603.36	51850.47
603.55	52016.36
603.75	52143.33
603.95	51703.02
604.15	52272.35
604.34	52131.04
604.54	52479.20
604.74	52079.85
604.94	52266.21
605.13	52042.98
605.33	52184.29
605.53	52079.85
605.73	52669.66
605.92	52466.91
606.12	52774.11
606.32	52569.31
606.52	52157.67
606.71	52831.45
606.91	53109.97
607.11	52272.35
607.30	52714.72
607.50	53011.67
607.70	52976.86
607.90	52946.14
608.09	52827.35
608.29	52909.27
608.49	53165.27
608.68	53099.73
608.88	53048.53
609.08	53103.83
609.28	52751.58
609.47	53167.32
609.67	53818.57
609.87	53097.69
610.06	53411.02
610.26	53132.50
610.46	53564.62
610.66	52872.41
610.85	53271.76
611.05	52894.94
611.25	53286.10
611.44	53499.09
611.64	53335.25
611.84	53343.44
612.03	53212.37
612.23	53660.88
612.43	53761.23
612.62	53183.70
612.82	53533.90
613.02	53599.44
613.21	53400.79
613.41	53343.44
613.61	53810.38
613.80	53685.45
614.00	53687.50
614.20	54006.98
614.39	53941.45
614.59	54037.70
614.79	53904.59
614.98	53726.41
615.18	53667.02
615.38	53802.19
615.57	53517.52
615.77	54027.46
615.97	53849.29
616.16	53996.74
616.36	53904.59
616.56	54226.12
616.75	53748.94
616.95	53523.66
617.15	53701.84
617.34	54015.18
617.54	54064.33
617.74	54672.57
617.93	53992.65
618.13	53335.25
618.32	54187.21
618.52	53898.44
618.72	54084.81
618.91	54265.03
619.11	54129.86
619.31	53587.15
619.50	53673.16
619.70	53822.67
619.90	53937.35
620.09	53832.91
620.29	54121.67
620.48	53505.23
620.68	54348.99
620.88	54074.57
621.07	53976.26
621.27	53785.80
621.46	53875.91
621.66	53560.53
621.86	53871.82
622.05	53609.68
622.25	54340.80
622.44	54353.09
622.64	53941.45
622.84	54299.84
623.03	53779.66
623.23	54099.14
623.42	53546.19
623.62	54428.87
623.82	54113.48
624.01	53929.16
624.21	54224.07
624.40	54049.99
624.60	53992.65
624.80	54002.89
624.99	53978.31
625.19	53707.98
625.38	53896.39
625.58	54344.90
625.77	54133.96
625.97	54269.12
626.17	53867.72
626.36	54285.51
626.56	53900.49
626.75	53710.03
626.95	54316.23
627.14	54228.16
627.34	54101.19
627.54	54045.90
627.73	54158.53
627.93	54314.18
628.12	54023.37
628.32	54428.87
628.51	54473.92
628.71	54217.92
628.90	54097.09
629.10	54252.74
629.30	54371.52
629.49	54465.73
629.69	54297.80
629.88	54619.33
630.08	54551.74
630.27	54772.92
630.47	54396.10
630.66	54215.88
630.86	54467.78
631.05	54101.19
631.25	54850.75
631.44	54607.04
631.64	54404.29
631.84	54490.30
632.03	55045.30
632.23	54531.26
632.42	54932.67
632.62	54402.24
632.81	54109.38
633.01	54355.14
633.20	54473.92
633.40	55069.88
633.59	54654.14
633.79	54494.40
633.98	54445.25
634.18	54596.80
634.37	54545.60
634.57	54512.83
634.76	54813.88
634.96	54752.44
635.15	54875.32
635.35	54416.58
635.54	54310.08
635.74	55284.92
635.93	54772.92
636.13	55123.13
636.32	54916.28
636.52	54547.65
636.71	54437.06
636.91	55112.89
637.10	55231.67
637.30	54897.85
637.49	55125.17
637.69	54596.80
637.88	55045.30
638.08	54828.22
638.27	55059.64
638.46	54705.34
638.66	54658.24
638.85	55121.08
639.05	55186.61
639.24	55282.87
639.44	55051.45
639.63	55686.32
639.83	55061.69
640.02	54992.06
640.22	54992.06
640.41	55573.68
640.61	54697.15
640.80	55221.43
640.99	54912.19
641.19	55733.42
641.38	55157.94
641.58	54643.90
641.77	55321.78
641.97	54985.91
642.16	55139.51
642.36	55375.03
642.55	55837.87
642.74	55096.50
642.94	56038.57
643.13	55264.44
643.33	55375.03
643.52	55620.78
643.72	55473.33
643.91	55162.04
644.10	55469.23
644.30	55594.16
644.49	54985.91
644.69	55821.48
644.88	55610.54
645.08	55317.68
645.27	55313.59
645.46	55260.34
645.66	55329.97
645.85	55772.33
646.05	55469.23
646.24	55895.21
646.43	55661.74
646.63	55600.30
646.82	55506.10
647.02	55610.54
647.21	56040.62
647.40	55422.13
647.60	55882.92
647.79	55778.48
647.99	55631.02
648.18	55897.26
648.37	56401.06
648.57	55751.85
648.76	56179.88
648.96	55540.91
649.15	56212.65
649.34	55966.89
649.54	55555.25
649.73	55774.38
649.92	55950.51
650.12	56075.43
650.31	56042.66
650.51	56132.78
650.70	55927.98
650.89	55895.21
651.09	56581.28
651.28	56261.80
651.47	56206.50
651.67	56013.99
651.86	56609.95
652.06	55661.74
652.25	56016.04
652.44	55903.40
652.64	55653.55
652.83	55981.23
653.02	55966.89
653.22	55686.32
653.41	55891.12
653.60	55911.59
653.80	55977.13
653.99	56229.03
654.18	56226.98
654.38	55882.92
654.57	56177.83
654.76	56323.24
654.96	56005.80
655.15	56552.61
655.34	56231.08
655.54	55456.95
655.73	56349.86
655.92	56337.57
656.12	56501.41
656.31	56159.40
656.50	56286.37
656.70	56102.06
656.89	56071.34
657.08	56120.49
657.28	55975.08
657.47	56286.37
657.66	56493.22
657.86	55835.82
658.05	56048.81
658.24	56038.57
658.43	56251.56
658.63	56077.48
658.82	56497.31
659.01	56370.34
659.21	56313.00
659.40	56554.66
659.59	56171.69
659.79	56788.13
659.98	56104.10
660.17	56521.89
660.36	56253.61
660.56	56274.09
660.75	56153.26
660.94	56165.54
661.14	55948.46
661.33	55739.57
661.52	55962.79
661.71	56407.20
661.91	55934.12
662.10	56018.09
662.29	56931.48
662.49	56251.56
662.68	56177.83
662.87	55934.12
663.06	56403.11
663.26	56108.20
663.45	56947.87
663.64	56495.27
663.83	56566.94
664.03	56220.84
664.22	56288.42
664.41	56302.76
664.60	56112.30
664.80	56210.60
664.99	56110.25
665.18	55893.16
665.37	56286.37
665.57	56515.75
665.76	56323.24
665.95	56622.24
666.14	56382.63
666.34	56343.72
666.53	56161.45
666.72	56237.22
666.91	56059.05
667.11	55882.92
667.30	56177.83
667.49	56050.86
667.68	56341.67
667.87	56097.96
668.07	56214.69
668.26	56265.89
668.45	56272.04
668.64	56419.49
668.84	56571.04
669.03	56261.80
669.22	56362.15
669.41	56401.06
669.60	56302.76
669.80	55946.41
669.99	56579.23
670.18	56382.63
670.37	56235.17
670.57	56669.34
670.76	56022.19
670.95	56050.86
671.14	56022.19
671.33	55968.94
671.53	56708.25
671.72	56030.38
671.91	56214.69
672.10	56476.83
672.29	56188.07
672.48	56038.57
672.68	56134.82
672.87	56028.33
673.06	55987.37
673.25	56116.39
673.44	55940.27
673.64	55731.37
673.83	56263.85
674.02	55669.93
674.21	55643.31
674.40	56059.05
674.59	55571.63
674.79	55817.39
674.98	55702.70
675.17	55950.51
675.36	55852.20
675.55	55798.96
675.74	55424.18
675.94	55735.47
676.13	55784.62
676.32	55645.36
676.51	55960.75
676.70	55936.17
676.89	55866.54
677.08	56034.47
677.28	54918.33
677.47	55678.13
677.66	56022.19
677.85	55325.88
678.04	55852.20
678.23	56165.54
678.42	56089.77
678.62	55624.88
678.81	55985.32
679.00	55809.20
679.19	56269.99
679.38	55622.83
679.57	55526.58
679.76	55588.02
679.96	55768.24
680.15	55645.36
680.34	55489.71
680.53	55610.54
680.72	55633.07
680.91	55919.79
681.10	55329.97
681.29	55823.53
681.48	55815.34
681.68	55690.41
681.87	55172.28
682.06	55846.06
682.25	55205.05
682.44	55399.60
682.63	55063.74
682.82	55133.37
683.01	55432.37
683.20	55104.70
683.39	55440.56
683.59	55028.92
683.78	55268.53
683.97	55471.28
684.16	55284.92
684.35	54990.01
684.54	54977.72
684.73	54959.29
684.92	55096.50
685.11	54957.24
685.30	55022.78
685.49	55155.89
685.69	54947.00
685.88	54940.86
686.07	54877.37
686.26	54666.43
686.45	55155.89
686.64	55137.46
686.83	54850.75
687.02	55157.94
687.21	55325.88
687.40	55057.59
687.59	54854.84
687.78	54891.71
687.97	55108.79
688.16	55315.64
688.35	54478.02
688.54	54629.57
688.74	54836.41
688.93	54299.84
689.12	54699.20
689.31	54754.49
689.50	54840.51
689.69	54697.15
689.88	54097.09
690.07	54834.36
690.26	54353.09
690.45	54955.19
690.64	54293.70
690.83	54498.50
691.02	54578.37
691.21	54420.67
691.40	54353.09
691.59	54539.46
691.78	54287.56
691.97	54498.50
692.16	54246.60
692.35	54508.74
692.54	54641.85
692.73	54584.51
692.92	54326.47
693.11	54230.21
693.30	54162.63
693.49	54367.43
693.68	54228.16
693.87	54711.49
694.06	54037.70
694.25	53972.17
694.44	54127.81
694.63	54496.45
694.82	54197.44
695.01	54250.69
695.20	53603.53
695.39	53933.26
695.58	54172.87
695.77	53681.36
695.96	53990.60
696.15	53968.07
696.34	53656.78
696.53	54080.71
696.72	54146.25
696.91	53794.00
697.10	54301.89
697.29	53433.55
697.48	54043.85
697.67	53574.86
697.86	53548.24
698.05	53775.56
698.24	53902.54
698.43	53138.65
698.62	53576.91
698.81	53359.83
699.00	53736.65
699.19	53433.55
699.38	53566.67
699.57	53564.62
699.76	53986.50
699.95	53499.09
700.14	53667.02
700.32	53198.04
700.51	53392.59
700.70	53578.96
700.89	53351.63
701.08	53413.07
701.27	53587.15
701.46	53583.05
701.65	53351.63
701.84	53484.75
702.03	53359.83
702.22	53001.43
702.41	53378.26
702.60	53212.37
702.79	53152.98
702.98	52827.35
703.17	53329.11
703.35	52954.33
703.54	53142.74
703.73	53230.80
703.92	52780.25
704.11	52991.19
704.30	52595.93
704.49	52745.44
704.68	52841.69
704.87	52765.91
705.06	52638.94
705.25	52630.75
705.43	52794.59
705.62	52223.20
705.81	52585.69
706.00	52647.13
706.19	52264.16
706.38	52040.93
706.57	52585.69
706.76	52272.35
706.95	52583.65
707.14	52370.66
707.32	52280.55
707.51	52350.18
707.70	52247.78
707.89	52237.54
708.08	52212.96
708.27	51877.10
708.46	52442.34
708.65	51993.83
708.84	52575.45
709.02	52313.31
709.21	52280.55
709.40	51954.92
709.59	52210.92
709.78	51793.13
709.97	52507.87
710.16	51844.33
710.34	52169.96
710.53	52206.82
710.72	52034.79
710.91	51985.64
711.10	52229.35
711.29	51799.27
711.48	52155.62
711.66	51799.27
711.85	51954.92
712.04	52227.30
712.23	51934.44
712.42	51729.64
712.61	52010.21
712.80	51786.99
712.98	51598.57
713.17	51647.72
713.36	51537.13
713.55	51688.68
713.74	51467.50
713.93	51606.76
714.11	51530.99
714.30	51571.95
714.49	51311.86
714.68	51838.18
714.87	51696.88
715.06	51623.15
715.24	51125.49
715.43	51588.33
715.62	51008.76
715.81	51234.03
716.00	51940.58
716.18	50912.50
716.37	50836.73
716.56	51070.20
716.75	51281.14
716.94	50984.18
717.12	50625.79
717.31	50922.74
717.50	51152.12
717.69	50914.55
717.88	51139.83
718.06	51062.00
718.25	51100.92
718.44	50646.27
718.63	50926.84
718.82	50251.01
719.00	50533.63
719.19	50572.54
719.38	50726.14
719.57	50087.17
719.76	49855.75
719.94	49810.70
720.13	50189.57
720.32	50009.35
720.51	50248.96
720.69	50316.54
720.88	49868.04
721.07	49954.05
721.26	49601.80
721.44	49831.18
721.63	50109.70
721.82	49605.90
722.01	49779.98
722.20	49792.26
722.38	49689.87
722.57	49415.44
722.76	49581.32
722.95	49329.42
723.13	49005.84
723.32	49462.54
723.51	49032.47
723.70	49255.70
723.88	49364.24
724.07	49014.04
724.26	49167.63
724.44	48770.33
724.63	48962.84
724.82	49161.49
725.01	48614.68
725.19	48887.06
725.38	48647.45
725.57	48733.46
725.76	48956.69
725.94	48436.51
726.13	48469.28
726.32	48635.16
726.51	49046.80
726.69	48694.55
726.88	48452.89
727.07	48712.98
727.25	48280.86
727.44	48813.34
727.63	48514.33
727.82	48854.29
728.00	48434.46
728.19	48528.67
728.38	48815.38
728.56	47975.72
728.75	48160.03
728.94	48604.44
729.12	48903.45
729.31	48301.34
729.50	48289.06
729.69	48571.67
729.87	48006.44
730.06	48188.70
730.25	48252.19
730.43	48737.56
730.62	48428.32
730.81	48694.55
730.99	48461.08
731.18	48358.69
731.37	48125.22
731.55	48575.77
731.74	48821.53
731.93	48815.38
732.11	48272.67
732.30	48334.11
732.49	48065.83
732.67	48477.47
732.86	48309.53
733.05	48235.81
733.23	48135.46
733.42	48317.73
733.61	48233.76
733.79	48104.74
733.98	48538.91
734.17	48518.43
734.35	48342.30
734.54	48549.15
734.73	48370.97
734.91	48270.62
735.10	48149.79
735.29	48428.32
735.47	47654.18
735.66	48442.65
735.84	48133.41
736.03	47662.38
736.22	48166.18
736.40	47707.43
736.59	48067.87
736.78	47789.35
736.96	48028.96
737.15	47895.85
737.33	47981.86
737.52	47699.24
737.71	47645.99
737.89	47682.86
738.08	47379.76
738.27	47224.11
738.45	48000.29
738.64	47715.62
738.82	47445.29
739.01	47250.74
739.20	47496.49
739.38	47592.75
739.57	47539.50
739.75	47750.44
739.94	47539.50
740.13	47754.54
740.31	47189.30
740.50	47392.04
740.68	47734.06
740.87	47398.19
741.06	47609.13
741.24	47287.60
741.43	47097.14
741.61	47265.07
741.80	46873.91
741.99	46798.13
742.17	46961.97
742.36	47064.37
742.54	46771.51
742.73	47172.91
742.91	47236.40
743.10	47039.79
743.29	47404.33
743.47	47361.33
743.66	46808.37
743.84	46867.76
744.03	47232.30
744.21	46787.89
744.40	46867.76
744.59	46507.32
744.77	46402.88
744.96	46406.97
745.14	46714.17
745.33	46740.79
745.51	46554.43
745.70	46581.05
745.88	46466.36
746.07	46437.69
746.26	46540.09
746.44	46245.18
746.63	46341.44
746.81	46353.72
747.00	46210.37
747.18	46370.11
747.37	46138.69
747.55	46337.34
747.74	46622.01
747.92	45954.37
748.11	46105.92
748.29	46064.96
748.48	46452.03
748.66	45915.46
748.85	45983.04
749.03	45839.68
749.22	46140.74
749.41	45716.81
749.59	46085.44
749.78	45516.11
749.96	45503.82
750.15	45737.29
750.33	45700.42
750.52	45843.78
750.70	45663.56
750.89	45559.11
751.07	45514.06
751.26	45663.56
751.44	45094.22
751.63	45278.54
751.81	45069.65
752.00	45387.08
752.18	45204.81
752.37	45479.24
752.55	45337.93
752.74	44901.71
752.92	45440.33
753.10	44711.25
753.29	45231.44
753.47	45045.07
753.66	45079.89
753.84	45331.79
754.03	44995.92
754.21	44299.61
754.40	44629.34
754.58	44508.50
754.77	44821.84
754.95	44209.50
755.14	44393.82
755.32	44438.87
755.51	44135.77
755.69	44502.36
755.88	44477.79
756.06	44748.12
756.24	44551.51
756.43	44316.00
756.61	44549.46
756.80	44424.54
756.98	44039.52
757.17	44297.56
757.35	44316.00
757.54	44397.91
757.72	44569.94
757.90	44242.27
758.09	43963.75
758.27	44186.97
758.46	43937.12
758.64	44117.34
758.83	43990.37
759.01	43883.87
759.19	44229.98
759.38	43898.21
759.56	43851.11
759.75	43885.92
759.93	43429.23
760.12	43543.91
760.30	43353.45
760.48	43709.80
760.67	43529.58
760.85	43390.31
761.04	43488.62
761.22	43556.20
761.40	43257.20
761.59	43091.31
761.77	42892.66
761.96	42851.70
762.14	43713.89
762.32	43363.69
762.51	43218.28
762.69	42710.39
762.88	43234.67
763.06	42757.49
763.24	43351.40
763.43	43226.48
763.61	42591.61
763.80	42567.03
763.98	42952.05
764.16	42624.37
764.35	42440.06
764.53	42335.61
764.72	42438.01
764.90	42304.89
765.08	42763.64
765.27	42341.75
765.45	42218.88
765.63	42229.12
765.82	42401.14
766.00	42083.71
766.18	41919.87
766.37	42796.40
766.55	42325.37
766.74	42429.82
766.92	42030.46
767.10	42333.56
767.29	41891.20
767.47	41481.61
767.65	42286.46
767.84	41346.44
768.02	42001.79
768.20	41604.49
768.39	41747.84
768.57	41651.59
768.75	41551.24
768.94	41518.47
769.12	41620.87
769.30	41377.16
769.49	41479.56
769.67	41285.00
769.85	41022.86
770.04	41426.31
770.22	41162.12
770.40	40650.13
770.59	41065.87
770.77	41104.78
770.95	41256.33
771.14	40646.04
771.32	40363.42
771.50	40414.62
771.69	40689.04
771.87	41227.66
772.05	40519.06
772.24	40289.69
772.42	40400.28
772.60	40646.04
772.78	40457.62
772.97	40551.83
773.15	40400.28
773.33	40314.26
773.52	40639.89
773.70	40187.29
773.88	40553.88
774.07	39988.64
774.25	40351.13
774.43	40320.41
774.61	40611.22
774.80	40609.17
774.98	40410.52
775.16	40457.62
775.34	40224.15
775.53	40082.84
775.71	40744.34
775.89	40725.91
776.08	40555.93
776.26	40535.45
776.44	40103.32
776.62	40525.21
776.81	40527.25
776.99	40351.13
777.17	40480.15
777.35	40658.32
777.54	40770.96
777.72	40437.14
777.90	40641.94
778.08	40605.08
778.27	40701.33
778.45	40947.09
778.63	41149.84
778.81	40275.35
779.00	41368.97
779.18	40910.22
779.36	40861.07
779.54	40924.56
779.73	40674.71
779.91	41069.97
780.09	40885.65
780.27	41133.45
780.46	40940.94
780.64	41274.76
780.82	40793.49
781.00	41137.55
781.19	41110.92
781.37	41035.15
781.55	40713.62
781.73	41717.12
781.91	41354.63
782.10	41059.73
782.28	41373.06
782.46	41436.55
782.64	41434.50
782.82	41256.33
783.01	41479.56
783.19	41256.33
783.37	41297.29
783.55	41434.50
783.74	41739.65
783.92	41215.37
784.10	41567.62
784.28	41262.47
784.46	40689.04
784.64	41182.60
784.83	41233.80
785.01	41770.37
785.19	41364.87
785.37	41549.19
785.55	41362.82
785.74	40961.42
785.92	40719.76
786.10	41567.62
786.28	40955.28
786.46	40889.74
786.64	40990.09
786.83	40850.83
787.01	41153.93
787.19	41471.37
787.37	41010.57
787.55	40940.94
787.74	40934.80
787.92	40758.67
788.10	40502.68
788.28	40629.65
788.46	40584.60
788.64	40299.93
788.82	41145.74
789.01	40392.09
789.19	40453.53
789.37	40486.29
789.55	40494.49
789.73	40105.37
789.91	40172.96
790.09	40195.48
790.28	40301.98
790.46	39912.86
790.64	40033.69
790.82	39902.62
791.00	39943.58
791.18	39515.56
791.36	39935.39
791.55	40027.55
791.73	39687.59
791.91	39601.57
792.09	39556.52
792.27	39216.55
792.45	39163.31
792.63	39398.82
792.81	39009.71
793.00	39462.31
793.18	39046.57
793.36	39198.12
793.54	38610.35
793.72	38925.74
793.90	38444.47
794.08	38706.61
794.26	38673.84
794.44	38186.43
794.62	38215.10
794.81	38708.66
794.99	38440.37
795.17	38647.22
795.35	38395.32
795.53	38155.71
795.71	38442.42
795.89	37766.59
796.07	37680.58
796.25	37561.79
796.43	37813.70
796.61	37516.74
796.80	37352.90
796.98	37608.90
797.16	37217.74
797.34	37471.68
797.52	37123.53
797.70	37123.53
797.88	37225.93
798.06	36832.72
798.24	36998.60
798.42	37139.91
798.60	36890.06
798.78	36672.98
798.96	36873.68
799.14	36654.54
799.32	36845.01
799.51	36617.68
799.69	36646.35
799.87	36627.92
800.05	36376.02
800.23	36208.09
800.41	36212.18
800.59	36097.50
800.77	36042.20
800.95	35732.96
801.13	35702.24
801.31	35560.93
801.49	35401.19
801.67	35749.34
801.85	35675.62
802.03	35438.05
802.21	35151.34
802.39	35245.54
802.57	35175.91
802.75	35220.97
802.93	34967.02
803.11	34952.68
803.29	35132.90
803.47	34512.37
803.65	35102.18
803.83	34713.07
804.01	34467.31
804.19	34117.11
804.37	34297.33
804.55	34217.46
804.73	34766.32
804.91	34268.66
805.09	33990.14
805.27	33971.71
805.45	34108.92
805.63	34395.64
805.81	34094.58
805.99	34170.36
806.17	33869.31
806.35	33824.25
806.53	33732.09
806.71	34004.47
806.89	33883.64
807.07	33383.94
807.25	33728.00
807.43	33334.79
807.61	33549.82
807.79	33254.92
807.97	33066.50
808.15	32968.20
808.33	32767.50
808.51	32810.51
808.69	32716.30
808.87	32814.60
809.05	32982.54
809.23	32441.87
809.41	32323.09
809.59	32603.66
809.77	32771.60
809.95	32400.91
810.13	32329.23
810.31	32314.90
810.49	32314.90
810.67	32071.19
810.84	32378.39
811.02	32437.78
811.20	32091.67
811.38	32065.05
811.56	31784.48
811.74	31954.46
811.92	31553.05
812.10	31850.01
812.28	31870.49
812.46	31833.63
812.64	31979.03
812.82	31716.89
813.00	31665.69
813.18	31774.24
813.36	31481.38
813.53	31184.42
813.71	31487.52
813.89	31057.45
814.07	31014.44
814.25	31282.72
814.43	30787.11
814.61	30930.47
814.79	31133.22
814.97	30813.74
815.15	30963.24
815.33	30694.96
815.50	30762.54
815.68	30783.02
815.86	30582.32
816.04	30563.89
816.22	30504.49
816.40	30588.46
816.58	30434.86
816.76	30234.16
816.94	30506.54
817.11	30234.16
817.29	30217.78
817.47	30074.42
817.65	29675.07
817.83	29875.77
818.01	29662.78
818.19	30064.18
818.37	29974.07
818.54	29873.72
818.72	29470.27
818.90	29673.02
819.08	29814.33
819.26	29681.21
819.44	29478.46
819.62	29644.35
819.80	29480.51
819.97	29505.09
820.15	29230.66
820.33	29382.21
820.51	29421.12
820.69	29101.64
820.87	29369.92
821.05	29488.70
821.22	29032.00
821.40	29064.77
821.58	28909.13
821.76	29105.73
821.94	28698.19
822.12	28864.07
822.29	28761.67
822.47	28743.24
822.65	29146.69
822.83	28986.95
823.01	28974.66
823.19	28616.27
823.36	28563.02
823.54	28683.85
823.72	28333.65
823.90	28405.33
824.08	28198.48
824.25	28425.81
824.43	28272.21
824.61	28507.72
824.79	28243.54
824.97	28376.66
825.15	27823.70
825.32	27928.15
825.50	27747.93
825.68	28069.46
825.86	27965.01
826.04	28216.91
826.21	27903.57
826.39	27950.68
826.57	27807.32
826.75	27760.22
826.93	27659.87
827.10	27846.23
827.28	27672.15
827.46	27983.44
827.64	27676.25
827.81	27121.25
827.99	27815.51
828.17	27479.64
828.35	27643.48
828.53	27446.88
828.70	27635.29
828.88	27410.01
829.06	27154.02
829.24	27483.74
829.41	27532.89
829.59	27506.27
829.77	26973.80
829.95	27248.22
830.12	26910.31
830.30	27250.27
830.48	27147.87
830.66	27000.42
830.84	26867.30
831.01	26650.22
831.19	27115.11
831.37	26900.07
831.55	27045.48
831.72	27078.24
831.90	26787.43
832.08	26695.27
832.25	26609.26
832.43	26394.22
832.61	26551.91
832.79	26615.40
832.96	26386.03
833.14	26637.93
833.32	26566.25
833.50	26533.48
833.67	26429.04
833.85	26801.77
834.03	26105.46
834.20	26572.39
834.38	26515.05
834.56	26633.83
834.74	26216.05
834.91	26211.95
835.09	26240.62
835.27	25675.38
835.44	25736.82
835.62	25630.33
835.80	25998.96
835.98	26021.49
836.15	25618.04
836.33	26191.47
836.51	26127.99
836.68	25972.34
836.86	25652.86
837.04	25654.90
837.21	25800.31
837.39	25808.50
837.57	26091.12
837.75	25771.64
837.92	25325.18
838.10	25798.26
838.28	25194.11
838.45	25446.01
838.63	25261.69
838.81	25650.81
838.98	25101.95
839.16	25216.64
839.34	25128.58
839.51	25249.41
839.69	25202.30
839.87	25251.45
840.04	24919.68
840.22	25478.78
840.40	25101.95
840.57	24776.33
840.75	25294.46
840.93	24913.54
841.10	25075.33
841.28	25304.70
841.46	24753.80
841.63	25036.42
841.81	24934.02
841.98	24546.95
842.16	24780.42
842.34	24637.06
842.51	24569.48
842.69	24907.40
842.87	24751.75
843.04	24553.10
843.22	24628.87
843.40	24399.50
843.57	24440.46
843.75	24581.77
843.92	24592.01
844.10	24383.12
844.28	24733.32
844.45	24718.98
844.63	24817.29
844.81	24460.94
844.98	24344.20
845.16	24362.64
845.33	24141.46
845.51	24305.29
845.69	24215.18
845.86	23955.09
846.04	24071.82
846.21	24311.44
846.39	24338.06
846.57	23522.97
846.74	24141.46
846.92	23592.60
847.09	24065.68
847.27	24075.92
847.45	23979.67
847.62	24104.59
847.80	24053.39
847.97	23674.52
848.15	23484.06
848.32	23502.49
848.50	23502.49
848.68	23703.19
848.85	23568.02
849.03	23096.99
849.20	23576.22
849.38	23576.22
849.56	23725.72
849.73	23334.56
849.91	23096.99
850.08	23531.16
850.26	23197.34
850.43	23301.79
850.61	23389.85
850.78	23056.03
850.96	23283.36
851.14	22910.63
851.31	23084.70
851.49	22836.90
851.66	23029.41
851.84	23219.87
852.01	23002.78
852.19	22929.06
852.36	22982.31
852.54	23170.72
852.71	22820.52
852.89	22929.06
853.07	22826.66
853.24	22818.47
853.42	22750.88
853.59	22976.16
853.77	22830.76
853.94	22750.88
854.12	23000.74
854.29	22550.18
854.47	22734.50
854.64	22714.02
854.82	22728.36
854.99	22855.33
855.17	22578.86
855.34	22392.49
855.52	22541.99
855.69	22619.81
855.87	22230.70
856.04	22220.46
856.22	22435.50
856.39	22242.99
856.57	22240.94
856.74	22238.89
856.92	22324.91
857.09	22318.76
857.27	22042.29
857.44	22372.01
857.62	22396.59
857.79	22501.03
857.97	22140.59
858.14	22206.13
858.32	21995.18
858.49	21923.51
858.67	21851.83
858.84	21997.23
859.02	21984.94
859.19	21759.67
859.37	21601.97
859.54	21556.92
859.72	21837.49
859.89	21765.81
860.06	22007.47
860.24	21612.21
860.41	21866.16
860.59	21798.58
860.76	21757.62
860.94	21286.59
861.11	21675.70
861.29	21556.92
861.46	21487.29
861.64	21368.51
861.81	21188.28
861.98	21132.99
862.16	21411.51
862.33	21130.94
862.51	21145.28
862.68	21190.33
862.86	21180.09
863.03	21202.62
863.21	21264.06
863.38	21075.65
863.55	20975.30
863.73	21219.00
863.90	20993.73
864.08	20997.82
864.25	21018.30
864.43	20860.61
864.60	20991.68
864.77	20676.29
864.95	21106.37
865.12	20920.00
865.30	20846.27
865.47	20885.19
865.64	20582.09
865.82	20870.85
865.99	20895.43
866.17	20475.59
866.34	20782.79
866.51	20395.72
866.69	20518.60
866.86	20596.42
867.04	20455.11
867.21	20512.46
867.38	20416.20
867.56	20469.45
867.73	20022.99
867.91	19914.45
868.08	20205.26
868.25	20211.40
868.43	20209.36
868.60	20131.53
868.78	20254.41
868.95	20262.60
869.12	19803.86
869.30	19883.73
869.47	20352.71
869.64	19859.15
869.82	19957.46
869.99	19723.99
870.16	20176.59
870.34	19560.15
870.51	19914.45
870.69	19578.58
870.86	19732.18
871.03	19836.63
871.21	19803.86
871.38	19818.19
871.55	19218.14
871.73	19668.69
871.90	19431.13
872.07	19341.02
872.25	19285.72
872.42	19326.68
872.59	19394.26
872.77	19482.33
872.94	19609.30
873.11	19320.54
873.29	19431.13
873.46	19097.31
873.63	19027.68
873.81	18941.66
873.98	19021.53
874.15	18929.38
874.33	18589.41
874.50	18603.75
874.67	19013.34
874.85	18783.97
875.02	18634.47
875.19	18638.56
875.37	18542.31
875.54	18204.39
875.71	18601.70
875.88	18073.32
876.06	18589.41
876.23	18409.19
876.40	18454.25
876.58	18403.05
876.75	18480.87
876.92	18083.56
877.10	18331.37
877.27	18075.37
877.44	18165.48
877.61	18151.15
877.79	18274.03
877.96	17782.51
878.13	17923.82
878.31	17704.69
878.48	17946.35
878.65	17829.62
878.82	17622.77
879.00	17913.58
879.17	17764.08
879.34	17936.11
879.51	17899.25
879.69	17655.54
879.86	17626.87
880.03	17727.22
880.21	17753.84
880.38	17923.82
880.55	17903.34
880.72	17651.44
880.90	17669.87
881.07	17485.56
881.24	17446.65
881.41	17649.39
881.59	17651.44
881.76	17368.82
881.93	17336.06
882.10	17391.35
882.28	17329.91
882.45	17229.56
882.62	17295.10
882.79	17305.34
882.96	16926.46
883.14	17274.62
883.31	17417.97
883.48	17215.23
883.65	17133.31
883.83	17237.75
884.00	17090.30
884.17	17041.15
884.34	17018.62
884.51	17192.70
884.69	16979.71
884.86	17049.34
885.03	17041.15
885.20	16738.05
885.38	16844.54
885.55	16787.20
885.72	16811.78
885.89	16854.78
886.06	16590.59
886.24	16639.75
886.41	16428.81
886.58	16623.36
886.75	16717.57
886.92	16514.82
887.10	16613.12
887.27	16424.71
887.44	16666.37
887.61	16674.56
887.78	16840.45
887.95	16580.36
888.13	16572.16
888.30	16449.28
888.47	16350.98
888.64	16523.01
888.81	16488.20
888.99	16402.18
889.16	16271.11
889.33	16244.49
889.50	16326.41
889.67	16025.36
889.84	16080.65
890.01	16129.80
890.19	16252.68
890.36	16054.03
890.53	16076.55
890.70	16008.97
890.87	15898.38
891.04	15937.29
891.22	15963.92
891.39	15963.92
891.56	15859.47
891.73	15894.29
891.90	15626.00
892.07	15646.48
892.24	15640.34
892.42	15664.91
892.59	15716.11
892.76	15939.34
892.93	15726.35
893.10	15644.43
893.27	15605.52
893.44	15525.65
893.61	15386.39
893.79	15707.92
893.96	15658.77
894.13	15752.98
894.30	15453.97
894.47	15619.86
894.64	15361.81
894.81	15580.95
894.98	15539.99
895.15	15591.19
895.33	15306.52
895.50	15374.10
895.67	15548.18
895.84	15357.72
896.01	15308.57
896.18	15357.72
896.35	15666.96
896.52	15296.28
896.69	15111.96
896.86	15206.17
897.04	15410.96
897.21	15408.92
897.38	15329.05
897.55	14962.46
897.72	15484.69
897.89	15269.66
898.06	15562.51
898.23	15200.02
898.40	15238.94
898.57	15304.47
898.74	15343.38
898.91	15370.01
899.08	15154.97
899.26	15226.65
899.43	15333.14
899.60	15079.19
899.77	15197.98
899.94	15128.35
900.11	15185.69
900.28	15466.26
900.45	15050.52
900.62	14917.40
900.79	15394.58
900.96	15236.89
901.13	15394.58
901.30	14982.94
901.47	15161.11
901.64	15044.38
901.81	15062.81
901.98	15056.67
902.15	15253.27
902.32	14835.49
902.49	15288.09
902.66	15224.60
902.83	15046.43
903.01	15339.29
903.18	14997.28
903.35	15116.06
903.52	15015.71
903.69	15146.78
903.86	15322.90
904.03	15091.48
904.20	15310.61
904.37	15179.54
904.54	15138.58
904.71	15222.55
904.88	15202.07
905.05	15013.66
905.22	15179.54
905.39	15089.43
905.56	15181.59
905.73	15077.15
905.90	15023.90
906.07	14993.18
906.24	15173.40
906.41	14927.64
906.58	15083.29
906.75	15200.02
906.92	15066.91
907.09	15027.99
907.26	14974.75
907.43	14878.49
907.60	14925.60
907.77	15157.02
907.93	14761.76
908.10	14968.60
908.27	15068.95
908.44	14790.43
908.61	14710.56
908.78	15011.61
908.95	15025.95
909.12	14724.90
909.29	15030.04
909.46	15034.14
909.63	14874.40
909.80	14911.26
909.97	15093.53
910.14	14868.25
910.31	14784.29
910.48	14739.23
910.65	14972.70
910.82	14796.57
910.99	14661.41
911.16	14712.61
911.33	14669.60
911.50	14841.63
911.66	14743.33
911.83	14481.19
912.00	14632.74
912.17	14642.98
912.34	14593.83
912.51	14591.78
912.68	14409.51
912.85	14516.00
913.02	14581.54
913.19	14384.93
913.36	14522.15
913.53	14665.50
913.70	14565.15
913.86	14341.93
914.03	14497.57
914.20	14004.01
914.37	14505.76
914.54	14319.40
914.71	14303.01
914.88	14241.57
915.05	14294.82
915.22	14065.45
915.39	14116.65
915.55	14176.04
915.72	13985.58
915.89	14034.73
916.06	13700.91
916.23	14325.54
916.40	13866.80
916.57	13793.07
916.74	13803.31
916.91	13705.01
917.07	13778.73
917.24	13705.01
917.41	13811.50
917.58	13563.70
917.75	13782.83
917.92	13532.98
918.09	13586.22
918.26	13600.56
918.42	13698.86
918.59	13430.58
918.76	13406.00
918.93	13322.04
919.10	13217.59
919.27	13311.80
919.44	13346.61
919.60	13475.63
919.77	13385.52
919.94	13160.25
920.11	13287.22
920.28	13094.71
920.45	12971.83
920.61	12851.00
920.78	12879.68
920.95	13096.76
921.12	12980.03
921.29	12742.46
921.46	12820.28
921.62	12799.80
921.79	12932.92
921.96	12750.65
922.13	12521.28
922.30	12758.85
922.47	12629.82
922.63	12595.01
922.80	12621.63
922.97	12361.54
923.14	12001.10
923.31	12193.61
923.47	12117.83
923.64	12339.01
923.81	12232.52
923.98	11947.85
924.15	12101.45
924.32	12109.64
924.48	11978.57
924.65	12011.34
924.82	12091.21
924.99	11849.55
925.15	11902.79
925.32	11874.12
925.49	11931.47
925.66	11802.44
925.83	11816.78
925.99	11738.96
926.16	11718.48
926.33	11652.94
926.50	11349.84
926.67	11538.26
926.83	11345.75
927.00	11468.62
927.17	11210.58
927.34	11231.06
927.50	11380.56
927.67	11278.16
927.84	11128.66
928.01	11120.47
928.17	11061.08
928.34	11013.98
928.51	10786.65
928.68	10868.57
928.84	11026.26
929.01	10749.79
929.18	10612.57
929.35	10708.83
929.51	10723.16
929.68	10628.96
929.85	10504.03
930.02	10549.09
930.18	10491.74
930.35	10440.54
930.52	10452.83
930.69	10407.78
930.85	10426.21
931.02	10561.37
931.19	10229.60
931.36	10020.71
931.52	10221.41
931.69	10307.43
931.86	10178.40
932.02	10338.15
932.19	10037.09
932.36	9961.32
932.53	10010.47
932.69	9826.15
932.86	9940.84
933.03	9996.14
933.19	9432.94
933.36	9615.21
933.53	9707.37
933.70	9574.25
933.86	9600.88
934.03	9600.88
934.20	9342.83
934.36	9478.00
934.53	9283.44
934.70	9252.72
934.86	9314.16
935.03	9099.13
935.20	8793.98
935.36	9095.03
935.53	9019.25
935.70	8744.83
935.86	8898.42
936.03	8658.81
936.20	8535.93
936.36	8513.41
936.53	8566.65
936.70	8511.36
936.86	8482.69
937.03	8392.58
937.20	8259.46
937.36	8195.97
937.53	8087.43
937.70	7882.63
937.86	7829.38
938.03	7980.93
938.20	7989.13
938.36	7663.50
938.53	7618.44
938.70	7384.98
938.86	7364.50
939.03	7432.08
939.20	7202.71
939.36	7354.26
939.53	7034.77
939.70	7325.58
939.86	6934.42
940.03	6911.89
940.19	6768.54
940.36	6760.34
940.53	6752.15
940.69	6524.83
940.86	6653.85
941.03	6553.50
941.19	6475.68
941.36	6438.81
941.52	6389.66
941.69	6195.11
941.86	6270.88
942.02	6186.91
942.19	5906.34
942.35	6045.60
942.52	5967.78
942.69	6031.27
942.85	5896.10
943.02	5930.92
943.18	5879.72
943.35	5728.17
943.52	5687.21
943.68	5601.19
943.85	5738.41
944.01	5525.42
944.18	5529.52
944.35	5576.62
944.51	5531.56
944.68	5298.10
944.84	5425.07
945.01	5324.72
945.17	5513.13
945.34	5382.06
945.51	5451.69
945.67	5443.50
945.84	5554.09
946.00	5265.33
946.17	5216.18
946.33	5355.44
946.50	5513.13
946.67	5410.73
946.83	5418.93
947.00	5353.39
947.16	5345.20
947.33	5183.41
947.49	5320.62
947.66	5156.79
947.82	5226.42
947.99	5142.45
948.16	5341.10
948.32	5316.53
948.49	5289.90
948.65	5439.40
948.82	5308.34
948.98	5349.29
949.15	5318.57
949.31	5216.18
949.48	5320.62
949.64	5265.33
949.81	5267.38
949.97	5320.62
950.14	5437.36
950.30	5146.55
950.47	5347.25
950.63	5294.00
950.80	5289.90
950.96	5246.90
951.13	5345.20
951.30	5269.42
951.46	5296.05
951.63	5302.19
951.79	5230.51
951.96	5377.97
952.12	5363.63
952.29	5373.87
952.45	5332.91
952.62	5322.67
952.78	5302.19
952.94	5427.12
953.11	5341.10
953.27	5349.29
953.44	5445.55
953.60	5302.19
953.77	5386.16
953.93	5431.21
954.10	5437.36
954.26	5398.45
954.43	5310.38
954.59	5457.84
954.76	5488.56
954.92	5533.61
955.09	5386.16
955.25	5261.23
955.42	5433.26
955.58	5468.08
955.75	5529.52
955.91	5412.78
956.07	5406.64
956.24	5482.41
956.40	5443.50
956.57	5443.50
956.73	5353.39
956.90	5439.40
957.06	5402.54
957.23	5466.03
957.39	5447.60
957.56	5431.21
957.72	5320.62
957.88	5459.88
958.05	5595.05
958.21	5515.18
958.38	5509.04
958.54	5259.18
958.71	5439.40
958.87	5287.86
959.03	5519.28
959.20	5527.47
959.36	5275.57
959.53	5386.16
959.69	5457.84
959.85	5437.36
960.02	5345.20
960.18	5521.32
960.35	5433.26
960.51	5550.00
960.68	5341.10
960.84	5470.12
961.00	5463.98
961.17	5502.89
961.33	5416.88
961.50	5474.22
961.66	5435.31
961.82	5496.75
961.99	5425.07
962.15	5490.60
962.31	5459.88
962.48	5377.97
962.64	5490.60
962.81	5361.58
962.97	5349.29
963.13	5537.71
963.30	5365.68
963.46	5300.14
963.62	5433.26
963.79	5400.49
963.95	5392.30
964.12	5433.26
964.28	5337.01
964.44	5345.20
964.61	5328.81
964.77	5341.10
964.93	5406.64
965.10	5345.20
965.26	5349.29
965.42	5287.86
965.59	5283.76
965.75	5269.42
965.92	5277.62
966.08	5306.29
966.24	5281.71
966.41	5291.95
966.57	5281.71
966.73	5420.97
966.90	5359.53
967.06	5312.43
967.22	5304.24
967.39	5255.09
967.55	5119.92
967.71	5337.01
967.88	5255.09
968.04	5222.32
968.20	5271.47
968.37	5152.69
968.53	5076.91
968.69	5121.97
968.85	5136.31
969.02	5146.55
969.18	5148.59
969.34	5009.33
969.51	5072.82
969.67	5214.13
969.83	4943.80
970.00	5224.37
970.16	5212.08
970.32	5115.83
970.48	5244.85
970.65	5068.72
970.81	5023.67
970.97	5042.10
971.14	4855.73
971.30	5046.20
971.46	5158.83
971.63	5025.72
971.79	5087.15
971.95	5005.24
972.11	4833.21
972.28	4939.70
972.44	4945.84
972.60	5017.52
972.76	4874.17
972.93	4796.34
973.09	5013.43
973.25	4964.28
973.42	4800.44
973.58	5017.52
973.74	4974.52
973.90	4988.85
974.07	4786.10
974.23	4874.17
974.39	4976.56
974.55	4822.97
974.72	4878.26
974.88	4732.86
975.04	4868.02
975.20	4669.37
975.37	4806.58
975.53	4763.58
975.69	4833.21
975.85	4679.61
976.01	4810.68
976.18	4779.96
976.34	4605.88
976.50	4691.90
976.66	4863.93
976.83	4657.08
976.99	4755.38
977.15	4724.66
977.31	4505.53
977.47	4716.47
977.64	4739.00
977.80	4552.63
977.96	4652.98
978.12	4528.06
978.29	4628.41
978.45	4526.01
978.61	4523.96
978.77	4591.55
978.93	4497.34
979.10	4456.38
979.26	4515.77
979.42	4489.15
979.58	4433.85
979.74	4446.14
979.91	4378.56
980.07	4440.00
980.23	4435.90
980.39	4421.56
980.55	4440.00
980.71	4444.09
980.88	4394.94
981.04	4407.23
981.20	4456.38
981.36	4534.20
981.52	4435.90
981.68	4272.06
981.85	4478.91
982.01	4321.21
982.17	4274.11
982.33	4310.97
982.49	4446.14
982.65	4265.92
982.82	4331.45
982.98	4179.90
983.14	4280.25
983.30	4353.98
983.46	4284.35
983.62	4290.49
983.79	4108.23
983.95	4304.83
984.11	4153.28
984.27	4306.88
984.43	4175.81
984.59	4153.28
984.75	4159.42
984.91	4257.73
985.08	4198.34
985.24	4161.47
985.40	4134.85
985.56	4036.55
985.72	4165.57
985.88	4220.86
986.04	4106.18
986.20	3973.06
986.37	4032.45
986.53	4050.88
986.69	4001.73
986.85	4108.23
987.01	3981.25
987.17	3993.54
987.33	3979.20
987.49	3923.91
987.65	4069.31
987.82	3950.53
987.98	3796.93
988.14	3930.05
988.30	4003.78
988.46	3866.56
988.62	3835.85
988.78	3876.80
988.94	3821.51
989.10	3753.93
989.26	3895.24
989.42	3936.20
989.59	3790.79
989.75	3794.89
989.91	3792.84
990.07	3692.49
990.23	3882.95
990.39	3778.50
990.55	3895.24
990.71	3692.49
990.87	3780.55
991.03	3891.14
991.19	3661.77
991.35	3753.93
991.51	3770.31
991.67	3878.85
991.83	3704.78
992.00	3708.87
992.16	3784.65
992.32	3649.48
992.48	3672.01
992.64	3569.61
992.80	3774.41
992.96	3710.92
993.12	3643.34
993.28	3649.48
993.44	3581.90
993.60	3719.11
993.76	3592.14
993.92	3594.19
994.08	3622.86
994.24	3600.33
994.40	3676.10
994.56	3708.87
994.72	3573.71
994.88	3579.85
995.04	3633.10
995.20	3497.93
995.36	3459.02
995.52	3581.90
995.68	3465.16
995.84	3381.20
996.00	3590.09
996.16	3487.69
996.32	3485.64
996.48	3465.16
996.64	3567.56
996.80	3416.01
996.96	3526.60
997.12	3387.34
997.28	3373.00
997.44	3399.63
997.60	3350.48
997.76	3416.01
997.92	3387.34
998.08	3356.62
998.24	3272.65
998.40	3436.49
998.56	3420.11
998.72	3286.99
998.88	3264.46
999.04	3270.61
999.20	3354.57
999.36	3203.02
999.52	3440.59
999.68	3268.56
999.84	3334.09
1000.00	3293.13
1000.16	3356.62
1000.32	3241.93
1000.48	3411.92
1000.64	3280.85
1000.80	3192.78
1000.95	3205.07
1001.11	3284.94
1001.27	3162.06
1001.43	3235.79
1001.59	3065.81
1001.75	3157.97
1001.91	3274.70
1002.07	3174.35
1002.23	3090.38
1002.39	3131.34
1002.55	3174.35
1002.71	3076.05
1002.87	3121.10
1003.03	2949.08
1003.19	3030.99
1003.34	3071.95
1003.50	3074.00
1003.66	3157.97
1003.82	3088.34
1003.98	3098.58
1004.14	3092.43
1004.30	2951.12
1004.46	3051.47
1004.62	3022.80
1004.78	3028.95
1004.94	3014.61
1005.09	3037.14
1005.25	3045.33
1005.41	3000.27
1005.57	2944.98
1005.73	2936.79
1005.89	2994.13
1006.05	3035.09
1006.21	3000.27
1006.37	2928.60
1006.52	2957.27
1006.68	2916.31
1006.84	2992.08
1007.00	2930.64
1007.16	2987.99
1007.32	2901.97
1007.48	2953.17
1007.64	2799.57
1007.79	2840.53
1007.95	2893.78
1008.11	2920.40
1008.27	2861.01
1008.43	2850.77
1008.59	2850.77
1008.75	2875.35
1008.91	2875.35
1009.06	2830.29
1009.22	2820.05
1009.38	2826.20
1009.54	2721.75
1009.70	2680.79
1009.86	2721.75
1010.01	2844.63
1010.17	2828.24
1010.33	2828.24
1010.49	2858.96
1010.65	2799.57
1010.81	2826.20
1010.96	2758.61
1011.12	2799.57
1011.28	2633.69
1011.44	2764.76
1011.60	2766.81
1011.76	2693.08
1011.91	2787.29
1012.07	2750.42
1012.23	2617.30
1012.39	2711.51
1012.55	2723.80
1012.71	2625.50
1012.86	2602.97
1013.02	2654.17
1013.18	2543.58
1013.34	2562.01
1013.50	2764.76
1013.65	2695.13
1013.81	2584.54
1013.97	2531.29
1014.13	2707.41
1014.29	2578.39
1014.44	2658.26
1014.60	2635.74
1014.76	2609.11
1014.92	2498.52
1015.07	2611.16
1015.23	2582.49
1015.39	2506.71
1015.55	2529.24
1015.71	2533.34
1015.86	2471.90
1016.02	2506.71
1016.18	2557.91
1016.34	2482.14
1016.49	2525.15
1016.65	2527.19
1016.81	2506.71
1016.97	2549.72
1017.12	2592.73
1017.28	2430.94
1017.44	2371.55
1017.60	2500.57
1017.75	2506.71
1017.91	2519.00
1018.07	2387.93
1018.23	2406.36
1018.38	2414.56
1018.54	2385.88
1018.70	2498.52
1018.86	2351.07
1019.01	2383.84
1019.17	2424.80
1019.33	2541.53
1019.49	2484.19
1019.64	2420.70
1019.80	2498.52
1019.96	2416.60
1020.12	2465.75
1020.27	2332.64
1020.43	2291.68
1020.59	2432.99
1020.74	2451.42
1020.90	2424.80
1021.06	2297.82
1021.22	2336.73
1021.37	2344.92
1021.53	2238.43
1021.69	2267.10
1021.84	2224.09
1022.00	2285.53
1022.16	2328.54
1022.31	2310.11
1022.47	2344.92
1022.63	2342.88
1022.79	2154.46
1022.94	2367.45
1023.10	2363.36
1023.26	2170.85
1023.41	2242.53
1023.57	2330.59
1023.73	2281.44
1023.88	2277.34
1024.04	2213.85
1024.20	2185.18
1024.35	2377.69
1024.51	2301.92
1024.67	2187.23
1024.82	2279.39
1024.98	2084.83
1025.14	2258.91
1025.29	2215.90
1025.45	2314.20
1025.61	2121.70
1025.76	2207.71
1025.92	2201.57
1026.08	2201.57
1026.23	2275.29
1026.39	2166.75
1026.55	2170.85
1026.70	2160.61
1026.86	2170.85
1027.02	2238.43
1027.17	2166.75
1027.33	2215.90
1027.48	2117.60
1027.64	2093.02
1027.80	2154.46
1027.95	2174.94
1028.11	2056.16
1028.27	2172.89
1028.42	2199.52
1028.58	2029.54
1028.73	2080.74
1028.89	2027.49
1029.05	2168.80
1029.20	2115.55
>>>>>End Processed Spectral Data<<<<<
