SpectraSuite Data File
++++++++++++++++++++++++++++++++++++
Date: Fri Jun 02 14:49:30 CEST 2017
User: INFO_000
Dark Spectrum Present: No
Reference Spectrum Present: No
Number of Sampled Component Spectra: 1
Spectrometers: USB4H00879
Integration Time (usec): 80000 (USB4H00879)
Spectra Averaged: 1 (USB4H00879)
Boxcar Smoothing: 0 (USB4H00879)
Correct for Electrical Dark: No (USB4H00879)
Strobe/Lamp Enabled: No (USB4H00879)
Correct for Detector Non-linearity: No (USB4H00879)
Correct for Stray Light: No (USB4H00879)
Number of Pixels in Processed Spectrum: 3648
>>>>>Begin Processed Spectral Data<<<<<
345.13	1296.36
345.34	1296.36
345.56	1296.36
345.78	1349.61
345.99	1329.13
346.21	1734.63
346.42	1796.07
346.64	1726.44
346.86	1832.93
347.07	1617.90
347.29	1759.21
347.50	1656.81
347.72	1587.18
347.94	1761.25
348.15	1578.98
348.37	1632.23
348.59	1617.90
348.80	1648.61
349.02	1816.55
349.23	1863.65
349.45	1732.58
349.67	1826.79
349.88	1771.49
350.10	1976.29
350.31	1806.31
350.53	1796.07
350.75	1968.10
350.96	1728.49
351.18	1896.42
351.39	1789.92
351.61	1886.18
351.82	1892.32
352.04	1918.95
352.26	1861.60
352.47	1929.19
352.69	2029.54
352.90	1783.78
353.12	1871.84
353.34	1896.42
353.55	1882.08
353.77	1912.80
353.98	1820.64
354.20	1744.87
354.41	1890.28
354.63	1927.14
354.85	2043.87
355.06	1877.99
355.28	1765.35
355.49	1937.38
355.71	1863.65
355.92	1839.08
356.14	1970.15
356.35	1884.13
356.57	1808.36
356.79	1931.23
357.00	1892.32
357.22	1933.28
357.43	1814.50
357.65	1947.62
357.86	1812.45
358.08	1914.85
358.29	1927.14
358.51	1982.43
358.72	2007.01
358.94	1863.65
359.16	1916.90
359.37	1916.90
359.59	1974.24
359.80	2041.82
360.02	1951.71
360.23	1980.39
360.45	1994.72
360.66	1890.28
360.88	1943.52
361.09	1949.67
361.31	1941.47
361.52	1966.05
361.74	2052.06
361.95	2039.78
362.17	1935.33
362.38	2062.30
362.60	2029.54
362.81	2019.30
363.03	1943.52
363.24	1943.52
363.46	2064.35
363.67	2000.87
363.89	2025.44
364.10	2037.73
364.32	1943.52
364.53	2013.15
364.75	1951.71
364.96	1970.15
365.18	2058.21
365.39	2035.68
365.61	1912.80
365.82	2095.07
366.04	1945.57
366.25	1968.10
366.47	2035.68
366.68	2004.96
366.90	1912.80
367.11	1988.58
367.33	2086.88
367.54	2037.73
367.76	2017.25
367.97	2136.03
368.19	2031.58
368.40	2011.11
368.62	2013.15
368.83	1992.67
369.05	2068.45
369.26	1972.19
369.48	1943.52
369.69	1953.76
369.91	2007.01
370.12	1998.82
370.33	2138.08
370.55	2015.20
370.76	2039.78
370.98	2015.20
371.19	2017.25
371.41	2011.11
371.62	2013.15
371.84	2011.11
372.05	2166.75
372.27	2054.11
372.48	2070.50
372.69	2170.85
372.91	2084.83
373.12	2201.57
373.34	2093.02
373.55	2222.05
373.77	2183.13
373.98	2060.26
374.20	2146.27
374.41	2275.29
374.62	2170.85
374.84	2144.22
375.05	2254.81
375.27	2199.52
375.48	2191.33
375.70	2050.02
375.91	2232.29
376.12	2209.76
376.34	2062.30
376.55	2113.50
376.77	2238.43
376.98	2125.79
377.19	2066.40
377.41	2129.89
377.62	2201.57
377.84	2183.13
378.05	2312.16
378.27	2099.17
378.48	2332.64
378.69	2435.03
378.91	2285.53
379.12	2248.67
379.34	2260.96
379.55	2263.01
379.76	2189.28
379.98	2189.28
380.19	2263.01
380.41	2232.29
380.62	2238.43
380.83	2224.09
381.05	2269.15
381.26	2355.16
381.47	2258.91
381.69	2213.85
381.90	2346.97
382.12	2299.87
382.33	2316.25
382.54	2306.01
382.76	2328.54
382.97	2328.54
383.19	2234.33
383.40	2383.84
383.61	2344.92
383.83	2281.44
384.04	2332.64
384.25	2340.83
384.47	2353.12
384.68	2408.41
384.89	2322.40
385.11	2318.30
385.32	2275.29
385.54	2363.36
385.75	2367.45
385.96	2402.27
386.18	2314.20
386.39	2449.37
386.60	2394.08
386.82	2373.60
387.03	2437.08
387.24	2432.99
387.46	2439.13
387.67	2453.47
387.88	2461.66
388.10	2480.09
388.31	2435.03
388.52	2641.88
388.74	2529.24
388.95	2564.06
389.16	2490.33
389.38	2605.02
389.59	2584.54
389.80	2625.50
390.02	2516.95
390.23	2674.65
390.44	2584.54
390.66	2529.24
390.87	2482.14
391.08	2559.96
391.30	2670.55
391.51	2510.81
391.72	2731.99
391.94	2699.22
392.15	2609.11
392.36	2617.30
392.58	2609.11
392.79	2699.22
393.00	2641.88
393.22	2789.33
393.43	2756.57
393.64	2832.34
393.85	2797.53
394.07	2650.07
394.28	2623.45
394.49	2711.51
394.71	2844.63
394.92	2752.47
395.13	2633.69
395.35	2781.14
395.56	2828.24
395.77	2826.20
395.98	2785.24
396.20	2852.82
396.41	2764.76
396.62	2877.40
396.84	2797.53
397.05	2813.91
397.26	2826.20
397.47	2879.44
397.69	2795.48
397.90	3074.00
398.11	2985.94
398.32	2875.35
398.54	2850.77
398.75	2858.96
398.96	2875.35
399.18	3055.57
399.39	2826.20
399.60	2963.41
399.81	2936.79
400.03	2885.59
400.24	3182.54
400.45	2969.55
400.66	3127.25
400.88	2846.68
401.09	3172.30
401.30	3026.90
401.51	3153.87
401.73	3057.62
401.94	3067.86
402.15	3082.19
402.36	3121.10
402.58	3145.68
402.79	3153.87
403.00	3106.77
403.21	3198.93
403.43	3219.41
403.64	3266.51
403.85	3137.49
404.06	3217.36
404.27	3104.72
404.49	3114.96
404.70	3076.05
404.91	3383.24
405.12	3248.08
405.34	3225.55
405.55	3401.68
405.76	3174.35
405.97	3178.45
406.19	3289.04
406.40	3231.69
406.61	3420.11
406.82	3379.15
407.03	3313.61
407.25	3291.09
407.46	3338.19
407.67	3356.62
407.88	3377.10
408.09	3311.57
408.31	3379.15
408.52	3393.48
408.73	3342.28
408.94	3301.33
409.15	3409.87
409.37	3506.12
409.58	3444.68
409.79	3467.21
410.00	3516.36
410.21	3405.77
410.43	3342.28
410.64	3534.79
410.85	3393.48
411.06	3510.22
411.27	3583.95
411.48	3604.42
411.70	3499.98
411.91	3545.03
412.12	3542.99
412.33	3641.29
412.54	3491.79
412.76	3676.10
412.97	3598.28
413.18	3559.37
413.39	3612.62
413.60	3764.17
413.81	3633.10
414.03	3639.24
414.24	3573.71
414.45	3835.85
414.66	3538.89
414.87	3690.44
415.08	3682.25
415.30	3624.90
415.51	3704.78
415.72	3747.78
415.93	3721.16
416.14	3856.33
416.35	3776.45
416.56	3770.31
416.78	3852.23
416.99	3854.28
417.20	3719.11
417.41	3788.74
417.62	3934.15
417.83	3874.76
418.04	3868.61
418.26	3960.77
418.47	3891.14
418.68	4020.16
418.89	3864.52
419.10	4091.84
419.31	3995.59
419.52	4026.31
419.73	4054.98
419.95	4138.94
420.16	4024.26
420.37	3923.91
420.58	4083.65
420.79	3846.09
421.00	4181.95
421.21	4112.32
421.42	4022.21
421.63	4104.13
421.85	4196.29
422.06	4044.74
422.27	4173.76
422.48	4106.18
422.69	4022.21
422.90	4179.90
423.11	4181.95
423.32	4300.73
423.53	4388.80
423.75	4300.73
423.96	4472.76
424.17	4323.26
424.38	4464.57
424.59	4417.47
424.80	4616.12
425.01	4470.72
425.22	4564.92
425.43	4368.32
425.64	4468.67
425.85	4585.40
426.06	4511.68
426.28	4540.35
426.49	4429.76
426.70	4446.14
426.91	4624.31
427.12	4550.59
427.33	4595.64
427.54	4564.92
427.75	4814.77
427.96	4788.15
428.17	4734.90
428.38	4655.03
428.59	4790.20
428.80	4753.34
429.01	4841.40
429.23	4898.74
429.44	4995.00
429.65	4997.04
429.86	5042.10
430.07	4890.55
430.28	4798.39
430.49	4945.84
430.70	5070.77
430.91	5107.63
431.12	4982.71
431.33	5134.26
431.54	5148.59
431.75	5107.63
431.96	5146.55
432.17	5156.79
432.38	5138.35
432.59	5226.42
432.80	5171.12
433.01	5212.08
433.22	5261.23
433.43	5287.86
433.64	5296.05
433.85	5072.82
434.06	5269.42
434.27	5185.46
434.49	5435.31
434.70	5382.06
434.91	5277.62
435.12	5447.60
435.33	5312.43
435.54	5296.05
435.75	5271.47
435.96	5433.26
436.17	5423.02
436.38	5636.01
436.59	5463.98
436.80	5470.12
437.01	5840.81
437.22	5775.27
437.43	5562.28
437.64	5375.92
437.85	5681.07
438.06	5738.41
438.27	5572.52
438.48	5668.78
438.69	5781.42
438.90	5777.32
439.11	5636.01
439.32	5668.78
439.53	5740.46
439.74	5799.85
439.95	5762.98
440.16	5775.27
440.37	5816.23
440.57	5773.22
440.78	5855.14
440.99	5906.34
441.20	6010.79
441.41	5803.94
441.62	5871.53
441.83	5849.00
442.04	6074.28
442.25	5939.11
442.46	5943.21
442.67	6154.15
442.88	6375.33
443.09	6064.04
443.30	6131.62
443.51	6033.32
443.72	6432.67
443.93	5965.73
444.14	6383.52
444.35	6004.64
444.56	6164.39
444.77	6277.02
444.98	6158.24
445.19	6387.61
445.40	6137.76
445.61	6309.79
445.81	6416.29
446.02	6467.49
446.23	6297.50
446.44	6150.05
446.65	6530.97
446.86	6358.94
447.07	6539.16
447.28	6567.84
447.49	6598.56
447.70	6412.19
447.91	6502.30
448.12	6721.43
448.33	6690.71
448.54	6709.15
448.74	6666.14
448.95	6739.87
449.16	6686.62
449.37	6995.86
449.58	6645.66
449.79	7008.15
450.00	6594.46
450.21	6963.09
450.42	7045.01
450.63	6946.71
450.84	6938.52
451.05	7116.69
451.25	7016.34
451.46	7004.05
451.67	7057.30
451.88	7163.79
452.09	7061.40
452.30	7071.64
452.51	7239.57
452.72	7258.00
452.93	7524.24
453.13	7124.88
453.34	7161.75
453.55	7206.80
453.76	7341.97
453.97	7587.72
454.18	7380.88
454.39	7565.20
454.60	7593.87
454.81	7384.98
455.01	7507.85
455.22	7253.91
455.43	7643.02
455.64	7761.80
455.85	7708.55
456.06	8058.76
456.27	7821.19
456.48	7722.89
456.68	7808.90
456.89	7964.55
457.10	8003.46
457.31	7966.60
457.52	7982.98
457.73	8087.43
457.94	8226.69
458.14	8013.70
458.35	8435.58
458.56	8236.93
458.77	8302.47
458.98	8275.84
459.19	8279.94
459.39	8433.54
459.60	8431.49
459.81	8302.47
460.02	8660.86
460.23	8535.93
460.44	8679.29
460.65	8587.13
460.85	8566.65
461.06	8808.31
461.27	8548.22
461.48	8918.90
461.69	9015.16
461.89	8634.24
462.10	8820.60
462.31	8810.36
462.52	8826.75
462.73	8908.66
462.94	9064.31
463.14	8859.51
463.35	9109.36
463.56	9482.10
463.77	9371.50
463.98	9185.14
464.18	9254.77
464.39	9639.79
464.60	9607.02
464.81	9697.13
465.02	9643.88
465.23	9744.24
465.43	9760.62
465.64	10008.42
465.85	9670.51
466.06	9572.21
466.27	10207.08
466.47	9994.09
466.68	10129.25
466.89	9977.70
467.10	10141.54
467.30	9811.82
467.51	10198.88
467.72	10454.88
467.93	10088.29
468.14	10121.06
468.34	10377.06
468.55	10407.78
468.76	10579.81
468.97	10432.35
469.17	10493.79
469.38	10604.38
469.59	10774.36
469.80	10698.59
470.01	10942.30
470.21	10891.10
470.42	10989.40
470.63	11155.29
470.84	10960.73
471.04	11204.44
471.25	11093.85
471.46	11050.84
471.67	11407.19
471.87	11425.62
472.08	11534.16
472.29	11718.48
472.50	11417.43
472.70	11454.29
472.91	11691.85
473.12	11835.21
473.33	11837.26
473.53	12152.65
473.74	11968.33
473.95	11994.95
474.16	12013.38
474.36	12152.65
474.57	12379.97
474.78	12339.01
474.99	12558.14
475.19	12320.58
475.40	12711.74
475.61	12728.13
475.81	12949.31
476.02	13244.21
476.23	12898.11
476.44	13135.67
476.64	13256.50
476.85	13274.93
477.06	13287.22
477.27	13293.37
477.47	13494.07
477.68	13582.13
477.89	13887.28
478.09	13741.87
478.30	13733.68
478.51	13903.66
478.71	14034.73
478.92	14122.79
479.13	14208.81
479.34	14233.38
479.54	14188.33
479.75	14386.98
479.96	14757.66
480.16	14520.10
480.37	14837.53
480.58	15044.38
480.78	15204.12
480.99	14931.74
481.20	15107.87
481.41	15261.46
481.61	15296.28
481.82	15372.05
482.03	15271.70
482.23	15283.99
482.44	15529.75
482.65	15775.50
482.85	15953.68
483.06	15623.95
483.27	15945.48
483.47	15871.76
483.68	16185.10
483.89	16258.82
484.09	16355.08
484.30	16142.09
484.51	16557.83
484.71	16582.40
484.92	16514.82
485.13	16774.91
485.33	16887.55
485.54	16828.16
485.75	17028.86
485.95	17291.00
486.16	16989.95
486.37	17247.99
486.57	17307.38
486.78	17401.59
486.98	17319.67
487.19	17450.74
487.40	17676.02
487.60	17645.30
487.81	17872.62
488.02	17880.82
488.22	18024.17
488.43	18075.37
488.64	18212.59
488.84	18331.37
489.05	18624.23
489.25	18450.15
489.46	18802.40
489.67	18472.68
489.87	18781.92
490.08	18763.49
490.29	18812.64
490.49	19433.18
490.70	19384.02
490.90	19416.79
491.11	19125.98
491.32	19275.48
491.52	19298.01
491.73	19324.63
491.94	19480.28
492.14	19689.17
492.35	20055.76
492.55	20315.85
492.76	20240.08
492.97	20139.72
493.17	20149.96
493.38	20213.45
493.58	20573.89
493.79	20686.53
494.00	20661.96
494.20	20645.57
494.41	20608.71
494.61	21073.60
494.82	20885.19
495.02	21018.30
495.23	21028.54
495.44	21294.78
495.64	21401.27
495.85	21356.22
496.05	21487.29
496.26	21747.38
496.47	21849.78
496.67	21477.05
496.88	21982.90
497.08	21755.57
497.29	22138.54
497.49	22257.32
497.70	22163.12
497.91	22247.08
498.11	22447.79
498.32	22322.86
498.52	22304.43
498.73	22709.93
498.93	22730.41
499.14	22793.89
499.34	22777.51
499.55	23148.19
499.76	22970.02
499.96	22877.86
500.17	23211.68
500.37	23144.09
500.58	23473.82
500.78	23436.95
500.99	23105.18
501.19	23617.18
501.40	23537.30
501.60	23656.09
501.81	23781.01
502.02	23690.90
502.22	23543.45
502.43	24065.68
502.63	24014.48
502.84	24114.83
503.04	24092.30
503.25	24206.99
503.45	24280.72
503.66	24669.83
503.86	24084.11
504.07	24471.18
504.27	24297.10
504.48	24827.53
504.68	24827.53
504.89	24942.21
505.09	25013.89
505.30	24934.02
505.50	24868.48
505.71	24712.84
505.91	25228.93
506.12	25020.03
506.32	25474.68
506.53	25243.26
506.73	25269.89
506.94	25593.47
507.14	25439.87
507.35	25511.55
507.55	25804.41
507.76	25714.30
507.96	25726.58
508.17	25976.44
508.37	25906.80
508.58	26209.90
508.78	25992.82
508.99	26265.20
509.19	25910.90
509.40	26068.59
509.60	26252.91
509.81	26125.94
510.01	26121.84
510.22	26048.11
510.42	26416.75
510.63	26678.89
510.83	26406.51
511.04	26654.31
511.24	26490.48
511.44	26779.24
511.65	27006.56
511.85	26844.77
512.06	26789.48
512.26	27174.50
512.47	27061.86
512.67	26850.92
512.88	27203.17
513.08	26961.51
513.29	26975.84
513.49	27008.61
513.69	27133.54
513.90	27661.91
514.10	27432.54
514.31	27676.25
514.51	27557.47
514.72	27471.45
514.92	27313.76
515.13	27614.81
515.33	27756.12
515.53	27752.02
515.74	27752.02
515.94	27864.66
516.15	27962.97
516.35	27709.02
516.56	28198.48
516.76	27846.23
516.96	28083.80
517.17	28245.58
517.37	28335.70
517.58	28075.60
517.78	27928.15
517.99	28354.13
518.19	28245.58
518.39	28419.66
518.60	28454.48
518.80	28268.11
519.01	29204.03
519.21	28507.72
519.41	28857.93
519.62	28603.98
519.82	28976.71
520.03	29070.92
520.23	28786.25
520.43	29101.64
520.64	29152.84
520.84	29578.81
521.05	29251.14
521.25	29464.13
521.45	29519.42
521.66	29361.73
521.86	29746.75
522.07	29693.50
522.27	29505.09
522.47	29832.76
522.68	30099.00
522.88	30109.24
523.08	30160.44
523.29	29648.44
523.49	30146.10
523.70	29728.31
523.90	30277.17
524.10	30287.41
524.31	30559.79
524.51	30213.68
524.71	30549.55
524.92	30445.10
525.12	30555.69
525.33	30606.89
525.53	30697.00
525.73	30955.05
525.94	30864.94
526.14	30967.34
526.34	31219.24
526.55	31022.63
526.75	31133.22
526.95	31622.69
527.16	31168.04
527.36	31417.89
527.56	31440.42
527.77	31604.25
527.97	31766.04
528.17	31606.30
528.38	31827.48
528.58	31692.32
528.78	31870.49
528.99	32050.71
529.19	31931.93
529.39	32101.91
529.60	32337.43
529.80	32122.39
530.00	32073.24
530.21	32562.70
530.41	32503.31
530.61	32308.76
530.82	32355.86
531.02	32804.36
531.22	32980.49
531.43	32728.59
531.63	33218.05
531.83	33052.17
532.04	33373.70
532.24	33189.38
532.44	33562.11
532.64	33396.23
532.85	33539.58
533.05	33859.07
533.25	33525.25
533.46	33965.56
533.66	34055.67
533.86	33947.13
534.07	34356.72
534.27	34055.67
534.47	34479.60
534.67	34366.96
534.88	34412.02
535.08	34299.38
535.28	34831.85
535.49	34811.37
535.69	35071.46
535.89	34823.66
536.09	34731.50
536.30	35534.31
536.50	35087.85
536.70	35440.10
536.91	35284.45
537.11	35071.46
537.31	35288.55
537.51	35519.97
537.72	35616.22
537.92	35802.59
538.12	35898.84
538.32	35671.52
538.53	36031.96
538.73	35919.32
538.93	35948.00
539.13	35841.50
539.34	36505.04
539.54	36167.13
539.74	36683.22
539.94	36439.51
540.15	36777.42
540.35	36683.22
540.55	36818.38
540.75	37017.04
540.96	36988.36
541.16	36617.68
541.36	37146.06
541.56	36943.31
541.77	37379.53
541.97	37029.32
542.17	37275.08
542.37	37336.52
542.58	37569.99
542.78	37453.25
542.98	37979.58
543.18	37498.31
543.38	37719.49
543.59	37860.80
543.79	37662.15
543.99	37729.73
544.19	38479.28
544.40	37856.70
544.60	38356.41
544.80	38010.30
545.00	38301.11
545.20	38651.31
545.41	38227.38
545.61	38458.81
545.81	38737.33
546.01	38716.85
546.21	38888.88
546.42	38647.22
546.62	38946.22
546.82	38813.10
547.02	38763.95
547.22	39163.31
547.43	38913.45
547.63	39062.96
547.83	39529.89
548.03	39245.23
548.23	39640.48
548.44	39452.07
548.64	39300.52
548.84	39832.99
549.04	39943.58
549.24	39730.59
549.45	40218.01
549.65	39718.31
549.85	40095.13
550.05	40158.62
550.25	39789.98
550.45	40762.77
550.66	40344.98
550.86	40015.26
551.06	40422.81
551.26	40220.06
551.46	40457.62
551.66	40379.80
551.87	40191.39
552.07	40652.18
552.27	40709.52
552.47	40580.50
552.67	40531.35
552.87	40828.30
553.07	41006.48
553.28	40863.12
553.48	41119.12
553.68	40986.00
553.88	41440.65
554.08	41004.43
554.28	41192.84
554.48	41123.21
554.69	41115.02
554.89	41452.94
555.09	41276.81
555.29	41278.86
555.49	41358.73
555.69	41848.19
555.89	41420.17
556.10	41723.27
556.30	41969.02
556.50	41852.29
556.70	41780.61
556.90	42091.90
557.10	41944.45
557.30	41725.32
557.50	42100.09
557.70	42360.19
557.91	42618.23
558.11	42505.59
558.31	41946.50
558.51	42149.24
558.71	42360.19
558.91	42759.54
559.11	42227.07
559.31	42601.85
559.51	42728.82
559.72	42438.01
559.92	43097.45
560.12	42689.91
560.32	42743.16
560.52	42640.76
560.72	42708.34
560.92	43130.22
561.12	42806.64
561.32	43652.45
561.52	42886.51
561.72	43232.62
561.93	42886.51
562.13	43349.35
562.33	43038.06
562.53	43859.30
562.73	43085.17
562.93	43306.35
563.13	43746.66
563.33	43255.15
563.53	43670.89
563.73	43380.07
563.93	43474.28
564.13	43865.44
564.33	43605.35
564.53	43736.42
564.74	43801.96
564.94	43617.64
565.14	43849.06
565.34	43496.81
565.54	44039.52
565.74	43959.65
565.94	44123.49
566.14	43857.25
566.34	44150.11
566.54	44393.82
566.74	43832.68
566.94	44539.22
567.14	44551.51
567.34	44152.16
567.54	44234.08
567.74	44533.08
567.94	44211.55
568.14	44875.09
568.34	44602.71
568.54	44821.84
568.74	44578.14
568.94	44500.31
569.14	45059.41
569.34	45137.23
569.54	44741.97
569.75	44465.50
569.95	45167.95
570.15	45182.29
570.35	44893.52
570.55	44694.87
570.75	44979.54
570.95	45063.50
571.15	45143.38
571.35	44995.92
571.55	45409.61
571.75	45432.14
571.95	45303.12
572.15	44875.09
572.35	45505.87
572.55	45303.12
572.75	45288.78
572.95	45407.56
573.15	45235.53
573.35	45782.34
573.55	45559.11
573.75	45421.90
573.95	45759.81
574.15	45487.43
574.35	45413.71
574.55	45956.42
574.75	45753.67
574.95	45835.59
575.15	45563.21
575.34	45804.87
575.54	45743.43
575.74	46292.29
575.94	46007.62
576.14	46030.15
576.34	46292.29
576.54	46318.91
576.74	46093.63
576.94	46134.59
577.14	46363.96
577.34	46640.44
577.54	46267.71
577.74	46718.26
577.94	46523.71
578.14	46576.95
578.34	46771.51
578.54	46171.46
578.74	46574.91
578.94	46857.52
579.14	46456.12
579.34	46386.49
579.54	46880.05
579.74	47267.12
579.94	47043.89
580.13	46964.02
580.33	46523.71
580.53	47062.32
580.73	47160.62
580.93	47170.86
581.13	47289.65
581.33	47074.61
581.53	47514.92
581.73	47494.44
581.93	47901.99
582.13	47224.11
582.33	47664.42
582.53	47422.76
582.73	47592.75
582.92	47711.53
583.12	47942.95
583.32	47482.16
583.52	47797.54
583.72	48209.18
583.92	47709.48
584.12	47940.90
584.32	48442.65
584.52	47807.78
584.72	47828.26
584.92	47981.86
585.11	48366.88
585.31	48440.60
585.51	48522.52
585.71	48223.52
585.91	48393.50
586.11	48491.80
586.31	48315.68
586.51	48239.90
586.71	48452.89
586.91	48637.21
587.10	48319.77
587.30	48561.44
587.50	48811.29
587.70	49022.23
587.90	48868.63
588.10	48762.14
588.30	48958.74
588.50	48755.99
588.69	48721.18
588.89	48520.48
589.09	49362.19
589.29	48657.69
589.49	49538.32
589.69	48788.76
589.89	49044.76
590.08	49059.09
590.28	48819.48
590.48	48858.39
590.68	49114.39
590.88	49317.14
591.08	48979.22
591.28	49044.76
591.47	49526.03
591.67	49298.70
591.87	49382.67
592.07	49673.48
592.27	49198.35
592.47	49550.60
592.67	49423.63
592.86	49288.46
593.06	49915.14
593.26	49386.77
593.46	49657.10
593.66	49968.39
593.86	49786.12
594.05	49827.08
594.25	50246.91
594.45	49423.63
594.65	49759.50
594.85	49599.76
595.05	49730.83
595.24	49749.26
595.44	50040.07
595.64	49968.39
595.84	49974.53
596.04	50087.17
596.23	50222.34
596.43	50238.72
596.63	49960.20
596.83	50076.93
597.03	50748.67
597.22	50728.19
597.42	50545.92
597.62	50552.06
597.82	50453.76
598.02	50488.57
598.21	50746.62
598.41	50621.69
598.61	50363.65
598.81	50531.58
599.01	50750.71
599.20	50738.43
599.40	50562.30
599.60	51119.35
599.80	51062.00
600.00	51361.01
600.19	51242.23
600.39	50922.74
600.59	50959.61
600.79	51565.81
600.98	51256.56
601.18	51107.06
601.38	51637.48
601.58	51440.88
601.78	51401.97
601.97	51430.64
602.17	51987.69
602.37	51690.73
602.57	51229.94
602.76	51588.33
602.96	51475.69
603.16	52135.14
603.36	51780.84
603.55	52049.13
603.75	51956.97
603.95	51625.20
604.15	51649.77
604.34	51764.46
604.54	52229.35
604.74	52462.82
604.94	52645.08
605.13	51940.58
605.33	52133.09
605.53	51991.78
605.73	52112.61
605.92	52163.81
606.12	52483.30
606.32	52557.02
606.52	52675.80
606.71	52493.54
606.91	53048.53
607.11	52526.30
607.30	52387.04
607.50	52860.12
607.70	52663.52
607.90	52827.35
608.09	52477.15
608.29	52475.10
608.49	52647.13
608.68	52548.83
608.88	53009.62
609.08	52851.93
609.28	53411.02
609.47	53040.34
609.67	53773.52
609.87	52552.93
610.06	53609.68
610.26	52851.93
610.46	53200.08
610.66	52845.79
610.85	53275.86
611.05	53236.95
611.25	53503.18
611.44	53267.67
611.64	53851.34
611.84	53552.33
612.03	53183.70
612.23	53429.46
612.43	53523.66
612.62	53081.30
612.82	53368.02
613.02	53505.23
613.21	53619.92
613.41	53701.84
613.61	53394.64
613.80	53329.11
614.00	53867.72
614.20	53810.38
614.39	53716.17
614.59	53933.26
614.79	53732.56
614.98	53302.48
615.18	53691.60
615.38	54119.62
615.57	53363.92
615.77	54006.98
615.97	53589.20
616.16	53257.43
616.36	53707.98
616.56	53759.18
616.75	53855.43
616.95	53544.14
617.15	53581.01
617.34	53959.88
617.54	53474.51
617.74	53916.87
617.93	53875.91
618.13	53562.57
618.32	53783.76
618.52	53800.14
618.72	53716.17
618.91	53992.65
619.11	53675.21
619.31	53986.50
619.50	53943.50
619.70	53716.17
619.90	53937.35
620.09	54256.84
620.29	53904.59
620.48	54260.93
620.68	54494.40
620.88	53615.82
621.07	53978.31
621.27	54109.38
621.46	53814.47
621.66	53910.73
621.86	54287.56
622.05	54101.19
622.25	54357.19
622.44	53867.72
622.64	53912.78
622.84	54547.65
623.03	53841.10
623.23	54379.71
623.42	54168.77
623.62	54088.90
623.82	54416.58
624.01	54090.95
624.21	54699.20
624.40	54252.74
624.60	54244.55
624.80	53994.70
624.99	53980.36
625.19	54084.81
625.38	54473.92
625.58	54510.78
625.77	54179.01
625.97	54699.20
626.17	54258.88
626.36	54144.20
626.56	54361.28
626.75	53847.24
626.95	54715.58
627.14	54303.94
627.34	54652.09
627.54	54312.13
627.73	54451.39
627.93	54547.65
628.12	54146.25
628.32	54539.46
628.51	54572.22
628.71	54271.17
628.90	54908.09
629.10	54461.63
629.30	54351.04
629.49	54299.84
629.69	54228.16
629.88	54723.77
630.08	54561.98
630.27	54600.89
630.47	54994.10
630.66	54461.63
630.86	54688.96
631.05	53863.63
631.25	54871.23
631.44	54559.94
631.64	54654.14
631.84	54832.32
632.03	54826.17
632.23	54699.20
632.42	54844.60
632.62	54852.80
632.81	54797.50
633.01	54699.20
633.20	54678.72
633.40	54564.03
633.59	54473.92
633.79	54648.00
633.98	55018.68
634.18	55137.46
634.37	54688.96
634.57	54996.15
634.76	55522.48
634.96	55205.05
635.15	55190.71
635.35	54762.68
635.54	54942.91
635.74	55452.85
635.93	54879.42
636.13	55397.55
636.32	55645.36
636.52	54932.67
636.71	55344.31
636.91	55362.74
637.10	55489.71
637.30	55432.37
637.49	55184.57
637.69	55180.47
637.88	55434.42
638.08	55260.34
638.27	55358.64
638.46	55456.95
638.66	55022.78
638.85	54940.86
639.05	55301.30
639.24	55590.06
639.44	55467.19
639.63	55356.60
639.83	55200.95
640.02	55674.03
640.22	55338.16
640.41	55749.81
640.61	55430.32
640.80	55491.76
640.99	55364.79
641.19	55817.39
641.38	55364.79
641.58	55745.71
641.77	55567.54
641.97	55522.48
642.16	55725.23
642.36	55815.34
642.55	56009.90
642.74	55121.08
642.94	56233.13
643.13	55862.44
643.33	56196.26
643.52	55962.79
643.72	55833.77
643.91	55667.89
644.10	56052.90
644.30	55981.23
644.49	55825.58
644.69	56145.06
644.88	55665.84
645.08	55870.64
645.27	55921.83
645.46	55901.36
645.66	56284.33
645.85	56095.91
646.05	56407.20
646.24	55942.31
646.43	56417.44
646.63	56745.12
646.82	56673.44
647.02	56579.23
647.21	56564.90
647.40	56323.24
647.60	56530.08
647.79	56349.86
647.99	56552.61
648.18	56628.38
648.37	56714.40
648.57	56818.84
648.76	56128.68
648.96	56274.09
649.15	56478.88
649.34	56712.35
649.54	56773.79
649.73	56401.06
649.92	56777.89
650.12	56618.14
650.31	56325.28
650.51	56939.68
650.70	56831.13
650.89	56636.58
651.09	57066.65
651.28	56757.41
651.47	56702.11
651.67	56784.03
651.86	57255.06
652.06	56204.45
652.25	56698.01
652.44	56573.09
652.64	56513.70
652.83	56233.13
653.02	55997.61
653.22	56892.57
653.41	56224.93
653.60	56493.22
653.80	56675.49
653.99	56728.73
654.18	56669.34
654.38	56824.99
654.57	56700.06
654.76	56714.40
654.96	56687.78
655.15	56620.19
655.34	56685.73
655.54	56642.72
655.73	56720.54
655.92	57181.34
656.12	56562.85
656.31	56857.76
656.50	56898.72
656.70	56726.69
656.89	56722.59
657.08	57126.04
657.28	56687.78
657.47	56808.61
657.66	57123.99
657.86	56618.14
658.05	56620.19
658.24	57101.46
658.43	56693.92
658.63	57283.73
658.82	57187.48
659.01	56937.63
659.21	56927.39
659.40	56968.35
659.59	56896.67
659.79	57226.39
659.98	56923.29
660.17	57054.36
660.36	56669.34
660.56	56655.01
660.75	57005.21
660.94	57074.84
661.14	57009.31
661.33	56634.53
661.52	56239.27
661.71	57191.58
661.91	56681.63
662.10	56413.35
662.29	57101.46
662.49	56988.83
662.68	57025.69
662.87	56632.48
663.06	56509.60
663.26	56734.88
663.45	56913.05
663.64	56745.12
663.83	57140.38
664.03	57160.86
664.22	57040.03
664.41	56732.83
664.60	57017.50
664.80	57033.88
664.99	56644.77
665.18	56726.69
665.37	57085.08
665.57	57119.90
665.76	56763.55
665.95	56755.36
666.14	56874.14
666.34	56847.52
666.53	56800.41
666.72	56579.23
666.91	56392.87
667.11	56208.55
667.30	56579.23
667.49	56630.43
667.68	56554.66
667.87	56466.59
668.07	57001.11
668.26	56499.36
668.45	56196.26
668.64	55919.79
668.84	57365.65
669.03	56792.22
669.22	56693.92
669.41	56476.83
669.60	56407.20
669.80	56407.20
669.99	56999.07
670.18	57005.21
670.37	56878.24
670.57	56364.20
670.76	56704.16
670.95	56571.04
671.14	56310.95
671.33	56149.16
671.53	56755.36
671.72	56532.13
671.91	56186.02
672.10	56224.93
672.29	56439.97
672.48	56100.01
672.68	56779.93
672.87	56145.06
673.06	56284.33
673.25	56050.86
673.44	56337.57
673.64	56261.80
673.83	56251.56
674.02	55878.83
674.21	55815.34
674.40	56147.11
674.59	55954.60
674.79	55958.70
674.98	55774.38
675.17	55925.93
675.36	55788.72
675.55	56571.04
675.74	55821.48
675.94	56159.40
676.13	56165.54
676.32	56349.86
676.51	56091.82
676.70	56153.26
676.89	56114.34
677.08	56704.16
677.28	55796.91
677.47	56071.34
677.66	56089.77
677.85	55854.25
678.04	56134.82
678.23	56065.19
678.42	56005.80
678.62	56114.34
678.81	56466.59
679.00	55635.12
679.19	56644.77
679.38	56298.66
679.57	55733.42
679.76	55932.07
679.96	56104.10
680.15	55778.48
680.34	55917.74
680.53	55538.86
680.72	55542.96
680.91	55868.59
681.10	55387.31
681.29	55577.78
681.48	55690.41
681.68	55268.53
681.87	56079.53
682.06	55534.77
682.25	54617.28
682.44	55268.53
682.63	55493.81
682.82	55415.99
683.01	55465.14
683.20	55055.54
683.39	55067.83
683.59	55061.69
683.78	54961.34
683.97	55368.88
684.16	55377.08
684.35	55176.37
684.54	55170.23
684.73	55176.37
684.92	55219.38
685.11	54944.95
685.30	55051.45
685.49	55155.89
685.69	54727.87
685.88	55016.63
686.07	55108.79
686.26	54901.95
686.45	55100.60
686.64	55014.58
686.83	55022.78
687.02	55039.16
687.21	55393.46
687.40	54801.60
687.59	54901.95
687.78	55125.17
687.97	54885.56
688.16	54701.25
688.35	54779.07
688.54	54596.80
688.74	54660.29
688.93	54703.29
689.12	54342.85
689.31	54779.07
689.50	54518.98
689.69	54342.85
689.88	54033.61
690.07	54258.88
690.26	54211.78
690.45	54488.26
690.64	54582.46
690.83	54279.36
691.02	53798.09
691.21	54256.84
691.40	54269.12
691.59	54592.70
691.78	54199.49
691.97	54400.19
692.16	53951.69
692.35	54373.57
692.54	54432.96
692.73	53884.11
692.92	54131.91
693.11	54002.89
693.30	53781.71
693.49	54066.38
693.68	54076.61
693.87	53814.47
694.06	53529.81
694.25	53607.63
694.44	53648.59
694.63	54082.76
694.82	54138.05
695.01	53687.50
695.20	53712.08
695.39	53834.95
695.58	53798.09
695.77	53499.09
695.96	53423.31
696.15	53492.94
696.34	53654.73
696.53	53607.63
696.72	53388.50
696.91	53802.19
697.10	53494.99
697.29	53241.04
697.48	53677.26
697.67	53433.55
697.86	53615.82
698.05	53263.57
698.24	53820.62
698.43	52589.79
698.62	53224.66
698.81	53376.21
699.00	53425.36
699.19	53132.50
699.38	53218.52
699.57	52884.70
699.76	53560.53
699.95	52733.15
700.14	53284.05
700.32	53122.26
700.51	53208.28
700.70	52880.60
700.89	53382.35
701.08	52972.76
701.27	52786.39
701.46	53255.38
701.65	52301.03
701.84	52858.07
702.03	52983.00
702.22	52724.96
702.41	52917.46
702.60	52765.91
702.79	52370.66
702.98	52638.94
703.17	52600.03
703.35	53044.44
703.54	52782.30
703.73	52796.63
703.92	52774.11
704.11	52098.28
704.30	52231.40
704.49	52446.43
704.68	52024.55
704.87	52454.62
705.06	52208.87
705.25	52030.69
705.43	52448.48
705.62	52196.58
705.81	52249.83
706.00	52278.50
706.19	52131.04
706.38	51983.59
706.57	51936.49
706.76	51952.87
706.95	52442.34
707.14	51672.30
707.32	52348.13
707.51	51584.24
707.70	51762.41
707.89	51944.68
708.08	51617.00
708.27	52024.55
708.46	52331.75
708.65	51641.58
708.84	52049.13
709.02	51782.89
709.21	52395.23
709.40	51879.14
709.59	52081.89
709.78	51561.71
709.97	51807.47
710.16	51907.82
710.34	51709.16
710.53	51459.31
710.72	51281.14
710.91	51623.15
711.10	51520.75
711.29	51713.26
711.48	51492.08
711.66	51307.76
711.85	51594.48
712.04	51361.01
712.23	51539.18
712.42	51287.28
712.61	51283.19
712.80	51418.35
712.98	51381.49
713.17	51170.55
713.36	51318.00
713.55	51342.58
713.74	50994.42
713.93	51238.13
714.11	51295.47
714.30	50760.95
714.49	51311.86
714.68	51250.42
714.87	51361.01
715.06	51270.90
715.24	50732.28
715.43	51090.68
715.62	50371.84
715.81	50963.70
716.00	51016.95
716.18	50724.09
716.37	51072.24
716.56	50576.64
716.75	51541.23
716.94	50580.73
717.12	50881.78
717.31	50734.33
717.50	50738.43
717.69	50783.48
717.88	50533.63
718.06	50500.86
718.25	50595.07
718.44	49960.20
718.63	50361.60
718.82	50588.92
719.00	50326.78
719.19	50562.30
719.38	49769.74
719.57	50052.36
719.76	49845.51
719.94	50126.08
720.13	50105.60
720.32	50158.85
720.51	49698.06
720.69	49980.68
720.88	49997.06
721.07	49814.79
721.26	49747.21
721.44	49558.80
721.63	49542.41
721.82	48999.70
722.01	49079.57
722.20	49704.20
722.38	49898.76
722.57	49345.81
722.76	49464.59
722.95	49646.86
723.13	49204.50
723.32	49009.94
723.51	48819.48
723.70	49036.56
723.88	48887.06
724.07	48936.21
724.26	49257.74
724.44	48575.77
724.63	49095.95
724.82	48794.90
725.01	48962.84
725.19	48583.96
725.38	49011.99
725.57	48887.06
725.76	48710.94
725.94	48293.15
726.13	48864.53
726.32	48551.20
726.51	48315.68
726.69	48583.96
726.88	48915.73
727.07	48821.53
727.25	48809.24
727.44	48504.09
727.63	48549.15
727.82	48600.35
728.00	48481.56
728.19	48778.52
728.38	48676.12
728.56	47953.19
728.75	48823.58
728.94	48727.32
729.12	48469.28
729.31	48919.83
729.50	48760.09
729.69	48917.78
729.87	48342.30
730.06	48481.56
730.25	48231.71
730.43	49077.52
730.62	48880.92
730.81	48465.18
730.99	48811.29
731.18	48096.55
731.37	48813.34
731.55	48350.49
731.74	49055.00
731.93	48680.22
732.11	48813.34
732.30	48555.29
732.49	48614.68
732.67	48403.74
732.86	48348.45
733.05	48686.36
733.23	48112.93
733.42	48551.20
733.61	48141.60
733.79	48100.64
733.98	48696.60
734.17	48753.94
734.35	48635.16
734.54	48809.24
734.73	48430.36
734.91	48237.86
735.10	48196.90
735.29	48596.25
735.47	47877.41
735.66	48035.11
735.84	48571.67
736.03	48108.83
736.22	48983.32
736.40	48233.76
736.59	48502.04
736.78	48252.19
736.96	48366.88
737.15	48200.99
737.33	47551.79
737.52	47750.44
737.71	47764.78
737.89	47990.05
738.08	47826.21
738.27	47715.62
738.45	48280.86
738.64	47742.25
738.82	48305.44
739.01	48172.32
739.20	47936.80
739.38	48057.63
739.57	47879.46
739.75	48000.29
739.94	47813.93
740.13	48043.30
740.31	47455.53
740.50	47600.94
740.68	47848.74
740.87	47770.92
741.06	47940.90
741.24	48018.72
741.43	47492.40
741.61	47772.97
741.80	47478.06
741.99	47648.04
742.17	47197.49
742.36	47459.63
742.54	47527.21
742.73	47512.88
742.91	47901.99
743.10	47623.47
743.29	47658.28
743.47	47439.15
743.66	47537.45
743.84	47398.19
744.03	47488.30
744.21	47346.99
744.40	47689.00
744.59	46869.81
744.77	47244.59
744.96	47283.50
745.14	47498.54
745.33	47252.78
745.51	47058.23
745.70	47228.21
745.88	47121.71
746.07	46992.69
746.26	46230.85
746.44	46605.62
746.63	47050.03
746.81	47058.23
747.00	47138.10
747.18	47142.19
747.37	46853.43
747.55	46921.01
747.74	46968.12
747.92	46595.38
748.11	46773.56
748.29	46787.89
748.48	47074.61
748.66	46568.76
748.85	46558.52
749.03	46818.61
749.22	46605.62
749.41	46441.79
749.59	46849.33
749.78	46306.62
749.96	46071.10
750.15	46447.93
750.33	46243.13
750.52	46290.24
750.70	45817.16
750.89	46083.39
751.07	46064.96
751.26	46048.58
751.44	46005.57
751.63	46355.77
751.81	45987.14
752.00	45784.39
752.18	46114.11
752.37	46153.02
752.55	45753.67
752.74	45737.29
752.92	45948.23
753.10	45595.98
753.29	45751.62
753.47	45747.53
753.66	45167.95
753.84	46019.91
754.03	45614.41
754.21	45073.74
754.40	45520.20
754.58	45733.19
754.77	45622.60
754.95	45522.25
755.14	45032.78
755.32	45196.62
755.51	44631.38
755.69	44989.78
755.88	45307.21
756.06	45299.02
756.24	45270.35
756.43	45012.31
756.61	45020.50
756.80	45057.36
756.98	44959.06
757.17	44600.66
757.35	44852.56
757.54	44760.40
757.72	45036.88
757.90	44467.55
758.09	44617.05
758.27	44553.56
758.46	44680.53
758.64	44504.41
758.83	44631.38
759.01	44658.01
759.19	45126.99
759.38	44686.68
759.56	45106.51
759.75	44363.10
759.93	44332.38
760.12	44389.72
760.30	44440.92
760.48	44049.76
760.67	44307.80
760.85	44152.16
761.04	44637.53
761.22	44332.38
761.40	44160.35
761.59	44160.35
761.77	43869.54
761.96	43857.25
762.14	44033.38
762.32	43593.06
762.51	43916.64
762.69	43865.44
762.88	43654.50
763.06	44021.09
763.24	43873.63
763.43	43670.89
763.61	44195.17
763.80	43640.17
763.98	43484.52
764.16	43578.73
764.35	43607.40
764.53	42521.98
764.72	43226.48
764.90	43244.91
765.08	43251.05
765.27	43761.00
765.45	43136.37
765.63	42861.94
765.82	43072.88
766.00	42718.58
766.18	42812.79
766.37	43048.30
766.55	43038.06
766.74	42751.35
766.92	42833.27
767.10	42562.93
767.29	43048.30
767.47	42335.61
767.65	42538.36
767.84	42089.85
768.02	42425.72
768.20	42579.32
768.39	42020.22
768.57	42282.36
768.75	42552.69
768.94	42497.40
769.12	42571.13
769.30	42026.37
769.49	42237.31
769.67	42007.94
769.85	41989.50
770.04	41985.41
770.22	41901.44
770.40	41788.80
770.59	41612.68
770.77	41930.11
770.95	41860.48
771.14	41266.57
771.32	41174.41
771.50	41403.78
771.69	41397.64
771.87	41760.13
772.05	41495.94
772.24	41334.15
772.42	41442.70
772.60	40934.80
772.78	41323.91
772.97	40760.72
773.15	41321.87
773.33	41244.04
773.52	41098.64
773.70	41098.64
773.88	41047.44
774.07	40830.35
774.25	41170.32
774.43	41098.64
774.61	41225.61
774.80	41364.87
774.98	40856.98
775.16	41100.68
775.34	41069.97
775.53	40545.69
775.71	41567.62
775.89	40875.41
776.08	40902.03
776.26	41201.04
776.44	40932.75
776.62	40955.28
776.81	40813.97
776.99	41221.52
777.17	41289.10
777.35	40977.81
777.54	41207.18
777.72	40875.41
777.90	41180.56
778.08	41354.63
778.27	40633.75
778.45	41301.39
778.63	41702.79
778.81	41162.12
779.00	42046.85
779.18	41532.81
779.36	41723.27
779.54	41362.82
779.73	41133.45
779.91	41506.18
780.09	41016.72
780.27	41809.28
780.46	41420.17
780.64	41485.70
780.82	41231.75
781.00	41000.33
781.19	41811.33
781.37	41817.47
781.55	41825.67
781.73	41901.44
781.91	41399.69
782.10	41749.89
782.28	41913.73
782.46	41506.18
782.64	41960.83
782.82	41872.77
783.01	41506.18
783.19	41710.98
783.37	41772.42
783.55	41571.72
783.74	41960.83
783.92	41907.58
784.10	42470.78
784.28	41794.95
784.46	41608.58
784.64	41950.59
784.83	41581.96
785.01	42128.77
785.19	41616.77
785.37	42208.64
785.55	41807.23
785.74	41250.19
785.92	41260.43
786.10	41717.12
786.28	41493.89
786.46	41616.77
786.64	41055.63
786.83	41395.59
787.01	41465.22
787.19	41188.75
787.37	41368.97
787.55	41145.74
787.74	41086.35
787.92	40955.28
788.10	41360.78
788.28	40410.52
788.46	40951.18
788.64	40621.46
788.82	41422.22
789.01	40902.03
789.19	41160.08
789.37	40965.52
789.55	40689.04
789.73	40451.48
789.91	40410.52
790.09	40590.74
790.28	40580.50
790.46	40142.24
790.64	40461.72
790.82	40582.55
791.00	40240.54
791.18	40134.04
791.36	40023.45
791.55	40402.33
791.73	39912.86
791.91	39116.20
792.09	39546.28
792.27	39409.06
792.45	39488.93
792.63	39163.31
792.81	39144.87
793.00	39599.52
793.18	38888.88
793.36	39224.75
793.54	39175.59
793.72	39146.92
793.90	39015.85
794.08	38989.23
794.26	39065.00
794.44	38495.67
794.62	38557.11
794.81	38641.07
794.99	38352.31
795.17	38208.95
795.35	38081.98
795.53	38716.85
795.71	38591.92
795.89	38327.74
796.07	37828.03
796.25	37955.00
796.43	37354.95
796.61	37500.36
796.80	37635.52
796.98	37420.48
797.16	37336.52
797.34	37533.12
797.52	37627.33
797.70	37354.95
797.88	37076.43
798.06	36742.61
798.24	36810.19
798.42	36705.74
798.60	36738.51
798.78	36715.98
798.96	37125.58
799.14	36496.85
799.32	36533.71
799.51	36195.80
799.69	36396.50
799.87	36568.53
800.05	36193.75
800.23	36683.22
800.41	35960.28
800.59	35876.32
800.77	36052.44
800.95	35698.14
801.13	35929.56
801.31	35630.56
801.49	35630.56
801.67	35485.15
801.85	35442.15
802.03	35497.44
802.21	35235.30
802.39	35005.93
802.57	34831.85
802.75	34979.31
802.93	34848.24
803.11	34823.66
803.29	34526.71
803.47	34551.28
803.65	34792.94
803.83	34436.59
804.01	34864.62
804.19	34094.58
804.37	34033.14
804.55	34194.93
804.73	34385.40
804.91	34004.47
805.09	34254.33
805.27	33678.85
805.45	34459.12
805.63	33848.83
805.81	33900.03
805.99	33672.70
806.17	34096.63
806.35	33740.29
806.53	33613.31
806.71	33492.48
806.89	33555.97
807.07	33216.01
807.25	33359.36
807.43	32855.56
807.61	33447.43
807.79	32937.48
807.97	32634.38
808.15	32734.73
808.33	32841.23
808.51	32310.80
808.69	32650.77
808.87	32386.58
809.05	32538.13
809.23	32245.27
809.41	32108.05
809.59	32282.13
809.77	32423.44
809.95	31720.99
810.13	32382.48
810.31	31843.87
810.49	31870.49
810.67	31792.67
810.84	32146.97
811.02	31632.93
811.20	31288.87
811.38	31940.12
811.56	31260.20
811.74	31464.99
811.92	31454.75
812.10	31634.97
812.28	31405.60
812.46	31671.84
812.64	31295.01
812.82	31335.97
813.00	31196.71
813.18	31213.09
813.36	31020.58
813.53	30877.22
813.71	30934.57
813.89	30928.42
814.07	31043.11
814.25	30649.90
814.43	30539.31
814.61	30649.90
814.79	30715.44
814.97	30449.20
815.15	30623.28
815.33	30275.12
815.50	29855.29
815.68	30359.09
815.86	30670.38
816.04	30219.83
816.22	29920.82
816.40	30103.09
816.58	29974.07
816.76	29820.47
816.94	29902.39
817.11	29865.53
817.29	29500.99
817.47	29810.23
817.65	29961.78
817.83	29720.12
818.01	29775.42
818.19	29441.60
818.37	29582.91
818.54	29527.61
818.72	29437.50
818.90	29529.66
819.08	29132.36
819.26	29255.23
819.44	29115.97
819.62	29025.86
819.80	29126.21
819.97	29259.33
820.15	28630.60
820.33	28657.23
820.51	28606.03
820.69	28573.26
820.87	28915.27
821.05	28819.02
821.22	28585.55
821.40	28673.61
821.58	28630.60
821.76	28292.69
821.94	28286.54
822.12	28456.53
822.29	28364.37
822.47	28323.41
822.65	28466.77
822.83	28288.59
823.01	28448.33
823.19	28255.82
823.36	28200.53
823.54	28233.30
823.72	27928.15
823.90	28313.17
824.08	27803.22
824.25	28057.17
824.43	27688.54
824.61	27799.13
824.79	27915.86
824.97	27770.46
825.15	27481.69
825.32	28036.69
825.50	27684.44
825.68	27835.99
825.86	27516.51
826.04	27686.49
826.21	27371.10
826.39	27512.41
826.57	27186.79
826.75	27477.60
826.93	27252.32
827.10	26906.21
827.28	27231.84
827.46	27360.86
827.64	27063.91
827.81	26895.97
827.99	27246.18
828.17	26775.14
828.35	26738.28
828.53	26949.22
828.70	26769.00
828.88	26861.16
829.06	26981.99
829.24	27227.74
829.41	26816.10
829.59	27233.89
829.77	26705.51
829.95	26758.76
830.12	26682.98
830.30	26961.51
830.48	26891.88
830.66	26785.38
830.84	26861.16
831.01	26365.55
831.19	26658.41
831.37	26271.34
831.55	26304.11
831.72	25980.53
831.90	26234.48
832.08	26394.22
832.25	26113.65
832.43	26361.45
832.61	26103.41
832.79	25904.76
832.96	26351.21
833.14	26191.47
833.32	25980.53
833.50	26322.54
833.67	26121.84
833.85	26115.70
834.03	25468.54
834.20	25783.93
834.38	25917.04
834.56	25917.04
834.74	25716.34
834.91	25640.57
835.09	26023.54
835.27	25765.49
835.44	25622.14
835.62	25509.50
835.80	25493.12
835.98	25415.29
836.15	25427.58
836.33	25464.44
836.51	25589.37
836.68	25419.39
836.86	25388.67
837.04	25222.78
837.21	25339.52
837.39	25593.47
837.57	25681.53
837.75	25501.31
837.92	25099.90
838.10	24938.12
838.28	24809.09
838.45	24960.64
838.63	25001.60
838.81	25208.45
838.98	25060.99
839.16	25192.06
839.34	24936.07
839.51	24761.99
839.69	24632.97
839.87	24362.64
840.04	24567.43
840.22	25011.84
840.40	24704.65
840.57	24419.98
840.75	24616.58
840.93	24282.77
841.10	24714.89
841.28	24798.85
841.46	24508.04
841.63	24794.76
841.81	24487.56
841.98	24473.23
842.16	24428.17
842.34	24532.62
842.51	24002.19
842.69	24600.20
842.87	24239.76
843.04	24272.53
843.22	24123.02
843.40	24135.31
843.57	23965.33
843.75	24059.54
843.92	24503.95
844.10	24282.77
844.28	24293.01
844.45	24094.35
844.63	24037.01
844.81	24110.74
844.98	24256.14
845.16	23871.12
845.33	23973.52
845.51	24034.96
845.69	24063.63
845.86	23864.98
846.04	23873.17
846.21	23680.66
846.39	23649.94
846.57	23740.05
846.74	23588.50
846.92	23645.85
847.09	23516.83
847.27	23545.50
847.45	23748.25
847.62	23588.50
847.80	23854.74
847.97	23320.22
848.15	23434.91
848.32	23443.10
848.50	23531.16
848.68	23262.88
848.85	23242.40
849.03	23144.09
849.20	23246.49
849.38	23060.13
849.56	23387.80
849.73	22892.19
849.91	23277.21
850.08	23408.28
850.26	22763.17
850.43	23187.10
850.61	23240.35
850.78	22757.03
850.96	22793.89
851.14	22556.33
851.31	22687.40
851.49	23068.32
851.66	22949.54
851.84	22988.45
852.01	22937.25
852.19	22881.95
852.36	22683.30
852.54	22623.91
852.71	22744.74
852.89	22728.36
853.07	22533.80
853.24	22498.98
853.42	22738.60
853.59	22714.02
853.77	22679.21
853.94	22943.39
854.12	22945.44
854.29	22376.11
854.47	22636.20
854.64	22417.07
854.82	22574.76
854.99	22355.63
855.17	22484.65
855.34	22509.22
855.52	22488.74
855.69	22675.11
855.87	22398.63
856.04	22036.14
856.22	22374.06
856.39	22075.06
856.57	22056.62
856.74	22290.09
856.92	22290.09
857.09	21675.70
857.27	22030.00
857.44	22218.41
857.62	22208.17
857.79	22083.25
857.97	22056.62
858.14	22120.11
858.32	22054.58
858.49	22009.52
858.67	21704.37
858.84	22005.42
859.02	21964.46
859.19	21829.30
859.37	21481.14
859.54	21733.04
859.72	21628.60
859.89	21774.00
860.06	21876.40
860.24	21763.76
860.41	21972.66
860.59	21227.20
860.76	21599.93
860.94	21802.68
861.11	21528.25
861.29	21317.31
861.46	21583.54
861.64	21112.51
861.81	21323.45
861.98	21372.60
862.16	21327.55
862.33	21202.62
862.51	21038.78
862.68	21599.93
862.86	21176.00
863.03	21073.60
863.21	21135.04
863.38	21104.32
863.55	21122.75
863.73	21206.72
863.90	21100.22
864.08	20952.77
864.25	20975.30
864.43	20946.62
864.60	21008.06
864.77	20733.64
864.95	20725.44
865.12	20633.29
865.30	20823.75
865.47	20754.12
865.64	20659.91
865.82	21053.12
865.99	20821.70
866.17	20412.10
866.34	20774.60
866.51	20440.78
866.69	20719.30
866.86	20860.61
867.04	20635.33
867.21	20567.75
867.38	20414.15
867.56	20379.34
867.73	20467.40
867.91	20418.25
868.08	20190.92
868.25	20326.09
868.43	20301.51
868.60	20166.35
868.78	19982.03
868.95	20365.00
869.12	20137.68
869.30	20059.85
869.47	20139.72
869.64	19859.15
869.82	20031.18
869.99	19820.24
870.16	20160.20
870.34	20076.24
870.51	19947.22
870.69	19967.70
870.86	19764.95
871.03	19744.47
871.21	19644.12
871.38	20066.00
871.55	19685.08
871.73	19533.53
871.90	19832.53
872.07	19693.27
872.25	19424.98
872.42	19549.91
872.59	19535.57
872.77	19646.16
872.94	19246.81
873.11	19584.73
873.29	19240.67
873.46	19255.00
873.63	19396.31
873.81	19228.38
873.98	18953.95
874.15	19375.83
874.33	19343.06
874.50	18956.00
874.67	19052.25
874.85	19218.14
875.02	19089.12
875.19	18796.26
875.37	18794.21
875.54	18679.52
875.71	18900.70
875.88	18812.64
876.06	18996.96
876.23	18599.65
876.40	18792.16
876.58	18757.35
876.75	18489.06
876.92	18525.93
877.10	18767.59
877.27	18472.68
877.44	18579.17
877.61	18376.42
877.79	18290.41
877.96	18380.52
878.13	18468.58
878.31	18333.42
878.48	18261.74
878.65	17919.73
878.82	18177.77
879.00	18161.39
879.17	18104.04
879.34	18075.37
879.51	18095.85
879.69	17811.18
879.86	17927.92
880.03	17880.82
880.21	17903.34
880.38	17846.00
880.55	17878.77
880.72	17964.78
880.90	17981.17
881.07	17753.84
881.24	17737.46
881.41	17673.97
881.59	17905.39
881.76	17735.41
881.93	17590.00
882.10	17471.22
882.28	17532.66
882.45	17549.04
882.62	17473.27
882.79	17307.38
882.96	17377.01
883.14	17696.50
883.31	17393.40
883.48	17536.76
883.65	17655.54
883.83	17723.12
884.00	17176.31
884.17	17268.47
884.34	17475.32
884.51	17286.90
884.69	17354.49
884.86	17155.83
885.03	17495.80
885.20	17231.61
885.38	17315.58
885.55	17159.93
885.72	16959.23
885.89	17012.48
886.06	17264.38
886.24	16920.32
886.41	16736.00
886.58	16992.00
886.75	17037.05
886.92	16924.41
887.10	17139.45
887.27	16895.74
887.44	16762.62
887.61	16994.04
887.78	16965.37
887.95	16914.17
888.13	16701.19
888.30	16965.37
888.47	16721.66
888.64	16572.16
888.81	16973.56
888.99	16647.94
889.16	16774.91
889.33	16768.77
889.50	16260.87
889.67	16711.42
889.84	16420.61
890.01	16635.65
890.19	16566.02
890.36	16492.29
890.53	16430.85
890.70	16381.70
890.87	16533.25
891.04	16144.14
891.22	16377.61
891.39	16258.82
891.56	16047.88
891.73	16232.20
891.90	15978.25
892.07	15865.61
892.24	16092.94
892.42	16144.14
892.59	16238.34
892.76	16113.42
892.93	15992.59
893.10	15927.05
893.27	15873.81
893.44	15832.85
893.61	16039.69
893.79	15998.73
893.96	15650.58
894.13	16166.67
894.30	15886.09
894.47	15857.42
894.64	15949.58
894.81	16021.26
894.98	15841.04
895.15	16027.40
895.33	15851.28
895.50	15773.46
895.67	15869.71
895.84	15699.73
896.01	15546.13
896.18	15642.39
896.35	16037.64
896.52	15652.63
896.69	15632.15
896.86	15630.10
897.04	16076.55
897.21	15607.57
897.38	15914.77
897.55	15716.11
897.72	15935.24
897.89	15693.58
898.06	15734.54
898.23	15779.60
898.40	15675.15
898.57	15673.10
898.74	15701.78
898.91	15761.17
899.08	15800.08
899.26	15539.99
899.43	15927.05
899.60	15501.08
899.77	15808.27
899.94	15750.93
900.11	15484.69
900.28	15433.49
900.45	15593.23
900.62	15531.80
900.79	15732.50
900.96	15587.09
901.13	15750.93
901.30	15423.25
901.47	15529.75
901.64	15576.85
901.81	15376.15
901.98	15361.81
902.15	15652.63
902.32	15255.32
902.49	15327.00
902.66	15666.96
902.83	15466.26
903.01	15544.08
903.18	15525.65
903.35	15736.59
903.52	15591.19
903.69	15705.87
903.86	15599.38
904.03	15554.32
904.20	15748.88
904.37	15601.43
904.54	15681.30
904.71	15343.38
904.88	15564.56
905.05	15525.65
905.22	15509.27
905.39	15165.21
905.56	15208.22
905.73	15394.58
905.90	15478.55
906.07	15669.01
906.24	15408.92
906.41	15318.81
906.58	15597.33
906.75	15408.92
906.92	15527.70
907.09	15286.04
907.26	15636.24
907.43	15240.98
907.60	15144.73
907.77	15509.27
907.93	15337.24
908.10	15490.84
908.27	15603.47
908.44	15443.73
908.61	15222.55
908.78	15238.94
908.95	15458.07
909.12	15146.78
909.29	15402.77
909.46	15142.68
909.63	15552.27
909.80	15474.45
909.97	15421.20
910.14	15351.57
910.31	15195.93
910.48	15120.15
910.65	15142.68
910.82	15025.95
910.99	15109.91
911.16	15044.38
911.33	15161.11
911.50	14874.40
911.66	14978.84
911.83	15197.98
912.00	15017.75
912.17	14997.28
912.34	14878.49
912.51	14667.55
912.68	14712.61
912.85	14780.19
913.02	14964.51
913.19	14896.92
913.36	14837.53
913.53	14845.73
913.70	14788.38
913.86	14976.80
914.03	14788.38
914.20	14526.24
914.37	14860.06
914.54	14520.10
914.71	14761.76
914.88	14651.17
915.05	14642.98
915.22	14546.72
915.39	14706.46
915.55	14550.82
915.72	14481.19
915.89	14452.52
916.06	14161.70
916.23	14429.99
916.40	14358.31
916.57	14196.52
916.74	13911.85
916.91	13965.10
917.07	13918.00
917.24	14053.16
917.41	14180.14
917.58	14157.61
917.75	13741.87
917.92	13973.29
918.09	13938.48
918.26	13915.95
918.42	13717.29
918.59	13715.25
918.76	13743.92
918.93	13633.33
919.10	13678.38
919.27	13623.09
919.44	13524.79
919.60	13635.38
919.77	13672.24
919.94	13412.15
920.11	13578.03
920.28	13580.08
920.45	13307.70
920.61	13397.81
920.78	13188.92
920.95	13313.84
921.12	13217.59
921.29	13184.82
921.46	13242.17
921.62	12975.93
921.79	13317.94
921.96	12873.53
922.13	12838.72
922.30	12844.86
922.47	12926.78
922.63	12875.58
922.80	12605.25
922.97	12736.32
923.14	12427.07
923.31	12711.74
923.47	12693.31
923.64	12502.85
923.81	12236.61
923.98	12455.75
924.15	12461.89
924.32	12355.40
924.48	12367.68
924.65	12336.96
924.82	12074.82
924.99	12302.15
925.15	12009.29
925.32	12162.89
925.49	12099.40
925.66	12103.50
925.83	11835.21
925.99	12011.34
926.16	11943.75
926.33	11900.75
926.50	11626.32
926.67	11919.18
926.83	11777.87
927.00	11882.31
927.17	11452.24
927.34	11677.52
927.50	11358.03
927.67	11503.44
927.84	11323.22
928.01	11165.53
928.17	11259.73
928.34	11253.59
928.51	11083.61
928.68	11194.20
928.84	11097.94
929.01	11067.22
929.18	10897.24
929.35	11157.33
929.51	10880.86
929.68	10647.39
929.85	10604.38
930.02	10596.19
930.18	10600.29
930.35	10755.93
930.52	10604.38
930.69	10633.05
930.85	10524.51
931.02	10573.66
931.19	10553.18
931.36	10458.98
931.52	10297.19
931.69	10528.61
931.86	10270.56
932.02	10266.47
932.19	10162.02
932.36	10121.06
932.53	10182.50
932.69	10016.62
932.86	10157.92
933.03	10108.77
933.19	9879.40
933.36	10012.52
933.53	9895.78
933.70	9832.30
933.86	9647.98
934.03	9799.53
934.20	9539.44
934.36	9484.14
934.53	9383.79
934.70	9406.32
934.86	9549.68
935.03	9129.84
935.20	9088.89
935.36	9045.88
935.53	9033.59
935.70	8941.43
935.86	9049.97
936.03	8765.31
936.20	8525.69
936.36	8767.35
936.53	8701.82
936.70	8560.51
936.86	8531.84
937.03	8312.71
937.20	8226.69
937.36	8451.97
937.53	8198.02
937.70	7839.62
937.86	7923.59
938.03	7864.20
938.20	7903.11
938.36	7683.98
938.53	7841.67
938.70	7548.81
938.86	7597.96
939.03	7532.43
939.20	7364.50
939.36	7415.69
939.53	7313.30
939.70	7407.50
939.86	7094.16
940.03	6924.18
940.19	6868.89
940.36	6827.93
940.53	6715.29
940.69	6698.91
940.86	6559.64
941.03	6518.68
941.19	6500.25
941.36	6381.47
941.52	6410.14
941.69	6395.81
941.86	6291.36
942.02	6193.06
942.19	6037.41
942.35	6131.62
942.52	6104.99
942.69	5949.35
942.85	5949.35
943.02	5924.77
943.18	5992.36
943.35	5826.47
943.52	5750.70
943.68	5767.08
943.85	5717.93
944.01	5590.95
944.18	5679.02
944.35	5771.18
944.51	5644.20
944.68	5425.07
944.84	5627.82
945.01	5324.72
945.17	5506.99
945.34	5490.60
945.51	5439.40
945.67	5433.26
945.84	5650.35
946.00	5248.94
946.17	5394.35
946.33	5300.14
946.50	5300.14
946.67	5337.01
946.83	5453.74
947.00	5392.30
947.16	5334.96
947.33	5347.25
947.49	5361.58
947.66	5324.72
947.82	5410.73
947.99	5300.14
948.16	5269.42
948.32	5326.77
948.49	5302.19
948.65	5373.87
948.82	5353.39
948.98	5300.14
949.15	5136.31
949.31	5441.45
949.48	5222.32
949.64	5210.03
949.81	5244.85
949.97	5185.46
950.14	5240.75
950.30	5210.03
950.47	5351.34
950.63	5334.96
950.80	5214.13
950.96	5289.90
951.13	5246.90
951.30	5380.01
951.46	5224.37
951.63	5382.06
951.79	5382.06
951.96	5279.66
952.12	5439.40
952.29	5353.39
952.45	5349.29
952.62	5494.70
952.78	5324.72
952.94	5394.35
953.11	5359.53
953.27	5144.50
953.44	5451.69
953.60	5554.09
953.77	5355.44
953.93	5277.62
954.10	5341.10
954.26	5371.82
954.43	5470.12
954.59	5461.93
954.76	5492.65
954.92	5427.12
955.09	5400.49
955.25	5423.02
955.42	5480.36
955.58	5488.56
955.75	5552.04
955.91	5427.12
956.07	5515.18
956.24	5418.93
956.40	5373.87
956.57	5435.31
956.73	5439.40
956.90	5498.80
957.06	5398.45
957.23	5339.05
957.39	5361.58
957.56	5453.74
957.72	5312.43
957.88	5423.02
958.05	5478.32
958.21	5537.71
958.38	5459.88
958.54	5525.42
958.71	5535.66
958.87	5365.68
959.03	5453.74
959.20	5488.56
959.36	5554.09
959.53	5328.81
959.69	5410.73
959.85	5443.50
960.02	5369.77
960.18	5365.68
960.35	5279.66
960.51	5367.73
960.68	5369.77
960.84	5390.25
961.00	5459.88
961.17	5396.40
961.33	5461.93
961.50	5375.92
961.66	5642.15
961.82	5334.96
961.99	5615.53
962.15	5326.77
962.31	5234.61
962.48	5398.45
962.64	5312.43
962.81	5207.98
962.97	5375.92
963.13	5373.87
963.30	5357.49
963.46	5343.15
963.62	5238.70
963.79	5453.74
963.95	5289.90
964.12	5416.88
964.28	5259.18
964.44	5291.95
964.61	5357.49
964.77	5298.10
964.93	5353.39
965.10	5484.46
965.26	5296.05
965.42	5359.53
965.59	5304.24
965.75	5191.60
965.92	5369.77
966.08	5314.48
966.24	5242.80
966.41	5193.65
966.57	5392.30
966.73	5253.04
966.90	5427.12
967.06	5207.98
967.22	5154.74
967.39	5232.56
967.55	5216.18
967.71	5214.13
967.88	5169.07
968.04	5199.79
968.20	5171.12
968.37	5115.83
968.53	5115.83
968.69	5175.22
968.85	5134.26
969.02	5189.55
969.18	5226.42
969.34	4982.71
969.51	5105.59
969.67	5007.28
969.83	5007.28
970.00	4995.00
970.16	5130.16
970.32	4964.28
970.48	5124.02
970.65	5140.40
970.81	4990.90
970.97	5054.39
971.14	4951.99
971.30	5146.55
971.46	4982.71
971.63	5046.20
971.79	5089.20
971.95	4962.23
972.11	4825.01
972.28	4857.78
972.44	4945.84
972.60	4843.45
972.76	4968.37
972.93	4859.83
973.09	4923.32
973.25	4968.37
973.42	4818.87
973.58	4861.88
973.74	4837.30
973.90	4771.77
974.07	4835.25
974.23	4847.54
974.39	4822.97
974.55	4806.58
974.72	4894.65
974.88	4675.51
975.04	4749.24
975.20	4700.09
975.37	4861.88
975.53	4728.76
975.69	4771.77
975.85	4648.89
976.01	4728.76
976.18	4720.57
976.34	4650.94
976.50	4614.07
976.66	4667.32
976.83	4622.27
976.99	4663.22
977.15	4585.40
977.31	4515.77
977.47	4716.47
977.64	4632.51
977.80	4743.10
977.96	4650.94
978.12	4458.43
978.29	4566.97
978.45	4483.00
978.61	4503.48
978.77	4515.77
978.93	4446.14
979.10	4345.79
979.26	4577.21
979.42	4351.93
979.58	4235.20
979.74	4523.96
979.91	4581.31
980.07	4458.43
980.23	4417.47
980.39	4407.23
980.55	4288.45
980.71	4437.95
980.88	4358.08
981.04	4382.65
981.20	4337.60
981.36	4431.80
981.52	4380.61
981.68	4239.30
981.85	4331.45
982.01	4370.37
982.17	4321.21
982.33	4292.54
982.49	4360.13
982.65	4224.96
982.82	4306.88
982.98	4339.65
983.14	4222.91
983.30	4362.17
983.46	4272.06
983.62	4263.87
983.79	4136.90
983.95	4206.53
984.11	4196.29
984.27	4169.66
984.43	4249.54
984.59	4163.52
984.75	4149.18
984.91	4124.61
985.08	4257.73
985.24	4079.55
985.40	4067.27
985.56	4038.59
985.72	4171.71
985.88	4163.52
986.04	4034.50
986.20	4014.02
986.37	4009.92
986.53	3911.62
986.69	4040.64
986.85	3942.34
987.01	4061.12
987.17	4124.61
987.33	3958.72
987.49	3885.00
987.65	4022.21
987.82	3940.29
987.98	3860.42
988.14	3823.56
988.30	3923.91
988.46	3860.42
988.62	3874.76
988.78	3803.08
988.94	3794.89
989.10	3897.28
989.26	3856.33
989.42	3815.37
989.59	3755.97
989.75	3846.09
989.91	3745.73
990.07	3608.52
990.23	3772.36
990.39	3805.13
990.55	3813.32
990.71	3641.29
990.87	3825.61
991.03	3788.74
991.19	3704.78
991.35	3674.06
991.51	3739.59
991.67	3735.50
991.83	3694.54
992.00	3682.25
992.16	3717.06
992.32	3565.51
992.48	3772.36
992.64	3708.87
992.80	3655.62
992.96	3620.81
993.12	3626.95
993.28	3631.05
993.44	3690.44
993.60	3641.29
993.76	3538.89
993.92	3588.04
994.08	3604.42
994.24	3514.31
994.40	3540.94
994.56	3637.19
994.72	3411.92
994.88	3561.42
995.04	3557.32
995.20	3532.75
995.36	3428.30
995.52	3473.36
995.68	3540.94
995.84	3424.20
996.00	3585.99
996.16	3456.97
996.32	3467.21
996.48	3430.35
996.64	3549.13
996.80	3428.30
996.96	3375.05
997.12	3459.02
997.28	3321.81
997.44	3360.72
997.60	3354.57
997.76	3313.61
997.92	3411.92
998.08	3350.48
998.24	3358.67
998.40	3323.85
998.56	3301.33
998.72	3110.86
998.88	3268.56
999.04	3286.99
999.20	3354.57
999.36	3295.18
999.52	3393.48
999.68	3219.41
999.84	3260.37
1000.00	3282.89
1000.16	3330.00
1000.32	3094.48
1000.48	3332.05
1000.64	3153.87
1000.80	3188.69
1000.95	3084.24
1001.11	3213.26
1001.27	3104.72
1001.43	3291.09
1001.59	3090.38
1001.75	3088.34
1001.91	3121.10
1002.07	3139.54
1002.23	3051.47
1002.39	3096.53
1002.55	3053.52
1002.71	3080.14
1002.87	3092.43
1003.03	2996.18
1003.19	3063.76
1003.34	3076.05
1003.50	3008.47
1003.66	3059.67
1003.82	3114.96
1003.98	3035.09
1004.14	2867.16
1004.30	3049.43
1004.46	2951.12
1004.62	3065.81
1004.78	2996.18
1004.94	2961.36
1005.09	3014.61
1005.25	3010.51
1005.41	2928.60
1005.57	2936.79
1005.73	3033.04
1005.89	2832.34
1006.05	3018.71
1006.21	2981.84
1006.37	2926.55
1006.52	2846.68
1006.68	2775.00
1006.84	3051.47
1007.00	2861.01
1007.16	2934.74
1007.32	2746.33
1007.48	2818.00
1007.64	2973.65
1007.79	2815.96
1007.95	2803.67
1008.11	2875.35
1008.27	2754.52
1008.43	2813.91
1008.59	2826.20
1008.75	2777.05
1008.91	2879.44
1009.06	2770.90
1009.22	2858.96
1009.38	2844.63
1009.54	2842.58
1009.70	2691.03
1009.86	2854.87
1010.01	2758.61
1010.17	2691.03
1010.33	2756.57
1010.49	2838.48
1010.65	2875.35
1010.81	2709.46
1010.96	2598.87
1011.12	2660.31
1011.28	2559.96
1011.44	2695.13
1011.60	2682.84
1011.76	2656.22
1011.91	2752.47
1012.07	2633.69
1012.23	2568.15
1012.39	2609.11
1012.55	2666.46
1012.71	2582.49
1012.86	2602.97
1013.02	2600.92
1013.18	2605.02
1013.34	2621.40
1013.50	2682.84
1013.65	2539.48
1013.81	2621.40
1013.97	2609.11
1014.13	2529.24
1014.29	2584.54
1014.44	2664.41
1014.60	2576.34
1014.76	2562.01
1014.92	2527.19
1015.07	2535.39
1015.23	2510.81
1015.39	2502.62
1015.55	2404.32
1015.71	2529.24
1015.86	2432.99
1016.02	2428.89
1016.18	2363.36
1016.34	2500.57
1016.49	2375.64
1016.65	2523.10
1016.81	2424.80
1016.97	2533.34
1017.12	2600.92
1017.28	2484.19
1017.44	2400.22
1017.60	2432.99
1017.75	2414.56
1017.91	2475.99
1018.07	2367.45
1018.23	2480.09
1018.38	2289.63
1018.54	2432.99
1018.70	2437.08
1018.86	2306.01
1019.01	2273.25
1019.17	2430.94
1019.33	2453.47
1019.49	2355.16
1019.64	2420.70
1019.80	2365.40
1019.96	2330.59
1020.12	2381.79
1020.27	2301.92
1020.43	2326.49
1020.59	2396.12
1020.74	2371.55
1020.90	2469.85
1021.06	2277.34
1021.22	2334.68
1021.37	2330.59
1021.53	2195.42
1021.69	2371.55
1021.84	2215.90
1022.00	2340.83
1022.16	2211.81
1022.31	2316.25
1022.47	2310.11
1022.63	2318.30
1022.79	2220.00
1022.94	2297.82
1023.10	2359.26
1023.26	2301.92
1023.41	2195.42
1023.57	2148.32
1023.73	2281.44
1023.88	2281.44
1024.04	2267.10
1024.20	2263.01
1024.35	2209.76
1024.51	2220.00
1024.67	2142.18
1024.82	2312.16
1024.98	2109.41
1025.14	2166.75
1025.29	2326.49
1025.45	2236.38
1025.61	2109.41
1025.76	2232.29
1025.92	2207.71
1026.08	2138.08
1026.23	2234.33
1026.39	2222.05
1026.55	2166.75
1026.70	2074.59
1026.86	2131.94
1027.02	2258.91
1027.17	2129.89
1027.33	2131.94
1027.48	2168.80
1027.64	2123.74
1027.80	2195.42
1027.95	2187.23
1028.11	2027.49
1028.27	2152.42
1028.42	2148.32
1028.58	2150.37
1028.73	2150.37
1028.89	2039.78
1029.05	2191.33
1029.20	2138.08
>>>>>End Processed Spectral Data<<<<<
