SpectraSuite Data File
++++++++++++++++++++++++++++++++++++
Date: Fri Jun 02 14:52:28 CEST 2017
User: INFO_000
Dark Spectrum Present: No
Reference Spectrum Present: No
Number of Sampled Component Spectra: 1
Spectrometers: USB4H00879
Integration Time (usec): 80000 (USB4H00879)
Spectra Averaged: 1 (USB4H00879)
Boxcar Smoothing: 0 (USB4H00879)
Correct for Electrical Dark: No (USB4H00879)
Strobe/Lamp Enabled: No (USB4H00879)
Correct for Detector Non-linearity: No (USB4H00879)
Correct for Stray Light: No (USB4H00879)
Number of Pixels in Processed Spectrum: 3648
>>>>>Begin Processed Spectral Data<<<<<
345.13	1296.36
345.34	1296.36
345.56	1296.36
345.78	1261.55
345.99	1257.45
346.21	1722.34
346.42	1675.24
346.64	1687.53
346.86	1798.12
347.07	1671.14
347.29	1708.01
347.50	1626.09
347.72	1675.24
347.94	1759.21
348.15	1535.98
348.37	1564.65
348.59	1685.48
348.80	1677.29
349.02	1742.82
349.23	1871.84
349.45	1773.54
349.67	1873.89
349.88	1865.70
350.10	2037.73
350.31	1841.12
350.53	1849.32
350.75	1920.99
350.96	1839.08
351.18	1851.36
351.39	1867.75
351.61	1775.59
351.82	1939.43
352.04	1873.89
352.26	1853.41
352.47	1955.81
352.69	1943.52
352.90	1765.35
353.12	1810.40
353.34	1812.45
353.55	1970.15
353.77	1865.70
353.98	1900.52
354.20	1867.75
354.41	1978.34
354.63	1953.76
354.85	2031.58
355.06	1888.23
355.28	1806.31
355.49	1908.71
355.71	1837.03
355.92	1912.80
356.14	1918.95
356.35	1865.70
356.57	1896.42
356.79	1892.32
357.00	1945.57
357.22	2056.16
357.43	1871.84
357.65	2033.63
357.86	1855.46
358.08	1939.43
358.29	1912.80
358.51	1951.71
358.72	1996.77
358.94	1974.24
359.16	2002.91
359.37	1966.05
359.59	1992.67
359.80	2009.06
360.02	1888.23
360.23	1939.43
360.45	1996.77
360.66	1957.86
360.88	1869.80
361.09	1828.84
361.31	1998.82
361.52	1984.48
361.74	2043.87
361.95	2082.78
362.17	1984.48
362.38	2078.69
362.60	2015.20
362.81	2017.25
363.03	1935.33
363.24	2033.63
363.46	2013.15
363.67	2078.69
363.89	1964.00
364.10	2037.73
364.32	1982.43
364.53	2105.31
364.75	1986.53
364.96	2068.45
365.18	1961.95
365.39	1955.81
365.61	1998.82
365.82	2052.06
366.04	2041.82
366.25	2002.91
366.47	2033.63
366.68	2062.30
366.90	1996.77
367.11	2107.36
367.33	2133.98
367.54	2050.02
367.76	2031.58
367.97	2084.83
368.19	2045.92
368.40	2136.03
368.62	2011.11
368.83	1951.71
369.05	2068.45
369.26	1888.23
369.48	1982.43
369.69	2062.30
369.91	2058.21
370.12	1998.82
370.33	2093.02
370.55	1920.99
370.76	2056.16
370.98	2084.83
371.19	2041.82
371.41	2115.55
371.62	2125.79
371.84	1947.62
372.05	2150.37
372.27	2090.98
372.48	2066.40
372.69	2170.85
372.91	2215.90
373.12	2131.94
373.34	2033.63
373.55	2158.56
373.77	2215.90
373.98	2037.73
374.20	2269.15
374.41	2164.70
374.62	2066.40
374.84	2193.37
375.05	2185.18
375.27	2158.56
375.48	2213.85
375.70	2150.37
375.91	2174.94
376.12	2320.35
376.34	2211.81
376.55	2222.05
376.77	2260.96
376.98	2127.84
377.19	2150.37
377.41	2160.61
377.62	2263.01
377.84	2197.47
378.05	2346.97
378.27	2170.85
378.48	2369.50
378.69	2389.98
378.91	2314.20
379.12	2346.97
379.34	2265.05
379.55	2320.35
379.76	2363.36
379.98	2222.05
380.19	2279.39
380.41	2336.73
380.62	2285.53
380.83	2181.09
381.05	2234.33
381.26	2389.98
381.47	2203.61
381.69	2342.88
381.90	2447.32
382.12	2295.77
382.33	2310.11
382.54	2297.82
382.76	2363.36
382.97	2328.54
383.19	2306.01
383.40	2367.45
383.61	2342.88
383.83	2369.50
384.04	2414.56
384.25	2351.07
384.47	2349.02
384.68	2353.12
384.89	2320.35
385.11	2389.98
385.32	2400.22
385.54	2396.12
385.75	2480.09
385.96	2406.36
386.18	2467.80
386.39	2498.52
386.60	2394.08
386.82	2502.62
387.03	2506.71
387.24	2465.75
387.46	2537.43
387.67	2482.14
387.88	2525.15
388.10	2414.56
388.31	2514.91
388.52	2586.58
388.74	2574.30
388.95	2539.48
389.16	2494.43
389.38	2494.43
389.59	2539.48
389.80	2660.31
390.02	2576.34
390.23	2711.51
390.44	2580.44
390.66	2643.93
390.87	2568.15
391.08	2705.37
391.30	2576.34
391.51	2736.09
391.72	2695.13
391.94	2729.94
392.15	2676.70
392.36	2668.50
392.58	2584.54
392.79	2654.17
393.00	2729.94
393.22	2772.95
393.43	2758.61
393.64	2787.29
393.85	2805.72
394.07	2713.56
394.28	2701.27
394.49	2815.96
394.71	2846.68
394.92	2832.34
395.13	2807.77
395.35	2850.77
395.56	2754.52
395.77	2760.66
395.98	2891.73
396.20	2873.30
396.41	2813.91
396.62	2895.83
396.84	2834.39
397.05	2760.66
397.26	2996.18
397.47	3012.56
397.69	2877.40
397.90	3033.04
398.11	2922.45
398.32	2969.55
398.54	2805.72
398.75	2994.13
398.96	2998.23
399.18	3024.85
399.39	2942.93
399.60	3057.62
399.81	2983.89
400.03	2949.08
400.24	3235.79
400.45	3016.66
400.66	3020.75
400.88	3008.47
401.09	3248.08
401.30	3104.72
401.51	3094.48
401.73	3182.54
401.94	3133.39
402.15	3051.47
402.36	3063.76
402.58	3205.07
402.79	3172.30
403.00	3264.46
403.21	3321.81
403.43	3209.17
403.64	3264.46
403.85	3205.07
404.06	3268.56
404.27	3157.97
404.49	3153.87
404.70	3194.83
404.91	3268.56
405.12	3252.17
405.34	3301.33
405.55	3356.62
405.76	3215.31
405.97	3297.23
406.19	3280.85
406.40	3260.37
406.61	3383.24
406.82	3418.06
407.03	3194.83
407.25	3332.05
407.46	3424.20
407.67	3438.54
407.88	3459.02
408.09	3323.85
408.31	3403.72
408.52	3301.33
408.73	3389.39
408.94	3391.44
409.15	3573.71
409.37	3499.98
409.58	3577.80
409.79	3385.29
410.00	3547.08
410.21	3616.71
410.43	3416.01
410.64	3516.36
410.85	3456.97
411.06	3585.99
411.27	3569.61
411.48	3663.82
411.70	3499.98
411.91	3608.52
412.12	3721.16
412.33	3520.46
412.54	3596.23
412.76	3792.84
412.97	3594.19
413.18	3639.24
413.39	3606.47
413.60	3717.06
413.81	3731.40
414.03	3710.92
414.24	3680.20
414.45	3801.03
414.66	3577.80
414.87	3745.73
415.08	3815.37
415.30	3766.21
415.51	3887.04
415.72	3825.61
415.93	3774.41
416.14	3878.85
416.35	3925.96
416.56	3885.00
416.78	3925.96
416.99	3858.37
417.20	3948.48
417.41	3928.00
417.62	3925.96
417.83	3964.87
418.04	3954.63
418.26	3919.81
418.47	4059.07
418.68	4057.03
418.89	3966.92
419.10	4290.49
419.31	4050.88
419.52	4227.01
419.73	4169.66
419.95	4286.40
420.16	3966.92
420.37	4186.05
420.58	4134.85
420.79	4065.22
421.00	4102.08
421.21	4276.16
421.42	4173.76
421.63	4194.24
421.85	4253.63
422.06	4194.24
422.27	4151.23
422.48	4290.49
422.69	4382.65
422.90	4372.41
423.11	4358.08
423.32	4386.75
423.53	4507.58
423.75	4384.70
423.96	4485.05
424.17	4478.91
424.38	4757.43
424.59	4583.35
424.80	4771.77
425.01	4444.09
425.22	4601.79
425.43	4487.10
425.64	4628.41
425.85	4782.01
426.06	4638.65
426.28	4556.73
426.49	4671.42
426.70	4716.47
426.91	4716.47
427.12	4886.45
427.33	4763.58
427.54	4671.42
427.75	4753.34
427.96	4902.84
428.17	4820.92
428.38	4773.82
428.59	5070.77
428.80	4917.17
429.01	4900.79
429.23	5042.10
429.44	5148.59
429.65	5207.98
429.86	5267.38
430.07	4978.61
430.28	5015.48
430.49	5216.18
430.70	5332.91
430.91	5271.47
431.12	5111.73
431.33	5300.14
431.54	5216.18
431.75	5246.90
431.96	5308.34
432.17	5238.70
432.38	5240.75
432.59	5472.17
432.80	5377.97
433.01	5406.64
433.22	5382.06
433.43	5375.92
433.64	5308.34
433.85	5375.92
434.06	5605.29
434.27	5345.20
434.49	5572.52
434.70	5572.52
434.91	5459.88
435.12	5719.98
435.33	5676.97
435.54	5595.05
435.75	5414.83
435.96	5666.73
436.17	5621.67
436.38	5781.42
436.59	5762.98
436.80	5541.80
437.01	5930.92
437.22	5900.20
437.43	5808.04
437.64	5609.39
437.85	5779.37
438.06	5949.35
438.27	5685.16
438.48	5707.69
438.69	5865.38
438.90	5851.05
439.11	5715.88
439.32	6002.60
439.53	6121.38
439.74	6010.79
439.95	6000.55
440.16	5885.86
440.37	6045.60
440.57	5867.43
440.78	6031.27
440.99	6174.63
441.20	6021.03
441.41	6045.60
441.62	6107.04
441.83	6016.93
442.04	6191.01
442.25	6158.24
442.46	6256.54
442.67	6268.83
442.88	6481.82
443.09	6023.08
443.30	6287.26
443.51	6250.40
443.72	6545.31
443.93	6234.02
444.14	6569.88
444.35	6258.59
444.56	6297.50
444.77	6340.51
444.98	6377.37
445.19	6430.62
445.40	6303.65
445.61	6291.36
445.81	6412.19
446.02	6600.60
446.23	6350.75
446.44	6430.62
446.65	6438.81
446.86	6541.21
447.07	6518.68
447.28	6698.91
447.49	6604.70
447.70	6686.62
447.91	6889.37
448.12	6670.23
448.33	6848.41
448.54	6850.46
448.74	6739.87
448.95	6842.26
449.16	6684.57
449.37	7016.34
449.58	6815.64
449.79	7016.34
450.00	6881.18
450.21	7092.12
450.42	7032.72
450.63	7049.11
450.84	7083.92
451.05	7198.61
451.25	7118.74
451.46	6973.33
451.67	7225.23
451.88	7212.95
452.09	7217.04
452.30	7141.27
452.51	7247.76
452.72	7411.60
452.93	7602.06
453.13	7190.42
453.34	7323.54
453.55	7266.19
453.76	7298.96
453.97	7604.11
454.18	7348.11
454.39	7511.95
454.60	7647.12
454.81	7460.75
455.01	7735.18
455.22	7411.60
455.43	7688.07
455.64	7804.81
455.85	7864.20
456.06	8042.37
456.27	7743.37
456.48	7851.91
456.68	7964.55
456.89	7884.68
457.10	8023.94
457.31	8056.71
457.52	8038.28
457.73	8126.34
457.94	8376.19
458.14	7987.08
458.35	8404.86
458.56	8234.88
458.77	8341.38
458.98	8490.88
459.19	8212.35
459.39	8556.41
459.60	8570.75
459.81	8468.35
460.02	8716.16
460.23	8597.37
460.44	8859.51
460.65	8804.22
460.85	8769.40
461.06	8839.03
461.27	8619.90
461.48	9187.19
461.69	9125.75
461.89	8693.63
462.10	8836.99
462.31	9004.92
462.52	8984.44
462.73	9150.32
462.94	9432.94
463.14	9365.36
463.35	9211.76
463.56	9557.87
463.77	9512.81
463.98	9338.74
464.18	9504.62
464.39	9625.45
464.60	9772.91
464.81	9748.33
465.02	9529.20
465.23	9840.49
465.43	9711.47
465.64	10149.73
465.85	9969.51
466.06	9817.96
466.27	10501.98
466.47	10088.29
466.68	10188.64
466.89	10198.88
467.10	10440.54
467.30	10213.22
467.51	10440.54
467.72	10784.60
467.93	10278.76
468.14	10532.70
468.34	10753.88
468.55	10755.93
468.76	10714.97
468.97	10751.84
469.17	11003.74
469.38	10856.28
469.59	11003.74
469.80	11022.17
470.01	10989.40
470.21	11110.23
470.42	11530.06
470.63	11499.34
470.84	11358.03
471.04	11577.17
471.25	11667.28
471.46	11495.25
471.67	11941.71
471.87	11671.37
472.08	11966.28
472.29	11984.71
472.50	11775.82
472.70	12128.07
472.91	11908.94
473.12	12353.35
473.33	12445.51
473.53	12310.34
473.74	12410.69
473.95	12496.71
474.16	12775.23
474.36	12736.32
474.57	13059.90
474.78	12926.78
474.99	12635.97
475.19	12898.11
475.40	13360.95
475.61	13172.54
475.81	13453.11
476.02	13600.56
476.23	13197.11
476.44	13502.26
476.64	13827.88
476.85	13999.91
477.06	13795.12
477.27	14245.67
477.47	14126.89
477.68	14337.83
477.89	14487.33
478.09	14278.44
478.30	14378.79
478.51	14511.91
478.71	14583.59
478.92	14919.45
479.13	14788.38
479.34	14964.51
479.54	15062.81
479.75	15140.63
479.96	15189.78
480.16	15073.05
480.37	15415.06
480.58	15552.27
480.78	15742.74
480.99	15644.43
481.20	15953.68
481.41	15820.56
481.61	16107.27
481.82	16019.21
482.03	15953.68
482.23	16109.32
482.44	16135.95
482.65	16590.59
482.85	16428.81
483.06	16451.33
483.27	16711.42
483.47	16545.54
483.68	16869.12
483.89	17153.79
484.09	16955.13
484.30	17207.03
484.51	17510.13
484.71	17460.98
484.92	17247.99
485.13	17276.66
485.33	17501.94
485.54	17561.33
485.75	18024.17
485.95	17977.07
486.16	17794.80
486.37	17934.06
486.57	17985.26
486.78	17987.31
486.98	18073.32
487.19	18401.00
487.40	18695.91
487.60	18282.22
487.81	18781.92
488.02	18697.95
488.22	18679.52
488.43	18839.26
488.64	19117.79
488.84	19093.21
489.05	19201.76
489.25	19222.23
489.46	19500.76
489.67	19271.39
489.87	19541.72
490.08	19517.14
490.29	19738.32
490.49	19955.41
490.70	20063.95
490.90	20170.44
491.11	19756.75
491.32	20086.48
491.52	20215.50
491.73	20195.02
491.94	20471.50
492.14	20387.53
492.35	20608.71
492.55	20577.99
492.76	20788.93
492.97	21006.02
493.17	20813.51
493.38	20985.54
493.58	21059.26
493.79	21120.70
494.00	21276.35
494.20	20969.15
494.41	21483.19
494.61	21444.28
494.82	21579.45
495.02	21470.90
495.23	21800.63
495.44	22052.53
495.64	22156.97
495.85	21694.13
496.05	22058.67
496.26	21978.80
496.47	22128.30
496.67	22134.45
496.88	22554.28
497.08	22183.60
497.29	22339.24
497.49	22421.16
497.70	22660.77
497.91	22761.12
498.11	22746.79
498.32	23082.66
498.52	23064.22
498.73	23215.77
498.93	23006.88
499.14	23162.53
499.34	23461.53
499.55	23447.19
499.76	23332.51
499.96	23328.41
500.17	23832.21
500.37	23520.92
500.58	23576.22
500.78	23664.28
500.99	23561.88
501.19	24020.63
501.40	23649.94
501.60	23707.29
501.81	24133.26
502.02	24014.48
502.22	23881.36
502.43	24223.37
502.63	24475.27
502.84	24254.09
503.04	24458.89
503.25	24399.50
503.45	24567.43
503.66	24630.92
503.86	24471.18
504.07	24710.79
504.27	24571.53
504.48	25099.90
504.68	24704.65
504.89	25380.48
505.09	25179.78
505.30	25253.50
505.50	25003.65
505.71	25413.24
505.91	25128.58
506.12	25509.50
506.32	25386.62
506.53	25181.82
506.73	25511.55
506.94	25663.10
507.14	25554.55
507.35	25360.00
507.55	25951.86
507.76	25906.80
507.96	25966.20
508.17	25712.25
508.37	26021.49
508.58	25835.13
508.78	26097.27
508.99	25943.67
509.19	26287.73
509.40	26115.70
509.60	26175.09
509.81	26314.35
510.01	25951.86
510.22	26500.72
510.42	26334.83
510.63	26795.62
510.83	26672.74
511.04	26553.96
511.24	26574.44
511.44	26816.10
511.65	27020.90
511.85	26928.74
512.06	27242.08
512.26	27068.00
512.47	27358.81
512.67	27164.26
512.88	27231.84
513.08	26889.83
513.29	27520.60
513.49	27268.70
513.69	27487.84
513.90	27405.92
514.10	27696.73
514.31	27623.00
514.51	27899.48
514.72	27852.38
514.92	27649.63
515.13	27803.22
515.33	27903.57
515.53	28112.47
515.74	28044.88
515.94	28038.74
516.15	28161.62
516.35	27600.47
516.56	28298.83
516.76	28042.84
516.96	28653.13
517.17	28266.06
517.37	28399.18
517.58	28632.65
517.78	28857.93
517.99	28739.15
518.19	28763.72
518.39	28833.35
518.60	28800.58
518.80	28896.84
519.01	29083.20
519.21	28902.98
519.41	28995.14
519.62	29025.86
519.82	29515.33
520.03	29509.18
520.23	29419.07
520.43	29488.70
520.64	29691.45
520.84	29531.71
521.05	29728.31
521.25	29541.95
521.45	30170.68
521.66	30029.37
521.86	29847.10
522.07	29814.33
522.27	30037.56
522.47	29982.26
522.68	30379.57
522.88	30139.96
523.08	30477.87
523.29	30651.95
523.49	30858.79
523.70	30582.32
523.90	30785.07
524.10	30721.58
524.31	31055.40
524.51	30793.26
524.71	31516.19
524.92	31036.97
525.12	31424.03
525.33	31176.23
525.53	31759.90
525.73	31688.22
525.94	32138.77
526.14	32204.31
526.34	32079.38
526.55	32030.23
526.75	31790.62
526.95	32202.26
527.16	32026.14
527.36	32026.14
527.56	32378.39
527.77	32292.37
527.97	32435.73
528.17	32579.09
528.38	32732.68
528.58	32790.03
528.78	32945.67
528.99	32957.96
529.19	33117.70
529.39	32861.71
529.60	33197.57
529.80	33166.85
530.00	33134.09
530.21	33652.22
530.41	33816.06
530.61	33789.44
530.82	33648.13
531.02	33746.43
531.22	33891.83
531.43	34055.67
531.63	34217.46
531.83	34094.58
532.04	34655.73
532.24	33838.59
532.44	34723.31
532.64	34997.74
532.85	34838.00
533.05	34954.73
533.25	34973.16
533.46	34946.54
533.66	35587.55
533.86	35315.17
534.07	35567.07
534.27	35499.49
534.47	35614.18
534.67	35829.21
534.88	35669.47
535.08	35976.67
535.28	35993.05
535.49	35941.85
535.69	36304.34
535.89	36120.02
536.09	35960.28
536.30	37270.98
536.50	36627.92
536.70	36912.59
536.91	36556.24
537.11	36822.48
537.31	36853.20
537.51	36988.36
537.72	37107.15
537.92	37414.34
538.12	37551.56
538.32	37248.46
538.53	37346.76
538.73	37477.83
538.93	37707.20
539.13	37754.30
539.34	37535.17
539.54	37541.32
539.74	38012.35
539.94	37737.92
540.15	37533.12
540.35	38227.38
540.55	38198.71
540.75	38161.85
540.96	38725.04
541.16	38172.09
541.36	38856.11
541.56	38518.20
541.77	38843.82
541.97	38753.71
542.17	38890.93
542.37	39194.03
542.58	39265.70
542.78	39191.98
542.98	39128.49
543.18	39497.13
543.38	39409.06
543.59	39454.12
543.79	39505.32
543.99	39128.49
544.19	39863.71
544.40	39671.20
544.60	39962.01
544.80	39740.83
545.00	39654.82
545.20	40549.78
545.41	39714.21
545.61	40023.45
545.81	40433.05
546.01	39894.43
546.21	40367.51
546.42	40207.77
546.62	40246.68
546.82	40555.93
547.02	40486.29
547.22	40562.07
547.43	40629.65
547.63	40730.00
547.83	40570.26
548.03	40512.92
548.23	40912.27
548.44	41225.61
548.64	40883.60
548.84	40818.07
549.04	41049.49
549.24	41471.37
549.45	41360.78
549.65	41248.14
549.85	41538.95
550.05	41710.98
550.25	41362.82
550.45	41758.08
550.66	41541.00
550.86	41713.03
551.06	41997.70
551.26	41864.58
551.46	41555.33
551.66	42143.10
551.87	41647.49
552.07	41850.24
552.27	41985.41
552.47	42370.43
552.67	42440.06
552.87	42202.49
553.07	42091.90
553.28	42497.40
553.48	42235.26
553.68	41883.01
553.88	42935.66
554.08	42562.93
554.28	42392.95
554.48	42073.47
554.69	42636.66
554.89	42562.93
555.09	42521.98
555.29	42481.02
555.49	42718.58
555.69	43103.60
555.89	42849.65
556.10	43111.79
556.30	42755.44
556.50	42777.97
556.70	43103.60
556.90	43154.80
557.10	42988.91
557.30	42677.62
557.50	43664.74
557.70	43369.83
557.91	43468.14
558.11	43359.59
558.31	43093.36
558.51	43124.08
558.71	43132.27
558.91	43652.45
559.11	43343.21
559.31	43541.86
559.51	43341.16
559.72	43576.68
559.92	43488.62
560.12	43371.88
560.32	43900.26
560.52	43566.44
560.72	43758.95
560.92	43887.97
561.12	43918.69
561.32	44111.20
561.52	43695.46
561.72	43959.65
561.93	44025.18
562.13	43738.47
562.33	43545.96
562.53	44125.53
562.73	44168.54
562.93	43550.06
563.13	44125.53
563.33	43988.32
563.53	44907.86
563.73	44211.55
563.93	43898.21
564.13	44623.19
564.33	44670.29
564.53	44201.31
564.74	44365.15
564.94	44373.34
565.14	44172.64
565.34	43877.73
565.54	44541.27
565.74	44670.29
565.94	44877.14
566.14	44612.95
566.34	44549.46
566.54	44883.28
566.74	44549.46
566.94	44782.93
567.14	44729.69
567.34	44758.36
567.54	44909.91
567.74	44899.67
567.94	44252.51
568.14	44776.79
568.34	45376.84
568.54	44973.39
568.74	44991.83
568.94	44871.00
569.14	45417.80
569.34	45192.53
569.54	44961.11
569.75	44594.52
569.95	45176.14
570.15	45143.38
570.35	45249.87
570.55	45194.57
570.75	45346.12
570.95	45464.91
571.15	45317.45
571.35	45735.24
571.55	45667.66
571.75	45753.67
571.95	45577.54
572.15	45397.32
572.35	45739.33
572.55	45624.65
572.75	45765.96
572.95	45847.88
573.15	45755.72
573.35	46073.15
573.55	45638.98
573.75	45954.37
573.95	45890.88
574.15	46132.54
574.35	46095.68
574.55	45966.66
574.75	45786.44
574.95	46081.34
575.15	46146.88
575.34	46386.49
575.54	46384.44
575.74	46513.47
575.94	46548.28
576.14	46687.54
576.34	46517.56
576.54	46804.28
576.74	46738.74
576.94	46693.69
577.14	46650.68
577.34	47019.31
577.54	46972.21
577.74	46824.76
577.94	46798.13
578.14	46814.52
578.34	46984.50
578.54	46851.38
578.74	46916.92
578.94	47586.60
579.14	46959.92
579.34	47113.52
579.54	47195.44
579.74	47103.28
579.94	47211.82
580.13	47994.15
580.33	47703.34
580.53	47600.94
580.73	47641.90
580.93	47451.44
581.13	47441.20
581.33	47842.60
581.53	47660.33
581.73	48098.59
581.93	48567.58
582.13	47826.21
582.33	47824.17
582.53	48055.59
582.73	47994.15
582.92	48553.24
583.12	48422.17
583.32	48268.58
583.52	48137.51
583.72	48706.84
583.92	48092.45
584.12	48502.04
584.32	48784.66
584.52	48559.39
584.72	48534.81
584.92	48827.67
585.11	48848.15
585.31	48467.23
585.51	48885.01
585.71	48639.26
585.91	49304.85
586.11	48620.83
586.31	48821.53
586.51	48979.22
586.71	48917.78
586.91	49460.49
587.10	49282.32
587.30	49366.29
587.50	49591.56
587.70	49607.95
587.90	49134.87
588.10	49841.42
588.30	49624.33
588.50	49579.28
588.69	49407.25
588.89	49288.46
589.09	49812.74
589.29	50162.95
589.49	50214.15
589.69	49542.41
589.89	49646.86
590.08	50162.95
590.28	49831.18
590.48	49724.68
590.68	49855.75
590.88	49763.59
591.08	50318.59
591.28	49874.18
591.47	50162.95
591.67	50267.39
591.87	50341.12
592.07	50294.02
592.27	50683.13
592.47	50386.18
592.67	50550.01
592.86	50527.48
593.06	50382.08
593.26	50898.17
593.46	50676.99
593.66	51045.62
593.86	50816.25
594.05	50906.36
594.25	50984.18
594.45	50840.82
594.65	50939.13
594.85	50803.96
595.05	50861.30
595.24	51010.81
595.44	51025.14
595.64	50676.99
595.84	51039.48
596.04	51481.84
596.23	50984.18
596.43	51567.85
596.63	51373.30
596.83	51479.79
597.03	51727.59
597.22	51262.71
597.42	51434.74
597.62	52085.99
597.82	51326.19
598.02	51782.89
598.21	52122.85
598.41	51576.04
598.61	51993.83
598.81	51815.66
599.01	52575.45
599.20	51907.82
599.40	52120.80
599.60	52098.28
599.80	52139.24
600.00	52159.72
600.19	52753.63
600.39	52350.18
600.59	52485.34
600.79	52651.23
600.98	52397.28
601.18	52526.30
601.38	52909.27
601.58	52946.14
601.78	52946.14
601.97	52602.08
602.17	53165.27
602.37	52980.95
602.57	53195.99
602.76	53130.45
602.96	53355.73
603.16	53566.67
603.36	53290.19
603.55	53607.63
603.75	53417.17
603.95	53386.45
604.15	53449.94
604.34	53325.01
604.54	53630.16
604.74	53748.94
604.94	53757.13
605.13	53890.25
605.33	53771.47
605.53	53832.91
605.73	53927.11
605.92	54121.67
606.12	54154.44
606.32	54447.30
606.52	53888.20
606.71	54363.33
606.91	54381.76
607.11	54133.96
607.30	54512.83
607.50	54361.28
607.70	54441.15
607.90	54152.39
608.09	54817.98
608.29	54656.19
608.49	54719.68
608.68	54449.35
608.88	54983.86
609.08	54584.51
609.28	54850.75
609.47	54398.15
609.67	54944.95
609.87	54998.20
610.06	54752.44
610.26	55270.58
610.46	54916.28
610.66	54691.01
610.85	55002.30
611.05	54908.09
611.25	55297.20
611.44	54906.04
611.64	55260.34
611.84	55016.63
612.03	55315.64
612.23	55536.82
612.43	55231.67
612.62	55164.09
612.82	55571.63
613.02	55268.53
613.21	55424.18
613.41	55372.98
613.61	55458.99
613.80	55092.41
614.00	55522.48
614.20	55557.30
614.39	55428.27
614.59	56042.66
614.79	55162.04
614.98	54967.48
615.18	55354.55
615.38	55620.78
615.57	54981.82
615.77	55628.98
615.97	55663.79
616.16	55571.63
616.36	55553.20
616.56	56061.10
616.75	55485.62
616.95	55469.23
617.15	55518.38
617.34	55372.98
617.54	55448.75
617.74	55514.29
617.93	56192.17
618.13	55323.83
618.32	56077.48
618.52	55205.05
618.72	55678.13
618.91	55651.50
619.11	55045.30
619.31	55649.45
619.50	55655.60
619.70	55655.60
619.90	55714.99
620.09	55803.05
620.29	55463.09
620.48	55489.71
620.68	56120.49
620.88	55104.70
621.07	55631.02
621.27	55567.54
621.46	55565.49
621.66	55958.70
621.86	55055.54
622.05	55577.78
622.25	56026.28
622.44	56009.90
622.64	55696.56
622.84	55657.65
623.03	55280.82
623.23	55743.66
623.42	55833.77
623.62	55762.09
623.82	55917.74
624.01	55555.25
624.21	56210.60
624.40	55864.49
624.60	55559.34
624.80	55487.67
624.99	56259.75
625.19	55653.55
625.38	55702.70
625.58	55856.30
625.77	56220.84
625.97	55526.58
626.17	55555.25
626.36	55805.10
626.56	55682.22
626.75	55137.46
626.95	55989.42
627.14	55508.14
627.34	56136.87
627.54	55876.78
627.73	55755.95
627.93	55362.74
628.12	55465.14
628.32	56108.20
628.51	55770.28
628.71	55639.22
628.90	55358.64
629.10	55708.85
629.30	56069.29
629.49	55614.64
629.69	55583.92
629.88	55248.05
630.08	56093.86
630.27	56022.19
630.47	55956.65
630.66	55821.48
630.86	56009.90
631.05	55512.24
631.25	56362.15
631.44	55743.66
631.64	55520.43
631.84	55844.01
632.03	56337.57
632.23	55985.32
632.42	56261.80
632.62	55950.51
632.81	55524.53
633.01	55631.02
633.20	55887.02
633.40	56220.84
633.59	55735.47
633.79	55547.06
633.98	56044.71
634.18	56134.82
634.37	56038.57
634.57	56063.14
634.76	56351.91
634.96	55956.65
635.15	55909.55
635.35	55940.27
635.54	55835.82
635.74	56339.62
635.93	55772.33
636.13	56413.35
636.32	56171.69
636.52	55919.79
636.71	56186.02
636.91	55815.34
637.10	56091.82
637.30	55925.93
637.49	56300.71
637.69	56018.09
637.88	56433.83
638.08	55522.48
638.27	56138.92
638.46	55579.82
638.66	55956.65
638.85	56001.71
639.05	56159.40
639.24	55792.81
639.44	56186.02
639.63	56218.79
639.83	56495.27
640.02	56259.75
640.22	56360.10
640.41	56308.90
640.61	55753.90
640.80	56241.32
640.99	56231.08
641.19	56814.75
641.38	56120.49
641.58	56083.62
641.77	56057.00
641.97	55964.84
642.16	56249.51
642.36	56917.15
642.55	56841.37
642.74	56171.69
642.94	56710.30
643.13	55891.12
643.33	56532.13
643.52	56394.92
643.72	56595.62
643.91	56767.65
644.10	56997.02
644.30	56681.63
644.49	56550.56
644.69	56790.17
644.88	56190.12
645.08	56284.33
645.27	56513.70
645.46	56231.08
645.66	56718.49
645.85	56407.20
646.05	56671.39
646.24	56575.14
646.43	56337.57
646.63	56550.56
646.82	56476.83
647.02	56700.06
647.21	56808.61
647.40	56321.19
647.60	56786.08
647.79	56478.88
647.99	56759.45
648.18	56700.06
648.37	57586.83
648.57	57042.07
648.76	56552.61
648.96	56597.66
649.15	57267.35
649.34	57562.26
649.54	56804.51
649.73	56534.18
649.92	57029.79
650.12	56945.82
650.31	57046.17
650.51	56974.49
650.70	56951.96
650.89	56728.73
651.09	57406.61
651.28	57201.82
651.47	56888.48
651.67	56968.35
651.86	57388.18
652.06	56761.50
652.25	56728.73
652.44	56956.06
652.64	57037.98
652.83	56911.00
653.02	56671.39
653.22	56718.49
653.41	56808.61
653.60	57126.04
653.80	56906.91
653.99	57095.32
654.18	56958.11
654.38	57328.79
654.57	57525.39
654.76	56849.56
654.96	57152.66
655.15	56751.26
655.34	56816.80
655.54	56695.97
655.73	57109.66
655.92	57384.08
656.12	57017.50
656.31	57138.33
656.50	57109.66
656.70	57466.00
656.89	57134.23
657.08	57115.80
657.28	57181.34
657.47	56949.92
657.66	57427.09
657.86	56812.70
658.05	57353.36
658.24	57420.95
658.43	56982.68
658.63	57326.74
658.82	57324.69
659.01	57447.57
659.21	57406.61
659.40	57623.70
659.59	57083.03
659.79	57572.50
659.98	57648.27
660.17	57300.12
660.36	57164.95
660.56	56935.58
660.75	57324.69
660.94	57308.31
661.14	57379.99
661.33	57420.95
661.52	56644.77
661.71	57312.41
661.91	56634.53
662.10	56966.30
662.29	57539.73
662.49	57189.53
662.68	57091.22
662.87	57298.07
663.06	57437.33
663.26	57177.24
663.45	57795.73
663.64	57302.17
663.83	57525.39
664.03	57382.04
664.22	57210.01
664.41	57603.22
664.60	57394.32
664.80	57384.08
664.99	57250.97
665.18	56861.85
665.37	57762.96
665.57	57611.41
665.76	57060.51
665.95	57746.57
666.14	56908.96
666.34	57681.04
666.53	57158.81
666.72	57359.51
666.91	57113.75
667.11	56978.59
667.30	56894.62
667.49	57289.88
667.68	57158.81
667.87	57025.69
668.07	57027.74
668.26	57513.11
668.45	57484.43
668.64	56726.69
668.84	57377.94
669.03	57490.58
669.22	57472.15
669.41	57406.61
669.60	57167.00
669.80	57367.70
669.99	57398.42
670.18	57398.42
670.37	56978.59
670.57	57650.32
670.76	56894.62
670.95	57695.38
671.14	57193.62
671.33	57250.97
671.53	58012.81
671.72	57259.16
671.91	57152.66
672.10	56849.56
672.29	57310.36
672.48	57332.89
672.68	57396.37
672.87	56810.65
673.06	57324.69
673.25	57308.31
673.44	56999.07
673.64	57025.69
673.83	56859.80
674.02	57140.38
674.21	56863.90
674.40	56951.96
674.59	56908.96
674.79	56939.68
674.98	56988.83
675.17	57142.42
675.36	56902.81
675.55	56833.18
675.74	56935.58
675.94	56855.71
676.13	56861.85
676.32	56810.65
676.51	56997.02
676.70	57300.12
676.89	56827.04
677.08	57019.55
677.28	56876.19
677.47	57136.28
677.66	57500.82
677.85	56712.35
678.04	57019.55
678.23	57308.31
678.42	56904.86
678.62	57179.29
678.81	57365.65
679.00	56824.99
679.19	57418.90
679.38	56751.26
679.57	56693.92
679.76	57310.36
679.96	57089.18
680.15	57074.84
680.34	57287.83
680.53	56747.17
680.72	56874.14
680.91	57255.06
681.10	56847.52
681.29	57250.97
681.48	56677.54
681.68	56818.84
681.87	56757.41
682.06	56814.75
682.25	56401.06
682.44	56515.75
682.63	56980.63
682.82	56343.72
683.01	56517.79
683.20	56093.86
683.39	56634.53
683.59	56378.53
683.78	56198.31
683.97	56358.05
684.16	56642.72
684.35	56515.75
684.54	56456.35
684.73	56229.03
684.92	56140.97
685.11	56190.12
685.30	56239.27
685.49	57021.59
685.69	56329.38
685.88	56394.92
686.07	55895.21
686.26	55833.77
686.45	56562.85
686.64	56396.96
686.83	56196.26
687.02	56366.24
687.21	56546.47
687.40	56366.24
687.59	56652.96
687.78	56100.01
687.97	56466.59
688.16	56042.66
688.35	56005.80
688.54	56241.32
688.74	56169.64
688.93	56126.63
689.12	56194.21
689.31	55956.65
689.50	56292.52
689.69	55602.35
689.88	55547.06
690.07	55991.47
690.26	56061.10
690.45	56251.56
690.64	56241.32
690.83	55674.03
691.02	55909.55
691.21	55868.59
691.40	55626.93
691.59	56204.45
691.78	55952.55
691.97	56251.56
692.16	55979.18
692.35	55966.89
692.54	55907.50
692.73	55921.83
692.92	55588.02
693.11	55645.36
693.30	56132.78
693.49	55536.82
693.68	55874.73
693.87	55649.45
694.06	55590.06
694.25	55749.81
694.44	55547.06
694.63	56038.57
694.82	55545.01
695.01	55110.84
695.20	55393.46
695.39	55411.89
695.58	55358.64
695.77	55041.21
695.96	55299.25
696.15	55409.84
696.34	55133.37
696.53	55239.86
696.72	55542.96
696.91	55678.13
697.10	55426.23
697.29	55276.72
697.48	55139.51
697.67	54969.53
697.86	54834.36
698.05	54891.71
698.24	55358.64
698.43	54807.74
698.62	54963.39
698.81	54727.87
699.00	54994.10
699.19	54961.34
699.38	55219.38
699.57	54957.24
699.76	55182.52
699.95	54654.14
700.14	54467.78
700.32	54820.03
700.51	54983.86
700.70	55010.49
700.89	55051.45
701.08	54994.10
701.27	54222.02
701.46	54934.71
701.65	54289.60
701.84	54578.37
702.03	54465.73
702.22	54373.57
702.41	54736.06
702.60	54561.98
702.79	54705.34
702.98	54052.04
703.17	54764.73
703.35	54199.49
703.54	54543.55
703.73	54639.81
703.92	54146.25
704.11	54404.29
704.30	54000.84
704.49	54275.27
704.68	54045.90
704.87	54047.94
705.06	54185.16
705.25	53726.41
705.43	54209.73
705.62	54107.33
705.81	53705.93
706.00	53871.82
706.19	53372.11
706.38	53693.64
706.57	53681.36
706.76	53621.97
706.95	53628.11
707.14	53521.62
707.32	53923.02
707.51	53425.36
707.70	53771.47
707.89	53548.24
708.08	53720.27
708.27	53730.51
708.46	53566.67
708.65	53937.35
708.84	54031.56
709.02	53912.78
709.21	53736.65
709.40	53310.67
709.59	53669.07
709.78	53114.07
709.97	53716.17
710.16	53378.26
710.34	53077.21
710.53	53210.32
710.72	52919.51
710.91	53107.93
711.10	53476.56
711.29	53376.21
711.48	53435.60
711.66	52983.00
711.85	53142.74
712.04	53236.95
712.23	53462.22
712.42	52864.22
712.61	52925.66
712.80	53077.21
712.98	53411.02
713.17	52987.10
713.36	52948.18
713.55	52993.24
713.74	52810.97
713.93	52538.59
714.11	52985.05
714.30	52581.60
714.49	52606.17
714.68	52450.53
714.87	53052.63
715.06	52757.72
715.24	52471.01
715.43	52651.23
715.62	52327.65
715.81	52659.42
716.00	52366.56
716.18	52126.95
716.37	52487.39
716.56	52499.68
716.75	52907.22
716.94	52092.13
717.12	52153.57
717.31	52464.86
717.50	52233.44
717.69	52401.38
717.88	52450.53
718.06	52067.56
718.25	52301.03
718.44	51610.86
718.63	52079.85
718.82	51617.00
719.00	51614.96
719.19	51721.45
719.38	51807.47
719.57	51193.07
719.76	51016.95
719.94	51164.40
720.13	51172.60
720.32	51383.54
720.51	51428.59
720.69	51119.35
720.88	51545.33
721.07	51156.21
721.26	50681.08
721.44	50590.97
721.63	50928.89
721.82	50916.60
722.01	50865.40
722.20	50703.61
722.38	50644.22
722.57	50380.03
722.76	50754.81
722.95	50648.32
723.13	50263.30
723.32	50357.50
723.51	50367.74
723.70	50189.57
723.88	50423.04
724.07	50384.13
724.26	50545.92
724.44	49984.77
724.63	50189.57
724.82	50124.04
725.01	49782.02
725.19	50222.34
725.38	49796.36
725.57	49827.08
725.76	50613.50
725.94	49726.73
726.13	49644.81
726.32	49812.74
726.51	49478.92
726.69	49997.06
726.88	49949.96
727.07	49810.70
727.25	49558.80
727.44	49863.94
727.63	49339.66
727.82	49853.70
728.00	49378.57
728.19	49466.64
728.38	49601.80
728.56	48864.53
728.75	49698.06
728.94	49560.84
729.12	49601.80
729.31	49685.77
729.50	49358.09
729.69	49722.63
729.87	49708.30
730.06	49294.61
730.25	49362.19
730.43	49982.73
730.62	49591.56
730.81	49653.00
730.99	49843.46
731.18	49184.02
731.37	49362.19
731.55	49708.30
731.74	49601.80
731.93	49403.15
732.11	49366.29
732.30	49575.18
732.49	49136.91
732.67	49292.56
732.86	49292.56
733.05	49661.19
733.23	49079.57
733.42	48975.12
733.61	49493.26
733.79	49292.56
733.98	49208.59
734.17	49300.75
734.35	49020.18
734.54	49411.34
734.73	49528.08
734.91	49108.24
735.10	48991.51
735.29	49583.37
735.47	48741.66
735.66	49288.46
735.84	48715.03
736.03	48758.04
736.22	49519.88
736.40	48737.56
736.59	49462.54
736.78	48999.70
736.96	49052.95
737.15	49014.04
737.33	48835.86
737.52	48231.71
737.71	48590.11
737.89	48764.18
738.08	48250.14
738.27	48342.30
738.45	48962.84
738.64	48530.72
738.82	48469.28
739.01	49009.94
739.20	48682.27
739.38	48391.45
739.57	48782.62
739.75	48473.37
739.94	48145.70
740.13	48430.36
740.31	47965.48
740.50	48317.73
740.68	48198.94
740.87	48639.26
741.06	48700.70
741.24	48299.30
741.43	48330.01
741.61	48407.84
741.80	47490.35
741.99	47713.58
742.17	48155.94
742.36	47957.28
742.54	47922.47
742.73	48080.16
742.91	48031.01
743.10	47762.73
743.29	48530.72
743.47	48190.75
743.66	47863.08
743.84	47775.02
744.03	47951.14
744.21	47652.14
744.40	48710.94
744.59	47379.76
744.77	47785.25
744.96	47478.06
745.14	47916.32
745.33	47566.12
745.51	47777.06
745.70	48049.44
745.88	47756.58
746.07	47719.72
746.26	47019.31
746.44	47324.46
746.63	47308.08
746.81	47609.13
747.00	47070.51
747.18	47332.65
747.37	47316.27
747.55	47201.58
747.74	47598.89
747.92	47312.17
748.11	47117.62
748.29	47226.16
748.48	46929.20
748.66	47078.71
748.85	46601.53
749.03	46841.14
749.22	46505.27
749.41	46675.26
749.59	47215.92
749.78	46411.07
749.96	46452.03
750.15	46681.40
750.33	46734.65
750.52	46751.03
750.70	46681.40
750.89	46355.77
751.07	46251.33
751.26	46333.24
751.44	46570.81
751.63	46785.85
751.81	46341.44
752.00	46298.43
752.18	46925.11
752.37	46021.95
752.55	45778.25
752.74	45882.69
752.92	45708.61
753.10	45989.19
753.29	45874.50
753.47	45997.38
753.66	45684.04
753.84	46095.68
754.03	46361.92
754.21	45593.93
754.40	45749.57
754.58	46062.91
754.77	45989.19
754.95	45464.91
755.14	45571.40
755.32	45561.16
755.51	45620.55
755.69	45438.28
755.88	45231.44
756.06	45239.63
756.24	45526.35
756.43	45034.83
756.61	45116.75
756.80	45280.59
756.98	45366.60
757.17	45147.47
757.35	45481.29
757.54	44774.74
757.72	45253.97
757.90	45010.26
758.09	44590.42
758.27	45090.13
758.46	44578.14
758.64	44606.81
758.83	45204.81
759.01	44778.84
759.19	44610.90
759.38	44832.08
759.56	45356.36
759.75	44780.88
759.93	44682.58
760.12	44381.53
760.30	44643.67
760.48	44799.32
760.67	44520.79
760.85	44676.44
761.04	44416.35
761.22	44215.65
761.40	44776.79
761.59	44221.79
761.77	43881.83
761.96	44283.23
762.14	43847.01
762.32	43613.54
762.51	44215.65
762.69	43867.49
762.88	43674.98
763.06	44080.48
763.24	43539.82
763.43	43851.11
763.61	43621.73
763.80	43388.27
763.98	43806.05
764.16	43603.30
764.35	43470.18
764.53	43416.94
764.72	43472.23
764.90	43332.97
765.08	43461.99
765.27	43515.24
765.45	43115.89
765.63	42952.05
765.82	43038.06
766.00	42597.75
766.18	43287.92
766.37	43234.67
766.55	43068.78
766.74	43023.73
766.92	42546.55
767.10	43074.93
767.29	42970.48
767.47	42503.54
767.65	42943.86
767.84	42452.34
768.02	42458.49
768.20	42321.27
768.39	42587.51
768.57	42507.64
768.75	42464.63
768.94	42546.55
769.12	42620.28
769.30	42569.08
769.49	42407.29
769.67	42032.51
769.85	41639.30
770.04	41940.35
770.22	41860.48
770.40	41743.75
770.59	42005.89
770.77	41573.77
770.95	41934.21
771.14	41485.70
771.32	41096.59
771.50	41170.32
771.69	41565.57
771.87	41766.27
772.05	41721.22
772.24	41158.03
772.42	41334.15
772.60	41102.73
772.78	41317.77
772.97	41119.12
773.15	41328.01
773.33	41358.73
773.52	40813.97
773.70	41332.11
773.88	41041.29
774.07	41260.43
774.25	41133.45
774.43	41246.09
774.61	41491.85
774.80	40965.52
774.98	41479.56
775.16	41432.46
775.34	41547.14
775.53	41031.05
775.71	41682.31
775.89	41233.80
776.08	41297.29
776.26	41645.44
776.44	41233.80
776.62	41536.90
776.81	41287.05
776.99	41160.08
777.17	41424.26
777.35	41287.05
777.54	41450.89
777.72	41014.67
777.90	41274.76
778.08	41854.34
778.27	41194.89
778.45	41837.95
778.63	41663.88
778.81	41594.25
779.00	41620.87
779.18	41575.81
779.36	41364.87
779.54	41745.80
779.73	41545.09
779.91	41713.03
780.09	41430.41
780.27	41766.27
780.46	41878.91
780.64	41772.42
780.82	41893.25
781.00	41825.67
781.19	42014.08
781.37	42126.72
781.55	41903.49
781.73	42050.94
781.91	41815.43
782.10	41825.67
782.28	41971.07
782.46	41891.20
782.64	42507.64
782.82	41674.12
783.01	42274.17
783.19	42245.50
783.37	42358.14
783.55	41647.49
783.74	42100.09
783.92	41684.36
784.10	42628.47
784.28	41915.78
784.46	41737.60
784.64	41362.82
784.83	41794.95
785.01	42296.70
785.19	42005.89
785.37	42337.66
785.55	41940.35
785.74	41565.57
785.92	41710.98
786.10	42218.88
786.28	41930.11
786.46	41457.03
786.64	41454.98
786.83	41923.97
787.01	41950.59
787.19	41762.18
787.37	41489.80
787.55	41446.79
787.74	41416.07
787.92	41569.67
788.10	41588.10
788.28	41332.11
788.46	41469.32
788.64	41092.49
788.82	41608.58
789.01	41262.47
789.19	40992.14
789.37	41192.84
789.55	40967.57
789.73	40719.76
789.91	40881.55
790.09	40654.23
790.28	40938.90
790.46	40543.64
790.64	40877.46
790.82	40357.27
791.00	40396.18
791.18	40514.97
791.36	40299.93
791.55	40306.07
791.73	40531.35
791.91	39966.11
792.09	39914.91
792.27	40215.96
792.45	39900.58
792.63	39701.92
792.81	39550.37
793.00	39794.08
793.18	39859.62
793.36	39585.19
793.54	39460.26
793.72	39237.03
793.90	39802.27
794.08	39277.99
794.26	39482.79
794.44	38880.69
794.62	38698.42
794.81	38835.63
794.99	39212.46
795.17	38700.47
795.35	39017.90
795.53	39026.09
795.71	38839.73
795.89	38630.83
796.07	38448.57
796.25	38118.84
796.43	38217.14
796.61	37662.15
796.80	37844.41
796.98	38030.78
797.16	37944.76
797.34	37926.33
797.52	38049.21
797.70	37905.85
797.88	37469.64
798.06	37504.45
798.24	37565.89
798.42	37598.66
798.60	37418.44
798.78	37279.18
798.96	37385.67
799.14	37066.19
799.32	37359.05
799.51	36503.00
799.69	37258.70
799.87	36888.01
800.05	36427.22
800.23	36879.82
800.41	36584.91
800.59	36806.09
800.77	36443.60
800.95	36152.79
801.13	36296.15
801.31	36036.06
801.49	35960.28
801.67	36042.20
801.85	36218.33
802.03	35921.37
802.21	35661.28
802.39	35683.81
802.57	35810.78
802.75	35501.54
802.93	35546.59
803.11	35284.45
803.29	35427.81
803.47	35274.21
803.65	35331.56
803.83	35177.96
804.01	35147.24
804.19	34418.16
804.37	34506.23
804.55	34588.14
804.73	34981.35
804.91	34772.46
805.09	34481.65
805.27	34491.89
805.45	34600.43
805.63	34262.52
805.81	34313.72
805.99	34682.35
806.17	34258.42
806.35	34366.96
806.53	34051.58
806.71	33652.22
806.89	34010.62
807.07	34012.66
807.25	33916.41
807.43	33627.65
807.61	34260.47
807.79	33730.05
807.97	33592.83
808.15	33295.88
808.33	33482.24
808.51	33279.49
808.69	33166.85
808.87	32753.16
809.05	32921.10
809.23	32800.27
809.41	32693.77
809.59	32777.74
809.77	33009.16
809.95	32634.38
810.13	33043.98
810.31	32925.19
810.49	32488.98
810.67	32484.88
810.84	32583.18
811.02	32710.16
811.20	31995.42
811.38	32196.12
811.56	31903.26
811.74	32095.77
811.92	32118.29
812.10	32112.15
812.28	32271.89
812.46	31829.53
812.64	32239.12
812.82	31690.27
813.00	31845.91
813.18	31936.02
813.36	31747.61
813.53	31696.41
813.71	31888.92
813.89	31043.11
814.07	31436.32
814.25	31450.66
814.43	31401.50
814.61	31163.94
814.79	31305.25
814.97	31063.59
815.15	31043.11
815.33	30864.94
815.50	30826.03
815.68	31399.46
815.86	31174.18
816.04	30828.07
816.22	30484.01
816.40	30600.75
816.58	30338.61
816.76	30254.64
816.94	30629.42
817.11	30438.96
817.29	30828.07
817.47	30078.52
817.65	30129.72
817.83	30281.27
818.01	30029.37
818.19	30363.18
818.37	30305.84
818.54	29965.88
818.72	29879.86
818.90	30041.65
819.08	29888.06
819.26	30090.80
819.44	29535.81
819.62	29802.04
819.80	29726.27
819.97	29636.16
820.15	29947.45
820.33	29378.11
820.51	29865.53
820.69	29449.79
820.87	29646.40
821.05	29394.50
821.22	29539.90
821.40	29300.29
821.58	29161.03
821.76	28925.51
821.94	28956.23
822.12	29111.88
822.29	29158.98
822.47	29009.48
822.65	29023.81
822.83	28880.46
823.01	29109.83
823.19	28935.75
823.36	28706.38
823.54	28620.36
823.72	28700.23
823.90	28563.02
824.08	28646.99
824.25	28546.64
824.43	28513.87
824.61	28651.08
824.79	28593.74
824.97	28649.03
825.15	28499.53
825.32	28257.87
825.50	28354.13
825.68	28288.59
825.86	28599.88
826.04	28610.12
826.21	28091.99
826.39	28333.65
826.57	28003.92
826.75	27905.62
826.93	27844.18
827.10	28153.43
827.28	27872.85
827.46	28182.10
827.64	27856.47
827.81	27446.88
827.99	27903.57
828.17	27860.57
828.35	27448.93
828.53	27508.32
828.70	27565.66
828.88	27508.32
829.06	27348.57
829.24	27401.82
829.41	27100.77
829.59	27575.90
829.77	27532.89
829.95	27379.29
830.12	27340.38
830.30	27418.21
830.48	27436.64
830.66	27178.59
830.84	27407.97
831.01	27420.25
831.19	27430.49
831.37	27293.28
831.55	26826.34
831.72	27051.62
831.90	27182.69
832.08	27051.62
832.25	27020.90
832.43	27045.48
832.61	26601.07
832.79	26769.00
832.96	26789.48
833.14	26660.46
833.32	26816.10
833.50	27043.43
833.67	26748.52
833.85	26814.05
834.03	26259.06
834.20	26527.34
834.38	26711.66
834.56	26828.39
834.74	26386.03
834.91	26435.18
835.09	26416.75
835.27	26168.94
835.44	26330.73
835.62	25833.08
835.80	25859.70
835.98	26170.99
836.15	26041.97
836.33	25699.96
836.51	26279.54
836.68	26109.55
836.86	26025.59
837.04	26078.83
837.21	26097.27
837.39	25822.84
837.57	26039.92
837.75	25851.51
837.92	25650.81
838.10	26039.92
838.28	25532.03
838.45	25689.72
838.63	25564.79
838.81	25702.01
838.98	25568.89
839.16	25364.09
839.34	25470.59
839.51	25419.39
839.69	25228.93
839.87	25284.22
840.04	25493.12
840.22	25497.21
840.40	25392.76
840.57	24981.12
840.75	25355.90
840.93	25128.58
841.10	25273.98
841.28	25560.70
841.46	25388.67
841.63	25452.16
841.81	25400.96
841.98	25013.89
842.16	25136.77
842.34	25085.57
842.51	24856.20
842.69	25087.62
842.87	25069.19
843.04	25101.95
843.22	24682.12
843.40	24696.46
843.57	24841.86
843.75	24798.85
843.92	24716.93
844.10	24870.53
844.28	25134.72
844.45	24737.41
844.63	24843.91
844.81	24467.08
844.98	24643.21
845.16	24841.86
845.33	24706.70
845.51	24401.55
845.69	24516.23
845.86	24395.40
846.04	24157.84
846.21	24448.65
846.39	24184.46
846.57	24303.25
846.74	24495.75
846.92	24180.37
847.09	24229.52
847.27	24299.15
847.45	24030.87
847.62	24018.58
847.80	24176.27
847.97	24155.79
848.15	23848.60
848.32	24010.39
848.50	24168.08
848.68	23813.78
848.85	23832.21
849.03	23584.41
849.20	23787.16
849.38	23864.98
849.56	23864.98
849.73	23727.77
849.91	23613.08
850.08	23832.21
850.26	23615.13
850.43	23627.42
850.61	23594.65
850.78	23322.27
850.96	23426.71
851.14	23213.73
851.31	23594.65
851.49	23266.97
851.66	23711.38
851.84	23285.40
852.01	23367.32
852.19	23250.59
852.36	23127.71
852.54	23150.24
852.71	23461.53
852.89	23324.32
853.07	23309.98
853.24	23158.43
853.42	23037.60
853.59	23377.56
853.77	23291.55
853.94	23418.52
854.12	23398.04
854.29	22822.56
854.47	23013.02
854.64	22849.19
854.82	22957.73
854.99	23058.08
855.17	23158.43
855.34	22695.59
855.52	22869.67
855.69	23023.26
855.87	22904.48
856.04	22671.01
856.22	22433.45
856.39	22695.59
856.57	22781.60
856.74	22623.91
856.92	22519.46
857.09	22329.00
857.27	22531.75
857.44	22718.12
857.62	22474.41
857.79	22582.95
857.97	22408.87
858.14	22292.14
858.32	22367.91
858.49	22410.92
858.67	22374.06
858.84	21982.90
859.02	22212.27
859.19	22130.35
859.37	22163.12
859.54	22052.53
859.72	22097.58
859.89	22300.33
860.06	21993.14
860.24	22150.83
860.41	22091.44
860.59	22195.89
860.76	22318.76
860.94	21644.98
861.11	22195.89
861.29	22017.71
861.46	21757.62
861.64	21456.57
861.81	21757.62
861.98	21886.64
862.16	21792.44
862.33	21237.44
862.51	21462.71
862.68	21868.21
862.86	21667.51
863.03	21800.63
863.21	21348.03
863.38	21509.82
863.55	21153.47
863.73	21628.60
863.90	21571.25
864.08	21495.48
864.25	21321.40
864.43	21540.54
864.60	21374.65
864.77	20956.86
864.95	21192.38
865.12	21163.71
865.30	21167.80
865.47	21186.24
865.64	21233.34
865.82	21423.80
865.99	21192.38
866.17	20756.16
866.34	21335.74
866.51	21030.59
866.69	20999.87
866.86	21169.85
867.04	20709.06
867.21	20936.38
867.38	20825.79
867.56	20825.79
867.73	20678.34
867.91	20541.13
868.08	20727.49
868.25	20651.72
868.43	20709.06
868.60	20530.89
868.78	20410.06
868.95	20631.24
869.12	20496.07
869.30	20362.95
869.47	20395.72
869.64	20274.89
869.82	20143.82
869.99	20201.16
870.16	20500.17
870.34	20365.00
870.51	20514.50
870.69	20221.64
870.86	20317.90
871.03	20367.05
871.21	19666.64
871.38	20133.58
871.55	20352.71
871.73	19994.32
871.90	19816.15
872.07	19910.35
872.25	19504.85
872.42	19898.06
872.59	19515.09
872.77	19752.66
872.94	20049.61
873.11	19803.86
873.29	19537.62
873.46	19490.52
873.63	19656.40
873.81	19658.45
873.98	19336.92
874.15	19394.26
874.33	19455.70
874.50	19238.62
874.67	19412.70
874.85	19195.61
875.02	19140.32
875.19	19128.03
875.37	19171.04
875.54	18915.04
875.71	18980.57
875.88	19128.03
876.06	19136.22
876.23	19078.88
876.40	18898.66
876.58	18943.71
876.75	18999.01
876.92	18788.07
877.10	18990.81
877.27	18835.17
877.44	18923.23
877.61	18628.32
877.79	18630.37
877.96	18693.86
878.13	18466.53
878.31	18204.39
878.48	18394.86
878.65	18507.49
878.82	18243.31
879.00	18501.35
879.17	18265.83
879.34	18190.06
879.51	18368.23
879.69	18274.03
879.86	18042.60
880.03	18114.28
880.21	18188.01
880.38	18050.80
880.55	18241.26
880.72	17936.11
880.90	18155.24
881.07	18142.96
881.24	17936.11
881.41	18149.10
881.59	18001.65
881.76	17889.01
881.93	17729.27
882.10	17751.79
882.28	17585.91
882.45	17991.41
882.62	17528.56
882.79	17630.96
882.96	17366.78
883.14	17854.19
883.31	17630.96
883.48	17651.44
883.65	17706.74
883.83	17815.28
884.00	17495.80
884.17	17516.28
884.34	17458.93
884.51	17530.61
884.69	17372.92
884.86	17579.76
885.03	17317.62
885.20	17561.33
885.38	17501.94
885.55	17403.64
885.72	17344.25
885.89	17479.41
886.06	17043.20
886.24	17309.43
886.41	17178.36
886.58	17612.53
886.75	17702.64
886.92	17127.16
887.10	17116.92
887.27	17035.00
887.44	16903.93
887.61	16996.09
887.78	17387.25
887.95	17280.76
888.13	16860.93
888.30	17020.67
888.47	16934.65
888.64	16977.66
888.81	17125.11
888.99	16748.29
889.16	16674.56
889.33	16547.59
889.50	16602.88
889.67	16635.65
889.84	16490.24
890.01	16701.19
890.19	16684.80
890.36	16611.07
890.53	16719.62
890.70	16453.38
890.87	16690.95
891.04	16254.73
891.22	16613.12
891.39	16410.37
891.56	16375.56
891.73	16527.11
891.90	16230.15
892.07	16381.70
892.24	16285.45
892.42	16099.08
892.59	16275.21
892.76	16336.65
892.93	16054.03
893.10	16148.23
893.27	16285.45
893.44	15896.33
893.61	15965.96
893.79	16221.96
893.96	15990.54
894.13	15984.40
894.30	16156.43
894.47	16144.14
894.64	15982.35
894.81	16054.03
894.98	15908.62
895.15	15959.82
895.33	16019.21
895.50	15951.63
895.67	16172.81
895.84	15890.19
896.01	15976.20
896.18	15595.28
896.35	15968.01
896.52	15937.29
896.69	15867.66
896.86	15998.73
897.04	16234.25
897.21	15820.56
897.38	15759.12
897.55	15638.29
897.72	15970.06
897.89	15595.28
898.06	15884.05
898.23	15896.33
898.40	15773.46
898.57	15697.68
898.74	15654.67
898.91	15537.94
899.08	15738.64
899.26	15775.50
899.43	15951.63
899.60	15550.23
899.77	15824.65
899.94	15783.70
900.11	15628.05
900.28	15806.22
900.45	15503.12
900.62	15593.23
900.79	15953.68
900.96	15750.93
901.13	15501.08
901.30	15572.75
901.47	15378.20
901.64	15669.01
901.81	15738.64
901.98	15642.39
902.15	15879.95
902.32	15675.15
902.49	15666.96
902.66	15728.40
902.83	15965.96
903.01	15511.32
903.18	15836.94
903.35	15623.95
903.52	15828.75
903.69	15730.45
903.86	15941.39
904.03	15568.66
904.20	15814.41
904.37	15570.71
904.54	15476.50
904.71	15490.84
904.88	15750.93
905.05	15902.48
905.22	15980.30
905.39	15816.46
905.56	15580.95
905.73	15642.39
905.90	15585.04
906.07	15810.32
906.24	15646.48
906.41	15787.79
906.58	15546.13
906.75	15644.43
906.92	15445.78
907.09	15570.71
907.26	15802.13
907.43	15335.19
907.60	15550.23
907.77	15640.34
907.93	15523.60
908.10	15556.37
908.27	15732.50
908.44	15537.94
908.61	15521.56
908.78	15482.64
908.95	15615.76
909.12	15597.33
909.29	15464.21
909.46	15427.35
909.63	15529.75
909.80	15654.67
909.97	15460.12
910.14	15415.06
910.31	15365.91
910.48	15382.29
910.65	15322.90
910.82	15134.49
910.99	15322.90
911.16	15679.25
911.33	15286.04
911.50	15351.57
911.66	15410.96
911.83	15222.55
912.00	15191.83
912.17	15243.03
912.34	15150.87
912.51	15093.53
912.68	15130.39
912.85	15056.67
913.02	14948.12
913.19	15068.95
913.36	15130.39
913.53	15068.95
913.70	14780.19
913.86	15036.19
914.03	14937.88
914.20	14866.21
914.37	14862.11
914.54	14851.87
914.71	14835.49
914.88	14606.11
915.05	14722.85
915.22	14679.84
915.39	14552.87
915.55	14565.15
915.72	14407.46
915.89	14573.35
916.06	14548.77
916.23	14675.74
916.40	14487.33
916.57	14311.21
916.74	14264.10
916.91	14407.46
917.07	14182.18
917.24	14167.85
917.41	14321.45
917.58	14204.71
917.75	14053.16
917.92	13995.82
918.09	14018.35
918.26	13872.94
918.42	14090.02
918.59	13977.39
918.76	13897.52
918.93	13809.45
919.10	13795.12
919.27	13930.28
919.44	13944.62
919.60	14067.50
919.77	13737.77
919.94	13705.01
920.11	13588.27
920.28	13780.78
920.45	13512.50
920.61	13401.91
920.78	13324.08
920.95	13356.85
921.12	13270.84
921.29	13330.23
921.46	13397.81
921.62	13029.18
921.79	13315.89
921.96	13020.99
922.13	13061.94
922.30	13012.79
922.47	12965.69
922.63	13125.43
922.80	12896.06
922.97	12732.22
923.14	12549.95
923.31	12916.54
923.47	12799.80
923.64	12785.47
923.81	12631.87
923.98	12621.63
924.15	12420.93
924.32	12439.36
924.48	12494.66
924.65	12617.54
924.82	12474.18
924.99	12107.59
925.15	12253.00
925.32	12271.43
925.49	12095.30
925.66	12076.87
925.83	11968.33
925.99	11994.95
926.16	11894.60
926.33	11923.27
926.50	11605.84
926.67	11716.43
926.83	11867.98
927.00	11573.07
927.17	11628.37
927.34	11507.54
927.50	11597.65
927.67	11837.26
927.84	11552.59
928.01	11497.30
928.17	11396.95
928.34	11327.32
928.51	11433.81
928.68	11222.87
928.84	11056.98
929.01	10921.82
929.18	11200.34
929.35	11059.03
929.51	11167.57
929.68	10872.67
929.85	10760.03
930.02	10788.70
930.18	10790.75
930.35	10876.76
930.52	10643.29
930.69	10800.99
930.85	10852.19
931.02	10690.40
931.19	10620.77
931.36	10520.42
931.52	10674.01
931.69	10526.56
931.86	10489.70
932.02	10319.71
932.19	10188.64
932.36	10506.08
932.53	10078.05
932.69	10057.57
932.86	10344.29
933.03	10084.20
933.19	9850.73
933.36	10086.25
933.53	9848.68
933.70	9887.59
933.86	9793.39
934.03	9764.72
934.20	9645.93
934.36	9600.88
934.53	9531.25
934.70	9244.53
934.86	9480.05
935.03	9267.06
935.20	9326.45
935.36	9285.49
935.53	9148.28
935.70	9080.69
935.86	9199.48
936.03	8879.99
936.20	8824.70
936.36	8755.07
936.53	8777.59
936.70	8759.16
936.86	8796.03
937.03	8644.48
937.20	8382.34
937.36	8523.65
937.53	8220.55
937.70	8226.69
937.86	8058.76
938.03	7982.98
938.20	8087.43
938.36	7813.00
938.53	7825.29
938.70	7427.98
938.86	7733.13
939.03	7544.72
939.20	7477.13
939.36	7251.86
939.53	7368.59
939.70	7497.61
939.86	7085.97
940.03	6907.80
940.19	6977.43
940.36	6993.81
940.53	6903.70
940.69	6766.49
940.86	6703.00
941.03	6664.09
941.19	6561.69
941.36	6518.68
941.52	6455.20
941.69	6344.61
941.86	6397.85
942.02	6141.86
942.19	6064.04
942.35	6234.02
942.52	6107.04
942.69	5978.02
942.85	6104.99
943.02	5846.95
943.18	5894.05
943.35	5935.01
943.52	5902.25
943.68	5826.47
943.85	5935.01
944.01	5820.33
944.18	5644.20
944.35	5803.94
944.51	5599.15
944.68	5607.34
944.84	5597.10
945.01	5582.76
945.17	5595.05
945.34	5580.71
945.51	5547.95
945.67	5533.61
945.84	5541.80
946.00	5461.93
946.17	5521.32
946.33	5375.92
946.50	5468.08
946.67	5427.12
946.83	5306.29
947.00	5332.91
947.16	5410.73
947.33	5310.38
947.49	5433.26
947.66	5230.51
947.82	5498.80
947.99	5289.90
948.16	5410.73
948.32	5539.76
948.49	5363.63
948.65	5351.34
948.82	5277.62
948.98	5250.99
949.15	5210.03
949.31	5400.49
949.48	5386.16
949.64	5406.64
949.81	5296.05
949.97	5236.66
950.14	5369.77
950.30	5291.95
950.47	5363.63
950.63	5357.49
950.80	5394.35
950.96	5468.08
951.13	5377.97
951.30	5412.78
951.46	5457.84
951.63	5429.17
951.79	5461.93
951.96	5541.80
952.12	5375.92
952.29	5388.21
952.45	5328.81
952.62	5566.38
952.78	5609.39
952.94	5423.02
953.11	5441.45
953.27	5345.20
953.44	5466.03
953.60	5427.12
953.77	5676.97
953.93	5472.17
954.10	5431.21
954.26	5439.40
954.43	5535.66
954.59	5529.52
954.76	5617.58
954.92	5523.37
955.09	5535.66
955.25	5316.53
955.42	5506.99
955.58	5517.23
955.75	5662.63
955.91	5506.99
956.07	5504.94
956.24	5539.76
956.40	5545.90
956.57	5615.53
956.73	5259.18
956.90	5560.24
957.06	5384.11
957.23	5404.59
957.39	5545.90
957.56	5572.52
957.72	5373.87
957.88	5500.84
958.05	5445.55
958.21	5492.65
958.38	5484.46
958.54	5459.88
958.71	5627.82
958.87	5337.01
959.03	5533.61
959.20	5527.47
959.36	5500.84
959.53	5437.36
959.69	5365.68
959.85	5539.76
960.02	5517.23
960.18	5394.35
960.35	5691.31
960.51	5615.53
960.68	5562.28
960.84	5558.19
961.00	5400.49
961.17	5392.30
961.33	5418.93
961.50	5451.69
961.66	5492.65
961.82	5494.70
961.99	5588.91
962.15	5459.88
962.31	5506.99
962.48	5474.22
962.64	5539.76
962.81	5439.40
962.97	5451.69
963.13	5558.19
963.30	5511.08
963.46	5404.59
963.62	5451.69
963.79	5435.31
963.95	5402.54
964.12	5439.40
964.28	5420.97
964.44	5492.65
964.61	5547.95
964.77	5472.17
964.93	5574.57
965.10	5451.69
965.26	5410.73
965.42	5371.82
965.59	5367.73
965.75	5201.84
965.92	5400.49
966.08	5271.47
966.24	5265.33
966.41	5269.42
966.57	5384.11
966.73	5349.29
966.90	5418.93
967.06	5355.44
967.22	5400.49
967.39	5287.86
967.55	5261.23
967.71	5271.47
967.88	5314.48
968.04	5205.94
968.20	5248.94
968.37	5345.20
968.53	5197.74
968.69	5216.18
968.85	5330.86
969.02	5250.99
969.18	5373.87
969.34	5148.59
969.51	5250.99
969.67	5230.51
969.83	5027.76
970.00	5273.52
970.16	5195.70
970.32	5205.94
970.48	5287.86
970.65	5042.10
970.81	4896.69
970.97	5046.20
971.14	4874.17
971.30	5199.79
971.46	5009.33
971.63	5001.14
971.79	5210.03
971.95	5042.10
972.11	5044.15
972.28	4964.28
972.44	5035.96
972.60	4868.02
972.76	5025.72
972.93	4925.36
973.09	5009.33
973.25	4980.66
973.42	4956.08
973.58	5003.19
973.74	5044.15
973.90	4753.34
974.07	4902.84
974.23	4886.45
974.39	4876.21
974.55	4751.29
974.72	4759.48
974.88	4712.38
975.04	4863.93
975.20	4771.77
975.37	4812.73
975.53	4775.86
975.69	4786.10
975.85	4765.62
976.01	4798.39
976.18	4667.32
976.34	4777.91
976.50	4743.10
976.66	4749.24
976.83	4638.65
976.99	4722.62
977.15	4779.96
977.31	4632.51
977.47	4634.55
977.64	4769.72
977.80	4673.46
977.96	4605.88
978.12	4493.24
978.29	4521.92
978.45	4446.14
978.61	4509.63
978.77	4685.75
978.93	4513.72
979.10	4550.59
979.26	4538.30
979.42	4550.59
979.58	4569.02
979.74	4513.72
979.91	4632.51
980.07	4474.81
980.23	4382.65
980.39	4339.65
980.55	4470.72
980.71	4505.53
980.88	4476.86
981.04	4396.99
981.20	4294.59
981.36	4374.46
981.52	4392.89
981.68	4403.13
981.85	4435.90
982.01	4353.98
982.17	4329.41
982.33	4370.37
982.49	4472.76
982.65	4249.54
982.82	4292.54
982.98	4366.27
983.14	4112.32
983.30	4413.37
983.46	4290.49
983.62	4337.60
983.79	4229.06
983.95	4229.06
984.11	4100.03
984.27	4235.20
984.43	4294.59
984.59	4239.30
984.75	4343.74
984.91	4106.18
985.08	4288.45
985.24	4073.41
985.40	4100.03
985.56	4278.21
985.72	4112.32
985.88	4136.90
986.04	4001.73
986.20	4026.31
986.37	4120.51
986.53	4018.11
986.69	4007.87
986.85	3956.68
987.01	4050.88
987.17	4122.56
987.33	3909.57
987.49	3981.25
987.65	4067.27
987.82	3901.38
987.98	3993.54
988.14	4057.03
988.30	3964.87
988.46	3909.57
988.62	3919.81
988.78	3878.85
988.94	3938.24
989.10	3909.57
989.26	3749.83
989.42	3758.02
989.59	3798.98
989.75	3770.31
989.91	3870.66
990.07	3661.77
990.23	3772.36
990.39	3745.73
990.55	3868.61
990.71	3692.49
990.87	3868.61
991.03	3821.51
991.19	3698.63
991.35	3731.40
991.51	3760.07
991.67	3897.28
991.83	3692.49
992.00	3667.91
992.16	3749.83
992.32	3604.42
992.48	3827.65
992.64	3694.54
992.80	3663.82
992.96	3774.41
993.12	3702.73
993.28	3694.54
993.44	3715.02
993.60	3639.24
993.76	3602.38
993.92	3717.06
994.08	3641.29
994.24	3637.19
994.40	3649.48
994.56	3643.34
994.72	3530.70
994.88	3585.99
995.04	3520.46
995.20	3565.51
995.36	3461.07
995.52	3606.47
995.68	3514.31
995.84	3373.00
996.00	3547.08
996.16	3461.07
996.32	3391.44
996.48	3346.38
996.64	3481.55
996.80	3516.36
996.96	3473.36
997.12	3352.52
997.28	3401.68
997.44	3399.63
997.60	3434.44
997.76	3434.44
997.92	3342.28
998.08	3442.64
998.24	3295.18
998.40	3336.14
998.56	3477.45
998.72	3338.19
998.88	3235.79
999.04	3272.65
999.20	3362.76
999.36	3280.85
999.52	3235.79
999.68	3270.61
999.84	3241.93
1000.00	3270.61
1000.16	3440.59
1000.32	3186.64
1000.48	3319.76
1000.64	3188.69
1000.80	3123.15
1000.95	3141.58
1001.11	3340.24
1001.27	3131.34
1001.43	3200.98
1001.59	3192.78
1001.75	3108.82
1001.91	3137.49
1002.07	3135.44
1002.23	3170.26
1002.39	3108.82
1002.55	3149.78
1002.71	3117.01
1002.87	3069.91
1003.03	3129.30
1003.19	3076.05
1003.34	3094.48
1003.50	3102.67
1003.66	3219.41
1003.82	3151.82
1003.98	3035.09
1004.14	3035.09
1004.30	3002.32
1004.46	3014.61
1004.62	3010.51
1004.78	2996.18
1004.94	3000.27
1005.09	3002.32
1005.25	2977.75
1005.41	2961.36
1005.57	2969.55
1005.73	2887.64
1005.89	2969.55
1006.05	3057.62
1006.21	3082.19
1006.37	2824.15
1006.52	3014.61
1006.68	2820.05
1006.84	3164.11
1007.00	2820.05
1007.16	3006.42
1007.32	2877.40
1007.48	2926.55
1007.64	2787.29
1007.79	2871.25
1007.95	2787.29
1008.11	2996.18
1008.27	2820.05
1008.43	2813.91
1008.59	2797.53
1008.75	2791.38
1008.91	2852.82
1009.06	2791.38
1009.22	2809.81
1009.38	2801.62
1009.54	2746.33
1009.70	2842.58
1009.86	2768.85
1010.01	2770.90
1010.17	2725.85
1010.33	2797.53
1010.49	2799.57
1010.65	2766.81
1010.81	2678.74
1010.96	2756.57
1011.12	2645.98
1011.28	2615.26
1011.44	2768.85
1011.60	2742.23
1011.76	2664.41
1011.91	2764.76
1012.07	2629.59
1012.23	2613.21
1012.39	2613.21
1012.55	2670.55
1012.71	2570.20
1012.86	2654.17
1013.02	2613.21
1013.18	2611.16
1013.34	2607.06
1013.50	2705.37
1013.65	2670.55
1013.81	2559.96
1013.97	2617.30
1014.13	2607.06
1014.29	2539.48
1014.44	2635.74
1014.60	2514.91
1014.76	2580.44
1014.92	2586.58
1015.07	2605.02
1015.23	2574.30
1015.39	2484.19
1015.55	2492.38
1015.71	2609.11
1015.86	2609.11
1016.02	2494.43
1016.18	2484.19
1016.34	2516.95
1016.49	2496.47
1016.65	2484.19
1016.81	2506.71
1016.97	2432.99
1017.12	2635.74
1017.28	2435.03
1017.44	2420.70
1017.60	2492.38
1017.75	2404.32
1017.91	2424.80
1018.07	2475.99
1018.23	2408.41
1018.38	2437.08
1018.54	2375.64
1018.70	2451.42
1018.86	2355.16
1019.01	2351.07
1019.17	2410.46
1019.33	2469.85
1019.49	2265.05
1019.64	2385.88
1019.80	2414.56
1019.96	2443.23
1020.12	2281.44
1020.27	2310.11
1020.43	2363.36
1020.59	2363.36
1020.74	2412.51
1020.90	2478.04
1021.06	2332.64
1021.22	2283.49
1021.37	2338.78
1021.53	2242.53
1021.69	2387.93
1021.84	2193.37
1022.00	2308.06
1022.16	2181.09
1022.31	2238.43
1022.47	2287.58
1022.63	2289.63
1022.79	2129.89
1022.94	2310.11
1023.10	2428.89
1023.26	2222.05
1023.41	2234.33
1023.57	2226.14
1023.73	2252.77
1023.88	2332.64
1024.04	2207.71
1024.20	2166.75
1024.35	2326.49
1024.51	2265.05
1024.67	2205.66
1024.82	2207.71
1024.98	2115.55
1025.14	2244.57
1025.29	2215.90
1025.45	2213.85
1025.61	2150.37
1025.76	2193.37
1025.92	2183.13
1026.08	2142.18
1026.23	2183.13
1026.39	2254.81
1026.55	2109.41
1026.70	2107.36
1026.86	2131.94
1027.02	2160.61
1027.17	2224.09
1027.33	2197.47
1027.48	2154.46
1027.64	2123.74
1027.80	2115.55
1027.95	2170.85
1028.11	2029.54
1028.27	2197.47
1028.42	2090.98
1028.58	2109.41
1028.73	2056.16
1028.89	2117.60
1029.05	2230.24
1029.20	2103.26
>>>>>End Processed Spectral Data<<<<<
