SpectraSuite Data File
++++++++++++++++++++++++++++++++++++
Date: Fri Jun 02 14:52:23 CEST 2017
User: INFO_000
Dark Spectrum Present: No
Reference Spectrum Present: No
Number of Sampled Component Spectra: 1
Spectrometers: USB4H00879
Integration Time (usec): 80000 (USB4H00879)
Spectra Averaged: 1 (USB4H00879)
Boxcar Smoothing: 0 (USB4H00879)
Correct for Electrical Dark: No (USB4H00879)
Strobe/Lamp Enabled: No (USB4H00879)
Correct for Detector Non-linearity: No (USB4H00879)
Correct for Stray Light: No (USB4H00879)
Number of Pixels in Processed Spectrum: 3648
>>>>>Begin Processed Spectral Data<<<<<
345.13	1376.24
345.34	1376.24
345.56	1376.24
345.78	1286.12
345.99	1234.93
346.21	1753.06
346.42	1732.58
346.64	1626.09
346.86	1806.31
347.07	1722.34
347.29	1716.20
347.50	1531.88
347.72	1669.09
347.94	1794.02
348.15	1613.80
348.37	1583.08
348.59	1730.53
348.80	1673.19
349.02	1763.30
349.23	1812.45
349.45	1703.91
349.67	1910.75
349.88	1703.91
350.10	1941.47
350.31	1851.36
350.53	1794.02
350.75	1918.95
350.96	1759.21
351.18	1853.41
351.39	1740.77
351.61	1806.31
351.82	1847.27
352.04	1888.23
352.26	1746.92
352.47	1843.17
352.69	1863.65
352.90	1681.38
353.12	1789.92
353.34	1824.74
353.55	1875.94
353.77	1882.08
353.98	1845.22
354.20	1832.93
354.41	1898.47
354.63	1865.70
354.85	1933.28
355.06	1849.32
355.28	1732.58
355.49	1845.22
355.71	1877.99
355.92	1794.02
356.14	1949.67
356.35	1847.27
356.57	1765.35
356.79	1869.80
357.00	1822.69
357.22	1920.99
357.43	1818.60
357.65	1886.18
357.86	1832.93
358.08	1847.27
358.29	1912.80
358.51	1900.52
358.72	1949.67
358.94	1908.71
359.16	1837.03
359.37	1908.71
359.59	1880.04
359.80	1959.91
360.02	1892.32
360.23	1861.60
360.45	2052.06
360.66	1861.60
360.88	1730.53
361.09	1789.92
361.31	1929.19
361.52	1918.95
361.74	2050.02
361.95	2011.11
362.17	1898.47
362.38	1998.82
362.60	1982.43
362.81	1902.56
363.03	1894.37
363.24	1961.95
363.46	2041.82
363.67	2013.15
363.89	1953.76
364.10	2025.44
364.32	1906.66
364.53	2009.06
364.75	1861.60
364.96	2033.63
365.18	1912.80
365.39	2033.63
365.61	1927.14
365.82	2095.07
366.04	2043.87
366.25	1910.75
366.47	2076.64
366.68	1998.82
366.90	1949.67
367.11	1990.63
367.33	2072.54
367.54	2060.26
367.76	2037.73
367.97	2078.69
368.19	2007.01
368.40	2136.03
368.62	1966.05
368.83	1966.05
369.05	2002.91
369.26	1968.10
369.48	1910.75
369.69	2000.87
369.91	2095.07
370.12	1968.10
370.33	2043.87
370.55	1888.23
370.76	2021.35
370.98	2166.75
371.19	2076.64
371.41	2072.54
371.62	2058.21
371.84	2043.87
372.05	2179.04
372.27	2047.97
372.48	2041.82
372.69	2047.97
372.91	2205.66
373.12	2136.03
373.34	2025.44
373.55	2152.42
373.77	2136.03
373.98	2086.88
374.20	2172.89
374.41	2193.37
374.62	2156.51
374.84	2162.66
375.05	2160.61
375.27	2166.75
375.48	2205.66
375.70	2189.28
375.91	2230.24
376.12	2381.79
376.34	2170.85
376.55	2201.57
376.77	2205.66
376.98	2142.18
377.19	2074.59
377.41	2191.33
377.62	2213.85
377.84	2248.67
378.05	2254.81
378.27	2166.75
378.48	2406.36
378.69	2410.46
378.91	2361.31
379.12	2267.10
379.34	2232.29
379.55	2228.19
379.76	2322.40
379.98	2207.71
380.19	2340.83
380.41	2306.01
380.62	2211.81
380.83	2254.81
381.05	2174.94
381.26	2404.32
381.47	2332.64
381.69	2293.72
381.90	2361.31
382.12	2279.39
382.33	2293.72
382.54	2281.44
382.76	2367.45
382.97	2273.25
383.19	2250.72
383.40	2398.17
383.61	2291.68
383.83	2306.01
384.04	2387.93
384.25	2404.32
384.47	2428.89
384.68	2435.03
384.89	2330.59
385.11	2361.31
385.32	2310.11
385.54	2328.54
385.75	2361.31
385.96	2435.03
386.18	2342.88
386.39	2385.88
386.60	2381.79
386.82	2426.84
387.03	2420.70
387.24	2471.90
387.46	2484.19
387.67	2514.91
387.88	2568.15
388.10	2482.14
388.31	2549.72
388.52	2602.97
388.74	2562.01
388.95	2574.30
389.16	2502.62
389.38	2523.10
389.59	2617.30
389.80	2590.68
390.02	2576.34
390.23	2645.98
390.44	2676.70
390.66	2576.34
390.87	2514.91
391.08	2691.03
391.30	2584.54
391.51	2701.27
391.72	2736.09
391.94	2738.13
392.15	2588.63
392.36	2574.30
392.58	2588.63
392.79	2742.23
393.00	2691.03
393.22	2863.06
393.43	2697.17
393.64	2764.76
393.85	2838.48
394.07	2770.90
394.28	2799.57
394.49	2752.47
394.71	2781.14
394.92	2881.49
395.13	2740.18
395.35	2719.70
395.56	2650.07
395.77	2789.33
395.98	2936.79
396.20	2865.11
396.41	2760.66
396.62	2981.84
396.84	2842.58
397.05	2877.40
397.26	2836.44
397.47	3004.37
397.69	2793.43
397.90	3008.47
398.11	3057.62
398.32	2932.69
398.54	2990.03
398.75	2914.26
398.96	3026.90
399.18	3084.24
399.39	2969.55
399.60	3131.34
399.81	3082.19
400.03	2985.94
400.24	3239.89
400.45	2977.75
400.66	3112.91
400.88	3063.76
401.09	3237.84
401.30	3016.66
401.51	3157.97
401.73	3061.71
401.94	3229.65
402.15	3151.82
402.36	3160.02
402.58	3168.21
402.79	3295.18
403.00	3194.83
403.21	3186.64
403.43	3256.27
403.64	3362.76
403.85	3182.54
404.06	3291.09
404.27	3246.03
404.49	3313.61
404.70	3309.52
404.91	3246.03
405.12	3364.81
405.34	3256.27
405.55	3366.86
405.76	3198.93
405.97	3141.58
406.19	3348.43
406.40	3428.30
406.61	3463.12
406.82	3467.21
407.03	3250.13
407.25	3375.05
407.46	3424.20
407.67	3434.44
407.88	3473.36
408.09	3424.20
408.31	3373.00
408.52	3448.78
408.73	3434.44
408.94	3393.48
409.15	3450.83
409.37	3571.66
409.58	3426.25
409.79	3547.08
410.00	3395.53
410.21	3549.13
410.43	3473.36
410.64	3559.37
410.85	3512.27
411.06	3573.71
411.27	3680.20
411.48	3735.50
411.70	3518.41
411.91	3614.66
412.12	3596.23
412.33	3684.30
412.54	3672.01
412.76	3715.02
412.97	3731.40
413.18	3526.60
413.39	3661.77
413.60	3704.78
413.81	3751.88
414.03	3581.90
414.24	3641.29
414.45	3727.30
414.66	3657.67
414.87	3733.45
415.08	3637.19
415.30	3723.21
415.51	3778.50
415.72	3905.48
415.93	3772.36
416.14	3895.24
416.35	3805.13
416.56	3831.75
416.78	3952.58
416.99	3882.95
417.20	3911.62
417.41	3899.33
417.62	3907.52
417.83	4153.28
418.04	3936.20
418.26	3960.77
418.47	4022.21
418.68	4028.35
418.89	4050.88
419.10	4231.10
419.31	4155.33
419.52	4097.99
419.73	4085.70
419.95	4134.85
420.16	4016.07
420.37	4093.89
420.58	4241.34
420.79	4057.03
421.00	4190.14
421.21	4235.20
421.42	4202.43
421.63	4097.99
421.85	4132.80
422.06	4231.10
422.27	4181.95
422.48	4272.06
422.69	4333.50
422.90	4315.07
423.11	4349.89
423.32	4419.52
423.53	4495.29
423.75	4308.93
423.96	4763.58
424.17	4519.87
424.38	4577.21
424.59	4464.57
424.80	4630.46
425.01	4546.49
425.22	4569.02
425.43	4634.55
425.64	4771.77
425.85	4560.83
426.06	4675.51
426.28	4775.86
426.49	4593.59
426.70	4677.56
426.91	4632.51
427.12	4759.48
427.33	4722.62
427.54	4753.34
427.75	4890.55
427.96	4882.36
428.17	4835.25
428.38	4931.51
428.59	4782.01
428.80	4913.08
429.01	4890.55
429.23	4861.88
429.44	5187.50
429.65	5023.67
429.86	4999.09
430.07	4902.84
430.28	4865.97
430.49	5220.27
430.70	5187.50
430.91	5119.92
431.12	5164.98
431.33	5189.55
431.54	5220.27
431.75	5228.46
431.96	5162.93
432.17	5316.53
432.38	5246.90
432.59	5519.28
432.80	5300.14
433.01	5257.14
433.22	5375.92
433.43	5482.41
433.64	5334.96
433.85	5351.34
434.06	5412.78
434.27	5410.73
434.49	5509.04
434.70	5525.42
434.91	5539.76
435.12	5410.73
435.33	5429.17
435.54	5445.55
435.75	5435.31
435.96	5517.23
436.17	5504.94
436.38	5554.09
436.59	5738.41
436.80	5627.82
437.01	5922.73
437.22	5762.98
437.43	5791.66
437.64	5574.57
437.85	5732.26
438.06	5857.19
438.27	5709.74
438.48	5662.63
438.69	6057.89
438.90	5793.70
439.11	5775.27
439.32	5967.78
439.53	5824.42
439.74	5887.91
439.95	5943.21
440.16	5939.11
440.37	6088.61
440.57	5881.77
440.78	5943.21
440.99	6094.76
441.20	6055.84
441.41	5953.45
441.62	6090.66
441.83	5992.36
442.04	6041.51
442.25	5986.21
442.46	6098.85
442.67	6203.30
442.88	6571.93
443.09	6090.66
443.30	6252.45
443.51	6346.66
443.72	6498.20
443.93	6164.39
444.14	6602.65
444.35	6277.02
444.56	6516.64
444.77	6485.92
444.98	6416.29
445.19	6475.68
445.40	6490.01
445.61	6350.75
445.81	6477.73
446.02	6576.03
446.23	6584.22
446.44	6430.62
446.65	6502.30
446.86	6668.19
447.07	6600.60
447.28	6784.92
447.49	6885.27
447.70	6717.34
447.91	6743.96
448.12	6733.72
448.33	6768.54
448.54	6801.30
448.74	6655.90
448.95	6887.32
449.16	6711.19
449.37	7223.19
449.58	6840.22
449.79	7137.17
450.00	7065.49
450.21	6901.65
450.42	7085.97
450.63	7210.90
450.84	7100.31
451.05	7214.99
451.25	7098.26
451.46	7079.83
451.67	7194.51
451.88	7260.05
452.09	7268.24
452.30	7171.99
452.51	7217.04
452.72	7329.68
452.93	7673.74
453.13	7262.10
453.34	7200.66
453.55	7346.06
453.76	7516.05
453.97	7774.09
454.18	7640.97
454.39	7507.85
454.60	7604.11
454.81	7819.14
455.01	7792.52
455.22	7462.80
455.43	7630.73
455.64	7997.32
455.85	8095.62
456.06	8232.83
456.27	7757.71
456.48	7833.48
456.68	8038.28
456.89	8017.80
457.10	7948.17
457.31	8079.24
457.52	7833.48
457.73	8402.82
457.94	8470.40
458.14	7997.32
458.35	8515.45
458.56	8349.57
458.77	8419.20
458.98	8533.89
459.19	8212.35
459.39	8454.02
459.60	8605.56
459.81	8576.89
460.02	8806.27
460.23	8687.48
460.44	8755.07
460.65	8945.53
460.85	8894.33
461.06	8914.81
461.27	8640.38
461.48	8890.23
461.69	9015.16
461.89	8730.49
462.10	9064.31
462.31	8877.94
462.52	9232.24
462.73	9117.56
462.94	9316.21
463.14	9252.72
463.35	9406.32
463.56	9803.63
463.77	9600.88
463.98	9312.11
464.18	9512.81
464.39	9568.11
464.60	9760.62
464.81	9795.43
465.02	9750.38
465.23	10002.28
465.43	9637.74
465.64	10110.82
465.85	9809.77
466.06	9903.98
466.27	10086.25
466.47	10104.68
466.68	9928.55
466.89	10174.31
467.10	10264.42
467.30	10182.50
467.51	10561.37
467.72	10772.32
467.93	10186.60
468.14	10403.68
468.34	10551.14
468.55	10753.88
468.76	10755.93
468.97	10633.05
469.17	10901.34
469.38	11099.99
469.59	11110.23
469.80	10690.40
470.01	11143.00
470.21	10813.28
470.42	11300.69
470.63	11360.08
470.84	11108.18
471.04	11611.98
471.25	11532.11
471.46	11630.41
471.67	11718.48
471.87	11708.24
472.08	11890.51
472.29	11849.55
472.50	11589.46
472.70	11867.98
472.91	11853.64
473.12	12023.62
473.33	12281.67
473.53	12244.81
473.74	12097.35
473.95	12535.62
474.16	12660.54
474.36	12611.39
474.57	12619.58
474.78	12984.12
474.99	12697.41
475.19	12607.30
475.40	13068.09
475.61	12986.17
475.81	13029.18
476.02	13494.07
476.23	13113.14
476.44	13324.08
476.64	13645.62
476.85	13616.94
477.06	13506.35
477.27	14010.15
477.47	13915.95
477.68	13983.53
477.89	13846.32
478.09	14077.74
478.30	14190.38
478.51	14128.94
478.71	14442.28
478.92	14358.31
479.13	14602.02
479.34	14665.50
479.54	14788.38
479.75	14847.77
479.96	14878.49
480.16	14980.89
480.37	15032.09
480.58	15238.94
480.78	15386.39
480.99	15431.44
481.20	15343.38
481.41	15533.84
481.61	15693.58
481.82	15959.82
482.03	15730.45
482.23	15853.33
482.44	16209.67
482.65	16367.37
482.85	16396.04
483.06	16121.61
483.27	16469.76
483.47	16203.53
483.68	16424.71
483.89	16635.65
484.09	16713.47
484.30	17000.19
484.51	16961.28
484.71	17147.64
484.92	17055.48
485.13	17446.65
485.33	17444.60
485.54	17168.12
485.75	17428.21
485.95	17510.13
486.16	18011.89
486.37	17956.59
486.57	17796.85
486.78	17784.56
486.98	18188.01
487.19	17938.16
487.40	18319.08
487.60	18413.29
487.81	18562.79
488.02	18503.40
488.22	18177.77
488.43	18657.00
488.64	18773.73
488.84	18685.67
489.05	19257.05
489.25	18927.33
489.46	19410.65
489.67	19013.34
489.87	19263.19
490.08	19455.70
490.29	19539.67
490.49	19742.42
490.70	19873.49
490.90	20182.73
491.11	19932.88
491.32	19941.07
491.52	20397.77
491.73	20014.80
491.94	20436.68
492.14	20207.31
492.35	20659.91
492.55	20848.32
492.76	20717.25
492.97	20825.79
493.17	21053.12
493.38	21024.45
493.58	21194.43
493.79	21190.33
494.00	21208.76
494.20	21481.14
494.41	21561.02
494.61	21458.62
494.82	21485.24
495.02	21448.38
495.23	21581.49
495.44	21685.94
495.64	22118.06
495.85	22118.06
496.05	22357.67
496.26	22015.66
496.47	22482.60
496.67	22251.18
496.88	22531.75
497.08	22306.48
497.29	22646.44
497.49	22621.86
497.70	22716.07
497.91	22775.46
498.11	22894.24
498.32	22908.58
498.52	23123.62
498.73	23289.50
498.93	23326.36
499.14	23199.39
499.34	23326.36
499.55	23611.03
499.76	23256.73
499.96	23791.25
500.17	23877.27
500.37	23604.89
500.58	23758.49
500.78	23828.12
500.99	24108.69
501.19	24166.03
501.40	24073.87
501.60	24534.67
501.81	24200.85
502.02	24094.35
502.22	24178.32
502.43	24213.13
502.63	24448.65
502.84	24247.95
503.04	24462.99
503.25	24675.98
503.45	25116.29
503.66	24884.87
503.86	24655.50
504.07	25269.89
504.27	24477.32
504.48	25374.33
504.68	25024.13
504.89	25554.55
505.09	25417.34
505.30	25319.04
505.50	25482.88
505.71	25511.55
505.91	25413.24
506.12	25714.30
506.32	25568.89
506.53	25673.34
506.73	25777.78
506.94	26074.74
507.14	25902.71
507.35	26084.98
507.55	25992.82
507.76	26099.31
507.96	26031.73
508.17	26367.60
508.37	25917.04
508.58	25986.68
508.78	26195.57
508.99	26633.83
509.19	26472.04
509.40	26564.20
509.60	26451.56
509.81	26474.09
510.01	26279.54
510.22	26766.95
510.42	26902.12
510.63	26779.24
510.83	26535.53
511.04	26846.82
511.24	27252.32
511.44	26652.27
511.65	26965.60
511.85	27033.19
512.06	27113.06
512.26	26938.98
512.47	27649.63
512.67	27326.05
512.88	27524.70
513.08	27156.07
513.29	27594.33
513.49	27666.01
513.69	27514.46
513.90	27631.19
514.10	27823.70
514.31	27774.55
514.51	27924.05
514.72	27983.44
514.92	27672.15
515.13	27831.90
515.33	27965.01
515.53	27985.49
515.74	27973.21
515.94	28028.50
516.15	28077.65
516.35	27866.71
516.56	28434.00
516.76	28091.99
516.96	28597.84
517.17	28565.07
517.37	28696.14
517.58	28472.91
517.78	28591.69
517.99	28763.72
518.19	28974.66
518.39	28786.25
518.60	29124.16
518.80	29011.53
519.01	29070.92
519.21	28886.60
519.41	29167.17
519.62	28972.61
519.82	29105.73
520.03	29677.12
520.23	29249.09
520.43	29447.74
520.64	29673.02
520.84	29828.66
521.05	29675.07
521.25	29703.74
521.45	29945.40
521.66	29974.07
521.86	29775.42
522.07	30148.15
522.27	30105.14
522.47	30019.13
522.68	30535.21
522.88	30164.53
523.08	30633.52
523.29	30174.77
523.49	30662.19
523.70	30594.61
523.90	30916.14
524.10	30768.68
524.31	31063.59
524.51	30953.00
524.71	31252.00
524.92	30987.82
525.12	31237.67
525.33	31301.15
525.53	31764.00
525.73	31417.89
525.94	31385.12
526.14	31665.69
526.34	31475.23
526.55	31524.38
526.75	31790.62
526.95	32015.90
527.16	31796.76
527.36	32212.50
527.56	32329.23
527.77	32347.67
527.97	32333.33
528.17	32609.81
528.38	32472.59
528.58	32628.24
528.78	32691.73
528.99	32812.56
529.19	33160.71
529.39	32767.50
529.60	32790.03
529.80	32884.23
530.00	33095.18
530.21	33682.94
530.41	33814.01
530.61	33398.27
530.82	33570.30
531.02	33449.47
531.22	33852.92
531.43	33791.48
531.63	34168.31
531.83	34153.97
532.04	34670.06
532.24	34319.86
532.44	34846.19
532.64	34586.10
532.85	34702.83
533.05	34979.31
533.25	34737.65
533.46	34901.48
533.66	35270.12
533.86	35298.79
534.07	35362.28
534.27	35374.56
534.47	35612.13
534.67	35706.34
534.88	35417.57
535.08	35339.75
535.28	35788.25
535.49	36077.02
535.69	36206.04
535.89	36109.78
536.09	36449.75
536.30	36228.57
536.50	36623.83
536.70	36707.79
536.91	36672.98
537.11	36664.78
537.31	36429.27
537.51	36814.29
537.72	37014.99
537.92	37086.67
538.12	37569.99
538.32	36879.82
538.53	37604.80
538.73	37385.67
538.93	37205.45
539.13	37424.58
539.34	37543.36
539.54	37522.88
539.74	37731.78
539.94	37576.13
540.15	37729.73
540.35	38143.42
540.55	38211.00
540.75	37889.47
540.96	38389.17
541.16	38135.23
541.36	38344.12
541.56	38565.30
541.77	38837.68
541.97	38569.40
542.17	38546.87
542.37	38712.75
542.58	38622.64
542.78	38854.06
542.98	38958.51
543.18	39034.28
543.38	39390.63
543.59	39400.87
543.79	39263.66
543.99	39108.01
544.19	39288.23
544.40	39024.04
544.60	39722.40
544.80	39814.56
545.00	39826.85
545.20	40150.43
545.41	39757.22
545.61	39931.29
545.81	40070.56
546.01	40123.80
546.21	39849.38
546.42	39978.40
546.62	40222.11
546.82	39679.39
547.02	40275.35
547.22	40545.69
547.43	40367.51
547.63	40484.25
547.83	40813.97
548.03	40359.32
548.23	40760.72
548.44	40543.64
548.64	40830.35
548.84	40809.87
549.04	40758.67
549.24	40889.74
549.45	41258.38
549.65	41139.60
549.85	40826.26
550.05	41158.03
550.25	41106.83
550.45	41979.26
550.66	41256.33
550.86	41401.74
551.06	41364.87
551.26	41602.44
551.46	41360.78
551.66	41698.69
551.87	41434.50
552.07	41741.70
552.27	41827.71
552.47	41596.29
552.67	42313.08
552.87	41868.67
553.07	41809.28
553.28	41891.20
553.48	42069.37
553.68	41893.25
553.88	42069.37
554.08	42012.03
554.28	42323.32
554.48	42243.45
554.69	42284.41
554.89	42388.86
555.09	42286.46
555.29	42444.15
555.49	42444.15
555.69	42749.30
555.89	42556.79
556.10	42579.32
556.30	42392.95
556.50	42909.04
556.70	42487.16
556.90	43232.62
557.10	42833.27
557.30	42624.37
557.50	43017.58
557.70	42886.51
557.91	42952.05
558.11	43091.31
558.31	43402.60
558.51	42894.71
558.71	42970.48
558.91	43062.64
559.11	43304.30
559.31	43124.08
559.51	42759.54
559.72	43380.07
559.92	43367.79
560.12	42880.37
560.32	43615.59
560.52	43150.70
560.72	43287.92
560.92	43431.27
561.12	43588.97
561.32	43840.87
561.52	43859.30
561.72	43756.90
561.93	43625.83
562.13	43375.98
562.33	43349.35
562.53	44469.59
562.73	43521.38
562.93	44074.34
563.13	43611.49
563.33	43754.85
563.53	44238.17
563.73	43656.55
563.93	43500.90
564.13	44592.47
564.33	43992.42
564.53	43978.08
564.74	44055.90
564.94	43890.02
565.14	44215.65
565.34	43900.26
565.54	44115.29
565.74	44318.04
565.94	44455.26
566.14	44100.96
566.34	44053.86
566.54	44533.08
566.74	43955.55
566.94	44520.79
567.14	43922.79
567.34	44547.42
567.54	44592.47
567.74	44367.20
567.94	44926.29
568.14	44860.76
568.34	44940.63
568.54	44676.44
568.74	44565.85
568.94	44539.22
569.14	45264.21
569.34	44891.48
569.54	45069.65
569.75	44561.75
569.95	45192.53
570.15	45366.60
570.35	44789.08
570.55	44619.10
570.75	44807.51
570.95	45124.94
571.15	45372.75
571.35	44981.59
571.55	45339.98
571.75	45428.04
571.95	44995.92
572.15	45112.66
572.35	45634.89
572.55	45399.37
572.75	45176.14
572.95	45321.55
573.15	45667.66
573.35	45507.91
573.55	45323.60
573.75	45704.52
573.95	45882.69
574.15	45940.04
574.35	45897.03
574.55	45425.99
574.75	45501.77
574.95	46308.67
575.15	45550.92
575.34	46126.40
575.54	46318.91
575.74	46273.85
575.94	46318.91
576.14	46435.64
576.34	46454.08
576.54	46472.51
576.74	46449.98
576.94	46863.67
577.14	46753.08
577.34	46947.64
577.54	46396.73
577.74	46818.61
577.94	46650.68
578.14	46875.96
578.34	46906.68
578.54	46568.76
578.74	46589.24
578.94	47375.66
579.14	46753.08
579.34	46785.85
579.54	47152.43
579.74	47293.74
579.94	47375.66
580.13	47396.14
580.33	47691.05
580.53	47406.38
580.73	47445.29
580.93	47707.43
581.13	47465.77
581.33	47865.13
581.53	47959.33
581.73	47697.19
581.93	48153.89
582.13	48057.63
582.33	47879.46
582.53	48043.30
582.73	47994.15
582.92	48512.28
583.12	48354.59
583.32	48280.86
583.52	48538.91
583.72	48264.48
583.92	48108.83
584.12	48575.77
584.32	48813.34
584.52	48504.09
584.72	48864.53
584.92	48864.53
585.11	49116.43
585.31	48526.62
585.51	49290.51
585.71	48698.65
585.91	49362.19
586.11	49388.81
586.31	48588.06
586.51	48905.49
586.71	49354.00
586.91	49464.59
587.10	49110.29
587.30	49786.12
587.50	49747.21
587.70	49718.54
587.90	49646.86
588.10	49685.77
588.30	49767.69
588.50	50097.41
588.69	49878.28
588.89	49792.26
589.09	50255.11
589.29	50093.32
589.49	50380.03
589.69	50160.90
589.89	50429.18
590.08	50212.10
590.28	50521.34
590.48	50181.38
590.68	49927.43
590.88	50187.52
591.08	50601.21
591.28	49909.00
591.47	50824.44
591.67	50208.00
591.87	50785.53
592.07	50525.44
592.27	50803.96
592.47	50265.34
592.67	50957.56
592.86	50490.62
593.06	50752.76
593.26	51180.79
593.46	51252.47
593.66	51309.81
593.86	50787.58
594.05	50806.01
594.25	51770.60
594.45	51143.92
594.65	51494.13
594.85	51062.00
595.05	51479.79
595.24	51905.77
595.44	51455.21
595.64	51438.83
595.84	51469.55
596.04	51782.89
596.23	51868.90
596.43	52167.91
596.63	51735.79
596.83	51987.69
597.03	51975.40
597.22	52395.23
597.42	52159.72
597.62	52202.72
597.82	52329.70
598.02	52266.21
598.21	52731.10
598.41	52010.21
598.61	52475.10
598.81	52370.66
599.01	53044.44
599.20	52706.52
599.40	52264.16
599.60	52540.64
599.80	52604.13
600.00	53167.32
600.19	53091.54
600.39	52559.07
600.59	53148.88
600.79	53327.06
600.98	53066.97
601.18	53189.84
601.38	52964.57
601.58	53716.17
601.78	53486.80
601.97	53017.82
602.17	53259.48
602.37	53617.87
602.57	53124.31
602.76	53718.22
602.96	53464.27
603.16	53794.00
603.36	53599.44
603.55	54615.23
603.75	53984.46
603.95	54086.85
604.15	53839.05
604.34	53845.19
604.54	54412.48
604.74	54068.42
604.94	54670.53
605.13	54262.98
605.33	54338.75
605.53	53820.62
605.73	54787.26
605.92	54604.99
606.12	54707.39
606.32	54564.03
606.52	54490.30
606.71	54781.12
606.91	54766.78
607.11	54334.66
607.30	54963.39
607.50	54721.72
607.70	54983.86
607.90	54609.09
608.09	54600.89
608.29	54652.09
608.49	55006.39
608.68	54910.14
608.88	54891.71
609.08	55069.88
609.28	54828.22
609.47	54748.35
609.67	55555.25
609.87	55008.44
610.06	54897.85
610.26	55112.89
610.46	55159.99
610.66	54834.36
610.85	54987.96
611.05	55295.16
611.25	55405.75
611.44	55196.85
611.64	55084.22
611.84	55661.74
612.03	54990.01
612.23	55518.38
612.43	55643.31
612.62	55018.68
612.82	55596.21
613.02	55395.51
613.21	55573.68
613.41	55364.79
613.61	55755.95
613.80	55149.75
614.00	55497.91
614.20	55688.37
614.39	55452.85
614.59	55229.62
614.79	55309.49
614.98	55104.70
615.18	55340.21
615.38	55305.40
615.57	55231.67
615.77	55262.39
615.97	55635.12
616.16	55411.89
616.36	55213.24
616.56	55600.30
616.75	55712.94
616.95	55071.93
617.15	55366.84
617.34	55571.63
617.54	55538.86
617.74	55858.35
617.93	56005.80
618.13	54979.77
618.32	55604.40
618.52	54813.88
618.72	55350.45
618.91	55362.74
619.11	55112.89
619.31	55368.88
619.50	55813.29
619.70	54934.71
619.90	55637.17
620.09	55499.95
620.29	55540.91
620.48	55164.09
620.68	55841.96
620.88	54957.24
621.07	55844.01
621.27	55315.64
621.46	55184.57
621.66	55377.08
621.86	54977.72
622.05	54871.23
622.25	55704.75
622.44	55248.05
622.64	55188.66
622.84	55393.46
623.03	55481.52
623.23	55540.91
623.42	55260.34
623.62	55467.19
623.82	55422.13
624.01	55006.39
624.21	54934.71
624.40	55309.49
624.60	55274.68
624.80	54951.10
624.99	54985.91
625.19	54531.26
625.38	55307.44
625.58	54983.86
625.77	55026.87
625.97	55037.11
626.17	55317.68
626.36	55184.57
626.56	55266.48
626.75	54635.71
626.95	55415.99
627.14	54777.02
627.34	55970.99
627.54	55237.81
627.73	55381.17
627.93	54789.31
628.12	55159.99
628.32	55405.75
628.51	55266.48
628.71	55000.25
628.90	55278.77
629.10	55284.92
629.30	55166.13
629.49	55575.73
629.69	54899.90
629.88	54830.27
630.08	55145.65
630.27	55278.77
630.47	55303.35
630.66	55063.74
630.86	55631.02
631.05	54860.99
631.25	55284.92
631.44	55194.81
631.64	54699.20
631.84	54947.00
632.03	55577.78
632.23	55358.64
632.42	55751.85
632.62	54918.33
632.81	54879.42
633.01	54885.56
633.20	55499.95
633.40	55463.09
633.59	55022.78
633.79	54576.32
633.98	55008.44
634.18	55211.19
634.37	55203.00
634.57	55020.73
634.76	55583.92
634.96	55549.10
635.15	55649.45
635.35	55114.94
635.54	54844.60
635.74	55485.62
635.93	55231.67
636.13	55547.06
636.32	55502.00
636.52	55428.27
636.71	55239.86
636.91	55233.72
637.10	55022.78
637.30	55276.72
637.49	55235.77
637.69	55379.12
637.88	55581.87
638.08	54998.20
638.27	55463.09
638.46	55153.85
638.66	55278.77
638.85	55370.93
639.05	55461.04
639.24	55225.53
639.44	55141.56
639.63	56196.26
639.83	55676.08
640.02	55489.71
640.22	55819.44
640.41	55663.79
640.61	55317.68
640.80	55542.96
640.99	55588.02
641.19	56097.96
641.38	55280.82
641.58	55573.68
641.77	55446.71
641.97	55145.65
642.16	55479.47
642.36	55975.08
642.55	56038.57
642.74	55418.03
642.94	56173.73
643.13	55622.83
643.33	56190.12
643.52	55956.65
643.72	55952.55
643.91	55547.06
644.10	55880.88
644.30	56069.29
644.49	55221.43
644.69	55858.35
644.88	56032.42
645.08	56089.77
645.27	55749.81
645.46	55649.45
645.66	56118.44
645.85	56054.95
646.05	56155.30
646.24	55948.46
646.43	55915.69
646.63	56091.82
646.82	56456.35
647.02	56202.41
647.21	56413.35
647.40	55948.46
647.60	56208.55
647.79	56186.02
647.99	56493.22
648.18	56042.66
648.37	56677.54
648.57	56642.72
648.76	56118.44
648.96	56308.90
649.15	56341.67
649.34	56851.61
649.54	56628.38
649.73	56300.71
649.92	56456.35
650.12	56165.54
650.31	56546.47
650.51	56435.87
650.70	56683.68
650.89	56661.15
651.09	56947.87
651.28	56595.62
651.47	56474.79
651.67	56890.52
651.86	56683.68
652.06	56442.02
652.25	56677.54
652.44	56435.87
652.64	56665.25
652.83	56652.96
653.02	56495.27
653.22	56718.49
653.41	56710.30
653.60	56087.72
653.80	56824.99
653.99	56601.76
654.18	56827.04
654.38	56894.62
654.57	57193.62
654.76	57062.55
654.96	56368.29
655.15	56743.07
655.34	56779.93
655.54	56607.90
655.73	57013.40
655.92	56925.34
656.12	57001.11
656.31	57160.86
656.50	57167.00
656.70	57259.16
656.89	57066.65
657.08	56878.24
657.28	57275.54
657.47	57105.56
657.66	57726.10
657.86	57302.17
658.05	57236.63
658.24	56960.15
658.43	57283.73
658.63	56956.06
658.82	57037.98
659.01	57054.36
659.21	57343.12
659.40	57169.05
659.59	57101.46
659.79	57459.86
659.98	57154.71
660.17	57334.93
660.36	57803.92
660.56	57226.39
660.75	57590.93
660.94	57451.67
661.14	57375.89
661.33	57595.03
661.52	56997.02
661.71	57660.56
661.91	57298.07
662.10	57398.42
662.29	57529.49
662.49	57494.67
662.68	57283.73
662.87	57261.21
663.06	57451.67
663.26	56851.61
663.45	58100.87
663.64	57377.94
663.83	57857.17
664.03	57973.90
664.22	57386.13
664.41	57631.89
664.60	57572.50
664.80	57666.70
664.99	57568.40
665.18	57588.88
665.37	57765.01
665.57	57875.60
665.76	57625.74
665.95	58076.30
666.14	57828.49
666.34	57851.02
666.53	57650.32
666.72	57922.70
666.91	57259.16
667.11	57373.84
667.30	57836.69
667.49	57709.71
667.68	57834.64
667.87	57695.38
668.07	58088.59
668.26	58082.44
668.45	57726.10
668.64	57429.14
668.84	58301.57
669.03	58176.65
669.22	57654.42
669.41	57801.87
669.60	57650.32
669.80	57693.33
669.99	57754.77
670.18	57889.93
670.37	57988.24
670.57	58121.35
670.76	57230.49
670.95	57597.07
671.14	57762.96
671.33	57777.29
671.53	57959.56
671.72	57752.72
671.91	57996.43
672.10	57808.01
672.29	57803.92
672.48	57705.62
672.68	58233.99
672.87	57875.60
673.06	57670.80
673.25	57470.10
673.44	57851.02
673.64	57842.83
673.83	57259.16
674.02	57603.22
674.21	57326.74
674.40	57511.06
674.59	57388.18
674.79	57599.12
674.98	57144.47
675.17	57851.02
675.36	57482.39
675.55	57545.87
675.74	57390.23
675.94	57734.29
676.13	57844.88
676.32	58107.02
676.51	58258.57
676.70	57750.67
676.89	57357.46
677.08	57978.00
677.28	57818.25
677.47	58498.18
677.66	58131.59
677.85	57840.78
678.04	57996.43
678.23	57855.12
678.42	57762.96
678.62	57654.42
678.81	58098.83
679.00	57955.47
679.19	58180.74
679.38	57742.48
679.57	57373.84
679.76	57891.98
679.96	58342.53
680.15	57463.96
680.34	57382.04
680.53	57957.52
680.72	57623.70
680.91	58131.59
681.10	57572.50
681.29	57730.19
681.48	57210.01
681.68	57379.99
681.87	57420.95
682.06	57552.02
682.25	56915.10
682.44	57365.65
682.63	57601.17
682.82	56431.78
683.01	57306.26
683.20	57115.80
683.39	57101.46
683.59	56814.75
683.78	57312.41
683.97	57228.44
684.16	56974.49
684.35	56790.17
684.54	56636.58
684.73	56984.73
684.92	56702.11
685.11	56706.21
685.30	57066.65
685.49	57179.29
685.69	57121.94
685.88	57015.45
686.07	56777.89
686.26	56841.37
686.45	56988.83
686.64	56646.82
686.83	56874.14
687.02	56927.39
687.21	57398.42
687.40	56743.07
687.59	56902.81
687.78	56845.47
687.97	56779.93
688.16	56824.99
688.35	56835.23
688.54	56159.40
688.74	56736.93
688.93	56480.93
689.12	56638.62
689.31	56865.95
689.50	56464.55
689.69	56321.19
689.88	56210.60
690.07	56546.47
690.26	56341.67
690.45	56964.25
690.64	56411.30
690.83	56157.35
691.02	55733.42
691.21	56188.07
691.40	56390.82
691.59	56345.76
691.78	56054.95
691.97	56167.59
692.16	56077.48
692.35	56192.17
692.54	56403.11
692.73	56106.15
692.92	56071.34
693.11	55657.65
693.30	56050.86
693.49	56040.62
693.68	55979.18
693.87	56112.30
694.06	55207.09
694.25	55489.71
694.44	55788.72
694.63	55714.99
694.82	55919.79
695.01	55340.21
695.20	55329.97
695.39	55485.62
695.58	55776.43
695.77	55268.53
695.96	55524.53
696.15	55510.19
696.34	54955.19
696.53	55434.42
696.72	55624.88
696.91	55751.85
697.10	55448.75
697.29	55188.66
697.48	55366.84
697.67	55246.00
697.86	55110.84
698.05	55108.79
698.24	55129.27
698.43	54660.29
698.62	55088.31
698.81	54838.46
699.00	54981.82
699.19	54691.01
699.38	55180.47
699.57	54400.19
699.76	55528.62
699.95	54844.60
700.14	54744.25
700.32	54621.37
700.51	54359.23
700.70	55223.48
700.89	54891.71
701.08	54793.40
701.27	54351.04
701.46	54678.72
701.65	53925.07
701.84	54555.84
702.03	54547.65
702.22	54037.70
702.41	54117.57
702.60	54621.37
702.79	54299.84
702.98	54164.68
703.17	54363.33
703.35	54127.81
703.54	53937.35
703.73	54002.89
703.92	54117.57
704.11	53685.45
704.30	53769.42
704.49	54185.16
704.68	53376.21
704.87	54176.97
705.06	53779.66
705.25	53454.03
705.43	53595.34
705.62	53851.34
705.81	53601.49
706.00	54062.28
706.19	53382.35
706.38	53826.76
706.57	53509.33
706.76	53036.25
706.95	53204.18
707.14	53064.92
707.32	53032.15
707.51	53138.65
707.70	53052.63
707.89	53419.22
708.08	52884.70
708.27	53302.48
708.46	53433.55
708.65	53130.45
708.84	53413.07
709.02	53490.90
709.21	53152.98
709.40	53101.78
709.59	52964.57
709.78	52782.30
709.97	52948.18
710.16	52288.74
710.34	52550.88
710.53	52616.41
710.72	52155.62
710.91	52829.40
711.10	52464.86
711.29	52958.42
711.48	52567.26
711.66	52475.10
711.85	52245.73
712.04	52331.75
712.23	52323.55
712.42	52268.26
712.61	52258.02
712.80	52610.27
712.98	52194.53
713.17	51705.07
713.36	52378.85
713.55	52202.72
713.74	51963.11
713.93	52032.74
714.11	51832.04
714.30	51741.93
714.49	51537.13
714.68	51952.87
714.87	52116.71
715.06	52004.07
715.24	51909.86
715.43	51436.78
715.62	51318.00
715.81	51750.12
716.00	52002.02
716.18	51219.70
716.37	51277.04
716.56	51442.93
716.75	51619.05
716.94	51127.54
717.12	51244.27
717.31	51555.57
717.50	51387.63
717.69	51442.93
717.88	51313.90
718.06	51223.79
718.25	51313.90
718.44	50750.71
718.63	50803.96
718.82	50771.19
719.00	51342.58
719.19	50844.92
719.38	50459.90
719.57	50296.06
719.76	50283.78
719.94	50365.70
720.13	50218.24
720.32	50658.56
720.51	50576.64
720.69	50074.88
720.88	50310.40
721.07	50193.67
721.26	50181.38
721.44	50167.04
721.63	50210.05
721.82	49413.39
722.01	49779.98
722.20	49902.85
722.38	49995.01
722.57	49636.62
722.76	49763.59
722.95	49577.23
723.13	49661.19
723.32	49521.93
723.51	48954.64
723.70	49315.09
723.88	49483.02
724.07	49059.09
724.26	49229.07
724.44	48731.42
724.63	49530.12
724.82	49538.32
725.01	49212.69
725.19	49159.44
725.38	48764.18
725.57	48807.19
725.76	49224.98
725.94	48514.33
726.13	48737.56
726.32	48921.88
726.51	48532.76
726.69	49216.78
726.88	48807.19
727.07	48870.68
727.25	48764.18
727.44	48647.45
727.63	48651.55
727.82	48268.58
728.00	48657.69
728.19	48909.59
728.38	48995.60
728.56	48561.44
728.75	48985.36
728.94	48731.42
729.12	49026.32
729.31	48708.89
729.50	48727.32
729.69	48545.05
729.87	48678.17
730.06	48213.28
730.25	48401.69
730.43	48928.02
730.62	48432.41
730.81	48579.87
730.99	48610.59
731.18	48530.72
731.37	48602.39
731.55	48743.70
731.74	48385.31
731.93	48477.47
732.11	48184.61
732.30	48665.88
732.49	48262.43
732.67	48270.62
732.86	48547.10
733.05	48385.31
733.23	48010.53
733.42	48309.53
733.61	48258.34
733.79	48362.78
733.98	48821.53
734.17	48354.59
734.35	48538.91
734.54	48581.91
734.73	48592.15
734.91	48321.82
735.10	47965.48
735.29	48626.97
735.47	48026.92
735.66	48213.28
735.84	47971.62
736.03	47740.20
736.22	48444.70
736.40	48301.34
736.59	48508.19
736.78	48299.30
736.96	47922.47
737.15	47875.37
737.33	47891.75
737.52	47666.47
737.71	47506.73
737.89	48305.44
738.08	47945.00
738.27	47527.21
738.45	48172.32
738.64	48307.49
738.82	47856.93
739.01	47854.89
739.20	47865.13
739.38	47973.67
739.57	48538.91
739.75	47996.20
739.94	47901.99
740.13	47742.25
740.31	47682.86
740.50	47666.47
740.68	48028.96
740.87	47684.90
741.06	47875.37
741.24	47678.76
741.43	47428.91
741.61	47742.25
741.80	47592.75
741.99	47439.15
742.17	47506.73
742.36	47652.14
742.54	47484.20
742.73	47707.43
742.91	47738.15
743.10	47416.62
743.29	47711.53
743.47	47252.78
743.66	47011.12
743.84	47361.33
744.03	47355.18
744.21	47113.52
744.40	47564.07
744.59	47174.96
744.77	46751.03
744.96	47086.90
745.14	47658.28
745.33	47494.44
745.51	47117.62
745.70	47228.21
745.88	46886.20
746.07	47004.98
746.26	47029.55
746.44	46798.13
746.63	47152.43
746.81	47318.32
747.00	46695.74
747.18	47119.66
747.37	47074.61
747.55	47000.88
747.74	46957.88
747.92	46495.03
748.11	46900.53
748.29	46781.75
748.48	46884.15
748.66	46585.15
748.85	47011.12
749.03	46695.74
749.22	46751.03
749.41	46423.36
749.59	46505.27
749.78	46206.27
749.96	46259.52
750.15	46409.02
750.33	46507.32
750.52	46456.12
750.70	46284.09
750.89	45964.61
751.07	46083.39
751.26	46060.87
751.44	46357.82
751.63	46236.99
751.81	46167.36
752.00	46099.78
752.18	46415.16
752.37	46024.00
752.55	45864.26
752.74	45782.34
752.92	46286.14
753.10	45641.03
753.29	45671.75
753.47	46089.54
753.66	45544.78
753.84	46077.25
754.03	45530.44
754.21	45479.24
754.40	46040.39
754.58	46060.87
754.77	45450.57
754.95	45565.26
755.14	45487.43
755.32	45569.35
755.51	45548.87
755.69	45462.86
755.88	45595.98
756.06	45608.26
756.24	45256.01
756.43	45530.44
756.61	45436.23
756.80	45096.27
756.98	45393.23
757.17	45501.77
757.35	45604.17
757.54	44983.63
757.72	45329.74
757.90	45159.76
758.09	44993.87
758.27	45014.35
758.46	45202.77
758.64	44993.87
758.83	45118.80
759.01	45374.80
759.19	45147.47
759.38	44971.35
759.56	45499.72
759.75	44899.67
759.93	45102.42
760.12	44377.43
760.30	45321.55
760.48	44764.50
760.67	44905.81
760.85	44821.84
761.04	44821.84
761.22	44582.23
761.40	44488.03
761.59	44236.12
761.77	44473.69
761.96	44885.33
762.14	44359.00
762.32	44113.25
762.51	44127.58
762.69	43973.98
762.88	44348.76
763.06	44993.87
763.24	44049.76
763.43	44485.98
763.61	44060.00
763.80	44016.99
763.98	44019.04
764.16	44037.47
764.35	43619.69
764.53	43478.38
764.72	44264.80
764.90	44049.76
765.08	43740.52
765.27	43709.80
765.45	43597.16
765.63	43439.47
765.82	44008.80
766.00	43674.98
766.18	43472.23
766.37	43992.42
766.55	43353.45
766.74	43515.24
766.92	43404.65
767.10	43046.26
767.29	43486.57
767.47	43158.89
767.65	43429.23
767.84	42505.59
768.02	43341.16
768.20	43081.07
768.39	42954.10
768.57	43005.30
768.75	42892.66
768.94	43373.93
769.12	43281.77
769.30	42716.53
769.49	42861.94
769.67	42720.63
769.85	42286.46
770.04	42870.13
770.22	42661.24
770.40	42544.50
770.59	42296.70
770.77	42440.06
770.95	42456.44
771.14	42184.06
771.32	41991.55
771.50	41946.50
771.69	42335.61
771.87	42622.33
772.05	42147.20
772.24	41614.72
772.42	42257.79
772.60	41870.72
772.78	41807.23
772.97	41686.40
773.15	41952.64
773.33	41891.20
773.52	41659.78
773.70	41958.78
773.88	42040.70
774.07	41934.21
774.25	41833.86
774.43	41997.70
774.61	41801.09
774.80	41944.45
774.98	41512.33
775.16	42044.80
775.34	41794.95
775.53	41592.20
775.71	42091.90
775.89	42108.29
776.08	42368.38
776.26	41819.52
776.44	41829.76
776.62	42005.89
776.81	41938.30
776.99	42243.45
777.17	41891.20
777.35	42028.41
777.54	42395.00
777.72	41807.23
777.90	42231.16
778.08	42542.45
778.27	42050.94
778.45	42456.44
778.63	42581.37
778.81	41885.06
779.00	42823.03
779.18	42091.90
779.36	42591.61
779.54	42042.75
779.73	42265.98
779.91	42521.98
780.09	42583.41
780.27	42487.16
780.46	42538.36
780.64	42743.16
780.82	42229.12
781.00	42173.82
781.19	42661.24
781.37	42792.31
781.55	42694.00
781.73	43033.97
781.91	42245.50
782.10	42317.18
782.28	42497.40
782.46	42540.41
782.64	42694.00
782.82	42448.25
783.01	42661.24
783.19	42927.47
783.37	42702.20
783.55	42585.46
783.74	43097.45
783.92	42538.36
784.10	43308.40
784.28	42847.60
784.46	42456.44
784.64	42560.89
784.83	42751.35
785.01	43185.52
785.19	42839.41
785.37	43150.70
785.55	42546.55
785.74	42206.59
785.92	42200.44
786.10	42755.44
786.28	42564.98
786.46	42544.50
786.64	41887.10
786.83	42169.72
787.01	42182.01
787.19	42065.28
787.37	42218.88
787.55	42329.47
787.74	42341.75
787.92	42317.18
788.10	42098.05
788.28	41774.47
788.46	42184.06
788.64	41848.19
788.82	42128.77
789.01	41883.01
789.19	42198.40
789.37	42096.00
789.55	42085.76
789.73	41235.85
789.91	41604.49
790.09	41364.87
790.28	41678.21
790.46	41205.13
790.64	41416.07
790.82	41268.62
791.00	41235.85
791.18	41192.84
791.36	41041.29
791.55	41104.78
791.73	40697.24
791.91	40521.11
792.09	40469.91
792.27	40768.91
792.45	40705.43
792.63	40371.61
792.81	40082.84
793.00	40189.34
793.18	40068.51
793.36	40457.62
793.54	39916.96
793.72	39939.49
793.90	40074.65
794.08	39759.27
794.26	39959.97
794.44	39720.35
794.62	39243.18
794.81	39505.32
794.99	39497.13
795.17	39503.27
795.35	39425.45
795.53	39171.50
795.71	39228.84
795.89	39073.20
796.07	38655.41
796.25	38727.09
796.43	38802.86
796.61	38528.44
796.80	38610.35
796.98	38591.92
797.16	38172.09
797.34	38491.57
797.52	38041.02
797.70	38213.05
797.88	38270.39
798.06	37979.58
798.24	37991.87
798.42	37717.44
798.60	37684.67
798.78	37625.28
798.96	37860.80
799.14	37703.10
799.32	37404.10
799.51	37385.67
799.69	37418.44
799.87	37426.63
800.05	37123.53
800.23	37410.25
800.41	36849.10
800.59	36957.64
800.77	36881.87
800.95	36795.85
801.13	37068.23
801.31	36474.32
801.49	36419.03
801.67	36165.08
801.85	36427.22
802.03	36320.73
802.21	35976.67
802.39	35818.97
802.57	36048.35
802.75	35870.17
802.93	35872.22
803.11	35782.11
803.29	35501.54
803.47	35050.99
803.65	35595.74
803.83	34962.92
804.01	35286.50
804.19	35149.29
804.37	35112.42
804.55	35126.76
804.73	34889.20
804.91	34772.46
805.09	35034.60
805.27	34770.41
805.45	34428.40
805.63	34657.78
805.81	34432.50
805.99	34455.03
806.17	34780.65
806.35	34307.57
806.53	34309.62
806.71	34256.37
806.89	34176.50
807.07	33771.00
807.25	34391.54
807.43	33762.81
807.61	33975.80
807.79	33775.10
807.97	33797.63
808.15	33703.42
808.33	33091.08
808.51	33383.94
808.69	33465.86
808.87	33175.05
809.05	32820.75
809.23	32826.89
809.41	32857.61
809.59	32914.95
809.77	33166.85
809.95	32886.28
810.13	32837.13
810.31	32652.81
810.49	32912.91
810.67	32669.20
810.84	32863.75
811.02	32396.82
811.20	32257.56
811.38	32142.87
811.56	32108.05
811.74	32169.49
811.92	32048.66
812.10	32159.25
812.28	32067.09
812.46	32452.11
812.64	31958.55
812.82	31942.17
813.00	32089.62
813.18	31696.41
813.36	31675.93
813.53	31178.28
813.71	31598.11
813.89	31387.17
814.07	31598.11
814.25	31432.22
814.43	31739.42
814.61	31237.67
814.79	31084.07
814.97	31129.12
815.15	31497.76
815.33	30993.96
815.50	30770.73
815.68	30991.91
815.86	31159.84
816.04	30793.26
816.22	30649.90
816.40	30762.54
816.58	30481.97
816.76	30463.54
816.94	30481.97
817.11	30633.52
817.29	30303.79
817.47	30127.67
817.65	30477.87
817.83	30311.99
818.01	30189.11
818.19	29822.52
818.37	30064.18
818.54	29707.83
818.72	29699.64
818.90	29625.92
819.08	29744.70
819.26	29673.02
819.44	29748.79
819.62	29668.92
819.80	29795.90
819.97	29871.67
820.15	29201.99
820.33	29429.31
820.51	29410.88
820.69	29144.64
820.87	29298.24
821.05	29437.50
821.22	29337.15
821.40	29228.61
821.58	28638.80
821.76	29175.36
821.94	28997.19
822.12	28898.89
822.29	29189.70
822.47	28792.39
822.65	29396.54
822.83	28591.69
823.01	28929.61
823.19	28776.01
823.36	28724.81
823.54	28374.61
823.72	28370.51
823.90	28327.50
824.08	28491.34
824.25	28735.05
824.43	28452.43
824.61	28487.25
824.79	28401.23
824.97	28302.93
825.15	28587.60
825.32	28122.71
825.50	28024.40
825.68	27772.50
825.86	28216.91
826.04	28421.71
826.21	28036.69
826.39	27885.14
826.57	27981.40
826.75	27811.42
826.93	27598.43
827.10	27715.16
827.28	27586.14
827.46	27903.57
827.64	27588.19
827.81	27711.07
827.99	27631.19
828.17	27330.14
828.35	27078.24
828.53	27545.18
828.70	27426.40
828.88	27487.84
829.06	27260.51
829.24	27491.93
829.41	26877.54
829.59	27471.45
829.77	26818.15
829.95	27022.95
830.12	27160.16
830.30	27256.42
830.48	27237.98
830.66	26668.65
830.84	27141.73
831.01	26807.91
831.19	26672.74
831.37	26543.72
831.55	26611.31
831.72	26818.15
831.90	26533.48
832.08	26670.70
832.25	26705.51
832.43	26476.14
832.61	26470.00
832.79	26435.18
832.96	26433.13
833.14	26486.38
833.32	26525.29
833.50	26586.73
833.67	26343.02
833.85	26228.34
834.03	26099.31
834.20	26347.12
834.38	26039.92
834.56	26603.11
834.74	26105.46
834.91	25966.20
835.09	26084.98
835.27	25697.91
835.44	26175.09
835.62	25382.52
835.80	25867.89
835.98	25566.84
836.15	25831.03
836.33	25659.00
836.51	26138.23
836.68	25788.02
836.86	25812.60
837.04	25894.52
837.21	25665.14
837.39	25951.86
837.57	25540.22
837.75	25675.38
837.92	25450.11
838.10	25687.67
838.28	25190.02
838.45	25370.24
838.63	25337.47
838.81	25345.66
838.98	25306.75
839.16	25175.68
839.34	25337.47
839.51	24860.29
839.69	24929.92
839.87	25044.61
840.04	25214.59
840.22	25345.66
840.40	25073.28
840.57	24798.85
840.75	25118.34
840.93	24739.46
841.10	24974.98
841.28	25198.21
841.46	24929.92
841.63	24612.49
841.81	25095.81
841.98	25003.65
842.16	25169.54
842.34	24581.77
842.51	24792.71
842.69	25024.13
842.87	24766.09
843.04	24606.34
843.22	24462.99
843.40	24485.51
843.57	24362.64
843.75	24317.58
843.92	24596.10
844.10	24467.08
844.28	24487.56
844.45	24321.68
844.63	24336.01
844.81	24129.17
844.98	24479.37
845.16	24184.46
845.33	24479.37
845.51	23985.81
845.69	23926.42
845.86	24131.22
846.04	23787.16
846.21	24172.18
846.39	23907.99
846.57	23791.25
846.74	23846.55
846.92	24192.65
847.09	23897.75
847.27	23658.14
847.45	23664.28
847.62	24182.42
847.80	23778.97
847.97	23776.92
848.15	23928.47
848.32	23709.33
848.50	23830.16
848.68	23498.39
848.85	23727.77
849.03	23447.19
849.20	23457.43
849.38	23647.90
849.56	23584.41
849.73	23408.28
849.91	23269.02
850.08	23723.67
850.26	22814.37
850.43	23502.49
850.61	23322.27
850.78	22941.35
850.96	23062.18
851.14	22857.38
851.31	23088.80
851.49	22970.02
851.66	23369.37
851.84	23211.68
852.01	23164.57
852.19	23056.03
852.36	22986.40
852.54	22791.84
852.71	22996.64
852.89	22859.43
853.07	23092.90
853.24	23010.98
853.42	22914.72
853.59	22955.68
853.77	23219.87
853.94	23129.76
854.12	23195.29
854.29	22525.61
854.47	22845.09
854.64	22754.98
854.82	22765.22
854.99	22695.59
855.17	22705.83
855.34	22541.99
855.52	22677.16
855.69	22714.02
855.87	22320.81
856.04	22408.87
856.22	22429.35
856.39	22218.41
856.57	22548.14
856.74	22570.66
856.92	22535.85
857.09	22365.87
857.27	21950.13
857.44	22224.56
857.62	22240.94
857.79	22107.82
857.97	22113.97
858.14	22267.56
858.32	22054.58
858.49	22165.17
858.67	22042.29
858.84	21800.63
859.02	22351.53
859.19	22032.05
859.37	22001.33
859.54	21817.01
859.72	22130.35
859.89	21853.87
860.06	21651.13
860.24	21866.16
860.41	22138.54
860.59	21554.87
860.76	21782.20
860.94	21380.79
861.11	21825.20
861.29	21956.27
861.46	21493.43
861.64	21710.52
861.81	21530.30
861.98	21532.34
862.16	21296.83
862.33	21460.66
862.51	21300.92
862.68	21622.45
862.86	21081.79
863.03	21151.42
863.21	21196.48
863.38	21317.31
863.55	21362.36
863.73	21294.78
863.90	21159.61
864.08	21122.75
864.25	21219.00
864.43	21159.61
864.60	21182.14
864.77	21106.37
864.95	20758.21
865.12	20893.38
865.30	20973.25
865.47	21083.84
865.64	21153.47
865.82	20989.63
865.99	21139.13
866.17	21153.47
866.34	21034.69
866.51	20879.04
866.69	20985.54
866.86	21044.93
867.04	20747.97
867.21	20623.05
867.38	20565.70
867.56	20733.64
867.73	20543.17
867.91	20440.78
868.08	20498.12
868.25	20213.45
868.43	20418.25
868.60	20139.72
868.78	20311.75
868.95	20645.57
869.12	20551.37
869.30	20260.55
869.47	20582.09
869.64	20029.13
869.82	20250.32
869.99	20178.64
870.16	20334.28
870.34	20223.69
870.51	20111.05
870.69	19764.95
870.86	20137.68
871.03	20313.80
871.21	19754.71
871.38	20000.46
871.55	19953.36
871.73	20010.70
871.90	19740.37
872.07	19900.11
872.25	19670.74
872.42	19783.38
872.59	19562.20
872.77	19662.55
872.94	19883.73
873.11	19824.34
873.29	19480.28
873.46	19703.51
873.63	19519.19
873.81	19519.19
873.98	19248.86
874.15	19424.98
874.33	19265.24
874.50	19046.11
874.67	19218.14
874.85	19111.64
875.02	19173.08
875.19	19101.40
875.37	19058.40
875.54	18667.24
875.71	18960.09
875.88	19005.15
876.06	18716.39
876.23	18816.74
876.40	18810.59
876.58	18859.74
876.75	18794.21
876.92	18368.23
877.10	18986.72
877.27	18638.56
877.44	18536.17
877.61	18587.36
877.79	18665.19
877.96	18652.90
878.13	18630.37
878.31	18380.52
878.48	18446.05
878.65	18466.53
878.82	18353.90
879.00	18179.82
879.17	18433.77
879.34	18370.28
879.51	18198.25
879.69	18128.62
879.86	18288.36
880.03	18161.39
880.21	17923.82
880.38	18052.84
880.55	18196.20
880.72	17989.36
880.90	18190.06
881.07	18050.80
881.24	18009.84
881.41	18102.00
881.59	17843.95
881.76	17729.27
881.93	17809.14
882.10	17889.01
882.28	17491.70
882.45	17815.28
882.62	17921.77
882.79	17692.40
882.96	17573.62
883.14	17618.68
883.31	17839.86
883.48	17708.79
883.65	17680.11
883.83	17467.13
884.00	17307.38
884.17	17346.30
884.34	17958.64
884.51	17450.74
884.69	17503.99
884.86	17415.93
885.03	17200.89
885.20	17264.38
885.38	17368.82
885.55	17291.00
885.72	17477.37
885.89	17223.42
886.06	17186.55
886.24	17241.85
886.41	17106.68
886.58	17299.19
886.75	17360.63
886.92	17051.39
887.10	17180.41
887.27	16922.37
887.44	17116.92
887.61	17409.78
887.78	17198.84
887.95	17237.75
888.13	16946.94
888.30	16797.44
888.47	16948.99
888.64	17096.44
888.81	16852.73
888.99	16963.33
889.16	16891.65
889.33	16480.00
889.50	16871.17
889.67	16711.42
889.84	16830.21
890.01	16764.67
890.19	16709.38
890.36	16748.29
890.53	16631.55
890.70	16404.23
890.87	16525.06
891.04	16408.33
891.22	16473.86
891.39	16504.58
891.56	16205.58
891.73	16373.51
891.90	16330.50
892.07	16135.95
892.24	16277.26
892.42	16248.58
892.59	16162.57
892.76	16295.69
892.93	16297.74
893.10	16219.91
893.27	16183.05
893.44	15984.40
893.61	16088.84
893.79	16418.57
893.96	16133.90
894.13	16375.56
894.30	16043.79
894.47	16230.15
894.64	15857.42
894.81	16066.31
894.98	16109.32
895.15	15752.98
895.33	16154.38
895.50	16170.76
895.67	15970.06
895.84	15992.59
896.01	15978.25
896.18	15937.29
896.35	16047.88
896.52	16123.66
896.69	16064.27
896.86	16004.88
897.04	15961.87
897.21	15933.20
897.38	15976.20
897.55	15943.44
897.72	15922.96
897.89	15955.72
898.06	15851.28
898.23	15791.89
898.40	15859.47
898.57	15863.57
898.74	15933.20
898.91	15789.84
899.08	15861.52
899.26	15732.50
899.43	16076.55
899.60	15636.24
899.77	15810.32
899.94	15804.17
900.11	15621.91
900.28	16054.03
900.45	15628.05
900.62	15603.47
900.79	15785.74
900.96	15783.70
901.13	15726.35
901.30	15800.08
901.47	15699.73
901.64	15826.70
901.81	15765.26
901.98	15613.71
902.15	15918.86
902.32	15550.23
902.49	15439.64
902.66	15830.80
902.83	15787.79
903.01	16047.88
903.18	15841.04
903.35	16002.83
903.52	15787.79
903.69	15732.50
903.86	15789.84
904.03	15574.80
904.20	15818.51
904.37	15773.46
904.54	15648.53
904.71	15468.31
904.88	15859.47
905.05	15791.89
905.22	15550.23
905.39	15333.14
905.56	15593.23
905.73	15585.04
905.90	15363.86
906.07	15664.91
906.24	15722.26
906.41	15558.42
906.58	15556.37
906.75	15728.40
906.92	15785.74
907.09	15734.54
907.26	15533.84
907.43	15435.54
907.60	15546.13
907.77	15736.59
907.93	15535.89
908.10	15728.40
908.27	15580.95
908.44	15263.51
908.61	15413.01
908.78	15449.88
908.95	15718.16
909.12	15402.77
909.29	15333.14
909.46	15382.29
909.63	15660.82
909.80	15505.17
909.97	15564.56
910.14	15527.70
910.31	15347.48
910.48	15210.26
910.65	15404.82
910.82	15355.67
910.99	15314.71
911.16	15496.98
911.33	15310.61
911.50	15365.91
911.66	15075.10
911.83	15290.13
912.00	15263.51
912.17	15101.72
912.34	15077.15
912.51	14868.25
912.68	15111.96
912.85	15042.33
913.02	15052.57
913.19	14987.04
913.36	14976.80
913.53	15255.32
913.70	14927.64
913.86	14929.69
914.03	14796.57
914.20	14911.26
914.37	15013.66
914.54	14958.36
914.71	14800.67
914.88	14888.73
915.05	14642.98
915.22	14587.68
915.39	14614.30
915.55	14737.18
915.72	14528.29
915.89	14481.19
916.06	14616.35
916.23	14559.01
916.40	14466.85
916.57	14255.91
916.74	14454.56
916.91	14221.10
917.07	14290.73
917.24	14133.03
917.41	14290.73
917.58	14227.24
917.75	14122.79
917.92	13944.62
918.09	14163.75
918.26	14020.39
918.42	13969.19
918.59	13795.12
918.76	14034.73
918.93	13745.97
919.10	13639.47
919.27	13854.51
919.44	13739.82
919.60	13727.53
919.77	13537.07
919.94	13387.57
920.11	13567.79
920.28	13535.03
920.45	13504.31
920.61	13455.15
920.78	13659.95
920.95	13231.93
921.12	13442.87
921.29	13233.97
921.46	12949.31
921.62	13070.14
921.79	13326.13
921.96	13162.30
922.13	13035.32
922.30	13004.60
922.47	13029.18
922.63	12816.19
922.80	12775.23
922.97	12629.82
923.14	12584.77
923.31	12721.98
923.47	12709.69
923.64	12883.77
923.81	12453.70
923.98	12545.86
924.15	12541.76
924.32	12439.36
924.48	12310.34
924.65	12226.37
924.82	12310.34
924.99	12203.85
925.15	12314.44
925.32	12257.09
925.49	12115.78
925.66	11992.90
925.83	11792.20
925.99	11964.23
926.16	11937.61
926.33	12029.77
926.50	11700.05
926.67	11837.26
926.83	11867.98
927.00	11583.31
927.17	11714.38
927.34	11294.55
927.50	11616.08
927.67	11560.78
927.84	11382.61
928.01	11476.82
928.17	11317.08
928.34	11177.81
928.51	11110.23
928.68	10993.50
928.84	11370.32
929.01	11038.55
929.18	11130.71
929.35	10835.80
929.51	10887.00
929.68	11050.84
929.85	10753.88
930.02	10899.29
930.18	10792.80
930.35	10805.08
930.52	10704.73
930.69	10688.35
930.85	10731.36
931.02	10399.59
931.19	10516.32
931.36	10440.54
931.52	10508.13
931.69	10565.47
931.86	10413.92
932.02	10248.04
932.19	10266.47
932.36	10209.12
932.53	10252.13
932.69	10080.10
932.86	10092.39
933.03	9949.03
933.19	9865.07
933.36	9955.18
933.53	9742.19
933.70	9762.67
933.86	9688.94
934.03	9690.99
934.20	9549.68
934.36	9840.49
934.53	9207.67
934.70	9400.18
934.86	9289.59
935.03	9269.11
935.20	9258.87
935.36	9207.67
935.53	9023.35
935.70	8906.62
935.86	9033.59
936.03	8933.24
936.20	8730.49
936.36	8798.07
936.53	8689.53
936.70	8656.76
936.86	8607.61
937.03	8540.03
937.20	8468.35
937.36	8517.50
937.53	8054.66
937.70	8155.01
937.86	8085.38
938.03	7944.07
938.20	8114.05
938.36	7903.11
938.53	7825.29
938.70	7673.74
938.86	7602.06
939.03	7573.39
939.20	7604.11
939.36	7235.47
939.53	7294.86
939.70	7499.66
939.86	7145.36
940.03	6977.43
940.19	6989.72
940.36	6707.10
940.53	6938.52
940.69	6674.33
940.86	6940.57
941.03	6604.70
941.19	6432.67
941.36	6553.50
941.52	6545.31
941.69	6150.05
941.86	6432.67
942.02	6367.13
942.19	6191.01
942.35	6180.77
942.52	6199.20
942.69	6004.64
942.85	6004.64
943.02	6033.32
943.18	5988.26
943.35	5865.38
943.52	5738.41
943.68	5795.75
943.85	5738.41
944.01	5554.09
944.18	5500.84
944.35	5697.45
944.51	5654.44
944.68	5490.60
944.84	5451.69
945.01	5466.03
945.17	5550.00
945.34	5433.26
945.51	5523.37
945.67	5486.51
945.84	5539.76
946.00	5296.05
946.17	5373.87
946.33	5369.77
946.50	5685.16
946.67	5291.95
946.83	5306.29
947.00	5367.73
947.16	5296.05
947.33	5314.48
947.49	5263.28
947.66	5332.91
947.82	5410.73
947.99	5173.17
948.16	5316.53
948.32	5359.53
948.49	5300.14
948.65	5326.77
948.82	5427.12
948.98	5316.53
949.15	5312.43
949.31	5287.86
949.48	5238.70
949.64	5283.76
949.81	5347.25
949.97	5226.42
950.14	5490.60
950.30	5296.05
950.47	5334.96
950.63	5400.49
950.80	5320.62
950.96	5431.21
951.13	5365.68
951.30	5316.53
951.46	5347.25
951.63	5398.45
951.79	5388.21
951.96	5519.28
952.12	5345.20
952.29	5447.60
952.45	5429.17
952.62	5357.49
952.78	5568.43
952.94	5427.12
953.11	5423.02
953.27	5408.69
953.44	5498.80
953.60	5420.97
953.77	5363.63
953.93	5351.34
954.10	5455.79
954.26	5566.38
954.43	5373.87
954.59	5494.70
954.76	5384.11
954.92	5492.65
955.09	5552.04
955.25	5396.40
955.42	5533.61
955.58	5488.56
955.75	5484.46
955.91	5408.69
956.07	5468.08
956.24	5482.41
956.40	5535.66
956.57	5435.31
956.73	5521.32
956.90	5478.32
957.06	5513.13
957.23	5296.05
957.39	5328.81
957.56	5496.75
957.72	5349.29
957.88	5537.71
958.05	5560.24
958.21	5605.29
958.38	5492.65
958.54	5545.90
958.71	5582.76
958.87	5468.08
959.03	5500.84
959.20	5472.17
959.36	5427.12
959.53	5326.77
959.69	5339.05
959.85	5515.18
960.02	5226.42
960.18	5494.70
960.35	5496.75
960.51	5509.04
960.68	5345.20
960.84	5439.40
961.00	5386.16
961.17	5261.23
961.33	5535.66
961.50	5517.23
961.66	5498.80
961.82	5373.87
961.99	5400.49
962.15	5390.25
962.31	5414.83
962.48	5513.13
962.64	5449.64
962.81	5414.83
962.97	5535.66
963.13	5523.37
963.30	5468.08
963.46	5377.97
963.62	5330.86
963.79	5328.81
963.95	5310.38
964.12	5392.30
964.28	5375.92
964.44	5173.17
964.61	5435.31
964.77	5371.82
964.93	5392.30
965.10	5488.56
965.26	5367.73
965.42	5298.10
965.59	5390.25
965.75	5232.56
965.92	5339.05
966.08	5431.21
966.24	5427.12
966.41	5183.41
966.57	5386.16
966.73	5294.00
966.90	5195.70
967.06	5175.22
967.22	5281.71
967.39	5173.17
967.55	5203.89
967.71	5220.27
967.88	5189.55
968.04	5214.13
968.20	5091.25
968.37	5007.28
968.53	5167.03
968.69	5007.28
968.85	5220.27
969.02	5109.68
969.18	5136.31
969.34	5214.13
969.51	5078.96
969.67	5070.77
969.83	5119.92
970.00	5074.87
970.16	5222.32
970.32	5076.91
970.48	5101.49
970.65	4958.13
970.81	4868.02
970.97	4997.04
971.14	4954.04
971.30	5181.36
971.46	4919.22
971.63	4845.49
971.79	5056.43
971.95	4960.18
972.11	4892.60
972.28	4992.95
972.44	5027.76
972.60	4951.99
972.76	4876.21
972.93	4808.63
973.09	5029.81
973.25	4835.25
973.42	4843.45
973.58	5017.52
973.74	4853.69
973.90	4956.08
974.07	5023.67
974.23	4810.68
974.39	4706.23
974.55	4673.46
974.72	4630.46
974.88	4751.29
975.04	4812.73
975.20	4687.80
975.37	4839.35
975.53	4788.15
975.69	4622.27
975.85	4681.66
976.01	4743.10
976.18	4786.10
976.34	4695.99
976.50	4540.35
976.66	4712.38
976.83	4560.83
976.99	4698.04
977.15	4661.18
977.31	4655.03
977.47	4659.13
977.64	4739.00
977.80	4562.87
977.96	4630.46
978.12	4577.21
978.29	4509.63
978.45	4546.49
978.61	4546.49
978.77	4505.53
978.93	4577.21
979.10	4444.09
979.26	4534.20
979.42	4519.87
979.58	4296.64
979.74	4444.09
979.91	4489.15
980.07	4364.22
980.23	4419.52
980.39	4376.51
980.55	4259.78
980.71	4384.70
980.88	4296.64
981.04	4425.66
981.20	4329.41
981.36	4433.85
981.52	4267.97
981.68	4286.40
981.85	4286.40
982.01	4313.02
982.17	4347.84
982.33	4302.78
982.49	4433.85
982.65	4394.94
982.82	4227.01
982.98	4222.91
983.14	4255.68
983.30	4282.30
983.46	4288.45
983.62	4214.72
983.79	4239.30
983.95	4120.51
984.11	4046.79
984.27	4104.13
984.43	4220.86
984.59	4110.27
984.75	4302.78
984.91	4159.42
985.08	4304.83
985.24	4169.66
985.40	3960.77
985.56	4059.07
985.72	4110.27
985.88	4227.01
986.04	4018.11
986.20	4005.83
986.37	4046.79
986.53	4032.45
986.69	4067.27
986.85	3940.29
987.01	3968.96
987.17	3973.06
987.33	4038.59
987.49	3995.59
987.65	4022.21
987.82	3911.62
987.98	3952.58
988.14	3932.10
988.30	3999.68
988.46	3956.68
988.62	3841.99
988.78	3971.01
988.94	3946.44
989.10	3841.99
989.26	3831.75
989.42	3833.80
989.59	3731.40
989.75	3850.18
989.91	3862.47
990.07	3692.49
990.23	3780.55
990.39	3805.13
990.55	3866.56
990.71	3753.93
990.87	3682.25
991.03	3899.33
991.19	3762.12
991.35	3786.69
991.51	3784.65
991.67	3831.75
991.83	3827.65
992.00	3706.82
992.16	3731.40
992.32	3637.19
992.48	3686.34
992.64	3608.52
992.80	3622.86
992.96	3686.34
993.12	3807.17
993.28	3698.63
993.44	3743.69
993.60	3629.00
993.76	3608.52
993.92	3583.95
994.08	3663.82
994.24	3645.38
994.40	3633.10
994.56	3610.57
994.72	3526.60
994.88	3522.51
995.04	3577.80
995.20	3483.59
995.36	3444.68
995.52	3551.18
995.68	3477.45
995.84	3493.83
996.00	3499.98
996.16	3358.67
996.32	3405.77
996.48	3432.40
996.64	3477.45
996.80	3463.12
996.96	3420.11
997.12	3338.19
997.28	3301.33
997.44	3321.81
997.60	3416.01
997.76	3246.03
997.92	3477.45
998.08	3391.44
998.24	3299.28
998.40	3389.39
998.56	3266.51
998.72	3243.98
998.88	3385.29
999.04	3262.41
999.20	3344.33
999.36	3280.85
999.52	3366.86
999.68	3319.76
999.84	3375.05
1000.00	3209.17
1000.16	3317.71
1000.32	3200.98
1000.48	3325.90
1000.64	3153.87
1000.80	3280.85
1000.95	3071.95
1001.11	3311.57
1001.27	3166.16
1001.43	3231.69
1001.59	3078.10
1001.75	3149.78
1001.91	3147.73
1002.07	3076.05
1002.23	3114.96
1002.39	3014.61
1002.55	3243.98
1002.71	3213.26
1002.87	3119.06
1003.03	3033.04
1003.19	3071.95
1003.34	3225.55
1003.50	3053.52
1003.66	2994.13
1003.82	3037.14
1003.98	2992.08
1004.14	3071.95
1004.30	2992.08
1004.46	3030.99
1004.62	3067.86
1004.78	2994.13
1004.94	3002.32
1005.09	3090.38
1005.25	3082.19
1005.41	2983.89
1005.57	3071.95
1005.73	2961.36
1005.89	2920.40
1006.05	3026.90
1006.21	2965.46
1006.37	2893.78
1006.52	2858.96
1006.68	2856.92
1006.84	2965.46
1007.00	2889.68
1007.16	2844.63
1007.32	2777.05
1007.48	2910.16
1007.64	2863.06
1007.79	2891.73
1007.95	2908.12
1008.11	2936.79
1008.27	2760.66
1008.43	2803.67
1008.59	2793.43
1008.75	3004.37
1008.91	2772.95
1009.06	2803.67
1009.22	2893.78
1009.38	2770.90
1009.54	2844.63
1009.70	2801.62
1009.86	2750.42
1010.01	2803.67
1010.17	2793.43
1010.33	2777.05
1010.49	2729.94
1010.65	2842.58
1010.81	2734.04
1010.96	2746.33
1011.12	2688.98
1011.28	2701.27
1011.44	2758.61
1011.60	2721.75
1011.76	2648.02
1011.91	2746.33
1012.07	2633.69
1012.23	2656.22
1012.39	2551.77
1012.55	2707.41
1012.71	2611.16
1012.86	2600.92
1013.02	2625.50
1013.18	2686.94
1013.34	2598.87
1013.50	2715.61
1013.65	2660.31
1013.81	2617.30
1013.97	2580.44
1014.13	2674.65
1014.29	2609.11
1014.44	2629.59
1014.60	2562.01
1014.76	2609.11
1014.92	2480.09
1015.07	2586.58
1015.23	2609.11
1015.39	2541.53
1015.55	2494.43
1015.71	2607.06
1015.86	2506.71
1016.02	2566.10
1016.18	2535.39
1016.34	2551.77
1016.49	2500.57
1016.65	2590.68
1016.81	2504.67
1016.97	2537.43
1017.12	2416.60
1017.28	2459.61
1017.44	2420.70
1017.60	2430.94
1017.75	2414.56
1017.91	2486.23
1018.07	2453.47
1018.23	2490.33
1018.38	2387.93
1018.54	2338.78
1018.70	2449.37
1018.86	2336.73
1019.01	2392.03
1019.17	2353.12
1019.33	2510.81
1019.49	2410.46
1019.64	2416.60
1019.80	2392.03
1019.96	2412.51
1020.12	2424.80
1020.27	2281.44
1020.43	2322.40
1020.59	2404.32
1020.74	2394.08
1020.90	2494.43
1021.06	2238.43
1021.22	2330.59
1021.37	2375.64
1021.53	2271.20
1021.69	2408.41
1021.84	2166.75
1022.00	2303.96
1022.16	2228.19
1022.31	2318.30
1022.47	2322.40
1022.63	2363.36
1022.79	2240.48
1022.94	2224.09
1023.10	2342.88
1023.26	2299.87
1023.41	2326.49
1023.57	2189.28
1023.73	2301.92
1023.88	2207.71
1024.04	2232.29
1024.20	2187.23
1024.35	2291.68
1024.51	2265.05
1024.67	2209.76
1024.82	2299.87
1024.98	2207.71
1025.14	2275.29
1025.29	2217.95
1025.45	2303.96
1025.61	2189.28
1025.76	2308.06
1025.92	2189.28
1026.08	2203.61
1026.23	2258.91
1026.39	2195.42
1026.55	2156.51
1026.70	2107.36
1026.86	2082.78
1027.02	2148.32
1027.17	2174.94
1027.33	2113.50
1027.48	2121.70
1027.64	2123.74
1027.80	2176.99
1027.95	2176.99
1028.11	2068.45
1028.27	2039.78
1028.42	2097.12
1028.58	2142.18
1028.73	2078.69
1028.89	1986.53
1029.05	2146.27
1029.20	2152.42
>>>>>End Processed Spectral Data<<<<<
