SpectraSuite Data File
++++++++++++++++++++++++++++++++++++
Date: Fri Jun 02 14:52:29 CEST 2017
User: INFO_000
Dark Spectrum Present: No
Reference Spectrum Present: No
Number of Sampled Component Spectra: 1
Spectrometers: USB4H00879
Integration Time (usec): 80000 (USB4H00879)
Spectra Averaged: 1 (USB4H00879)
Boxcar Smoothing: 0 (USB4H00879)
Correct for Electrical Dark: No (USB4H00879)
Strobe/Lamp Enabled: No (USB4H00879)
Correct for Detector Non-linearity: No (USB4H00879)
Correct for Stray Light: No (USB4H00879)
Number of Pixels in Processed Spectrum: 3648
>>>>>Begin Processed Spectral Data<<<<<
345.13	1255.40
345.34	1255.40
345.56	1255.40
345.78	1316.84
345.99	1255.40
346.21	1728.49
346.42	1720.29
346.64	1611.75
346.86	1822.69
347.07	1665.00
347.29	1697.77
347.50	1517.54
347.72	1650.66
347.94	1689.57
348.15	1605.61
348.37	1640.42
348.59	1681.38
348.80	1681.38
349.02	1794.02
349.23	1912.80
349.45	1830.88
349.67	1861.60
349.88	1785.83
350.10	1916.90
350.31	1871.84
350.53	1834.98
350.75	2062.30
350.96	1871.84
351.18	1839.08
351.39	1945.57
351.61	1828.84
351.82	1865.70
352.04	1894.37
352.26	1791.97
352.47	1931.23
352.69	1896.42
352.90	1748.97
353.12	1818.60
353.34	1898.47
353.55	1867.75
353.77	1877.99
353.98	1847.27
354.20	1863.65
354.41	1972.19
354.63	1951.71
354.85	2017.25
355.06	1931.23
355.28	1820.64
355.49	1877.99
355.71	1857.51
355.92	1904.61
356.14	1961.95
356.35	1863.65
356.57	1880.04
356.79	1970.15
357.00	1904.61
357.22	1986.53
357.43	1918.95
357.65	1972.19
357.86	1918.95
358.08	1912.80
358.29	1966.05
358.51	1970.15
358.72	1978.34
358.94	2019.30
359.16	1892.32
359.37	1927.14
359.59	1974.24
359.80	1968.10
360.02	1988.58
360.23	1935.33
360.45	2066.40
360.66	1984.48
360.88	1888.23
361.09	1896.42
361.31	2045.92
361.52	2011.11
361.74	2017.25
361.95	2062.30
362.17	1955.81
362.38	2082.78
362.60	2015.20
362.81	1892.32
363.03	1953.76
363.24	1994.72
363.46	2084.83
363.67	2043.87
363.89	1972.19
364.10	1984.48
364.32	1912.80
364.53	2111.46
364.75	1875.94
364.96	2033.63
365.18	2060.26
365.39	1968.10
365.61	1902.56
365.82	2111.46
366.04	2037.73
366.25	1982.43
366.47	2029.54
366.68	1978.34
366.90	1947.62
367.11	2078.69
367.33	2099.17
367.54	2121.70
367.76	2000.87
367.97	2144.22
368.19	2047.97
368.40	2127.84
368.62	1982.43
368.83	2011.11
369.05	2086.88
369.26	2054.11
369.48	2027.49
369.69	2019.30
369.91	2090.98
370.12	2088.93
370.33	2142.18
370.55	2011.11
370.76	2070.50
370.98	2187.23
371.19	2031.58
371.41	2023.39
371.62	2078.69
371.84	1976.29
372.05	2140.13
372.27	2107.36
372.48	2041.82
372.69	2146.27
372.91	2103.26
373.12	2244.57
373.34	1998.82
373.55	2187.23
373.77	2174.94
373.98	2129.89
374.20	2168.80
374.41	2156.51
374.62	2166.75
374.84	2258.91
375.05	2224.09
375.27	2205.66
375.48	2240.48
375.70	2162.66
375.91	2271.20
376.12	2301.92
376.34	2197.47
376.55	2226.14
376.77	2273.25
376.98	2142.18
377.19	2144.22
377.41	2099.17
377.62	2248.67
377.84	2234.33
378.05	2387.93
378.27	2209.76
378.48	2312.16
378.69	2375.64
378.91	2303.96
379.12	2263.01
379.34	2217.95
379.55	2301.92
379.76	2238.43
379.98	2185.18
380.19	2260.96
380.41	2179.04
380.62	2359.26
380.83	2205.66
381.05	2187.23
381.26	2420.70
381.47	2244.57
381.69	2301.92
381.90	2346.97
382.12	2334.68
382.33	2260.96
382.54	2269.15
382.76	2287.58
382.97	2361.31
383.19	2287.58
383.40	2439.13
383.61	2375.64
383.83	2263.01
384.04	2375.64
384.25	2355.16
384.47	2340.83
384.68	2299.87
384.89	2330.59
385.11	2328.54
385.32	2408.41
385.54	2387.93
385.75	2346.97
385.96	2377.69
386.18	2363.36
386.39	2461.66
386.60	2363.36
386.82	2418.65
387.03	2455.51
387.24	2529.24
387.46	2473.95
387.67	2488.28
387.88	2541.53
388.10	2555.86
388.31	2475.99
388.52	2598.87
388.74	2523.10
388.95	2551.77
389.16	2543.58
389.38	2451.42
389.59	2557.91
389.80	2623.45
390.02	2465.75
390.23	2586.58
390.44	2588.63
390.66	2590.68
390.87	2494.43
391.08	2627.54
391.30	2682.84
391.51	2605.02
391.72	2748.37
391.94	2691.03
392.15	2594.78
392.36	2688.98
392.58	2572.25
392.79	2682.84
393.00	2775.00
393.22	2811.86
393.43	2723.80
393.64	2875.35
393.85	2701.27
394.07	2721.75
394.28	2787.29
394.49	2799.57
394.71	2830.29
394.92	2840.53
395.13	2756.57
395.35	2740.18
395.56	2738.13
395.77	2969.55
395.98	2906.07
396.20	2901.97
396.41	2940.88
396.62	2887.64
396.84	2805.72
397.05	2858.96
397.26	2856.92
397.47	2959.31
397.69	2813.91
397.90	3080.14
398.11	2979.79
398.32	2865.11
398.54	2836.44
398.75	2996.18
398.96	2975.70
399.18	3151.82
399.39	3071.95
399.60	3057.62
399.81	2971.60
400.03	2965.46
400.24	3262.41
400.45	3035.09
400.66	3229.65
400.88	3108.82
401.09	3274.70
401.30	3133.39
401.51	3217.36
401.73	3102.67
401.94	3313.61
402.15	3162.06
402.36	3166.16
402.58	3184.59
402.79	3188.69
403.00	3223.50
403.21	3293.13
403.43	3319.76
403.64	3235.79
403.85	3223.50
404.06	3338.19
404.27	3254.22
404.49	3299.28
404.70	3211.22
404.91	3354.57
405.12	3327.95
405.34	3434.44
405.55	3479.50
405.76	3221.45
405.97	3346.38
406.19	3461.07
406.40	3327.95
406.61	3401.68
406.82	3428.30
407.03	3286.99
407.25	3360.72
407.46	3420.11
407.67	3487.69
407.88	3565.51
408.09	3502.03
408.31	3493.83
408.52	3432.40
408.73	3489.74
408.94	3434.44
409.15	3450.83
409.37	3633.10
409.58	3624.90
409.79	3596.23
410.00	3657.67
410.21	3575.75
410.43	3506.12
410.64	3508.17
410.85	3510.22
411.06	3749.83
411.27	3665.86
411.48	3715.02
411.70	3633.10
411.91	3801.03
412.12	3633.10
412.33	3674.06
412.54	3712.97
412.76	3835.85
412.97	3817.41
413.18	3798.98
413.39	3749.83
413.60	3753.93
413.81	3807.17
414.03	3665.86
414.24	3758.02
414.45	3827.65
414.66	3665.86
414.87	3825.61
415.08	3702.73
415.30	3825.61
415.51	3880.90
415.72	3780.55
415.93	3829.70
416.14	3811.27
416.35	3870.66
416.56	3893.19
416.78	3848.13
416.99	3911.62
417.20	3934.15
417.41	3956.68
417.62	3999.68
417.83	4005.83
418.04	3887.04
418.26	3981.25
418.47	3958.72
418.68	3956.68
418.89	4011.97
419.10	4267.97
419.31	4034.50
419.52	4126.66
419.73	4032.45
419.95	4188.10
420.16	4122.56
420.37	4085.70
420.58	4132.80
420.79	3966.92
421.00	4186.05
421.21	4155.33
421.42	4034.50
421.63	4165.57
421.85	4188.10
422.06	4126.66
422.27	4173.76
422.48	4231.10
422.69	4186.05
422.90	4237.25
423.11	4384.70
423.32	4345.79
423.53	4356.03
423.75	4339.65
423.96	4437.95
424.17	4491.20
424.38	4538.30
424.59	4460.48
424.80	4585.40
425.01	4358.08
425.22	4495.29
425.43	4493.24
425.64	4597.69
425.85	4585.40
426.06	4622.27
426.28	4657.08
426.49	4620.22
426.70	4558.78
426.91	4603.83
427.12	4673.46
427.33	4804.53
427.54	4587.45
427.75	4786.10
427.96	4898.74
428.17	4689.85
428.38	4714.42
428.59	5048.24
428.80	4872.12
429.01	4892.60
429.23	4933.56
429.44	4992.95
429.65	5083.06
429.86	4919.22
430.07	4911.03
430.28	5062.58
430.49	5035.96
430.70	4974.52
430.91	5308.34
431.12	5255.09
431.33	5240.75
431.54	5025.72
431.75	5134.26
431.96	5093.30
432.17	5216.18
432.38	5261.23
432.59	5564.33
432.80	5142.45
433.01	5306.29
433.22	5242.80
433.43	5384.11
433.64	5220.27
433.85	5371.82
434.06	5427.12
434.27	5205.94
434.49	5433.26
434.70	5496.75
434.91	5394.35
435.12	5463.98
435.33	5492.65
435.54	5476.27
435.75	5302.19
435.96	5523.37
436.17	5484.46
436.38	5519.28
436.59	5711.78
436.80	5506.99
437.01	5623.72
437.22	5795.75
437.43	5664.68
437.64	5453.74
437.85	5781.42
438.06	5748.65
438.27	5674.92
438.48	5769.13
438.69	5928.87
438.90	5818.28
439.11	5834.66
439.32	5904.29
439.53	5906.34
439.74	5957.54
439.95	6008.74
440.16	5846.95
440.37	5953.45
440.57	5652.39
440.78	6018.98
440.99	6035.36
441.20	6064.04
441.41	6008.74
441.62	6107.04
441.83	5963.68
442.04	6184.87
442.25	6117.28
442.46	6010.79
442.67	6211.49
442.88	6590.36
443.09	6047.65
443.30	6244.26
443.51	6186.91
443.72	6614.94
443.93	6178.72
444.14	6600.60
444.35	6311.84
444.56	6356.90
444.77	6543.26
444.98	6688.67
445.19	6522.78
445.40	6387.61
445.61	6449.05
445.81	6653.85
446.02	6612.89
446.23	6604.70
446.44	6455.20
446.65	6752.15
446.86	6598.56
447.07	6600.60
447.28	6854.55
447.49	6901.65
447.70	6795.16
447.91	6956.95
448.12	6778.78
448.33	6907.80
448.54	6883.22
448.74	6901.65
448.95	6981.53
449.16	6940.57
449.37	7233.43
449.58	6946.71
449.79	7360.40
450.00	6989.72
450.21	7026.58
450.42	7298.96
450.63	7214.99
450.84	7253.91
451.05	7143.32
451.25	7317.39
451.46	7233.43
451.67	7405.46
451.88	7464.85
452.09	7335.82
452.30	7237.52
452.51	7278.48
452.72	7444.37
452.93	7823.24
453.13	7389.07
453.34	7430.03
453.55	7573.39
453.76	7673.74
453.97	7870.34
454.18	7872.39
454.39	7968.65
454.60	7604.11
454.81	7733.13
455.01	8021.89
455.22	7694.22
455.43	7780.23
455.64	8093.57
455.85	8185.73
456.06	8339.33
456.27	8128.39
456.48	7888.78
456.68	8243.07
456.89	8157.06
457.10	8372.10
457.31	8122.24
457.52	8259.46
457.73	8347.52
457.94	8513.41
458.14	8368.00
458.35	8669.05
458.56	8533.89
458.77	8527.74
458.98	8601.47
459.19	8646.52
459.39	8599.42
459.60	8863.61
459.81	8861.56
460.02	8816.51
460.23	8750.97
460.44	9043.83
460.65	8998.77
460.85	8986.49
461.06	9002.87
461.27	8863.61
461.48	9226.10
461.69	9461.62
461.89	8894.33
462.10	9340.79
462.31	9107.32
462.52	9228.15
462.73	9205.62
462.94	9443.18
463.14	9373.55
463.35	9359.22
463.56	9617.26
463.77	9580.40
463.98	9541.49
464.18	9598.83
464.39	9727.85
464.60	10012.52
464.81	9777.00
465.02	9680.75
465.23	10094.44
465.43	9963.37
465.64	10110.82
465.85	10100.58
466.06	9942.89
466.27	10348.39
466.47	10387.30
466.68	10327.91
466.89	10157.92
467.10	10393.44
467.30	10252.13
467.51	10520.42
467.72	10585.95
467.93	10389.35
468.14	10508.13
468.34	10772.32
468.55	10694.49
468.76	10858.33
468.97	10667.87
469.17	10839.90
469.38	11013.98
469.59	11108.18
469.80	10827.61
470.01	10825.56
470.21	11069.27
470.42	11489.10
470.63	11607.89
470.84	11298.64
471.04	11575.12
471.25	11374.42
471.46	11355.99
471.67	11556.69
471.87	11693.90
472.08	11630.41
472.29	11831.12
472.50	11706.19
472.70	11992.90
472.91	12021.58
473.12	12050.25
473.33	12107.59
473.53	12377.92
473.74	12076.87
473.95	12429.12
474.16	12609.34
474.36	12369.73
474.57	12797.76
474.78	12601.15
474.99	12515.14
475.19	12834.62
475.40	12865.34
475.61	12883.77
475.81	13162.30
476.02	13377.33
476.23	13000.51
476.44	13291.32
476.64	13698.86
476.85	13700.91
477.06	13403.96
477.27	13647.66
477.47	13786.93
477.68	13868.84
477.89	13958.96
478.09	14114.60
478.30	14030.63
478.51	14036.78
478.71	14311.21
478.92	14290.73
479.13	14341.93
479.34	14683.94
479.54	14485.28
479.75	14630.69
479.96	14958.36
480.16	14825.25
480.37	14831.39
480.58	14931.74
480.78	15146.78
480.99	15327.00
481.20	15025.95
481.41	15415.06
481.61	15531.80
481.82	15587.09
482.03	15642.39
482.23	15642.39
482.44	15712.02
482.65	15865.61
482.85	16103.18
483.06	16310.02
483.27	16064.27
483.47	16152.33
483.68	16168.71
483.89	16580.36
484.09	16615.17
484.30	16520.96
484.51	16654.08
484.71	16883.45
484.92	16852.73
485.13	16948.99
485.33	17020.67
485.54	16854.78
485.75	17278.71
485.95	17354.49
486.16	17463.03
486.37	17317.62
486.57	17678.07
486.78	17762.03
486.98	17514.23
487.19	17848.05
487.40	18185.96
487.60	17897.20
487.81	18206.44
488.02	18394.86
488.22	18071.28
488.43	18357.99
488.64	18480.87
488.84	18390.76
489.05	18693.86
489.25	18476.77
489.46	19142.36
489.67	19076.83
489.87	18898.66
490.08	19128.03
490.29	19179.23
490.49	19564.25
490.70	19603.16
490.90	19764.95
491.11	19576.53
491.32	19631.83
491.52	19760.85
491.73	19934.93
491.94	19971.79
492.14	20135.63
492.35	20227.79
492.55	20281.03
492.76	20158.16
492.97	20565.70
493.17	20817.60
493.38	20868.80
493.58	20803.27
493.79	20809.41
494.00	20911.81
494.20	20811.46
494.41	20965.06
494.61	21259.96
494.82	21513.91
495.02	20936.38
495.23	21309.11
495.44	21538.49
495.64	21802.68
495.85	21814.96
496.05	21741.24
496.26	21739.19
496.47	22005.42
496.67	22068.91
496.88	22429.35
497.08	21927.60
497.29	22431.40
497.49	22367.91
497.70	22290.09
497.91	22552.23
498.11	22691.49
498.32	22693.54
498.52	23217.82
498.73	23514.78
498.93	23244.45
499.14	23232.16
499.34	23266.97
499.55	23498.39
499.76	23281.31
499.96	23785.11
500.17	23553.69
500.37	23447.19
500.58	23838.36
500.78	24067.73
500.99	24047.25
501.19	24372.88
501.40	24106.64
501.60	23998.10
501.81	24084.11
502.02	24487.56
502.22	24352.40
502.43	24655.50
502.63	24448.65
502.84	24747.65
503.04	24505.99
503.25	24565.39
503.45	24780.42
503.66	25122.43
503.86	25085.57
504.07	25314.94
504.27	24835.72
504.48	25456.25
504.68	25491.07
504.89	25501.31
505.09	25474.68
505.30	25917.04
505.50	25808.50
505.71	25773.69
505.91	25822.84
506.12	25982.58
506.32	25933.43
506.53	26312.30
506.73	26078.83
506.94	26406.51
507.14	26310.25
507.35	26412.65
507.55	26437.23
507.76	26717.80
507.96	26586.73
508.17	26633.83
508.37	26850.92
508.58	26777.19
508.78	26730.09
508.99	27074.15
509.19	26955.36
509.40	26965.60
509.60	27049.57
509.81	27360.86
510.01	27127.39
510.22	27278.94
510.42	27262.56
510.63	27524.70
510.83	27395.68
511.04	27420.25
511.24	27819.61
511.44	27588.19
511.65	27616.86
511.85	27655.77
512.06	27764.31
512.26	28104.28
512.47	28223.06
512.67	28048.98
512.88	28155.47
513.08	27747.93
513.29	28057.17
513.49	28575.31
513.69	28427.85
513.90	28304.98
514.10	28296.78
514.31	28429.90
514.51	28298.83
514.72	28790.34
514.92	28657.23
515.13	28767.82
515.33	28708.43
515.53	28929.61
515.74	29027.91
515.94	28794.44
516.15	28958.28
516.35	28673.61
516.56	29156.93
516.76	29054.53
516.96	29189.70
517.17	29537.85
517.37	29556.28
517.58	29599.29
517.78	29361.73
517.99	29707.83
518.19	29879.86
518.39	30076.47
518.60	29656.64
518.80	29947.45
519.01	30000.69
519.21	30311.99
519.41	30068.28
519.62	30131.76
519.82	30207.54
520.03	30168.63
520.23	30301.75
520.43	30033.46
520.64	30524.97
520.84	30742.06
521.05	30570.03
521.25	30705.20
521.45	30742.06
521.66	30635.56
521.86	30572.08
522.07	30936.62
522.27	30686.76
522.47	31006.25
522.68	31290.91
522.88	30813.74
523.08	31407.65
523.29	31575.58
523.49	31438.37
523.70	31540.77
523.90	31665.69
524.10	32009.75
524.31	31954.46
524.51	31510.05
524.71	32204.31
524.92	32069.14
525.12	32220.69
525.33	32067.09
525.53	32482.83
525.73	32511.50
525.94	32157.21
526.14	32093.72
526.34	32060.95
526.55	32136.73
526.75	32546.32
526.95	33021.45
527.16	32628.24
527.36	32970.25
527.56	32960.01
527.77	33060.36
527.97	33060.36
528.17	32933.39
528.38	33418.75
528.58	33324.55
528.78	33371.65
528.99	33392.13
529.19	33537.54
529.39	33351.17
529.60	34035.19
529.80	33457.67
530.00	33887.74
530.21	34008.57
530.41	33785.34
530.61	33799.68
530.82	34366.96
531.02	34100.73
531.22	34213.37
531.43	34248.18
531.63	34584.05
531.83	34528.75
532.04	34897.39
532.24	34598.38
532.44	34842.09
532.64	34948.59
532.85	34754.03
533.05	35106.28
533.25	34973.16
533.46	35141.10
533.66	35493.35
533.86	35403.24
534.07	35180.01
534.27	35644.90
534.47	35642.85
534.67	35796.45
534.88	35706.34
535.08	35687.90
535.28	35804.64
535.49	35997.15
535.69	36369.88
535.89	36085.21
536.09	36226.52
536.30	36554.19
536.50	36408.79
536.70	36711.89
536.91	36591.06
537.11	36638.16
537.31	36554.19
537.51	36570.58
537.72	36804.05
537.92	36883.92
538.12	36898.25
538.32	36570.58
538.53	37101.00
538.73	37139.91
538.93	37021.13
539.13	37072.33
539.34	37084.62
539.54	37184.97
539.74	37342.66
539.94	37211.59
540.15	37443.01
540.35	37914.05
540.55	37543.36
540.75	37744.06
540.96	37887.42
541.16	37840.32
541.36	37932.48
541.56	38073.79
541.77	38178.23
541.97	37934.53
542.17	37940.67
542.37	38323.64
542.58	38262.20
542.78	38122.94
542.98	38159.80
543.18	38510.00
543.38	38827.44
543.59	38849.97
543.79	38290.87
543.99	38155.71
544.19	38651.31
544.40	38776.24
544.60	39124.40
544.80	38911.41
545.00	38831.54
545.20	39093.68
545.41	38974.89
545.61	39103.92
545.81	39497.13
546.01	39345.58
546.21	39505.32
546.42	39648.68
546.62	39339.43
546.82	39349.67
547.02	39556.52
547.22	39425.45
547.43	39484.84
547.63	39910.82
547.83	39593.38
548.03	39626.15
548.23	39667.11
548.44	40021.41
548.64	39851.42
548.84	39785.89
549.04	39996.83
549.24	40240.54
549.45	40261.02
549.65	39925.15
549.85	40527.25
550.05	40308.12
550.25	40508.82
550.45	40811.92
550.66	40238.49
550.86	40369.56
551.06	40908.18
551.26	40330.65
551.46	40291.74
551.66	40531.35
551.87	40394.14
552.07	40723.86
552.27	40277.40
552.47	40922.51
552.67	40895.89
552.87	40723.86
553.07	40914.32
553.28	40646.04
553.48	41405.83
553.68	41323.91
553.88	41295.24
554.08	41278.86
554.28	41090.44
554.48	41051.53
554.69	41641.35
554.89	41375.11
555.09	41108.88
555.29	41293.19
555.49	41457.03
555.69	41534.85
555.89	41725.32
556.10	41827.71
556.30	41385.35
556.50	42009.98
556.70	41477.51
556.90	41862.53
557.10	41883.01
557.30	41723.27
557.50	42032.51
557.70	41719.17
557.91	42026.37
558.11	42044.80
558.31	42290.55
558.51	42190.20
558.71	42077.57
558.91	42550.65
559.11	42317.18
559.31	42263.93
559.51	42296.70
559.72	42335.61
559.92	42626.42
560.12	42059.13
560.32	42691.96
560.52	42315.13
560.72	42575.22
560.92	42689.91
561.12	42745.20
561.32	43003.25
561.52	42794.36
561.72	43156.85
561.93	43154.80
562.13	43138.41
562.33	43119.98
562.53	43208.04
562.73	42915.19
562.93	43011.44
563.13	43302.25
563.33	42950.00
563.53	43165.04
563.73	42927.47
563.93	43294.06
564.13	43883.87
564.33	43580.78
564.53	43429.23
564.74	43877.73
564.94	43548.01
565.14	43758.95
565.34	43332.97
565.54	43799.91
565.74	43441.51
565.94	44610.90
566.14	43672.93
566.34	43890.02
566.54	44041.57
566.74	44127.58
566.94	44217.69
567.14	43910.50
567.34	43910.50
567.54	44035.42
567.74	43969.89
567.94	44176.73
568.14	44692.82
568.34	44356.96
568.54	44475.74
568.74	44399.96
568.94	44408.15
569.14	45124.94
569.34	44604.76
569.54	44748.12
569.75	44420.44
569.95	44578.14
570.15	44948.82
570.35	45006.16
570.55	44789.08
570.75	45225.29
570.95	44813.65
571.15	45102.42
571.35	45284.68
571.55	45552.97
571.75	45479.24
571.95	45112.66
572.15	45253.97
572.35	45065.55
572.55	45651.27
572.75	45452.62
572.95	45385.04
573.15	46175.55
573.35	45673.80
573.55	45532.49
573.75	45778.25
573.95	46085.44
574.15	45880.64
574.35	46101.82
574.55	45507.91
574.75	45929.80
574.95	46503.23
575.15	46257.47
575.34	46163.26
575.54	46626.10
575.74	46507.32
575.94	46794.04
576.14	46343.48
576.34	46888.24
576.54	46736.69
576.74	46968.12
576.94	46718.26
577.14	47250.74
577.34	47559.98
577.54	47129.90
577.74	47230.26
577.94	47482.16
578.14	47453.48
578.34	47529.26
578.54	47199.54
578.74	47480.11
578.94	48006.44
579.14	47420.72
579.34	47693.10
579.54	47873.32
579.74	48166.18
579.94	47844.65
580.13	48235.81
580.33	48080.16
580.53	48145.70
580.73	48358.69
580.93	48358.69
581.13	48141.60
581.33	48626.97
581.53	48796.95
581.73	48424.22
581.93	48852.25
582.13	48682.27
582.33	48889.11
582.53	48960.79
582.73	48760.09
582.92	48946.45
583.12	49530.12
583.32	49329.42
583.52	49306.90
583.72	49253.65
583.92	48821.53
584.12	49440.01
584.32	49720.59
584.52	49589.52
584.72	49579.28
584.92	49929.48
585.11	50300.16
585.31	49849.61
585.51	50111.75
585.71	49542.41
585.91	50244.87
586.11	49689.87
586.31	50121.99
586.51	50449.66
586.71	50203.91
586.91	50502.91
587.10	50287.87
587.30	50242.82
587.50	50484.48
587.70	50533.63
587.90	50615.55
588.10	50208.00
588.30	50779.39
588.50	51133.68
588.69	50926.84
588.89	50507.01
589.09	50699.51
589.29	50734.33
589.49	51303.67
589.69	50566.40
589.89	51256.56
590.08	51451.12
590.28	51361.01
590.48	50984.18
590.68	51350.77
590.88	51449.07
591.08	51193.07
591.28	51260.66
591.47	51977.45
591.67	51586.28
591.87	51588.33
592.07	51698.92
592.27	51586.28
592.47	52112.61
592.67	51576.04
592.86	51905.77
593.06	52458.72
593.26	52235.49
593.46	51954.92
593.66	52253.92
593.86	52583.65
594.05	52405.47
594.25	52868.31
594.45	52303.07
594.65	52448.48
594.85	52155.62
595.05	52597.98
595.24	52589.79
595.44	53075.16
595.64	52585.69
595.84	52604.13
596.04	53023.96
596.23	52880.60
596.43	53198.04
596.63	52909.27
596.83	52536.54
597.03	53050.58
597.22	53519.57
597.42	53302.48
597.62	53036.25
597.82	53286.10
598.02	53423.31
598.21	53542.10
598.41	53341.39
598.61	53646.54
598.81	53439.70
599.01	53095.64
599.20	53794.00
599.40	53249.24
599.60	53769.42
599.80	53798.09
600.00	53777.61
600.19	54332.61
600.39	54062.28
600.59	54170.82
600.79	54078.66
600.98	53953.74
601.18	54230.21
601.38	54324.42
601.58	54432.96
601.78	54639.81
601.97	54093.00
602.17	55090.36
602.37	54791.36
602.57	54678.72
602.76	54678.72
602.96	54428.87
603.16	54621.37
603.36	54547.65
603.55	55221.43
603.75	54662.33
603.95	55065.78
604.15	54951.10
604.34	54715.58
604.54	55069.88
604.74	55186.61
604.94	55098.55
605.13	55047.35
605.33	55063.74
605.53	54885.56
605.73	55604.40
605.92	55135.41
606.12	55309.49
606.32	55301.30
606.52	55321.78
606.71	55788.72
606.91	55678.13
607.11	55057.59
607.30	55719.09
607.50	55989.42
607.70	55776.43
607.90	55651.50
608.09	55817.39
608.29	55887.02
608.49	56399.01
608.68	55903.40
608.88	55837.87
609.08	55874.73
609.28	55827.63
609.47	55723.18
609.67	56462.50
609.87	56071.34
610.06	56292.52
610.26	56095.91
610.46	56341.67
610.66	55801.00
610.85	56145.06
611.05	55833.77
611.25	56224.93
611.44	56100.01
611.64	56145.06
611.84	56136.87
612.03	55893.16
612.23	56132.78
612.43	56353.96
612.62	56331.43
612.82	56448.16
613.02	56218.79
613.21	56386.72
613.41	56136.87
613.61	56177.83
613.80	55907.50
614.00	55944.36
614.20	56106.15
614.39	56638.62
614.59	56313.00
614.79	55760.05
614.98	56399.01
615.18	56153.26
615.38	56329.38
615.57	56329.38
615.77	56224.93
615.97	56337.57
616.16	56108.20
616.36	56026.28
616.56	56405.16
616.75	55811.24
616.95	55661.74
617.15	56018.09
617.34	56003.75
617.54	56413.35
617.74	56507.55
617.93	56173.73
618.13	55643.31
618.32	56304.80
618.52	55518.38
618.72	56220.84
618.91	56278.18
619.11	56022.19
619.31	56052.90
619.50	55887.02
619.70	56112.30
619.90	55614.64
620.09	55841.96
620.29	56120.49
620.48	55893.16
620.68	55932.07
620.88	55291.06
621.07	55884.97
621.27	55606.45
621.46	55612.59
621.66	55727.28
621.86	56046.76
622.05	55555.25
622.25	55780.52
622.44	55258.29
622.64	55751.85
622.84	56104.10
623.03	55418.03
623.23	56089.77
623.42	55364.79
623.62	55620.78
623.82	55837.87
624.01	55495.86
624.21	55973.03
624.40	55053.50
624.60	55631.02
624.80	55493.81
624.99	55733.42
625.19	54832.32
625.38	55653.55
625.58	55317.68
625.77	55753.90
625.97	55592.11
626.17	55260.34
626.36	55250.10
626.56	55430.32
626.75	55293.11
626.95	55719.09
627.14	55325.88
627.34	55706.80
627.54	55612.59
627.73	55471.28
627.93	55073.98
628.12	55225.53
628.32	55551.15
628.51	55280.82
628.71	55039.16
628.90	55344.31
629.10	54987.96
629.30	55205.05
629.49	55241.91
629.69	54981.82
629.88	55205.05
630.08	55514.29
630.27	54916.28
630.47	55491.76
630.66	54830.27
630.86	54799.55
631.05	55049.40
631.25	55235.77
631.44	55334.07
631.64	54875.32
631.84	55379.12
632.03	55610.54
632.23	55252.15
632.42	55669.93
632.62	55104.70
632.81	54715.58
633.01	55073.98
633.20	55510.19
633.40	55063.74
633.59	55375.03
633.79	54543.55
633.98	54899.90
634.18	55057.59
634.37	55078.07
634.57	54822.08
634.76	55352.50
634.96	55127.22
635.15	55383.22
635.35	54547.65
635.54	54658.24
635.74	54916.28
635.93	54908.09
636.13	55176.37
636.32	55049.40
636.52	54746.30
636.71	54969.53
636.91	55184.57
637.10	55540.91
637.30	54856.89
637.49	55354.55
637.69	55248.05
637.88	55360.69
638.08	54820.03
638.27	55323.83
638.46	54658.24
638.66	54256.84
638.85	54920.38
639.05	54691.01
639.24	55162.04
639.44	54772.92
639.63	55014.58
639.83	55051.45
640.02	55106.74
640.22	55162.04
640.41	55133.37
640.61	54525.12
640.80	55012.54
640.99	54975.67
641.19	55676.08
641.38	54938.81
641.58	54834.36
641.77	54887.61
641.97	54932.67
642.16	55209.14
642.36	55237.81
642.55	55155.89
642.74	54404.29
642.94	55841.96
643.13	54877.37
643.33	55276.72
643.52	55692.46
643.72	55153.85
643.91	54826.17
644.10	55491.76
644.30	55241.91
644.49	54711.49
644.69	55362.74
644.88	54854.84
645.08	55166.13
645.27	54729.92
645.46	54912.19
645.66	55508.14
645.85	55137.46
646.05	55014.58
646.24	54856.89
646.43	55221.43
646.63	55334.07
646.82	55327.92
647.02	55211.19
647.21	55616.69
647.40	55399.60
647.60	55671.98
647.79	55342.26
647.99	55727.28
648.18	55520.43
648.37	56202.41
648.57	55528.62
648.76	55213.24
648.96	55641.26
649.15	55751.85
649.34	55594.16
649.54	55538.86
649.73	55243.96
649.92	55956.65
650.12	55084.22
650.31	55547.06
650.51	55979.18
650.70	56001.71
650.89	55555.25
651.09	55489.71
651.28	55669.93
651.47	55448.75
651.67	55858.35
651.86	55641.26
652.06	55110.84
652.25	55702.70
652.44	55489.71
652.64	55477.43
652.83	55948.46
653.02	55340.21
653.22	55448.75
653.41	55796.91
653.60	55084.22
653.80	55592.11
653.99	56149.16
654.18	55309.49
654.38	55760.05
654.57	55891.12
654.76	55553.20
654.96	55463.09
655.15	55463.09
655.34	55600.30
655.54	55295.16
655.73	55606.45
655.92	55702.70
656.12	55452.85
656.31	55657.65
656.50	55956.65
656.70	55987.37
656.89	55784.62
657.08	55997.61
657.28	55997.61
657.47	55524.53
657.66	56267.94
657.86	55649.45
658.05	55950.51
658.24	56022.19
658.43	55284.92
658.63	56540.32
658.82	56378.53
659.01	56038.57
659.21	56177.83
659.40	56024.23
659.59	55997.61
659.79	56063.14
659.98	56059.05
660.17	56003.75
660.36	55776.43
660.56	56331.43
660.75	56294.56
660.94	56169.64
661.14	56313.00
661.33	56044.71
661.52	55751.85
661.71	56396.96
661.91	55618.74
662.10	55966.89
662.29	56310.95
662.49	56382.63
662.68	56274.09
662.87	56415.40
663.06	56603.81
663.26	56308.90
663.45	56329.38
663.64	56407.20
663.83	56695.97
664.03	56650.91
664.22	56741.02
664.41	56517.79
664.60	56687.78
664.80	56472.74
664.99	56622.24
665.18	56687.78
665.37	56448.16
665.57	56734.88
665.76	56722.59
665.95	56505.51
666.14	56409.25
666.34	56833.18
666.53	56259.75
666.72	56327.33
666.91	56188.07
667.11	56147.11
667.30	56237.22
667.49	55878.83
667.68	56507.55
667.87	56173.73
668.07	56612.00
668.26	56521.89
668.45	56849.56
668.64	56306.85
668.84	57031.83
669.03	56702.11
669.22	56401.06
669.41	57130.14
669.60	56380.58
669.80	56337.57
669.99	56820.89
670.18	56085.67
670.37	56597.66
670.57	56777.89
670.76	56837.28
670.95	57068.70
671.14	56771.74
671.33	56702.11
671.53	57156.76
671.72	56843.42
671.91	56450.21
672.10	56812.70
672.29	56917.15
672.48	56501.41
672.68	57138.33
672.87	56485.03
673.06	56581.28
673.25	56890.52
673.44	56554.66
673.64	56566.94
673.83	56679.58
674.02	57023.64
674.21	56212.65
674.40	57261.21
674.59	56360.10
674.79	56679.58
674.98	56849.56
675.17	56509.60
675.36	56493.22
675.55	56499.36
675.74	56509.60
675.94	56548.51
676.13	56474.79
676.32	56792.22
676.51	57293.97
676.70	56982.68
676.89	56796.32
677.08	56951.96
677.28	56820.89
677.47	57373.84
677.66	57341.08
677.85	56808.61
678.04	57171.10
678.23	56949.92
678.42	57138.33
678.62	57148.57
678.81	57005.21
679.00	57035.93
679.19	57605.26
679.38	56939.68
679.57	57150.62
679.76	56804.51
679.96	57033.88
680.15	56988.83
680.34	56763.55
680.53	57279.64
680.72	57160.86
680.91	57193.62
681.10	56779.93
681.29	57494.67
681.48	56876.19
681.68	57126.04
681.87	57033.88
682.06	57580.69
682.25	56683.68
682.44	57091.22
682.63	57433.24
682.82	56597.66
683.01	57330.84
683.20	57095.32
683.39	56980.63
683.59	57035.93
683.78	56753.31
683.97	56728.73
684.16	56874.14
684.35	56403.11
684.54	57230.49
684.73	56464.55
684.92	57023.64
685.11	56431.78
685.30	56927.39
685.49	56779.93
685.69	57097.37
685.88	56902.81
686.07	56714.40
686.26	56734.88
686.45	56911.00
686.64	56994.97
686.83	56609.95
687.02	56792.22
687.21	57316.50
687.40	56878.24
687.59	56857.76
687.78	56923.29
687.97	57218.20
688.16	56695.97
688.35	56988.83
688.54	56564.90
688.74	56888.48
688.93	56751.26
689.12	56417.44
689.31	56751.26
689.50	56751.26
689.69	56558.75
689.88	55901.36
690.07	56734.88
690.26	56460.45
690.45	57009.31
690.64	56313.00
690.83	56505.51
691.02	56229.03
691.21	56444.07
691.40	56300.71
691.59	56591.52
691.78	56460.45
691.97	56743.07
692.16	57089.18
692.35	56999.07
692.54	57009.31
692.73	57093.27
692.92	56573.09
693.11	56855.71
693.30	56216.74
693.49	57220.25
693.68	56415.40
693.87	56700.06
694.06	55973.03
694.25	56521.89
694.44	56317.09
694.63	56419.49
694.82	56671.39
695.01	56169.64
695.20	56030.38
695.39	56255.65
695.58	56325.28
695.77	56294.56
695.96	56544.42
696.15	56564.90
696.34	55940.27
696.53	56280.23
696.72	56605.86
696.91	56212.65
697.10	56595.62
697.29	56226.98
697.48	56290.47
697.67	56177.83
697.86	56151.21
698.05	55848.11
698.24	56460.45
698.43	55448.75
698.62	56327.33
698.81	55819.44
699.00	56300.71
699.19	55690.41
699.38	56054.95
699.57	55827.63
699.76	56050.86
699.95	55803.05
700.14	55942.31
700.32	56245.41
700.51	56138.92
700.70	56247.46
700.89	56343.72
701.08	56233.13
701.27	55968.94
701.46	56026.28
701.65	55397.55
701.84	55751.85
702.03	56016.04
702.22	55293.11
702.41	55903.40
702.60	56190.12
702.79	55921.83
702.98	55702.70
703.17	55712.94
703.35	55579.82
703.54	55600.30
703.73	55794.86
703.92	55665.84
704.11	55608.50
704.30	55315.64
704.49	55325.88
704.68	55252.15
704.87	55192.76
705.06	55383.22
705.25	55082.17
705.43	55272.63
705.62	54975.67
705.81	55221.43
706.00	55469.23
706.19	55033.02
706.38	54826.17
706.57	54959.29
706.76	55012.54
706.95	55258.29
707.14	54932.67
707.32	55092.41
707.51	54727.87
707.70	55071.93
707.89	55379.12
708.08	55090.36
708.27	54959.29
708.46	55252.15
708.65	55088.31
708.84	54901.95
709.02	54918.33
709.21	55098.55
709.40	54953.15
709.59	54863.03
709.78	54551.74
709.97	55200.95
710.16	54738.11
710.34	54736.06
710.53	54809.79
710.72	54512.83
710.91	54877.37
711.10	54244.55
711.29	54811.84
711.48	54756.54
711.66	54400.19
711.85	54412.48
712.04	54467.78
712.23	54336.71
712.42	54625.47
712.61	54357.19
712.80	54195.40
712.98	54052.04
713.17	53943.50
713.36	54172.87
713.55	54121.67
713.74	54301.89
713.93	54146.25
714.11	53918.92
714.30	53900.49
714.49	54115.53
714.68	54310.08
714.87	54084.81
715.06	54260.93
715.24	53974.22
715.43	53957.83
715.62	53732.56
715.81	53970.12
716.00	54119.62
716.18	53208.28
716.37	53091.54
716.56	53388.50
716.75	53998.79
716.94	53310.67
717.12	53359.83
717.31	53451.98
717.50	53626.06
717.69	53316.82
717.88	53341.39
718.06	53288.15
718.25	53583.05
718.44	52972.76
718.63	52899.03
718.82	52806.87
719.00	53058.77
719.19	52888.79
719.38	52815.07
719.57	52348.13
719.76	52440.29
719.94	52419.81
720.13	52684.00
720.32	52229.35
720.51	52327.65
720.69	52458.72
720.88	52864.22
721.07	52557.02
721.26	52286.69
721.44	52110.56
721.63	51674.35
721.82	51741.93
722.01	51698.92
722.20	51952.87
722.38	51633.39
722.57	51473.65
722.76	51786.99
722.95	51703.02
723.13	51457.26
723.32	51336.43
723.51	51215.60
723.70	51557.61
723.88	51072.24
724.07	51049.72
724.26	51238.13
724.44	50838.78
724.63	51627.24
724.82	51033.33
725.01	50867.45
725.19	50887.93
725.38	51000.57
725.57	50922.74
725.76	51207.41
725.94	50734.33
726.13	50644.22
726.32	50736.38
726.51	51129.59
726.69	50795.77
726.88	50875.64
727.07	50693.37
727.25	50726.14
727.44	50420.99
727.63	50324.74
727.82	50162.95
728.00	50693.37
728.19	50054.40
728.38	50703.61
728.56	50310.40
728.75	50504.96
728.94	50111.75
729.12	50267.39
729.31	50341.12
729.50	50242.82
729.69	50642.17
729.87	50353.41
730.06	50078.98
730.25	50113.80
730.43	50590.97
730.62	50035.97
730.81	50373.89
730.99	50179.33
731.18	50277.63
731.37	50382.08
731.55	50533.63
731.74	50617.60
731.93	50445.57
732.11	49941.77
732.30	49886.47
732.49	49739.02
732.67	49915.14
732.86	50363.65
733.05	49960.20
733.23	49640.71
733.42	50029.83
733.61	49769.74
733.79	49968.39
733.98	50244.87
734.17	50017.54
734.35	49816.84
734.54	49931.53
734.73	49655.05
734.91	49626.38
735.10	49739.02
735.29	50005.25
735.47	49200.40
735.66	49489.16
735.84	49575.18
736.03	49519.88
736.22	50072.84
736.40	49743.11
736.59	49788.17
736.78	49468.69
736.96	49194.26
737.15	49675.53
737.33	49134.87
737.52	49190.16
737.71	49333.52
737.89	49110.29
738.08	49050.90
738.27	49132.82
738.45	49624.33
738.64	49163.54
738.82	48928.02
739.01	49155.35
739.20	49284.37
739.38	48977.17
739.57	49196.31
739.75	48846.10
739.94	48512.28
740.13	48966.93
740.31	48504.09
740.50	48823.58
740.68	48848.15
740.87	48643.35
741.06	48782.62
741.24	48921.88
741.43	48778.52
741.61	48913.69
741.80	48297.25
741.99	48139.55
742.17	48125.22
742.36	48280.86
742.54	48227.62
742.73	48272.67
742.91	48491.80
743.10	47975.72
743.29	48356.64
743.47	48280.86
743.66	48004.39
743.84	47959.33
744.03	47723.82
744.21	48071.97
744.40	48399.65
744.59	47795.49
744.77	47985.96
744.96	48018.72
745.14	47920.42
745.33	48137.51
745.51	47998.24
745.70	47959.33
745.88	47559.98
746.07	47676.71
746.26	47320.37
746.44	47983.91
746.63	47277.36
746.81	47684.90
747.00	47134.00
747.18	47473.96
747.37	47189.30
747.55	47260.97
747.74	47822.12
747.92	46820.66
748.11	47193.39
748.29	46998.83
748.48	47007.03
748.66	47125.81
748.85	46865.72
749.03	47027.51
749.22	46695.74
749.41	46970.16
749.59	47277.36
749.78	47062.32
749.96	46411.07
750.15	46722.36
750.33	46734.65
750.52	46937.40
750.70	46896.44
750.89	46103.87
751.07	46187.84
751.26	46417.21
751.44	46368.06
751.63	46392.64
751.81	46329.15
752.00	46011.71
752.18	46482.75
752.37	46005.57
752.55	46042.43
752.74	45876.55
752.92	46073.15
753.10	45688.13
753.29	45925.70
753.47	45729.09
753.66	45131.09
753.84	45563.21
754.03	45200.72
754.21	45004.11
754.40	45450.57
754.58	45495.63
754.77	45253.97
754.95	45278.54
755.14	45176.14
755.32	45479.24
755.51	45198.67
755.69	44909.91
755.88	45147.47
756.06	45444.43
756.24	44856.66
756.43	44655.96
756.61	45258.06
756.80	44934.48
756.98	44725.59
757.17	45155.66
757.35	44823.89
757.54	44563.80
757.72	45280.59
757.90	44705.11
758.09	44514.65
758.27	44709.21
758.46	44559.70
758.64	44127.58
758.83	44512.60
759.01	44426.59
759.19	44522.84
759.38	44473.69
759.56	44463.45
759.75	44340.57
759.93	44426.59
760.12	44105.06
760.30	44152.16
760.48	43992.42
760.67	44055.90
760.85	44283.23
761.04	44113.25
761.22	44092.77
761.40	43918.69
761.59	43783.52
761.77	43695.46
761.96	44156.25
762.14	43459.94
762.32	43390.31
762.51	43234.67
762.69	43388.27
762.88	43275.63
763.06	43249.00
763.24	43408.75
763.43	43345.26
763.61	43240.81
763.80	43349.35
763.98	43103.60
764.16	43443.56
764.35	43005.30
764.53	42935.66
764.72	43079.02
764.90	42659.19
765.08	42970.48
765.27	42919.28
765.45	42612.09
765.63	42638.71
765.82	42902.90
766.00	42726.77
766.18	42487.16
766.37	42696.05
766.55	42646.90
766.74	42876.27
766.92	42231.16
767.10	42364.28
767.29	42139.00
767.47	41784.71
767.65	42214.78
767.84	41809.28
768.02	41778.56
768.20	41907.58
768.39	41852.29
768.57	41866.63
768.75	42022.27
768.94	41753.99
769.12	41809.28
769.30	41883.01
769.49	41700.74
769.67	41637.25
769.85	41289.10
770.04	41428.36
770.22	41211.28
770.40	41563.53
770.59	40760.72
770.77	41375.11
770.95	41002.38
771.14	41033.10
771.32	40549.78
771.50	40770.96
771.69	40752.53
771.87	40865.17
772.05	40474.01
772.24	40455.57
772.42	40650.13
772.60	40500.63
772.78	40416.66
772.97	40324.50
773.15	40875.41
773.33	40269.21
773.52	40191.39
773.70	40254.87
773.88	40961.42
774.07	40351.13
774.25	40369.56
774.43	40773.01
774.61	40574.36
774.80	40465.81
774.98	40678.80
775.16	40414.62
775.34	40820.11
775.53	40328.60
775.71	40480.15
775.89	40531.35
776.08	40652.18
776.26	40822.16
776.44	40609.17
776.62	40490.39
776.81	40160.67
776.99	40330.65
777.17	40646.04
777.35	40488.34
777.54	40783.25
777.72	40435.10
777.90	40396.18
778.08	40803.73
778.27	40519.06
778.45	41045.39
778.63	41080.21
778.81	40699.28
779.00	41024.91
779.18	40510.87
779.36	40920.46
779.54	40551.83
779.73	40371.61
779.91	40869.26
780.09	40639.89
780.27	41063.82
780.46	40928.66
780.64	41305.48
780.82	40910.22
781.00	40807.83
781.19	41467.27
781.37	41201.04
781.55	40986.00
781.73	41196.94
781.91	41176.46
782.10	41041.29
782.28	41170.32
782.46	41168.27
782.64	40852.88
782.82	40764.82
783.01	41153.93
783.19	41336.20
783.37	41164.17
783.55	41428.36
783.74	41176.46
783.92	41272.71
784.10	41686.40
784.28	41194.89
784.46	40617.36
784.64	41121.16
784.83	41182.60
785.01	40983.95
785.19	41100.68
785.37	41414.02
785.55	41241.99
785.74	40986.00
785.92	41061.77
786.10	41041.29
786.28	40877.46
786.46	40736.15
786.64	40768.91
786.83	40836.50
787.01	41135.50
787.19	41106.83
787.37	40428.95
787.55	40691.09
787.74	40713.62
787.92	40709.52
788.10	40535.45
788.28	40398.23
788.46	40443.29
788.64	40254.87
788.82	40660.37
789.01	40564.12
789.19	40527.25
789.37	40252.83
789.55	40238.49
789.73	39814.56
789.91	40123.80
790.09	39974.30
790.28	39972.25
790.46	40023.45
790.64	39984.54
790.82	39771.55
791.00	39579.04
791.18	39435.69
791.36	39718.31
791.55	39372.20
791.73	39435.69
791.91	39081.39
792.09	39335.34
792.27	39323.05
792.45	39122.35
792.63	39308.71
792.81	39028.14
793.00	39277.99
793.18	39179.69
793.36	39331.24
793.54	38497.72
793.72	38534.58
793.90	38303.16
794.08	38657.46
794.26	38471.09
794.44	38231.48
794.62	38165.95
794.81	38454.71
794.99	37905.85
795.17	37670.34
795.35	38188.47
795.53	38354.36
795.71	38235.58
795.89	37918.14
796.07	37520.84
796.25	37350.85
796.43	37561.79
796.61	37006.80
796.80	37055.95
796.98	37752.26
797.16	36994.51
797.34	37066.19
797.52	36804.05
797.70	37354.95
797.88	37115.34
798.06	36705.74
798.24	36441.56
798.42	36976.08
798.60	36748.75
798.78	36685.26
798.96	36625.87
799.14	36437.46
799.32	36589.01
799.51	36048.35
799.69	36376.02
799.87	36079.07
800.05	36126.17
800.23	36384.21
800.41	35945.95
800.59	36029.91
800.77	35818.97
800.95	35714.53
801.13	35493.35
801.31	35622.37
801.49	35362.28
801.67	35474.91
801.85	35296.74
802.03	35145.19
802.21	34993.64
802.39	34858.48
802.57	34838.00
802.75	34567.66
802.93	34764.27
803.11	35020.27
803.29	34745.84
803.47	34311.67
803.65	34579.95
803.83	34502.13
804.01	34180.60
804.19	34131.45
804.37	34194.93
804.55	34135.54
804.73	34022.90
804.91	33922.55
805.09	33709.57
805.27	34080.25
805.45	34043.38
805.63	34018.81
805.81	34020.86
805.99	33752.57
806.17	33826.30
806.35	33895.93
806.53	33140.23
806.71	33625.60
806.89	33295.88
807.07	33488.38
807.25	33142.28
807.43	32986.63
807.61	33572.35
807.79	33216.01
807.97	33091.08
808.15	32818.70
808.33	32914.95
808.51	33084.94
808.69	32804.36
808.87	32470.54
809.05	32738.83
809.23	32626.19
809.41	32331.28
809.59	32345.62
809.77	32634.38
809.95	32204.31
810.13	32472.59
810.31	32353.81
810.49	32294.42
810.67	32306.71
810.84	32247.32
811.02	31976.98
811.20	31847.96
811.38	31878.68
811.56	31594.01
811.74	31839.77
811.92	31399.46
812.10	31641.12
812.28	31372.83
812.46	31501.86
812.64	31774.24
812.82	31591.97
813.00	31583.77
813.18	31518.24
813.36	31256.10
813.53	31098.41
813.71	31206.95
813.89	31198.76
814.07	30938.66
814.25	31333.92
814.43	30883.37
814.61	30926.38
814.79	31151.65
814.97	30672.43
815.15	31077.93
815.33	30416.43
815.50	30406.19
815.68	30635.56
815.86	30613.04
816.04	30412.34
816.22	30223.92
816.40	30494.25
816.58	30332.47
816.76	30062.13
816.94	30242.35
817.11	29802.04
817.29	30051.89
817.47	29744.70
817.65	29984.31
817.83	29775.42
818.01	30008.89
818.19	29949.50
818.37	30074.42
818.54	29611.58
818.72	29785.66
818.90	29767.23
819.08	29527.61
819.26	29877.82
819.44	29668.92
819.62	29775.42
819.80	29634.11
819.97	29439.55
820.15	29535.81
820.33	29158.98
820.51	29464.13
820.69	29136.45
820.87	29298.24
821.05	29474.37
821.22	28911.17
821.40	28692.04
821.58	28851.78
821.76	28761.67
821.94	29103.68
822.12	29396.54
822.29	29132.36
822.47	28849.74
822.65	29089.35
822.83	28900.94
823.01	28567.12
823.19	28790.34
823.36	28657.23
823.54	28749.39
823.72	28522.06
823.90	28614.22
824.08	28421.71
824.25	28567.12
824.43	28304.98
824.61	28513.87
824.79	28395.09
824.97	28089.94
825.15	28175.95
825.32	28356.18
825.50	28145.23
825.68	28169.81
825.86	28597.84
826.04	28378.70
826.21	28034.64
826.39	27995.73
826.57	27817.56
826.75	28128.85
826.93	27641.43
827.10	28038.74
827.28	27801.18
827.46	27936.34
827.64	27741.78
827.81	27840.09
827.99	27588.19
828.17	27565.66
828.35	27493.98
828.53	27467.36
828.70	27684.44
828.88	27514.46
829.06	27471.45
829.24	27870.81
829.41	27496.03
829.59	27598.43
829.77	27367.01
829.95	27354.72
830.12	27438.69
830.30	27483.74
830.48	27178.59
830.66	27213.41
830.84	27387.49
831.01	27211.36
831.19	27547.23
831.37	26957.41
831.55	26900.07
831.72	27078.24
831.90	26855.01
832.08	26875.49
832.25	26855.01
832.43	26922.60
832.61	26859.11
832.79	26611.31
832.96	26650.22
833.14	26852.97
833.32	27010.66
833.50	26910.31
833.67	26924.65
833.85	26631.79
834.03	26218.10
834.20	26748.52
834.38	26629.74
834.56	26754.66
834.74	26549.87
834.91	26441.32
835.09	26318.45
835.27	26207.86
835.44	26232.43
835.62	26250.86
835.80	26173.04
835.98	26238.58
836.15	26244.72
836.33	25962.10
836.51	26154.61
836.68	26158.70
836.86	26095.22
837.04	26330.73
837.21	26082.93
837.39	26037.87
837.57	26146.42
837.75	26390.13
837.92	25601.66
838.10	25785.97
838.28	25802.36
838.45	25867.89
838.63	25654.90
838.81	25794.17
838.98	25702.01
839.16	25667.19
839.34	25462.40
839.51	25534.07
839.69	25360.00
839.87	25194.11
840.04	25456.25
840.22	25507.45
840.40	25263.74
840.57	25212.54
840.75	25425.53
840.93	25149.06
841.10	25407.10
841.28	25511.55
841.46	25192.06
841.63	25761.40
841.81	25226.88
841.98	25542.27
842.16	25476.73
842.34	25095.81
842.51	24766.09
842.69	25194.11
842.87	25155.20
843.04	25366.14
843.22	24628.87
843.40	24948.36
843.57	25104.00
843.75	24950.40
843.92	24587.91
844.10	25026.18
844.28	25089.67
844.45	25060.99
844.63	24862.34
844.81	24501.90
844.98	25310.85
845.16	24874.63
845.33	24864.39
845.51	24680.07
845.69	24520.33
845.86	24415.88
846.04	24458.89
846.21	24493.71
846.39	24886.92
846.57	24354.44
846.74	24342.16
846.92	24555.15
847.09	24282.77
847.27	23803.54
847.45	24256.14
847.62	24180.37
847.80	24233.61
847.97	24190.61
848.15	24532.62
848.32	23987.86
848.50	24131.22
848.68	24108.69
848.85	24090.26
849.03	23942.80
849.20	23776.92
849.38	23928.47
849.56	24041.11
849.73	23805.59
849.91	24168.08
850.08	24022.67
850.26	23551.64
850.43	24080.02
850.61	23987.86
850.78	23529.11
850.96	23668.37
851.14	23572.12
851.31	23731.86
851.49	23441.05
851.66	23555.74
851.84	23608.98
852.01	23701.14
852.19	23447.19
852.36	23416.47
852.54	23565.98
852.71	23664.28
852.89	23357.08
853.07	23914.13
853.24	23500.44
853.42	23553.69
853.59	23475.87
853.77	23611.03
853.94	23344.80
854.12	23711.38
854.29	23129.76
854.47	23318.17
854.64	22847.14
854.82	23256.73
854.99	23330.46
855.17	23285.40
855.34	23441.05
855.52	23072.42
855.69	23154.33
855.87	22912.67
856.04	22902.43
856.22	22998.69
856.39	22589.10
856.57	23051.94
856.74	22865.57
856.92	23039.65
857.09	22607.53
857.27	22683.30
857.44	23062.18
857.62	22634.15
857.79	22820.52
857.97	22922.91
858.14	22521.51
858.32	22613.67
858.49	22617.77
858.67	22884.00
858.84	22501.03
859.02	22634.15
859.19	22306.48
859.37	22568.62
859.54	22165.17
859.72	22759.08
859.89	22476.46
860.06	22572.71
860.24	22445.74
860.41	22529.70
860.59	22324.91
860.76	22345.39
860.94	22163.12
861.11	22677.16
861.29	22474.41
861.46	22304.43
861.64	21939.89
861.81	22103.73
861.98	22089.39
862.16	21962.42
862.33	21812.92
862.51	21847.73
862.68	21886.64
862.86	21817.01
863.03	22113.97
863.21	21767.86
863.38	22230.70
863.55	21790.39
863.73	21862.07
863.90	21790.39
864.08	21642.93
864.25	21810.87
864.43	21720.76
864.60	21466.81
864.77	21632.69
864.95	21485.24
865.12	21499.58
865.30	21518.01
865.47	21561.02
865.64	21315.26
865.82	21683.89
865.99	21567.16
866.17	21212.86
866.34	21518.01
866.51	21626.55
866.69	21522.10
866.86	21284.54
867.04	21255.87
867.21	21108.41
867.38	21143.23
867.56	20883.14
867.73	20903.62
867.91	20762.31
868.08	20866.75
868.25	21120.70
868.43	21137.09
868.60	20711.11
868.78	20793.03
868.95	20795.07
869.12	20733.64
869.30	20494.02
869.47	20717.25
869.64	20381.38
869.82	20680.39
869.99	20692.68
870.16	20876.99
870.34	20582.09
870.51	20627.14
870.69	20453.06
870.86	20537.03
871.03	20934.34
871.21	20389.58
871.38	20827.84
871.55	20408.01
871.73	20197.07
871.90	20422.34
872.07	20094.67
872.25	19928.78
872.42	19961.55
872.59	20338.38
872.77	20330.19
872.94	20098.77
873.11	20066.00
873.29	20211.40
873.46	19969.74
873.63	19988.18
873.81	20092.62
873.98	19752.66
874.15	19687.12
874.33	19404.50
874.50	19633.88
874.67	19660.50
874.85	19619.54
875.02	19535.57
875.19	19353.30
875.37	19279.58
875.54	19525.33
875.71	19631.83
875.88	19082.97
876.06	19472.09
876.23	19312.35
876.40	19056.35
876.58	19068.64
876.75	19113.69
876.92	19123.93
877.10	19209.95
877.27	19052.25
877.44	18910.94
877.61	19052.25
877.79	18915.04
877.96	18802.40
878.13	18935.52
878.31	18657.00
878.48	18896.61
878.65	18820.83
878.82	18595.56
879.00	18618.08
879.17	18511.59
879.34	18798.31
879.51	18540.26
879.69	18527.97
879.86	18613.99
880.03	18607.84
880.21	18372.33
880.38	18450.15
880.55	18542.31
880.72	18353.90
880.90	18478.82
881.07	18446.05
881.24	18304.74
881.41	18470.63
881.59	18181.87
881.76	18253.55
881.93	18165.48
882.10	17975.02
882.28	17995.50
882.45	17915.63
882.62	18151.15
882.79	18077.42
882.96	17784.56
883.14	17954.54
883.31	18052.84
883.48	18040.56
883.65	17729.27
883.83	17968.88
884.00	17946.35
884.17	17743.60
884.34	17858.29
884.51	17874.67
884.69	17635.06
884.86	17927.92
885.03	17499.89
885.20	17516.28
885.38	17800.94
885.55	17536.76
885.72	17774.32
885.89	17379.06
886.06	17606.39
886.24	17735.41
886.41	17618.68
886.58	17848.05
886.75	17641.20
886.92	17575.67
887.10	17809.14
887.27	17370.87
887.44	17436.41
887.61	17450.74
887.78	17428.21
887.95	17469.17
888.13	17331.96
888.30	17452.79
888.47	17049.34
888.64	17286.90
888.81	17354.49
888.99	17194.75
889.16	17112.83
889.33	16975.61
889.50	16987.90
889.67	17188.60
889.84	17053.44
890.01	16803.58
890.19	17084.16
890.36	17016.57
890.53	16879.36
890.70	16770.82
890.87	16748.29
891.04	17014.52
891.22	16760.58
891.39	16779.01
891.56	16498.44
891.73	16574.21
891.90	16557.83
892.07	16668.42
892.24	16496.39
892.42	16551.68
892.59	16815.87
892.76	16484.10
892.93	16244.49
893.10	16332.55
893.27	16533.25
893.44	16197.38
893.61	16254.73
893.79	16404.23
893.96	16293.64
894.13	16480.00
894.30	16258.82
894.47	16705.28
894.64	16379.65
894.81	16111.37
894.98	16260.87
895.15	16310.02
895.33	16246.54
895.50	15982.35
895.67	16332.55
895.84	16359.17
896.01	16391.94
896.18	16168.71
896.35	16512.77
896.52	16363.27
896.69	16264.97
896.86	16221.96
897.04	16156.43
897.21	15982.35
897.38	16215.82
897.55	16027.40
897.72	16344.84
897.89	16064.27
898.06	16242.44
898.23	16115.47
898.40	15941.39
898.57	16312.07
898.74	16115.47
898.91	16029.45
899.08	16209.67
899.26	16168.71
899.43	16340.74
899.60	16045.84
899.77	16168.71
899.94	16094.99
900.11	15810.32
900.28	15943.44
900.45	15759.12
900.62	15486.74
900.79	16062.22
900.96	15830.80
901.13	15961.87
901.30	15841.04
901.47	16066.31
901.64	16000.78
901.81	15802.13
901.98	15656.72
902.15	16105.23
902.32	15673.10
902.49	15785.74
902.66	15902.48
902.83	15884.05
903.01	15894.29
903.18	16082.70
903.35	15755.02
903.52	16054.03
903.69	15951.63
903.86	15851.28
904.03	15879.95
904.20	16170.76
904.37	15986.44
904.54	15734.54
904.71	15865.61
904.88	15953.68
905.05	15812.37
905.22	16094.99
905.39	15894.29
905.56	15648.53
905.73	15849.23
905.90	15931.15
906.07	15826.70
906.24	15875.85
906.41	15789.84
906.58	15908.62
906.75	15664.91
906.92	15755.02
907.09	15619.86
907.26	15791.89
907.43	15728.40
907.60	15949.58
907.77	16047.88
907.93	15759.12
908.10	15523.60
908.27	15746.83
908.44	15789.84
908.61	15707.92
908.78	15712.02
908.95	15832.85
909.12	15488.79
909.29	15705.87
909.46	15552.27
909.63	15724.30
909.80	15642.39
909.97	15556.37
910.14	15773.46
910.31	15757.07
910.48	15523.60
910.65	15886.09
910.82	15425.30
910.99	15367.96
911.16	15599.38
911.33	15501.08
911.50	15277.85
911.66	15361.81
911.83	15458.07
912.00	15257.37
912.17	15230.74
912.34	15001.37
912.51	15286.04
912.68	15058.71
912.85	15306.52
913.02	15316.76
913.19	15210.26
913.36	15331.09
913.53	15261.46
913.70	14956.32
913.86	15380.25
914.03	15177.50
914.20	15204.12
914.37	14991.13
914.54	15240.98
914.71	15068.95
914.88	14911.26
915.05	15025.95
915.22	14907.16
915.39	14819.10
915.55	14880.54
915.72	14804.77
915.89	14667.55
916.06	14638.88
916.23	14384.93
916.40	14485.28
916.57	14448.42
916.74	14518.05
916.91	14747.42
917.07	14356.26
917.24	14122.79
917.41	14405.41
917.58	14313.25
917.75	14354.21
917.92	14044.97
918.09	14044.97
918.26	14137.13
918.42	14096.17
918.59	14073.64
918.76	14108.46
918.93	13967.15
919.10	14149.42
919.27	14028.59
919.44	13899.56
919.60	14057.26
919.77	13715.25
919.94	13786.93
920.11	13674.29
920.28	13920.04
920.45	13553.46
920.61	13449.01
920.78	13524.79
920.95	13496.11
921.12	13365.04
921.29	13291.32
921.46	13342.52
921.62	13184.82
921.79	13291.32
921.96	13123.38
922.13	13213.49
922.30	13012.79
922.47	12967.74
922.63	13033.27
922.80	13100.86
922.97	12957.50
923.14	13023.03
923.31	13002.55
923.47	12670.78
923.64	13313.84
923.81	12638.02
923.98	12945.21
924.15	12705.60
924.32	12408.64
924.48	12492.61
924.65	12529.47
924.82	12486.47
924.99	12273.48
925.15	12080.97
925.32	12334.92
925.49	12052.30
925.66	12089.16
925.83	12185.41
925.99	11972.43
926.16	12113.74
926.33	12015.43
926.50	11956.04
926.67	11872.07
926.83	11812.68
927.00	11822.92
927.17	11831.12
927.34	11575.12
927.50	11792.20
927.67	11685.71
927.84	11771.72
928.01	11319.12
928.17	11274.07
928.34	11233.11
928.51	11497.30
928.68	11370.32
928.84	11165.53
929.01	11190.10
929.18	11079.51
929.35	11069.27
929.51	11151.19
929.68	11034.46
929.85	10807.13
930.02	10979.16
930.18	10753.88
930.35	11005.78
930.52	10698.59
930.69	10856.28
930.85	10696.54
931.02	10555.23
931.19	10778.46
931.36	10592.09
931.52	10628.96
931.69	10424.16
931.86	10315.62
932.02	10207.08
932.19	10428.26
932.36	10332.00
932.53	10178.40
932.69	10194.79
932.86	10176.36
933.03	10172.26
933.19	9852.78
933.36	9996.14
933.53	9932.65
933.70	9989.99
933.86	9877.35
934.03	9924.46
934.20	9549.68
934.36	9709.42
934.53	9449.33
934.70	9512.81
934.86	9346.93
935.03	9193.33
935.20	9482.10
935.36	9334.64
935.53	9164.66
935.70	9113.46
935.86	9133.94
936.03	8718.20
936.20	8869.75
936.36	8828.79
936.53	8957.82
936.70	8654.72
936.86	8763.26
937.03	8681.34
937.20	8406.91
937.36	8294.27
937.53	8130.44
937.70	8124.29
937.86	8140.68
938.03	8138.63
938.20	8212.35
938.36	7929.74
938.53	7917.45
938.70	7597.96
938.86	7712.65
939.03	7563.15
939.20	7497.61
939.36	7450.51
939.53	7294.86
939.70	7401.36
939.86	7217.04
940.03	7163.79
940.19	7063.44
940.36	6901.65
940.53	6936.47
940.69	6840.22
940.86	6866.84
941.03	6664.09
941.19	6655.90
941.36	6485.92
941.52	6530.97
941.69	6334.37
941.86	6301.60
942.02	6238.11
942.19	6371.23
942.35	6244.26
942.52	6076.32
942.69	6137.76
942.85	5900.20
943.02	6061.99
943.18	6035.36
943.35	5892.01
943.52	5881.77
943.68	5705.64
943.85	5828.52
944.01	5736.36
944.18	5742.50
944.35	5724.07
944.51	5689.26
944.68	5599.15
944.84	5652.39
945.01	5638.06
945.17	5580.71
945.34	5502.89
945.51	5525.42
945.67	5533.61
945.84	5423.02
946.00	5382.06
946.17	5547.95
946.33	5390.25
946.50	5580.71
946.67	5341.10
946.83	5521.32
947.00	5578.67
947.16	5328.81
947.33	5322.67
947.49	5320.62
947.66	5218.22
947.82	5447.60
947.99	5322.67
948.16	5437.36
948.32	5296.05
948.49	5402.54
948.65	5402.54
948.82	5390.25
948.98	5275.57
949.15	5285.81
949.31	5361.58
949.48	5527.47
949.64	5212.08
949.81	5302.19
949.97	5369.77
950.14	5435.31
950.30	5367.73
950.47	5496.75
950.63	5359.53
950.80	5296.05
950.96	5402.54
951.13	5414.83
951.30	5455.79
951.46	5468.08
951.63	5478.32
951.79	5435.31
951.96	5552.04
952.12	5289.90
952.29	5423.02
952.45	5437.36
952.62	5341.10
952.78	5492.65
952.94	5492.65
953.11	5525.42
953.27	5377.97
953.44	5584.81
953.60	5408.69
953.77	5363.63
953.93	5281.71
954.10	5560.24
954.26	5451.69
954.43	5468.08
954.59	5550.00
954.76	5715.88
954.92	5535.66
955.09	5607.34
955.25	5445.55
955.42	5361.58
955.58	5582.76
955.75	5476.27
955.91	5476.27
956.07	5537.71
956.24	5451.69
956.40	5580.71
956.57	5564.33
956.73	5535.66
956.90	5615.53
957.06	5345.20
957.23	5377.97
957.39	5474.22
957.56	5547.95
957.72	5339.05
957.88	5443.50
958.05	5533.61
958.21	5572.52
958.38	5617.58
958.54	5550.00
958.71	5633.96
958.87	5490.60
959.03	5537.71
959.20	5511.08
959.36	5429.17
959.53	5506.99
959.69	5359.53
959.85	5537.71
960.02	5576.62
960.18	5586.86
960.35	5453.74
960.51	5488.56
960.68	5412.78
960.84	5498.80
961.00	5377.97
961.17	5361.58
961.33	5386.16
961.50	5384.11
961.66	5482.41
961.82	5384.11
961.99	5375.92
962.15	5371.82
962.31	5433.26
962.48	5435.31
962.64	5574.57
962.81	5384.11
962.97	5455.79
963.13	5363.63
963.30	5480.36
963.46	5367.73
963.62	5427.12
963.79	5334.96
963.95	5341.10
964.12	5437.36
964.28	5441.45
964.44	5377.97
964.61	5328.81
964.77	5414.83
964.93	5517.23
965.10	5361.58
965.26	5408.69
965.42	5314.48
965.59	5316.53
965.75	5277.62
965.92	5468.08
966.08	5308.34
966.24	5334.96
966.41	5253.04
966.57	5320.62
966.73	5332.91
966.90	5308.34
967.06	5304.24
967.22	5224.37
967.39	5203.89
967.55	5214.13
967.71	5355.44
967.88	5240.75
968.04	5179.31
968.20	5263.28
968.37	5199.79
968.53	5210.03
968.69	5158.83
968.85	5253.04
969.02	5203.89
969.18	5236.66
969.34	5273.52
969.51	5156.79
969.67	5228.46
969.83	5167.03
970.00	5203.89
970.16	5126.07
970.32	5046.20
970.48	5216.18
970.65	4958.13
970.81	4939.70
970.97	5087.15
971.14	4937.65
971.30	5148.59
971.46	4976.56
971.63	4951.99
971.79	5226.42
971.95	5011.38
972.11	4896.69
972.28	4861.88
972.44	4997.04
972.60	4927.41
972.76	5072.82
972.93	4898.74
973.09	4816.82
973.25	5056.43
973.42	4747.19
973.58	4943.80
973.74	5038.00
973.90	4988.85
974.07	4726.71
974.23	4800.44
974.39	4898.74
974.55	4820.92
974.72	4769.72
974.88	4722.62
975.04	4814.77
975.20	4792.25
975.37	4802.49
975.53	4669.37
975.69	4861.88
975.85	4591.55
976.01	4704.18
976.18	4741.05
976.34	4636.60
976.50	4609.98
976.66	4722.62
976.83	4556.73
976.99	4685.75
977.15	4755.38
977.31	4503.48
977.47	4771.77
977.64	4560.83
977.80	4687.80
977.96	4679.61
978.12	4603.83
978.29	4673.46
978.45	4440.00
978.61	4513.72
978.77	4560.83
978.93	4433.85
979.10	4446.14
979.26	4411.32
979.42	4472.76
979.58	4382.65
979.74	4362.17
979.91	4384.70
980.07	4310.97
980.23	4458.43
980.39	4394.94
980.55	4403.13
980.71	4351.93
980.88	4210.62
981.04	4474.81
981.20	4376.51
981.36	4409.28
981.52	4347.84
981.68	4267.97
981.85	4456.38
982.01	4292.54
982.17	4188.10
982.33	4267.97
982.49	4386.75
982.65	4323.26
982.82	4276.16
982.98	4364.22
983.14	4116.42
983.30	4413.37
983.46	4231.10
983.62	4325.31
983.79	4233.15
983.95	4091.84
984.11	3991.49
984.27	4085.70
984.43	4102.08
984.59	4149.18
984.75	4153.28
984.91	4155.33
985.08	4200.38
985.24	4237.25
985.40	4153.28
985.56	4046.79
985.72	4147.14
985.88	4136.90
986.04	4022.21
986.20	4116.42
986.37	4087.75
986.53	3936.20
986.69	4077.51
986.85	4001.73
987.01	4075.46
987.17	4024.26
987.33	3952.58
987.49	3909.57
987.65	3985.35
987.82	3901.38
987.98	3882.95
988.14	3925.96
988.30	3805.13
988.46	3911.62
988.62	3882.95
988.78	3831.75
988.94	4044.74
989.10	3841.99
989.26	3753.93
989.42	3891.14
989.59	3778.50
989.75	3846.09
989.91	3885.00
990.07	3698.63
990.23	3692.49
990.39	3868.61
990.55	3913.67
990.71	3762.12
990.87	3747.78
991.03	3784.65
991.19	3755.97
991.35	3655.62
991.51	3862.47
991.67	3704.78
991.83	3715.02
992.00	3659.72
992.16	3706.82
992.32	3731.40
992.48	3788.74
992.64	3786.69
992.80	3690.44
992.96	3661.77
993.12	3592.14
993.28	3651.53
993.44	3614.66
993.60	3680.20
993.76	3637.19
993.92	3612.62
994.08	3633.10
994.24	3577.80
994.40	3497.93
994.56	3616.71
994.72	3581.90
994.88	3489.74
995.04	3571.66
995.20	3536.84
995.36	3499.98
995.52	3522.51
995.68	3567.56
995.84	3284.94
996.00	3452.88
996.16	3469.26
996.32	3459.02
996.48	3463.12
996.64	3485.64
996.80	3295.18
996.96	3430.35
997.12	3424.20
997.28	3303.37
997.44	3395.53
997.60	3413.96
997.76	3325.90
997.92	3305.42
998.08	3332.05
998.24	3291.09
998.40	3401.68
998.56	3297.23
998.72	3205.07
998.88	3377.10
999.04	3256.27
999.20	3289.04
999.36	3174.35
999.52	3291.09
999.68	3319.76
999.84	3360.72
1000.00	3321.81
1000.16	3334.09
1000.32	3203.02
1000.48	3315.66
1000.64	3131.34
1000.80	3268.56
1000.95	3078.10
1001.11	3227.60
1001.27	3117.01
1001.43	3180.50
1001.59	3057.62
1001.75	3100.62
1001.91	3104.72
1002.07	3020.75
1002.23	3033.04
1002.39	3080.14
1002.55	3092.43
1002.71	3053.52
1002.87	3168.21
1003.03	2994.13
1003.19	3100.62
1003.34	3162.06
1003.50	3131.34
1003.66	3059.67
1003.82	3014.61
1003.98	3028.95
1004.14	3010.51
1004.30	3053.52
1004.46	2977.75
1004.62	2899.92
1004.78	3004.37
1004.94	3018.71
1005.09	3106.77
1005.25	3004.37
1005.41	2957.27
1005.57	2879.44
1005.73	2916.31
1005.89	2912.21
1006.05	2901.97
1006.21	2906.07
1006.37	2895.83
1006.52	2942.93
1006.68	2844.63
1006.84	3022.80
1007.00	2858.96
1007.16	2904.02
1007.32	2805.72
1007.48	2828.24
1007.64	2873.30
1007.79	2826.20
1007.95	2793.43
1008.11	2883.54
1008.27	2791.38
1008.43	2826.20
1008.59	2770.90
1008.75	2822.10
1008.91	2809.81
1009.06	2858.96
1009.22	2840.53
1009.38	2783.19
1009.54	2848.72
1009.70	2779.09
1009.86	2834.39
1010.01	2832.34
1010.17	2772.95
1010.33	2795.48
1010.49	2738.13
1010.65	2770.90
1010.81	2660.31
1010.96	2680.79
1011.12	2650.07
1011.28	2666.46
1011.44	2731.99
1011.60	2662.36
1011.76	2697.17
1011.91	2795.48
1012.07	2600.92
1012.23	2592.73
1012.39	2584.54
1012.55	2711.51
1012.71	2500.57
1012.86	2609.11
1013.02	2617.30
1013.18	2617.30
1013.34	2596.82
1013.50	2686.94
1013.65	2752.47
1013.81	2580.44
1013.97	2531.29
1014.13	2609.11
1014.29	2600.92
1014.44	2559.96
1014.60	2549.72
1014.76	2529.24
1014.92	2541.53
1015.07	2553.82
1015.23	2559.96
1015.39	2555.86
1015.55	2633.69
1015.71	2510.81
1015.86	2465.75
1016.02	2412.51
1016.18	2426.84
1016.34	2504.67
1016.49	2437.08
1016.65	2478.04
1016.81	2355.16
1016.97	2453.47
1017.12	2519.00
1017.28	2338.78
1017.44	2369.50
1017.60	2449.37
1017.75	2445.27
1017.91	2478.04
1018.07	2461.66
1018.23	2578.39
1018.38	2394.08
1018.54	2355.16
1018.70	2432.99
1018.86	2367.45
1019.01	2353.12
1019.17	2351.07
1019.33	2422.75
1019.49	2392.03
1019.64	2424.80
1019.80	2346.97
1019.96	2418.65
1020.12	2385.88
1020.27	2349.02
1020.43	2379.74
1020.59	2355.16
1020.74	2379.74
1020.90	2404.32
1021.06	2289.63
1021.22	2394.08
1021.37	2330.59
1021.53	2265.05
1021.69	2344.92
1021.84	2220.00
1022.00	2338.78
1022.16	2295.77
1022.31	2297.82
1022.47	2295.77
1022.63	2340.83
1022.79	2195.42
1022.94	2299.87
1023.10	2310.11
1023.26	2332.64
1023.41	2181.09
1023.57	2226.14
1023.73	2240.48
1023.88	2191.33
1024.04	2183.13
1024.20	2205.66
1024.35	2222.05
1024.51	2238.43
1024.67	2236.38
1024.82	2312.16
1024.98	2111.46
1025.14	2230.24
1025.29	2183.13
1025.45	2213.85
1025.61	2097.12
1025.76	2164.70
1025.92	2201.57
1026.08	2127.84
1026.23	2250.72
1026.39	2244.57
1026.55	2162.66
1026.70	2117.60
1026.86	2154.46
1027.02	2154.46
1027.17	2217.95
1027.33	2240.48
1027.48	2090.98
1027.64	2093.02
1027.80	2123.74
1027.95	2162.66
1028.11	2076.64
1028.27	2144.22
1028.42	2138.08
1028.58	2125.79
1028.73	2037.73
1028.89	2129.89
1029.05	2168.80
1029.20	2129.89
>>>>>End Processed Spectral Data<<<<<
