SpectraSuite Data File
++++++++++++++++++++++++++++++++++++
Date: Fri Jun 02 14:52:27 CEST 2017
User: INFO_000
Dark Spectrum Present: No
Reference Spectrum Present: No
Number of Sampled Component Spectra: 1
Spectrometers: USB4H00879
Integration Time (usec): 80000 (USB4H00879)
Spectra Averaged: 1 (USB4H00879)
Boxcar Smoothing: 0 (USB4H00879)
Correct for Electrical Dark: No (USB4H00879)
Strobe/Lamp Enabled: No (USB4H00879)
Correct for Detector Non-linearity: No (USB4H00879)
Correct for Stray Light: No (USB4H00879)
Number of Pixels in Processed Spectrum: 3648
>>>>>Begin Processed Spectral Data<<<<<
345.13	1200.11
345.34	1200.11
345.56	1200.11
345.78	1279.98
345.99	1241.07
346.21	1755.11
346.42	1681.38
346.64	1644.52
346.86	1755.11
347.07	1640.42
347.29	1765.35
347.50	1597.42
347.72	1699.81
347.94	1810.40
348.15	1591.27
348.37	1621.99
348.59	1681.38
348.80	1632.23
349.02	1832.93
349.23	1920.99
349.45	1820.64
349.67	1884.13
349.88	1781.73
350.10	1968.10
350.31	1861.60
350.53	1892.32
350.75	2031.58
350.96	1761.25
351.18	1791.97
351.39	1855.46
351.61	1808.36
351.82	1900.52
352.04	1898.47
352.26	1839.08
352.47	1779.68
352.69	1923.04
352.90	1730.53
353.12	1853.41
353.34	1904.61
353.55	1867.75
353.77	1888.23
353.98	1837.03
354.20	1832.93
354.41	1853.41
354.63	1937.38
354.85	2002.91
355.06	1869.80
355.28	1859.56
355.49	1927.14
355.71	1902.56
355.92	1867.75
356.14	1916.90
356.35	1880.04
356.57	1906.66
356.79	1984.48
357.00	1867.75
357.22	1937.38
357.43	1943.52
357.65	1970.15
357.86	1892.32
358.08	1951.71
358.29	1974.24
358.51	2060.26
358.72	1961.95
358.94	1902.56
359.16	1957.86
359.37	1916.90
359.59	1986.53
359.80	1968.10
360.02	1982.43
360.23	1982.43
360.45	1957.86
360.66	1951.71
360.88	1953.76
361.09	1923.04
361.31	1937.38
361.52	1972.19
361.74	1980.39
361.95	2052.06
362.17	1929.19
362.38	2107.36
362.60	2047.97
362.81	1968.10
363.03	1976.29
363.24	1953.76
363.46	2062.30
363.67	1996.77
363.89	2062.30
364.10	2037.73
364.32	1914.85
364.53	2074.59
364.75	1886.18
364.96	2113.50
365.18	2060.26
365.39	1964.00
365.61	1961.95
365.82	2066.40
366.04	1990.63
366.25	1959.91
366.47	2035.68
366.68	2068.45
366.90	1927.14
367.11	2158.56
367.33	2080.74
367.54	2113.50
367.76	2027.49
367.97	2097.12
368.19	2050.02
368.40	2144.22
368.62	2031.58
368.83	1953.76
369.05	2123.74
369.26	1937.38
369.48	2007.01
369.69	1998.82
369.91	2058.21
370.12	2068.45
370.33	2142.18
370.55	2000.87
370.76	2078.69
370.98	2082.78
371.19	2152.42
371.41	2082.78
371.62	2029.54
371.84	2015.20
372.05	2140.13
372.27	2142.18
372.48	2129.89
372.69	2078.69
372.91	2183.13
373.12	2121.70
373.34	2000.87
373.55	2164.70
373.77	2121.70
373.98	2099.17
374.20	2195.42
374.41	2320.35
374.62	2154.46
374.84	2154.46
375.05	2209.76
375.27	2189.28
375.48	2113.50
375.70	2185.18
375.91	2211.81
376.12	2211.81
376.34	2199.52
376.55	2222.05
376.77	2174.94
376.98	2162.66
377.19	2172.89
377.41	2068.45
377.62	2209.76
377.84	2248.67
378.05	2396.12
378.27	2246.62
378.48	2291.68
378.69	2377.69
378.91	2322.40
379.12	2295.77
379.34	2213.85
379.55	2353.12
379.76	2277.34
379.98	2273.25
380.19	2248.67
380.41	2297.82
380.62	2346.97
380.83	2203.61
381.05	2207.71
381.26	2375.64
381.47	2244.57
381.69	2299.87
381.90	2459.61
382.12	2328.54
382.33	2281.44
382.54	2254.81
382.76	2336.73
382.97	2258.91
383.19	2283.49
383.40	2461.66
383.61	2256.86
383.83	2418.65
384.04	2328.54
384.25	2353.12
384.47	2453.47
384.68	2398.17
384.89	2342.88
385.11	2320.35
385.32	2322.40
385.54	2385.88
385.75	2379.74
385.96	2488.28
386.18	2490.33
386.39	2486.23
386.60	2342.88
386.82	2420.70
387.03	2340.83
387.24	2488.28
387.46	2531.29
387.67	2410.46
387.88	2521.05
388.10	2539.48
388.31	2512.86
388.52	2678.74
388.74	2588.63
388.95	2514.91
389.16	2600.92
389.38	2500.57
389.59	2615.26
389.80	2643.93
390.02	2531.29
390.23	2590.68
390.44	2525.15
390.66	2572.25
390.87	2523.10
391.08	2594.78
391.30	2713.56
391.51	2664.41
391.72	2768.85
391.94	2641.88
392.15	2666.46
392.36	2697.17
392.58	2584.54
392.79	2775.00
393.00	2754.52
393.22	2707.41
393.43	2856.92
393.64	2805.72
393.85	2844.63
394.07	2635.74
394.28	2731.99
394.49	2793.43
394.71	2809.81
394.92	2850.77
395.13	2830.29
395.35	2826.20
395.56	2869.20
395.77	2709.46
395.98	2809.81
396.20	2912.21
396.41	2879.44
396.62	2828.24
396.84	2906.07
397.05	2893.78
397.26	2822.10
397.47	2926.55
397.69	3010.51
397.90	3061.71
398.11	2998.23
398.32	2891.73
398.54	2891.73
398.75	2967.51
398.96	2912.21
399.18	3084.24
399.39	3084.24
399.60	3133.39
399.81	3065.81
400.03	3016.66
400.24	3258.32
400.45	3041.23
400.66	3100.62
400.88	3074.00
401.09	3309.52
401.30	3117.01
401.51	3184.59
401.73	3135.44
401.94	3194.83
402.15	3194.83
402.36	3137.49
402.58	3274.70
402.79	3186.64
403.00	3184.59
403.21	3176.40
403.43	3303.37
403.64	3274.70
403.85	3217.36
404.06	3358.67
404.27	3213.26
404.49	3280.85
404.70	3237.84
404.91	3233.74
405.12	3334.09
405.34	3366.86
405.55	3481.55
405.76	3166.16
405.97	3307.47
406.19	3536.84
406.40	3301.33
406.61	3575.75
406.82	3336.14
407.03	3305.42
407.25	3407.82
407.46	3526.60
407.67	3413.96
407.88	3516.36
408.09	3387.34
408.31	3469.26
408.52	3440.59
408.73	3391.44
408.94	3395.53
409.15	3461.07
409.37	3504.07
409.58	3563.47
409.79	3471.31
410.00	3610.57
410.21	3442.64
410.43	3375.05
410.64	3467.21
410.85	3483.59
411.06	3635.14
411.27	3723.21
411.48	3626.95
411.70	3624.90
411.91	3624.90
412.12	3715.02
412.33	3616.71
412.54	3602.38
412.76	3672.01
412.97	3782.60
413.18	3532.75
413.39	3743.69
413.60	3850.18
413.81	3698.63
414.03	3706.82
414.24	3629.00
414.45	3903.43
414.66	3633.10
414.87	3717.06
415.08	3768.26
415.30	3755.97
415.51	3821.51
415.72	3735.50
415.93	3809.22
416.14	3878.85
416.35	3782.60
416.56	3903.43
416.78	3835.85
416.99	3887.04
417.20	3815.37
417.41	3880.90
417.62	3913.67
417.83	4050.88
418.04	3993.54
418.26	3958.72
418.47	3999.68
418.68	4079.55
418.89	4044.74
419.10	4143.04
419.31	4071.36
419.52	4227.01
419.73	4124.61
419.95	3993.54
420.16	4065.22
420.37	4122.56
420.58	4106.18
420.79	3942.34
421.00	4112.32
421.21	4173.76
421.42	4011.97
421.63	4288.45
421.85	4194.24
422.06	4253.63
422.27	4267.97
422.48	4140.99
422.69	4167.62
422.90	4247.49
423.11	4272.06
423.32	4386.75
423.53	4433.85
423.75	4319.17
423.96	4620.22
424.17	4360.13
424.38	4526.01
424.59	4499.39
424.80	4534.20
425.01	4429.76
425.22	4452.28
425.43	4349.89
425.64	4616.12
425.85	4732.86
426.06	4585.40
426.28	4540.35
426.49	4474.81
426.70	4495.29
426.91	4698.04
427.12	4624.31
427.33	4745.14
427.54	4585.40
427.75	4825.01
427.96	4800.44
428.17	4870.07
428.38	4833.21
428.59	4788.15
428.80	4951.99
429.01	4853.69
429.23	4900.79
429.44	5031.86
429.65	5050.29
429.86	5115.83
430.07	4906.93
430.28	4863.93
430.49	5048.24
430.70	5279.66
430.91	5144.50
431.12	5095.35
431.33	5113.78
431.54	5246.90
431.75	5240.75
431.96	5386.16
432.17	5253.04
432.38	5244.85
432.59	5408.69
432.80	5441.45
433.01	5423.02
433.22	5513.13
433.43	5463.98
433.64	5400.49
433.85	5390.25
434.06	5533.61
434.27	5294.00
434.49	5607.34
434.70	5480.36
434.91	5601.19
435.12	5605.29
435.33	5605.29
435.54	5578.67
435.75	5337.01
435.96	5578.67
436.17	5414.83
436.38	5597.10
436.59	5703.59
436.80	5588.91
437.01	5935.01
437.22	5910.44
437.43	5707.69
437.64	5687.21
437.85	5969.83
438.06	5861.29
438.27	5812.14
438.48	5894.05
438.69	5861.29
438.90	5937.06
439.11	5758.89
439.32	6164.39
439.53	5990.31
439.74	5975.97
439.95	5959.59
440.16	6049.70
440.37	6170.53
440.57	6014.88
440.78	6176.67
440.99	6107.04
441.20	6373.28
441.41	6064.04
441.62	6111.14
441.83	6078.37
442.04	6375.33
442.25	6258.59
442.46	6246.30
442.67	6363.04
442.88	6623.13
443.09	6260.64
443.30	6285.22
443.51	6426.53
443.72	6483.87
443.93	6397.85
444.14	6582.17
444.35	6447.01
444.56	6561.69
444.77	6498.20
444.98	6524.83
445.19	6670.23
445.40	6625.18
445.61	6483.87
445.81	6719.39
446.02	6709.15
446.23	6614.94
446.44	6588.32
446.65	6786.97
446.86	6838.17
447.07	6719.39
447.28	6803.35
447.49	6866.84
447.70	6674.33
447.91	6813.59
448.12	6762.39
448.33	7008.15
448.54	6895.51
448.74	6817.69
448.95	6784.92
449.16	6766.49
449.37	7096.21
449.58	7040.92
449.79	7294.86
450.00	6975.38
450.21	7235.47
450.42	7196.56
450.63	7208.85
450.84	7208.85
451.05	7229.33
451.25	7200.66
451.46	7260.05
451.67	7399.31
451.88	7372.69
452.09	7258.00
452.30	7313.30
452.51	7333.78
452.72	7483.28
452.93	7622.54
453.13	7268.24
453.34	7376.78
453.55	7452.56
453.76	7622.54
453.97	7884.68
454.18	7542.67
454.39	7880.58
454.60	7612.30
454.81	7610.25
455.01	7765.90
455.22	7466.89
455.43	7798.66
455.64	7964.55
455.85	8007.56
456.06	8212.35
456.27	7851.91
456.48	7966.60
456.68	7995.27
456.89	8107.91
457.10	8251.27
457.31	8083.33
457.52	7888.78
457.73	8101.76
457.94	8572.80
458.14	8112.00
458.35	8535.93
458.56	8345.47
458.77	8347.52
458.98	8574.85
459.19	8425.34
459.39	8574.85
459.60	8701.82
459.81	8398.72
460.02	8611.71
460.23	8466.30
460.44	8679.29
460.65	8791.93
460.85	8753.02
461.06	8826.75
461.27	8667.00
461.48	9006.97
461.69	9140.08
461.89	8748.92
462.10	9160.56
462.31	8908.66
462.52	9006.97
462.73	9039.73
462.94	9211.76
463.14	9013.11
463.35	8947.58
463.56	9557.87
463.77	9396.08
463.98	9447.28
464.18	9363.31
464.39	9531.25
464.60	9596.78
464.81	9564.01
465.02	9588.59
465.23	9822.06
465.43	9654.12
465.64	9930.60
465.85	9989.99
466.06	9658.22
466.27	10348.39
466.47	10100.58
466.68	10149.73
466.89	9959.27
467.10	10264.42
467.30	9940.84
467.51	10346.34
467.72	10518.37
467.93	10260.32
468.14	10307.43
468.34	10565.47
468.55	10284.90
468.76	10592.09
468.97	10368.87
469.17	10600.29
469.38	10813.28
469.59	11036.50
469.80	10725.21
470.01	11036.50
470.21	10856.28
470.42	10995.54
470.63	11022.17
470.84	11083.61
471.04	11423.57
471.25	11317.08
471.46	11272.02
471.67	11509.58
471.87	11339.60
472.08	11708.24
472.29	11886.41
472.50	11521.87
472.70	11824.97
472.91	11675.47
473.12	12085.06
473.33	11908.94
473.53	12250.95
473.74	12050.25
473.95	12441.41
474.16	12547.90
474.36	12490.56
474.57	12607.30
474.78	12750.65
474.99	12660.54
475.19	12590.91
475.40	13221.69
475.61	12992.31
475.81	13344.56
476.02	13401.91
476.23	13141.82
476.44	13410.10
476.64	13346.61
476.85	13705.01
477.06	13549.36
477.27	13612.85
477.47	13903.66
477.68	13756.21
477.89	14006.06
478.09	14141.22
478.30	14169.90
478.51	14339.88
478.71	14329.64
478.92	14534.43
479.13	14579.49
479.34	14511.91
479.54	14663.46
479.75	14608.16
479.96	15048.47
480.16	15054.62
480.37	14962.46
480.58	15486.74
480.78	15531.80
480.99	15402.77
481.20	15699.73
481.41	15585.04
481.61	15570.71
481.82	16027.40
482.03	15787.79
482.23	15814.41
482.44	16166.67
482.65	16328.45
482.85	16379.65
483.06	16514.82
483.27	16301.83
483.47	16760.58
483.68	16596.74
483.89	16842.50
484.09	16721.66
484.30	16994.04
484.51	17157.88
484.71	17209.08
484.92	17178.36
485.13	17704.69
485.33	17370.87
485.54	17571.57
485.75	17723.12
485.95	18198.25
486.16	17895.15
486.37	18034.41
486.57	18112.24
486.78	18300.65
486.98	18472.68
487.19	18427.62
487.40	18423.53
487.60	18484.97
487.81	18945.76
488.02	18599.65
488.22	18605.80
488.43	19119.84
488.64	19193.56
488.84	19125.98
489.05	19295.96
489.25	19293.91
489.46	19672.79
489.67	19277.53
489.87	19672.79
490.08	19875.54
490.29	19969.74
490.49	20426.44
490.70	19906.26
490.90	20334.28
491.11	20090.57
491.32	20201.16
491.52	20274.89
491.73	20459.21
491.94	20659.91
492.14	20664.00
492.35	21155.52
492.55	20956.86
492.76	20917.95
492.97	21180.09
493.17	21182.14
493.38	21317.31
493.58	21323.45
493.79	21659.32
494.00	21450.42
494.20	21780.15
494.41	21720.76
494.61	22019.76
494.82	21980.85
495.02	21935.79
495.23	22128.30
495.44	22142.64
495.64	22265.52
495.85	22245.04
496.05	22501.03
496.26	22292.14
496.47	22795.94
496.67	22562.47
496.88	22714.02
497.08	22671.01
497.29	22767.27
497.49	23191.20
497.70	23017.12
497.91	23342.75
498.11	23250.59
498.32	23160.48
498.52	23314.08
498.73	23608.98
498.93	23768.73
499.14	23539.35
499.34	23514.78
499.55	24108.69
499.76	23746.20
499.96	23795.35
500.17	23987.86
500.37	24057.49
500.58	24037.01
500.78	23983.76
500.99	24168.08
501.19	24614.54
501.40	24387.21
501.60	24319.63
501.81	24741.51
502.02	24651.40
502.22	24151.70
502.43	24860.29
502.63	24995.46
502.84	25030.27
503.04	24868.48
503.25	24792.71
503.45	24944.26
503.66	25491.07
503.86	25099.90
504.07	25261.69
504.27	25208.45
504.48	25357.95
504.68	25366.14
504.89	25826.93
505.09	25706.10
505.30	25489.02
505.50	25886.32
505.71	25615.99
505.91	25673.34
506.12	25912.95
506.32	25788.02
506.53	26222.19
506.73	26076.79
506.94	26248.82
507.14	26349.17
507.35	26078.83
507.55	26099.31
507.76	26238.58
507.96	26232.43
508.17	26527.34
508.37	25921.14
508.58	26592.87
508.78	26621.55
508.99	26855.01
509.19	26553.96
509.40	26959.46
509.60	26576.49
509.81	26916.45
510.01	26572.39
510.22	26621.55
510.42	27149.92
510.63	27221.60
510.83	27143.78
511.04	26975.84
511.24	27252.32
511.44	27004.52
511.65	27072.10
511.85	27061.86
512.06	27426.40
512.26	27016.80
512.47	27493.98
512.67	27680.35
512.88	27371.10
513.08	27225.70
513.29	27668.06
513.49	27514.46
513.69	27580.00
513.90	27786.84
514.10	27850.33
514.31	27811.42
514.51	28065.36
514.72	28089.94
514.92	27928.15
515.13	27911.77
515.33	27866.71
515.53	27967.06
515.74	28057.17
515.94	28284.50
516.15	28014.16
516.35	28126.80
516.56	28184.15
516.76	28208.72
516.96	28415.57
517.17	28776.01
517.37	28515.92
517.58	28495.44
517.78	28890.70
517.99	28413.52
518.19	28857.93
518.39	28806.73
518.60	28859.98
518.80	28767.82
519.01	28980.81
519.21	28876.36
519.41	28991.05
519.62	28868.17
519.82	29351.49
520.03	29193.79
520.23	29374.02
520.43	29398.59
520.64	29402.69
520.84	29814.33
521.05	29355.58
521.25	29392.45
521.45	29716.03
521.66	29855.29
521.86	30006.84
522.07	30055.99
522.27	29902.39
522.47	29564.48
522.68	30170.68
522.88	29795.90
523.08	30338.61
523.29	30201.40
523.49	30187.06
523.70	30735.92
523.90	30725.68
524.10	30584.37
524.31	30920.23
524.51	30416.43
524.71	30885.42
524.92	30330.42
525.12	30862.89
525.33	31012.39
525.53	31147.56
525.73	31417.89
525.94	31133.22
526.14	31290.91
526.34	31571.49
526.55	31444.51
526.75	31378.98
526.95	31718.94
527.16	31483.42
527.36	31823.39
527.56	32007.70
527.77	32445.97
527.97	31985.18
528.17	31696.41
528.38	32640.53
528.58	32568.85
528.78	32474.64
528.99	32357.91
529.19	32849.42
529.39	32306.71
529.60	32615.95
529.80	32906.76
530.00	32556.56
530.21	33113.61
530.41	33216.01
530.61	33242.63
530.82	32982.54
531.02	33482.24
531.22	33578.50
531.43	33433.09
531.63	33900.03
531.83	33728.00
532.04	34485.75
532.24	33918.46
532.44	34035.19
532.64	34174.45
532.85	34604.53
533.05	34266.61
533.25	34356.72
533.46	34541.04
533.66	34993.64
533.86	34260.47
534.07	35167.72
534.27	34954.73
534.47	34936.30
534.67	35116.52
534.88	35065.32
535.08	35208.68
535.28	35360.23
535.49	35448.29
535.69	35800.54
535.89	35714.53
536.09	35585.50
536.30	35988.95
536.50	35618.27
536.70	36263.38
536.91	36128.22
537.11	35980.76
537.31	36308.44
537.51	36386.26
537.72	36505.04
537.92	36726.22
538.12	37227.98
538.32	36468.18
538.53	36867.53
538.73	36933.07
538.93	36845.01
539.13	37223.88
539.34	37094.86
539.54	36996.56
539.74	37395.91
539.94	37219.78
540.15	37463.49
540.35	38018.49
540.55	38006.20
540.75	37991.87
540.96	37967.29
541.16	38008.25
541.36	38335.93
541.56	38303.16
541.77	38344.12
541.97	38073.79
542.17	38632.88
542.37	38620.59
542.58	38573.49
542.78	38528.44
542.98	38593.97
543.18	38753.71
543.38	39572.90
543.59	38843.82
543.79	38933.93
543.99	39005.61
544.19	39239.08
544.40	38944.17
544.60	39222.70
544.80	39423.40
545.00	39388.58
545.20	39992.73
545.41	39204.27
545.61	39691.68
545.81	40132.00
546.01	39914.91
546.21	39884.19
546.42	40021.41
546.62	40197.53
546.82	40422.81
547.02	40390.04
547.22	40512.92
547.43	40431.00
547.63	40678.80
547.83	40713.62
548.03	40445.33
548.23	40797.59
548.44	40981.90
548.64	40660.37
548.84	40768.91
549.04	40979.85
549.24	40992.14
549.45	41067.92
549.65	41078.16
549.85	41336.20
550.05	41569.67
550.25	41420.17
550.45	41506.18
550.66	41635.20
550.86	41633.16
551.06	42038.65
551.26	41987.46
551.46	41938.30
551.66	41991.55
551.87	41663.88
552.07	42440.06
552.27	42220.92
552.47	41864.58
552.67	42438.01
552.87	42057.09
553.07	42440.06
553.28	42493.30
553.48	42478.97
553.68	42474.87
553.88	42579.32
554.08	42321.27
554.28	42558.84
554.48	42532.22
554.69	42472.82
554.89	43285.87
555.09	42620.28
555.29	42591.61
555.49	42906.99
555.69	43025.78
555.89	43484.52
556.10	43212.14
556.30	43066.73
556.50	43425.13
556.70	43292.01
556.90	43496.81
557.10	43410.79
557.30	43867.49
557.50	43636.07
557.70	44045.66
557.91	43881.83
558.11	43763.04
558.31	43951.46
558.51	43967.84
558.71	43623.78
558.91	44141.92
559.11	44060.00
559.31	43724.13
559.51	43748.71
559.72	43961.70
559.92	44148.06
560.12	44373.34
560.32	44533.08
560.52	44094.82
560.72	44563.80
560.92	44801.36
561.12	44346.72
561.32	44635.48
561.52	44438.87
561.72	45028.69
561.93	44166.49
562.13	44729.69
562.33	44676.44
562.53	44977.49
562.73	44490.07
562.93	44860.76
563.13	45137.23
563.33	44952.91
563.53	44862.80
563.73	44399.96
563.93	45034.83
564.13	45811.01
564.33	45067.60
564.53	45100.37
564.74	45278.54
564.94	45000.02
565.14	45108.56
565.34	44977.49
565.54	45202.77
565.74	45321.55
565.94	45634.89
566.14	45276.49
566.34	45231.44
566.54	45530.44
566.74	44954.96
566.94	45430.09
567.14	45860.16
567.34	45438.28
567.54	45770.05
567.74	45712.71
567.94	45213.01
568.14	45921.60
568.34	46011.71
568.54	45757.77
568.74	46202.18
568.94	46183.74
569.14	46579.00
569.34	46126.40
569.54	45860.16
569.75	45634.89
569.95	45899.08
570.15	46398.78
570.35	46538.04
570.55	46003.52
570.75	46607.67
570.95	46280.00
571.15	46771.51
571.35	46220.61
571.55	46671.16
571.75	46439.74
571.95	46855.48
572.15	46290.24
572.35	47029.55
572.55	46568.76
572.75	46568.76
572.95	46384.44
573.15	46505.27
573.35	46267.71
573.55	46269.76
573.75	46501.18
573.95	46869.81
574.15	46988.60
574.35	46521.66
574.55	46912.82
574.75	47285.55
574.95	47187.25
575.15	46863.67
575.34	46912.82
575.54	47170.86
575.74	47150.38
575.94	47414.57
576.14	47215.92
576.34	47160.62
576.54	47725.86
576.74	47093.04
576.94	47535.40
577.14	47654.18
577.34	47832.36
577.54	47549.74
577.74	47875.37
577.94	47426.86
578.14	47232.30
578.34	47856.93
578.54	47281.45
578.74	47377.71
578.94	47680.81
579.14	47727.91
579.34	47838.50
579.54	48012.58
579.74	48198.94
579.94	48141.60
580.13	48221.47
580.33	48010.53
580.53	47977.76
580.73	48184.61
580.93	48358.69
581.13	48293.15
581.33	48497.95
581.53	48702.74
581.73	48252.19
581.93	48842.01
582.13	48463.13
582.33	48772.38
582.53	48411.93
582.73	48368.93
582.92	48422.17
583.12	49091.86
583.32	49079.57
583.52	48665.88
583.72	48913.69
583.92	48551.20
584.12	48960.79
584.32	49143.06
584.52	49224.98
584.72	48493.85
584.92	49272.08
585.11	49380.62
585.31	48995.60
585.51	49323.28
585.71	48796.95
585.91	49476.88
586.11	49227.02
586.31	49288.46
586.51	49345.81
586.71	49044.76
586.91	49444.11
587.10	49564.94
587.30	49403.15
587.50	49450.25
587.70	49689.87
587.90	49657.10
588.10	49870.09
588.30	49495.31
588.50	49566.99
588.69	49485.07
588.89	49544.46
589.09	50025.73
589.29	49665.29
589.49	50418.94
589.69	49566.99
589.89	49878.28
590.08	49653.00
590.28	49683.72
590.48	49571.08
590.68	50074.88
590.88	49620.23
591.08	50033.92
591.28	49657.10
591.47	50361.60
591.67	50218.24
591.87	50240.77
592.07	50189.57
592.27	50162.95
592.47	50244.87
592.67	50300.16
592.86	50025.73
593.06	50224.39
593.26	50464.00
593.46	50453.76
593.66	49937.67
593.86	50705.66
594.05	50496.77
594.25	50765.05
594.45	50244.87
594.65	50705.66
594.85	50214.15
595.05	50668.79
595.24	50924.79
595.44	50595.07
595.64	50760.95
595.84	50752.76
596.04	51027.19
596.23	50734.33
596.43	50844.92
596.63	50681.08
596.83	50902.26
597.03	51623.15
597.22	51205.36
597.42	50836.73
597.62	51178.74
597.82	51205.36
598.02	51438.83
598.21	51602.67
598.41	50806.01
598.61	51522.80
598.81	51414.26
599.01	51774.70
599.20	51473.65
599.40	51311.86
599.60	51705.07
599.80	51670.25
600.00	51709.16
600.19	51952.87
600.39	51506.41
600.59	52004.07
600.79	51836.14
600.98	51746.03
601.18	51916.01
601.38	52106.47
601.58	52032.74
601.78	51936.49
601.97	52149.48
602.17	52442.34
602.37	52430.05
602.57	52073.70
602.76	52288.74
602.96	52260.07
603.16	52479.20
603.36	52497.63
603.55	52684.00
603.75	52425.95
603.95	52960.47
604.15	52401.38
604.34	52526.30
604.54	52870.36
604.74	52798.68
604.94	52946.14
605.13	52765.91
605.33	52878.55
605.53	52643.04
605.73	53404.88
605.92	52950.23
606.12	53593.29
606.32	53400.79
606.52	53460.18
606.71	53146.84
606.91	53357.78
607.11	53208.28
607.30	53144.79
607.50	53335.25
607.70	53650.64
607.90	53335.25
608.09	53318.87
608.29	53523.66
608.49	53433.55
608.68	53437.65
608.88	53716.17
609.08	53669.07
609.28	53707.98
609.47	53689.55
609.67	54246.60
609.87	54211.78
610.06	54113.48
610.26	53736.65
610.46	54170.82
610.66	53937.35
610.85	54293.70
611.05	53990.60
611.25	54379.71
611.44	53851.34
611.64	54359.23
611.84	54027.46
612.03	53837.00
612.23	54406.34
612.43	54469.82
612.62	53986.50
612.82	54082.76
613.02	53990.60
613.21	54697.15
613.41	54140.10
613.61	54254.79
613.80	54183.11
614.00	54490.30
614.20	54486.21
614.39	54275.27
614.59	54748.35
614.79	54860.99
614.98	54383.81
615.18	54467.78
615.38	54652.09
615.57	54146.25
615.77	54588.61
615.97	54666.43
616.16	54576.32
616.36	54609.09
616.56	54676.67
616.75	54654.14
616.95	54406.34
617.15	54621.37
617.34	55016.63
617.54	54561.98
617.74	55205.05
617.93	55063.74
618.13	54394.05
618.32	54899.90
618.52	54674.62
618.72	54731.96
618.91	54953.15
619.11	54498.50
619.31	54627.52
619.50	54645.95
619.70	54715.58
619.90	54875.32
620.09	55100.60
620.29	54863.03
620.48	54731.96
620.68	55180.47
620.88	54553.79
621.07	55268.53
621.27	54789.31
621.46	54420.67
621.66	55137.46
621.86	54820.03
622.05	54574.27
622.25	55268.53
622.44	54924.47
622.64	55137.46
622.84	54871.23
623.03	55026.87
623.23	55016.63
623.42	55086.26
623.62	55026.87
623.82	55067.83
624.01	55309.49
624.21	55291.06
624.40	55119.03
624.60	55194.81
624.80	54912.19
624.99	54695.10
625.19	55086.26
625.38	55358.64
625.58	55561.39
625.77	55645.36
625.97	55375.03
626.17	55108.79
626.36	55151.80
626.56	55340.21
626.75	55000.25
626.95	55262.39
627.14	55393.46
627.34	55913.64
627.54	55463.09
627.73	55696.56
627.93	55434.42
628.12	55143.61
628.32	55569.58
628.51	55207.09
628.71	55344.31
628.90	55327.92
629.10	55354.55
629.30	55211.19
629.49	55751.85
629.69	55407.79
629.88	55604.40
630.08	55702.70
630.27	55571.63
630.47	55579.82
630.66	55565.49
630.86	55696.56
631.05	55221.43
631.25	55860.40
631.44	55667.89
631.64	55837.87
631.84	56034.47
632.03	56300.71
632.23	55590.06
632.42	56349.86
632.62	55684.27
632.81	55776.43
633.01	55934.12
633.20	55903.40
633.40	56104.10
633.59	56382.63
633.79	55993.51
633.98	55577.78
634.18	56499.36
634.37	56378.53
634.57	56134.82
634.76	56202.41
634.96	55999.66
635.15	56145.06
635.35	56317.09
635.54	56071.34
635.74	56220.84
635.93	55905.45
636.13	56624.29
636.32	56587.42
636.52	56220.84
636.71	56439.97
636.91	56599.71
637.10	56546.47
637.30	56714.40
637.49	56376.48
637.69	56313.00
637.88	57103.51
638.08	56468.64
638.27	56644.77
638.46	56306.85
638.66	55989.42
638.85	56700.06
639.05	56349.86
639.24	56882.33
639.44	56343.72
639.63	56577.18
639.83	56841.37
640.02	56652.96
640.22	56544.42
640.41	57089.18
640.61	56642.72
640.80	56990.87
640.99	56489.12
641.19	57121.94
641.38	57037.98
641.58	57095.32
641.77	56777.89
641.97	56874.14
642.16	57246.87
642.36	57554.07
642.55	57640.08
642.74	57275.54
642.94	57564.31
643.13	56980.63
643.33	56878.24
643.52	57271.45
643.72	57904.27
643.91	57126.04
644.10	57312.41
644.30	57597.07
644.49	57369.75
644.69	57312.41
644.88	57306.26
645.08	56988.83
645.27	57787.53
645.46	57226.39
645.66	57640.08
645.85	57023.64
646.05	57427.09
646.24	57930.89
646.43	57660.56
646.63	57691.28
646.82	58260.62
647.02	57947.28
647.21	57871.50
647.40	57572.50
647.60	58238.09
647.79	57742.48
647.99	57709.71
648.18	57851.02
648.37	58102.92
648.57	58129.54
648.76	57902.22
648.96	57470.10
649.15	57959.56
649.34	58367.11
649.54	58225.80
649.73	57613.46
649.92	58129.54
650.12	58223.75
650.31	58160.26
650.51	58508.42
650.70	58190.98
650.89	57879.69
651.09	58893.44
651.28	58260.62
651.47	58074.25
651.67	58387.59
651.86	59133.05
652.06	58107.02
652.25	58451.08
652.44	58231.94
652.64	57992.33
652.83	58365.06
653.02	58168.46
653.22	58467.46
653.41	58178.70
653.60	58219.66
653.80	58119.31
653.99	58537.09
654.18	58281.09
654.38	58170.50
654.57	58590.34
654.76	58084.49
654.96	58238.09
655.15	58190.98
655.34	58356.87
655.54	58246.28
655.73	58514.56
655.92	58518.66
656.12	58496.13
656.31	58299.53
656.50	58391.68
656.70	58782.85
656.89	58651.78
657.08	58666.11
657.28	58449.03
657.47	58322.05
657.66	58225.80
657.86	58430.60
658.05	58551.43
658.24	58287.24
658.43	58344.58
658.63	58621.06
658.82	58764.42
659.01	58813.57
659.21	58737.79
659.40	58295.43
659.59	58838.14
659.79	58389.64
659.98	58702.98
660.17	58770.56
660.36	58854.53
660.56	58844.29
660.75	58670.21
660.94	58717.31
661.14	58557.57
661.33	58819.71
661.52	58213.51
661.71	58985.60
661.91	58352.77
662.10	58076.30
662.29	58584.19
662.49	58741.89
662.68	58696.83
662.87	58530.95
663.06	58864.77
663.26	58510.47
663.45	58848.38
663.64	58328.20
663.83	58844.29
664.03	59184.25
664.22	58940.54
664.41	58977.40
664.60	58350.73
664.80	58631.30
664.99	58643.59
665.18	58729.60
665.37	58768.51
665.57	58698.88
665.76	58434.69
665.95	58635.39
666.14	58266.76
666.34	59176.06
666.53	58567.81
666.72	58147.98
666.91	58332.29
667.11	58340.49
667.30	58401.92
667.49	58229.90
667.68	58123.40
667.87	58291.33
668.07	58197.13
668.26	58578.05
668.45	58289.29
668.64	58277.00
668.84	58621.06
669.03	58465.41
669.22	57822.35
669.41	58723.46
669.60	58565.76
669.80	58244.23
669.99	58578.05
670.18	58352.77
670.37	58154.12
670.57	58500.23
670.76	58334.34
670.95	58520.71
671.14	58498.18
671.33	57894.03
671.53	58735.74
671.72	58215.56
671.91	58487.94
672.10	58352.77
672.29	58066.06
672.48	58360.97
672.68	58639.49
672.87	58070.15
673.06	57808.01
673.25	58029.19
673.44	58094.73
673.64	58143.88
673.83	57848.97
674.02	57953.42
674.21	57441.43
674.40	58090.63
674.59	57826.45
674.79	57490.58
674.98	57535.63
675.17	58047.63
675.36	57758.86
675.55	57834.64
675.74	58004.62
675.94	57758.86
676.13	57816.21
676.32	57531.54
676.51	58008.71
676.70	57836.69
676.89	57410.71
677.08	57912.46
677.28	57316.50
677.47	58152.07
677.66	57998.48
677.85	57812.11
678.04	58365.06
678.23	58414.21
678.42	58002.57
678.62	57582.74
678.81	57619.60
679.00	57302.17
679.19	57719.95
679.38	57613.46
679.57	57521.30
679.76	57498.77
679.96	57513.11
680.15	57093.27
680.34	57144.47
680.53	57402.52
680.72	57375.89
680.91	57642.13
681.10	57085.08
681.29	57521.30
681.48	56890.52
681.68	57312.41
681.87	57156.76
682.06	57201.82
682.25	56722.59
682.44	57080.98
682.63	56929.44
682.82	56849.56
683.01	56718.49
683.20	56743.07
683.39	56773.79
683.59	56738.97
683.78	56642.72
683.97	56089.77
684.16	56517.79
684.35	56331.43
684.54	56599.71
684.73	57005.21
684.92	56601.76
685.11	56302.76
685.30	56452.26
685.49	57080.98
685.69	56575.14
685.88	56630.43
686.07	56497.31
686.26	56222.89
686.45	56503.46
686.64	56448.16
686.83	56421.54
687.02	56358.05
687.21	56274.09
687.40	56415.40
687.59	56247.46
687.78	56171.69
687.97	56442.02
688.16	55817.39
688.35	55760.05
688.54	55995.56
688.74	56054.95
688.93	55964.84
689.12	55852.20
689.31	56194.21
689.50	56181.93
689.69	55588.02
689.88	55239.86
690.07	56013.99
690.26	55743.66
690.45	56140.97
690.64	55698.61
690.83	55246.00
691.02	55385.27
691.21	55426.23
691.40	55409.84
691.59	55348.40
691.78	55588.02
691.97	55753.90
692.16	55415.99
692.35	55512.24
692.54	55590.06
692.73	55477.43
692.92	55268.53
693.11	55305.40
693.30	55168.18
693.49	54992.06
693.68	55053.50
693.87	55014.58
694.06	55133.37
694.25	54860.99
694.44	54533.31
694.63	55102.65
694.82	54680.77
695.01	55057.59
695.20	54834.36
695.39	54865.08
695.58	54906.04
695.77	54504.64
695.96	54355.14
696.15	54899.90
696.34	54580.42
696.53	54860.99
696.72	55047.35
696.91	54594.75
697.10	54852.80
697.29	54205.64
697.48	54604.99
697.67	54310.08
697.86	54004.94
698.05	54379.71
698.24	54629.57
698.43	53830.86
698.62	54303.94
698.81	53529.81
699.00	54142.15
699.19	53966.02
699.38	54604.99
699.57	53523.66
699.76	54809.79
699.95	54056.14
700.14	54099.14
700.32	53794.00
700.51	53955.78
700.70	54320.32
700.89	54394.05
701.08	53763.28
701.27	53621.97
701.46	53769.42
701.65	53267.67
701.84	53468.37
702.03	53923.02
702.22	53419.22
702.41	53802.19
702.60	53804.24
702.79	53421.26
702.98	53185.75
703.17	52974.81
703.35	53335.25
703.54	53152.98
703.73	53152.98
703.92	53107.93
704.11	52819.16
704.30	53058.77
704.49	52976.86
704.68	52851.93
704.87	53007.58
705.06	53335.25
705.25	52796.63
705.43	52847.83
705.62	52825.31
705.81	53019.86
706.00	52727.00
706.19	52681.95
706.38	52847.83
706.57	52567.26
706.76	52866.27
706.95	52667.61
707.14	52430.05
707.32	52684.00
707.51	52133.09
707.70	52700.38
707.89	52524.25
708.08	52384.99
708.27	52575.45
708.46	52880.60
708.65	52282.59
708.84	52522.21
709.02	52219.11
709.21	52511.97
709.40	52124.90
709.59	52028.65
709.78	51821.80
709.97	52395.23
710.16	52094.18
710.34	52047.08
710.53	52198.63
710.72	51819.75
710.91	52145.38
711.10	52315.36
711.29	52102.37
711.48	51842.28
711.66	51713.26
711.85	51852.52
712.04	51778.79
712.23	51657.96
712.42	51356.91
712.61	51551.47
712.80	51565.81
712.98	51578.09
713.17	51578.09
713.36	51516.65
713.55	51537.13
713.74	51055.86
713.93	51762.41
714.11	51467.50
714.30	51272.95
714.49	51397.87
714.68	51496.17
714.87	51287.28
715.06	51389.68
715.24	51465.45
715.43	51412.21
715.62	50887.93
715.81	51117.30
716.00	51133.68
716.18	50740.47
716.37	50423.04
716.56	50648.32
716.75	51154.16
716.94	50732.28
717.12	50285.82
717.31	50980.09
717.50	50955.51
717.69	50353.41
717.88	50765.05
718.06	50748.67
718.25	50994.42
718.44	50124.04
718.63	50320.64
718.82	50259.20
719.00	50042.12
719.19	50439.42
719.38	50357.50
719.57	50021.64
719.76	49788.17
719.94	49782.02
720.13	50132.23
720.32	49995.01
720.51	49958.15
720.69	49792.26
720.88	50005.25
721.07	49718.54
721.26	49290.51
721.44	49845.51
721.63	49583.37
721.82	49323.28
722.01	49181.97
722.20	49831.18
722.38	49257.74
722.57	49042.71
722.76	49476.88
722.95	49247.50
723.13	49046.80
723.32	48882.97
723.51	48860.44
723.70	48745.75
723.88	49102.10
724.07	48700.70
724.26	49126.67
724.44	48379.17
724.63	48979.22
724.82	49038.61
725.01	48901.40
725.19	48553.24
725.38	49157.39
725.57	48358.69
725.76	49147.15
725.94	48405.79
726.13	48846.10
726.32	48764.18
726.51	48397.60
726.69	48643.35
726.88	48985.36
727.07	48524.57
727.25	48643.35
727.44	48641.31
727.63	48377.12
727.82	48755.99
728.00	48270.62
728.19	48481.56
728.38	48657.69
728.56	47871.27
728.75	48573.72
728.94	48153.89
729.12	48651.55
729.31	48647.45
729.50	48186.66
729.69	48936.21
729.87	48463.13
730.06	48440.60
730.25	48330.01
730.43	48614.68
730.62	48151.84
730.81	48297.25
730.99	48690.46
731.18	48323.87
731.37	48565.53
731.55	48848.15
731.74	48397.60
731.93	48616.73
732.11	48110.88
732.30	48233.76
732.49	48018.72
732.67	48473.37
732.86	48274.72
733.05	48358.69
733.23	48250.14
733.42	48043.30
733.61	48305.44
733.79	48284.96
733.98	48633.11
734.17	48256.29
734.35	48346.40
734.54	48512.28
734.73	48561.44
734.91	48385.31
735.10	48211.23
735.29	48495.90
735.47	47949.09
735.66	48332.06
735.84	48250.14
736.03	48145.70
736.22	48651.55
736.40	48006.44
736.59	48151.84
736.78	48479.52
736.96	48186.66
737.15	47994.15
737.33	47961.38
737.52	47899.94
737.71	47949.09
737.89	47895.85
738.08	47506.73
738.27	47813.93
738.45	48254.24
738.64	48086.31
738.82	47949.09
739.01	47994.15
739.20	48031.01
739.38	47885.61
739.57	48235.81
739.75	48373.02
739.94	47551.79
740.13	47879.46
740.31	47904.04
740.50	47875.37
740.68	48006.44
740.87	47783.21
741.06	48151.84
741.24	47727.91
741.43	47619.37
741.61	47625.51
741.80	47394.09
741.99	47265.07
742.17	47494.44
742.36	47754.54
742.54	47236.40
742.73	47502.64
742.91	47709.48
743.10	47375.66
743.29	47488.30
743.47	47494.44
743.66	47070.51
743.84	47408.43
744.03	47576.36
744.21	47349.04
744.40	47744.30
744.59	47441.20
744.77	46953.78
744.96	47256.88
745.14	47551.79
745.33	47498.54
745.51	47314.22
745.70	47703.34
745.88	47031.60
746.07	47656.23
746.26	47074.61
746.44	47418.67
746.63	47179.06
746.81	47072.56
747.00	47029.55
747.18	47445.29
747.37	47066.42
747.55	46994.74
747.74	47645.99
747.92	46646.58
748.11	46949.68
748.29	46832.95
748.48	46894.39
748.66	47273.26
748.85	46978.36
749.03	46880.05
749.22	46787.89
749.41	46687.54
749.59	46800.18
749.78	47119.66
749.96	46148.93
750.15	46992.69
750.33	46425.40
750.52	46884.15
750.70	46630.20
750.89	46118.21
751.07	46015.81
751.26	46535.99
751.44	46556.47
751.63	46705.98
751.81	46394.68
752.00	46208.32
752.18	46970.16
752.37	46617.91
752.55	46030.15
752.74	46081.34
752.92	46271.81
753.10	45999.43
753.29	46196.03
753.47	46007.62
753.66	45737.29
753.84	46691.64
754.03	45970.75
754.21	45819.20
754.40	45872.45
754.58	46069.06
754.77	46415.16
754.95	45694.28
755.14	45899.08
755.32	45782.34
755.51	45165.90
755.69	45784.39
755.88	45653.32
756.06	45725.00
756.24	45294.92
756.43	45370.70
756.61	46103.87
756.80	45473.10
756.98	45618.50
757.17	45604.17
757.35	45935.94
757.54	45446.47
757.72	45864.26
757.90	45624.65
758.09	45256.01
758.27	45378.89
758.46	44664.15
758.64	45481.29
758.83	45768.01
759.01	45725.00
759.19	45231.44
759.38	45114.70
759.56	45661.51
759.75	45061.46
759.93	45198.67
760.12	45102.42
760.30	45389.13
760.48	45284.68
760.67	45360.46
760.85	44952.91
761.04	44875.09
761.22	45178.19
761.40	45081.94
761.59	44922.19
761.77	44895.57
761.96	44811.60
762.14	45153.62
762.32	44807.51
762.51	44705.11
762.69	44615.00
762.88	44815.70
763.06	44825.94
763.24	44780.88
763.43	44752.21
763.61	44467.55
763.80	44545.37
763.98	44414.30
764.16	44352.86
764.35	44440.92
764.53	43951.46
764.72	44268.89
764.90	44166.49
765.08	44295.52
765.27	44506.46
765.45	43531.62
765.63	43994.46
765.82	44359.00
766.00	44078.43
766.18	44049.76
766.37	44195.17
766.55	44051.81
766.74	44045.66
766.92	44209.50
767.10	43738.47
767.29	43429.23
767.47	43595.11
767.65	44057.95
767.84	43183.47
768.02	43472.23
768.20	43502.95
768.39	43724.13
768.57	43480.42
768.75	43349.35
768.94	43451.75
769.12	43527.53
769.30	43509.10
769.49	43519.34
769.67	43189.61
769.85	42913.14
770.04	43021.68
770.22	43300.20
770.40	42954.10
770.59	42990.96
770.77	42845.55
770.95	42933.62
771.14	42616.18
771.32	42843.51
771.50	42304.89
771.69	42476.92
771.87	42638.71
772.05	42644.85
772.24	42132.86
772.42	42802.55
772.60	42341.75
772.78	42161.53
772.97	42100.09
773.15	42206.59
773.33	42251.64
773.52	42356.09
773.70	42112.38
773.88	42495.35
774.07	42235.26
774.25	42442.10
774.43	42571.13
774.61	42466.68
774.80	42755.44
774.98	42222.97
775.16	42517.88
775.34	42149.24
775.53	42366.33
775.71	42507.64
775.89	42376.57
776.08	42354.04
776.26	42460.54
776.44	42886.51
776.62	42425.72
776.81	42210.68
776.99	42644.85
777.17	42368.38
777.35	42501.50
777.54	42904.95
777.72	42435.96
777.90	42425.72
778.08	42878.32
778.27	42540.41
778.45	42956.14
778.63	43347.31
778.81	42448.25
779.00	43232.62
779.18	43054.45
779.36	43206.00
779.54	42610.04
779.73	42995.06
779.91	42917.23
780.09	42937.71
780.27	42868.08
780.46	42892.66
780.64	42857.84
780.82	43029.87
781.00	42595.70
781.19	42988.91
781.37	43521.38
781.55	43324.78
781.73	43570.54
781.91	42833.27
782.10	43124.08
782.28	43433.32
782.46	43324.78
782.64	43801.96
782.82	43210.09
783.01	43556.20
783.19	43611.49
783.37	43173.23
783.55	43345.26
783.74	43580.78
783.92	43066.73
784.10	43822.44
784.28	43111.79
784.46	43320.68
784.64	43105.65
784.83	43439.47
785.01	43666.79
785.19	43294.06
785.37	43515.24
785.55	43623.78
785.74	42874.23
785.92	43142.51
786.10	42923.38
786.28	42780.02
786.46	43003.25
786.64	42634.61
786.83	43343.21
787.01	43591.01
787.19	43394.41
787.37	43124.08
787.55	43064.69
787.74	42753.40
787.92	42892.66
788.10	42833.27
788.28	42636.66
788.46	42939.76
788.64	42702.20
788.82	42913.14
789.01	42937.71
789.19	43285.87
789.37	42362.23
789.55	42177.92
789.73	42257.79
789.91	42231.16
790.09	42315.13
790.28	42093.95
790.46	42151.29
790.64	41995.65
790.82	41899.39
791.00	41858.43
791.18	41850.24
791.36	41489.80
791.55	41753.99
791.73	41616.77
791.91	41270.67
792.09	41469.32
792.27	41317.77
792.45	41532.81
792.63	41319.82
792.81	40889.74
793.00	41301.39
793.18	40961.42
793.36	41188.75
793.54	40809.87
793.72	40465.81
793.90	40813.97
794.08	40736.15
794.26	40869.26
794.44	40152.48
794.62	40037.79
794.81	40097.18
794.99	39796.13
795.17	40250.78
795.35	40170.91
795.53	40056.22
795.71	40230.30
795.89	39935.39
796.07	39347.62
796.25	39466.41
796.43	39443.88
796.61	39310.76
796.80	39191.98
796.98	39450.02
797.16	38903.21
797.34	39349.67
797.52	38989.23
797.70	39245.23
797.88	38929.84
798.06	38557.11
798.24	38645.17
798.42	38880.69
798.60	38450.61
798.78	38282.68
798.96	38538.68
799.14	37998.01
799.32	38051.26
799.51	38008.25
799.69	38159.80
799.87	38286.78
800.05	38010.30
800.23	37930.43
800.41	37486.02
800.59	37621.19
800.77	37447.11
800.95	37357.00
801.13	37676.48
801.31	36906.44
801.49	37430.72
801.67	37164.49
801.85	36992.46
802.03	36908.49
802.21	36701.65
802.39	36337.11
802.57	36634.06
802.75	36578.77
802.93	36505.04
803.11	36468.18
803.29	36632.02
803.47	36042.20
803.65	35919.32
803.83	36287.96
804.01	36177.37
804.19	35616.22
804.37	35841.50
804.55	35821.02
804.73	35743.20
804.91	35888.60
805.09	35542.50
805.27	35397.09
805.45	35528.16
805.63	35651.04
805.81	35511.78
805.99	35343.84
806.17	35349.99
806.35	35386.85
806.53	34768.37
806.71	35085.80
806.89	34745.84
807.07	34682.35
807.25	34838.00
807.43	34432.50
807.61	34678.25
807.79	34485.75
807.97	34256.37
808.15	34276.85
808.33	34268.66
808.51	34033.14
808.69	34178.55
808.87	33934.84
809.05	33897.98
809.23	34027.00
809.41	33541.63
809.59	33515.01
809.77	34041.34
809.95	33144.33
810.13	33918.46
810.31	33363.46
810.49	33492.48
810.67	32962.06
810.84	33351.17
811.02	33408.51
811.20	32998.92
811.38	33060.36
811.56	32871.95
811.74	32837.13
811.92	32652.81
812.10	32814.60
812.28	32906.76
812.46	32810.51
812.64	32734.73
812.82	32826.89
813.00	32767.50
813.18	32267.80
813.36	32030.23
813.53	32083.48
813.71	31792.67
813.89	32052.76
814.07	32034.33
814.25	32210.45
814.43	32142.87
814.61	31909.40
814.79	31903.26
814.97	31604.25
815.15	31966.74
815.33	31440.42
815.50	31155.75
815.68	31784.48
815.86	31798.81
816.04	31096.36
816.22	31155.75
816.40	31329.83
816.58	30969.38
816.76	31206.95
816.94	31186.47
817.11	30860.84
817.29	30731.82
817.47	31036.97
817.65	30887.46
817.83	30760.49
818.01	30748.20
818.19	30756.39
818.37	30547.50
818.54	30338.61
818.72	30311.99
818.90	30604.84
819.08	30268.98
819.26	30111.28
819.44	30051.89
819.62	30344.75
819.80	30217.78
819.97	29879.86
820.15	29883.96
820.33	29599.29
820.51	30205.49
820.69	29826.62
820.87	29998.65
821.05	29871.67
821.22	29640.25
821.40	29812.28
821.58	29806.14
821.76	29476.41
821.94	29277.76
822.12	29529.66
822.29	29728.31
822.47	29484.61
822.65	29359.68
822.83	29382.21
823.01	29193.79
823.19	29394.50
823.36	28993.09
823.54	28964.42
823.72	29064.77
823.90	28964.42
824.08	28802.63
824.25	28827.21
824.43	28593.74
824.61	28794.44
824.79	28921.41
824.97	28554.83
825.15	29003.33
825.32	28421.71
825.50	28466.77
825.68	28071.51
825.86	28733.00
826.04	28395.09
826.21	28231.25
826.39	28190.29
826.57	28468.81
826.75	28089.94
826.93	27985.49
827.10	28048.98
827.28	27995.73
827.46	28155.47
827.64	28100.18
827.81	27854.42
827.99	28024.40
828.17	27895.38
828.35	27889.24
828.53	27835.99
828.70	27835.99
828.88	27936.34
829.06	27709.02
829.24	27893.33
829.41	27260.51
829.59	27668.06
829.77	27367.01
829.95	27285.09
830.12	27584.09
830.30	27221.60
830.48	27416.16
830.66	27338.33
830.84	27407.97
831.01	27207.26
831.19	27125.35
831.37	27231.84
831.55	27072.10
831.72	26883.69
831.90	27096.67
832.08	26807.91
832.25	27096.67
832.43	26707.56
832.61	26547.82
832.79	26601.07
832.96	26521.20
833.14	26429.04
833.32	26828.39
833.50	26793.58
833.67	26787.43
833.85	26744.42
834.03	26486.38
834.20	26662.51
834.38	26646.12
834.56	26488.43
834.74	26134.13
834.91	26181.23
835.09	25976.44
835.27	26019.44
835.44	26072.69
835.62	25808.50
835.80	26007.16
835.98	26111.60
836.15	25906.80
836.33	26035.83
836.51	25945.72
836.68	25886.32
836.86	25671.29
837.04	26099.31
837.21	25871.99
837.39	25849.46
837.57	25630.33
837.75	26054.26
837.92	25237.12
838.10	25364.09
838.28	25446.01
838.45	25394.81
838.63	25413.24
838.81	25251.45
838.98	25380.48
839.16	25372.28
839.34	25114.24
839.51	24962.69
839.69	25003.65
839.87	25073.28
840.04	25222.78
840.22	25122.43
840.40	24870.53
840.57	24544.91
840.75	24872.58
840.93	24635.02
841.10	24977.03
841.28	25403.00
841.46	24837.76
841.63	24923.78
841.81	24622.73
841.98	24356.49
842.16	24983.17
842.34	24669.83
842.51	24645.26
842.69	24831.62
842.87	24512.14
843.04	24628.87
843.22	24606.34
843.40	24602.25
843.57	24241.81
843.75	24446.60
843.92	24540.81
844.10	24297.10
844.28	24227.47
844.45	24231.57
844.63	24233.61
844.81	24069.78
844.98	24188.56
845.16	23930.51
845.33	24096.40
845.51	24135.31
845.69	24061.58
845.86	24065.68
846.04	23748.25
846.21	23916.18
846.39	23852.69
846.57	23946.90
846.74	23762.58
846.92	23680.66
847.09	23721.62
847.27	23703.19
847.45	23768.73
847.62	23641.75
847.80	23723.67
847.97	23905.94
848.15	23455.39
848.32	23457.43
848.50	23445.15
848.68	23553.69
848.85	23604.89
849.03	23250.59
849.20	23275.16
849.38	23357.08
849.56	23432.86
849.73	23252.64
849.91	23482.01
850.08	23326.36
850.26	23111.33
850.43	23328.41
850.61	23023.26
850.78	22873.76
850.96	23158.43
851.14	22718.12
851.31	22841.00
851.49	23125.66
851.66	22972.07
851.84	22826.66
852.01	22838.95
852.19	22937.25
852.36	22754.98
852.54	23004.83
852.71	22570.66
852.89	22646.44
853.07	22681.25
853.24	22617.77
853.42	22660.77
853.59	22750.88
853.77	22476.46
853.94	22763.17
854.12	22496.94
854.29	22185.65
854.47	22353.58
854.64	22369.96
854.82	22361.77
854.99	22408.87
855.17	22185.65
855.34	22175.41
855.52	22242.99
855.69	22257.32
855.87	22021.81
856.04	22083.25
856.22	22390.44
856.39	22089.39
856.57	21817.01
856.74	21765.81
856.92	22261.42
857.09	21921.46
857.27	21817.01
857.44	22136.49
857.62	21915.31
857.79	21935.79
857.97	21780.15
858.14	21968.56
858.32	21831.35
858.49	21612.21
858.67	21806.77
858.84	21888.69
859.02	21585.59
859.19	21595.83
859.37	21360.31
859.54	21466.81
859.72	21671.61
859.89	21391.03
860.06	21788.34
860.24	21397.18
860.41	21364.41
860.59	21112.51
860.76	21302.97
860.94	21016.26
861.11	21501.62
861.29	21513.91
861.46	21407.42
861.64	20975.30
861.81	21118.65
861.98	21087.93
862.16	20899.52
862.33	20866.75
862.51	21055.17
862.68	21126.85
862.86	20707.01
863.03	20758.21
863.21	20848.32
863.38	21102.27
863.55	20956.86
863.73	20709.06
863.90	20805.31
864.08	20661.96
864.25	20743.88
864.43	20901.57
864.60	20704.96
864.77	20625.09
864.95	20313.80
865.12	20405.96
865.30	20377.29
865.47	20516.55
865.64	20422.34
865.82	20541.13
865.99	20627.14
866.17	20405.96
866.34	20389.58
866.51	20215.50
866.69	20365.00
866.86	20238.03
867.04	20317.90
867.21	20164.30
867.38	19775.19
867.56	19971.79
867.73	19955.41
867.91	20053.71
868.08	19908.30
868.25	19773.14
868.43	19875.54
868.60	19840.72
868.78	19723.99
868.95	20063.95
869.12	19754.71
869.30	19726.04
869.47	19775.19
869.64	19564.25
869.82	19558.10
869.99	19752.66
870.16	19736.27
870.34	19652.31
870.51	19470.04
870.69	19474.13
870.86	19535.57
871.03	19492.57
871.21	19412.70
871.38	19668.69
871.55	19300.06
871.73	19511.00
871.90	19306.20
872.07	19046.11
872.25	19218.14
872.42	19394.26
872.59	19220.19
872.77	19128.03
872.94	19031.77
873.11	19130.08
873.29	18925.28
873.46	18945.76
873.63	19037.92
873.81	19015.39
873.98	18458.34
874.15	18859.74
874.33	18642.66
874.50	18869.98
874.67	18558.69
874.85	18507.49
875.02	18616.04
875.19	18357.99
875.37	18263.79
875.54	18401.00
875.71	18599.65
875.88	18235.11
876.06	18353.90
876.23	18573.03
876.40	18339.56
876.58	18069.23
876.75	18296.55
876.92	17880.82
877.10	18106.09
877.27	18081.52
877.44	18087.66
877.61	18073.32
877.79	17833.71
877.96	18032.36
878.13	17952.49
878.31	17716.98
878.48	17663.73
878.65	17866.48
878.82	17796.85
879.00	17780.46
879.17	17835.76
879.34	17868.53
879.51	17811.18
879.69	17741.55
879.86	17301.24
880.03	17690.35
880.21	17612.53
880.38	17428.21
880.55	17549.04
880.72	17520.37
880.90	17585.91
881.07	17383.16
881.24	17331.96
881.41	17460.98
881.59	17063.68
881.76	17293.05
881.93	17254.14
882.10	16975.61
882.28	17188.60
882.45	17276.66
882.62	17155.83
882.79	17278.71
882.96	16977.66
883.14	16856.83
883.31	17266.42
883.48	17215.23
883.65	16889.60
883.83	17198.84
884.00	17065.72
884.17	16883.45
884.34	17053.44
884.51	17065.72
884.69	16948.99
884.86	17051.39
885.03	16746.24
885.20	16664.32
885.38	17041.15
885.55	16682.75
885.72	16791.30
885.89	16703.23
886.06	16819.97
886.24	16416.52
886.41	16758.53
886.58	16729.86
886.75	16871.17
886.92	16580.36
887.10	16504.58
887.27	16455.43
887.44	16373.51
887.61	16606.98
887.78	16690.95
887.95	16541.44
888.13	16252.68
888.30	16482.05
888.47	16404.23
888.64	16285.45
888.81	16467.72
888.99	16254.73
889.16	16111.37
889.33	16271.11
889.50	16324.36
889.67	16340.74
889.84	16303.88
890.01	16125.71
890.19	16039.69
890.36	16238.34
890.53	15953.68
890.70	16156.43
890.87	16144.14
891.04	15994.64
891.22	16019.21
891.39	16051.98
891.56	15859.47
891.73	15800.08
891.90	15585.04
892.07	15681.30
892.24	15712.02
892.42	15660.82
892.59	15654.67
892.76	15783.70
892.93	15531.80
893.10	15785.74
893.27	15478.55
893.44	15591.19
893.61	15685.39
893.79	15626.00
893.96	15474.45
894.13	15814.41
894.30	15730.45
894.47	15570.71
894.64	15783.70
894.81	15615.76
894.98	15697.68
895.15	15560.47
895.33	15443.73
895.50	15591.19
895.67	15642.39
895.84	15474.45
896.01	15482.64
896.18	15445.78
896.35	15560.47
896.52	15515.41
896.69	15568.66
896.86	15550.23
897.04	15398.68
897.21	15736.59
897.38	15476.50
897.55	15488.79
897.72	15466.26
897.89	15513.36
898.06	15580.95
898.23	15236.89
898.40	15591.19
898.57	15533.84
898.74	15386.39
898.91	15374.10
899.08	15370.01
899.26	15421.20
899.43	15365.91
899.60	15212.31
899.77	15585.04
899.94	15341.33
900.11	15093.53
900.28	15374.10
900.45	15433.49
900.62	15275.80
900.79	15472.40
900.96	15537.94
901.13	15341.33
901.30	15298.33
901.47	15261.46
901.64	15617.81
901.81	15433.49
901.98	15097.63
902.15	15343.38
902.32	15167.26
902.49	15329.05
902.66	15339.29
902.83	15372.05
903.01	15281.94
903.18	15236.89
903.35	15404.82
903.52	15097.63
903.69	15406.87
903.86	15531.80
904.03	15503.12
904.20	15415.06
904.37	15372.05
904.54	15308.57
904.71	15191.83
904.88	15505.17
905.05	15511.32
905.22	15310.61
905.39	15085.34
905.56	15249.18
905.73	15243.03
905.90	15187.74
906.07	15355.67
906.24	15302.42
906.41	15345.43
906.58	15224.60
906.75	15408.92
906.92	15128.35
907.09	15269.66
907.26	15193.88
907.43	15109.91
907.60	15177.50
907.77	15427.35
907.93	15134.49
908.10	14987.04
908.27	15449.88
908.44	15087.39
908.61	15120.15
908.78	15150.87
908.95	15210.26
909.12	15290.13
909.29	15343.38
909.46	14987.04
909.63	14974.75
909.80	15402.77
909.97	15400.72
910.14	15181.59
910.31	15120.15
910.48	15101.72
910.65	15060.76
910.82	15302.42
910.99	14987.04
911.16	15056.67
911.33	14929.69
911.50	14950.17
911.66	14851.87
911.83	15093.53
912.00	14827.29
912.17	14929.69
912.34	14913.31
912.51	14835.49
912.68	14630.69
912.85	14792.48
913.02	14722.85
913.19	14626.59
913.36	14542.63
913.53	14880.54
913.70	14534.43
913.86	14862.11
914.03	14636.83
914.20	14683.94
914.37	14685.98
914.54	14690.08
914.71	14583.59
914.88	14464.80
915.05	14446.37
915.22	14468.90
915.39	14518.05
915.55	14429.99
915.72	14393.12
915.89	14235.43
916.06	14331.69
916.23	14165.80
916.40	14016.30
916.57	14143.27
916.74	14290.73
916.91	13954.86
917.07	13915.95
917.24	14098.22
917.41	13979.43
917.58	14217.00
917.75	14155.56
917.92	13563.70
918.09	13922.09
918.26	13795.12
918.42	13809.45
918.59	13424.44
918.76	13586.22
918.93	13537.07
919.10	13612.85
919.27	13500.21
919.44	13854.51
919.60	13696.82
919.77	13592.37
919.94	13422.39
920.11	13496.11
920.28	13520.69
920.45	13494.07
920.61	13360.95
920.78	13240.12
920.95	13455.15
921.12	13209.40
921.29	13293.37
921.46	12975.93
921.62	12990.27
921.79	13139.77
921.96	13051.70
922.13	12928.83
922.30	13176.63
922.47	12908.35
922.63	12795.71
922.80	12851.00
922.97	12834.62
923.14	12644.16
923.31	12760.89
923.47	12545.86
923.64	12779.32
923.81	12603.20
923.98	12705.60
924.15	12384.07
924.32	12371.78
924.48	12605.25
924.65	12461.89
924.82	12121.93
924.99	12259.14
925.15	12179.27
925.32	12203.85
925.49	12177.22
925.66	11964.23
925.83	11902.79
925.99	12068.68
926.16	11956.04
926.33	11919.18
926.50	11779.92
926.67	11882.31
926.83	11872.07
927.00	11718.48
927.17	11677.52
927.34	11538.26
927.50	11446.10
927.67	11439.95
927.84	11521.87
928.01	11407.19
928.17	11425.62
928.34	11448.15
928.51	11210.58
928.68	11181.91
928.84	11102.04
929.01	11216.72
929.18	11030.36
929.35	11009.88
929.51	11114.33
929.68	10995.54
929.85	11018.07
930.02	10710.88
930.18	10811.23
930.35	10821.47
930.52	10633.05
930.69	10612.57
930.85	10753.88
931.02	10508.13
931.19	10651.49
931.36	10747.74
931.52	10612.57
931.69	10499.94
931.86	10323.81
932.02	10356.58
932.19	10196.84
932.36	10235.75
932.53	10245.99
932.69	10047.33
932.86	10170.21
933.03	10178.40
933.19	10061.67
933.36	9885.55
933.53	10168.16
933.70	9910.12
933.86	9961.32
934.03	9844.59
934.20	9826.15
934.36	9875.31
934.53	9465.71
934.70	9527.15
934.86	9543.53
935.03	9412.46
935.20	9226.10
935.36	9330.55
935.53	9236.34
935.70	9002.87
935.86	9113.46
936.03	8941.43
936.20	8918.90
936.36	8826.75
936.53	8906.62
936.70	8931.19
936.86	8867.70
937.03	8744.83
937.20	8337.28
937.36	8521.60
937.53	8347.52
937.70	8220.55
937.86	8064.90
938.03	7950.21
938.20	8146.82
938.36	7958.41
938.53	7915.40
938.70	7751.56
938.86	7755.66
939.03	7710.60
939.20	7567.24
939.36	7514.00
939.53	7399.31
939.70	7520.14
939.86	7290.77
940.03	7108.50
940.19	6854.55
940.36	6946.71
940.53	6901.65
940.69	6760.34
940.86	6838.17
941.03	6610.84
941.19	6606.75
941.36	6590.36
941.52	6430.62
941.69	6533.02
941.86	6414.24
942.02	6537.12
942.19	6262.69
942.35	6365.09
942.52	6164.39
942.69	6088.61
942.85	6008.74
943.02	6131.62
943.18	6098.85
943.35	6045.60
943.52	5926.82
943.68	5775.27
943.85	5855.14
944.01	5758.89
944.18	5717.93
944.35	5762.98
944.51	5736.36
944.68	5554.09
944.84	5676.97
945.01	5535.66
945.17	5668.78
945.34	5683.11
945.51	5638.06
945.67	5550.00
945.84	5562.28
946.00	5506.99
946.17	5578.67
946.33	5492.65
946.50	5609.39
946.67	5466.03
946.83	5388.21
947.00	5572.52
947.16	5461.93
947.33	5400.49
947.49	5500.84
947.66	5453.74
947.82	5392.30
947.99	5502.89
948.16	5679.02
948.32	5582.76
948.49	5476.27
948.65	5478.32
948.82	5523.37
948.98	5502.89
949.15	5373.87
949.31	5484.46
949.48	5439.40
949.64	5367.73
949.81	5476.27
949.97	5404.59
950.14	5435.31
950.30	5453.74
950.47	5554.09
950.63	5328.81
950.80	5490.60
950.96	5517.23
951.13	5392.30
951.30	5365.68
951.46	5541.80
951.63	5613.48
951.79	5625.77
951.96	5595.05
952.12	5445.55
952.29	5545.90
952.45	5525.42
952.62	5623.72
952.78	5642.15
952.94	5519.28
953.11	5457.84
953.27	5480.36
953.44	5691.31
953.60	5705.64
953.77	5590.95
953.93	5521.32
954.10	5617.58
954.26	5668.78
954.43	5574.57
954.59	5523.37
954.76	5656.49
954.92	5629.87
955.09	5640.11
955.25	5599.15
955.42	5552.04
955.58	5783.46
955.75	5595.05
955.91	5513.13
956.07	5447.60
956.24	5572.52
956.40	5689.26
956.57	5670.83
956.73	5613.48
956.90	5691.31
957.06	5492.65
957.23	5705.64
957.39	5515.18
957.56	5656.49
957.72	5550.00
957.88	5535.66
958.05	5762.98
958.21	5633.96
958.38	5652.39
958.54	5552.04
958.71	5726.12
958.87	5607.34
959.03	5564.33
959.20	5574.57
959.36	5689.26
959.53	5644.20
959.69	5556.14
959.85	5646.25
960.02	5597.10
960.18	5662.63
960.35	5658.54
960.51	5750.70
960.68	5547.95
960.84	5601.19
961.00	5539.76
961.17	5611.43
961.33	5629.87
961.50	5517.23
961.66	5543.85
961.82	5617.58
961.99	5615.53
962.15	5527.47
962.31	5566.38
962.48	5531.56
962.64	5681.07
962.81	5787.56
962.97	5631.91
963.13	5795.75
963.30	5683.11
963.46	5445.55
963.62	5517.23
963.79	5550.00
963.95	5617.58
964.12	5615.53
964.28	5625.77
964.44	5496.75
964.61	5500.84
964.77	5568.43
964.93	5593.00
965.10	5496.75
965.26	5525.42
965.42	5513.13
965.59	5564.33
965.75	5416.88
965.92	5570.48
966.08	5418.93
966.24	5386.16
966.41	5461.93
966.57	5461.93
966.73	5296.05
966.90	5550.00
967.06	5410.73
967.22	5377.97
967.39	5521.32
967.55	5365.68
967.71	5341.10
967.88	5322.67
968.04	5316.53
968.20	5328.81
968.37	5371.82
968.53	5390.25
968.69	5345.20
968.85	5537.71
969.02	5337.01
969.18	5345.20
969.34	5334.96
969.51	5406.64
969.67	5451.69
969.83	5222.32
970.00	5377.97
970.16	5232.56
970.32	5214.13
970.48	5386.16
970.65	5181.36
970.81	5171.12
970.97	5326.77
971.14	5177.26
971.30	5152.69
971.46	5097.39
971.63	5265.33
971.79	5246.90
971.95	5156.79
972.11	5105.59
972.28	5173.17
972.44	5158.83
972.60	4941.75
972.76	5072.82
972.93	4931.51
973.09	5076.91
973.25	5132.21
973.42	5042.10
973.58	5064.63
973.74	5117.87
973.90	5111.73
974.07	5056.43
974.23	5021.62
974.39	5220.27
974.55	5124.02
974.72	4982.71
974.88	4845.49
975.04	5179.31
975.20	5078.96
975.37	4937.65
975.53	4992.95
975.69	5003.19
975.85	4884.41
976.01	4921.27
976.18	4868.02
976.34	4792.25
976.50	4927.41
976.66	4980.66
976.83	4884.41
976.99	4779.96
977.15	4947.89
977.31	4800.44
977.47	4814.77
977.64	4775.86
977.80	4730.81
977.96	4769.72
978.12	4806.58
978.29	4751.29
978.45	4603.83
978.61	4679.61
978.77	4743.10
978.93	4736.95
979.10	4634.55
979.26	4693.94
979.42	4669.37
979.58	4497.34
979.74	4552.63
979.91	4743.10
980.07	4487.10
980.23	4687.80
980.39	4546.49
980.55	4616.12
980.71	4603.83
980.88	4513.72
981.04	4423.61
981.20	4513.72
981.36	4599.74
981.52	4677.56
981.68	4409.28
981.85	4480.96
982.01	4517.82
982.17	4528.06
982.33	4472.76
982.49	4583.35
982.65	4399.04
982.82	4466.62
982.98	4351.93
983.14	4356.03
983.30	4468.67
983.46	4388.80
983.62	4442.04
983.79	4380.61
983.95	4349.89
984.11	4261.82
984.27	4427.71
984.43	4372.41
984.59	4313.02
984.75	4384.70
984.91	4349.89
985.08	4302.78
985.24	4245.44
985.40	4243.39
985.56	4290.49
985.72	4231.10
985.88	4280.25
986.04	4247.49
986.20	4179.90
986.37	4241.34
986.53	4149.18
986.69	4288.45
986.85	4120.51
987.01	4130.75
987.17	4257.73
987.33	4216.77
987.49	4089.79
987.65	4089.79
987.82	4052.93
987.98	3952.58
988.14	4100.03
988.30	4138.94
988.46	3958.72
988.62	4044.74
988.78	4065.22
988.94	3962.82
989.10	3821.51
989.26	3977.16
989.42	3872.71
989.59	3952.58
989.75	3911.62
989.91	4118.47
990.07	3915.72
990.23	3995.59
990.39	3850.18
990.55	4003.78
990.71	3932.10
990.87	3745.73
991.03	3809.22
991.19	3854.28
991.35	3764.17
991.51	3874.76
991.67	3895.24
991.83	3747.78
992.00	3774.41
992.16	3870.66
992.32	3764.17
992.48	3778.50
992.64	3817.41
992.80	3788.74
992.96	3755.97
993.12	3708.87
993.28	3907.52
993.44	3686.34
993.60	3755.97
993.76	3667.91
993.92	3731.40
994.08	3813.32
994.24	3622.86
994.40	3682.25
994.56	3624.90
994.72	3753.93
994.88	3745.73
995.04	3606.47
995.20	3516.36
995.36	3645.38
995.52	3575.75
995.68	3538.89
995.84	3557.32
996.00	3719.11
996.16	3573.71
996.32	3594.19
996.48	3510.22
996.64	3633.10
996.80	3514.31
996.96	3575.75
997.12	3545.03
997.28	3502.03
997.44	3448.78
997.60	3567.56
997.76	3534.79
997.92	3542.99
998.08	3547.08
998.24	3368.91
998.40	3475.40
998.56	3456.97
998.72	3422.16
998.88	3375.05
999.04	3350.48
999.20	3452.88
999.36	3389.39
999.52	3407.82
999.68	3403.72
999.84	3428.30
1000.00	3418.06
1000.16	3319.76
1000.32	3303.37
1000.48	3454.92
1000.64	3276.75
1000.80	3284.94
1000.95	3274.70
1001.11	3291.09
1001.27	3166.16
1001.43	3301.33
1001.59	3139.54
1001.75	3258.32
1001.91	3332.05
1002.07	3139.54
1002.23	3139.54
1002.39	3123.15
1002.55	3092.43
1002.71	3239.89
1002.87	3174.35
1003.03	3133.39
1003.19	3153.87
1003.34	3174.35
1003.50	3041.23
1003.66	3209.17
1003.82	3000.27
1003.98	3145.68
1004.14	3147.73
1004.30	3024.85
1004.46	3024.85
1004.62	2981.84
1004.78	3078.10
1004.94	3117.01
1005.09	3080.14
1005.25	3022.80
1005.41	3039.19
1005.57	2944.98
1005.73	2977.75
1005.89	3051.47
1006.05	3033.04
1006.21	3012.56
1006.37	2940.88
1006.52	2961.36
1006.68	2963.41
1006.84	3078.10
1007.00	2979.79
1007.16	3059.67
1007.32	2959.31
1007.48	2918.36
1007.64	2942.93
1007.79	2842.58
1007.95	2869.20
1008.11	2969.55
1008.27	2930.64
1008.43	2854.87
1008.59	2887.64
1008.75	2908.12
1008.91	2885.59
1009.06	2912.21
1009.22	2854.87
1009.38	2815.96
1009.54	2854.87
1009.70	2758.61
1009.86	2740.18
1010.01	2828.24
1010.17	2779.09
1010.33	2920.40
1010.49	2885.59
1010.65	2877.40
1010.81	2766.81
1010.96	2760.66
1011.12	2768.85
1011.28	2666.46
1011.44	2822.10
1011.60	2785.24
1011.76	2729.94
1011.91	2832.34
1012.07	2746.33
1012.23	2674.65
1012.39	2701.27
1012.55	2648.02
1012.71	2699.22
1012.86	2582.49
1013.02	2731.99
1013.18	2590.68
1013.34	2641.88
1013.50	2725.85
1013.65	2680.79
1013.81	2559.96
1013.97	2670.55
1014.13	2656.22
1014.29	2553.82
1014.44	2770.90
1014.60	2639.83
1014.76	2617.30
1014.92	2531.29
1015.07	2510.81
1015.23	2596.82
1015.39	2568.15
1015.55	2641.88
1015.71	2633.69
1015.86	2500.57
1016.02	2496.47
1016.18	2486.23
1016.34	2535.39
1016.49	2582.49
1016.65	2533.34
1016.81	2609.11
1016.97	2498.52
1017.12	2543.58
1017.28	2519.00
1017.44	2359.26
1017.60	2535.39
1017.75	2504.67
1017.91	2523.10
1018.07	2437.08
1018.23	2537.43
1018.38	2381.79
1018.54	2510.81
1018.70	2514.91
1018.86	2402.27
1019.01	2371.55
1019.17	2416.60
1019.33	2510.81
1019.49	2379.74
1019.64	2457.56
1019.80	2437.08
1019.96	2484.19
1020.12	2437.08
1020.27	2283.49
1020.43	2371.55
1020.59	2455.51
1020.74	2367.45
1020.90	2498.52
1021.06	2383.84
1021.22	2385.88
1021.37	2410.46
1021.53	2301.92
1021.69	2369.50
1021.84	2285.53
1022.00	2314.20
1022.16	2363.36
1022.31	2330.59
1022.47	2369.50
1022.63	2418.65
1022.79	2248.67
1022.94	2338.78
1023.10	2326.49
1023.26	2308.06
1023.41	2285.53
1023.57	2301.92
1023.73	2285.53
1023.88	2299.87
1024.04	2205.66
1024.20	2263.01
1024.35	2260.96
1024.51	2250.72
1024.67	2260.96
1024.82	2281.44
1024.98	2203.61
1025.14	2250.72
1025.29	2256.86
1025.45	2252.77
1025.61	2201.57
1025.76	2269.15
1025.92	2197.47
1026.08	2226.14
1026.23	2185.18
1026.39	2220.00
1026.55	2213.85
1026.70	2207.71
1026.86	2238.43
1027.02	2338.78
1027.17	2168.80
1027.33	2238.43
1027.48	2222.05
1027.64	2187.23
1027.80	2203.61
1027.95	2217.95
1028.11	2189.28
1028.27	2148.32
1028.42	2162.66
1028.58	2111.46
1028.73	2125.79
1028.89	2009.06
1029.05	2222.05
1029.20	2144.22
>>>>>End Processed Spectral Data<<<<<
