SpectraSuite Data File
++++++++++++++++++++++++++++++++++++
Date: Fri Jun 02 14:52:26 CEST 2017
User: INFO_000
Dark Spectrum Present: No
Reference Spectrum Present: No
Number of Sampled Component Spectra: 1
Spectrometers: USB4H00879
Integration Time (usec): 80000 (USB4H00879)
Spectra Averaged: 1 (USB4H00879)
Boxcar Smoothing: 0 (USB4H00879)
Correct for Electrical Dark: No (USB4H00879)
Strobe/Lamp Enabled: No (USB4H00879)
Correct for Detector Non-linearity: No (USB4H00879)
Correct for Stray Light: No (USB4H00879)
Number of Pixels in Processed Spectrum: 3648
>>>>>Begin Processed Spectral Data<<<<<
345.13	1327.08
345.34	1327.08
345.56	1327.08
345.78	1335.28
345.99	1179.63
346.21	1742.82
346.42	1695.72
346.64	1685.48
346.86	1814.50
347.07	1658.85
347.29	1712.10
347.50	1681.38
347.72	1691.62
347.94	1771.49
348.15	1601.51
348.37	1560.55
348.59	1738.73
348.80	1640.42
349.02	1744.87
349.23	1880.04
349.45	1904.61
349.67	1920.99
349.88	1783.78
350.10	2002.91
350.31	1744.87
350.53	1875.94
350.75	1996.77
350.96	1757.16
351.18	1882.08
351.39	1834.98
351.61	1796.07
351.82	1882.08
352.04	1916.90
352.26	1871.84
352.47	1837.03
352.69	1873.89
352.90	1775.59
353.12	1861.60
353.34	1804.26
353.55	1943.52
353.77	1908.71
353.98	1837.03
354.20	1859.56
354.41	1974.24
354.63	1964.00
354.85	1929.19
355.06	1914.85
355.28	1814.50
355.49	1896.42
355.71	1945.57
355.92	1888.23
356.14	1904.61
356.35	1847.27
356.57	1898.47
356.79	1904.61
357.00	1832.93
357.22	2021.35
357.43	1861.60
357.65	1959.91
357.86	1824.74
358.08	1951.71
358.29	1898.47
358.51	1931.23
358.72	1984.48
358.94	1986.53
359.16	1937.38
359.37	1972.19
359.59	1970.15
359.80	1984.48
360.02	2019.30
360.23	1955.81
360.45	1955.81
360.66	1972.19
360.88	1839.08
361.09	1974.24
361.31	2021.35
361.52	2027.49
361.74	2047.97
361.95	2033.63
362.17	2025.44
362.38	2050.02
362.60	2011.11
362.81	1964.00
363.03	1964.00
363.24	2019.30
363.46	2054.11
363.67	1966.05
363.89	2035.68
364.10	1982.43
364.32	1972.19
364.53	2113.50
364.75	1933.28
364.96	2056.16
365.18	2035.68
365.39	2023.39
365.61	1986.53
365.82	2148.32
366.04	1957.86
366.25	1986.53
366.47	2084.83
366.68	2064.35
366.90	2064.35
367.11	2088.93
367.33	2101.22
367.54	2068.45
367.76	2033.63
367.97	2109.41
368.19	2047.97
368.40	2050.02
368.62	1966.05
368.83	1961.95
369.05	2107.36
369.26	2054.11
369.48	1990.63
369.69	1994.72
369.91	2144.22
370.12	1994.72
370.33	2111.46
370.55	1941.47
370.76	2121.70
370.98	2080.74
371.19	2086.88
371.41	2054.11
371.62	2064.35
371.84	1988.58
372.05	2213.85
372.27	2076.64
372.48	1978.34
372.69	2183.13
372.91	2189.28
373.12	2244.57
373.34	2168.80
373.55	2097.12
373.77	2220.00
373.98	2105.31
374.20	2246.62
374.41	2230.24
374.62	2117.60
374.84	2121.70
375.05	2246.62
375.27	2105.31
375.48	2215.90
375.70	2211.81
375.91	2279.39
376.12	2404.32
376.34	2215.90
376.55	2187.23
376.77	2209.76
376.98	2203.61
377.19	2162.66
377.41	2222.05
377.62	2215.90
377.84	2281.44
378.05	2394.08
378.27	2209.76
378.48	2273.25
378.69	2330.59
378.91	2252.77
379.12	2267.10
379.34	2310.11
379.55	2295.77
379.76	2279.39
379.98	2260.96
380.19	2314.20
380.41	2306.01
380.62	2310.11
380.83	2234.33
381.05	2226.14
381.26	2428.89
381.47	2236.38
381.69	2246.62
381.90	2441.18
382.12	2312.16
382.33	2375.64
382.54	2373.60
382.76	2295.77
382.97	2394.08
383.19	2267.10
383.40	2449.37
383.61	2289.63
383.83	2328.54
384.04	2326.49
384.25	2416.60
384.47	2387.93
384.68	2353.12
384.89	2340.83
385.11	2361.31
385.32	2373.60
385.54	2373.60
385.75	2404.32
385.96	2363.36
386.18	2473.95
386.39	2418.65
386.60	2379.74
386.82	2447.32
387.03	2459.61
387.24	2467.80
387.46	2387.93
387.67	2523.10
387.88	2516.95
388.10	2535.39
388.31	2537.43
388.52	2519.00
388.74	2547.67
388.95	2549.72
389.16	2568.15
389.38	2514.91
389.59	2656.22
389.80	2697.17
390.02	2535.39
390.23	2574.30
390.44	2598.87
390.66	2557.91
390.87	2539.48
391.08	2709.46
391.30	2615.26
391.51	2688.98
391.72	2731.99
391.94	2697.17
392.15	2641.88
392.36	2652.12
392.58	2617.30
392.79	2721.75
393.00	2772.95
393.22	2695.13
393.43	2801.62
393.64	2830.29
393.85	2842.58
394.07	2785.24
394.28	2846.68
394.49	2867.16
394.71	2871.25
394.92	2922.45
395.13	2754.52
395.35	2756.57
395.56	2740.18
395.77	2854.87
395.98	2758.61
396.20	2813.91
396.41	2885.59
396.62	2932.69
396.84	2858.96
397.05	2832.34
397.26	2922.45
397.47	3014.61
397.69	2912.21
397.90	3051.47
398.11	2967.51
398.32	2936.79
398.54	2918.36
398.75	2891.73
398.96	3014.61
399.18	3049.43
399.39	3028.95
399.60	3006.42
399.81	2936.79
400.03	3080.14
400.24	3241.93
400.45	2994.13
400.66	3024.85
400.88	3139.54
401.09	3250.13
401.30	3149.78
401.51	3143.63
401.73	3194.83
401.94	3186.64
402.15	3074.00
402.36	3264.46
402.58	3225.55
402.79	3114.96
403.00	3235.79
403.21	3164.11
403.43	3188.69
403.64	3254.22
403.85	3188.69
404.06	3278.80
404.27	3149.78
404.49	3289.04
404.70	3219.41
404.91	3280.85
405.12	3293.13
405.34	3336.14
405.55	3385.29
405.76	3250.13
405.97	3235.79
406.19	3495.88
406.40	3160.02
406.61	3248.08
406.82	3413.96
407.03	3377.10
407.25	3327.95
407.46	3477.45
407.67	3512.27
407.88	3575.75
408.09	3346.38
408.31	3407.82
408.52	3422.16
408.73	3497.93
408.94	3282.89
409.15	3481.55
409.37	3569.61
409.58	3602.38
409.79	3483.59
410.00	3555.27
410.21	3411.92
410.43	3454.92
410.64	3592.14
410.85	3635.14
411.06	3545.03
411.27	3579.85
411.48	3590.09
411.70	3594.19
411.91	3526.60
412.12	3708.87
412.33	3583.95
412.54	3659.72
412.76	3774.41
412.97	3704.78
413.18	3600.33
413.39	3729.35
413.60	3755.97
413.81	3686.34
414.03	3696.58
414.24	3772.36
414.45	3841.99
414.66	3608.52
414.87	3796.93
415.08	3807.17
415.30	3786.69
415.51	3858.37
415.72	3772.36
415.93	3798.98
416.14	3794.89
416.35	3887.04
416.56	3850.18
416.78	3893.19
416.99	3923.91
417.20	3987.40
417.41	3944.39
417.62	3993.54
417.83	3973.06
418.04	3977.16
418.26	4075.46
418.47	3989.44
418.68	4145.09
418.89	3987.40
419.10	4198.34
419.31	4157.38
419.52	4175.81
419.73	4149.18
419.95	4075.46
420.16	4071.36
420.37	4050.88
420.58	4145.09
420.79	3936.20
421.00	4140.99
421.21	4286.40
421.42	4079.55
421.63	4235.20
421.85	4147.14
422.06	4214.72
422.27	4255.68
422.48	4190.14
422.69	4321.21
422.90	4255.68
423.11	4253.63
423.32	4394.94
423.53	4460.48
423.75	4460.48
423.96	4575.16
424.17	4546.49
424.38	4562.87
424.59	4579.26
424.80	4743.10
425.01	4319.17
425.22	4497.34
425.43	4540.35
425.64	4724.66
425.85	4663.22
426.06	4820.92
426.28	4509.63
426.49	4605.88
426.70	4648.89
426.91	4771.77
427.12	4812.73
427.33	4624.31
427.54	4646.84
427.75	4820.92
427.96	4859.83
428.17	4757.43
428.38	5031.86
428.59	4939.70
428.80	4800.44
429.01	4960.18
429.23	4900.79
429.44	5109.68
429.65	5099.44
429.86	5205.94
430.07	4954.04
430.28	5052.34
430.49	4997.04
430.70	5345.20
430.91	5191.60
431.12	5068.72
431.33	5216.18
431.54	5351.34
431.75	5257.14
431.96	5152.69
432.17	5242.80
432.38	5169.07
432.59	5439.40
432.80	5402.54
433.01	5420.97
433.22	5427.12
433.43	5482.41
433.64	5420.97
433.85	5226.42
434.06	5427.12
434.27	5250.99
434.49	5601.19
434.70	5570.48
434.91	5586.86
435.12	5523.37
435.33	5660.59
435.54	5691.31
435.75	5562.28
435.96	5459.88
436.17	5455.79
436.38	5787.56
436.59	5717.93
436.80	5595.05
437.01	5830.57
437.22	5846.95
437.43	5793.70
437.64	5550.00
437.85	5953.45
438.06	5984.16
438.27	5818.28
438.48	5762.98
438.69	5980.07
438.90	5922.73
439.11	5785.51
439.32	6135.71
439.53	5965.73
439.74	6010.79
439.95	5969.83
440.16	5965.73
440.37	5959.59
440.57	5877.67
440.78	6180.77
440.99	6129.57
441.20	5924.77
441.41	5851.05
441.62	6008.74
441.83	5982.12
442.04	6250.40
442.25	6117.28
442.46	6221.73
442.67	6309.79
442.88	6504.35
443.09	6055.84
443.30	6309.79
443.51	6487.96
443.72	6526.88
443.93	6293.41
444.14	6555.55
444.35	6215.59
444.56	6502.30
444.77	6383.52
444.98	6408.09
445.19	6414.24
445.40	6537.12
445.61	6412.19
445.81	6676.38
446.02	6674.33
446.23	6692.76
446.44	6281.12
446.65	6600.60
446.86	6619.04
447.07	6563.74
447.28	6905.75
447.49	6866.84
447.70	6805.40
447.91	6895.51
448.12	6737.82
448.33	6903.70
448.54	6932.37
448.74	6805.40
448.95	6813.59
449.16	6858.65
449.37	7049.11
449.58	6832.02
449.79	7122.84
450.00	6795.16
450.21	6887.32
450.42	7174.03
450.63	7053.20
450.84	7067.54
451.05	7124.88
451.25	7110.55
451.46	6924.18
451.67	7090.07
451.88	7393.17
452.09	7231.38
452.30	7180.18
452.51	7114.64
452.72	7380.88
452.93	7653.26
453.13	7247.76
453.34	7311.25
453.55	7518.09
453.76	7436.17
453.97	7659.40
454.18	7532.43
454.39	7802.76
454.60	7552.91
454.81	7651.21
455.01	7845.77
455.22	7432.08
455.43	7632.78
455.64	7962.50
455.85	8099.72
456.06	8015.75
456.27	7804.81
456.48	7858.06
456.68	8146.82
456.89	7915.40
457.10	8015.75
457.31	8069.00
457.52	7999.37
457.73	8118.15
457.94	8417.15
458.14	8101.76
458.35	8482.69
458.56	8382.34
458.77	8312.71
458.98	8505.21
459.19	8578.94
459.39	8617.85
459.60	8628.09
459.81	8468.35
460.02	8621.95
460.23	8601.47
460.44	8929.14
460.65	8763.26
460.85	8736.63
461.06	8982.39
461.27	8607.61
461.48	8978.30
461.69	9086.84
461.89	8916.86
462.10	9105.27
462.31	8933.24
462.52	9002.87
462.73	9230.20
462.94	9355.12
463.14	9146.23
463.35	9215.86
463.56	9367.41
463.77	9688.94
463.98	9375.60
464.18	9445.23
464.39	9709.42
464.60	9713.52
464.81	9799.53
465.02	9625.45
465.23	9895.78
465.43	9731.95
465.64	10024.81
465.85	10037.09
466.06	9879.40
466.27	10401.63
466.47	10319.71
466.68	10092.39
466.89	10239.84
467.10	10260.32
467.30	10272.61
467.51	10438.50
467.72	10565.47
467.93	10409.83
468.14	10544.99
468.34	10786.65
468.55	10506.08
468.76	10610.53
468.97	10743.64
469.17	10956.63
469.38	11145.05
469.59	11097.94
469.80	11052.89
470.01	11130.71
470.21	11054.94
470.42	11491.15
470.63	11505.49
470.84	11235.16
471.04	11464.53
471.25	11431.76
471.46	11626.32
471.67	11763.53
471.87	11765.58
472.08	11861.84
472.29	12013.38
472.50	11710.29
472.70	12064.58
472.91	11898.70
473.12	12296.00
473.33	12523.33
473.53	12580.67
473.74	12498.75
473.95	12771.13
474.16	12543.81
474.36	12652.35
474.57	12865.34
474.78	13176.63
474.99	12906.30
475.19	12832.57
475.40	13145.91
475.61	13113.14
475.81	13363.00
476.02	13410.10
476.23	13475.63
476.44	13707.05
476.64	13883.18
476.85	13717.29
477.06	13645.62
477.27	14049.07
477.47	14133.03
477.68	14309.16
477.89	14405.41
478.09	14257.96
478.30	14368.55
478.51	14487.33
478.71	14569.25
478.92	14765.85
479.13	14685.98
479.34	14837.53
479.54	14761.76
479.75	14939.93
479.96	15116.06
480.16	15062.81
480.37	15222.55
480.58	15523.60
480.78	15630.10
480.99	15574.80
481.20	15695.63
481.41	16027.40
481.61	16000.78
481.82	15970.06
482.03	16189.19
482.23	16037.64
482.44	16367.37
482.65	16387.85
482.85	16381.70
483.06	16613.12
483.27	16559.88
483.47	16766.72
483.68	16500.48
483.89	16746.24
484.09	17051.39
484.30	17100.54
484.51	17434.36
484.71	17370.87
484.92	17247.99
485.13	17417.97
485.33	17616.63
485.54	17420.02
485.75	17841.90
485.95	17946.35
486.16	17966.83
486.37	17901.29
486.57	17972.97
486.78	18194.15
486.98	18165.48
487.19	18089.71
487.40	18527.97
487.60	18493.16
487.81	18552.55
488.02	18409.19
488.22	18738.91
488.43	18853.60
488.64	18941.66
488.84	19117.79
489.05	18964.19
489.25	19117.79
489.46	19373.78
489.67	19302.11
489.87	19597.01
490.08	19539.67
490.29	19486.42
490.49	19979.98
490.70	19932.88
490.90	19683.03
491.11	19984.08
491.32	20158.16
491.52	19879.63
491.73	20098.77
491.94	20463.30
492.14	20162.25
492.35	20526.79
492.55	20694.72
492.76	20678.34
492.97	20874.95
493.17	20883.14
493.38	21112.51
493.58	21259.96
493.79	21345.98
494.00	21286.59
494.20	21268.16
494.41	21628.60
494.61	21368.51
494.82	21280.44
495.02	21485.24
495.23	21374.65
495.44	21792.44
495.64	22107.82
495.85	21993.14
496.05	22027.95
496.26	21712.56
496.47	22286.00
496.67	22079.15
496.88	22550.18
497.08	22417.07
497.29	22505.13
497.49	22091.44
497.70	22734.50
497.91	22730.41
498.11	23041.70
498.32	22949.54
498.52	22978.21
498.73	23027.36
498.93	23123.62
499.14	23250.59
499.34	23320.22
499.55	23838.36
499.76	23258.78
499.96	23588.50
500.17	23602.84
500.37	23783.06
500.58	23537.30
500.78	23625.37
500.99	23551.64
501.19	23727.77
501.40	23907.99
501.60	23760.53
501.81	24022.67
502.02	24012.43
502.22	23799.44
502.43	24340.11
502.63	24063.63
502.84	24352.40
503.04	24313.48
503.25	24714.89
503.45	24657.54
503.66	24747.65
503.86	24764.04
504.07	24827.53
504.27	24252.05
504.48	24817.29
504.68	25089.67
504.89	24979.07
505.09	25489.02
505.30	25337.47
505.50	25251.45
505.71	25261.69
505.91	25151.10
506.12	25611.90
506.32	25609.85
506.53	25548.41
506.73	25501.31
506.94	25720.44
507.14	25833.08
507.35	25499.26
507.55	25859.70
507.76	25990.77
507.96	25638.52
508.17	25935.48
508.37	26003.06
508.58	25818.74
508.78	26328.69
508.99	26492.52
509.19	26297.97
509.40	26400.37
509.60	26343.02
509.81	26357.36
510.01	26484.33
510.22	26345.07
510.42	26685.03
510.63	26629.74
510.83	26848.87
511.04	26889.83
511.24	26689.13
511.44	26701.42
511.65	26725.99
511.85	26674.79
512.06	27121.25
512.26	26922.60
512.47	27309.66
512.67	27178.59
512.88	27242.08
513.08	27039.33
513.29	27405.92
513.49	27203.17
513.69	27428.45
513.90	27414.11
514.10	27883.09
514.31	27475.55
514.51	27934.29
514.72	27655.77
514.92	27866.71
515.13	27768.41
515.33	27917.91
515.53	27842.14
515.74	28046.93
515.94	27854.42
516.15	28157.52
516.35	28544.59
516.56	28261.97
516.76	28180.05
516.96	28466.77
517.17	28513.87
517.37	28472.91
517.58	28294.74
517.78	28751.43
517.99	28628.56
518.19	29130.31
518.39	28601.93
518.60	29220.42
518.80	28966.47
519.01	29421.12
519.21	29122.12
519.41	29019.72
519.62	28925.51
519.82	29468.22
520.03	29615.68
520.23	29472.32
520.43	29423.17
520.64	29781.56
520.84	29797.95
521.05	29623.87
521.25	29843.00
521.45	30051.89
521.66	29906.49
521.86	30139.96
522.07	30029.37
522.27	30453.30
522.47	30197.30
522.68	30582.32
522.88	30674.48
523.08	30844.46
523.29	30514.73
523.49	30942.76
523.70	30594.61
523.90	30854.70
524.10	31057.45
524.31	31397.41
524.51	31098.41
524.71	31376.93
524.92	31274.53
525.12	31213.09
525.33	31290.91
525.53	31690.27
525.73	31659.55
525.94	31569.44
526.14	31989.27
526.34	31870.49
526.55	31976.98
526.75	32052.76
526.95	32304.66
527.16	32355.86
527.36	31952.41
527.56	32566.80
527.77	32509.46
527.97	32749.07
528.17	32607.76
528.38	32896.52
528.58	32804.36
528.78	32882.19
528.99	33246.72
529.19	33535.49
529.39	33142.28
529.60	33478.15
529.80	33476.10
530.00	33289.73
530.21	33584.64
530.41	34000.38
530.61	33521.15
530.82	33981.95
531.02	33631.74
531.22	34100.73
531.43	34090.49
531.63	34305.52
531.83	34420.21
532.04	34569.71
532.24	34133.50
532.44	34895.34
532.64	34946.54
532.85	35145.19
533.05	35538.40
533.25	35196.39
533.46	34817.52
533.66	36079.07
533.86	35554.79
534.07	35839.45
534.27	35614.18
534.47	35751.39
534.67	35767.77
534.88	35589.60
535.08	36183.51
535.28	36136.41
535.49	36320.73
535.69	36677.07
535.89	36255.19
536.09	36433.36
536.30	36705.74
536.50	36615.63
536.70	36810.19
536.91	36812.24
537.11	36953.55
537.31	37375.43
537.51	36937.16
537.72	37699.01
537.92	37430.72
538.12	37578.18
538.32	37221.83
538.53	37850.56
538.73	37590.47
538.93	37680.58
539.13	38225.34
539.34	37758.40
539.54	37766.59
539.74	38321.59
539.94	38020.54
540.15	37995.96
540.35	38530.48
540.55	38307.26
540.75	38673.84
540.96	38204.86
541.16	38974.89
541.36	38815.15
541.56	38915.50
541.77	38800.82
541.97	38952.37
542.17	39142.83
542.37	39181.74
542.58	39232.94
542.78	38856.11
542.98	39247.27
543.18	39339.43
543.38	39685.54
543.59	39789.98
543.79	39597.48
543.99	39376.30
544.19	39869.86
544.40	39523.75
544.60	40236.44
544.80	40086.94
545.00	40045.98
545.20	40283.55
545.41	40002.97
545.61	39953.82
545.81	40459.67
546.01	40736.15
546.21	40588.69
546.42	40115.61
546.62	40965.52
546.82	40381.85
547.02	41219.47
547.22	41045.39
547.43	40967.57
547.63	40803.73
547.83	40986.00
548.03	40875.41
548.23	41008.53
548.44	40918.42
548.64	41457.03
548.84	41264.52
549.04	41190.80
549.24	41592.20
549.45	41506.18
549.65	41285.00
549.85	41405.83
550.05	41434.50
550.25	41518.47
550.45	42501.50
550.66	41710.98
550.86	40963.47
551.06	41915.78
551.26	41907.58
551.46	42079.61
551.66	42122.62
551.87	41973.12
552.07	42464.63
552.27	42241.40
552.47	41981.31
552.67	42007.94
552.87	42405.24
553.07	42460.54
553.28	42485.11
553.48	42302.84
553.68	42337.66
553.88	43201.90
554.08	42423.67
554.28	42786.16
554.48	42399.10
554.69	43079.02
554.89	42782.07
555.09	42612.09
555.29	42485.11
555.49	43046.26
555.69	42818.93
555.89	42634.61
556.10	42685.81
556.30	42753.40
556.50	42902.90
556.70	42974.58
556.90	43431.27
557.10	43206.00
557.30	42825.07
557.50	43261.29
557.70	43349.35
557.91	43578.73
558.11	43517.29
558.31	43736.42
558.51	43308.40
558.71	43492.71
558.91	43654.50
559.11	43345.26
559.31	44006.75
559.51	43453.80
559.72	43525.48
559.92	43967.84
560.12	43394.41
560.32	43677.03
560.52	43445.61
560.72	43750.76
560.92	44055.90
561.12	43930.98
561.32	44012.90
561.52	43775.33
561.72	44479.83
561.93	43720.04
562.13	43849.06
562.33	43660.65
562.53	44229.98
562.73	43623.78
562.93	44006.75
563.13	44172.64
563.33	43824.48
563.53	44307.80
563.73	43816.29
563.93	44281.18
564.13	44250.46
564.33	44107.10
564.53	44479.83
564.74	44221.79
564.94	44256.60
565.14	44393.82
565.34	44191.07
565.54	44334.43
565.74	44528.98
565.94	44877.14
566.14	44557.66
566.34	44721.49
566.54	44967.25
566.74	44737.88
566.94	44696.92
567.14	44885.33
567.34	44637.53
567.54	44770.64
567.74	45030.74
567.94	44776.79
568.14	44985.68
568.34	44715.35
568.54	44969.30
568.74	45016.40
568.94	45043.02
569.14	45057.36
569.34	45063.50
569.54	45147.47
569.75	45043.02
569.95	44942.67
570.15	45423.95
570.35	45172.05
570.55	45489.48
570.75	45512.01
570.95	45200.72
571.15	45409.61
571.35	45442.38
571.55	45401.42
571.75	45675.85
571.95	45704.52
572.15	45546.82
572.35	45550.92
572.55	45622.60
572.75	45593.93
572.95	45288.78
573.15	45649.22
573.35	45546.82
573.55	45815.11
573.75	45743.43
573.95	46040.39
574.15	45784.39
574.35	46126.40
574.55	45847.88
574.75	45925.70
574.95	46097.73
575.15	45860.16
575.34	46380.35
575.54	46325.05
575.74	46533.95
575.94	46394.68
576.14	45800.77
576.34	46150.98
576.54	46390.59
576.74	46515.51
576.94	46744.89
577.14	46765.37
577.34	46818.61
577.54	46658.87
577.74	46722.36
577.94	46746.93
578.14	46349.63
578.34	46990.64
578.54	46327.10
578.74	46773.56
578.94	47168.82
579.14	46863.67
579.34	47013.17
579.54	46904.63
579.74	47240.50
579.94	46914.87
580.13	47420.72
580.33	46998.83
580.53	47543.59
580.73	46937.40
580.93	47633.71
581.13	47242.54
581.33	47416.62
581.53	47406.38
581.73	47863.08
581.93	47957.28
582.13	48153.89
582.33	47744.30
582.53	47572.27
582.73	47863.08
582.92	48018.72
583.12	48114.98
583.32	47621.42
583.52	47871.27
583.72	48330.01
583.92	48258.34
584.12	48452.89
584.32	48692.50
584.52	48022.82
584.72	48516.38
584.92	48669.98
585.11	49034.52
585.31	48377.12
585.51	48743.70
585.71	48399.65
585.91	48944.41
586.11	48360.73
586.31	48825.62
586.51	48710.94
586.71	48917.78
586.91	49001.75
587.10	49030.42
587.30	49200.40
587.50	49020.18
587.70	49020.18
587.90	48997.65
588.10	48893.21
588.30	49374.48
588.50	49382.67
588.69	49411.34
588.89	48758.04
589.09	49673.48
589.29	49722.63
589.49	49851.66
589.69	49478.92
589.89	49747.21
590.08	49300.75
590.28	49763.59
590.48	49556.75
590.68	49673.48
590.88	49495.31
591.08	49693.96
591.28	49159.44
591.47	50001.16
591.67	49833.22
591.87	50029.83
592.07	49919.24
592.27	50222.34
592.47	50001.16
592.67	50246.91
592.86	49669.39
593.06	50537.72
593.26	50533.63
593.46	50541.82
593.66	50185.47
593.86	50191.62
594.05	50447.61
594.25	50840.82
594.45	50537.72
594.65	50799.86
594.85	50742.52
595.05	51012.85
595.24	50875.64
595.44	50627.84
595.64	50877.69
595.84	51119.35
596.04	51123.44
596.23	51068.15
596.43	51283.19
596.63	50873.59
596.83	51334.38
597.03	51780.84
597.22	51934.44
597.42	51340.53
597.62	51477.74
597.82	51647.72
598.02	51586.28
598.21	51858.66
598.41	51442.93
598.61	51793.13
598.81	51610.86
599.01	52245.73
599.20	51825.90
599.40	51827.95
599.60	52176.10
599.80	52176.10
600.00	52126.95
600.19	52557.02
600.39	52352.23
600.59	52606.17
600.79	52958.42
600.98	52466.91
601.18	52737.24
601.38	52352.23
601.58	52757.72
601.78	52733.15
601.97	52810.97
602.17	53292.24
602.37	53107.93
602.57	52827.35
602.76	53378.26
602.96	52903.13
603.16	53093.59
603.36	52927.70
603.55	53714.12
603.75	53218.52
603.95	53621.97
604.15	53353.68
604.34	53736.65
604.54	53789.90
604.74	53753.04
604.94	53779.66
605.13	53605.58
605.33	54152.39
605.53	53630.16
605.73	53951.69
605.92	53736.65
606.12	54389.95
606.32	54396.10
606.52	53679.31
606.71	53818.57
606.91	54355.14
607.11	54162.63
607.30	54418.63
607.50	54670.53
607.70	54756.54
607.90	54500.54
608.09	54674.62
608.29	54346.95
608.49	54850.75
608.68	54848.70
608.88	55020.73
609.08	54838.46
609.28	54863.03
609.47	54478.02
609.67	55465.14
609.87	54963.39
610.06	54748.35
610.26	54850.75
610.46	55538.86
610.66	55266.48
610.85	55493.81
611.05	54838.46
611.25	55274.68
611.44	55225.53
611.64	55391.41
611.84	54762.68
612.03	55366.84
612.23	55305.40
612.43	55227.57
612.62	55127.22
612.82	55377.08
613.02	55194.81
613.21	55622.83
613.41	55370.93
613.61	55493.81
613.80	55090.36
614.00	55620.78
614.20	56079.53
614.39	55549.10
614.59	55862.44
614.79	55817.39
614.98	55696.56
615.18	55901.36
615.38	55780.52
615.57	55370.93
615.77	56169.64
615.97	55551.15
616.16	55856.30
616.36	55848.11
616.56	56181.93
616.75	55956.65
616.95	55751.85
617.15	55665.84
617.34	56407.20
617.54	56210.60
617.74	55884.97
617.93	55952.55
618.13	55606.45
618.32	55841.96
618.52	55647.41
618.72	56028.33
618.91	55844.01
619.11	55477.43
619.31	56124.58
619.50	56005.80
619.70	55555.25
619.90	55940.27
620.09	56384.68
620.29	55903.40
620.48	55997.61
620.68	56585.38
620.88	55573.68
621.07	56300.71
621.27	56081.58
621.46	55862.44
621.66	56337.57
621.86	56300.71
622.05	56005.80
622.25	56499.36
622.44	56179.88
622.64	56157.35
622.84	56575.14
623.03	55880.88
623.23	56442.02
623.42	56038.57
623.62	56116.39
623.82	56597.66
624.01	55721.13
624.21	56425.64
624.40	56110.25
624.60	56224.93
624.80	55915.69
624.99	56315.04
625.19	56016.04
625.38	56046.76
625.58	56493.22
625.77	56212.65
625.97	56300.71
626.17	55514.29
626.36	55934.12
626.56	56134.82
626.75	55415.99
626.95	56644.77
627.14	56216.74
627.34	56317.09
627.54	56071.34
627.73	56399.01
627.93	56057.00
628.12	55567.54
628.32	56077.48
628.51	56435.87
628.71	56272.04
628.90	56480.93
629.10	56136.87
629.30	55887.02
629.49	56016.04
629.69	56423.59
629.88	56097.96
630.08	56790.17
630.27	56374.44
630.47	56192.17
630.66	56054.95
630.86	56677.54
631.05	55827.63
631.25	56738.97
631.44	55989.42
631.64	56218.79
631.84	56675.49
632.03	57130.14
632.23	56210.60
632.42	56925.34
632.62	56493.22
632.81	56050.86
633.01	56521.89
633.20	56681.63
633.40	56317.09
633.59	56786.08
633.79	56145.06
633.98	56544.42
634.18	56501.41
634.37	56911.00
634.57	55999.66
634.76	56970.39
634.96	56837.28
635.15	56773.79
635.35	56300.71
635.54	55989.42
635.74	56972.44
635.93	56353.96
636.13	57177.24
636.32	56601.76
636.52	56648.86
636.71	56593.57
636.91	56292.52
637.10	56593.57
637.30	57021.59
637.49	56345.76
637.69	56771.74
637.88	57326.74
638.08	56497.31
638.27	56900.76
638.46	56738.97
638.66	56521.89
638.85	56274.09
639.05	56472.74
639.24	56792.22
639.44	56644.77
639.63	56609.95
639.83	57212.06
640.02	56679.58
640.22	56751.26
640.41	56997.02
640.61	56386.72
640.80	56857.76
640.99	56872.09
641.19	57437.33
641.38	56820.89
641.58	57021.59
641.77	56573.09
641.97	56847.52
642.16	56925.34
642.36	56761.50
642.55	57005.21
642.74	56231.08
642.94	57410.71
643.13	56951.96
643.33	57547.92
643.52	56911.00
643.72	57001.11
643.91	57152.66
644.10	57080.98
644.30	57169.05
644.49	56890.52
644.69	56857.76
644.88	57373.84
645.08	56706.21
645.27	57144.47
645.46	57406.61
645.66	57050.27
645.85	56890.52
646.05	57216.15
646.24	56874.14
646.43	57316.50
646.63	57332.89
646.82	57703.57
647.02	57564.31
647.21	57513.11
647.40	57152.66
647.60	57490.58
647.79	57357.46
647.99	57207.96
648.18	57156.76
648.37	57672.85
648.57	57668.75
648.76	57324.69
648.96	57226.39
649.15	57066.65
649.34	57732.24
649.54	57840.78
649.73	57091.22
649.92	57502.87
650.12	57523.35
650.31	57625.74
650.51	58147.98
650.70	57660.56
650.89	57398.42
651.09	57920.65
651.28	57259.16
651.47	57326.74
651.67	57724.05
651.86	57891.98
652.06	56943.77
652.25	57394.32
652.44	57189.53
652.64	57343.12
652.83	57363.60
653.02	57461.91
653.22	57535.63
653.41	57177.24
653.60	57326.74
653.80	57398.42
653.99	57449.62
654.18	57918.60
654.38	57382.04
654.57	57275.54
654.76	57425.04
654.96	57349.27
655.15	57068.70
655.34	57095.32
655.54	56804.51
655.73	57601.17
655.92	57500.82
656.12	57283.73
656.31	57586.83
656.50	57293.97
656.70	57320.60
656.89	57588.88
657.08	57584.79
657.28	57212.06
657.47	57287.83
657.66	57359.51
657.86	57472.15
658.05	57560.21
658.24	57801.87
658.43	57334.93
658.63	57496.72
658.82	57431.19
659.01	57664.66
659.21	57402.52
659.40	57586.83
659.59	57429.14
659.79	57425.04
659.98	57877.64
660.17	57418.90
660.36	57320.60
660.56	57371.80
660.75	57674.90
660.94	57277.59
661.14	57390.23
661.33	57552.02
661.52	56937.63
661.71	57726.10
661.91	56880.28
662.10	57263.25
662.29	57822.35
662.49	57431.19
662.68	57330.84
662.87	57552.02
663.06	57611.41
663.26	57379.99
663.45	57638.03
663.64	57474.20
663.83	58078.35
664.03	57226.39
664.22	57324.69
664.41	57138.33
664.60	57203.86
664.80	57351.32
664.99	57506.96
665.18	57220.25
665.37	57523.35
665.57	57320.60
665.76	56874.14
665.95	57607.31
666.14	57369.75
666.34	57158.81
666.53	57490.58
666.72	56894.62
666.91	57447.57
667.11	56464.55
667.30	57013.40
667.49	57050.27
667.68	57052.31
667.87	57160.86
668.07	57087.13
668.26	57115.80
668.45	57060.51
668.64	56540.32
668.84	57621.65
669.03	57181.34
669.22	57326.74
669.41	57152.66
669.60	57044.12
669.80	57037.98
669.99	57568.40
670.18	56781.98
670.37	56620.19
670.57	57635.98
670.76	57107.61
670.95	57525.39
671.14	57357.46
671.33	56448.16
671.53	57656.46
671.72	57269.40
671.91	57097.37
672.10	56794.27
672.29	57357.46
672.48	56657.06
672.68	57423.00
672.87	57162.90
673.06	57169.05
673.25	56896.67
673.44	56964.25
673.64	56861.85
673.83	56874.14
674.02	56681.63
674.21	56427.68
674.40	57384.08
674.59	56814.75
674.79	56550.56
674.98	56239.27
675.17	56671.39
675.36	56472.74
675.55	56448.16
675.74	56165.54
675.94	56575.14
676.13	56454.31
676.32	56976.54
676.51	57310.36
676.70	57142.42
676.89	56980.63
677.08	57083.03
677.28	56452.26
677.47	56726.69
677.66	56667.30
677.85	56788.13
678.04	57111.70
678.23	56824.99
678.42	57037.98
678.62	56302.76
678.81	56980.63
679.00	56538.27
679.19	57119.90
679.38	56587.42
679.57	56439.97
679.76	56183.97
679.96	56597.66
680.15	56464.55
680.34	56499.36
680.53	56411.30
680.72	56427.68
680.91	56802.46
681.10	56495.27
681.29	56677.54
681.48	56493.22
681.68	56235.17
681.87	56343.72
682.06	56278.18
682.25	55831.72
682.44	56358.05
682.63	56491.17
682.82	55995.56
683.01	55866.54
683.20	55944.36
683.39	55821.48
683.59	55680.17
683.78	56132.78
683.97	55778.48
684.16	56161.45
684.35	55663.79
684.54	55919.79
684.73	55805.10
684.92	56091.82
685.11	55696.56
685.30	55887.02
685.49	56140.97
685.69	56202.41
685.88	55805.10
686.07	55778.48
686.26	55684.27
686.45	56259.75
686.64	55606.45
686.83	55934.12
687.02	55489.71
687.21	55766.19
687.40	55962.79
687.59	55841.96
687.78	55313.59
687.97	55735.47
688.16	55553.20
688.35	55178.42
688.54	55659.69
688.74	55604.40
688.93	55305.40
689.12	55401.65
689.31	55315.64
689.50	55454.90
689.69	55241.91
689.88	54983.86
690.07	55481.52
690.26	55383.22
690.45	55600.30
690.64	55424.18
690.83	55479.47
691.02	54795.45
691.21	54973.63
691.40	54844.60
691.59	55450.80
691.78	54971.58
691.97	55444.66
692.16	55170.23
692.35	55508.14
692.54	55401.65
692.73	54983.86
692.92	55305.40
693.11	54893.75
693.30	55098.55
693.49	55241.91
693.68	54777.02
693.87	55108.79
694.06	54250.69
694.25	54766.78
694.44	54621.37
694.63	54815.93
694.82	54752.44
695.01	54903.99
695.20	54924.47
695.39	54729.92
695.58	54383.81
695.77	54940.86
695.96	54262.98
696.15	54858.94
696.34	54416.58
696.53	55045.30
696.72	54721.72
696.91	54693.05
697.10	54883.51
697.29	54285.51
697.48	54629.57
697.67	54531.26
697.86	54482.11
698.05	54320.32
698.24	54783.16
698.43	54152.39
698.62	54531.26
698.81	54072.52
699.00	54944.95
699.19	54066.38
699.38	54398.15
699.57	54056.14
699.76	54703.29
699.95	54179.01
700.14	53839.05
700.32	53972.17
700.51	53859.53
700.70	54416.58
700.89	54439.11
701.08	54277.32
701.27	54056.14
701.46	54416.58
701.65	53540.05
701.84	53966.02
702.03	54000.84
702.22	53617.87
702.41	53501.14
702.60	53597.39
702.79	53910.73
702.98	53869.77
703.17	53576.91
703.35	53796.04
703.54	53386.45
703.73	53843.15
703.92	53384.40
704.11	53630.16
704.30	53406.93
704.49	53161.17
704.68	53433.55
704.87	53476.56
705.06	53499.09
705.25	53279.96
705.43	53144.79
705.62	53179.60
705.81	53478.61
706.00	53578.96
706.19	52704.48
706.38	52827.35
706.57	53634.25
706.76	53097.69
706.95	53195.99
707.14	53056.73
707.32	52974.81
707.51	53099.73
707.70	52997.34
707.89	53345.49
708.08	52939.99
708.27	53396.69
708.46	53081.30
708.65	52983.00
708.84	53183.70
709.02	53017.82
709.21	53081.30
709.40	52655.32
709.59	52901.08
709.78	52495.58
709.97	53384.40
710.16	52853.98
710.34	52438.24
710.53	52782.30
710.72	52806.87
710.91	52688.09
711.10	52761.82
711.29	52806.87
711.48	53011.67
711.66	52638.94
711.85	52681.95
712.04	52751.58
712.23	52849.88
712.42	52507.87
712.61	52761.82
712.80	52694.24
712.98	52692.19
713.17	52217.06
713.36	52649.18
713.55	52292.83
713.74	52669.66
713.93	52534.49
714.11	52262.11
714.30	52368.61
714.49	51983.59
714.68	52200.68
714.87	51971.30
715.06	52466.91
715.24	51963.11
715.43	52133.09
715.62	51729.64
715.81	51954.92
716.00	52085.99
716.18	51713.26
716.37	51494.13
716.56	51414.26
716.75	52038.89
716.94	51961.06
717.12	51606.76
717.31	51946.73
717.50	51766.51
717.69	51516.65
717.88	51789.03
718.06	51860.71
718.25	51604.72
718.44	50975.99
718.63	51381.49
718.82	51219.70
719.00	51543.28
719.19	51340.53
719.38	51287.28
719.57	50754.81
719.76	50265.34
719.94	50328.83
720.13	51141.88
720.32	51250.42
720.51	50861.30
720.69	50758.91
720.88	50955.51
721.07	50873.59
721.26	50404.61
721.44	50271.49
721.63	50904.31
721.82	50382.08
722.01	50427.13
722.20	50531.58
722.38	50234.63
722.57	50199.81
722.76	50783.48
722.95	50398.46
723.13	49847.56
723.32	49954.05
723.51	50081.03
723.70	49909.00
723.88	49960.20
724.07	50083.08
724.26	50164.99
724.44	49546.51
724.63	49935.62
724.82	50173.19
725.01	49730.83
725.19	49884.42
725.38	49362.19
725.57	49943.81
725.76	50103.56
725.94	49747.21
726.13	49739.02
726.32	49419.53
726.51	49313.04
726.69	49915.14
726.88	49614.09
727.07	49757.45
727.25	49366.29
727.44	49548.56
727.63	49257.74
727.82	49526.03
728.00	49470.73
728.19	49448.21
728.38	49909.00
728.56	49237.26
728.75	49763.59
728.94	49138.96
729.12	49489.16
729.31	49650.95
729.50	49485.07
729.69	49628.43
729.87	49304.85
730.06	49544.46
730.25	49356.05
730.43	49437.97
730.62	49227.02
730.81	49532.17
730.99	49650.95
731.18	49579.28
731.37	49440.01
731.55	49909.00
731.74	49749.26
731.93	49401.10
732.11	49450.25
732.30	49177.87
732.49	49063.19
732.67	49589.52
732.86	49571.08
733.05	49437.97
733.23	49235.22
733.42	49333.52
733.61	49474.83
733.79	49294.61
733.98	49632.52
734.17	49616.14
734.35	49065.24
734.54	49837.32
734.73	49751.30
734.91	49374.48
735.10	49265.94
735.29	49507.60
735.47	48747.80
735.66	49206.55
735.84	48676.12
736.03	49009.94
736.22	49831.18
736.40	49175.83
736.59	48928.02
736.78	49452.30
736.96	48923.93
737.15	49083.67
737.33	49190.16
737.52	49083.67
737.71	48903.45
737.89	49050.90
738.08	48594.20
738.27	48436.51
738.45	49345.81
738.64	48966.93
738.82	49227.02
739.01	48477.47
739.20	48882.97
739.38	48956.69
739.57	49284.37
739.75	48784.66
739.94	48751.90
740.13	48923.93
740.31	48731.42
740.50	49102.10
740.68	48985.36
740.87	48796.95
741.06	49032.47
741.24	48626.97
741.43	48370.97
741.61	48581.91
741.80	48463.13
741.99	48526.62
742.17	48250.14
742.36	48381.21
742.54	48137.51
742.73	48125.22
742.91	48641.31
743.10	47881.51
743.29	48696.60
743.47	48209.18
743.66	48227.62
743.84	48307.49
744.03	48244.00
744.21	48182.56
744.40	48461.08
744.59	48080.16
744.77	47633.71
744.96	48370.97
745.14	48037.16
745.33	48436.51
745.51	48149.79
745.70	48028.96
745.88	48022.82
746.07	48041.25
746.26	47600.94
746.44	47523.11
746.63	47873.32
746.81	47877.41
747.00	47394.09
747.18	47701.29
747.37	47924.52
747.55	47875.37
747.74	48282.91
747.92	47430.96
748.11	47539.50
748.29	47578.41
748.48	47715.62
748.66	47422.76
748.85	47580.46
749.03	47486.25
749.22	47308.08
749.41	47516.97
749.59	47699.24
749.78	47211.82
749.96	46925.11
750.15	47033.65
750.33	47486.25
750.52	46927.16
750.70	46972.21
750.89	46798.13
751.07	47070.51
751.26	46832.95
751.44	47146.29
751.63	46679.35
751.81	46871.86
752.00	46998.83
752.18	46949.68
752.37	46720.31
752.55	46445.88
752.74	46585.15
752.92	46992.69
753.10	46646.58
753.29	46613.82
753.47	46366.01
753.66	46007.62
753.84	46415.16
754.03	46439.74
754.21	46163.26
754.40	46261.57
754.58	46275.90
754.77	46257.47
754.95	46193.98
755.14	46134.59
755.32	46269.76
755.51	46206.27
755.69	45845.83
755.88	45954.37
756.06	46646.58
756.24	46064.96
756.43	46034.24
756.61	45765.96
756.80	45937.99
756.98	45395.28
757.17	45444.43
757.35	46032.19
757.54	45929.80
757.72	46044.48
757.90	45684.04
758.09	45374.80
758.27	45782.34
758.46	45606.22
758.64	45634.89
758.83	45661.51
759.01	45512.01
759.19	45456.71
759.38	45563.21
759.56	45681.99
759.75	45552.97
759.93	45542.73
760.12	44924.24
760.30	45282.64
760.48	45299.02
760.67	45479.24
760.85	44936.53
761.04	45333.84
761.22	45270.35
761.40	45278.54
761.59	45266.25
761.77	44768.60
761.96	44871.00
762.14	44676.44
762.32	44635.48
762.51	44762.45
762.69	44666.20
762.88	44967.25
763.06	44725.59
763.24	44967.25
763.43	44815.70
763.61	44402.01
763.80	44756.31
763.98	44469.59
764.16	44680.53
764.35	43838.82
764.53	43734.37
764.72	44090.72
764.90	44361.05
765.08	44168.54
765.27	43939.17
765.45	43730.28
765.63	43730.28
765.82	43971.94
766.00	44074.34
766.18	43896.16
766.37	44295.52
766.55	43771.24
766.74	43568.49
766.92	43924.83
767.10	43627.88
767.29	43681.13
767.47	43128.17
767.65	43425.13
767.84	43591.01
768.02	43390.31
768.20	43275.63
768.39	43537.77
768.57	43275.63
768.75	43113.84
768.94	43074.93
769.12	43406.70
769.30	43259.24
769.49	43296.11
769.67	42829.17
769.85	42829.17
770.04	42466.68
770.22	42339.71
770.40	42601.85
770.59	42730.87
770.77	43013.49
770.95	42603.89
771.14	42364.28
771.32	42192.25
771.50	42128.77
771.69	42202.49
771.87	42552.69
772.05	42286.46
772.24	42149.24
772.42	42030.46
772.60	42007.94
772.78	41897.34
772.97	41715.08
773.15	42220.92
773.33	41923.97
773.52	41772.42
773.70	42212.73
773.88	41903.49
774.07	41735.56
774.25	42081.66
774.43	41956.74
774.61	41719.17
774.80	41837.95
774.98	41729.41
775.16	41891.20
775.34	41541.00
775.53	42233.21
775.71	42323.32
775.89	42098.05
776.08	41840.00
776.26	42048.89
776.44	42356.09
776.62	41723.27
776.81	41788.80
776.99	42012.03
777.17	42007.94
777.35	42055.04
777.54	42384.76
777.72	41850.24
777.90	41946.50
778.08	42327.42
778.27	41885.06
778.45	42020.22
778.63	42341.75
778.81	41981.31
779.00	42698.10
779.18	42427.77
779.36	42153.34
779.54	42132.86
779.73	42102.14
779.91	42235.26
780.09	42360.19
780.27	42521.98
780.46	42276.22
780.64	42456.44
780.82	42036.61
781.00	42659.19
781.19	42460.54
781.37	42880.37
781.55	42677.62
781.73	42962.29
781.91	42704.24
782.10	42655.09
782.28	42763.64
782.46	42521.98
782.64	42591.61
782.82	42374.52
783.01	42898.80
783.19	43046.26
783.37	42890.61
783.55	42739.06
783.74	42732.92
783.92	42833.27
784.10	43193.71
784.28	42696.05
784.46	42683.76
784.64	42823.03
784.83	42642.81
785.01	42988.91
785.19	42476.92
785.37	42984.82
785.55	42939.76
785.74	42294.65
785.92	42231.16
786.10	42276.22
786.28	42526.07
786.46	42440.06
786.64	42257.79
786.83	42030.46
787.01	42349.95
787.19	42534.26
787.37	42308.99
787.55	42089.85
787.74	42052.99
787.92	42087.81
788.10	41926.02
788.28	41872.77
788.46	42005.89
788.64	41651.59
788.82	42644.85
789.01	41880.96
789.19	41571.72
789.37	41819.52
789.55	41772.42
789.73	41420.17
789.91	41346.44
790.09	41817.47
790.28	41072.01
790.46	40973.71
790.64	41459.08
790.82	40967.57
791.00	40752.53
791.18	41285.00
791.36	41110.92
791.55	41100.68
791.73	40697.24
791.91	40713.62
792.09	40801.68
792.27	40758.67
792.45	40494.49
792.63	40238.49
792.81	40256.92
793.00	40330.65
793.18	40091.04
793.36	40025.50
793.54	40146.33
793.72	39857.57
793.90	40009.12
794.08	39697.83
794.26	40095.13
794.44	39359.91
794.62	39095.72
794.81	39638.44
794.99	39306.66
795.17	39148.97
795.35	39472.55
795.53	39570.85
795.71	39804.32
795.89	38895.02
796.07	38716.85
796.25	39105.96
796.43	38630.83
796.61	38616.50
796.80	38276.54
796.98	38786.48
797.16	38495.67
797.34	38354.36
797.52	38411.70
797.70	38581.68
797.88	38452.66
798.06	38065.60
798.24	37985.72
798.42	37819.84
798.60	37268.94
798.78	37565.89
798.96	37762.50
799.14	37443.01
799.32	37625.28
799.51	37027.28
799.69	37049.80
799.87	37410.25
800.05	36902.35
800.23	37064.14
800.41	36806.09
800.59	37010.89
800.77	36529.62
800.95	36324.82
801.13	36705.74
801.31	36591.06
801.49	36492.76
801.67	36136.41
801.85	36226.52
802.03	35902.94
802.21	36146.65
802.39	36136.41
802.57	35876.32
802.75	35911.13
802.93	35816.93
803.11	35605.98
803.29	35702.24
803.47	35110.38
803.65	35620.32
803.83	35378.66
804.01	35251.69
804.19	34962.92
804.37	35028.46
804.55	34805.23
804.73	34924.01
804.91	35231.21
805.09	35077.61
805.27	34981.35
805.45	34948.59
805.63	34749.93
805.81	34928.11
805.99	34876.91
806.17	34657.78
806.35	34522.61
806.53	34119.16
806.71	34196.98
806.89	34043.38
807.07	34061.82
807.25	33977.85
807.43	34137.59
807.61	34225.65
807.79	33979.90
807.97	33691.13
808.15	33662.46
808.33	33396.23
808.51	33383.94
808.69	33052.17
808.87	33359.36
809.05	33295.88
809.23	33121.80
809.41	32949.77
809.59	32650.77
809.77	33265.16
809.95	32767.50
810.13	33019.40
810.31	32546.32
810.49	33023.50
810.67	32716.30
810.84	33027.59
811.02	32628.24
811.20	32351.76
811.38	32103.96
811.56	32249.36
811.74	32292.37
811.92	32095.77
812.10	32073.24
812.28	31964.70
812.46	32011.80
812.64	31991.32
812.82	31764.00
813.00	31720.99
813.18	31841.82
813.36	31905.31
813.53	31608.35
813.71	31983.13
813.89	31852.06
814.07	31516.19
814.25	31571.49
814.43	31528.48
814.61	31284.77
814.79	31344.16
814.97	31391.26
815.15	31471.14
815.33	30735.92
815.50	30727.72
815.68	31047.21
815.86	31217.19
816.04	30815.79
816.22	30658.09
816.40	30457.39
816.58	30844.46
816.76	30633.52
816.94	30443.06
817.11	30709.29
817.29	30326.32
817.47	30105.14
817.65	30221.87
817.83	30260.79
818.01	30357.04
818.19	30066.23
818.37	30277.17
818.54	29865.53
818.72	30019.13
818.90	29939.26
819.08	29683.26
819.26	29931.06
819.44	29673.02
819.62	29683.26
819.80	29654.59
819.97	29648.44
820.15	29734.46
820.33	29052.48
820.51	29707.83
820.69	29197.89
820.87	29478.46
821.05	29587.00
821.22	29263.43
821.40	29152.84
821.58	29191.75
821.76	29277.76
821.94	29244.99
822.12	29138.50
822.29	28968.52
822.47	28941.89
822.65	29240.90
822.83	28718.67
823.01	28747.34
823.19	28733.00
823.36	28646.99
823.54	28485.20
823.72	28448.33
823.90	28603.98
824.08	28429.90
824.25	28309.07
824.43	28085.84
824.61	28204.63
824.79	28296.78
824.97	27944.53
825.15	28339.79
825.32	28134.99
825.50	27973.21
825.68	28087.89
825.86	28079.70
826.04	28112.47
826.21	28233.30
826.39	27936.34
826.57	28055.12
826.75	27698.78
826.93	27680.35
827.10	27446.88
827.28	27766.36
827.46	27833.94
827.64	27612.76
827.81	27598.43
827.99	27788.89
828.17	27510.36
828.35	27491.93
828.53	27295.33
828.70	27438.69
828.88	27575.90
829.06	27274.85
829.24	27461.21
829.41	27399.77
829.59	27440.73
829.77	27375.20
829.95	27047.52
830.12	27166.31
830.30	27207.26
830.48	27326.05
830.66	27047.52
830.84	27080.29
831.01	26846.82
831.19	26908.26
831.37	26910.31
831.55	26812.01
831.72	26689.13
831.90	26900.07
832.08	26625.64
832.25	26711.66
832.43	26787.43
832.61	26400.37
832.79	26420.84
832.96	26449.52
833.14	26347.12
833.32	26496.62
833.50	26723.94
833.67	26302.06
833.85	26330.73
834.03	26121.84
834.20	26277.49
834.38	26316.40
834.56	26594.92
834.74	25962.10
834.91	26207.86
835.09	26324.59
835.27	25912.95
835.44	26138.23
835.62	25595.51
835.80	25783.93
835.98	25831.03
836.15	25937.52
836.33	25673.34
836.51	25654.90
836.68	25613.95
836.86	25671.29
837.04	25931.38
837.21	25751.16
837.39	26039.92
837.57	25622.14
837.75	25732.73
837.92	25271.93
838.10	25519.74
838.28	25134.72
838.45	25499.26
838.63	25163.39
838.81	25368.19
838.98	25009.79
839.16	25222.78
839.34	25261.69
839.51	25323.13
839.69	24929.92
839.87	24925.83
840.04	25138.82
840.22	25255.55
840.40	24966.79
840.57	24860.29
840.75	24592.01
840.93	24768.13
841.10	25151.10
841.28	25308.80
841.46	24714.89
841.63	24606.34
841.81	24671.88
841.98	24508.04
842.16	24927.88
842.34	24637.06
842.51	24628.87
842.69	24733.32
842.87	24514.19
843.04	24516.23
843.22	24274.57
843.40	24172.18
843.57	24444.56
843.75	24499.85
843.92	24290.96
844.10	24381.07
844.28	24342.16
844.45	24579.72
844.63	24157.84
844.81	24319.63
844.98	24628.87
845.16	23953.04
845.33	23994.00
845.51	24178.32
845.69	24008.34
845.86	23994.00
846.04	23785.11
846.21	24108.69
846.39	23754.39
846.57	23703.19
846.74	23834.26
846.92	24037.01
847.09	23664.28
847.27	23332.51
847.45	23692.95
847.62	23807.64
847.80	23955.09
847.97	23805.59
848.15	23568.02
848.32	23510.68
848.50	23543.45
848.68	23592.60
848.85	23465.63
849.03	22869.67
849.20	23260.83
849.38	23565.98
849.56	23516.83
849.73	23230.11
849.91	23332.51
850.08	23494.30
850.26	23299.74
850.43	23416.47
850.61	23207.58
850.78	23115.42
850.96	23070.37
851.14	23068.32
851.31	23365.28
851.49	22929.06
851.66	23211.68
851.84	22853.28
852.01	22927.01
852.19	23033.50
852.36	22617.77
852.54	22754.98
852.71	22916.77
852.89	22613.67
853.07	22789.80
853.24	22849.19
853.42	22898.34
853.59	22867.62
853.77	22789.80
853.94	22959.78
854.12	22857.38
854.29	22593.19
854.47	22552.23
854.64	22474.41
854.82	22312.62
854.99	22412.97
855.17	22394.54
855.34	22488.74
855.52	22523.56
855.69	22621.86
855.87	22216.36
856.04	22281.90
856.22	22431.40
856.39	22163.12
856.57	22046.38
856.74	22255.28
856.92	22326.96
857.09	22068.91
857.27	22154.93
857.44	22343.34
857.62	22204.08
857.79	21995.18
857.97	22263.47
858.14	22185.65
858.32	21722.80
858.49	22030.00
858.67	21839.54
858.84	21790.39
859.02	21712.56
859.19	21538.49
859.37	21595.83
859.54	21520.06
859.72	21976.75
859.89	21993.14
860.06	21917.36
860.24	21808.82
860.41	21718.71
860.59	21628.60
860.76	21745.33
860.94	21462.71
861.11	21604.02
861.29	21403.32
861.46	21604.02
861.64	21450.42
861.81	21403.32
861.98	21448.38
862.16	21440.18
862.33	21190.33
862.51	21079.74
862.68	21307.07
862.86	21120.70
863.03	21403.32
863.21	21343.93
863.38	20930.24
863.55	20770.50
863.73	21141.18
863.90	20944.58
864.08	20983.49
864.25	20973.25
864.43	20940.48
864.60	20729.54
864.77	20709.06
864.95	20866.75
865.12	20717.25
865.30	20725.44
865.47	20618.95
865.64	20764.36
865.82	20580.04
865.99	20817.60
866.17	20674.24
866.34	20594.37
866.51	20426.44
866.69	20463.30
866.86	20545.22
867.04	20715.20
867.21	20553.41
867.38	20633.29
867.56	20451.02
867.73	20268.75
867.91	20356.81
868.08	19975.89
868.25	20182.73
868.43	20098.77
868.60	20039.37
868.78	19965.65
868.95	20227.79
869.12	20192.97
869.30	19906.26
869.47	20401.86
869.64	19662.55
869.82	19988.18
869.99	19996.37
870.16	20002.51
870.34	19838.67
870.51	19867.34
870.69	19896.02
870.86	19902.16
871.03	19961.55
871.21	19562.20
871.38	20061.90
871.55	19680.98
871.73	19807.95
871.90	19578.58
872.07	19394.26
872.25	19451.61
872.42	19482.33
872.59	19289.82
872.77	19295.96
872.94	19539.67
873.11	19492.57
873.29	19525.33
873.46	19367.64
873.63	19390.17
873.81	19369.69
873.98	19238.62
874.15	19154.65
874.33	19046.11
874.50	18894.56
874.67	19046.11
874.85	19103.45
875.02	18937.57
875.19	18616.04
875.37	18779.87
875.54	18812.64
875.71	18489.06
875.88	18405.10
876.06	18919.14
876.23	18657.00
876.40	18517.73
876.58	18429.67
876.75	18595.56
876.92	18521.83
877.10	18616.04
877.27	18482.92
877.44	18536.17
877.61	18382.57
877.79	18185.96
877.96	18247.40
878.13	18333.42
878.31	18118.38
878.48	17700.59
878.65	18046.70
878.82	17870.58
879.00	18376.42
879.17	18069.23
879.34	18001.65
879.51	17960.69
879.69	18228.97
879.86	18034.41
880.03	18058.99
880.21	17716.98
880.38	17966.83
880.55	17979.12
880.72	17932.01
880.90	17798.90
881.07	17405.69
881.24	17600.24
881.41	17723.12
881.59	17839.86
881.76	17497.84
881.93	17485.56
882.10	17653.49
882.28	17524.47
882.45	17583.86
882.62	17553.14
882.79	17477.37
882.96	17121.02
883.14	17293.05
883.31	17483.51
883.48	17370.87
883.65	17389.30
883.83	17204.99
884.00	17301.24
884.17	17178.36
884.34	17428.21
884.51	17557.24
884.69	17141.50
884.86	16961.28
885.03	17069.82
885.20	17184.51
885.38	16822.02
885.55	16797.44
885.72	17280.76
885.89	16938.75
886.06	17028.86
886.24	17252.09
886.41	16807.68
886.58	17037.05
886.75	17194.75
886.92	16828.16
887.10	17018.62
887.27	16934.65
887.44	16922.37
887.61	16899.84
887.78	16721.66
887.95	17028.86
888.13	17073.92
888.30	16795.39
888.47	16795.39
888.64	16834.30
888.81	16576.26
888.99	16568.07
889.16	16606.98
889.33	16504.58
889.50	16582.40
889.67	16555.78
889.84	16590.59
890.01	16434.95
890.19	16461.57
890.36	16414.47
890.53	16402.18
890.70	16127.75
890.87	16475.91
891.04	16238.34
891.22	16285.45
891.39	16209.67
891.56	16232.20
891.73	16092.94
891.90	16170.76
892.07	16287.50
892.24	16011.02
892.42	16103.18
892.59	15910.67
892.76	15882.00
892.93	16013.07
893.10	16047.88
893.27	15843.09
893.44	15929.10
893.61	16017.16
893.79	16004.88
893.96	15998.73
894.13	15941.39
894.30	15894.29
894.47	15892.24
894.64	15871.76
894.81	15736.59
894.98	15838.99
895.15	15902.48
895.33	15742.74
895.50	15873.81
895.67	15832.85
895.84	15814.41
896.01	15773.46
896.18	15486.74
896.35	15877.90
896.52	15673.10
896.69	15656.72
896.86	16099.08
897.04	15820.56
897.21	15777.55
897.38	15658.77
897.55	15709.97
897.72	15834.89
897.89	15632.15
898.06	15705.87
898.23	15824.65
898.40	15810.32
898.57	15691.54
898.74	15630.10
898.91	15767.31
899.08	15658.77
899.26	15742.74
899.43	15828.75
899.60	15599.38
899.77	15607.57
899.94	15726.35
900.11	15593.23
900.28	15630.10
900.45	15525.65
900.62	15486.74
900.79	15677.20
900.96	15548.18
901.13	15499.03
901.30	15552.27
901.47	15515.41
901.64	15636.24
901.81	15820.56
901.98	15531.80
902.15	15562.51
902.32	15531.80
902.49	15632.15
902.66	15675.15
902.83	15542.03
903.01	15499.03
903.18	15367.96
903.35	15224.60
903.52	15296.28
903.69	15689.49
903.86	15785.74
904.03	15759.12
904.20	15859.47
904.37	15879.95
904.54	15486.74
904.71	15709.97
904.88	15318.81
905.05	15396.63
905.22	15421.20
905.39	15556.37
905.56	15521.56
905.73	15425.30
905.90	15707.92
906.07	15453.97
906.24	15542.03
906.41	15470.36
906.58	15689.49
906.75	15712.02
906.92	15443.73
907.09	15400.72
907.26	15423.25
907.43	15386.39
907.60	15294.23
907.77	15523.60
907.93	15746.83
908.10	15400.72
908.27	15558.42
908.44	15234.84
908.61	15550.23
908.78	15367.96
908.95	15597.33
909.12	15449.88
909.29	15484.69
909.46	15488.79
909.63	15589.14
909.80	15505.17
909.97	15365.91
910.14	15429.40
910.31	15415.06
910.48	15484.69
910.65	15189.78
910.82	15101.72
910.99	15159.06
911.16	15302.42
911.33	15214.36
911.50	15296.28
911.66	15132.44
911.83	15128.35
912.00	15277.85
912.17	15023.90
912.34	15171.35
912.51	15054.62
912.68	15136.54
912.85	15163.16
913.02	15134.49
913.19	14804.77
913.36	14980.89
913.53	15222.55
913.70	14896.92
913.86	15159.06
914.03	14894.88
914.20	14819.10
914.37	14788.38
914.54	14862.11
914.71	14880.54
914.88	14800.67
915.05	14751.52
915.22	14487.33
915.39	14679.84
915.55	14878.49
915.72	14501.67
915.89	14522.15
916.06	14454.56
916.23	14339.88
916.40	14292.77
916.57	14399.27
916.74	14403.36
916.91	14270.25
917.07	14260.01
917.24	14118.70
917.41	14044.97
917.58	14063.40
917.75	13954.86
917.92	13969.19
918.09	14108.46
918.26	13905.71
918.42	14176.04
918.59	14159.66
918.76	13973.29
918.93	13606.70
919.10	13817.65
919.27	13764.40
919.44	13938.48
919.60	13891.37
919.77	13811.50
919.94	13600.56
920.11	13791.02
920.28	13651.76
920.45	13633.33
920.61	13535.03
920.78	13459.25
920.95	13483.83
921.12	13395.76
921.29	13301.56
921.46	13211.45
921.62	13025.08
921.79	13193.01
921.96	13109.05
922.13	13213.49
922.30	12953.40
922.47	13113.14
922.63	12914.49
922.80	13168.44
922.97	12949.31
923.14	12775.23
923.31	12939.07
923.47	12672.83
923.64	12955.45
923.81	12875.58
923.98	12681.02
924.15	12678.97
924.32	12543.81
924.48	12549.95
924.65	12519.23
924.82	12484.42
924.99	12365.64
925.15	12422.98
925.32	12306.24
925.49	12115.78
925.66	12107.59
925.83	12042.06
925.99	11943.75
926.16	11999.05
926.33	12121.93
926.50	11892.55
926.67	11904.84
926.83	11722.57
927.00	11734.86
927.17	11614.03
927.34	11521.87
927.50	11798.35
927.67	11523.92
927.84	11648.85
928.01	11482.96
928.17	11437.91
928.34	11296.60
928.51	11380.56
928.68	11339.60
928.84	11259.73
929.01	11200.34
929.18	11085.65
929.35	11118.42
929.51	11257.68
929.68	11110.23
929.85	11190.10
930.02	11003.74
930.18	10841.95
930.35	11059.03
930.52	10706.78
930.69	10780.51
930.85	10727.26
931.02	10688.35
931.19	10592.09
931.36	10653.53
931.52	10592.09
931.69	10477.41
931.86	10346.34
932.02	10370.91
932.19	10368.87
932.36	10284.90
932.53	10350.43
932.69	10258.28
932.86	10243.94
933.03	10207.08
933.19	10088.29
933.36	10063.72
933.53	10202.98
933.70	9965.42
933.86	9891.69
934.03	9856.87
934.20	9826.15
934.36	9885.55
934.53	9559.92
934.70	9539.44
934.86	9676.65
935.03	9453.42
935.20	9289.59
935.36	9318.26
935.53	9009.01
935.70	9338.74
935.86	9205.62
936.03	8793.98
936.20	8949.62
936.36	8972.15
936.53	8910.71
936.70	8640.38
936.86	8953.72
937.03	8787.83
937.20	8415.10
937.36	8480.64
937.53	8220.55
937.70	8318.85
937.86	8116.10
938.03	8142.72
938.20	8298.37
938.36	7868.30
938.53	7960.45
938.70	7769.99
938.86	7737.23
939.03	7669.64
939.20	7655.31
939.36	7581.58
939.53	7536.52
939.70	7579.53
939.86	7049.11
940.03	7223.19
940.19	7006.10
940.36	7180.18
940.53	6950.81
940.69	6817.69
940.86	6834.07
941.03	6678.43
941.19	6614.94
941.36	6551.45
941.52	6594.46
941.69	6367.13
941.86	6266.78
942.02	6381.47
942.19	6258.59
942.35	6442.91
942.52	6180.77
942.69	6113.19
942.85	6148.00
943.02	6150.05
943.18	6102.95
943.35	5791.66
943.52	5965.73
943.68	5916.58
943.85	5996.45
944.01	5869.48
944.18	5638.06
944.35	5701.54
944.51	5638.06
944.68	5574.57
944.84	5670.83
945.01	5558.19
945.17	5601.19
945.34	5590.95
945.51	5674.92
945.67	5478.32
945.84	5562.28
946.00	5398.45
946.17	5496.75
946.33	5500.84
946.50	5504.94
946.67	5529.52
946.83	5545.90
947.00	5525.42
947.16	5412.78
947.33	5461.93
947.49	5474.22
947.66	5398.45
947.82	5431.21
947.99	5310.38
948.16	5482.41
948.32	5449.64
948.49	5463.98
948.65	5349.29
948.82	5390.25
948.98	5367.73
949.15	5320.62
949.31	5500.84
949.48	5396.40
949.64	5400.49
949.81	5355.44
949.97	5382.06
950.14	5506.99
950.30	5443.50
950.47	5558.19
950.63	5373.87
950.80	5355.44
950.96	5400.49
951.13	5384.11
951.30	5498.80
951.46	5533.61
951.63	5648.30
951.79	5492.65
951.96	5476.27
952.12	5511.08
952.29	5500.84
952.45	5408.69
952.62	5547.95
952.78	5529.52
952.94	5525.42
953.11	5568.43
953.27	5289.90
953.44	5658.54
953.60	5564.33
953.77	5662.63
953.93	5445.55
954.10	5558.19
954.26	5527.47
954.43	5646.25
954.59	5697.45
954.76	5664.68
954.92	5640.11
955.09	5642.15
955.25	5531.56
955.42	5658.54
955.58	5681.07
955.75	5517.23
955.91	5550.00
956.07	5703.59
956.24	5566.38
956.40	5552.04
956.57	5713.83
956.73	5525.42
956.90	5486.51
957.06	5656.49
957.23	5468.08
957.39	5658.54
957.56	5466.03
957.72	5556.14
957.88	5521.32
958.05	5719.98
958.21	5588.91
958.38	5787.56
958.54	5623.72
958.71	5711.78
958.87	5586.86
959.03	5646.25
959.20	5640.11
959.36	5455.79
959.53	5662.63
959.69	5611.43
959.85	5746.60
960.02	5533.61
960.18	5547.95
960.35	5547.95
960.51	5625.77
960.68	5529.52
960.84	5509.04
961.00	5504.94
961.17	5511.08
961.33	5615.53
961.50	5574.57
961.66	5638.06
961.82	5607.34
961.99	5746.60
962.15	5582.76
962.31	5564.33
962.48	5492.65
962.64	5623.72
962.81	5523.37
962.97	5584.81
963.13	5572.52
963.30	5494.70
963.46	5517.23
963.62	5535.66
963.79	5490.60
963.95	5703.59
964.12	5369.77
964.28	5613.48
964.44	5380.01
964.61	5429.17
964.77	5506.99
964.93	5498.80
965.10	5570.48
965.26	5509.04
965.42	5363.63
965.59	5279.66
965.75	5334.96
965.92	5521.32
966.08	5429.17
966.24	5423.02
966.41	5320.62
966.57	5433.26
966.73	5447.60
966.90	5351.34
967.06	5451.69
967.22	5478.32
967.39	5226.42
967.55	5271.47
967.71	5312.43
967.88	5273.52
968.04	5195.70
968.20	5283.76
968.37	5334.96
968.53	5316.53
968.69	5328.81
968.85	5328.81
969.02	5334.96
969.18	5453.74
969.34	5240.75
969.51	5134.26
969.67	5318.57
969.83	5068.72
970.00	5193.65
970.16	5429.17
970.32	5238.70
970.48	5310.38
970.65	5197.74
970.81	5009.33
970.97	5101.49
971.14	5017.52
971.30	5291.95
971.46	5050.29
971.63	5113.78
971.79	5240.75
971.95	5085.11
972.11	5062.58
972.28	5089.20
972.44	5046.20
972.60	4960.18
972.76	5207.98
972.93	4958.13
973.09	5154.74
973.25	4906.93
973.42	4995.00
973.58	5011.38
973.74	5099.44
973.90	4978.61
974.07	4919.22
974.23	4913.08
974.39	4947.89
974.55	4964.28
974.72	5017.52
974.88	4847.54
975.04	4923.32
975.20	4868.02
975.37	5031.86
975.53	4857.78
975.69	4726.71
975.85	4845.49
976.01	4714.42
976.18	4804.53
976.34	4835.25
976.50	4798.39
976.66	4820.92
976.83	4792.25
976.99	4845.49
977.15	4655.03
977.31	4683.70
977.47	4863.93
977.64	4622.27
977.80	4560.83
977.96	4681.66
978.12	4732.86
978.29	4642.75
978.45	4632.51
978.61	4669.37
978.77	4757.43
978.93	4585.40
979.10	4796.34
979.26	4603.83
979.42	4648.89
979.58	4435.90
979.74	4573.11
979.91	4622.27
980.07	4644.79
980.23	4517.82
980.39	4464.57
980.55	4491.20
980.71	4462.52
980.88	4399.04
981.04	4323.26
981.20	4515.77
981.36	4515.77
981.52	4394.94
981.68	4513.72
981.85	4399.04
982.01	4425.66
982.17	4349.89
982.33	4503.48
982.49	4526.01
982.65	4376.51
982.82	4444.09
982.98	4366.27
983.14	4227.01
983.30	4382.65
983.46	4501.44
983.62	4306.88
983.79	4243.39
983.95	4280.25
984.11	4151.23
984.27	4286.40
984.43	4263.87
984.59	4300.73
984.75	4374.46
984.91	4179.90
985.08	4198.34
985.24	4136.90
985.40	4169.66
985.56	4218.82
985.72	4169.66
985.88	4294.59
986.04	4210.62
986.20	4034.50
986.37	4237.25
986.53	4157.38
986.69	4130.75
986.85	4005.83
987.01	4106.18
987.17	4214.72
987.33	4003.78
987.49	3960.77
987.65	4147.14
987.82	4138.94
987.98	3901.38
988.14	4009.92
988.30	4065.22
988.46	4032.45
988.62	4071.36
988.78	3975.11
988.94	3942.34
989.10	3925.96
989.26	3960.77
989.42	3887.04
989.59	3825.61
989.75	3792.84
989.91	3960.77
990.07	3749.83
990.23	3928.00
990.39	3833.80
990.55	3862.47
990.71	3831.75
990.87	3796.93
991.03	3864.52
991.19	3760.07
991.35	3792.84
991.51	3813.32
991.67	3907.52
991.83	3829.70
992.00	3762.12
992.16	3809.22
992.32	3762.12
992.48	3817.41
992.64	3741.64
992.80	3747.78
992.96	3729.35
993.12	3696.58
993.28	3760.07
993.44	3772.36
993.60	3694.54
993.76	3723.21
993.92	3715.02
994.08	3741.64
994.24	3645.38
994.40	3661.77
994.56	3592.14
994.72	3549.13
994.88	3651.53
995.04	3647.43
995.20	3604.42
995.36	3549.13
995.52	3588.04
995.68	3596.23
995.84	3569.61
996.00	3641.29
996.16	3577.80
996.32	3344.33
996.48	3499.98
996.64	3680.20
996.80	3497.93
996.96	3604.42
997.12	3518.41
997.28	3473.36
997.44	3432.40
997.60	3538.89
997.76	3518.41
997.92	3397.58
998.08	3555.27
998.24	3418.06
998.40	3364.81
998.56	3383.24
998.72	3309.52
998.88	3375.05
999.04	3389.39
999.20	3358.67
999.36	3286.99
999.52	3499.98
999.68	3370.96
999.84	3385.29
1000.00	3317.71
1000.16	3286.99
1000.32	3305.42
1000.48	3262.41
1000.64	3223.50
1000.80	3153.87
1000.95	3196.88
1001.11	3215.31
1001.27	3182.54
1001.43	3248.08
1001.59	3041.23
1001.75	3153.87
1001.91	3274.70
1002.07	3153.87
1002.23	3151.82
1002.39	3190.74
1002.55	3145.68
1002.71	3084.24
1002.87	3139.54
1003.03	3119.06
1003.19	3057.62
1003.34	3090.38
1003.50	3145.68
1003.66	3071.95
1003.82	3160.02
1003.98	3106.77
1004.14	3151.82
1004.30	2916.31
1004.46	3061.71
1004.62	3043.28
1004.78	2987.99
1004.94	3061.71
1005.09	3071.95
1005.25	3096.53
1005.41	3047.38
1005.57	3018.71
1005.73	2959.31
1005.89	2981.84
1006.05	3024.85
1006.21	3006.42
1006.37	2877.40
1006.52	2959.31
1006.68	2899.92
1006.84	3151.82
1007.00	2932.69
1007.16	2998.23
1007.32	2883.54
1007.48	2942.93
1007.64	2918.36
1007.79	2947.03
1007.95	2885.59
1008.11	2981.84
1008.27	2813.91
1008.43	2871.25
1008.59	2895.83
1008.75	2930.64
1008.91	2944.98
1009.06	2848.72
1009.22	2861.01
1009.38	2842.58
1009.54	2846.68
1009.70	2863.06
1009.86	2815.96
1010.01	2951.12
1010.17	2725.85
1010.33	2875.35
1010.49	2789.33
1010.65	2842.58
1010.81	2695.13
1010.96	2754.52
1011.12	2764.76
1011.28	2713.56
1011.44	2830.29
1011.60	2746.33
1011.76	2754.52
1011.91	2785.24
1012.07	2637.78
1012.23	2639.83
1012.39	2660.31
1012.55	2762.71
1012.71	2541.53
1012.86	2607.06
1013.02	2594.78
1013.18	2580.44
1013.34	2631.64
1013.50	2611.16
1013.65	2719.70
1013.81	2621.40
1013.97	2572.25
1014.13	2557.91
1014.29	2633.69
1014.44	2617.30
1014.60	2617.30
1014.76	2590.68
1014.92	2576.34
1015.07	2519.00
1015.23	2555.86
1015.39	2631.64
1015.55	2463.71
1015.71	2551.77
1015.86	2600.92
1016.02	2453.47
1016.18	2519.00
1016.34	2539.48
1016.49	2492.38
1016.65	2602.97
1016.81	2445.27
1016.97	2484.19
1017.12	2557.91
1017.28	2412.51
1017.44	2447.32
1017.60	2478.04
1017.75	2473.95
1017.91	2428.89
1018.07	2549.72
1018.23	2609.11
1018.38	2377.69
1018.54	2486.23
1018.70	2396.12
1018.86	2400.22
1019.01	2351.07
1019.17	2443.23
1019.33	2492.38
1019.49	2363.36
1019.64	2447.32
1019.80	2449.37
1019.96	2404.32
1020.12	2355.16
1020.27	2301.92
1020.43	2336.73
1020.59	2459.61
1020.74	2389.98
1020.90	2420.70
1021.06	2377.69
1021.22	2375.64
1021.37	2381.79
1021.53	2369.50
1021.69	2365.40
1021.84	2281.44
1022.00	2328.54
1022.16	2199.52
1022.31	2371.55
1022.47	2414.56
1022.63	2379.74
1022.79	2174.94
1022.94	2289.63
1023.10	2428.89
1023.26	2387.93
1023.41	2306.01
1023.57	2256.86
1023.73	2336.73
1023.88	2195.42
1024.04	2213.85
1024.20	2129.89
1024.35	2254.81
1024.51	2189.28
1024.67	2228.19
1024.82	2246.62
1024.98	2215.90
1025.14	2238.43
1025.29	2207.71
1025.45	2228.19
1025.61	2166.75
1025.76	2150.37
1025.92	2207.71
1026.08	2187.23
1026.23	2232.29
1026.39	2252.77
1026.55	2217.95
1026.70	2113.50
1026.86	2183.13
1027.02	2338.78
1027.17	2179.04
1027.33	2240.48
1027.48	2174.94
1027.64	2168.80
1027.80	2207.71
1027.95	2183.13
1028.11	2127.84
1028.27	2179.04
1028.42	2189.28
1028.58	2082.78
1028.73	2136.03
1028.89	2011.11
1029.05	2168.80
1029.20	2146.27
>>>>>End Processed Spectral Data<<<<<
