SpectraSuite Data File
++++++++++++++++++++++++++++++++++++
Date: Fri Jun 02 14:52:26 CEST 2017
User: INFO_000
Dark Spectrum Present: No
Reference Spectrum Present: No
Number of Sampled Component Spectra: 1
Spectrometers: USB4H00879
Integration Time (usec): 80000 (USB4H00879)
Spectra Averaged: 1 (USB4H00879)
Boxcar Smoothing: 0 (USB4H00879)
Correct for Electrical Dark: No (USB4H00879)
Strobe/Lamp Enabled: No (USB4H00879)
Correct for Detector Non-linearity: No (USB4H00879)
Correct for Stray Light: No (USB4H00879)
Number of Pixels in Processed Spectrum: 3648
>>>>>Begin Processed Spectral Data<<<<<
345.13	1300.46
345.34	1300.46
345.56	1300.46
345.78	1241.07
345.99	1302.51
346.21	1771.49
346.42	1724.39
346.64	1660.90
346.86	1816.55
347.07	1562.60
347.29	1667.05
347.50	1634.28
347.72	1564.65
347.94	1767.40
348.15	1581.03
348.37	1642.47
348.59	1671.14
348.80	1687.53
349.02	1863.65
349.23	1808.36
349.45	1802.21
349.67	1906.66
349.88	1841.12
350.10	2009.06
350.31	1845.22
350.53	1822.69
350.75	1937.38
350.96	1802.21
351.18	1812.45
351.39	1875.94
351.61	1834.98
351.82	1789.92
352.04	1916.90
352.26	1787.88
352.47	1937.38
352.69	1900.52
352.90	1757.16
353.12	1804.26
353.34	1855.46
353.55	1970.15
353.77	1902.56
353.98	1873.89
354.20	1826.79
354.41	1900.52
354.63	1896.42
354.85	2056.16
355.06	1943.52
355.28	1744.87
355.49	1914.85
355.71	1902.56
355.92	1892.32
356.14	1888.23
356.35	1912.80
356.57	1898.47
356.79	2027.49
357.00	1929.19
357.22	1980.39
357.43	1839.08
357.65	1966.05
357.86	1855.46
358.08	1939.43
358.29	1935.33
358.51	2043.87
358.72	1961.95
358.94	1957.86
359.16	1923.04
359.37	1978.34
359.59	1900.52
359.80	2035.68
360.02	1945.57
360.23	2041.82
360.45	1996.77
360.66	1912.80
360.88	1877.99
361.09	1861.60
361.31	2039.78
361.52	2000.87
361.74	2084.83
361.95	2107.36
362.17	1988.58
362.38	2015.20
362.60	2060.26
362.81	2009.06
363.03	1992.67
363.24	2041.82
363.46	2031.58
363.67	2045.92
363.89	2021.35
364.10	2039.78
364.32	2047.97
364.53	2017.25
364.75	1949.67
364.96	2060.26
365.18	2023.39
365.39	2060.26
365.61	1984.48
365.82	2156.51
366.04	2002.91
366.25	1964.00
366.47	2111.46
366.68	2064.35
366.90	2093.02
367.11	2082.78
367.33	2002.91
367.54	2060.26
367.76	2007.01
367.97	2095.07
368.19	2033.63
368.40	2076.64
368.62	1918.95
368.83	2019.30
369.05	2080.74
369.26	2017.25
369.48	2125.79
369.69	1970.15
369.91	2002.91
370.12	2045.92
370.33	2140.13
370.55	1953.76
370.76	2074.59
370.98	2121.70
371.19	2117.60
371.41	2041.82
371.62	2037.73
371.84	2043.87
372.05	2166.75
372.27	2129.89
372.48	2101.22
372.69	2113.50
372.91	2183.13
373.12	2211.81
373.34	2076.64
373.55	2158.56
373.77	2205.66
373.98	2033.63
374.20	2281.44
374.41	2246.62
374.62	2179.04
374.84	2099.17
375.05	2244.57
375.27	2162.66
375.48	2131.94
375.70	2187.23
375.91	2236.38
376.12	2303.96
376.34	2195.42
376.55	2265.05
376.77	2226.14
376.98	2195.42
377.19	2140.13
377.41	2160.61
377.62	2189.28
377.84	2215.90
378.05	2316.25
378.27	2205.66
378.48	2367.45
378.69	2402.27
378.91	2258.91
379.12	2203.61
379.34	2197.47
379.55	2342.88
379.76	2232.29
379.98	2230.24
380.19	2254.81
380.41	2230.24
380.62	2301.92
380.83	2254.81
381.05	2228.19
381.26	2508.76
381.47	2203.61
381.69	2275.29
381.90	2402.27
382.12	2283.49
382.33	2263.01
382.54	2232.29
382.76	2334.68
382.97	2295.77
383.19	2334.68
383.40	2332.64
383.61	2342.88
383.83	2269.15
384.04	2351.07
384.25	2402.27
384.47	2377.69
384.68	2357.21
384.89	2371.55
385.11	2416.60
385.32	2387.93
385.54	2385.88
385.75	2318.30
385.96	2439.13
386.18	2447.32
386.39	2412.51
386.60	2338.78
386.82	2461.66
387.03	2492.38
387.24	2576.34
387.46	2465.75
387.67	2486.23
387.88	2570.20
388.10	2510.81
388.31	2441.18
388.52	2619.35
388.74	2619.35
388.95	2529.24
389.16	2631.64
389.38	2502.62
389.59	2574.30
389.80	2680.79
390.02	2557.91
390.23	2656.22
390.44	2498.52
390.66	2578.39
390.87	2547.67
391.08	2605.02
391.30	2721.75
391.51	2607.06
391.72	2731.99
391.94	2736.09
392.15	2688.98
392.36	2668.50
392.58	2666.46
392.79	2660.31
393.00	2744.28
393.22	2719.70
393.43	2803.67
393.64	2846.68
393.85	2906.07
394.07	2697.17
394.28	2863.06
394.49	2787.29
394.71	2785.24
394.92	2934.74
395.13	2850.77
395.35	2752.47
395.56	2848.72
395.77	2850.77
395.98	3026.90
396.20	2906.07
396.41	2824.15
396.62	2973.65
396.84	2861.01
397.05	2895.83
397.26	2949.08
397.47	3082.19
397.69	2803.67
397.90	3207.12
398.11	3012.56
398.32	3008.47
398.54	2992.08
398.75	2912.21
398.96	2901.97
399.18	3106.77
399.39	3028.95
399.60	3043.28
399.81	3026.90
400.03	3012.56
400.24	3286.99
400.45	2990.03
400.66	3178.45
400.88	3063.76
401.09	3196.88
401.30	3123.15
401.51	3168.21
401.73	3133.39
401.94	3153.87
402.15	3059.67
402.36	3211.22
402.58	3217.36
402.79	3182.54
403.00	3276.75
403.21	3215.31
403.43	3311.57
403.64	3362.76
403.85	3198.93
404.06	3293.13
404.27	3184.59
404.49	3246.03
404.70	3121.10
404.91	3270.61
405.12	3352.52
405.34	3346.38
405.55	3430.35
405.76	3223.50
405.97	3219.41
406.19	3391.44
406.40	3291.09
406.61	3321.81
406.82	3370.96
407.03	3452.88
407.25	3276.75
407.46	3370.96
407.67	3362.76
407.88	3471.31
408.09	3428.30
408.31	3399.63
408.52	3375.05
408.73	3354.57
408.94	3346.38
409.15	3532.75
409.37	3571.66
409.58	3491.79
409.79	3518.41
410.00	3549.13
410.21	3436.49
410.43	3477.45
410.64	3502.03
410.85	3669.96
411.06	3524.55
411.27	3547.08
411.48	3737.54
411.70	3651.53
411.91	3624.90
412.12	3649.48
412.33	3612.62
412.54	3710.92
412.76	3676.10
412.97	3678.15
413.18	3600.33
413.39	3622.86
413.60	3588.04
413.81	3768.26
414.03	3575.75
414.24	3680.20
414.45	3739.59
414.66	3545.03
414.87	3811.27
415.08	3801.03
415.30	3696.58
415.51	3846.09
415.72	3655.62
415.93	3788.74
416.14	3870.66
416.35	3751.88
416.56	3803.08
416.78	3880.90
416.99	3745.73
417.20	3786.69
417.41	3987.40
417.62	3868.61
417.83	3997.64
418.04	3940.29
418.26	3975.11
418.47	3932.10
418.68	4020.16
418.89	3940.29
419.10	4079.55
419.31	4022.21
419.52	3973.06
419.73	4118.47
419.95	4057.03
420.16	4034.50
420.37	4130.75
420.58	4112.32
420.79	3874.76
421.00	4083.65
421.21	4032.45
421.42	4140.99
421.63	4255.68
421.85	3964.87
422.06	4218.82
422.27	4306.88
422.48	4198.34
422.69	4317.12
422.90	4294.59
423.11	4206.53
423.32	4458.43
423.53	4579.26
423.75	4296.64
423.96	4472.76
424.17	4483.00
424.38	4534.20
424.59	4405.18
424.80	4661.18
425.01	4536.25
425.22	4513.72
425.43	4505.53
425.64	4663.22
425.85	4833.21
426.06	4724.66
426.28	4642.75
426.49	4505.53
426.70	4687.80
426.91	4661.18
427.12	4841.40
427.33	4730.81
427.54	4720.57
427.75	4945.84
427.96	4972.47
428.17	4847.54
428.38	4951.99
428.59	4900.79
428.80	4945.84
429.01	5009.33
429.23	4947.89
429.44	5158.83
429.65	4972.47
429.86	5003.19
430.07	4886.45
430.28	5138.35
430.49	5154.74
430.70	5238.70
430.91	5144.50
431.12	5040.05
431.33	5349.29
431.54	5390.25
431.75	5205.94
431.96	5285.81
432.17	5339.05
432.38	5294.00
432.59	5472.17
432.80	5550.00
433.01	5463.98
433.22	5523.37
433.43	5509.04
433.64	5529.52
433.85	5423.02
434.06	5466.03
434.27	5441.45
434.49	5619.63
434.70	5605.29
434.91	5511.08
435.12	5613.48
435.33	5621.67
435.54	5689.26
435.75	5605.29
435.96	5742.50
436.17	5566.38
436.38	5805.99
436.59	5703.59
436.80	5777.32
437.01	6006.69
437.22	5955.49
437.43	5955.49
437.64	5679.02
437.85	5869.48
438.06	5967.78
438.27	5799.85
438.48	5916.58
438.69	5959.59
438.90	5828.52
439.11	5904.29
439.32	5992.36
439.53	6029.22
439.74	6072.23
439.95	6027.17
440.16	5816.23
440.37	6104.99
440.57	6002.60
440.78	6168.48
440.99	6205.35
441.20	6043.56
441.41	5953.45
441.62	6236.06
441.83	6219.68
442.04	6254.50
442.25	6272.93
442.46	6139.81
442.67	6340.51
442.88	6678.43
443.09	6256.54
443.30	6236.06
443.51	6414.24
443.72	6492.06
443.93	6348.70
444.14	6582.17
444.35	6342.56
444.56	6506.40
444.77	6473.63
444.98	6475.68
445.19	6447.01
445.40	6467.49
445.61	6467.49
445.81	6643.61
446.02	6592.41
446.23	6541.21
446.44	6379.42
446.65	6832.02
446.86	6686.62
447.07	6692.76
447.28	6844.31
447.49	6803.35
447.70	6752.15
447.91	6872.98
448.12	6743.96
448.33	6850.46
448.54	6934.42
448.74	6754.20
448.95	7006.10
449.16	6854.55
449.37	7110.55
449.58	6815.64
449.79	7075.73
450.00	6844.31
450.21	7022.48
450.42	7235.47
450.63	7069.59
450.84	7176.08
451.05	7059.35
451.25	7083.92
451.46	7028.63
451.67	7270.29
451.88	7153.55
452.09	7341.97
452.30	7108.50
452.51	7247.76
452.72	7491.47
452.93	7583.63
453.13	7311.25
453.34	7376.78
453.55	7380.88
453.76	7362.45
453.97	7843.72
454.18	7380.88
454.39	7640.97
454.60	7468.94
454.81	7569.29
455.01	7767.95
455.22	7384.98
455.43	7729.03
455.64	7827.34
455.85	8009.61
456.06	8021.89
456.27	7761.80
456.48	7833.48
456.68	7968.65
456.89	7921.54
457.10	8013.70
457.31	7903.11
457.52	7925.64
457.73	8023.94
457.94	8200.07
458.14	8066.95
458.35	8388.48
458.56	8339.33
458.77	8228.74
458.98	8308.61
459.19	8351.62
459.39	8443.78
459.60	8484.73
459.81	8353.66
460.02	8675.20
460.23	8404.86
460.44	8810.36
460.65	8808.31
460.85	8826.75
461.06	8677.24
461.27	8556.41
461.48	8896.38
461.69	9011.06
461.89	8748.92
462.10	8996.73
462.31	8820.60
462.52	8873.85
462.73	9023.35
462.94	9215.86
463.14	9144.18
463.35	9179.00
463.56	9447.28
463.77	9346.93
463.98	9195.38
464.18	9289.59
464.39	9326.45
464.60	9703.28
464.81	9582.45
465.02	9582.45
465.23	9867.11
465.43	9639.79
465.64	9920.36
465.85	9756.52
466.06	9750.38
466.27	9994.09
466.47	10094.44
466.68	10047.33
466.89	10018.66
467.10	10162.02
467.30	10084.20
467.51	10325.86
467.72	10458.98
467.93	10213.22
468.14	10581.85
468.34	10526.56
468.55	10610.53
468.76	10612.57
468.97	10532.70
469.17	10823.51
469.38	10831.71
469.59	11140.95
469.80	10917.72
470.01	10979.16
470.21	10991.45
470.42	11302.74
470.63	11323.22
470.84	11231.06
471.04	11384.66
471.25	11589.46
471.46	11274.07
471.67	11595.60
471.87	11675.47
472.08	11661.13
472.29	11773.77
472.50	11587.41
472.70	11736.91
472.91	12087.11
473.12	12097.35
473.33	12195.65
473.53	12480.32
473.74	12259.14
473.95	12611.39
474.16	12668.73
474.36	12603.20
474.57	12906.30
474.78	12953.40
474.99	12986.17
475.19	12891.96
475.40	13180.73
475.61	13338.42
475.81	13395.76
476.02	13614.90
476.23	13319.99
476.44	13690.67
476.64	13575.98
476.85	13840.17
477.06	13731.63
477.27	14083.88
477.47	14118.70
477.68	14217.00
477.89	14386.98
478.09	14173.99
478.30	14595.87
478.51	14423.84
478.71	14513.95
478.92	14704.42
479.13	14728.99
479.34	15220.50
479.54	14982.94
479.75	15054.62
479.96	15013.66
480.16	15304.47
480.37	15402.77
480.58	15617.81
480.78	15793.94
480.99	15658.77
481.20	15716.11
481.41	16238.34
481.61	16203.53
481.82	16127.75
482.03	16369.41
482.23	16226.06
482.44	16428.81
482.65	16733.95
482.85	16639.75
483.06	16832.26
483.27	16697.09
483.47	16963.33
483.68	16957.18
483.89	16959.23
484.09	16963.33
484.30	17503.99
484.51	17499.89
484.71	17884.91
484.92	17370.87
485.13	17837.81
485.33	17843.95
485.54	17858.29
485.75	18220.78
485.95	18243.31
486.16	18202.35
486.37	18185.96
486.57	18327.27
486.78	18503.40
486.98	18302.70
487.19	18521.83
487.40	19117.79
487.60	18618.08
487.81	19175.13
488.02	18964.19
488.22	19183.32
488.43	19222.23
488.64	19283.67
488.84	19347.16
489.05	19476.18
489.25	19545.81
489.46	19797.71
489.67	19551.96
489.87	19842.77
490.08	20051.66
490.29	20084.43
490.49	19994.32
490.70	20332.23
490.90	20565.70
491.11	20260.55
491.32	20723.40
491.52	20659.91
491.73	20676.29
491.94	20963.01
492.14	20713.16
492.35	20952.77
492.55	20924.10
492.76	21067.45
492.97	21284.54
493.17	21280.44
493.38	21546.68
493.58	21604.02
493.79	21628.60
494.00	21642.93
494.20	21571.25
494.41	21790.39
494.61	21872.31
494.82	22034.10
495.02	22064.82
495.23	22126.25
495.44	22212.27
495.64	22365.87
495.85	22146.73
496.05	22679.21
496.26	22277.80
496.47	22587.05
496.67	22589.10
496.88	22906.53
497.08	22609.58
497.29	22988.45
497.49	22738.60
497.70	22970.02
497.91	23137.95
498.11	23207.58
498.32	23262.88
498.52	23303.84
498.73	23627.42
498.93	23627.42
499.14	23484.06
499.34	23516.83
499.55	23848.60
499.76	23686.81
499.96	23570.07
500.17	23543.45
500.37	23852.69
500.58	23690.90
500.78	24256.14
500.99	23899.80
501.19	24231.57
501.40	23731.86
501.60	24032.91
501.81	24106.64
502.02	24514.19
502.22	24065.68
502.43	24106.64
502.63	24596.10
502.84	24497.80
503.04	24577.67
503.25	24608.39
503.45	24592.01
503.66	24702.60
503.86	24477.32
504.07	25054.85
504.27	25028.23
504.48	25091.71
504.68	25101.95
504.89	25357.95
505.09	25187.97
505.30	25396.86
505.50	25515.64
505.71	25337.47
505.91	25407.10
506.12	25433.72
506.32	25333.37
506.53	25880.18
506.73	25718.39
506.94	25759.35
507.14	25427.58
507.35	25661.05
507.55	25867.89
507.76	25904.76
507.96	25482.88
508.17	25960.05
508.37	26121.84
508.58	25992.82
508.78	26277.49
508.99	26449.52
509.19	26195.57
509.40	26101.36
509.60	26207.86
509.81	26609.26
510.01	26185.33
510.22	26381.93
510.42	26818.15
510.63	26562.15
510.83	26429.04
511.04	26664.55
511.24	26713.70
511.44	26480.24
511.65	26734.18
511.85	26799.72
512.06	26785.38
512.26	26812.01
512.47	27106.91
512.67	26836.58
512.88	27039.33
513.08	26779.24
513.29	27371.10
513.49	27092.58
513.69	26922.60
513.90	27414.11
514.10	27432.54
514.31	27373.15
514.51	27364.96
514.72	27313.76
514.92	27330.14
515.13	27303.52
515.33	27809.37
515.53	27733.59
515.74	27446.88
515.94	27885.14
516.15	28089.94
516.35	27729.50
516.56	28020.31
516.76	27903.57
516.96	28048.98
517.17	27874.90
517.37	28034.64
517.58	28149.33
517.78	28352.08
517.99	28223.06
518.19	28583.50
518.39	28390.99
518.60	28440.14
518.80	28331.60
519.01	28679.75
519.21	28872.26
519.41	28612.17
519.62	28667.47
519.82	28700.23
520.03	28954.18
520.23	29126.21
520.43	28997.19
520.64	29009.48
520.84	29544.00
521.05	29085.25
521.25	29099.59
521.45	29316.67
521.66	29548.09
521.86	29472.32
522.07	29822.52
522.27	29845.05
522.47	29701.69
522.68	29666.88
522.88	29916.73
523.08	30064.18
523.29	29861.43
523.49	30432.82
523.70	30277.17
523.90	30391.86
524.10	30266.93
524.31	30336.56
524.51	30240.31
524.71	30832.17
524.92	30770.73
525.12	30844.46
525.33	30877.22
525.53	30817.83
525.73	31188.52
525.94	31206.95
526.14	31082.02
526.34	31184.42
526.55	31381.03
526.75	31358.50
526.95	31798.81
527.16	31591.97
527.36	31632.93
527.56	32241.17
527.77	31862.30
527.97	32050.71
528.17	32151.06
528.38	32228.88
528.58	32226.84
528.78	32552.46
528.99	32550.42
529.19	32751.12
529.39	32531.98
529.60	32976.39
529.80	32955.91
530.00	33005.06
530.21	33478.15
530.41	33422.85
530.61	33316.36
530.82	33349.12
531.02	33381.89
531.22	33922.55
531.43	33560.06
531.63	34080.25
531.83	33930.75
532.04	34336.24
532.24	33768.96
532.44	34452.98
532.64	34547.18
532.85	34860.52
533.05	34553.33
533.25	34295.28
533.46	34688.49
533.66	34926.06
533.86	34790.89
534.07	35100.14
534.27	35266.02
534.47	35112.42
534.67	35386.85
534.88	35327.46
535.08	35657.18
535.28	35669.47
535.49	36066.78
535.69	36085.21
535.89	36308.44
536.09	36359.64
536.30	36185.56
536.50	36275.67
536.70	36740.56
536.91	36904.40
537.11	36675.02
537.31	36912.59
537.51	36988.36
537.72	37232.07
537.92	37275.08
538.12	37561.79
538.32	37266.89
538.53	37938.62
538.73	37230.02
538.93	37385.67
539.13	37946.81
539.34	37590.47
539.54	37858.75
539.74	38266.30
539.94	37842.37
540.15	38032.83
540.35	38137.27
540.55	38237.62
540.75	38462.90
540.96	38450.61
541.16	38768.05
541.36	38772.14
541.56	38901.17
541.77	39286.18
541.97	38917.55
542.17	38970.80
542.37	39499.17
542.58	39499.17
542.78	39210.41
542.98	39450.02
543.18	39646.63
543.38	40056.22
543.59	39859.62
543.79	39861.66
543.99	39507.37
544.19	39818.66
544.40	39873.95
544.60	40213.91
544.80	40281.50
545.00	40480.15
545.20	40613.27
545.41	40590.74
545.61	40410.52
545.81	40805.78
546.01	40912.27
546.21	40504.73
546.42	40353.18
546.62	40934.80
546.82	41016.72
547.02	41475.46
547.22	41125.26
547.43	41194.89
547.63	41233.80
547.83	41319.82
548.03	40947.09
548.23	41788.80
548.44	41450.89
548.64	41702.79
548.84	41745.80
549.04	41719.17
549.24	42171.77
549.45	41928.06
549.65	41721.22
549.85	42196.35
550.05	42225.02
550.25	42159.48
550.45	42673.52
550.66	42272.12
550.86	42607.99
551.06	42407.29
551.26	42321.27
551.46	42558.84
551.66	42739.06
551.87	42444.15
552.07	43115.89
552.27	43126.13
552.47	43179.37
552.67	42970.48
552.87	42812.79
553.07	42802.55
553.28	43267.44
553.48	43357.55
553.68	43384.17
553.88	43464.04
554.08	43230.57
554.28	43394.41
554.48	43113.84
554.69	43464.04
554.89	43906.40
555.09	43335.02
555.29	43119.98
555.49	43586.92
555.69	43799.91
555.89	43451.75
556.10	44115.29
556.30	43744.61
556.50	43793.76
556.70	44027.23
556.90	43795.81
557.10	44303.71
557.30	43844.96
557.50	43971.94
557.70	43820.39
557.91	44172.64
558.11	44029.28
558.31	44389.72
558.51	43793.76
558.71	44471.64
558.91	44236.12
559.11	44160.35
559.31	44342.62
559.51	44133.73
559.72	44508.50
559.92	44508.50
560.12	44494.17
560.32	44643.67
560.52	44367.20
560.72	44643.67
560.92	44625.24
561.12	44938.58
561.32	45034.83
561.52	44807.51
561.72	45137.23
561.93	44723.54
562.13	44701.01
562.33	44385.63
562.53	45112.66
562.73	44383.58
562.93	44899.67
563.13	45004.11
563.33	44836.18
563.53	45069.65
563.73	44782.93
563.93	45153.62
564.13	45589.83
564.33	44979.54
564.53	44891.48
564.74	45528.39
564.94	45210.96
565.14	45141.33
565.34	44961.11
565.54	44932.43
565.74	45331.79
565.94	45784.39
566.14	45247.82
566.34	45229.39
566.54	45366.60
566.74	45194.57
566.94	45393.23
567.14	45493.58
567.34	45292.88
567.54	45784.39
567.74	45499.72
567.94	45342.03
568.14	45698.37
568.34	45770.05
568.54	45817.16
568.74	45962.56
568.94	45610.31
569.14	45919.56
569.34	45366.60
569.54	45806.92
569.75	45290.83
569.95	45657.42
570.15	46163.26
570.35	45866.31
570.55	45843.78
570.75	45940.04
570.95	45686.09
571.15	45827.40
571.35	46153.02
571.55	46042.43
571.75	46064.96
571.95	46310.72
572.15	46343.48
572.35	46167.36
572.55	45983.04
572.75	45907.27
572.95	46185.79
573.15	45815.11
573.35	46380.35
573.55	45686.09
573.75	45704.52
573.95	46052.67
574.15	46083.39
574.35	46415.16
574.55	46261.57
574.75	46257.47
574.95	46320.96
575.15	46390.59
575.34	46783.80
575.54	46413.12
575.74	46638.39
575.94	46755.13
576.14	46323.01
576.34	47209.78
576.54	46812.47
576.74	46560.57
576.94	46540.09
577.14	46802.23
577.34	47127.86
577.54	46687.54
577.74	46681.40
577.94	47007.03
578.14	46679.35
578.34	47361.33
578.54	46388.54
578.74	47154.48
578.94	47566.12
579.14	46634.30
579.34	46988.60
579.54	47084.85
579.74	47480.11
579.94	47441.20
580.13	47201.58
580.33	47404.33
580.53	47240.50
580.73	47846.69
580.93	47373.61
581.13	47191.34
581.33	47643.94
581.53	47926.56
581.73	47525.16
581.93	47926.56
582.13	47500.59
582.33	47791.40
582.53	47625.51
582.73	47990.05
582.92	47858.98
583.12	48043.30
583.32	47764.78
583.52	47508.78
583.72	47977.76
583.92	47740.20
584.12	48071.97
584.32	48246.05
584.52	47936.80
584.72	48346.40
584.92	48190.75
585.11	48760.09
585.31	48248.10
585.51	48190.75
585.71	47852.84
585.91	48495.90
586.11	48450.84
586.31	48186.66
586.51	48504.09
586.71	48176.42
586.91	48819.48
587.10	48772.38
587.30	48868.63
587.50	48719.13
587.70	48950.55
587.90	48915.73
588.10	48751.90
588.30	48813.34
588.50	48874.77
588.69	48954.64
588.89	48995.60
589.09	48909.59
589.29	48633.11
589.49	49315.09
589.69	49038.61
589.89	48975.12
590.08	49220.88
590.28	48719.13
590.48	48823.58
590.68	49055.00
590.88	49179.92
591.08	49392.91
591.28	48921.88
591.47	49442.06
591.67	48827.67
591.87	49530.12
592.07	49354.00
592.27	49542.41
592.47	49394.96
592.67	49878.28
592.86	49493.26
593.06	49751.30
593.26	49270.03
593.46	49861.90
593.66	49655.05
593.86	50185.47
594.05	50011.40
594.25	50386.18
594.45	49853.70
594.65	49988.87
594.85	49997.06
595.05	50064.64
595.24	50171.14
595.44	50230.53
595.64	50158.85
595.84	50396.42
596.04	50636.03
596.23	50007.30
596.43	50363.65
596.63	50208.00
596.83	50341.12
597.03	50853.11
597.22	50814.20
597.42	50351.36
597.62	50603.26
597.82	50795.77
598.02	50883.83
598.21	51385.58
598.41	50685.18
598.61	50601.21
598.81	50754.81
599.01	51387.63
599.20	51145.97
599.40	51145.97
599.60	51430.64
599.80	51264.75
600.00	51596.52
600.19	52292.83
600.39	51174.64
600.59	51936.49
600.79	51420.40
600.98	51109.11
601.18	52206.82
601.38	51641.58
601.58	51995.88
601.78	51731.69
601.97	51985.64
602.17	52172.00
602.37	52163.81
602.57	52241.63
602.76	52542.69
602.96	51911.91
603.16	52292.83
603.36	51813.61
603.55	52522.21
603.75	52548.83
603.95	52710.62
604.15	52557.02
604.34	52536.54
604.54	52813.02
604.74	52780.25
604.94	53228.76
605.13	53034.20
605.33	53286.10
605.53	52901.08
605.73	53144.79
605.92	52813.02
606.12	53533.90
606.32	53494.99
606.52	53126.36
606.71	53159.12
606.91	53337.30
607.11	52745.44
607.30	53871.82
607.50	53146.84
607.70	53554.38
607.90	53390.55
608.09	53634.25
608.29	53810.38
608.49	53699.79
608.68	53685.45
608.88	54156.49
609.08	53753.04
609.28	53662.93
609.47	53886.15
609.67	54512.83
609.87	54228.16
610.06	54117.57
610.26	54158.53
610.46	54537.41
610.66	54592.70
610.85	54428.87
611.05	53687.50
611.25	54361.28
611.44	54408.39
611.64	54437.06
611.84	54680.77
612.03	54543.55
612.23	54564.03
612.43	54801.60
612.62	54543.55
612.82	54723.77
613.02	54875.32
613.21	54742.20
613.41	54863.03
613.61	54795.45
613.80	54770.88
614.00	54840.51
614.20	54682.81
614.39	54920.38
614.59	54838.46
614.79	55248.05
614.98	55002.30
615.18	55237.81
615.38	55092.41
615.57	54662.33
615.77	55243.96
615.97	55026.87
616.16	55284.92
616.36	55059.64
616.56	55733.42
616.75	55131.32
616.95	54924.47
617.15	55348.40
617.34	55061.69
617.54	55518.38
617.74	55377.08
617.93	55518.38
618.13	55188.66
618.32	55391.41
618.52	55399.60
618.72	55682.22
618.91	55727.28
619.11	55334.07
619.31	55467.19
619.50	55129.27
619.70	55317.68
619.90	55626.93
620.09	55708.85
620.29	55555.25
620.48	55481.52
620.68	55981.23
620.88	55581.87
621.07	55485.62
621.27	55958.70
621.46	55458.99
621.66	55534.77
621.86	55729.33
622.05	55336.12
622.25	55837.87
622.44	55995.56
622.64	55424.18
622.84	56341.67
623.03	55669.93
623.23	55801.00
623.42	55739.57
623.62	56050.86
623.82	56138.92
624.01	56110.25
624.21	56140.97
624.40	56335.52
624.60	55876.78
624.80	55723.18
624.99	56044.71
625.19	55383.22
625.38	56368.29
625.58	55848.11
625.77	56124.58
625.97	56470.69
626.17	55753.90
626.36	56216.74
626.56	56065.19
626.75	55665.84
626.95	56493.22
627.14	56534.18
627.34	56745.12
627.54	56321.19
627.73	55973.03
627.93	56464.55
628.12	55909.55
628.32	56513.70
628.51	56118.44
628.71	56544.42
628.90	56132.78
629.10	56345.76
629.30	56513.70
629.49	56122.54
629.69	56558.75
629.88	56523.94
630.08	56595.62
630.27	56876.19
630.47	56581.28
630.66	56671.39
630.86	57291.93
631.05	56571.04
631.25	56743.07
631.44	56360.10
631.64	56245.41
631.84	57013.40
632.03	57173.14
632.23	56738.97
632.42	56636.58
632.62	56706.21
632.81	56186.02
633.01	56595.62
633.20	57121.94
633.40	57123.99
633.59	56997.02
633.79	56671.39
633.98	57113.75
634.18	57261.21
634.37	57070.75
634.57	56962.20
634.76	57232.53
634.96	57037.98
635.15	57414.80
635.35	56904.86
635.54	56368.29
635.74	57293.97
635.93	56829.08
636.13	57193.62
636.32	57189.53
636.52	57117.85
636.71	57052.31
636.91	57152.66
637.10	57107.61
637.30	57586.83
637.49	57357.46
637.69	56845.47
637.88	57416.85
638.08	57402.52
638.27	57648.27
638.46	57177.24
638.66	56532.13
638.85	57126.04
639.05	57353.36
639.24	57844.88
639.44	56974.49
639.63	57330.84
639.83	57214.10
640.02	57402.52
640.22	57906.32
640.41	57765.01
640.61	56820.89
640.80	57545.87
640.99	57715.86
641.19	58174.60
641.38	57423.00
641.58	57308.31
641.77	57513.11
641.97	57379.99
642.16	57914.51
642.36	58123.40
642.55	57791.63
642.74	57349.27
642.94	58111.11
643.13	57615.50
643.33	57926.80
643.52	57785.49
643.72	58162.31
643.91	57955.47
644.10	58143.88
644.30	58066.06
644.49	57728.14
644.69	58070.15
644.88	57939.08
645.08	57828.49
645.27	57891.98
645.46	58123.40
645.66	57928.84
645.85	57369.75
646.05	58410.12
646.24	58248.33
646.43	58266.76
646.63	58586.24
646.82	58553.47
647.02	58424.45
647.21	58737.79
647.40	58473.60
647.60	58160.26
647.79	58408.07
647.99	58451.08
648.18	57853.07
648.37	58856.57
648.57	58088.59
648.76	58528.90
648.96	57851.02
649.15	58596.48
649.34	58414.21
649.54	58598.53
649.73	57738.38
649.92	58600.58
650.12	58655.87
650.31	58553.47
650.51	58481.80
650.70	59028.60
650.89	58324.10
651.09	59049.08
651.28	58504.32
651.47	58700.93
651.67	58358.92
651.86	58856.57
652.06	58096.78
652.25	58344.58
652.44	58512.52
652.64	58434.69
652.83	58064.01
653.02	58406.02
653.22	58416.26
653.41	58487.94
653.60	58184.84
653.80	58475.65
653.99	58557.57
654.18	58492.04
654.38	58236.04
654.57	58637.44
654.76	58412.16
654.96	58051.72
655.15	58514.56
655.34	58233.99
655.54	58076.30
655.73	58498.18
655.92	58141.83
656.12	58465.41
656.31	58365.06
656.50	58723.46
656.70	58614.91
656.89	58518.66
657.08	58522.76
657.28	58414.21
657.47	58350.73
657.66	58260.62
657.86	58481.80
658.05	58156.17
658.24	58338.44
658.43	58059.91
658.63	58797.18
658.82	58500.23
659.01	58520.71
659.21	58545.28
659.40	58563.71
659.59	58258.57
659.79	58295.43
659.98	58279.05
660.17	58217.61
660.36	58594.43
660.56	58348.68
660.75	58197.13
660.94	58430.60
661.14	58356.87
661.33	58178.70
661.52	57703.57
661.71	58770.56
661.91	58541.19
662.10	58047.63
662.29	58659.97
662.49	58330.25
662.68	58266.76
662.87	58193.03
663.06	58346.63
663.26	57877.64
663.45	58637.44
663.64	58467.46
663.83	58760.32
664.03	58594.43
664.22	58008.71
664.41	58289.29
664.60	57965.71
664.80	58166.41
664.99	57885.84
665.18	58021.00
665.37	58160.26
665.57	58455.17
665.76	58107.02
665.95	58268.81
666.14	57687.18
666.34	58045.58
666.53	58094.73
666.72	57762.96
666.91	57734.29
667.11	58037.39
667.30	57861.26
667.49	57779.34
667.68	57283.73
667.87	57607.31
668.07	58434.69
668.26	57922.70
668.45	58246.28
668.64	57685.14
668.84	58526.85
669.03	57717.90
669.22	58154.12
669.41	57746.57
669.60	57943.18
669.80	57420.95
669.99	57851.02
670.18	57586.83
670.37	57910.41
670.57	58127.50
670.76	56988.83
670.95	58111.11
671.14	57484.43
671.33	57285.78
671.53	57754.77
671.72	57494.67
671.91	57855.12
672.10	57445.52
672.29	57466.00
672.48	57224.34
672.68	57408.66
672.87	57427.09
673.06	57717.90
673.25	57404.56
673.44	57074.84
673.64	57087.13
673.83	57105.56
674.02	57107.61
674.21	56890.52
674.40	57443.48
674.59	56583.33
674.79	56853.66
674.98	56859.80
675.17	57093.27
675.36	56917.15
675.55	57197.72
675.74	57009.31
675.94	57152.66
676.13	56878.24
676.32	57101.46
676.51	57529.49
676.70	57234.58
676.89	56761.50
677.08	56958.11
677.28	56722.59
677.47	57144.47
677.66	56970.39
677.85	56552.61
678.04	57064.60
678.23	56738.97
678.42	56947.87
678.62	56427.68
678.81	57011.35
679.00	56831.13
679.19	57150.62
679.38	56878.24
679.57	56407.20
679.76	56607.90
679.96	56863.90
680.15	56655.01
680.34	56591.52
680.53	56661.15
680.72	56462.50
680.91	56458.40
681.10	56050.86
681.29	56573.09
681.48	55989.42
681.68	56333.48
681.87	56095.91
682.06	56390.82
682.25	55964.84
682.44	56341.67
682.63	55966.89
682.82	55891.12
683.01	56183.97
683.20	55897.26
683.39	55989.42
683.59	55841.96
683.78	55846.06
683.97	55776.43
684.16	55653.55
684.35	55440.56
684.54	55758.00
684.73	55590.06
684.92	55643.31
685.11	55510.19
685.30	55252.15
685.49	56095.91
685.69	55610.54
685.88	55821.48
686.07	55661.74
686.26	55192.76
686.45	55473.33
686.64	55645.36
686.83	55547.06
687.02	55430.32
687.21	55557.30
687.40	55655.60
687.59	55301.30
687.78	54969.53
687.97	55604.40
688.16	55223.48
688.35	55006.39
688.54	55057.59
688.74	55170.23
688.93	54797.50
689.12	55090.36
689.31	55211.19
689.50	55444.66
689.69	54838.46
689.88	54461.63
690.07	55370.93
690.26	54695.10
690.45	54768.83
690.64	54504.64
690.83	54596.80
691.02	54467.78
691.21	54928.57
691.40	54478.02
691.59	54584.51
691.78	54594.75
691.97	55047.35
692.16	54594.75
692.35	55022.78
692.54	54355.14
692.73	54789.31
692.92	54490.30
693.11	54660.29
693.30	54461.63
693.49	54625.47
693.68	54107.33
693.87	54586.56
694.06	54133.96
694.25	54686.91
694.44	54359.23
694.63	54346.95
694.82	54465.73
695.01	54017.22
695.20	54199.49
695.39	54521.02
695.58	53888.20
695.77	53781.71
695.96	53763.28
696.15	54643.90
696.34	53679.31
696.53	53986.50
696.72	54101.19
696.91	53728.46
697.10	54136.01
697.29	54000.84
697.48	54133.96
697.67	53677.26
697.86	53544.14
698.05	53720.27
698.24	53963.98
698.43	53675.21
698.62	53687.50
698.81	53800.14
699.00	53718.22
699.19	53318.87
699.38	53476.56
699.57	53587.15
699.76	53654.73
699.95	52927.70
700.14	53296.34
700.32	53044.44
700.51	53695.69
700.70	53433.55
700.89	53535.95
701.08	53738.70
701.27	53089.49
701.46	53589.20
701.65	52772.06
701.84	53363.92
702.03	53429.46
702.22	52542.69
702.41	52933.85
702.60	53083.35
702.79	52790.49
702.98	52618.46
703.17	52966.62
703.35	52712.67
703.54	52776.15
703.73	52978.90
703.92	52557.02
704.11	52321.51
704.30	52634.84
704.49	52425.95
704.68	52415.71
704.87	52690.14
705.06	52358.37
705.25	52466.91
705.43	52954.33
705.62	52475.10
705.81	53173.46
706.00	52616.41
706.19	52421.86
706.38	52464.86
706.57	52882.65
706.76	52378.85
706.95	52589.79
707.14	51909.86
707.32	51895.53
707.51	52024.55
707.70	52552.93
707.89	52159.72
708.08	51889.38
708.27	52206.82
708.46	52536.54
708.65	52446.43
708.84	52649.18
709.02	52391.14
709.21	52638.94
709.40	51995.88
709.59	51846.38
709.78	51664.11
709.97	52176.10
710.16	51836.14
710.34	51770.60
710.53	51944.68
710.72	51770.60
710.91	52014.31
711.10	51885.29
711.29	52065.51
711.48	51660.01
711.66	51555.57
711.85	51504.37
712.04	51856.62
712.23	51780.84
712.42	51680.49
712.61	51240.18
712.80	51635.44
712.98	51604.72
713.17	51049.72
713.36	51475.69
713.55	51729.64
713.74	51508.46
713.93	51426.54
714.11	51326.19
714.30	51344.62
714.49	51518.70
714.68	51391.73
714.87	51326.19
715.06	51270.90
715.24	51156.21
715.43	51344.62
715.62	50871.54
715.81	50857.21
716.00	51188.98
716.18	51307.76
716.37	50713.85
716.56	51418.35
716.75	51338.48
716.94	51080.44
717.12	50574.59
717.31	50846.97
717.50	50844.92
717.69	50658.56
717.88	50793.72
718.06	50797.82
718.25	51168.50
718.44	50760.95
718.63	50957.56
718.82	50244.87
719.00	50638.08
719.19	50509.05
719.38	50656.51
719.57	50070.79
719.76	50279.68
719.94	50390.27
720.13	50447.61
720.32	50574.59
720.51	50015.49
720.69	50205.95
720.88	50408.70
721.07	49820.94
721.26	49681.67
721.44	50089.22
721.63	50128.13
721.82	49493.26
722.01	49859.85
722.20	49915.14
722.38	49728.78
722.57	49659.15
722.76	49693.96
722.95	49906.95
723.13	49257.74
723.32	49257.74
723.51	49319.18
723.70	49005.84
723.88	49444.11
724.07	49437.97
724.26	49100.05
724.44	48782.62
724.63	49517.84
724.82	49433.87
725.01	49061.14
725.19	49198.35
725.38	49278.22
725.57	49116.43
725.76	49267.98
725.94	48979.22
726.13	48772.38
726.32	49147.15
726.51	49042.71
726.69	49251.60
726.88	49169.68
727.07	49315.09
727.25	48911.64
727.44	49190.16
727.63	48712.98
727.82	49038.61
728.00	49224.98
728.19	48612.63
728.38	48813.34
728.56	48543.00
728.75	49345.81
728.94	48774.42
729.12	49095.95
729.31	48776.47
729.50	48870.68
729.69	49087.76
729.87	48745.75
730.06	48905.49
730.25	48934.17
730.43	49274.13
730.62	48891.16
730.81	48960.79
730.99	49138.96
731.18	48672.03
731.37	48934.17
731.55	49370.38
731.74	49057.04
731.93	48784.66
732.11	49046.80
732.30	49485.07
732.49	49272.08
732.67	48872.73
732.86	48794.90
733.05	48768.28
733.23	48751.90
733.42	48551.20
733.61	48788.76
733.79	48551.20
733.98	49237.26
734.17	49083.67
734.35	48790.81
734.54	48958.74
734.73	49374.48
734.91	48956.69
735.10	48553.24
735.29	49241.36
735.47	48583.96
735.66	48794.90
735.84	48960.79
736.03	49036.56
736.22	49456.40
736.40	48807.19
736.59	49171.73
736.78	48522.52
736.96	49095.95
737.15	48983.32
737.33	48954.64
737.52	48612.63
737.71	48647.45
737.89	48629.02
738.08	48153.89
738.27	48309.53
738.45	48885.01
738.64	48575.77
738.82	48493.85
739.01	48151.84
739.20	48581.91
739.38	48497.95
739.57	48758.04
739.75	49022.23
739.94	48295.20
740.13	48518.43
740.31	48071.97
740.50	48477.47
740.68	48543.00
740.87	48799.00
741.06	48348.45
741.24	48712.98
741.43	48092.45
741.61	48428.32
741.80	47830.31
741.99	47746.34
742.17	48117.03
742.36	47928.61
742.54	48125.22
742.73	48278.82
742.91	48475.42
743.10	48289.06
743.29	48356.64
743.47	48467.23
743.66	48006.44
743.84	48248.10
744.03	48108.83
744.21	48020.77
744.40	48760.09
744.59	48250.14
744.77	47904.04
744.96	48110.88
745.14	48311.58
745.33	48282.91
745.51	48358.69
745.70	48252.19
745.88	48166.18
746.07	48104.74
746.26	48016.68
746.44	47895.85
746.63	48078.11
746.81	47885.61
747.00	47967.52
747.18	47928.61
747.37	48014.63
747.55	47766.82
747.74	48205.09
747.92	47596.84
748.11	47813.93
748.29	48254.24
748.48	47697.19
748.66	47435.05
748.85	47469.87
749.03	47551.79
749.22	47535.40
749.41	47375.66
749.59	47230.26
749.78	47367.47
749.96	47183.15
750.15	47140.14
750.33	47381.80
750.52	47447.34
750.70	47220.02
750.89	46708.02
751.07	47121.71
751.26	47457.58
751.44	47328.56
751.63	47754.54
751.81	46912.82
752.00	47045.94
752.18	47316.27
752.37	46857.52
752.55	46722.36
752.74	46802.23
752.92	46679.35
753.10	46937.40
753.29	47449.39
753.47	47064.37
753.66	46058.82
753.84	47191.34
754.03	46527.80
754.21	46452.03
754.40	46832.95
754.58	47127.86
754.77	46540.09
754.95	46212.41
755.14	46789.94
755.32	46419.26
755.51	46159.17
755.69	46406.97
755.88	46572.86
756.06	46318.91
756.24	46126.40
756.43	46337.34
756.61	46331.20
756.80	46466.36
756.98	45946.18
757.17	46277.95
757.35	45796.68
757.54	45942.08
757.72	46255.42
757.90	46167.36
758.09	45997.38
758.27	46376.25
758.46	46161.22
758.64	45735.24
758.83	46077.25
759.01	45634.89
759.19	45770.05
759.38	45849.92
759.56	46347.58
759.75	45940.04
759.93	46056.77
760.12	46183.74
760.30	45759.81
760.48	45702.47
760.67	46257.47
760.85	45716.81
761.04	46038.34
761.22	45806.92
761.40	45487.43
761.59	45339.98
761.77	45096.27
761.96	45532.49
762.14	45282.64
762.32	45280.59
762.51	45106.51
762.69	45299.02
762.88	45157.71
763.06	45243.73
763.24	45303.12
763.43	45192.53
763.61	45161.81
763.80	45069.65
763.98	44817.75
764.16	45143.38
764.35	44909.91
764.53	44610.90
764.72	45030.74
764.90	45028.69
765.08	44811.60
765.27	44727.64
765.45	44676.44
765.63	44365.15
765.82	45032.78
766.00	44299.61
766.18	44180.83
766.37	44322.14
766.55	44033.38
766.74	44217.69
766.92	44305.76
767.10	44293.47
767.29	44412.25
767.47	43840.87
767.65	44176.73
767.84	43953.51
768.02	43926.88
768.20	43732.32
768.39	44203.36
768.57	43959.65
768.75	43775.33
768.94	43930.98
769.12	43554.15
769.30	43459.94
769.49	43335.02
769.67	43285.87
769.85	43521.38
770.04	43529.58
770.22	43562.34
770.40	43283.82
770.59	43318.64
770.77	43308.40
770.95	43261.29
771.14	43009.39
771.32	42769.78
771.50	43097.45
771.69	42931.57
771.87	43285.87
772.05	42820.98
772.24	42675.57
772.42	42851.70
772.60	42868.08
772.78	42460.54
772.97	42622.33
773.15	42950.00
773.33	42395.00
773.52	42745.20
773.70	42798.45
773.88	42902.90
774.07	42032.51
774.25	42290.55
774.43	42685.81
774.61	42415.48
774.80	42804.59
774.98	42636.66
775.16	42939.76
775.34	42745.20
775.53	42601.85
775.71	42732.92
775.89	42503.54
776.08	42671.48
776.26	42825.07
776.44	42775.92
776.62	42653.05
776.81	42448.25
776.99	42530.17
777.17	43013.49
777.35	42653.05
777.54	43095.41
777.72	42915.19
777.90	42730.87
778.08	43079.02
778.27	42614.13
778.45	43058.54
778.63	43050.35
778.81	42691.96
779.00	43218.28
779.18	42757.49
779.36	42997.10
779.54	42780.02
779.73	42976.62
779.91	42857.84
780.09	42976.62
780.27	43314.54
780.46	42933.62
780.64	43392.36
780.82	42884.47
781.00	42988.91
781.19	43423.08
781.37	43494.76
781.55	43279.72
781.73	43572.58
781.91	43537.77
782.10	43158.89
782.28	43126.13
782.46	43578.73
782.64	43271.53
782.82	42986.86
783.01	43513.19
783.19	43158.89
783.37	43679.08
783.55	43070.83
783.74	43703.65
783.92	43093.36
784.10	43668.84
784.28	43490.66
784.46	43263.34
784.64	43076.97
784.83	42931.57
785.01	43656.55
785.19	43699.56
785.37	43586.92
785.55	43238.76
785.74	43154.80
785.92	42726.77
786.10	43156.85
786.28	43021.68
786.46	43109.74
786.64	42536.31
786.83	43269.48
787.01	42927.47
787.19	43165.04
787.37	43140.46
787.55	43087.21
787.74	42761.59
787.92	43066.73
788.10	42816.88
788.28	42274.17
788.46	42739.06
788.64	42268.03
788.82	43064.69
789.01	42515.83
789.19	42542.45
789.37	42255.74
789.55	42345.85
789.73	42306.94
789.91	42313.08
790.09	42108.29
790.28	42356.09
790.46	41643.40
790.64	42261.88
790.82	41600.39
791.00	41817.47
791.18	41588.10
791.36	42001.79
791.55	41749.89
791.73	41753.99
791.91	41229.71
792.09	41389.45
792.27	40699.28
792.45	41022.86
792.63	41096.59
792.81	40521.11
793.00	41092.49
793.18	40736.15
793.36	40371.61
793.54	40680.85
793.72	40830.35
793.90	40566.16
794.08	40113.56
794.26	40396.18
794.44	40076.70
794.62	39658.91
794.81	40035.74
794.99	40349.08
795.17	40000.93
795.35	40015.26
795.53	39933.34
795.71	40191.39
795.89	39605.67
796.07	39050.67
796.25	39245.23
796.43	39339.43
796.61	39022.00
796.80	38540.72
796.98	38870.45
797.16	38989.23
797.34	39042.48
797.52	38880.69
797.70	38753.71
797.88	38712.75
798.06	38294.97
798.24	38133.18
798.42	38352.31
798.60	37922.24
798.78	38049.21
798.96	38272.44
799.14	37932.48
799.32	37774.78
799.51	37770.69
799.69	37612.99
799.87	37703.10
800.05	37461.44
800.23	37813.70
800.41	37344.71
800.59	37559.75
800.77	37258.70
800.95	36732.37
801.13	37494.21
801.31	36847.05
801.49	37072.33
801.67	36859.34
801.85	36756.94
802.03	36632.02
802.21	36402.64
802.39	36328.92
802.57	36357.59
802.75	36138.46
802.93	36386.26
803.11	35950.04
803.29	35864.03
803.47	35419.62
803.65	35806.69
803.83	35759.58
804.01	35648.99
804.19	35259.88
804.37	35153.38
804.55	35354.08
804.73	35304.93
804.91	34991.59
805.09	35247.59
805.27	34835.95
805.45	35223.01
805.63	35014.12
805.81	35378.66
805.99	35036.65
806.17	35220.97
806.35	34678.25
806.53	34459.12
806.71	34633.20
806.89	34655.73
807.07	34520.56
807.25	34579.95
807.43	34614.77
807.61	34401.78
807.79	34633.20
807.97	34067.96
808.15	34170.36
808.33	33611.26
808.51	33672.70
808.69	33912.31
808.87	33283.59
809.05	33435.14
809.23	33273.35
809.41	33173.00
809.59	33064.46
809.77	33420.80
809.95	33193.48
810.13	33062.41
810.31	33035.78
810.49	33426.95
810.67	32876.04
810.84	32949.77
811.02	32763.40
811.20	32652.81
811.38	32896.52
811.56	32618.00
811.74	32507.41
811.92	32316.95
812.10	32493.07
812.28	32462.35
812.46	32187.92
812.64	32271.89
812.82	31964.70
813.00	32095.77
813.18	31780.38
813.36	31780.38
813.53	31432.22
813.71	31680.03
813.89	31979.03
814.07	32093.72
814.25	31825.43
814.43	31952.41
814.61	31329.83
814.79	31213.09
814.97	31133.22
815.15	31393.31
815.33	31014.44
815.50	31104.55
815.68	30791.21
815.86	31075.88
816.04	30670.38
816.22	30524.97
816.40	30686.76
816.58	30932.52
816.76	30252.59
816.94	30379.57
817.11	30479.92
817.29	30539.31
817.47	30649.90
817.65	30291.51
817.83	30252.59
818.01	30084.66
818.19	30062.13
818.37	30385.71
818.54	30037.56
818.72	30172.72
818.90	29972.02
819.08	29824.57
819.26	29607.48
819.44	29412.93
819.62	29828.66
819.80	29881.91
819.97	29523.52
820.15	29380.16
820.33	29677.12
820.51	29539.90
820.69	29468.22
820.87	29464.13
821.05	29636.16
821.22	29152.84
821.40	29531.71
821.58	29054.53
821.76	29089.35
821.94	28915.27
822.12	29070.92
822.29	29288.00
822.47	28991.05
822.65	29275.71
822.83	28835.40
823.01	29009.48
823.19	28833.35
823.36	28710.47
823.54	28546.64
823.72	28515.92
823.90	28386.89
824.08	28292.69
824.25	28485.20
824.43	28251.73
824.61	28319.31
824.79	28728.91
824.97	28022.36
825.15	28560.97
825.32	28376.66
825.50	28096.08
825.68	28104.28
825.86	28448.33
826.04	28325.46
826.21	28016.21
826.39	28161.62
826.57	27930.20
826.75	27797.08
826.93	27543.13
827.10	27674.20
827.28	27584.09
827.46	27829.85
827.64	27801.18
827.81	27493.98
827.99	27827.80
828.17	27215.46
828.35	27240.03
828.53	27280.99
828.70	27670.11
828.88	27250.27
829.06	27295.33
829.24	27319.90
829.41	27115.11
829.59	27352.67
829.77	27168.35
829.95	27414.11
830.12	27262.56
830.30	27096.67
830.48	26992.23
830.66	27078.24
830.84	27053.67
831.01	26977.89
831.19	26748.52
831.37	26566.25
831.55	26644.07
831.72	26605.16
831.90	26259.06
832.08	26453.61
832.25	26392.17
832.43	26529.39
832.61	26222.19
832.79	26111.60
832.96	26293.87
833.14	26336.88
833.32	26588.78
833.50	26508.91
833.67	26291.82
833.85	26271.34
834.03	26052.21
834.20	26060.40
834.38	26148.46
834.56	26289.77
834.74	26132.08
834.91	26031.73
835.09	26242.67
835.27	25611.90
835.44	25794.17
835.62	25314.94
835.80	25321.09
835.98	25861.75
836.15	25523.83
836.33	25540.22
836.51	25679.48
836.68	25601.66
836.86	25472.64
837.04	25601.66
837.21	25548.41
837.39	25845.37
837.57	25810.55
837.75	25501.31
837.92	25194.11
838.10	25261.69
838.28	24942.21
838.45	25310.85
838.63	25083.52
838.81	24921.73
838.98	24860.29
839.16	24956.55
839.34	25060.99
839.51	24819.33
839.69	24714.89
839.87	24905.35
840.04	24645.26
840.22	25149.06
840.40	24694.41
840.57	24465.03
840.75	25052.80
840.93	24321.68
841.10	24460.94
841.28	24702.60
841.46	24583.82
841.63	24565.39
841.81	24467.08
841.98	24612.49
842.16	24460.94
842.34	24487.56
842.51	23996.05
842.69	24665.74
842.87	24475.27
843.04	24290.96
843.22	24354.44
843.40	24049.30
843.57	24184.46
843.75	24276.62
843.92	24309.39
844.10	24200.85
844.28	24090.26
844.45	24364.68
844.63	24297.10
844.81	23963.28
844.98	23981.71
845.16	24100.50
845.33	24041.11
845.51	23799.44
845.69	23875.22
845.86	23547.54
846.04	23731.86
846.21	23688.85
846.39	23793.30
846.57	23475.87
846.74	23551.64
846.92	23441.05
847.09	23539.35
847.27	23375.52
847.45	23482.01
847.62	23635.61
847.80	23439.00
847.97	23432.86
848.15	23551.64
848.32	23252.64
848.50	23193.25
848.68	23023.26
848.85	23123.62
849.03	23094.94
849.20	23391.90
849.38	22941.35
849.56	23185.05
849.73	22820.52
849.91	22996.64
850.08	23283.36
850.26	22943.39
850.43	23013.02
850.61	22628.01
850.78	22582.95
850.96	22752.93
851.14	22644.39
851.31	22851.24
851.49	22689.45
851.66	22664.87
851.84	22881.95
852.01	22797.99
852.19	22720.17
852.36	22595.24
852.54	22378.15
852.71	22603.43
852.89	22396.59
853.07	22388.39
853.24	22802.08
853.42	22449.83
853.59	22333.10
853.77	22548.14
853.94	22445.74
854.12	22722.21
854.29	22302.38
854.47	22335.15
854.64	22193.84
854.82	22279.85
854.99	22527.66
855.17	22150.83
855.34	21956.27
855.52	22269.61
855.69	22292.14
855.87	21921.46
856.04	22142.64
856.22	22091.44
856.39	21528.25
856.57	21749.43
856.74	21788.34
856.92	21968.56
857.09	21751.48
857.27	21954.22
857.44	21903.03
857.62	21862.07
857.79	22101.68
857.97	21644.98
858.14	21907.12
858.32	21311.16
858.49	21477.05
858.67	21489.34
858.84	21587.64
859.02	21755.57
859.19	21649.08
859.37	21173.95
859.54	21477.05
859.72	21569.21
859.89	21294.78
860.06	21663.41
860.24	21544.63
860.41	21403.32
860.59	21345.98
860.76	21270.20
860.94	21092.03
861.11	21431.99
861.29	21239.48
861.46	21061.31
861.64	21044.93
861.81	21253.82
861.98	21032.64
862.16	20891.33
862.33	20651.72
862.51	20657.86
862.68	21116.61
862.86	20649.67
863.03	21018.30
863.21	20821.70
863.38	20827.84
863.55	20659.91
863.73	20932.29
863.90	20760.26
864.08	20668.10
864.25	20909.76
864.43	20371.15
864.60	20389.58
864.77	20211.40
864.95	20436.68
865.12	20371.15
865.30	20451.02
865.47	20483.78
865.64	20371.15
865.82	20582.09
865.99	20463.30
866.17	20391.62
866.34	20430.54
866.51	20084.43
866.69	20637.38
866.86	20526.79
867.04	20147.92
867.21	20397.77
867.38	20109.01
867.56	19961.55
867.73	19951.31
867.91	20174.54
868.08	19951.31
868.25	19535.57
868.43	19912.40
868.60	19715.80
868.78	19693.27
868.95	20141.77
869.12	19615.44
869.30	19723.99
869.47	19805.91
869.64	19488.47
869.82	19803.86
869.99	19664.60
870.16	19998.41
870.34	19324.63
870.51	19732.18
870.69	19259.10
870.86	19543.77
871.03	19584.73
871.21	19484.37
871.38	19441.37
871.55	19222.23
871.73	19347.16
871.90	19152.60
872.07	19375.83
872.25	18900.70
872.42	19216.09
872.59	19128.03
872.77	19101.40
872.94	18951.90
873.11	19078.88
873.29	19101.40
873.46	18867.94
873.63	19076.83
873.81	18982.62
873.98	18591.46
874.15	18839.26
874.33	18761.44
874.50	18599.65
874.67	18654.95
874.85	18822.88
875.02	18620.13
875.19	18616.04
875.37	18429.67
875.54	18497.25
875.71	18546.40
875.88	18357.99
876.06	18515.69
876.23	18142.96
876.40	18585.32
876.58	18271.98
876.75	18222.83
876.92	18003.69
877.10	17989.36
877.27	18134.76
877.44	18050.80
877.61	18087.66
877.79	18120.43
877.96	18020.08
878.13	17727.22
878.31	17905.39
878.48	17958.64
878.65	17979.12
878.82	17508.08
879.00	18038.51
879.17	17940.21
879.34	17772.27
879.51	17630.96
879.69	17704.69
879.86	17633.01
880.03	17563.38
880.21	17729.27
880.38	17579.76
880.55	17809.14
880.72	17483.51
880.90	17473.27
881.07	17503.99
881.24	17534.71
881.41	17475.32
881.59	17317.62
881.76	17356.54
881.93	17331.96
882.10	17202.94
882.28	17118.97
882.45	17297.14
882.62	17145.59
882.79	17338.10
882.96	17004.28
883.14	17182.46
883.31	17102.59
883.48	16963.33
883.65	16920.32
883.83	17133.31
884.00	17215.23
884.17	17141.50
884.34	17073.92
884.51	17014.52
884.69	16998.14
884.86	16930.56
885.03	17127.16
885.20	16717.57
885.38	17125.11
885.55	16836.35
885.72	16910.08
885.89	16858.88
886.06	16772.86
886.24	16686.85
886.41	16748.29
886.58	16555.78
886.75	17129.21
886.92	16756.48
887.10	16744.19
887.27	16555.78
887.44	16609.03
887.61	16977.66
887.78	16801.54
887.95	16537.35
888.13	16647.94
888.30	16617.22
888.47	16531.20
888.64	16557.83
888.81	16428.81
888.99	16387.85
889.16	16273.16
889.33	16303.88
889.50	16221.96
889.67	16226.06
889.84	16080.65
890.01	16490.24
890.19	16541.44
890.36	16283.40
890.53	16049.93
890.70	16228.10
890.87	15869.71
891.04	16015.12
891.22	16066.31
891.39	16064.27
891.56	16027.40
891.73	15828.75
891.90	15800.08
892.07	15939.34
892.24	15820.56
892.42	15869.71
892.59	16054.03
892.76	15679.25
892.93	15912.72
893.10	15990.54
893.27	15914.77
893.44	15836.94
893.61	15451.92
893.79	15879.95
893.96	15734.54
894.13	15806.22
894.30	15898.38
894.47	15728.40
894.64	15812.37
894.81	15644.43
894.98	15714.06
895.15	15812.37
895.33	15648.53
895.50	15443.73
895.67	15820.56
895.84	15816.46
896.01	15781.65
896.18	15728.40
896.35	15677.20
896.52	15429.40
896.69	15525.65
896.86	15666.96
897.04	15828.75
897.21	15619.86
897.38	15691.54
897.55	15527.70
897.72	15783.70
897.89	15580.95
898.06	15707.92
898.23	15795.98
898.40	15638.29
898.57	15539.99
898.74	15433.49
898.91	15820.56
899.08	15574.80
899.26	15546.13
899.43	15490.84
899.60	15507.22
899.77	15578.90
899.94	15460.12
900.11	15355.67
900.28	15453.97
900.45	15611.67
900.62	15316.76
900.79	15544.08
900.96	15644.43
901.13	15310.61
901.30	15570.71
901.47	15527.70
901.64	15709.97
901.81	15740.69
901.98	15392.53
902.15	15761.17
902.32	15251.22
902.49	15298.33
902.66	15675.15
902.83	15531.80
903.01	15474.45
903.18	15619.86
903.35	15662.86
903.52	15363.86
903.69	15439.64
903.86	15529.75
904.03	15548.18
904.20	15564.56
904.37	15494.93
904.54	15570.71
904.71	15470.36
904.88	15593.23
905.05	15163.16
905.22	15468.31
905.39	15316.76
905.56	15374.10
905.73	15283.99
905.90	15650.58
906.07	15472.40
906.24	15212.31
906.41	15382.29
906.58	15587.09
906.75	15353.62
906.92	15234.84
907.09	15523.60
907.26	15542.03
907.43	15197.98
907.60	15286.04
907.77	15374.10
907.93	15523.60
908.10	15492.88
908.27	15439.64
908.44	15234.84
908.61	15052.57
908.78	15236.89
908.95	15148.82
909.12	15361.81
909.29	15654.67
909.46	15232.79
909.63	15597.33
909.80	15507.22
909.97	15288.09
910.14	15273.75
910.31	15429.40
910.48	15361.81
910.65	15460.12
910.82	15322.90
910.99	15423.25
911.16	15329.05
911.33	15189.78
911.50	15281.94
911.66	15163.16
911.83	15228.70
912.00	15132.44
912.17	14851.87
912.34	15171.35
912.51	14864.16
912.68	15150.87
912.85	15015.71
913.02	15105.82
913.19	14872.35
913.36	14833.44
913.53	14847.77
913.70	14759.71
913.86	15089.43
914.03	14745.38
914.20	14569.25
914.37	15021.85
914.54	14681.89
914.71	14835.49
914.88	15013.66
915.05	14944.03
915.22	14630.69
915.39	14708.51
915.55	14567.20
915.72	14528.29
915.89	14559.01
916.06	14636.83
916.23	14499.62
916.40	14298.92
916.57	14501.67
916.74	14327.59
916.91	14200.62
917.07	14184.23
917.24	14139.18
917.41	14128.94
917.58	14300.97
917.75	14108.46
917.92	14139.18
918.09	14059.31
918.26	14057.26
918.42	13889.32
918.59	13975.34
918.76	13786.93
918.93	13625.14
919.10	13811.50
919.27	13924.14
919.44	13817.65
919.60	13692.72
919.77	13870.89
919.94	13516.59
920.11	13721.39
920.28	13653.81
920.45	13498.16
920.61	13373.24
920.78	13522.74
920.95	13444.91
921.12	13451.06
921.29	13344.56
921.46	13428.53
921.62	13246.26
921.79	13223.73
921.96	13213.49
922.13	13274.93
922.30	13190.97
922.47	13160.25
922.63	13100.86
922.80	12904.25
922.97	12908.35
923.14	12672.83
923.31	12922.68
923.47	12783.42
923.64	12715.84
923.81	12955.45
923.98	12701.50
924.15	12521.28
924.32	12554.05
924.48	12476.23
924.65	12470.08
924.82	12363.59
924.99	12455.75
925.15	12259.14
925.32	12480.32
925.49	12185.41
925.66	12130.12
925.83	12271.43
925.99	12123.98
926.16	12203.85
926.33	12234.57
926.50	11849.55
926.67	12025.67
926.83	11775.82
927.00	11945.80
927.17	11743.05
927.34	11659.09
927.50	11593.55
927.67	11847.50
927.84	11595.60
928.01	11503.44
928.17	11497.30
928.34	11603.79
928.51	11362.13
928.68	11329.36
928.84	11452.24
929.01	11386.71
929.18	11306.84
929.35	11077.46
929.51	11210.58
929.68	11075.42
929.85	10975.06
930.02	11061.08
930.18	10948.44
930.35	10975.06
930.52	10749.79
930.69	10864.47
930.85	10852.19
931.02	10753.88
931.19	10764.12
931.36	10786.65
931.52	10610.53
931.69	10622.81
931.86	10631.01
932.02	10485.60
932.19	10553.18
932.36	10260.32
932.53	10469.22
932.69	10389.35
932.86	10256.23
933.03	10264.42
933.19	10196.84
933.36	10192.74
933.53	10139.49
933.70	10047.33
933.86	9920.36
934.03	9793.39
934.20	9686.89
934.36	9856.87
934.53	9711.47
934.70	9547.63
934.86	9482.10
935.03	9277.30
935.20	9283.44
935.36	9492.34
935.53	9375.60
935.70	9293.68
935.86	9424.75
936.03	9064.31
936.20	9039.73
936.36	8861.56
936.53	9074.55
936.70	8847.22
936.86	8781.69
937.03	8689.53
937.20	8578.94
937.36	8632.19
937.53	8441.73
937.70	8314.75
937.86	8062.85
938.03	8251.27
938.20	8195.97
938.36	8079.24
938.53	7948.17
938.70	7755.66
938.86	7872.39
939.03	7804.81
939.20	7741.32
939.36	7616.40
939.53	7581.58
939.70	7483.28
939.86	7296.91
940.03	7180.18
940.19	7184.27
940.36	6999.96
940.53	7069.59
940.69	6852.50
940.86	6891.41
941.03	6655.90
941.19	6627.23
941.36	6635.42
941.52	6711.19
941.69	6317.98
941.86	6416.29
942.02	6418.33
942.19	6401.95
942.35	6350.75
942.52	6260.64
942.69	6231.97
942.85	6115.23
943.02	6096.80
943.18	6033.32
943.35	6041.51
943.52	5889.96
943.68	5926.82
943.85	5951.40
944.01	5943.21
944.18	5783.46
944.35	5973.92
944.51	5754.79
944.68	5631.91
944.84	5750.70
945.01	5619.63
945.17	5689.26
945.34	5681.07
945.51	5719.98
945.67	5509.04
945.84	5599.15
946.00	5484.46
946.17	5492.65
946.33	5459.88
946.50	5707.69
946.67	5588.91
946.83	5494.70
947.00	5564.33
947.16	5406.64
947.33	5431.21
947.49	5463.98
947.66	5484.46
947.82	5537.71
947.99	5330.86
948.16	5400.49
948.32	5349.29
948.49	5427.12
948.65	5513.13
948.82	5466.03
948.98	5480.36
949.15	5324.72
949.31	5554.09
949.48	5390.25
949.64	5390.25
949.81	5472.17
949.97	5463.98
950.14	5515.18
950.30	5541.80
950.47	5566.38
950.63	5463.98
950.80	5449.64
950.96	5668.78
951.13	5443.50
951.30	5511.08
951.46	5640.11
951.63	5595.05
951.79	5586.86
951.96	5541.80
952.12	5541.80
952.29	5666.73
952.45	5541.80
952.62	5478.32
952.78	5584.81
952.94	5451.69
953.11	5582.76
953.27	5404.59
953.44	5715.88
953.60	5742.50
953.77	5705.64
953.93	5593.00
954.10	5541.80
954.26	5734.31
954.43	5615.53
954.59	5650.35
954.76	5691.31
954.92	5644.20
955.09	5599.15
955.25	5656.49
955.42	5740.46
955.58	5769.13
955.75	5775.27
955.91	5607.34
956.07	5623.72
956.24	5744.55
956.40	5814.18
956.57	5699.50
956.73	5650.35
956.90	5697.45
957.06	5687.21
957.23	5640.11
957.39	5500.84
957.56	5611.43
957.72	5545.90
957.88	5558.19
958.05	5619.63
958.21	5820.33
958.38	5656.49
958.54	5539.76
958.71	5679.02
958.87	5588.91
959.03	5595.05
959.20	5658.54
959.36	5652.39
959.53	5691.31
959.69	5550.00
959.85	5533.61
960.02	5558.19
960.18	5603.24
960.35	5584.81
960.51	5670.83
960.68	5609.39
960.84	5687.21
961.00	5625.77
961.17	5511.08
961.33	5701.54
961.50	5679.02
961.66	5713.83
961.82	5590.95
961.99	5679.02
962.15	5640.11
962.31	5689.26
962.48	5580.71
962.64	5664.68
962.81	5670.83
962.97	5656.49
963.13	5703.59
963.30	5672.87
963.46	5543.85
963.62	5478.32
963.79	5726.12
963.95	5517.23
964.12	5451.69
964.28	5654.44
964.44	5455.79
964.61	5529.52
964.77	5580.71
964.93	5593.00
965.10	5384.11
965.26	5533.61
965.42	5396.40
965.59	5427.12
965.75	5599.15
965.92	5537.71
966.08	5445.55
966.24	5445.55
966.41	5517.23
966.57	5521.32
966.73	5609.39
966.90	5531.56
967.06	5365.68
967.22	5398.45
967.39	5345.20
967.55	5461.93
967.71	5427.12
967.88	5328.81
968.04	5418.93
968.20	5353.39
968.37	5236.66
968.53	5345.20
968.69	5248.94
968.85	5494.70
969.02	5382.06
969.18	5357.49
969.34	5339.05
969.51	5523.37
969.67	5384.11
969.83	5236.66
970.00	5472.17
970.16	5234.61
970.32	5359.53
970.48	5328.81
970.65	5302.19
970.81	5081.01
970.97	5179.31
971.14	5048.24
971.30	5337.01
971.46	5203.89
971.63	5353.39
971.79	5218.22
971.95	5195.70
972.11	5191.60
972.28	5189.55
972.44	5210.03
972.60	5068.72
972.76	5214.13
972.93	5033.91
973.09	5179.31
973.25	5062.58
973.42	5158.83
973.58	5103.54
973.74	5042.10
973.90	5003.19
974.07	4997.04
974.23	5011.38
974.39	5097.39
974.55	4962.23
974.72	4951.99
974.88	4861.88
975.04	4931.51
975.20	4945.84
975.37	4874.17
975.53	4835.25
975.69	4978.61
975.85	4894.65
976.01	4960.18
976.18	4868.02
976.34	4925.36
976.50	4865.97
976.66	4868.02
976.83	4786.10
976.99	4855.73
977.15	4849.59
977.31	4681.66
977.47	4876.21
977.64	4677.56
977.80	4671.42
977.96	4747.19
978.12	4835.25
978.29	4722.62
978.45	4544.44
978.61	4730.81
978.77	4786.10
978.93	4589.50
979.10	4724.66
979.26	4597.69
979.42	4806.58
979.58	4591.55
979.74	4751.29
979.91	4472.76
980.07	4468.67
980.23	4526.01
980.39	4521.92
980.55	4583.35
980.71	4503.48
980.88	4558.78
981.04	4349.89
981.20	4509.63
981.36	4503.48
981.52	4485.05
981.68	4474.81
981.85	4569.02
982.01	4437.95
982.17	4325.31
982.33	4468.67
982.49	4483.00
982.65	4255.68
982.82	4417.47
982.98	4349.89
983.14	4419.52
983.30	4394.94
983.46	4548.54
983.62	4374.46
983.79	4327.36
983.95	4284.35
984.11	4298.69
984.27	4218.82
984.43	4196.29
984.59	4274.11
984.75	4347.84
984.91	4310.97
985.08	4261.82
985.24	4292.54
985.40	4196.29
985.56	4351.93
985.72	4298.69
985.88	4265.92
986.04	4173.76
986.20	4091.84
986.37	4208.58
986.53	4069.31
986.69	4145.09
986.85	4093.89
987.01	4157.38
987.17	4222.91
987.33	4067.27
987.49	4054.98
987.65	4145.09
987.82	4091.84
987.98	4014.02
988.14	4036.55
988.30	4116.42
988.46	3946.44
988.62	4052.93
988.78	4067.27
988.94	3987.40
989.10	3993.54
989.26	3962.82
989.42	3960.77
989.59	3985.35
989.75	3975.11
989.91	3893.19
990.07	3796.93
990.23	3987.40
990.39	3891.14
990.55	3893.19
990.71	3868.61
990.87	3932.10
991.03	3925.96
991.19	3741.64
991.35	3903.43
991.51	3919.81
991.67	4022.21
991.83	3784.65
992.00	3868.61
992.16	3923.91
992.32	3833.80
992.48	3844.04
992.64	3635.14
992.80	3852.23
992.96	3762.12
993.12	3770.31
993.28	3841.99
993.44	3733.45
993.60	3772.36
993.76	3674.06
993.92	3702.73
994.08	3772.36
994.24	3737.54
994.40	3661.77
994.56	3780.55
994.72	3635.14
994.88	3667.91
995.04	3542.99
995.20	3669.96
995.36	3702.73
995.52	3676.10
995.68	3534.79
995.84	3575.75
996.00	3708.87
996.16	3510.22
996.32	3547.08
996.48	3508.17
996.64	3678.15
996.80	3510.22
996.96	3459.02
997.12	3426.25
997.28	3579.85
997.44	3397.58
997.60	3497.93
997.76	3432.40
997.92	3395.53
998.08	3389.39
998.24	3297.23
998.40	3403.72
998.56	3518.41
998.72	3391.44
998.88	3252.17
999.04	3481.55
999.20	3481.55
999.36	3264.46
999.52	3481.55
999.68	3411.92
999.84	3387.34
1000.00	3448.78
1000.16	3413.96
1000.32	3252.17
1000.48	3456.97
1000.64	3200.98
1000.80	3317.71
1000.95	3178.45
1001.11	3272.65
1001.27	3125.20
1001.43	3375.05
1001.59	3180.50
1001.75	3209.17
1001.91	3248.08
1002.07	3198.93
1002.23	3168.21
1002.39	3112.91
1002.55	3239.89
1002.71	3114.96
1002.87	3129.30
1003.03	3100.62
1003.19	3162.06
1003.34	3176.40
1003.50	3235.79
1003.66	3221.45
1003.82	3174.35
1003.98	3157.97
1004.14	3190.74
1004.30	3096.53
1004.46	3047.38
1004.62	3094.48
1004.78	2987.99
1004.94	3127.25
1005.09	3098.58
1005.25	3024.85
1005.41	3010.51
1005.57	3002.32
1005.73	3043.28
1005.89	2916.31
1006.05	3041.23
1006.21	3061.71
1006.37	2961.36
1006.52	2992.08
1006.68	2914.26
1006.84	3088.34
1007.00	2856.92
1007.16	2985.94
1007.32	2873.30
1007.48	2912.21
1007.64	2883.54
1007.79	2961.36
1007.95	2799.57
1008.11	2957.27
1008.27	2899.92
1008.43	2828.24
1008.59	2846.68
1008.75	2922.45
1008.91	2983.89
1009.06	2805.72
1009.22	3010.51
1009.38	2904.02
1009.54	2947.03
1009.70	2799.57
1009.86	2740.18
1010.01	2809.81
1010.17	2721.75
1010.33	2848.72
1010.49	2815.96
1010.65	2789.33
1010.81	2760.66
1010.96	2783.19
1011.12	2746.33
1011.28	2789.33
1011.44	2768.85
1011.60	2777.05
1011.76	2662.36
1011.91	2807.77
1012.07	2672.60
1012.23	2725.85
1012.39	2791.38
1012.55	2789.33
1012.71	2629.59
1012.86	2684.89
1013.02	2656.22
1013.18	2744.28
1013.34	2580.44
1013.50	2617.30
1013.65	2656.22
1013.81	2621.40
1013.97	2678.74
1014.13	2617.30
1014.29	2562.01
1014.44	2711.51
1014.60	2566.10
1014.76	2615.26
1014.92	2613.21
1015.07	2519.00
1015.23	2684.89
1015.39	2459.61
1015.55	2580.44
1015.71	2615.26
1015.86	2523.10
1016.02	2535.39
1016.18	2439.13
1016.34	2510.81
1016.49	2498.52
1016.65	2594.78
1016.81	2588.63
1016.97	2461.66
1017.12	2582.49
1017.28	2420.70
1017.44	2523.10
1017.60	2432.99
1017.75	2437.08
1017.91	2570.20
1018.07	2562.01
1018.23	2424.80
1018.38	2414.56
1018.54	2471.90
1018.70	2412.51
1018.86	2377.69
1019.01	2422.75
1019.17	2449.37
1019.33	2510.81
1019.49	2344.92
1019.64	2506.71
1019.80	2326.49
1019.96	2492.38
1020.12	2400.22
1020.27	2377.69
1020.43	2416.60
1020.59	2473.95
1020.74	2432.99
1020.90	2459.61
1021.06	2365.40
1021.22	2404.32
1021.37	2359.26
1021.53	2351.07
1021.69	2344.92
1021.84	2271.20
1022.00	2326.49
1022.16	2256.86
1022.31	2371.55
1022.47	2324.44
1022.63	2359.26
1022.79	2172.89
1022.94	2285.53
1023.10	2459.61
1023.26	2252.77
1023.41	2189.28
1023.57	2234.33
1023.73	2312.16
1023.88	2254.81
1024.04	2289.63
1024.20	2234.33
1024.35	2207.71
1024.51	2318.30
1024.67	2252.77
1024.82	2248.67
1024.98	2209.76
1025.14	2277.34
1025.29	2220.00
1025.45	2295.77
1025.61	2174.94
1025.76	2256.86
1025.92	2199.52
1026.08	2138.08
1026.23	2138.08
1026.39	2256.86
1026.55	2146.27
1026.70	2232.29
1026.86	2136.03
1027.02	2260.96
1027.17	2244.57
1027.33	2234.33
1027.48	2090.98
1027.64	2207.71
1027.80	2119.65
1027.95	2162.66
1028.11	2062.30
1028.27	2107.36
1028.42	2224.09
1028.58	2148.32
1028.73	2039.78
1028.89	1972.19
1029.05	2181.09
1029.20	2168.80
>>>>>End Processed Spectral Data<<<<<
