SpectraSuite Data File
++++++++++++++++++++++++++++++++++++
Date: Fri Jun 02 14:52:27 CEST 2017
User: INFO_000
Dark Spectrum Present: No
Reference Spectrum Present: No
Number of Sampled Component Spectra: 1
Spectrometers: USB4H00879
Integration Time (usec): 80000 (USB4H00879)
Spectra Averaged: 1 (USB4H00879)
Boxcar Smoothing: 0 (USB4H00879)
Correct for Electrical Dark: No (USB4H00879)
Strobe/Lamp Enabled: No (USB4H00879)
Correct for Detector Non-linearity: No (USB4H00879)
Correct for Stray Light: No (USB4H00879)
Number of Pixels in Processed Spectrum: 3648
>>>>>Begin Processed Spectral Data<<<<<
345.13	1302.51
345.34	1302.51
345.56	1302.51
345.78	1290.22
345.99	1320.94
346.21	1667.05
346.42	1685.48
346.64	1609.70
346.86	1816.55
347.07	1642.47
347.29	1738.73
347.50	1607.66
347.72	1685.48
347.94	1695.72
348.15	1650.66
348.37	1601.51
348.59	1656.81
348.80	1671.14
349.02	1710.05
349.23	1888.23
349.45	1837.03
349.67	1873.89
349.88	1859.56
350.10	1918.95
350.31	1886.18
350.53	1773.54
350.75	1896.42
350.96	1806.31
351.18	1832.93
351.39	1873.89
351.61	1787.88
351.82	1918.95
352.04	1855.46
352.26	1798.12
352.47	1861.60
352.69	1855.46
352.90	1810.40
353.12	1890.28
353.34	1777.64
353.55	1945.57
353.77	1880.04
353.98	1855.46
354.20	1916.90
354.41	1953.76
354.63	1966.05
354.85	1961.95
355.06	1914.85
355.28	1851.36
355.49	1873.89
355.71	1890.28
355.92	1830.88
356.14	1925.09
356.35	1886.18
356.57	1871.84
356.79	2009.06
357.00	1914.85
357.22	1943.52
357.43	1875.94
357.65	1937.38
357.86	1877.99
358.08	1941.47
358.29	1920.99
358.51	2029.54
358.72	2002.91
358.94	1961.95
359.16	1961.95
359.37	1951.71
359.59	1943.52
359.80	2007.01
360.02	1976.29
360.23	2074.59
360.45	2066.40
360.66	1970.15
360.88	1953.76
361.09	1951.71
361.31	2050.02
361.52	1951.71
361.74	2119.65
361.95	2201.57
362.17	1968.10
362.38	2078.69
362.60	2031.58
362.81	2029.54
363.03	1904.61
363.24	2039.78
363.46	2097.12
363.67	2078.69
363.89	2047.97
364.10	2086.88
364.32	2007.01
364.53	2033.63
364.75	1951.71
364.96	2078.69
365.18	2058.21
365.39	2002.91
365.61	2011.11
365.82	2164.70
366.04	2025.44
366.25	1980.39
366.47	2050.02
366.68	2045.92
366.90	2056.16
367.11	2066.40
367.33	2127.84
367.54	2140.13
367.76	1980.39
367.97	2099.17
368.19	1994.72
368.40	2119.65
368.62	1996.77
368.83	2068.45
369.05	2107.36
369.26	2066.40
369.48	1906.66
369.69	1925.09
369.91	2109.41
370.12	2041.82
370.33	2187.23
370.55	2011.11
370.76	2019.30
370.98	2068.45
371.19	2047.97
371.41	2058.21
371.62	2054.11
371.84	1982.43
372.05	2168.80
372.27	2050.02
372.48	2113.50
372.69	2131.94
372.91	2162.66
373.12	2185.18
373.34	2111.46
373.55	2103.26
373.77	2207.71
373.98	2082.78
374.20	2136.03
374.41	2217.95
374.62	2084.83
374.84	2185.18
375.05	2170.85
375.27	2195.42
375.48	2215.90
375.70	2230.24
375.91	2236.38
376.12	2240.48
376.34	2133.98
376.55	2172.89
376.77	2179.04
376.98	2136.03
377.19	2142.18
377.41	2160.61
377.62	2181.09
377.84	2299.87
378.05	2361.31
378.27	2166.75
378.48	2355.16
378.69	2322.40
378.91	2373.60
379.12	2217.95
379.34	2199.52
379.55	2303.96
379.76	2301.92
379.98	2310.11
380.19	2189.28
380.41	2320.35
380.62	2217.95
380.83	2252.77
381.05	2242.53
381.26	2422.75
381.47	2256.86
381.69	2316.25
381.90	2432.99
382.12	2400.22
382.33	2303.96
382.54	2295.77
382.76	2226.14
382.97	2351.07
383.19	2232.29
383.40	2318.30
383.61	2320.35
383.83	2234.33
384.04	2318.30
384.25	2424.80
384.47	2465.75
384.68	2400.22
384.89	2277.34
385.11	2324.44
385.32	2387.93
385.54	2324.44
385.75	2494.43
385.96	2424.80
386.18	2465.75
386.39	2418.65
386.60	2355.16
386.82	2363.36
387.03	2432.99
387.24	2488.28
387.46	2383.84
387.67	2506.71
387.88	2615.26
388.10	2480.09
388.31	2414.56
388.52	2553.82
388.74	2594.78
388.95	2486.23
389.16	2500.57
389.38	2512.86
389.59	2617.30
389.80	2637.78
390.02	2586.58
390.23	2686.94
390.44	2625.50
390.66	2564.06
390.87	2531.29
391.08	2641.88
391.30	2803.67
391.51	2721.75
391.72	2705.37
391.94	2568.15
392.15	2680.79
392.36	2684.89
392.58	2668.50
392.79	2731.99
393.00	2713.56
393.22	2807.77
393.43	2789.33
393.64	2787.29
393.85	2768.85
394.07	2717.65
394.28	2873.30
394.49	2721.75
394.71	2820.05
394.92	2879.44
395.13	2744.28
395.35	2834.39
395.56	2770.90
395.77	2805.72
395.98	2830.29
396.20	2887.64
396.41	2865.11
396.62	2904.02
396.84	2885.59
397.05	2920.40
397.26	2854.87
397.47	2996.18
397.69	2987.99
397.90	3055.57
398.11	2944.98
398.32	2920.40
398.54	3018.71
398.75	3008.47
398.96	3016.66
399.18	3092.43
399.39	2977.75
399.60	3069.91
399.81	2924.50
400.03	2992.08
400.24	3340.24
400.45	2987.99
400.66	3217.36
400.88	3119.06
401.09	3184.59
401.30	3094.48
401.51	3176.40
401.73	3125.20
401.94	3250.13
402.15	3178.45
402.36	3184.59
402.58	3106.77
402.79	3268.56
403.00	3157.97
403.21	3194.83
403.43	3256.27
403.64	3248.08
403.85	3080.14
404.06	3305.42
404.27	3131.34
404.49	3170.26
404.70	3166.16
404.91	3330.00
405.12	3358.67
405.34	3268.56
405.55	3438.54
405.76	3160.02
405.97	3248.08
406.19	3348.43
406.40	3338.19
406.61	3405.77
406.82	3389.39
407.03	3284.94
407.25	3237.84
407.46	3405.77
407.67	3561.42
407.88	3450.83
408.09	3436.49
408.31	3268.56
408.52	3534.79
408.73	3227.60
408.94	3325.90
409.15	3454.92
409.37	3555.27
409.58	3465.16
409.79	3418.06
410.00	3504.07
410.21	3514.31
410.43	3606.47
410.64	3379.15
410.85	3596.23
411.06	3555.27
411.27	3575.75
411.48	3620.81
411.70	3678.15
411.91	3590.09
412.12	3682.25
412.33	3585.99
412.54	3639.24
412.76	3786.69
412.97	3700.68
413.18	3678.15
413.39	3590.09
413.60	3739.59
413.81	3729.35
414.03	3770.31
414.24	3688.39
414.45	3821.51
414.66	3604.42
414.87	3780.55
415.08	3702.73
415.30	3790.79
415.51	3903.43
415.72	3755.97
415.93	3712.97
416.14	3811.27
416.35	3803.08
416.56	3911.62
416.78	3815.37
416.99	3760.07
417.20	3846.09
417.41	3964.87
417.62	3903.43
417.83	3901.38
418.04	3971.01
418.26	3911.62
418.47	3919.81
418.68	3960.77
418.89	4016.07
419.10	4042.69
419.31	4065.22
419.52	4157.38
419.73	4018.11
419.95	4126.66
420.16	4136.90
420.37	4042.69
420.58	4120.51
420.79	4005.83
421.00	4212.67
421.21	4157.38
421.42	4132.80
421.63	4149.18
421.85	4235.20
422.06	4364.22
422.27	4181.95
422.48	4186.05
422.69	4378.56
422.90	4331.45
423.11	4270.01
423.32	4390.84
423.53	4601.79
423.75	4403.13
423.96	4478.91
424.17	4378.56
424.38	4458.43
424.59	4497.34
424.80	4706.23
425.01	4460.48
425.22	4472.76
425.43	4501.44
425.64	4747.19
425.85	4689.85
426.06	4689.85
426.28	4669.37
426.49	4532.15
426.70	4616.12
426.91	4739.00
427.12	4665.27
427.33	4759.48
427.54	4655.03
427.75	4870.07
427.96	4949.94
428.17	4898.74
428.38	4913.08
428.59	4954.04
428.80	4808.63
429.01	4997.04
429.23	4966.32
429.44	5042.10
429.65	5185.46
429.86	5054.39
430.07	5060.53
430.28	4974.52
430.49	5048.24
430.70	5337.01
430.91	5244.85
431.12	5124.02
431.33	5353.39
431.54	5246.90
431.75	5330.86
431.96	5322.67
432.17	5164.98
432.38	5267.38
432.59	5537.71
432.80	5392.30
433.01	5316.53
433.22	5322.67
433.43	5437.36
433.64	5361.58
433.85	5386.16
434.06	5547.95
434.27	5380.01
434.49	5347.25
434.70	5640.11
434.91	5558.19
435.12	5758.89
435.33	5601.19
435.54	5621.67
435.75	5545.90
435.96	5619.63
436.17	5554.09
436.38	5863.33
436.59	5728.17
436.80	5840.81
437.01	5916.58
437.22	5853.09
437.43	5851.05
437.64	5582.76
437.85	6035.36
438.06	5922.73
438.27	5822.38
438.48	5863.33
438.69	6006.69
438.90	5918.63
439.11	5906.34
439.32	6113.19
439.53	5943.21
439.74	6068.13
439.95	6037.41
440.16	5900.20
440.37	6223.78
440.57	5969.83
440.78	6164.39
440.99	6166.43
441.20	6139.81
441.41	6119.33
441.62	6270.88
441.83	6096.80
442.04	6274.98
442.25	6227.87
442.46	6203.30
442.67	6383.52
442.88	6799.26
443.09	6117.28
443.30	6326.18
443.51	6397.85
443.72	6651.80
443.93	6401.95
444.14	6473.63
444.35	6291.36
444.56	6541.21
444.77	6334.37
444.98	6557.60
445.19	6502.30
445.40	6440.86
445.61	6518.68
445.81	6659.99
446.02	6705.05
446.23	6580.12
446.44	6393.76
446.65	6690.71
446.86	6655.90
447.07	6627.23
447.28	6780.82
447.49	6627.23
447.70	6614.94
447.91	6883.22
448.12	6784.92
448.33	6995.86
448.54	6834.07
448.74	6815.64
448.95	6752.15
449.16	6698.91
449.37	7051.16
449.58	6834.07
449.79	7057.30
450.00	6836.12
450.21	6909.85
450.42	7036.82
450.63	6971.29
450.84	7032.72
451.05	7151.51
451.25	7194.51
451.46	7128.98
451.67	7212.95
451.88	7239.57
452.09	7139.22
452.30	7192.47
452.51	7186.32
452.72	7249.81
452.93	7640.97
453.13	7290.77
453.34	7235.47
453.55	7317.39
453.76	7442.32
453.97	7778.19
454.18	7550.86
454.39	7569.29
454.60	7395.22
454.81	7554.96
455.01	7614.35
455.22	7405.46
455.43	7595.92
455.64	7700.36
455.85	7866.25
456.06	8011.65
456.27	7950.21
456.48	7733.13
456.68	8032.13
456.89	7835.53
457.10	7954.31
457.31	8177.54
457.52	7952.26
457.73	8085.38
457.94	8169.35
458.14	8052.61
458.35	8408.96
458.56	8277.89
458.77	7958.41
458.98	8372.10
459.19	8427.39
459.39	8234.88
459.60	8488.83
459.81	8468.35
460.02	8523.65
460.23	8517.50
460.44	8824.70
460.65	8785.79
460.85	8699.77
461.06	8767.35
461.27	8601.47
461.48	8822.65
461.69	9049.97
461.89	8888.18
462.10	8986.49
462.31	8603.52
462.52	8968.06
462.73	9039.73
462.94	9189.24
463.14	9138.04
463.35	9054.07
463.56	9641.84
463.77	9521.01
463.98	9375.60
464.18	9338.74
464.39	9492.34
464.60	9664.36
464.81	9664.36
465.02	9506.67
465.23	9801.58
465.43	9492.34
465.64	9914.22
465.85	9766.76
466.06	9658.22
466.27	10096.49
466.47	10037.09
466.68	10030.95
466.89	10205.03
467.10	10442.59
467.30	9932.65
467.51	10184.55
467.72	10530.66
467.93	10170.21
468.14	10579.81
468.34	10694.49
468.55	10620.77
468.76	10680.16
468.97	10510.18
469.17	10977.11
469.38	10866.52
469.59	10817.37
469.80	10760.03
470.01	10903.39
470.21	11050.84
470.42	11204.44
470.63	11337.56
470.84	11241.30
471.04	11398.99
471.25	11589.46
471.46	11374.42
471.67	11757.39
471.87	11597.65
472.08	11749.20
472.29	11953.99
472.50	11650.89
472.70	12031.82
472.91	11970.38
473.12	12037.96
473.33	12298.05
473.53	12287.81
473.74	12150.60
473.95	12402.50
474.16	12558.14
474.36	12691.26
474.57	12633.92
474.78	12932.92
474.99	12812.09
475.19	12758.85
475.40	12930.87
475.61	13397.81
475.81	13432.63
476.02	13475.63
476.23	13520.69
476.44	13543.22
476.64	13621.04
476.85	13889.32
477.06	13889.32
477.27	13995.82
477.47	14061.35
477.68	13997.87
477.89	14075.69
478.09	14290.73
478.30	14370.60
478.51	14532.39
478.71	14935.84
478.92	14706.46
479.13	14735.14
479.34	15120.15
479.54	15062.81
479.75	15087.39
479.96	15097.63
480.16	15214.36
480.37	15281.94
480.58	15398.68
480.78	15773.46
480.99	15560.47
481.20	16054.03
481.41	15879.95
481.61	15910.67
481.82	16271.11
482.03	15916.81
482.23	16260.87
482.44	16637.70
482.65	16459.52
482.85	16412.42
483.06	16566.02
483.27	16602.88
483.47	16656.13
483.68	16557.83
483.89	17024.76
484.09	17143.55
484.30	17327.86
484.51	17340.15
484.71	17569.52
484.92	17215.23
485.13	17653.49
485.33	17762.03
485.54	17553.14
485.75	18145.00
485.95	18028.27
486.16	18001.65
486.37	18521.83
486.57	18028.27
486.78	18386.66
486.98	18249.45
487.19	18667.24
487.40	18650.85
487.60	18491.11
487.81	19031.77
488.02	18894.56
488.22	18845.41
488.43	19064.54
488.64	18910.94
488.84	19285.72
489.05	19459.80
489.25	19242.71
489.46	19715.80
489.67	19365.59
489.87	19680.98
490.08	19842.77
490.29	19857.10
490.49	20422.34
490.70	20244.17
490.90	20281.03
491.11	20248.27
491.32	20496.07
491.52	20383.43
491.73	20340.43
491.94	20682.44
492.14	20614.85
492.35	20782.79
492.55	20752.07
492.76	21208.76
492.97	21294.78
493.17	21253.82
493.38	21348.03
493.58	21255.87
493.79	21651.13
494.00	21429.94
494.20	21671.61
494.41	21937.84
494.61	21782.20
494.82	21825.20
495.02	21831.35
495.23	22093.49
495.44	22275.76
495.64	21876.40
495.85	22081.20
496.05	22218.41
496.26	22130.35
496.47	22621.86
496.67	22406.83
496.88	22863.52
497.08	22654.63
497.29	22961.83
497.49	22996.64
497.70	22984.35
497.91	22841.00
498.11	23232.16
498.32	23033.50
498.52	23119.52
498.73	23735.96
498.93	23207.58
499.14	23254.69
499.34	23365.28
499.55	23436.95
499.76	23545.50
499.96	23946.90
500.17	23914.13
500.37	23764.63
500.58	23635.61
500.78	23955.09
500.99	23848.60
501.19	24250.00
501.40	23879.32
501.60	24002.19
501.81	24137.36
502.02	23961.23
502.22	24030.87
502.43	24508.04
502.63	24434.32
502.84	24751.75
503.04	24338.06
503.25	24536.71
503.45	24682.12
503.66	24573.58
503.86	24624.78
504.07	25206.40
504.27	24727.17
504.48	24962.69
504.68	24794.76
504.89	25126.53
505.09	24966.79
505.30	25384.57
505.50	25284.22
505.71	25218.69
505.91	25210.50
506.12	25575.03
506.32	25695.86
506.53	25249.41
506.73	25777.78
506.94	25489.02
507.14	25693.82
507.35	25976.44
507.55	25896.56
507.76	25702.01
507.96	25634.42
508.17	25941.62
508.37	25943.67
508.58	26125.94
508.78	26044.02
508.99	26400.37
509.19	26185.33
509.40	26134.13
509.60	26664.55
509.81	26386.03
510.01	26365.55
510.22	26318.45
510.42	26205.81
510.63	26414.70
510.83	26541.68
511.04	26953.32
511.24	26592.87
511.44	26701.42
511.65	26775.14
511.85	26693.22
512.06	26803.82
512.26	26912.36
512.47	27022.95
512.67	26977.89
512.88	26842.73
513.08	26965.60
513.29	27121.25
513.49	26916.45
513.69	27090.53
513.90	27184.74
514.10	27389.53
514.31	27377.25
514.51	27410.01
514.72	27248.22
514.92	27440.73
515.13	27508.32
515.33	27565.66
515.53	27698.78
515.74	27989.59
515.94	27887.19
516.15	27905.62
516.35	27649.63
516.56	28067.41
516.76	27897.43
516.96	27895.38
517.17	28286.54
517.37	27928.15
517.58	28165.71
517.78	28417.61
517.99	28278.35
518.19	28309.07
518.39	28507.72
518.60	28720.71
518.80	28796.49
519.01	28622.41
519.21	28716.62
519.41	28829.26
519.62	28624.46
519.82	28952.13
520.03	29167.17
520.23	28997.19
520.43	28884.55
520.64	29550.14
520.84	29724.22
521.05	29531.71
521.25	29419.07
521.45	29500.99
521.66	29460.03
521.86	29642.30
522.07	29505.09
522.27	29646.40
522.47	29417.02
522.68	30017.08
522.88	29701.69
523.08	30225.97
523.29	30283.31
523.49	30565.93
523.70	30193.20
523.90	30766.63
524.10	30207.54
524.31	30354.99
524.51	30492.21
524.71	30848.55
524.92	30445.10
525.12	30926.38
525.33	30934.57
525.53	30899.75
525.73	31264.29
525.94	31352.35
526.14	31041.06
526.34	31395.36
526.55	31299.11
526.75	31510.05
526.95	31938.07
527.16	31612.45
527.36	31671.84
527.56	32071.19
527.77	32288.28
527.97	32009.75
528.17	32038.42
528.38	32534.03
528.58	32380.43
528.78	32511.50
528.99	32622.09
529.19	33113.61
529.39	32656.91
529.60	32933.39
529.80	33140.23
530.00	32939.53
530.21	33209.86
530.41	33109.51
530.61	33175.05
530.82	33302.02
531.02	33216.01
531.22	33222.15
531.43	33785.34
531.63	33895.93
531.83	34098.68
532.04	34203.13
532.24	33922.55
532.44	34864.62
532.64	34850.28
532.85	34387.44
533.05	34625.01
533.25	34995.69
533.46	34688.49
533.66	35087.85
533.86	35030.51
534.07	35407.33
534.27	35266.02
534.47	35519.97
534.67	35669.47
534.88	35648.99
535.08	35814.88
535.28	35562.98
535.49	35943.90
535.69	36279.77
535.89	36085.21
536.09	36236.76
536.30	36300.25
536.50	36128.22
536.70	36363.73
536.91	36736.46
537.11	36527.57
537.31	36802.00
537.51	36924.88
537.72	37074.38
537.92	37352.90
538.12	37748.16
538.32	37301.70
538.53	37397.96
538.73	37631.43
538.93	37639.62
539.13	37672.39
539.34	37993.92
539.54	37438.92
539.74	37817.79
539.94	38004.16
540.15	38014.40
540.35	38450.61
540.55	38163.90
540.75	38389.17
540.96	38796.72
541.16	38632.88
541.36	38694.32
541.56	38591.92
541.77	39038.38
541.97	39052.72
542.17	38938.03
542.37	39255.46
542.58	39017.90
542.78	39433.64
542.98	39474.60
543.18	39423.40
543.38	39847.33
543.59	39450.02
543.79	39892.38
543.99	39476.65
544.19	40162.72
544.40	39986.59
544.60	40478.10
544.80	40045.98
545.00	40365.46
545.20	40476.05
545.41	40457.62
545.61	40293.79
545.81	40715.67
546.01	40674.71
546.21	40660.37
546.42	40496.53
546.62	40977.81
546.82	40793.49
547.02	40828.30
547.22	41088.40
547.43	41139.60
547.63	41248.14
547.83	41371.02
548.03	40793.49
548.23	41450.89
548.44	41657.73
548.64	41645.44
548.84	41661.83
549.04	41442.70
549.24	41690.50
549.45	41852.29
549.65	41745.80
549.85	41985.41
550.05	42001.79
550.25	41858.43
550.45	42491.26
550.66	41962.88
550.86	41899.39
551.06	42343.80
551.26	42478.97
551.46	42759.54
551.66	42335.61
551.87	42532.22
552.07	42587.51
552.27	42343.80
552.47	42521.98
552.67	42554.74
552.87	42571.13
553.07	42880.37
553.28	42911.09
553.48	42943.86
553.68	43195.76
553.88	43048.30
554.08	43040.11
554.28	43142.51
554.48	42880.37
554.69	43545.96
554.89	43277.68
555.09	43068.78
555.29	43165.04
555.49	43412.84
555.69	43537.77
555.89	43406.70
556.10	43701.61
556.30	43570.54
556.50	43883.87
556.70	43720.04
556.90	44193.12
557.10	43926.88
557.30	43480.42
557.50	43785.57
557.70	44055.90
557.91	44215.65
558.11	43844.96
558.31	44219.74
558.51	43791.72
558.71	43818.34
558.91	44303.71
559.11	43863.39
559.31	44438.87
559.51	44229.98
559.72	43996.51
559.92	44332.38
560.12	44551.51
560.32	44287.32
560.52	44086.62
560.72	44316.00
560.92	44500.31
561.12	44397.91
561.32	44856.66
561.52	44504.41
561.72	44604.76
561.93	44445.02
562.13	44449.11
562.33	44457.31
562.53	45219.15
562.73	44592.47
562.93	44705.11
563.13	44615.00
563.33	45167.95
563.53	44807.51
563.73	44463.45
563.93	44694.87
564.13	45374.80
564.33	44883.28
564.53	44971.35
564.74	45143.38
564.94	45124.94
565.14	45378.89
565.34	44731.73
565.54	44846.42
565.74	44936.53
565.94	45083.98
566.14	45100.37
566.34	45131.09
566.54	45401.42
566.74	44916.05
566.94	45540.68
567.14	45061.46
567.34	45350.22
567.54	45409.61
567.74	45419.85
567.94	45301.07
568.14	45395.28
568.34	45823.30
568.54	45258.06
568.74	45536.59
568.94	45452.62
569.14	45905.22
569.34	45456.71
569.54	45587.78
569.75	45534.54
569.95	45813.06
570.15	45663.56
570.35	45716.81
570.55	45456.71
570.75	45585.74
570.95	45913.41
571.15	45778.25
571.35	45864.26
571.55	45942.08
571.75	45772.10
571.95	46077.25
572.15	45282.64
572.35	45751.62
572.55	45993.28
572.75	45673.80
572.95	45786.44
573.15	46007.62
573.35	45937.99
573.55	46265.66
573.75	46300.48
573.95	46052.67
574.15	46232.89
574.35	46312.77
574.55	45921.60
574.75	46095.68
574.95	46691.64
575.15	45989.19
575.34	46605.62
575.54	46617.91
575.74	46447.93
575.94	46437.69
576.14	46366.01
576.34	46515.51
576.54	47234.35
576.74	46884.15
576.94	46423.36
577.14	46605.62
577.34	46849.33
577.54	47076.66
577.74	46914.87
577.94	46849.33
578.14	47009.07
578.34	46935.35
578.54	46187.84
578.74	46630.20
578.94	47224.11
579.14	46835.00
579.34	46964.02
579.54	46900.53
579.74	47404.33
579.94	46955.83
580.13	47441.20
580.33	47197.49
580.53	47711.53
580.73	47332.65
580.93	47232.30
581.13	47035.70
581.33	47353.13
581.53	47709.48
581.73	47396.14
581.93	47484.20
582.13	47469.87
582.33	47615.27
582.53	47947.04
582.73	47551.79
582.92	48188.70
583.12	47891.75
583.32	47815.97
583.52	48080.16
583.72	48035.11
583.92	47500.59
584.12	48157.99
584.32	48522.52
584.52	47926.56
584.72	48172.32
584.92	48342.30
585.11	48583.96
585.31	48192.80
585.51	48633.11
585.71	48080.16
585.91	48973.08
586.11	48276.77
586.31	48358.69
586.51	48381.21
586.71	48346.40
586.91	48868.63
587.10	48905.49
587.30	49065.24
587.50	48682.27
587.70	48997.65
587.90	48858.39
588.10	48809.24
588.30	48860.44
588.50	49227.02
588.69	48669.98
588.89	48649.50
589.09	48616.73
589.29	49069.33
589.49	49403.15
589.69	49009.94
589.89	49397.01
590.08	49339.66
590.28	49048.85
590.48	49321.23
590.68	49073.43
590.88	48901.40
591.08	49255.70
591.28	49065.24
591.47	49442.06
591.67	49544.46
591.87	49272.08
592.07	49610.00
592.27	49747.21
592.47	49530.12
592.67	49308.94
592.86	49526.03
593.06	49831.18
593.26	49749.26
593.46	49952.01
593.66	49833.22
593.86	50164.99
594.05	50048.26
594.25	50488.57
594.45	49724.68
594.65	49968.39
594.85	49640.71
595.05	50580.73
595.24	50449.66
595.44	50332.93
595.64	49777.93
595.84	50341.12
596.04	50304.26
596.23	50642.17
596.43	50332.93
596.63	50545.92
596.83	50656.51
597.03	50851.06
597.22	51002.61
597.42	50414.85
597.62	50963.70
597.82	50988.28
598.02	50738.43
598.21	51176.69
598.41	50879.74
598.61	50834.68
598.81	50607.36
599.01	50967.80
599.20	51166.45
599.40	51426.54
599.60	51166.45
599.80	51772.65
600.00	51735.79
600.19	51995.88
600.39	51477.74
600.59	51625.20
600.79	51848.42
600.98	51526.89
601.18	52161.76
601.38	51840.23
601.58	51864.81
601.78	51799.27
601.97	51967.21
602.17	52200.68
602.37	52370.66
602.57	52255.97
602.76	52675.80
602.96	51930.34
603.16	52376.80
603.36	52325.60
603.55	52966.62
603.75	52458.72
603.95	52548.83
604.15	52774.11
604.34	52548.83
604.54	53255.38
604.74	52571.36
604.94	52870.36
605.13	53013.72
605.33	53163.22
605.53	53286.10
605.73	53378.26
605.92	52899.03
606.12	53521.62
606.32	53882.06
606.52	53417.17
606.71	53404.88
606.91	53531.86
607.11	53179.60
607.30	53583.05
607.50	53667.02
607.70	54117.57
607.90	53494.99
608.09	53437.65
608.29	54138.05
608.49	53667.02
608.68	54035.66
608.88	54006.98
609.08	54523.07
609.28	54203.59
609.47	53902.54
609.67	54414.53
609.87	54043.85
610.06	54269.12
610.26	54377.67
610.46	54756.54
610.66	54359.23
610.85	54414.53
611.05	54119.62
611.25	54631.61
611.44	54336.71
611.64	54297.80
611.84	54320.32
612.03	54684.86
612.23	54695.10
612.43	54523.07
612.62	54738.11
612.82	54901.95
613.02	55000.25
613.21	55149.75
613.41	54568.13
613.61	54600.89
613.80	54641.85
614.00	55219.38
614.20	54981.82
614.39	55071.93
614.59	55078.07
614.79	55254.20
614.98	54996.15
615.18	55557.30
615.38	55096.50
615.57	54848.70
615.77	55686.32
615.97	55475.38
616.16	55022.78
616.36	55131.32
616.56	55481.52
616.75	55450.80
616.95	54858.94
617.15	55325.88
617.34	55329.97
617.54	55661.74
617.74	55796.91
617.93	55618.74
618.13	55317.68
618.32	55641.26
618.52	54885.56
618.72	55542.96
618.91	55573.68
619.11	55430.32
619.31	55276.72
619.50	54981.82
619.70	55264.44
619.90	55727.28
620.09	55315.64
620.29	55600.30
620.48	55676.08
620.68	55870.64
620.88	55127.22
621.07	55788.72
621.27	56186.02
621.46	55473.33
621.66	55833.77
621.86	55690.41
622.05	55512.24
622.25	56052.90
622.44	55710.89
622.64	55796.91
622.84	55786.67
623.03	56095.91
623.23	56091.82
623.42	55764.14
623.62	56097.96
623.82	56145.06
624.01	55917.74
624.21	56356.00
624.40	55970.99
624.60	55915.69
624.80	55610.54
624.99	56032.42
625.19	55733.42
625.38	56284.33
625.58	56108.20
625.77	56390.82
625.97	56337.57
626.17	55997.61
626.36	56097.96
626.56	56315.04
626.75	55473.33
626.95	56798.37
627.14	55872.68
627.34	57009.31
627.54	56198.31
627.73	56177.83
627.93	56231.08
628.12	56214.69
628.32	56384.68
628.51	56269.99
628.71	56265.89
628.90	56163.50
629.10	56089.77
629.30	56620.19
629.49	56331.43
629.69	56333.48
629.88	56448.16
630.08	56972.44
630.27	56849.56
630.47	56474.79
630.66	56681.63
630.86	56659.10
631.05	56640.67
631.25	57001.11
631.44	56628.38
631.64	56034.47
631.84	56249.51
632.03	57015.45
632.23	57142.42
632.42	57189.53
632.62	56583.33
632.81	56700.06
633.01	56798.37
633.20	56980.63
633.40	57003.16
633.59	56874.14
633.79	56478.88
633.98	56800.41
634.18	57033.88
634.37	56831.13
634.57	57281.69
634.76	56984.73
634.96	56700.06
635.15	56980.63
635.35	56677.54
635.54	56784.03
635.74	57521.30
635.93	56642.72
636.13	56816.80
636.32	56997.02
636.52	56720.54
636.71	57054.36
636.91	57586.83
637.10	57287.83
637.30	57517.20
637.49	57195.67
637.69	57304.21
637.88	57375.89
638.08	56917.15
638.27	57621.65
638.46	57285.78
638.66	56865.95
638.85	57119.90
639.05	57224.34
639.24	56964.25
639.44	57080.98
639.63	57291.93
639.83	57355.41
640.02	57031.83
640.22	57427.09
640.41	57683.09
640.61	56487.07
640.80	57449.62
640.99	57406.61
641.19	57570.45
641.38	57668.75
641.58	57349.27
641.77	57545.87
641.97	57201.82
642.16	57279.64
642.36	57660.56
642.55	58166.41
642.74	57291.93
642.94	58043.53
643.13	57156.76
643.33	57488.53
643.52	57787.53
643.72	57392.28
643.91	57658.51
644.10	57840.78
644.30	57986.19
644.49	57564.31
644.69	57949.32
644.88	57570.45
645.08	57857.17
645.27	58131.59
645.46	57533.59
645.66	57724.05
645.85	57734.29
646.05	57674.90
646.24	57891.98
646.43	58098.83
646.63	58078.35
646.82	57930.89
647.02	58201.22
647.21	58004.62
647.40	57699.47
647.60	57965.71
647.79	58303.62
647.99	57978.00
648.18	57889.93
648.37	58500.23
648.57	58416.26
648.76	58170.50
648.96	57883.79
649.15	58481.80
649.34	58166.41
649.54	58457.22
649.73	57513.11
649.92	57840.78
650.12	58287.24
650.31	58309.77
650.51	58254.47
650.70	58733.70
650.89	57986.19
651.09	58711.17
651.28	58190.98
651.47	58283.14
651.67	58238.09
651.86	58760.32
652.06	58023.05
652.25	58758.27
652.44	58098.83
652.64	57840.78
652.83	58277.00
653.02	58125.45
653.22	58000.52
653.41	58002.57
653.60	58021.00
653.80	58375.30
653.99	58107.02
654.18	58037.39
654.38	58360.97
654.57	58502.28
654.76	58389.64
654.96	58035.34
655.15	58285.19
655.34	58322.05
655.54	57734.29
655.73	57861.26
655.92	58741.89
656.12	58207.37
656.31	58145.93
656.50	58682.50
656.70	58373.25
656.89	58021.00
657.08	58127.50
657.28	58131.59
657.47	57963.66
657.66	58803.33
657.86	57883.79
658.05	57918.60
658.24	58115.21
658.43	57558.16
658.63	58168.46
658.82	58119.31
659.01	58141.83
659.21	57953.42
659.40	58356.87
659.59	58178.70
659.79	58119.31
659.98	58561.67
660.17	58489.99
660.36	58430.60
660.56	58381.45
660.75	58371.21
660.94	58227.85
661.14	58102.92
661.33	58473.60
661.52	57685.14
661.71	58616.96
661.91	57869.45
662.10	57736.34
662.29	58014.86
662.49	57543.83
662.68	58416.26
662.87	58303.62
663.06	58018.95
663.26	57992.33
663.45	58168.46
663.64	58213.51
663.83	58477.70
664.03	58375.30
664.22	58223.75
664.41	58190.98
664.60	58045.58
664.80	57955.47
664.99	57865.36
665.18	57769.10
665.37	58041.48
665.57	57838.73
665.76	57844.88
665.95	58270.85
666.14	58178.70
666.34	57869.45
666.53	57693.33
666.72	57781.39
666.91	57355.41
667.11	57320.60
667.30	57867.40
667.49	57775.25
667.68	57640.08
667.87	57488.53
668.07	57533.59
668.26	57791.63
668.45	57578.64
668.64	57449.62
668.84	57830.54
669.03	57955.47
669.22	57517.20
669.41	57681.04
669.60	57349.27
669.80	57240.73
669.99	58123.40
670.18	57513.11
670.37	57554.07
670.57	57959.56
670.76	57468.05
670.95	57722.00
671.14	57246.87
671.33	57529.49
671.53	57947.28
671.72	57470.10
671.91	57848.97
672.10	57156.76
672.29	57382.04
672.48	57078.94
672.68	57769.10
672.87	57392.28
673.06	57173.14
673.25	57218.20
673.44	57177.24
673.64	57232.53
673.83	56851.61
674.02	57091.22
674.21	56734.88
674.40	57185.43
674.59	56781.98
674.79	56546.47
674.98	56868.00
675.17	57023.64
675.36	56786.08
675.55	57078.94
675.74	56814.75
675.94	56917.15
676.13	56923.29
676.32	57101.46
676.51	56958.11
676.70	56937.63
676.89	56992.92
677.08	56880.28
677.28	56655.01
677.47	57044.12
677.66	56792.22
677.85	56702.11
678.04	56937.63
678.23	57058.46
678.42	57019.55
678.62	56835.23
678.81	56372.39
679.00	56243.37
679.19	57072.79
679.38	56587.42
679.57	56366.24
679.76	56599.71
679.96	56812.70
680.15	56444.07
680.34	56313.00
680.53	56450.21
680.72	56558.75
680.91	56485.03
681.10	56192.17
681.29	56444.07
681.48	56034.47
681.68	56165.54
681.87	56059.05
682.06	56251.56
682.25	55428.27
682.44	56521.89
682.63	56487.07
682.82	55858.35
683.01	55993.51
683.20	55745.71
683.39	55553.20
683.59	55415.99
683.78	55555.25
683.97	55604.40
684.16	55860.40
684.35	55182.52
684.54	55633.07
684.73	55815.34
684.92	55628.98
685.11	55473.33
685.30	55407.79
685.49	56235.17
685.69	55221.43
685.88	55641.26
686.07	55415.99
686.26	55575.73
686.45	55813.29
686.64	55518.38
686.83	55688.37
687.02	55176.37
687.21	55508.14
687.40	55440.56
687.59	55536.82
687.78	55344.31
687.97	55530.67
688.16	55166.13
688.35	55305.40
688.54	55567.54
688.74	55338.16
688.93	55188.66
689.12	55596.21
689.31	54863.03
689.50	55139.51
689.69	54787.26
689.88	54353.09
690.07	54723.77
690.26	55231.67
690.45	55358.64
690.64	55092.41
690.83	54498.50
691.02	54529.22
691.21	54793.40
691.40	54756.54
691.59	54858.94
691.78	54457.54
691.97	55284.92
692.16	54779.07
692.35	54639.81
692.54	54809.79
692.73	54979.77
692.92	54473.92
693.11	54285.51
693.30	54312.13
693.49	54856.89
693.68	54375.62
693.87	54322.37
694.06	54287.56
694.25	54226.12
694.44	54123.72
694.63	54152.39
694.82	54420.67
695.01	54308.04
695.20	54164.68
695.39	53941.45
695.58	54265.03
695.77	53691.60
695.96	53941.45
696.15	53728.46
696.34	53970.12
696.53	54043.85
696.72	54324.42
696.91	54015.18
697.10	54492.35
697.29	53951.69
697.48	54269.12
697.67	53701.84
697.86	53763.28
698.05	53458.13
698.24	53994.70
698.43	53159.12
698.62	53621.97
698.81	53533.90
699.00	53546.19
699.19	53159.12
699.38	53998.79
699.57	53646.54
699.76	54056.14
699.95	53615.82
700.14	53318.87
700.32	53413.07
700.51	53097.69
700.70	53654.73
700.89	53933.26
701.08	53189.84
701.27	53556.43
701.46	53716.17
701.65	52851.93
701.84	53120.21
702.03	53026.01
702.22	53247.19
702.41	53269.72
702.60	53603.53
702.79	53138.65
702.98	52710.62
703.17	53064.92
703.35	52524.25
703.54	52978.90
703.73	53099.73
703.92	53036.25
704.11	52851.93
704.30	52718.81
704.49	52593.89
704.68	52561.12
704.87	52577.50
705.06	52505.82
705.25	52954.33
705.43	52255.97
705.62	52673.76
705.81	52937.94
706.00	52581.60
706.19	52421.86
706.38	52360.42
706.57	52298.98
706.76	52548.83
706.95	52423.90
707.14	52172.00
707.32	52204.77
707.51	52325.60
707.70	52493.54
707.89	52614.37
708.08	52100.32
708.27	52712.67
708.46	52630.75
708.65	52450.53
708.84	52772.06
709.02	52507.87
709.21	52059.37
709.40	52018.41
709.59	52235.49
709.78	51672.30
709.97	52155.62
710.16	51793.13
710.34	52098.28
710.53	52501.73
710.72	52063.46
710.91	52167.91
711.10	52114.66
711.29	52276.45
711.48	52296.93
711.66	51975.40
711.85	52065.51
712.04	52192.48
712.23	51905.77
712.42	51999.97
712.61	51743.98
712.80	52053.22
712.98	51801.32
713.17	51180.79
713.36	51682.54
713.55	51594.48
713.74	51786.99
713.93	51756.27
714.11	51981.54
714.30	51477.74
714.49	51305.71
714.68	51627.24
714.87	51743.98
715.06	51946.73
715.24	51158.26
715.43	51682.54
715.62	51027.19
715.81	51592.43
716.00	51590.38
716.18	51076.34
716.37	51014.90
716.56	51193.07
716.75	51203.31
716.94	50965.75
717.12	51248.37
717.31	51369.20
717.50	51217.65
717.69	50623.74
717.88	50695.42
718.06	50898.17
718.25	51406.06
718.44	50865.40
718.63	51070.20
718.82	50781.43
719.00	50959.61
719.19	50214.15
719.38	50492.67
719.57	50191.62
719.76	50324.74
719.94	50470.14
720.13	50615.55
720.32	50468.09
720.51	50083.08
720.69	50472.19
720.88	50287.87
721.07	50236.67
721.26	49642.76
721.44	50113.80
721.63	49759.50
721.82	49796.36
722.01	49878.28
722.20	50029.83
722.38	49847.56
722.57	49636.62
722.76	49708.30
722.95	49810.70
723.13	49165.59
723.32	49491.21
723.51	49177.87
723.70	49081.62
723.88	49689.87
724.07	49337.62
724.26	49669.39
724.44	49098.00
724.63	49566.99
724.82	49798.41
725.01	49679.63
725.19	49509.64
725.38	49132.82
725.57	49057.04
725.76	49192.21
725.94	49126.67
726.13	49036.56
726.32	49325.33
726.51	49071.38
726.69	49509.64
726.88	48842.01
727.07	49284.37
727.25	48684.31
727.44	49306.90
727.63	48592.15
727.82	49063.19
728.00	48997.65
728.19	48667.93
728.38	48909.59
728.56	48704.79
728.75	49087.76
728.94	48796.95
729.12	48784.66
729.31	49308.94
729.50	48657.69
729.69	49116.43
729.87	49347.86
730.06	49118.48
730.25	48831.77
730.43	49386.77
730.62	48835.86
730.81	49374.48
730.99	49331.47
731.18	48956.69
731.37	49294.61
731.55	49345.81
731.74	49409.29
731.93	49276.18
732.11	49073.43
732.30	49116.43
732.49	48540.96
732.67	49157.39
732.86	48612.63
733.05	48852.25
733.23	48848.15
733.42	49044.76
733.61	48766.23
733.79	49075.48
733.98	49341.71
734.17	49038.61
734.35	48997.65
734.54	49116.43
734.73	49196.31
734.91	49071.38
735.10	48925.97
735.29	49485.07
735.47	48164.13
735.66	48999.70
735.84	49016.08
736.03	48901.40
736.22	49239.31
736.40	48491.80
736.59	48821.53
736.78	48749.85
736.96	48678.17
737.15	49263.89
737.33	48846.10
737.52	48336.16
737.71	48643.35
737.89	48766.23
738.08	48160.03
738.27	48411.93
738.45	49089.81
738.64	48493.85
738.82	48633.11
739.01	48813.34
739.20	48792.86
739.38	48338.21
739.57	48893.21
739.75	48983.32
739.94	48706.84
740.13	48565.53
740.31	48672.03
740.50	48700.70
740.68	48858.39
740.87	48796.95
741.06	48858.39
741.24	48123.17
741.43	48309.53
741.61	48342.30
741.80	48022.82
741.99	48203.04
742.17	48086.31
742.36	48420.13
742.54	48340.25
742.73	47981.86
742.91	48422.17
743.10	48020.77
743.29	48448.80
743.47	48239.90
743.66	48033.06
743.84	47832.36
744.03	48200.99
744.21	48241.95
744.40	48629.02
744.59	48098.59
744.77	48121.12
744.96	48020.77
745.14	47901.99
745.33	48153.89
745.51	48117.03
745.70	48010.53
745.88	48059.68
746.07	48553.24
746.26	47922.47
746.44	47775.02
746.63	47988.00
746.81	48112.93
747.00	47732.01
747.18	48055.59
747.37	47795.49
747.55	47719.72
747.74	48176.42
747.92	47447.34
748.11	47582.51
748.29	47699.24
748.48	48332.06
748.66	47375.66
748.85	47484.20
749.03	47846.69
749.22	47396.14
749.41	47605.03
749.59	47887.65
749.78	47211.82
749.96	46939.44
750.15	47117.62
750.33	47435.05
750.52	47373.61
750.70	47074.61
750.89	47785.25
751.07	47076.66
751.26	47338.80
751.44	47494.44
751.63	47306.03
751.81	47363.37
752.00	47109.43
752.18	47273.26
752.37	46822.71
752.55	46859.57
752.74	46902.58
752.92	46935.35
753.10	47107.38
753.29	46708.02
753.47	46560.57
753.66	46484.79
753.84	47015.22
754.03	46552.38
754.21	46017.86
754.40	46564.67
754.58	46685.50
754.77	46513.47
754.95	46142.78
755.14	46746.93
755.32	46091.58
755.51	46267.71
755.69	45985.09
755.88	46419.26
756.06	46552.38
756.24	46142.78
756.43	46259.52
756.61	46562.62
756.80	46122.30
756.98	46024.00
757.17	46083.39
757.35	46347.58
757.54	46175.55
757.72	46085.44
757.90	45774.15
758.09	45880.64
758.27	45763.91
758.46	45790.53
758.64	45868.36
758.83	46216.51
759.01	46085.44
759.19	45620.55
759.38	45651.27
759.56	45735.24
759.75	45489.48
759.93	45696.33
760.12	45503.82
760.30	45806.92
760.48	45622.60
760.67	45460.81
760.85	45647.18
761.04	45911.36
761.22	45688.13
761.40	45356.36
761.59	45372.75
761.77	45194.57
761.96	45442.38
762.14	45264.21
762.32	45083.98
762.51	45012.31
762.69	45260.11
762.88	45505.87
763.06	45139.28
763.24	45167.95
763.43	45110.61
763.61	44791.12
763.80	45311.31
763.98	45040.98
764.16	44928.34
764.35	44871.00
764.53	44637.53
764.72	44873.04
764.90	44459.35
765.08	44569.94
765.27	44639.57
765.45	44481.88
765.63	43955.55
765.82	44545.37
766.00	44227.93
766.18	44528.98
766.37	44367.20
766.55	44307.80
766.74	44025.18
766.92	44369.24
767.10	44207.45
767.29	44156.25
767.47	43763.04
767.65	44227.93
767.84	43765.09
768.02	44410.20
768.20	43363.69
768.39	44012.90
768.57	43451.75
768.75	43640.17
768.94	44016.99
769.12	43754.85
769.30	43857.25
769.49	43431.27
769.67	43373.93
769.85	43054.45
770.04	43447.66
770.22	43347.31
770.40	43292.01
770.59	43054.45
770.77	43314.54
770.95	43603.30
771.14	43060.59
771.32	42646.90
771.50	42653.05
771.69	42767.73
771.87	42972.53
772.05	42722.68
772.24	42743.16
772.42	42630.52
772.60	42571.13
772.78	42489.21
772.97	41911.68
773.15	42718.58
773.33	42689.91
773.52	42220.92
773.70	42351.99
773.88	42409.34
774.07	42466.68
774.25	42091.90
774.43	42579.32
774.61	42257.79
774.80	42681.72
774.98	42743.16
775.16	42880.37
775.34	42433.91
775.53	42296.70
775.71	42569.08
775.89	42343.80
776.08	42710.39
776.26	42474.87
776.44	42626.42
776.62	42644.85
776.81	42104.19
776.99	42767.73
777.17	42474.87
777.35	42726.77
777.54	42988.91
777.72	42304.89
777.90	42995.06
778.08	42636.66
778.27	42616.18
778.45	42827.12
778.63	42849.65
778.81	42988.91
779.00	43548.01
779.18	42427.77
779.36	43330.92
779.54	42847.60
779.73	43287.92
779.91	42915.19
780.09	42802.55
780.27	43148.65
780.46	42771.83
780.64	43283.82
780.82	42960.24
781.00	42876.27
781.19	43142.51
781.37	43443.56
781.55	43056.50
781.73	43535.72
781.91	42726.77
782.10	43335.02
782.28	43162.99
782.46	43072.88
782.64	43814.24
782.82	43226.48
783.01	43423.08
783.19	43623.78
783.37	43427.18
783.55	43099.50
783.74	43201.90
783.92	42820.98
784.10	43625.83
784.28	43421.03
784.46	42882.42
784.64	43431.27
784.83	43126.13
785.01	43560.30
785.19	43181.42
785.37	42859.89
785.55	43302.25
785.74	43025.78
785.92	43218.28
786.10	43113.84
786.28	42782.07
786.46	42722.68
786.64	42743.16
786.83	42990.96
787.01	42788.21
787.19	42898.80
787.37	42970.48
787.55	42933.62
787.74	42710.39
787.92	42788.21
788.10	42818.93
788.28	42384.76
788.46	42782.07
788.64	42302.84
788.82	42997.10
789.01	42257.79
789.19	42517.88
789.37	42345.85
789.55	42052.99
789.73	42118.53
789.91	42347.90
790.09	42022.27
790.28	41833.86
790.46	41541.00
790.64	41862.53
790.82	41776.51
791.00	41575.81
791.18	41170.32
791.36	41330.06
791.55	41553.29
791.73	41485.70
791.91	40549.78
792.09	41211.28
792.27	41227.66
792.45	41080.21
792.63	40811.92
792.81	40721.81
793.00	40633.75
793.18	40523.16
793.36	40564.12
793.54	40144.28
793.72	40408.47
793.90	40056.22
794.08	39992.73
794.26	40566.16
794.44	39980.45
794.62	39736.74
794.81	39972.25
794.99	40005.02
795.17	39738.79
795.35	39689.63
795.53	39720.35
795.71	39671.20
795.89	39656.87
796.07	39138.73
796.25	39290.28
796.43	39091.63
796.61	38933.93
796.80	38948.27
796.98	38833.58
797.16	39013.80
797.34	38503.86
797.52	38417.85
797.70	39015.85
797.88	38546.87
798.06	38415.80
798.24	38219.19
798.42	38333.88
798.60	38317.50
798.78	38405.56
798.96	37836.22
799.14	37326.28
799.32	37955.00
799.51	37359.05
799.69	37868.99
799.87	37924.29
800.05	37426.63
800.23	37477.83
800.41	37172.68
800.59	37168.58
800.77	36931.02
800.95	36896.20
801.13	36699.60
801.31	36468.18
801.49	36787.66
801.67	36668.88
801.85	36259.29
802.03	36406.74
802.21	36154.84
802.39	36185.56
802.57	36103.64
802.75	35902.94
802.93	35993.05
803.11	35962.33
803.29	35653.09
803.47	35601.89
803.65	35657.18
803.83	35567.07
804.01	35536.35
804.19	35120.62
804.37	35173.86
804.55	35124.71
804.73	35214.82
804.91	35104.23
805.09	35175.91
805.27	35395.04
805.45	35153.38
805.63	35061.22
805.81	34952.68
805.99	34696.69
806.17	35116.52
806.35	34924.01
806.53	34309.62
806.71	34616.82
806.89	34418.16
807.07	34131.45
807.25	34518.51
807.43	33977.85
807.61	34108.92
807.79	33748.48
807.97	33510.91
808.15	34010.62
808.33	33568.26
808.51	33494.53
808.69	33592.83
808.87	33605.12
809.05	33357.32
809.23	33279.49
809.41	33211.91
809.59	33148.42
809.77	33103.37
809.95	33148.42
810.13	32935.43
810.31	32845.32
810.49	33164.81
810.67	32996.87
810.84	32806.41
811.02	32790.03
811.20	32110.10
811.38	32392.72
811.56	32437.78
811.74	32296.47
811.92	32245.27
812.10	32472.59
812.28	32691.73
812.46	32452.11
812.64	32359.95
812.82	31993.37
813.00	32208.40
813.18	32210.45
813.36	31919.64
813.53	31610.40
813.71	31618.59
813.89	31704.60
814.07	31505.95
814.25	31755.80
814.43	31602.21
814.61	31710.75
814.79	31153.70
814.97	31182.37
815.15	31190.56
815.33	30905.90
815.50	30760.49
815.68	31118.89
815.86	31299.11
816.04	30740.01
816.22	30826.03
816.40	30406.19
816.58	30705.20
816.76	30688.81
816.94	30746.15
817.11	30365.23
817.29	30352.94
817.47	30428.72
817.65	30225.97
817.83	30500.40
818.01	30336.56
818.19	30025.27
818.37	29998.65
818.54	30037.56
818.72	29802.04
818.90	29869.62
819.08	30035.51
819.26	30111.28
819.44	29670.97
819.62	29787.71
819.80	29830.71
819.97	29607.48
820.15	29404.74
820.33	29304.38
820.51	29320.77
820.69	29556.28
820.87	29384.26
821.05	29580.86
821.22	29498.94
821.40	29267.52
821.58	29177.41
821.76	29109.83
821.94	28829.26
822.12	29034.05
822.29	29154.88
822.47	28726.86
822.65	28882.50
822.83	28857.93
823.01	28907.08
823.19	28749.39
823.36	28397.13
823.54	28534.35
823.72	28493.39
823.90	28552.78
824.08	28532.30
824.25	28552.78
824.43	28313.17
824.61	28100.18
824.79	28520.01
824.97	27897.43
825.15	28456.53
825.32	28292.69
825.50	27977.30
825.68	27899.48
825.86	28477.01
826.04	28487.25
826.21	27827.80
826.39	28192.34
826.57	28223.06
826.75	27733.59
826.93	27391.58
827.10	27737.69
827.28	27657.82
827.46	27684.44
827.64	27848.28
827.81	27551.32
827.99	27194.98
828.17	27336.29
828.35	27113.06
828.53	27289.18
828.70	27463.26
828.88	27381.34
829.06	27164.26
829.24	27264.61
829.41	26674.79
829.59	27301.47
829.77	27166.31
829.95	27102.82
830.12	26674.79
830.30	27147.87
830.48	26832.49
830.66	26900.07
830.84	26785.38
831.01	26500.72
831.19	26785.38
831.37	26832.49
831.55	26769.00
831.72	26455.66
831.90	26728.04
832.08	26603.11
832.25	26300.01
832.43	26343.02
832.61	26320.49
832.79	26334.83
832.96	26263.15
833.14	26117.75
833.32	26420.84
833.50	26345.07
833.67	26164.85
833.85	26318.45
834.03	26009.20
834.20	26306.16
834.38	25964.15
834.56	26173.04
834.74	25910.90
834.91	26084.98
835.09	25996.92
835.27	25577.08
835.44	25857.65
835.62	25222.78
835.80	25632.38
835.98	25757.30
836.15	25708.15
836.33	25466.49
836.51	25593.47
836.68	25486.97
836.86	25503.35
837.04	25722.49
837.21	25464.44
837.39	25464.44
837.57	25521.79
837.75	25507.45
837.92	25048.71
838.10	25224.83
838.28	25167.49
838.45	24954.50
838.63	24989.31
838.81	25077.38
838.98	25106.05
839.16	24979.07
839.34	24796.81
839.51	24733.32
839.69	24772.23
839.87	24573.58
840.04	24862.34
840.22	25144.96
840.40	24823.43
840.57	24622.73
840.75	24622.73
840.93	24673.93
841.10	24469.13
841.28	24886.92
841.46	24626.82
841.63	24929.92
841.81	24700.55
841.98	24395.40
842.16	24354.44
842.34	24712.84
842.51	24065.68
842.69	24663.69
842.87	24712.84
843.04	24501.90
843.22	23985.81
843.40	24225.42
843.57	24098.45
843.75	24510.09
843.92	24024.72
844.10	23965.33
844.28	24282.77
844.45	24204.94
844.63	24104.59
844.81	23989.91
844.98	24315.53
845.16	23807.64
845.33	24209.04
845.51	24067.73
845.69	23723.67
845.86	23701.14
846.04	23703.19
846.21	23953.04
846.39	23506.59
846.57	23436.95
846.74	23723.67
846.92	23463.58
847.09	23471.77
847.27	23479.96
847.45	23578.26
847.62	23582.36
847.80	23439.00
847.97	23539.35
848.15	23541.40
848.32	23316.12
848.50	23555.74
848.68	23053.98
848.85	23193.25
849.03	22879.91
849.20	23269.02
849.38	23359.13
849.56	23213.73
849.73	23025.31
849.91	23006.88
850.08	23318.17
850.26	22810.28
850.43	22879.91
850.61	22904.48
850.78	22769.32
850.96	22970.02
851.14	22752.93
851.31	22834.85
851.49	22582.95
851.66	22951.59
851.84	22638.25
852.01	22652.58
852.19	22675.11
852.36	22826.66
852.54	22863.52
852.71	22613.67
852.89	22654.63
853.07	22294.19
853.24	22249.13
853.42	22736.55
853.59	22662.82
853.77	22535.85
853.94	22630.05
854.12	22537.90
854.29	22337.20
854.47	22333.10
854.64	22159.02
854.82	22210.22
854.99	22249.13
855.17	22419.11
855.34	22138.54
855.52	22281.90
855.69	22027.95
855.87	21909.17
856.04	21958.32
856.22	22101.68
856.39	21995.18
856.57	22130.35
856.74	22013.62
856.92	22150.83
857.09	21905.07
857.27	21802.68
857.44	21911.22
857.62	21675.70
857.79	21702.32
857.97	21884.59
858.14	21733.04
858.32	21698.23
858.49	21771.96
858.67	21692.08
858.84	21515.96
859.02	21798.58
859.19	21661.37
859.37	21262.01
859.54	21386.94
859.72	21726.90
859.89	21329.59
860.06	21339.83
860.24	21687.99
860.41	21653.17
860.59	21186.24
860.76	21776.05
860.94	21182.14
861.11	21212.86
861.29	21462.71
861.46	20987.58
861.64	21120.70
861.81	21176.00
861.98	20944.58
862.16	20897.47
862.33	20833.99
862.51	21061.31
862.68	21042.88
862.86	21001.92
863.03	20739.78
863.21	20635.33
863.38	20870.85
863.55	20838.08
863.73	20606.66
863.90	20623.05
864.08	20676.29
864.25	20547.27
864.43	20844.23
864.60	20502.22
864.77	20438.73
864.95	20549.32
865.12	20428.49
865.30	20807.36
865.47	20489.93
865.64	20250.32
865.82	20514.50
865.99	20518.60
866.17	20367.05
866.34	20352.71
866.51	20082.38
866.69	20467.40
866.86	20465.35
867.04	20248.27
867.21	20278.99
867.38	20203.21
867.56	20184.78
867.73	20205.26
867.91	19932.88
868.08	19904.21
868.25	19769.04
868.43	19930.83
868.60	19597.01
868.78	19861.20
868.95	20123.34
869.12	19824.34
869.30	19771.09
869.47	19902.16
869.64	19551.96
869.82	19623.64
869.99	19699.41
870.16	19975.89
870.34	19844.82
870.51	19775.19
870.69	19664.60
870.86	19590.87
871.03	19480.28
871.21	19445.46
871.38	19662.55
871.55	19304.15
871.73	19384.02
871.90	19259.10
872.07	19255.00
872.25	19089.12
872.42	19316.44
872.59	19136.22
872.77	19320.54
872.94	19093.21
873.11	19044.06
873.29	19023.58
873.46	18953.95
873.63	19246.81
873.81	19269.34
873.98	19011.29
874.15	18927.33
874.33	18624.23
874.50	18542.31
874.67	18706.15
874.85	18826.98
875.02	18632.42
875.19	18509.54
875.37	18556.64
875.54	18435.81
875.71	18431.72
875.88	18425.57
876.06	18474.73
876.23	18532.07
876.40	18351.85
876.58	18312.94
876.75	18380.52
876.92	18288.36
877.10	18347.75
877.27	17954.54
877.44	18298.60
877.61	18091.76
877.79	18132.72
877.96	17929.97
878.13	18364.14
878.31	17934.06
878.48	17739.51
878.65	17966.83
878.82	17940.21
879.00	17739.51
879.17	17889.01
879.34	17884.91
879.51	17624.82
879.69	17712.88
879.86	17649.39
880.03	17555.19
880.21	17671.92
880.38	17729.27
880.55	17854.19
880.72	17620.72
880.90	17657.59
881.07	17243.90
881.24	17585.91
881.41	17456.89
881.59	17403.64
881.76	17286.90
881.93	17311.48
882.10	17262.33
882.28	17344.25
882.45	17145.59
882.62	17297.14
882.79	17442.55
882.96	17002.24
883.14	17336.06
883.31	17364.73
883.48	17155.83
883.65	17129.21
883.83	17344.25
884.00	17395.45
884.17	16977.66
884.34	17477.37
884.51	17049.34
884.69	16852.73
884.86	16590.59
885.03	16600.83
885.20	17106.68
885.38	17153.79
885.55	17059.58
885.72	16742.14
885.89	17010.43
886.06	16883.45
886.24	16877.31
886.41	16791.30
886.58	16944.89
886.75	16809.73
886.92	16598.79
887.10	16670.47
887.27	16836.35
887.44	16637.70
887.61	16705.28
887.78	16742.14
887.95	16838.40
888.13	16389.89
888.30	16699.14
888.47	16572.16
888.64	16803.58
888.81	16449.28
888.99	16412.42
889.16	16283.40
889.33	16379.65
889.50	16344.84
889.67	16176.91
889.84	16205.58
890.01	16482.05
890.19	16297.74
890.36	16271.11
890.53	16070.41
890.70	16094.99
890.87	16289.54
891.04	16019.21
891.22	16031.50
891.39	16172.81
891.56	15920.91
891.73	15968.01
891.90	15838.99
892.07	15871.76
892.24	15857.42
892.42	15775.50
892.59	15890.19
892.76	15773.46
892.93	15863.57
893.10	16011.02
893.27	15945.48
893.44	15843.09
893.61	15558.42
893.79	16004.88
893.96	15920.91
894.13	15683.34
894.30	15918.86
894.47	15812.37
894.64	16029.45
894.81	15613.71
894.98	15851.28
895.15	15781.65
895.33	15646.48
895.50	15488.79
895.67	15810.32
895.84	15863.57
896.01	15806.22
896.18	15419.16
896.35	15851.28
896.52	15628.05
896.69	15648.53
896.86	15781.65
897.04	15853.33
897.21	15712.02
897.38	15869.71
897.55	15275.80
897.72	15593.23
897.89	15623.95
898.06	15675.15
898.23	15427.35
898.40	15714.06
898.57	15847.18
898.74	15582.99
898.91	15533.84
899.08	15617.81
899.26	15615.76
899.43	15689.49
899.60	15501.08
899.77	15441.68
899.94	15355.67
900.11	15441.68
900.28	15638.29
900.45	15421.20
900.62	15517.46
900.79	15329.05
900.96	15566.61
901.13	15474.45
901.30	15427.35
901.47	15333.14
901.64	15619.86
901.81	15537.94
901.98	15818.51
902.15	15490.84
902.32	15675.15
902.49	15449.88
902.66	15646.48
902.83	15443.73
903.01	15720.21
903.18	15382.29
903.35	15406.87
903.52	15544.08
903.69	15511.32
903.86	15595.28
904.03	15445.78
904.20	15421.20
904.37	15505.17
904.54	15425.30
904.71	15456.02
904.88	15544.08
905.05	15507.22
905.22	15220.50
905.39	15478.55
905.56	15453.97
905.73	15521.56
905.90	15544.08
906.07	15638.29
906.24	15578.90
906.41	15613.71
906.58	15394.58
906.75	15413.01
906.92	15337.24
907.09	15441.68
907.26	15271.70
907.43	15240.98
907.60	15580.95
907.77	15609.62
907.93	15261.46
908.10	15427.35
908.27	15378.20
908.44	15410.96
908.61	15349.53
908.78	15380.25
908.95	15535.89
909.12	15226.65
909.29	15214.36
909.46	15447.83
909.63	15634.19
909.80	15259.42
909.97	15458.07
910.14	15257.37
910.31	15574.80
910.48	15318.81
910.65	15300.37
910.82	15267.61
910.99	15271.70
911.16	15056.67
911.33	15255.32
911.50	15195.93
911.66	15093.53
911.83	15310.61
912.00	15034.14
912.17	14980.89
912.34	15019.80
912.51	15300.37
912.68	14872.35
912.85	15230.74
913.02	15050.52
913.19	14886.68
913.36	14737.18
913.53	15079.19
913.70	14636.83
913.86	14921.50
914.03	14982.94
914.20	14944.03
914.37	14835.49
914.54	14753.57
914.71	14733.09
914.88	14927.64
915.05	14597.92
915.22	14708.51
915.39	14563.11
915.55	14583.59
915.72	14524.19
915.89	14389.03
916.06	14372.64
916.23	14458.66
916.40	14374.69
916.57	14272.29
916.74	14229.29
916.91	14321.45
917.07	14173.99
917.24	14182.18
917.41	14141.22
917.58	14309.16
917.75	14055.21
917.92	13918.00
918.09	13879.08
918.26	14247.72
918.42	14176.04
918.59	14112.55
918.76	13772.59
918.93	13782.83
919.10	13696.82
919.27	13467.44
919.44	13905.71
919.60	14038.83
919.77	13764.40
919.94	13588.27
920.11	13670.19
920.28	13909.80
920.45	13530.93
920.61	13518.64
920.78	13459.25
920.95	13510.45
921.12	13356.85
921.29	13418.29
921.46	13324.08
921.62	13121.34
921.79	13123.38
921.96	13217.59
922.13	13143.86
922.30	13063.99
922.47	13143.86
922.63	12914.49
922.80	13037.37
922.97	12777.28
923.14	12867.39
923.31	12701.50
923.47	12619.58
923.64	13059.90
923.81	12619.58
923.98	12828.48
924.15	12709.69
924.32	12719.93
924.48	12558.14
924.65	12660.54
924.82	12609.34
924.99	12465.99
925.15	12304.20
925.32	12400.45
925.49	12240.71
925.66	12300.10
925.83	11992.90
925.99	12138.31
926.16	12222.28
926.33	12058.44
926.50	11908.94
926.67	11917.13
926.83	11845.45
927.00	11960.14
927.17	11650.89
927.34	11749.20
927.50	11663.18
927.67	11786.06
927.84	11638.61
928.01	11595.60
928.17	11345.75
928.34	11437.91
928.51	11208.53
928.68	11403.09
928.84	11362.13
929.01	11222.87
929.18	11272.02
929.35	11157.33
929.51	11251.54
929.68	11009.88
929.85	11018.07
930.02	11120.47
930.18	11065.18
930.35	11083.61
930.52	10831.71
930.69	10792.80
930.85	10760.03
931.02	10596.19
931.19	10755.93
931.36	10686.30
931.52	10827.61
931.69	10731.36
931.86	10352.48
932.02	10540.90
932.19	10463.07
932.36	10395.49
932.53	10395.49
932.69	10239.84
932.86	10438.50
933.03	10164.07
933.19	10209.12
933.36	9953.13
933.53	10149.73
933.70	10071.91
933.86	9906.02
934.03	9891.69
934.20	9877.35
934.36	9848.68
934.53	9572.21
934.70	9559.92
934.86	9543.53
935.03	9322.35
935.20	9424.75
935.36	9553.77
935.53	9215.86
935.70	9217.91
935.86	9252.72
936.03	9013.11
936.20	8851.32
936.36	8877.94
936.53	8963.96
936.70	8812.41
936.86	8869.75
937.03	8791.93
937.20	8470.40
937.36	8474.49
937.53	8267.65
937.70	8427.39
937.86	8181.64
938.03	8294.27
938.20	8081.28
938.36	8140.68
938.53	8054.66
938.70	7679.88
938.86	7739.27
939.03	7671.69
939.20	7477.13
939.36	7522.19
939.53	7374.74
939.70	7499.66
939.86	7085.97
940.03	7083.92
940.19	6932.37
940.36	7126.93
940.53	6967.19
940.69	6881.18
940.86	6848.41
941.03	6664.09
941.19	6573.98
941.36	6616.99
941.52	6580.12
941.69	6479.77
941.86	6512.54
942.02	6533.02
942.19	6309.79
942.35	6457.25
942.52	6215.59
942.69	6219.68
942.85	6055.84
943.02	6100.90
943.18	6049.70
943.35	6018.98
943.52	5996.45
943.68	5939.11
943.85	5844.90
944.01	5750.70
944.18	5754.79
944.35	5846.95
944.51	5826.47
944.68	5623.72
944.84	5818.28
945.01	5619.63
945.17	5582.76
945.34	5654.44
945.51	5674.92
945.67	5486.51
945.84	5613.48
946.00	5703.59
946.17	5558.19
946.33	5474.22
946.50	5578.67
946.67	5539.76
946.83	5435.31
947.00	5545.90
947.16	5578.67
947.33	5539.76
947.49	5564.33
947.66	5345.20
947.82	5521.32
947.99	5429.17
948.16	5498.80
948.32	5513.13
948.49	5529.52
948.65	5420.97
948.82	5519.28
948.98	5599.15
949.15	5498.80
949.31	5427.12
949.48	5498.80
949.64	5449.64
949.81	5367.73
949.97	5427.12
950.14	5482.41
950.30	5498.80
950.47	5726.12
950.63	5431.21
950.80	5500.84
950.96	5603.24
951.13	5599.15
951.30	5500.84
951.46	5580.71
951.63	5547.95
951.79	5412.78
951.96	5603.24
952.12	5615.53
952.29	5603.24
952.45	5644.20
952.62	5425.07
952.78	5425.07
952.94	5580.71
953.11	5511.08
953.27	5453.74
953.44	5650.35
953.60	5560.24
953.77	5593.00
953.93	5480.36
954.10	5558.19
954.26	5562.28
954.43	5484.46
954.59	5529.52
954.76	5793.70
954.92	5697.45
955.09	5513.13
955.25	5605.29
955.42	5580.71
955.58	5736.36
955.75	5693.35
955.91	5613.48
956.07	5703.59
956.24	5879.72
956.40	5689.26
956.57	5644.20
956.73	5529.52
956.90	5650.35
957.06	5550.00
957.23	5728.17
957.39	5562.28
957.56	5674.92
957.72	5582.76
957.88	5470.12
958.05	5668.78
958.21	5736.36
958.38	5636.01
958.54	5597.10
958.71	5705.64
958.87	5732.26
959.03	5558.19
959.20	5633.96
959.36	5580.71
959.53	5668.78
959.69	5412.78
959.85	5638.06
960.02	5654.44
960.18	5744.55
960.35	5533.61
960.51	5640.11
960.68	5517.23
960.84	5550.00
961.00	5443.50
961.17	5644.20
961.33	5656.49
961.50	5638.06
961.66	5728.17
961.82	5603.24
961.99	5699.50
962.15	5554.09
962.31	5603.24
962.48	5492.65
962.64	5605.29
962.81	5642.15
962.97	5697.45
963.13	5636.01
963.30	5681.07
963.46	5511.08
963.62	5568.43
963.79	5558.19
963.95	5451.69
964.12	5552.04
964.28	5625.77
964.44	5517.23
964.61	5572.52
964.77	5711.78
964.93	5676.97
965.10	5486.51
965.26	5296.05
965.42	5478.32
965.59	5511.08
965.75	5363.63
965.92	5488.56
966.08	5558.19
966.24	5494.70
966.41	5408.69
966.57	5570.48
966.73	5439.40
966.90	5459.88
967.06	5480.36
967.22	5332.91
967.39	5361.58
967.55	5410.73
967.71	5314.48
967.88	5359.53
968.04	5318.57
968.20	5363.63
968.37	5429.17
968.53	5259.18
968.69	5359.53
968.85	5453.74
969.02	5345.20
969.18	5382.06
969.34	5361.58
969.51	5355.44
969.67	5279.66
969.83	5230.51
970.00	5390.25
970.16	5328.81
970.32	5275.57
970.48	5279.66
970.65	5156.79
970.81	5214.13
970.97	5285.81
971.14	5066.67
971.30	5341.10
971.46	5142.45
971.63	5214.13
971.79	5271.47
971.95	5189.55
972.11	4970.42
972.28	5169.07
972.44	5244.85
972.60	5054.39
972.76	5117.87
972.93	5162.93
973.09	5091.25
973.25	5023.67
973.42	5025.72
973.58	5064.63
973.74	5021.62
973.90	4978.61
974.07	5040.05
974.23	4966.32
974.39	5009.33
974.55	5021.62
974.72	4908.98
974.88	4820.92
975.04	5007.28
975.20	4892.60
975.37	4954.04
975.53	4954.04
975.69	4982.71
975.85	4880.31
976.01	4861.88
976.18	4886.45
976.34	5005.24
976.50	4878.26
976.66	4892.60
976.83	4794.29
976.99	4841.40
977.15	4831.16
977.31	4652.98
977.47	4816.82
977.64	4687.80
977.80	4759.48
977.96	4716.47
978.12	4614.07
978.29	4652.98
978.45	4652.98
978.61	4648.89
978.77	4718.52
978.93	4657.08
979.10	4646.84
979.26	4695.99
979.42	4722.62
979.58	4470.72
979.74	4675.51
979.91	4609.98
980.07	4667.32
980.23	4558.78
980.39	4566.97
980.55	4511.68
980.71	4503.48
980.88	4673.46
981.04	4515.77
981.20	4493.24
981.36	4655.03
981.52	4489.15
981.68	4456.38
981.85	4579.26
982.01	4566.97
982.17	4384.70
982.33	4394.94
982.49	4536.25
982.65	4433.85
982.82	4485.05
982.98	4462.52
983.14	4433.85
983.30	4472.76
983.46	4540.35
983.62	4196.29
983.79	4411.32
983.95	4261.82
984.11	4407.23
984.27	4321.21
984.43	4247.49
984.59	4280.25
984.75	4394.94
984.91	4308.93
985.08	4313.02
985.24	4210.62
985.40	4216.77
985.56	4227.01
985.72	4306.88
985.88	4247.49
986.04	4171.71
986.20	4069.31
986.37	4216.77
986.53	4097.99
986.69	4118.47
986.85	4040.64
987.01	4153.28
987.17	4089.79
987.33	4138.94
987.49	4036.55
987.65	4104.13
987.82	4081.60
987.98	4007.87
988.14	3997.64
988.30	4063.17
988.46	3954.63
988.62	4022.21
988.78	4007.87
988.94	3952.58
989.10	3872.71
989.26	3993.54
989.42	3887.04
989.59	3864.52
989.75	3925.96
989.91	4067.27
990.07	3827.65
990.23	3835.85
990.39	3837.89
990.55	3862.47
990.71	3817.41
990.87	3925.96
991.03	3878.85
991.19	3809.22
991.35	3760.07
991.51	3885.00
991.67	3844.04
991.83	3899.33
992.00	3735.50
992.16	3880.90
992.32	3839.94
992.48	3768.26
992.64	3794.89
992.80	3762.12
992.96	3741.64
993.12	3780.55
993.28	3758.02
993.44	3708.87
993.60	3610.57
993.76	3682.25
993.92	3735.50
994.08	3704.78
994.24	3649.48
994.40	3641.29
994.56	3755.97
994.72	3581.90
994.88	3583.95
995.04	3614.66
995.20	3622.86
995.36	3631.05
995.52	3641.29
995.68	3504.07
995.84	3413.96
996.00	3735.50
996.16	3530.70
996.32	3469.26
996.48	3454.92
996.64	3547.08
996.80	3489.74
996.96	3545.03
997.12	3592.14
997.28	3432.40
997.44	3401.68
997.60	3481.55
997.76	3399.63
997.92	3542.99
998.08	3536.84
998.24	3360.72
998.40	3350.48
998.56	3459.02
998.72	3295.18
998.88	3436.49
999.04	3348.43
999.20	3409.87
999.36	3375.05
999.52	3428.30
999.68	3399.63
999.84	3432.40
1000.00	3370.96
1000.16	3395.53
1000.32	3264.46
1000.48	3420.11
1000.64	3211.22
1000.80	3309.52
1000.95	3145.68
1001.11	3370.96
1001.27	3221.45
1001.43	3313.61
1001.59	3114.96
1001.75	3215.31
1001.91	3286.99
1002.07	3141.58
1002.23	3147.73
1002.39	3174.35
1002.55	3182.54
1002.71	3164.11
1002.87	3125.20
1003.03	3213.26
1003.19	3106.77
1003.34	3117.01
1003.50	3080.14
1003.66	3174.35
1003.82	3045.33
1003.98	3063.76
1004.14	3071.95
1004.30	3080.14
1004.46	3018.71
1004.62	3039.19
1004.78	3051.47
1004.94	3059.67
1005.09	3141.58
1005.25	3035.09
1005.41	3016.66
1005.57	3051.47
1005.73	3024.85
1005.89	3002.32
1006.05	3112.91
1006.21	2979.79
1006.37	2961.36
1006.52	2963.41
1006.68	2949.08
1006.84	3000.27
1007.00	2961.36
1007.16	3016.66
1007.32	2934.74
1007.48	2969.55
1007.64	3041.23
1007.79	3002.32
1007.95	2815.96
1008.11	2926.55
1008.27	2922.45
1008.43	2910.16
1008.59	2764.76
1008.75	2940.88
1008.91	2928.60
1009.06	2932.69
1009.22	2877.40
1009.38	2895.83
1009.54	2775.00
1009.70	2834.39
1009.86	2877.40
1010.01	2871.25
1010.17	2803.67
1010.33	2873.30
1010.49	2883.54
1010.65	2879.44
1010.81	2744.28
1010.96	2781.14
1011.12	2637.78
1011.28	2691.03
1011.44	2748.37
1011.60	2680.79
1011.76	2715.61
1011.91	2818.00
1012.07	2633.69
1012.23	2549.72
1012.39	2654.17
1012.55	2676.70
1012.71	2617.30
1012.86	2678.74
1013.02	2711.51
1013.18	2590.68
1013.34	2674.65
1013.50	2740.18
1013.65	2656.22
1013.81	2621.40
1013.97	2543.58
1014.13	2641.88
1014.29	2660.31
1014.44	2680.79
1014.60	2613.21
1014.76	2510.81
1014.92	2584.54
1015.07	2680.79
1015.23	2607.06
1015.39	2580.44
1015.55	2629.59
1015.71	2529.24
1015.86	2455.51
1016.02	2451.42
1016.18	2521.05
1016.34	2596.82
1016.49	2473.95
1016.65	2570.20
1016.81	2467.80
1016.97	2437.08
1017.12	2488.28
1017.28	2467.80
1017.44	2430.94
1017.60	2533.34
1017.75	2396.12
1017.91	2461.66
1018.07	2502.62
1018.23	2437.08
1018.38	2385.88
1018.54	2383.84
1018.70	2459.61
1018.86	2328.54
1019.01	2398.17
1019.17	2426.84
1019.33	2541.53
1019.49	2396.12
1019.64	2478.04
1019.80	2439.13
1019.96	2404.32
1020.12	2377.69
1020.27	2322.40
1020.43	2328.54
1020.59	2379.74
1020.74	2379.74
1020.90	2459.61
1021.06	2256.86
1021.22	2351.07
1021.37	2389.98
1021.53	2353.12
1021.69	2336.73
1021.84	2197.47
1022.00	2412.51
1022.16	2387.93
1022.31	2281.44
1022.47	2402.27
1022.63	2344.92
1022.79	2191.33
1022.94	2301.92
1023.10	2369.50
1023.26	2287.58
1023.41	2312.16
1023.57	2211.81
1023.73	2387.93
1023.88	2260.96
1024.04	2267.10
1024.20	2240.48
1024.35	2248.67
1024.51	2267.10
1024.67	2275.29
1024.82	2297.82
1024.98	2205.66
1025.14	2230.24
1025.29	2224.09
1025.45	2263.01
1025.61	2136.03
1025.76	2207.71
1025.92	2230.24
1026.08	2222.05
1026.23	2187.23
1026.39	2199.52
1026.55	2199.52
1026.70	2146.27
1026.86	2293.72
1027.02	2197.47
1027.17	2150.37
1027.33	2224.09
1027.48	2199.52
1027.64	2191.33
1027.80	2138.08
1027.95	2310.11
1028.11	2138.08
1028.27	2164.70
1028.42	2113.50
1028.58	2107.36
1028.73	2093.02
1028.89	2052.06
1029.05	2193.37
1029.20	2123.74
>>>>>End Processed Spectral Data<<<<<
