SpectraSuite Data File
++++++++++++++++++++++++++++++++++++
Date: Fri Jun 02 14:52:24 CEST 2017
User: INFO_000
Dark Spectrum Present: No
Reference Spectrum Present: No
Number of Sampled Component Spectra: 1
Spectrometers: USB4H00879
Integration Time (usec): 80000 (USB4H00879)
Spectra Averaged: 1 (USB4H00879)
Boxcar Smoothing: 0 (USB4H00879)
Correct for Electrical Dark: No (USB4H00879)
Strobe/Lamp Enabled: No (USB4H00879)
Correct for Detector Non-linearity: No (USB4H00879)
Correct for Stray Light: No (USB4H00879)
Number of Pixels in Processed Spectrum: 3648
>>>>>Begin Processed Spectral Data<<<<<
345.13	1267.69
345.34	1267.69
345.56	1267.69
345.78	1294.32
345.99	1245.16
346.21	1705.96
346.42	1699.81
346.64	1650.66
346.86	1820.64
347.07	1652.71
347.29	1718.25
347.50	1632.23
347.72	1683.43
347.94	1656.81
348.15	1572.84
348.37	1685.48
348.59	1648.61
348.80	1665.00
349.02	1765.35
349.23	1863.65
349.45	1757.16
349.67	1929.19
349.88	1837.03
350.10	1986.53
350.31	1855.46
350.53	1755.11
350.75	1925.09
350.96	1765.35
351.18	1882.08
351.39	1808.36
351.61	1789.92
351.82	1871.84
352.04	1837.03
352.26	1861.60
352.47	1900.52
352.69	1923.04
352.90	1722.34
353.12	1787.88
353.34	1767.40
353.55	1902.56
353.77	1791.97
353.98	1853.41
354.20	1845.22
354.41	1894.37
354.63	1949.67
354.85	2002.91
355.06	1935.33
355.28	1761.25
355.49	1914.85
355.71	1886.18
355.92	1931.23
356.14	1970.15
356.35	1851.36
356.57	1853.41
356.79	1941.47
357.00	1843.17
357.22	1961.95
357.43	1869.80
357.65	1988.58
357.86	1834.98
358.08	1857.51
358.29	1859.56
358.51	2052.06
358.72	1935.33
358.94	1910.75
359.16	1867.75
359.37	1943.52
359.59	1894.37
359.80	2078.69
360.02	1929.19
360.23	1935.33
360.45	2017.25
360.66	1920.99
360.88	1824.74
361.09	1908.71
361.31	2002.91
361.52	2025.44
361.74	2090.98
361.95	2060.26
362.17	1894.37
362.38	2164.70
362.60	2058.21
362.81	1998.82
363.03	1945.57
363.24	2011.11
363.46	2111.46
363.67	2043.87
363.89	1873.89
364.10	2017.25
364.32	2015.20
364.53	2050.02
364.75	1953.76
364.96	1972.19
365.18	2035.68
365.39	1961.95
365.61	1978.34
365.82	2133.98
366.04	2078.69
366.25	1947.62
366.47	2021.35
366.68	2072.54
366.90	2095.07
367.11	2086.88
367.33	2050.02
367.54	2076.64
367.76	2004.96
367.97	2068.45
368.19	1986.53
368.40	2068.45
368.62	2011.11
368.83	2000.87
369.05	2045.92
369.26	2025.44
369.48	2007.01
369.69	2035.68
369.91	2058.21
370.12	2066.40
370.33	2117.60
370.55	2023.39
370.76	2035.68
370.98	2125.79
371.19	2039.78
371.41	2013.15
371.62	2043.87
371.84	2015.20
372.05	2191.33
372.27	2074.59
372.48	2056.16
372.69	2119.65
372.91	2109.41
373.12	2220.00
373.34	2109.41
373.55	2230.24
373.77	2113.50
373.98	2101.22
374.20	2117.60
374.41	2256.86
374.62	2131.94
374.84	2220.00
375.05	2254.81
375.27	2158.56
375.48	2224.09
375.70	2162.66
375.91	2209.76
376.12	2289.63
376.34	2156.51
376.55	2172.89
376.77	2217.95
376.98	2099.17
377.19	2207.71
377.41	2133.98
377.62	2154.46
377.84	2240.48
378.05	2361.31
378.27	2252.77
378.48	2359.26
378.69	2432.99
378.91	2285.53
379.12	2273.25
379.34	2258.91
379.55	2330.59
379.76	2285.53
379.98	2271.20
380.19	2238.43
380.41	2209.76
380.62	2342.88
380.83	2285.53
381.05	2258.91
381.26	2392.03
381.47	2211.81
381.69	2306.01
381.90	2437.08
382.12	2240.48
382.33	2297.82
382.54	2306.01
382.76	2389.98
382.97	2283.49
383.19	2275.29
383.40	2400.22
383.61	2224.09
383.83	2342.88
384.04	2451.42
384.25	2334.68
384.47	2449.37
384.68	2392.03
384.89	2351.07
385.11	2363.36
385.32	2277.34
385.54	2465.75
385.75	2418.65
385.96	2443.23
386.18	2449.37
386.39	2494.43
386.60	2379.74
386.82	2457.56
387.03	2482.14
387.24	2430.94
387.46	2510.81
387.67	2592.73
387.88	2580.44
388.10	2512.86
388.31	2584.54
388.52	2541.53
388.74	2576.34
388.95	2531.29
389.16	2574.30
389.38	2510.81
389.59	2557.91
389.80	2592.73
390.02	2555.86
390.23	2699.22
390.44	2645.98
390.66	2475.99
390.87	2596.82
391.08	2570.20
391.30	2760.66
391.51	2686.94
391.72	2691.03
391.94	2691.03
392.15	2656.22
392.36	2605.02
392.58	2615.26
392.79	2721.75
393.00	2701.27
393.22	2727.89
393.43	2707.41
393.64	2822.10
393.85	2746.33
394.07	2680.79
394.28	2766.81
394.49	2805.72
394.71	2719.70
394.92	2811.86
395.13	2764.76
395.35	2805.72
395.56	2764.76
395.77	2912.21
395.98	2822.10
396.20	2820.05
396.41	2832.34
396.62	3063.76
396.84	2908.12
397.05	2807.77
397.26	2987.99
397.47	3043.28
397.69	2885.59
397.90	3086.29
398.11	2944.98
398.32	2947.03
398.54	2904.02
398.75	2953.17
398.96	2961.36
399.18	3039.19
399.39	3047.38
399.60	3135.44
399.81	2994.13
400.03	2914.26
400.24	3254.22
400.45	3035.09
400.66	3135.44
400.88	3053.52
401.09	3284.94
401.30	2996.18
401.51	3174.35
401.73	3168.21
401.94	3205.07
402.15	3258.32
402.36	3209.17
402.58	3205.07
402.79	3231.69
403.00	3211.22
403.21	3221.45
403.43	3248.08
403.64	3303.37
403.85	3184.59
404.06	3254.22
404.27	3162.06
404.49	3323.85
404.70	3321.81
404.91	3424.20
405.12	3327.95
405.34	3229.65
405.55	3395.53
405.76	3203.02
405.97	3264.46
406.19	3330.00
406.40	3274.70
406.61	3334.09
406.82	3418.06
407.03	3336.14
407.25	3327.95
407.46	3450.83
407.67	3477.45
407.88	3424.20
408.09	3303.37
408.31	3362.76
408.52	3387.34
408.73	3366.86
408.94	3348.43
409.15	3456.97
409.37	3485.64
409.58	3575.75
409.79	3450.83
410.00	3594.19
410.21	3444.68
410.43	3549.13
410.64	3403.72
410.85	3577.80
411.06	3657.67
411.27	3600.33
411.48	3698.63
411.70	3475.40
411.91	3614.66
412.12	3727.30
412.33	3622.86
412.54	3583.95
412.76	3778.50
412.97	3594.19
413.18	3692.49
413.39	3682.25
413.60	3694.54
413.81	3557.32
414.03	3682.25
414.24	3622.86
414.45	3712.97
414.66	3626.95
414.87	3770.31
415.08	3737.54
415.30	3852.23
415.51	3684.30
415.72	3794.89
415.93	3821.51
416.14	3811.27
416.35	3928.00
416.56	3874.76
416.78	3848.13
416.99	3891.14
417.20	3891.14
417.41	3923.91
417.62	3878.85
417.83	3880.90
418.04	4026.31
418.26	4093.89
418.47	3942.34
418.68	4069.31
418.89	4067.27
419.10	4145.09
419.31	4036.55
419.52	4079.55
419.73	4184.00
419.95	4179.90
420.16	3891.14
420.37	4059.07
420.58	4120.51
420.79	3919.81
421.00	3962.82
421.21	4206.53
421.42	4100.03
421.63	4081.60
421.85	4093.89
422.06	4243.39
422.27	4202.43
422.48	4157.38
422.69	4284.35
422.90	4237.25
423.11	4331.45
423.32	4462.52
423.53	4466.62
423.75	4456.38
423.96	4554.68
424.17	4618.17
424.38	4571.07
424.59	4489.15
424.80	4505.53
425.01	4501.44
425.22	4646.84
425.43	4444.09
425.64	4704.18
425.85	4724.66
426.06	4657.08
426.28	4714.42
426.49	4515.77
426.70	4650.94
426.91	4693.94
427.12	4739.00
427.33	4673.46
427.54	4706.23
427.75	4698.04
427.96	4859.83
428.17	4861.88
428.38	4911.03
428.59	4908.98
428.80	4894.65
429.01	4808.63
429.23	4939.70
429.44	5277.62
429.65	5038.00
429.86	4990.90
430.07	4851.64
430.28	4933.56
430.49	5038.00
430.70	5244.85
430.91	5216.18
431.12	5189.55
431.33	5109.68
431.54	5277.62
431.75	5246.90
431.96	5203.89
432.17	5203.89
432.38	5281.71
432.59	5502.89
432.80	5365.68
433.01	5433.26
433.22	5457.84
433.43	5441.45
433.64	5498.80
433.85	5302.19
434.06	5517.23
434.27	5189.55
434.49	5468.08
434.70	5535.66
434.91	5615.53
435.12	5500.84
435.33	5599.15
435.54	5556.14
435.75	5386.16
435.96	5646.25
436.17	5509.04
436.38	5785.51
436.59	5752.74
436.80	5697.45
437.01	5902.25
437.22	5840.81
437.43	5935.01
437.64	5642.15
437.85	5951.40
438.06	5799.85
438.27	5724.07
438.48	5732.26
438.69	6066.08
438.90	5945.25
439.11	5728.17
439.32	6041.51
439.53	5853.09
439.74	5906.34
439.95	5894.05
440.16	5992.36
440.37	6047.65
440.57	5894.05
440.78	6041.51
440.99	6047.65
441.20	6016.93
441.41	6012.84
441.62	6256.54
441.83	5998.50
442.04	6205.35
442.25	6074.28
442.46	6266.78
442.67	6295.46
442.88	6707.10
443.09	6109.09
443.30	6219.68
443.51	6254.50
443.72	6500.25
443.93	6193.06
444.14	6510.49
444.35	6121.38
444.56	6393.76
444.77	6463.39
444.98	6385.57
445.19	6360.99
445.40	6469.53
445.61	6490.01
445.81	6524.83
446.02	6471.58
446.23	6588.32
446.44	6451.10
446.65	6686.62
446.86	6614.94
447.07	6717.34
447.28	6862.74
447.49	6854.55
447.70	6547.36
447.91	6748.06
448.12	6850.46
448.33	6817.69
448.54	6924.18
448.74	6795.16
448.95	6844.31
449.16	6793.11
449.37	7083.92
449.58	6743.96
449.79	7006.10
450.00	6885.27
450.21	7147.41
450.42	7094.16
450.63	7147.41
450.84	7034.77
451.05	7047.06
451.25	6940.57
451.46	7020.44
451.67	7108.50
451.88	7376.78
452.09	7323.54
452.30	7186.32
452.51	7188.37
452.72	7333.78
452.93	7532.43
453.13	7202.71
453.34	7229.33
453.55	7358.35
453.76	7434.13
453.97	7782.28
454.18	7647.12
454.39	7503.76
454.60	7440.27
454.81	7565.20
455.01	7813.00
455.22	7485.33
455.43	7624.59
455.64	7829.38
455.85	7974.79
456.06	7903.11
456.27	7839.62
456.48	7706.51
456.68	7976.84
456.89	7978.89
457.10	8120.20
457.31	7954.31
457.52	7999.37
457.73	8003.46
457.94	8456.06
458.14	8019.85
458.35	8435.58
458.56	8253.31
458.77	8241.03
458.98	8552.32
459.19	8578.94
459.39	8398.72
459.60	8497.02
459.81	8505.21
460.02	8537.98
460.23	8540.03
460.44	8787.83
460.65	8750.97
460.85	8871.80
461.06	8765.31
461.27	8599.42
461.48	8996.73
461.69	9181.04
461.89	8693.63
462.10	9041.78
462.31	8802.17
462.52	8808.31
462.73	9172.85
462.94	9256.82
463.14	9082.74
463.35	9363.31
463.56	9607.02
463.77	9643.88
463.98	9459.57
464.18	9432.94
464.39	9633.64
464.60	9676.65
464.81	9690.99
465.02	9578.35
465.23	9922.41
465.43	9781.10
465.64	10125.16
465.85	9940.84
466.06	9940.84
466.27	10323.81
466.47	10157.92
466.68	10223.46
466.89	10145.64
467.10	10479.46
467.30	10139.49
467.51	10530.66
467.72	10710.88
467.93	10383.20
468.14	10626.91
468.34	10735.45
468.55	10690.40
468.76	10637.15
468.97	10512.22
469.17	10905.43
469.38	10913.63
469.59	11208.53
469.80	11085.65
470.01	11102.04
470.21	10966.87
470.42	11470.67
470.63	11437.91
470.84	11386.71
471.04	11616.08
471.25	11687.76
471.46	11525.97
471.67	11904.84
471.87	11675.47
472.08	11863.88
472.29	12076.87
472.50	11829.07
472.70	11876.17
472.91	11898.70
473.12	12222.28
473.33	12545.86
473.53	12414.79
473.74	12095.30
473.95	12601.15
474.16	12713.79
474.36	12654.40
474.57	12955.45
474.78	13176.63
474.99	12791.61
475.19	12805.95
475.40	13186.87
475.61	13258.55
475.81	13584.18
476.02	13655.86
476.23	13352.76
476.44	13686.58
476.64	13965.10
476.85	13995.82
477.06	13932.33
477.27	13920.04
477.47	13942.57
477.68	14188.33
477.89	14440.23
478.09	14212.90
478.30	14212.90
478.51	14319.40
478.71	14554.91
478.92	14665.50
479.13	14712.61
479.34	15034.14
479.54	14696.22
479.75	14937.88
479.96	15236.89
480.16	15015.71
480.37	15451.92
480.58	15359.77
480.78	15537.94
480.99	15582.99
481.20	15361.81
481.41	15806.22
481.61	15920.91
481.82	15996.68
482.03	15963.92
482.23	16113.42
482.44	16402.18
482.65	16439.05
482.85	16187.14
483.06	16387.85
483.27	16406.28
483.47	16537.35
483.68	16553.73
483.89	16805.63
484.09	16692.99
484.30	17006.33
484.51	17276.66
484.71	17334.01
484.92	17061.63
485.13	17348.34
485.33	17360.63
485.54	17247.99
485.75	17739.51
485.95	17639.15
486.16	17800.94
486.37	17774.32
486.57	17901.29
486.78	17872.62
486.98	17925.87
487.19	18427.62
487.40	18429.67
487.60	18220.78
487.81	18271.98
488.02	18456.29
488.22	18181.87
488.43	18700.00
488.64	18427.62
488.84	18771.68
489.05	19025.63
489.25	18728.67
489.46	18994.91
489.67	19068.64
489.87	19441.37
490.08	19406.55
490.29	19273.43
490.49	19713.75
490.70	19902.16
490.90	19766.99
491.11	19597.01
491.32	19945.17
491.52	19865.30
491.73	20072.14
491.94	19846.87
492.14	20055.76
492.35	20569.80
492.55	20551.37
492.76	20483.78
492.97	20430.54
493.17	20651.72
493.38	20676.29
493.58	20901.57
493.79	20911.81
494.00	20868.80
494.20	20948.67
494.41	21147.33
494.61	21188.28
494.82	21212.86
495.02	21495.48
495.23	21274.30
495.44	21462.71
495.64	21802.68
495.85	21640.89
496.05	21661.37
496.26	21583.54
496.47	21980.85
496.67	21933.75
496.88	22191.79
497.08	21765.81
497.29	22154.93
497.49	22138.54
497.70	22179.50
497.91	22359.72
498.11	22363.82
498.32	22857.38
498.52	22716.07
498.73	23080.61
498.93	22572.71
499.14	23049.89
499.34	22912.67
499.55	23191.20
499.76	22816.42
499.96	23234.21
500.17	23099.04
500.37	23381.66
500.58	23283.36
500.78	23717.53
500.99	23637.66
501.19	23950.99
501.40	23774.87
501.60	23400.09
501.81	23942.80
502.02	23946.90
502.22	23647.90
502.43	24010.39
502.63	23971.47
502.84	24589.96
503.04	24487.56
503.25	24585.86
503.45	24546.95
503.66	24592.01
503.86	24471.18
504.07	24970.88
504.27	24258.19
504.48	24856.20
504.68	24899.20
504.89	25179.78
505.09	25011.84
505.30	24981.12
505.50	25132.67
505.71	25241.21
505.91	25552.51
506.12	25439.87
506.32	25120.38
506.53	25685.62
506.73	25671.29
506.94	25804.41
507.14	25890.42
507.35	25759.35
507.55	26039.92
507.76	25958.00
507.96	26185.33
508.17	25974.39
508.37	26336.88
508.58	26023.54
508.78	26199.66
508.99	26404.46
509.19	26406.51
509.40	26449.52
509.60	26773.10
509.81	26969.70
510.01	26445.42
510.22	26650.22
510.42	26740.33
510.63	26936.93
510.83	26830.44
511.04	27133.54
511.24	26941.03
511.44	26793.58
511.65	27149.92
511.85	27268.70
512.06	27518.56
512.26	27481.69
512.47	27719.26
512.67	27473.50
512.88	27547.23
513.08	27530.84
513.29	27639.39
513.49	27747.93
513.69	27901.53
513.90	27885.14
514.10	27831.90
514.31	28094.04
514.51	28036.69
514.72	28018.26
514.92	28104.28
515.13	27850.33
515.33	28423.76
515.53	28255.82
515.74	28223.06
515.94	28634.70
516.15	28646.99
516.35	28511.82
516.56	28763.72
516.76	28524.11
516.96	28677.71
517.17	28827.21
517.37	28927.56
517.58	29210.18
517.78	28888.65
517.99	28935.75
518.19	29140.55
518.39	29298.24
518.60	29443.65
518.80	29490.75
519.01	29537.85
519.21	29636.16
519.41	29541.95
519.62	29308.48
519.82	29955.64
520.03	30111.28
520.23	29879.86
520.43	30123.57
520.64	30168.63
520.84	30232.11
521.05	30217.78
521.25	30268.98
521.45	30346.80
521.66	30570.03
521.86	30354.99
522.07	30559.79
522.27	30537.26
522.47	30512.69
522.68	30950.95
522.88	31065.64
523.08	31209.00
523.29	31276.58
523.49	31020.58
523.70	31194.66
523.90	31604.25
524.10	31106.60
524.31	31428.13
524.51	31223.33
524.71	31925.78
524.92	31927.83
525.12	31673.88
525.33	31940.12
525.53	32187.92
525.73	32312.85
525.94	32439.82
526.14	32136.73
526.34	32417.30
526.55	32542.22
526.75	32339.47
526.95	32597.52
527.16	32544.27
527.36	32478.74
527.56	32726.54
527.77	32929.29
527.97	32855.56
528.17	32949.77
528.38	32890.38
528.58	33326.60
528.78	33132.04
528.99	32990.73
529.19	33756.67
529.39	33320.45
529.60	33592.83
529.80	33687.04
530.00	33498.62
530.21	33836.54
530.41	34239.99
530.61	33818.11
530.82	34160.12
531.02	34029.05
531.22	34141.69
531.43	34334.20
531.63	34358.77
531.83	34586.10
532.04	35196.39
532.24	34407.92
532.44	35122.66
532.64	35177.96
532.85	34747.89
533.05	34905.58
533.25	35339.75
533.46	34969.07
533.66	35724.77
533.86	35218.92
534.07	35522.02
534.27	35405.28
534.47	36052.44
534.67	35780.06
534.88	35550.69
535.08	35640.80
535.28	35395.04
535.49	35921.37
535.69	36316.63
535.89	35948.00
536.09	36464.08
536.30	36171.22
536.50	36290.01
536.70	36894.16
536.91	36492.76
537.11	36619.73
537.31	36922.83
537.51	36640.21
537.72	36701.65
537.92	36967.88
538.12	37524.93
538.32	37453.25
538.53	37496.26
538.73	37209.54
538.93	37197.26
539.13	37490.12
539.34	37295.56
539.54	37316.04
539.74	37821.89
539.94	37895.61
540.15	37463.49
540.35	38024.64
540.55	37582.27
540.75	38141.37
540.96	38014.40
541.16	37971.39
541.36	38012.35
541.56	38454.71
541.77	38225.34
541.97	38067.64
542.17	38186.43
542.37	38311.35
542.58	38434.23
542.78	38682.03
542.98	38145.47
543.18	38577.59
543.38	39126.44
543.59	38657.46
543.79	38401.46
543.99	38753.71
544.19	38782.38
544.40	39196.07
544.60	39525.80
544.80	39114.16
545.00	39343.53
545.20	39456.17
545.41	39015.85
545.61	39273.90
545.81	39417.25
546.01	39495.08
546.21	39388.58
546.42	39718.31
546.62	39835.04
546.82	39478.69
547.02	39667.11
547.22	39818.66
547.43	39552.42
547.63	39777.70
547.83	39843.23
548.03	39517.60
548.23	40019.36
548.44	39982.49
548.64	40394.14
548.84	40148.38
549.04	40019.36
549.24	40379.80
549.45	40517.01
549.65	40431.00
549.85	40463.77
550.05	40621.46
550.25	40185.24
550.45	40641.94
550.66	40822.16
550.86	40498.58
551.06	40854.93
551.26	40750.48
551.46	41026.96
551.66	40897.94
551.87	41045.39
552.07	41383.30
552.27	40828.30
552.47	40670.61
552.67	41067.92
552.87	41004.43
553.07	41262.47
553.28	41407.88
553.48	41475.46
553.68	41428.36
553.88	41946.50
554.08	41594.25
554.28	41571.72
554.48	41895.30
554.69	41725.32
554.89	41371.02
555.09	41258.38
555.29	41340.30
555.49	41510.28
555.69	41926.02
555.89	41481.61
556.10	42124.67
556.30	41584.01
556.50	41586.05
556.70	41940.35
556.90	42284.41
557.10	42433.91
557.30	41827.71
557.50	42612.09
557.70	42448.25
557.91	42526.07
558.11	42161.53
558.31	42810.74
558.51	42343.80
558.71	42562.93
558.91	42567.03
559.11	42462.58
559.31	42870.13
559.51	42511.74
559.72	42296.70
559.92	42714.48
560.12	42683.76
560.32	43326.83
560.52	42970.48
560.72	42956.14
560.92	43111.79
561.12	42814.83
561.32	43310.44
561.52	42888.56
561.72	43507.05
561.93	43070.83
562.13	43044.21
562.33	43257.20
562.53	43691.37
562.73	43425.13
562.93	43341.16
563.13	43484.52
563.33	43408.75
563.53	43943.27
563.73	43711.84
563.93	44064.10
564.13	44170.59
564.33	43582.82
564.53	43871.59
564.74	43924.83
564.94	43941.22
565.14	43761.00
565.34	43949.41
565.54	44143.97
565.74	44326.24
565.94	44623.19
566.14	43953.51
566.34	44512.60
566.54	44541.27
566.74	44348.76
566.94	44189.02
567.14	44504.41
567.34	44289.37
567.54	44848.47
567.74	44463.45
567.94	44459.35
568.14	45010.26
568.34	44959.06
568.54	44674.39
568.74	44868.95
568.94	44731.73
569.14	45712.71
569.34	45081.94
569.54	45104.46
569.75	45288.78
569.95	44875.09
570.15	45501.77
570.35	45262.16
570.55	45354.32
570.75	45509.96
570.95	45714.76
571.15	45516.11
571.35	45507.91
571.55	45811.01
571.75	45995.33
571.95	45839.68
572.15	45634.89
572.35	45888.84
572.55	45888.84
572.75	46015.81
572.95	45935.94
573.15	45997.38
573.35	46003.52
573.55	45884.74
573.75	46312.77
573.95	46445.88
574.15	46196.03
574.35	46028.10
574.55	46492.99
574.75	46648.63
574.95	46220.61
575.15	46288.19
575.34	46738.74
575.54	47101.23
575.74	47338.80
575.94	47011.12
576.14	46732.60
576.34	47193.39
576.54	47117.62
576.74	47494.44
576.94	46896.44
577.14	47682.86
577.34	47713.58
577.54	47322.41
577.74	47437.10
577.94	47433.00
578.14	47525.16
578.34	47789.35
578.54	47258.93
578.74	47697.19
578.94	47736.10
579.14	47478.06
579.34	47840.55
579.54	47732.01
579.74	48373.02
579.94	48061.73
580.13	48117.03
580.33	48375.07
580.53	48317.73
580.73	48239.90
580.93	48059.68
581.13	48432.41
581.33	48684.31
581.53	48563.48
581.73	48438.56
581.93	49050.90
582.13	48801.05
582.33	49036.56
582.53	48483.61
582.73	49274.13
582.92	49188.11
583.12	49513.74
583.32	49509.64
583.52	48882.97
583.72	49298.70
583.92	49159.44
584.12	49239.31
584.32	49683.72
584.52	49825.03
584.72	49431.82
584.92	49700.11
585.11	50197.76
585.31	49601.80
585.51	49757.45
585.71	49501.45
585.91	49855.75
586.11	49784.07
586.31	50058.50
586.51	50152.71
586.71	50021.64
586.91	50177.28
587.10	50593.02
587.30	50216.19
587.50	50318.59
587.70	50283.78
587.90	50558.20
588.10	50406.65
588.30	50431.23
588.50	50541.82
588.69	50404.61
588.89	50654.46
589.09	50838.78
589.29	50791.67
589.49	51397.87
589.69	50707.71
589.89	51121.40
590.08	50924.79
590.28	50892.02
590.48	50582.78
590.68	50887.93
590.88	50965.75
591.08	51184.88
591.28	51051.76
591.47	51234.03
591.67	51123.44
591.87	51361.01
592.07	51381.49
592.27	51569.90
592.47	50973.94
592.67	51547.37
592.86	51193.07
593.06	51721.45
593.26	51551.47
593.46	51617.00
593.66	51846.38
593.86	51868.90
594.05	51784.94
594.25	52049.13
594.45	51549.42
594.65	51264.75
594.85	51303.67
595.05	51737.83
595.24	52149.48
595.44	52085.99
595.64	52022.50
595.84	51748.07
596.04	51989.73
596.23	52157.67
596.43	52151.52
596.63	52106.47
596.83	51987.69
597.03	52190.44
597.22	52569.31
597.42	52511.97
597.62	52714.72
597.82	52532.45
598.02	52421.86
598.21	52509.92
598.41	52092.13
598.61	52847.83
598.81	52542.69
599.01	52849.88
599.20	52757.72
599.40	53132.50
599.60	52692.19
599.80	52925.66
600.00	52765.91
600.19	53206.23
600.39	52491.49
600.59	53116.12
600.79	52663.52
600.98	52915.42
601.18	53456.08
601.38	53271.76
601.58	53544.14
601.78	53202.13
601.97	53155.03
602.17	53970.12
602.37	53101.78
602.57	53394.64
602.76	53583.05
602.96	53589.20
603.16	53630.16
603.36	53867.72
603.55	53841.10
603.75	53066.97
603.95	53599.44
604.15	53820.62
604.34	53802.19
604.54	54062.28
604.74	53773.52
604.94	53707.98
605.13	53685.45
605.33	54142.15
605.53	53869.77
605.73	54215.88
605.92	54164.68
606.12	53871.82
606.32	54226.12
606.52	53880.01
606.71	53941.45
606.91	54334.66
607.11	53931.21
607.30	54262.98
607.50	54197.44
607.70	54383.81
607.90	54314.18
608.09	54258.88
608.29	54400.19
608.49	54551.74
608.68	54529.22
608.88	54748.35
609.08	54375.62
609.28	54426.82
609.47	54437.06
609.67	54580.42
609.87	54768.83
610.06	54523.07
610.26	54592.70
610.46	54760.64
610.66	54627.52
610.85	54090.95
611.05	54559.94
611.25	54899.90
611.44	54115.53
611.64	54842.56
611.84	54385.86
612.03	54635.71
612.23	54486.21
612.43	54109.38
612.62	54662.33
612.82	54660.29
613.02	54684.86
613.21	54820.03
613.41	54490.30
613.61	54785.21
613.80	54303.94
614.00	54750.40
614.20	54803.64
614.39	54822.08
614.59	54789.31
614.79	54539.46
614.98	54484.16
615.18	54787.26
615.38	54959.29
615.57	54351.04
615.77	54678.72
615.97	54410.43
616.16	54502.59
616.36	54754.49
616.56	55033.02
616.75	54625.47
616.95	54580.42
617.15	54437.06
617.34	54615.23
617.54	54697.15
617.74	54711.49
617.93	54830.27
618.13	54340.80
618.32	54772.92
618.52	54748.35
618.72	54521.02
618.91	54670.53
619.11	53963.98
619.31	54449.35
619.50	54809.79
619.70	54701.25
619.90	54801.60
620.09	54418.63
620.29	54711.49
620.48	54293.70
620.68	54783.16
620.88	54150.34
621.07	54813.88
621.27	54785.21
621.46	54621.37
621.66	54672.57
621.86	54351.04
622.05	54375.62
622.25	55002.30
622.44	54353.09
622.64	54248.64
622.84	54617.28
623.03	54252.74
623.23	54738.11
623.42	54498.50
623.62	54293.70
623.82	54488.26
624.01	54359.23
624.21	54437.06
624.40	54340.80
624.60	54508.74
624.80	54482.11
624.99	54377.67
625.19	54131.91
625.38	54631.61
625.58	54582.46
625.77	53994.70
625.97	54222.02
626.17	54189.25
626.36	54389.95
626.56	54465.73
626.75	53904.59
626.95	54688.96
627.14	54531.26
627.34	54990.01
627.54	54103.24
627.73	54138.05
627.93	54355.14
628.12	53994.70
628.32	54252.74
628.51	54494.40
628.71	54555.84
628.90	54392.00
629.10	54592.70
629.30	54424.77
629.49	54791.36
629.69	54326.47
629.88	54396.10
630.08	54338.75
630.27	54711.49
630.47	54488.26
630.66	53945.54
630.86	54990.01
631.05	54037.70
631.25	54953.15
631.44	54750.40
631.64	54940.86
631.84	54783.16
632.03	54903.99
632.23	54820.03
632.42	54875.32
632.62	54555.84
632.81	54637.76
633.01	54817.98
633.20	54697.15
633.40	55024.82
633.59	54510.78
633.79	54348.99
633.98	54871.23
634.18	54748.35
634.37	54555.84
634.57	54744.25
634.76	54920.38
634.96	55133.37
635.15	55334.07
635.35	54285.51
635.54	54557.89
635.74	54969.53
635.93	54944.95
636.13	55497.91
636.32	55291.06
636.52	55047.35
636.71	55096.50
636.91	55274.68
637.10	55096.50
637.30	54983.86
637.49	54770.88
637.69	55104.70
637.88	55626.93
638.08	55235.77
638.27	55504.05
638.46	54920.38
638.66	54711.49
638.85	55016.63
639.05	55366.84
639.24	55280.82
639.44	54955.19
639.63	55456.95
639.83	55516.34
640.02	55665.84
640.22	55461.04
640.41	55760.05
640.61	55264.44
640.80	55899.31
640.99	55557.30
641.19	56419.49
641.38	55221.43
641.58	55751.85
641.77	55637.17
641.97	55293.11
642.16	55946.41
642.36	55436.47
642.55	56306.85
642.74	55133.37
642.94	56687.78
643.13	56061.10
643.33	55821.48
643.52	56360.10
643.72	56851.61
643.91	56095.91
644.10	56278.18
644.30	56493.22
644.49	56077.48
644.69	56468.64
644.88	56071.34
645.08	56126.63
645.27	56216.74
645.46	56267.94
645.66	56456.35
645.85	56241.32
646.05	56743.07
646.24	56396.96
646.43	56308.90
646.63	56530.08
646.82	56456.35
647.02	56972.44
647.21	56913.05
647.40	56587.42
647.60	56767.65
647.79	56902.81
647.99	57377.94
648.18	56990.87
648.37	57308.31
648.57	57318.55
648.76	56700.06
648.96	56931.48
649.15	57181.34
649.34	56849.56
649.54	56943.77
649.73	56915.10
649.92	57164.95
650.12	57244.82
650.31	57123.99
650.51	57568.40
650.70	57664.66
650.89	57050.27
651.09	57865.36
651.28	57224.34
651.47	57148.57
651.67	57377.94
651.86	57613.46
652.06	57080.98
652.25	57076.89
652.44	57289.88
652.64	57244.82
652.83	57228.44
653.02	56870.04
653.22	57279.64
653.41	57136.28
653.60	57373.84
653.80	57384.08
653.99	58119.31
654.18	57371.80
654.38	57912.46
654.57	57855.12
654.76	57480.34
654.96	57394.32
655.15	57490.58
655.34	57717.90
655.54	57316.50
655.73	57715.86
655.92	58041.48
656.12	57785.49
656.31	57543.83
656.50	57623.70
656.70	57662.61
656.89	58014.86
657.08	58414.21
657.28	57941.13
657.47	58168.46
657.66	57840.78
657.86	58119.31
658.05	57918.60
658.24	57926.80
658.43	57603.22
658.63	58168.46
658.82	58406.02
659.01	58475.65
659.21	58193.03
659.40	58131.59
659.59	57934.99
659.79	58178.70
659.98	58270.85
660.17	58672.26
660.36	58309.77
660.56	58549.38
660.75	58262.66
660.94	58219.66
661.14	58274.95
661.33	58145.93
661.52	58074.25
661.71	58358.92
661.91	57713.81
662.10	57877.64
662.29	58588.29
662.49	58262.66
662.68	58334.34
662.87	58199.18
663.06	58223.75
663.26	58686.59
663.45	58719.36
663.64	58504.32
663.83	58793.09
664.03	58707.07
664.22	58524.80
664.41	58641.54
664.60	57914.51
664.80	58428.55
664.99	58569.86
665.18	58692.74
665.37	58868.86
665.57	58690.69
665.76	58064.01
665.95	58506.37
666.14	58627.20
666.34	58592.39
666.53	58496.13
666.72	58252.42
666.91	58385.54
667.11	58545.28
667.30	58471.56
667.49	58354.82
667.68	58045.58
667.87	57801.87
668.07	58795.13
668.26	58334.34
668.45	58547.33
668.64	58203.27
668.84	59022.46
669.03	58942.59
669.22	58537.09
669.41	58371.21
669.60	58709.12
669.80	58160.26
669.99	58713.22
670.18	58504.32
670.37	58557.57
670.57	58784.90
670.76	58408.07
670.95	58758.27
671.14	58133.64
671.33	57853.07
671.53	59188.34
671.72	58668.16
671.91	58356.87
672.10	58502.28
672.29	58473.60
672.48	58371.21
672.68	58676.35
672.87	58455.17
673.06	58508.42
673.25	58084.49
673.44	58580.10
673.64	57767.05
673.83	57984.14
674.02	58213.51
674.21	58320.01
674.40	58324.10
674.59	58033.29
674.79	58297.48
674.98	57848.97
675.17	58143.88
675.36	57810.06
675.55	58045.58
675.74	57750.67
675.94	58180.74
676.13	58309.77
676.32	58268.81
676.51	58721.41
676.70	58176.65
676.89	58266.76
677.08	58664.06
677.28	57857.17
677.47	58025.10
677.66	58172.55
677.85	58125.45
678.04	57996.43
678.23	58295.43
678.42	58045.58
678.62	58014.86
678.81	58604.67
679.00	57879.69
679.19	58410.12
679.38	58307.72
679.57	57871.50
679.76	57812.11
679.96	58035.34
680.15	58461.32
680.34	57877.64
680.53	57648.27
680.72	57728.14
680.91	58008.71
681.10	57744.53
681.29	58406.02
681.48	57291.93
681.68	57650.32
681.87	57582.74
682.06	57046.17
682.25	57287.83
682.44	57582.74
682.63	57627.79
682.82	57214.10
683.01	57549.97
683.20	56964.25
683.39	57320.60
683.59	57011.35
683.78	57001.11
683.97	56882.33
684.16	57275.54
684.35	56982.68
684.54	57201.82
684.73	56794.27
684.92	56741.02
685.11	56824.99
685.30	56927.39
685.49	56990.87
685.69	56923.29
685.88	57160.86
686.07	56933.53
686.26	56863.90
686.45	57070.75
686.64	57046.17
686.83	56904.86
687.02	56781.98
687.21	57017.50
687.40	57058.46
687.59	56947.87
687.78	56399.01
687.97	56632.48
688.16	56702.11
688.35	56124.58
688.54	55899.31
688.74	56820.89
688.93	56343.72
689.12	56366.24
689.31	56038.57
689.50	56657.06
689.69	55733.42
689.88	55973.03
690.07	56149.16
690.26	56173.73
690.45	56513.70
690.64	56253.61
690.83	56257.70
691.02	56040.62
691.21	55784.62
691.40	56224.93
691.59	56245.41
691.78	56278.18
691.97	55932.07
692.16	56130.73
692.35	56644.77
692.54	56085.67
692.73	56380.58
692.92	55930.03
693.11	55942.31
693.30	55721.13
693.49	55852.20
693.68	55628.98
693.87	55526.58
694.06	55071.93
694.25	55381.17
694.44	55370.93
694.63	55506.10
694.82	55596.21
695.01	55180.47
695.20	55022.78
695.39	55080.12
695.58	54789.31
695.77	55014.58
695.96	55366.84
696.15	54848.70
696.34	55399.60
696.53	55235.77
696.72	55166.13
696.91	54494.40
697.10	54955.19
697.29	54903.99
697.48	55125.17
697.67	54953.15
697.86	54301.89
698.05	54496.45
698.24	55157.94
698.43	54121.67
698.62	54801.60
698.81	54512.83
699.00	54637.76
699.19	54414.53
699.38	54658.24
699.57	54334.66
699.76	54512.83
699.95	54670.53
700.14	54607.04
700.32	54580.42
700.51	54246.60
700.70	54365.38
700.89	54891.71
701.08	54637.76
701.27	54334.66
701.46	54039.75
701.65	53621.97
701.84	54166.73
702.03	54043.85
702.22	53812.43
702.41	54140.10
702.60	53910.73
702.79	53738.70
702.98	53370.07
703.17	53427.41
703.35	53632.21
703.54	53230.80
703.73	53519.57
703.92	53798.09
704.11	53343.44
704.30	53066.97
704.49	53003.48
704.68	52987.10
704.87	53478.61
705.06	53077.21
705.25	53003.48
705.43	52804.83
705.62	53036.25
705.81	53124.31
706.00	53277.91
706.19	53152.98
706.38	53075.16
706.57	53019.86
706.76	52692.19
706.95	52729.05
707.14	52569.31
707.32	52665.56
707.51	52425.95
707.70	52499.68
707.89	52853.98
708.08	52913.37
708.27	52634.84
708.46	52767.96
708.65	52714.72
708.84	52925.66
709.02	52292.83
709.21	52479.20
709.40	52237.54
709.59	52483.30
709.78	52243.68
709.97	52438.24
710.16	51844.33
710.34	52143.33
710.53	52272.35
710.72	51578.09
710.91	52421.86
711.10	52348.13
711.29	52632.80
711.48	52198.63
711.66	52167.91
711.85	51672.30
712.04	51717.35
712.23	51682.54
712.42	51795.18
712.61	51868.90
712.80	51922.15
712.98	51647.72
713.17	51051.76
713.36	51819.75
713.55	51754.22
713.74	51447.02
713.93	51881.19
714.11	51365.10
714.30	51457.26
714.49	51262.71
714.68	51551.47
714.87	51668.20
715.06	51700.97
715.24	51471.60
715.43	51324.14
715.62	51221.75
715.81	51004.66
716.00	51215.60
716.18	50859.26
716.37	50676.99
716.56	50795.77
716.75	51100.92
716.94	50795.77
717.12	50730.23
717.31	50849.02
717.50	50550.01
717.69	50857.21
717.88	51135.73
718.06	50951.41
718.25	51180.79
718.44	50337.02
718.63	51090.68
718.82	50541.82
719.00	50355.46
719.19	50248.96
719.38	50275.58
719.57	49937.67
719.76	49970.44
719.94	49724.68
720.13	49681.67
720.32	50294.02
720.51	50076.93
720.69	49882.37
720.88	49407.25
721.07	49648.91
721.26	49231.12
721.44	49640.71
721.63	49155.35
721.82	49296.66
722.01	49261.84
722.20	49036.56
722.38	49476.88
722.57	49214.74
722.76	49884.42
722.95	49259.79
723.13	48862.49
723.32	49179.92
723.51	48680.22
723.70	48778.52
723.88	49100.05
724.07	48768.28
724.26	48821.53
724.44	48676.12
724.63	48833.81
724.82	48999.70
725.01	48682.27
725.19	48805.14
725.38	48448.80
725.57	48850.20
725.76	48598.30
725.94	48780.57
726.13	48311.58
726.32	48743.70
726.51	48426.27
726.69	48723.22
726.88	48342.30
727.07	48454.94
727.25	48436.51
727.44	48725.27
727.63	48483.61
727.82	48432.41
728.00	48487.71
728.19	48186.66
728.38	48391.45
728.56	47678.76
728.75	48438.56
728.94	48174.37
729.12	48526.62
729.31	48205.09
729.50	48330.01
729.69	48342.30
729.87	48166.18
730.06	48188.70
730.25	48377.12
730.43	48217.38
730.62	47760.68
730.81	48268.58
730.99	48766.23
731.18	48110.88
731.37	48219.42
731.55	48473.37
731.74	48526.62
731.93	48477.47
732.11	48549.15
732.30	48346.40
732.49	47899.94
732.67	48305.44
732.86	48211.23
733.05	47988.00
733.23	48219.42
733.42	48143.65
733.61	47891.75
733.79	48426.27
733.98	48389.41
734.17	48141.60
734.35	48063.78
734.54	47965.48
734.73	48370.97
734.91	48534.81
735.10	47865.13
735.29	48493.85
735.47	47785.25
735.66	48051.49
735.84	47723.82
736.03	47660.33
736.22	48194.85
736.40	48182.56
736.59	48112.93
736.78	48014.63
736.96	47693.10
737.15	47570.22
737.33	48260.38
737.52	47562.03
737.71	48022.82
737.89	47977.76
738.08	47338.80
738.27	47443.24
738.45	48168.22
738.64	47643.94
738.82	47637.80
739.01	47543.59
739.20	47490.35
739.38	47846.69
739.57	48008.48
739.75	47549.74
739.94	47883.56
740.13	47535.40
740.31	47721.77
740.50	47082.80
740.68	47324.46
740.87	47785.25
741.06	47551.79
741.24	47430.96
741.43	47226.16
741.61	48059.68
741.80	47238.45
741.99	47002.93
742.17	46970.16
742.36	47242.54
742.54	46869.81
742.73	47535.40
742.91	47355.18
743.10	47533.35
743.29	47338.80
743.47	47265.07
743.66	47189.30
743.84	47383.85
744.03	47547.69
744.21	47187.25
744.40	47455.53
744.59	47125.81
744.77	47510.83
744.96	47217.97
745.14	47469.87
745.33	47842.60
745.51	47129.90
745.70	47265.07
745.88	47035.70
746.07	47285.55
746.26	47011.12
746.44	46509.37
746.63	47185.20
746.81	47195.44
747.00	46890.29
747.18	47025.46
747.37	46970.16
747.55	47082.80
747.74	47310.13
747.92	46976.31
748.11	47017.27
748.29	46533.95
748.48	46843.19
748.66	46675.26
748.85	46433.60
749.03	46837.05
749.22	46826.81
749.41	46460.22
749.59	46681.40
749.78	46296.38
749.96	46277.95
750.15	46122.30
750.33	46548.28
750.52	46572.86
750.70	46527.80
750.89	46523.71
751.07	46452.03
751.26	46652.73
751.44	46486.84
751.63	46284.09
751.81	46185.79
752.00	46552.38
752.18	46376.25
752.37	46230.85
752.55	45708.61
752.74	46349.63
752.92	46114.11
753.10	45890.88
753.29	46351.68
753.47	45925.70
753.66	45550.92
753.84	46253.37
754.03	46169.41
754.21	45446.47
754.40	46130.50
754.58	45743.43
754.77	46036.29
754.95	45727.05
755.14	45710.66
755.32	45888.84
755.51	45479.24
755.69	45419.85
755.88	45452.62
756.06	45716.81
756.24	45600.07
756.43	45299.02
756.61	45641.03
756.80	45589.83
756.98	45245.77
757.17	45022.54
757.35	45776.20
757.54	45843.78
757.72	45585.74
757.90	45360.46
758.09	45268.30
758.27	45385.04
758.46	45190.48
758.64	44811.60
758.83	45329.74
759.01	45819.20
759.19	45339.98
759.38	45077.84
759.56	45077.84
759.75	45315.40
759.93	44713.30
760.12	45317.45
760.30	45466.95
760.48	45030.74
760.67	44905.81
760.85	44832.08
761.04	45215.05
761.22	45073.74
761.40	44746.07
761.59	44811.60
761.77	44426.59
761.96	44574.04
762.14	44707.16
762.32	44739.93
762.51	44617.05
762.69	44561.75
762.88	44408.15
763.06	44408.15
763.24	44531.03
763.43	44559.70
763.61	44758.36
763.80	44172.64
763.98	44332.38
764.16	44279.13
764.35	44762.45
764.53	43705.70
764.72	44348.76
764.90	44090.72
765.08	44154.21
765.27	44369.24
765.45	43947.36
765.63	43695.46
765.82	44070.24
766.00	43849.06
766.18	43662.69
766.37	43840.87
766.55	43703.65
766.74	43973.98
766.92	43623.78
767.10	43640.17
767.29	43570.54
767.47	43326.83
767.65	43529.58
767.84	43197.80
768.02	43605.35
768.20	43466.09
768.39	43318.64
768.57	43701.61
768.75	43306.35
768.94	43285.87
769.12	43402.60
769.30	43418.99
769.49	43189.61
769.67	42694.00
769.85	42790.26
770.04	42968.43
770.22	42812.79
770.40	42440.06
770.59	42863.99
770.77	43230.57
770.95	42956.14
771.14	42452.34
771.32	42683.76
771.50	42255.74
771.69	42354.04
771.87	42610.04
772.05	42720.63
772.24	42216.83
772.42	42333.56
772.60	41831.81
772.78	42270.08
772.97	41999.74
773.15	42290.55
773.33	41973.12
773.52	42280.31
773.70	42462.58
773.88	42120.57
774.07	41907.58
774.25	42192.25
774.43	42524.02
774.61	42311.03
774.80	41893.25
774.98	42030.46
775.16	42065.28
775.34	42022.27
775.53	41846.15
775.71	42950.00
775.89	42536.31
776.08	42157.44
776.26	42257.79
776.44	42607.99
776.62	42098.05
776.81	41954.69
776.99	42472.82
777.17	42317.18
777.35	42605.94
777.54	42548.60
777.72	42497.40
777.90	42562.93
778.08	42956.14
778.27	42681.72
778.45	42681.72
778.63	42743.16
778.81	42665.33
779.00	43015.54
779.18	42435.96
779.36	42984.82
779.54	42726.77
779.73	42468.73
779.91	43029.87
780.09	42829.17
780.27	42945.90
780.46	42734.96
780.64	42960.24
780.82	42804.59
781.00	42628.47
781.19	43134.32
781.37	43224.43
781.55	43070.83
781.73	43214.19
781.91	43181.42
782.10	42755.44
782.28	43210.09
782.46	43023.73
782.64	43562.34
782.82	42974.58
783.01	43038.06
783.19	43457.90
783.37	43238.76
783.55	42782.07
783.74	43335.02
783.92	43048.30
784.10	43384.17
784.28	43214.19
784.46	42741.11
784.64	43062.64
784.83	43277.68
785.01	43619.69
785.19	43113.84
785.37	43507.05
785.55	42706.29
785.74	42993.01
785.92	42798.45
786.10	42870.13
786.28	42513.78
786.46	42851.70
786.64	42499.45
786.83	43068.78
787.01	42804.59
787.19	42886.51
787.37	43060.59
787.55	42943.86
787.74	42411.38
787.92	42935.66
788.10	42597.75
788.28	42083.71
788.46	42444.15
788.64	42149.24
788.82	42806.64
789.01	42601.85
789.19	42651.00
789.37	42333.56
789.55	42128.77
789.73	41862.53
789.91	42093.95
790.09	41694.60
790.28	41522.57
790.46	41819.52
790.64	41940.35
790.82	41661.83
791.00	41708.93
791.18	41778.56
791.36	41446.79
791.55	41729.41
791.73	41201.04
791.91	41020.81
792.09	41043.34
792.27	41045.39
792.45	41119.12
792.63	40750.48
792.81	40871.31
793.00	40730.00
793.18	40615.32
793.36	40615.32
793.54	40615.32
793.72	40482.20
793.90	40236.44
794.08	40142.24
794.26	40435.10
794.44	39632.29
794.62	39777.70
794.81	40136.09
794.99	39687.59
795.17	39828.90
795.35	39966.11
795.53	39579.04
795.71	40140.19
795.89	39513.51
796.07	39208.36
796.25	39130.54
796.43	39099.82
796.61	38622.64
796.80	38593.97
796.98	38739.38
797.16	38634.93
797.34	38766.00
797.52	38698.42
797.70	38870.45
797.88	38485.43
798.06	38483.38
798.24	38553.01
798.42	38155.71
798.60	38196.67
798.78	37930.43
798.96	38127.03
799.14	37905.85
799.32	38075.84
799.51	37909.95
799.69	37832.13
799.87	37502.40
800.05	37555.65
800.23	37359.05
800.41	36885.97
800.59	37293.51
800.77	37262.79
800.95	36838.86
801.13	37092.81
801.31	37168.58
801.49	36783.57
801.67	36611.54
801.85	37057.99
802.03	36611.54
802.21	35927.52
802.39	36459.99
802.57	36160.98
802.75	36453.84
802.93	36218.33
803.11	36099.55
803.29	35911.13
803.47	36023.77
803.65	35726.81
803.83	35399.14
804.01	35522.02
804.19	35268.07
804.37	35112.42
804.55	35192.30
804.73	35243.49
804.91	35061.22
805.09	35405.28
805.27	34870.76
805.45	35204.58
805.63	35204.58
805.81	34706.93
805.99	34733.55
806.17	34686.45
806.35	34420.21
806.53	34311.67
806.71	34522.61
806.89	34043.38
807.07	34444.79
807.25	34432.50
807.43	33777.15
807.61	34276.85
807.79	34612.72
807.97	34074.10
808.15	34053.62
808.33	33623.55
808.51	33775.10
808.69	33521.15
808.87	33517.06
809.05	33254.92
809.23	33480.19
809.41	33035.78
809.59	33121.80
809.77	33246.72
809.95	33070.60
810.13	33261.06
810.31	32675.34
810.49	33043.98
810.67	32820.75
810.84	32964.10
811.02	32931.34
811.20	32581.13
811.38	32314.90
811.56	32339.47
811.74	32693.77
811.92	32011.80
812.10	32359.95
812.28	32652.81
812.46	32069.14
812.64	32282.13
812.82	32095.77
813.00	32071.19
813.18	32169.49
813.36	31858.20
813.53	31747.61
813.71	31780.38
813.89	31594.01
814.07	31716.89
814.25	31733.28
814.43	31571.49
814.61	31700.51
814.79	31528.48
814.97	31481.38
815.15	31301.15
815.33	31157.80
815.50	31008.29
815.68	31245.86
815.86	30920.23
816.04	30826.03
816.22	30846.51
816.40	30838.31
816.58	30686.76
816.76	30475.82
816.94	30819.88
817.11	30469.68
817.29	30621.23
817.47	30637.61
817.65	29957.69
817.83	30326.32
818.01	29713.98
818.19	30240.31
818.37	30023.22
818.54	29546.05
818.72	30049.85
818.90	30074.42
819.08	30045.75
819.26	29673.02
819.44	29687.36
819.62	29713.98
819.80	29904.44
819.97	29478.46
820.15	29525.57
820.33	29367.87
820.51	29814.33
820.69	29163.08
820.87	29623.87
821.05	29730.36
821.22	29345.34
821.40	29294.14
821.58	28980.81
821.76	28925.51
821.94	29169.22
822.12	28819.02
822.29	29120.07
822.47	28870.22
822.65	29083.20
822.83	29199.94
823.01	28919.37
823.19	28616.27
823.36	28661.32
823.54	28462.67
823.72	28788.30
823.90	28282.45
824.08	28302.93
824.25	28356.18
824.43	28517.96
824.61	28417.61
824.79	28395.09
824.97	28313.17
825.15	28313.17
825.32	28304.98
825.50	28057.17
825.68	27891.29
825.86	28184.15
826.04	28118.61
826.21	27803.22
826.39	27903.57
826.57	28061.27
826.75	27618.91
826.93	27717.21
827.10	27428.45
827.28	27405.92
827.46	27723.35
827.64	27678.30
827.81	27391.58
827.99	27715.16
828.17	27225.70
828.35	27315.81
828.53	27500.12
828.70	27055.72
828.88	27143.78
829.06	27444.83
829.24	27227.74
829.41	27104.87
829.59	27149.92
829.77	27022.95
829.95	27250.27
830.12	26863.21
830.30	27059.81
830.48	27070.05
830.66	26639.98
830.84	26879.59
831.01	26713.70
831.19	26932.84
831.37	26963.56
831.55	26486.38
831.72	26412.65
831.90	26564.20
832.08	26519.15
832.25	26455.66
832.43	26572.39
832.61	26216.05
832.79	26510.96
832.96	26328.69
833.14	26545.77
833.32	26633.83
833.50	26218.10
833.67	26119.79
833.85	26189.42
834.03	25976.44
834.20	26285.68
834.38	26060.40
834.56	26310.25
834.74	26070.64
834.91	25871.99
835.09	26080.88
835.27	25730.68
835.44	25626.23
835.62	25534.07
835.80	25509.50
835.98	25615.99
836.15	25669.24
836.33	25517.69
836.51	25904.76
836.68	25476.73
836.86	25751.16
837.04	25552.51
837.21	25769.59
837.39	25282.17
837.57	25335.42
837.75	25529.98
837.92	25175.68
838.10	25151.10
838.28	24698.50
838.45	25298.56
838.63	25118.34
838.81	25298.56
838.98	24917.64
839.16	25400.96
839.34	24884.87
839.51	25009.79
839.69	24850.05
839.87	24651.40
840.04	24983.17
840.22	25089.67
840.40	24839.81
840.57	24598.15
840.75	24796.81
840.93	24092.30
841.10	24549.00
841.28	24725.13
841.46	24716.93
841.63	24751.75
841.81	24512.14
841.98	24438.41
842.16	24589.96
842.34	24336.01
842.51	24442.51
842.69	24749.70
842.87	24458.89
843.04	24299.15
843.22	24151.70
843.40	24266.38
843.57	24204.94
843.75	24393.36
843.92	24477.32
844.10	24227.47
844.28	24309.39
844.45	24356.49
844.63	24092.30
844.81	23940.75
844.98	24039.06
845.16	23989.91
845.33	24016.53
845.51	24143.50
845.69	24057.49
845.86	23821.97
846.04	23654.04
846.21	23924.37
846.39	23715.48
846.57	23760.53
846.74	23486.11
846.92	23817.88
847.09	23490.20
847.27	23559.83
847.45	23598.74
847.62	23645.85
847.80	23770.77
847.97	23633.56
848.15	23539.35
848.32	23352.99
848.50	23297.69
848.68	23146.14
848.85	23228.06
849.03	22996.64
849.20	23185.05
849.38	23146.14
849.56	23211.68
849.73	22869.67
849.91	23187.10
850.08	23477.91
850.26	22785.70
850.43	22820.52
850.61	23027.36
850.78	22722.21
850.96	22974.11
851.14	22746.79
851.31	22820.52
851.49	22787.75
851.66	22763.17
851.84	22922.91
852.01	22851.24
852.19	22800.04
852.36	22550.18
852.54	22527.66
852.71	22691.49
852.89	22820.52
853.07	22959.78
853.24	22773.41
853.42	22400.68
853.59	22738.60
853.77	22703.78
853.94	22587.05
854.12	22730.41
854.29	21724.85
854.47	22619.81
854.64	22714.02
854.82	22613.67
854.99	22308.52
855.17	22232.75
855.34	22378.15
855.52	22283.95
855.69	22531.75
855.87	22275.76
856.04	21860.02
856.22	21948.08
856.39	22154.93
856.57	22165.17
856.74	22070.96
856.92	22144.69
857.09	21800.63
857.27	21769.91
857.44	22206.13
857.62	22177.45
857.79	22122.16
857.97	21829.30
858.14	21898.93
858.32	21884.59
858.49	21864.11
858.67	21839.54
858.84	21716.66
859.02	21665.46
859.19	21542.58
859.37	21507.77
859.54	21524.15
859.72	21554.87
859.89	21579.45
860.06	21593.78
860.24	21284.54
860.41	21690.04
860.59	21241.53
860.76	21452.47
860.94	21352.12
861.11	21524.15
861.29	21335.74
861.46	21227.20
861.64	21044.93
861.81	21153.47
861.98	21057.21
862.16	20846.27
862.33	20756.16
862.51	21016.26
862.68	21339.83
862.86	20780.74
863.03	21149.37
863.21	21012.16
863.38	20915.90
863.55	21046.97
863.73	20940.48
863.90	20885.19
864.08	21020.35
864.25	20926.14
864.43	20610.76
864.60	20745.92
864.77	20604.61
864.95	20539.08
865.12	20575.94
865.30	20610.76
865.47	20209.36
865.64	20483.78
865.82	20246.22
865.99	20637.38
866.17	20502.22
866.34	20541.13
866.51	20295.37
866.69	20534.98
866.86	20686.53
867.04	20573.89
867.21	20395.72
867.38	20362.95
867.56	20141.77
867.73	20063.95
867.91	20305.61
868.08	19986.13
868.25	20195.02
868.43	20125.39
868.60	19949.26
868.78	20098.77
868.95	20084.43
869.12	19857.10
869.30	19799.76
869.47	19967.70
869.64	19822.29
869.82	19986.13
869.99	19834.58
870.16	20076.24
870.34	19924.69
870.51	20051.66
870.69	19910.35
870.86	19703.51
871.03	19787.47
871.21	19654.36
871.38	19726.04
871.55	19658.45
871.73	19769.04
871.90	19341.02
872.07	19521.24
872.25	19050.21
872.42	19289.82
872.59	19584.73
872.77	19236.57
872.94	19250.91
873.11	19226.33
873.29	19228.38
873.46	19121.88
873.63	19039.97
873.81	19017.44
873.98	19019.49
874.15	19107.55
874.33	18691.81
874.50	18773.73
874.67	18912.99
874.85	19048.16
875.02	18904.80
875.19	18675.43
875.37	18822.88
875.54	18652.90
875.71	18777.83
875.88	18542.31
876.06	18407.14
876.23	18624.23
876.40	18616.04
876.58	18544.36
876.75	18540.26
876.92	18593.51
877.10	18280.17
877.27	18527.97
877.44	18267.88
877.61	18216.68
877.79	18314.98
877.96	18296.55
878.13	18259.69
878.31	18116.33
878.48	18075.37
878.65	18099.95
878.82	17993.45
879.00	18065.13
879.17	18032.36
879.34	17770.22
879.51	17540.85
879.69	18026.22
879.86	17794.80
880.03	17868.53
880.21	17774.32
880.38	17782.51
880.55	17934.06
880.72	17796.85
880.90	17796.85
881.07	17817.33
881.24	17712.88
881.41	17649.39
881.59	17706.74
881.76	17544.95
881.93	17403.64
882.10	17299.19
882.28	17374.97
882.45	17735.41
882.62	17438.45
882.79	17522.42
882.96	17078.01
883.14	17450.74
883.31	17446.65
883.48	17417.97
883.65	17329.91
883.83	17252.09
884.00	17374.97
884.17	17237.75
884.34	17305.34
884.51	17331.96
884.69	17055.48
884.86	17022.72
885.03	17489.65
885.20	16953.09
885.38	17149.69
885.55	17073.92
885.72	17090.30
885.89	16998.14
886.06	17075.96
886.24	16819.97
886.41	16848.64
886.58	16989.95
886.75	17303.29
886.92	16946.94
887.10	17245.94
887.27	16656.13
887.44	16830.21
887.61	16940.80
887.78	16899.84
887.95	16852.73
888.13	16766.72
888.30	16740.10
888.47	16830.21
888.64	16756.48
888.81	16703.23
888.99	16535.30
889.16	16420.61
889.33	16508.68
889.50	16674.56
889.67	16672.51
889.84	16602.88
890.01	16533.25
890.19	16660.23
890.36	16654.08
890.53	16357.13
890.70	16256.78
890.87	16236.30
891.04	16115.47
891.22	16422.66
891.39	16307.98
891.56	16312.07
891.73	16256.78
891.90	16336.65
892.07	15884.05
892.24	16353.03
892.42	16039.69
892.59	16047.88
892.76	15834.89
892.93	15994.64
893.10	15990.54
893.27	16013.07
893.44	15650.58
893.61	15879.95
893.79	15996.68
893.96	15965.96
894.13	15873.81
894.30	15986.44
894.47	16099.08
894.64	15959.82
894.81	15802.13
894.98	16035.60
895.15	15992.59
895.33	16051.98
895.50	15896.33
895.67	16289.54
895.84	15761.17
896.01	15863.57
896.18	15591.19
896.35	16011.02
896.52	16074.51
896.69	15867.66
896.86	15718.16
897.04	15847.18
897.21	15634.19
897.38	15879.95
897.55	15773.46
897.72	16074.51
897.89	15646.48
898.06	15965.96
898.23	16002.83
898.40	15648.53
898.57	15982.35
898.74	15716.11
898.91	15781.65
899.08	15783.70
899.26	15800.08
899.43	15879.95
899.60	15724.30
899.77	15755.02
899.94	15867.66
900.11	15658.77
900.28	15701.78
900.45	15445.78
900.62	15636.24
900.79	15777.55
900.96	15802.13
901.13	15707.92
901.30	15603.47
901.47	15494.93
901.64	15671.06
901.81	15945.48
901.98	15484.69
902.15	15939.34
902.32	15642.39
902.49	15789.84
902.66	15582.99
902.83	15660.82
903.01	15722.26
903.18	15906.57
903.35	15922.96
903.52	15671.06
903.69	15750.93
903.86	15642.39
904.03	15793.94
904.20	15656.72
904.37	16015.12
904.54	15544.08
904.71	15836.94
904.88	15699.73
905.05	15490.84
905.22	15912.72
905.39	15445.78
905.56	15707.92
905.73	15408.92
905.90	15910.67
906.07	15525.65
906.24	15599.38
906.41	15515.41
906.58	15834.89
906.75	15476.50
906.92	15697.68
907.09	15468.31
907.26	15636.24
907.43	15441.68
907.60	15617.81
907.77	15707.92
907.93	15703.82
908.10	15425.30
908.27	15816.46
908.44	15204.12
908.61	15527.70
908.78	15447.83
908.95	15572.75
909.12	15634.19
909.29	15640.34
909.46	15593.23
909.63	15490.84
909.80	15779.60
909.97	15503.12
910.14	15568.66
910.31	15798.03
910.48	15378.20
910.65	15423.25
910.82	15675.15
910.99	15355.67
911.16	15488.79
911.33	15396.63
911.50	15150.87
911.66	15396.63
911.83	15406.87
912.00	15218.46
912.17	15146.78
912.34	15105.82
912.51	15105.82
912.68	15001.37
912.85	15277.85
913.02	15222.55
913.19	14980.89
913.36	15089.43
913.53	14909.21
913.70	15027.99
913.86	15251.22
914.03	14788.38
914.20	15167.26
914.37	14964.51
914.54	14898.97
914.71	14972.70
914.88	14966.56
915.05	14817.05
915.22	14864.16
915.39	14847.77
915.55	14987.04
915.72	14665.50
915.89	14575.39
916.06	14497.57
916.23	14618.40
916.40	14411.56
916.57	14540.58
916.74	14446.37
916.91	14368.55
917.07	14298.92
917.24	14427.94
917.41	14200.62
917.58	14292.77
917.75	14364.45
917.92	14032.68
918.09	14274.34
918.26	14233.38
918.42	14182.18
918.59	14192.42
918.76	14010.15
918.93	13809.45
919.10	13911.85
919.27	14030.63
919.44	13963.05
919.60	14022.44
919.77	13788.97
919.94	14012.20
920.11	13836.08
920.28	13901.61
920.45	13641.52
920.61	13645.62
920.78	13578.03
920.95	13385.52
921.12	13522.74
921.29	13430.58
921.46	13297.46
921.62	13201.21
921.79	13651.76
921.96	13399.86
922.13	13291.32
922.30	13279.03
922.47	13123.38
922.63	13053.75
922.80	13164.34
922.97	12812.09
923.14	12836.67
923.31	12916.54
923.47	12672.83
923.64	12982.07
923.81	12627.78
923.98	12861.24
924.15	12592.96
924.32	12764.99
924.48	12701.50
924.65	12644.16
924.82	12498.75
924.99	12334.92
925.15	12324.68
925.32	12330.82
925.49	12310.34
925.66	12207.94
925.83	12199.75
925.99	12156.74
926.16	12068.68
926.33	12287.81
926.50	11943.75
926.67	12107.59
926.83	12042.06
927.00	12130.12
927.17	11906.89
927.34	11759.44
927.50	11853.64
927.67	11845.45
927.84	11624.27
928.01	11505.49
928.17	11468.62
928.34	11595.60
928.51	11378.51
928.68	11374.42
928.84	11382.61
929.01	11347.79
929.18	11226.96
929.35	11065.18
929.51	11317.08
929.68	11161.43
929.85	11026.26
930.02	11036.50
930.18	11089.75
930.35	10960.73
930.52	10895.19
930.69	10860.38
930.85	10690.40
931.02	10485.60
931.19	10809.18
931.36	10819.42
931.52	10622.81
931.69	10645.34
931.86	10418.02
932.02	10407.78
932.19	10534.75
932.36	10407.78
932.53	10395.49
932.69	10289.00
932.86	10334.05
933.03	10256.23
933.19	10045.29
933.36	10100.58
933.53	10258.28
933.70	10028.90
933.86	9914.22
934.03	10012.52
934.20	9916.26
934.36	9838.44
934.53	9574.25
934.70	9625.45
934.86	9791.34
935.03	9463.66
935.20	9453.42
935.36	9461.62
935.53	9240.44
935.70	9260.91
935.86	9129.84
936.03	9172.85
936.20	9004.92
936.36	8988.53
936.53	8853.37
936.70	8947.58
936.86	8943.48
937.03	9035.64
937.20	8423.30
937.36	8845.18
937.53	8236.93
937.70	8210.31
937.86	8224.64
938.03	8069.00
938.20	8277.89
938.36	8103.81
938.53	8097.67
938.70	7614.35
938.86	7831.43
939.03	7663.50
939.20	7602.06
939.36	7579.53
939.53	7458.70
939.70	7450.51
939.86	7159.70
940.03	7040.92
940.19	7085.97
940.36	6999.96
940.53	7042.96
940.69	6918.04
940.86	6868.89
941.03	6541.21
941.19	6506.40
941.36	6721.43
941.52	6641.56
941.69	6557.60
941.86	6459.29
942.02	6367.13
942.19	6375.33
942.35	6281.12
942.52	6330.27
942.69	6229.92
942.85	6178.72
943.02	6148.00
943.18	6088.61
943.35	5904.29
943.52	5953.45
943.68	5799.85
943.85	5992.36
944.01	5754.79
944.18	5732.26
944.35	5785.51
944.51	5691.31
944.68	5590.95
944.84	5666.73
945.01	5568.43
945.17	5709.74
945.34	5636.01
945.51	5742.50
945.67	5627.82
945.84	5431.21
946.00	5451.69
946.17	5423.02
946.33	5478.32
946.50	5629.87
946.67	5392.30
946.83	5472.17
947.00	5584.81
947.16	5494.70
947.33	5443.50
947.49	5459.88
947.66	5218.22
947.82	5349.29
947.99	5412.78
948.16	5474.22
948.32	5496.75
948.49	5564.33
948.65	5480.36
948.82	5431.21
948.98	5423.02
949.15	5375.92
949.31	5418.93
949.48	5369.77
949.64	5463.98
949.81	5504.94
949.97	5412.78
950.14	5443.50
950.30	5320.62
950.47	5531.56
950.63	5365.68
950.80	5443.50
950.96	5394.35
951.13	5431.21
951.30	5533.61
951.46	5394.35
951.63	5650.35
951.79	5541.80
951.96	5496.75
952.12	5609.39
952.29	5490.60
952.45	5388.21
952.62	5525.42
952.78	5427.12
952.94	5613.48
953.11	5482.41
953.27	5398.45
953.44	5506.99
953.60	5545.90
953.77	5509.04
953.93	5443.50
954.10	5394.35
954.26	5593.00
954.43	5541.80
954.59	5648.30
954.76	5666.73
954.92	5588.91
955.09	5656.49
955.25	5453.74
955.42	5533.61
955.58	5703.59
955.75	5619.63
955.91	5517.23
956.07	5638.06
956.24	5588.91
956.40	5603.24
956.57	5668.78
956.73	5494.70
956.90	5623.72
957.06	5572.52
957.23	5588.91
957.39	5597.10
957.56	5676.97
957.72	5298.10
957.88	5558.19
958.05	5662.63
958.21	5646.25
958.38	5668.78
958.54	5588.91
958.71	5756.84
958.87	5599.15
959.03	5730.22
959.20	5529.52
959.36	5535.66
959.53	5420.97
959.69	5562.28
959.85	5472.17
960.02	5578.67
960.18	5484.46
960.35	5603.24
960.51	5560.24
960.68	5459.88
960.84	5468.08
961.00	5558.19
961.17	5500.84
961.33	5504.94
961.50	5560.24
961.66	5656.49
961.82	5523.37
961.99	5527.47
962.15	5558.19
962.31	5623.72
962.48	5529.52
962.64	5572.52
962.81	5515.18
962.97	5547.95
963.13	5509.04
963.30	5529.52
963.46	5466.03
963.62	5535.66
963.79	5603.24
963.95	5445.55
964.12	5472.17
964.28	5472.17
964.44	5539.76
964.61	5400.49
964.77	5377.97
964.93	5439.40
965.10	5291.95
965.26	5425.07
965.42	5410.73
965.59	5294.00
965.75	5388.21
965.92	5380.01
966.08	5427.12
966.24	5441.45
966.41	5353.39
966.57	5457.84
966.73	5375.92
966.90	5451.69
967.06	5314.48
967.22	5361.58
967.39	5396.40
967.55	5207.98
967.71	5306.29
967.88	5357.49
968.04	5298.10
968.20	5232.56
968.37	5201.84
968.53	5140.40
968.69	5107.63
968.85	5281.71
969.02	5337.01
969.18	5259.18
969.34	5230.51
969.51	5304.24
969.67	5259.18
969.83	5042.10
970.00	5304.24
970.16	5132.21
970.32	5167.03
970.48	5152.69
970.65	5083.06
970.81	5019.57
970.97	5107.63
971.14	5054.39
971.30	5195.70
971.46	5097.39
971.63	5154.74
971.79	5205.94
971.95	4988.85
972.11	4888.50
972.28	5054.39
972.44	5087.15
972.60	4868.02
972.76	5058.48
972.93	4921.27
973.09	5121.97
973.25	5029.81
973.42	5025.72
973.58	4900.79
973.74	4915.12
973.90	5072.82
974.07	4855.73
974.23	5087.15
974.39	4847.54
974.55	4915.12
974.72	4833.21
974.88	4814.77
975.04	4822.97
975.20	4890.55
975.37	4898.74
975.53	4804.53
975.69	4874.17
975.85	4706.23
976.01	4820.92
976.18	4749.24
976.34	4708.28
976.50	4720.57
976.66	4769.72
976.83	4788.15
976.99	4607.93
977.15	4743.10
977.31	4655.03
977.47	4646.84
977.64	4665.27
977.80	4544.44
977.96	4622.27
978.12	4591.55
978.29	4583.35
978.45	4503.48
978.61	4413.37
978.77	4683.70
978.93	4624.31
979.10	4601.79
979.26	4550.59
979.42	4675.51
979.58	4523.96
979.74	4366.27
979.91	4472.76
980.07	4364.22
980.23	4476.86
980.39	4491.20
980.55	4554.68
980.71	4435.90
980.88	4302.78
981.04	4489.15
981.20	4347.84
981.36	4380.61
981.52	4452.28
981.68	4259.78
981.85	4495.29
982.01	4347.84
982.17	4241.34
982.33	4321.21
982.49	4388.80
982.65	4423.61
982.82	4370.37
982.98	4341.69
983.14	4267.97
983.30	4353.98
983.46	4306.88
983.62	4294.59
983.79	4247.49
983.95	4220.86
984.11	4145.09
984.27	4196.29
984.43	4126.66
984.59	4259.78
984.75	4214.72
984.91	4118.47
985.08	4249.54
985.24	4128.70
985.40	4198.34
985.56	4204.48
985.72	4255.68
985.88	4263.87
986.04	4122.56
986.20	4071.36
986.37	4059.07
986.53	4140.99
986.69	4179.90
986.85	4108.23
987.01	4026.31
987.17	4136.90
987.33	4026.31
987.49	3934.15
987.65	3981.25
987.82	4091.84
987.98	3948.48
988.14	3981.25
988.30	3936.20
988.46	3860.42
988.62	3987.40
988.78	3907.52
988.94	3925.96
989.10	3907.52
989.26	3841.99
989.42	3846.09
989.59	3686.34
989.75	3852.23
989.91	3829.70
990.07	3743.69
990.23	3796.93
990.39	3870.66
990.55	3850.18
990.71	3678.15
990.87	3815.37
991.03	3829.70
991.19	3749.83
991.35	3764.17
991.51	3739.59
991.67	3831.75
991.83	3796.93
992.00	3727.30
992.16	3717.06
992.32	3893.19
992.48	3784.65
992.64	3616.71
992.80	3788.74
992.96	3710.92
993.12	3659.72
993.28	3690.44
993.44	3659.72
993.60	3688.39
993.76	3680.20
993.92	3715.02
994.08	3751.88
994.24	3606.47
994.40	3647.43
994.56	3596.23
994.72	3696.58
994.88	3536.84
995.04	3565.51
995.20	3682.25
995.36	3557.32
995.52	3581.90
995.68	3446.73
995.84	3493.83
996.00	3647.43
996.16	3446.73
996.32	3428.30
996.48	3411.92
996.64	3493.83
996.80	3508.17
996.96	3481.55
997.12	3459.02
997.28	3442.64
997.44	3403.72
997.60	3502.03
997.76	3364.81
997.92	3401.68
998.08	3373.00
998.24	3315.66
998.40	3424.20
998.56	3321.81
998.72	3338.19
998.88	3231.69
999.04	3370.96
999.20	3383.24
999.36	3291.09
999.52	3407.82
999.68	3344.33
999.84	3391.44
1000.00	3334.09
1000.16	3305.42
1000.32	3291.09
1000.48	3426.25
1000.64	3264.46
1000.80	3098.58
1000.95	3145.68
1001.11	3252.17
1001.27	3145.68
1001.43	3196.88
1001.59	3157.97
1001.75	3207.12
1001.91	3196.88
1002.07	3147.73
1002.23	3127.25
1002.39	3092.43
1002.55	3162.06
1002.71	3096.53
1002.87	3028.95
1003.03	3102.67
1003.19	3053.52
1003.34	3030.99
1003.50	3014.61
1003.66	3211.22
1003.82	3084.24
1003.98	3063.76
1004.14	3180.50
1004.30	3030.99
1004.46	2967.51
1004.62	3022.80
1004.78	3055.57
1004.94	3053.52
1005.09	2971.60
1005.25	2965.46
1005.41	2983.89
1005.57	2883.54
1005.73	3018.71
1005.89	2955.22
1006.05	3051.47
1006.21	2992.08
1006.37	2908.12
1006.52	2858.96
1006.68	2926.55
1006.84	3137.49
1007.00	2924.50
1007.16	2879.44
1007.32	2895.83
1007.48	2873.30
1007.64	2926.55
1007.79	2887.64
1007.95	2891.73
1008.11	2934.74
1008.27	2865.11
1008.43	2936.79
1008.59	2795.48
1008.75	2879.44
1008.91	2779.09
1009.06	2826.20
1009.22	2813.91
1009.38	2914.26
1009.54	2744.28
1009.70	2746.33
1009.86	2766.81
1010.01	2904.02
1010.17	2725.85
1010.33	2824.15
1010.49	2697.17
1010.65	2768.85
1010.81	2693.08
1010.96	2744.28
1011.12	2809.81
1011.28	2658.26
1011.44	2699.22
1011.60	2727.89
1011.76	2748.37
1011.91	2701.27
1012.07	2666.46
1012.23	2635.74
1012.39	2543.58
1012.55	2740.18
1012.71	2637.78
1012.86	2645.98
1013.02	2590.68
1013.18	2633.69
1013.34	2613.21
1013.50	2719.70
1013.65	2648.02
1013.81	2580.44
1013.97	2576.34
1014.13	2682.84
1014.29	2543.58
1014.44	2590.68
1014.60	2582.49
1014.76	2531.29
1014.92	2574.30
1015.07	2549.72
1015.23	2594.78
1015.39	2500.57
1015.55	2541.53
1015.71	2488.28
1015.86	2461.66
1016.02	2473.95
1016.18	2543.58
1016.34	2441.18
1016.49	2557.91
1016.65	2559.96
1016.81	2428.89
1016.97	2559.96
1017.12	2492.38
1017.28	2404.32
1017.44	2432.99
1017.60	2412.51
1017.75	2400.22
1017.91	2475.99
1018.07	2457.56
1018.23	2426.84
1018.38	2510.81
1018.54	2494.43
1018.70	2457.56
1018.86	2396.12
1019.01	2267.10
1019.17	2428.89
1019.33	2514.91
1019.49	2330.59
1019.64	2363.36
1019.80	2453.47
1019.96	2469.85
1020.12	2451.42
1020.27	2242.53
1020.43	2303.96
1020.59	2404.32
1020.74	2455.51
1020.90	2394.08
1021.06	2301.92
1021.22	2361.31
1021.37	2445.27
1021.53	2293.72
1021.69	2363.36
1021.84	2297.82
1022.00	2326.49
1022.16	2285.53
1022.31	2308.06
1022.47	2349.02
1022.63	2379.74
1022.79	2277.34
1022.94	2263.01
1023.10	2314.20
1023.26	2349.02
1023.41	2211.81
1023.57	2281.44
1023.73	2273.25
1023.88	2232.29
1024.04	2215.90
1024.20	2236.38
1024.35	2244.57
1024.51	2312.16
1024.67	2250.72
1024.82	2301.92
1024.98	2201.57
1025.14	2273.25
1025.29	2097.12
1025.45	2275.29
1025.61	2281.44
1025.76	2263.01
1025.92	2220.00
1026.08	2222.05
1026.23	2275.29
1026.39	2258.91
1026.55	2199.52
1026.70	2179.04
1026.86	2211.81
1027.02	2240.48
1027.17	2181.09
1027.33	2226.14
1027.48	2074.59
1027.64	2142.18
1027.80	2084.83
1027.95	2207.71
1028.11	2072.54
1028.27	2211.81
1028.42	2160.61
1028.58	2052.06
1028.73	2054.11
1028.89	2011.11
1029.05	2201.57
1029.20	2150.37
>>>>>End Processed Spectral Data<<<<<
