SpectraSuite Data File
++++++++++++++++++++++++++++++++++++
Date: Fri Jun 02 14:52:24 CEST 2017
User: INFO_000
Dark Spectrum Present: No
Reference Spectrum Present: No
Number of Sampled Component Spectra: 1
Spectrometers: USB4H00879
Integration Time (usec): 80000 (USB4H00879)
Spectra Averaged: 1 (USB4H00879)
Boxcar Smoothing: 0 (USB4H00879)
Correct for Electrical Dark: No (USB4H00879)
Strobe/Lamp Enabled: No (USB4H00879)
Correct for Detector Non-linearity: No (USB4H00879)
Correct for Stray Light: No (USB4H00879)
Number of Pixels in Processed Spectrum: 3648
>>>>>Begin Processed Spectral Data<<<<<
345.13	1282.03
345.34	1282.03
345.56	1282.03
345.78	1277.93
345.99	1310.70
346.21	1671.14
346.42	1748.97
346.64	1699.81
346.86	1761.25
347.07	1675.24
347.29	1748.97
347.50	1675.24
347.72	1751.01
347.94	1773.54
348.15	1550.31
348.37	1538.02
348.59	1697.77
348.80	1716.20
349.02	1763.30
349.23	1802.21
349.45	1812.45
349.67	1916.90
349.88	1925.09
350.10	1982.43
350.31	1871.84
350.53	1834.98
350.75	1957.86
350.96	1763.30
351.18	1900.52
351.39	1855.46
351.61	1775.59
351.82	1871.84
352.04	1982.43
352.26	1816.55
352.47	1845.22
352.69	1916.90
352.90	1789.92
353.12	1863.65
353.34	1902.56
353.55	1974.24
353.77	1873.89
353.98	1861.60
354.20	1882.08
354.41	1929.19
354.63	1955.81
354.85	2037.73
355.06	1869.80
355.28	1843.17
355.49	1847.27
355.71	1867.75
355.92	1927.14
356.14	1912.80
356.35	1849.32
356.57	1787.88
356.79	1918.95
357.00	1953.76
357.22	2011.11
357.43	1789.92
357.65	1908.71
357.86	1789.92
358.08	1910.75
358.29	1918.95
358.51	2052.06
358.72	1931.23
358.94	1945.57
359.16	1908.71
359.37	2045.92
359.59	1853.41
359.80	2066.40
360.02	1990.63
360.23	2002.91
360.45	2023.39
360.66	1912.80
360.88	1959.91
361.09	1933.28
361.31	2090.98
361.52	1949.67
361.74	2076.64
361.95	2060.26
362.17	1978.34
362.38	2039.78
362.60	2000.87
362.81	1966.05
363.03	1941.47
363.24	2029.54
363.46	2097.12
363.67	2002.91
363.89	2015.20
364.10	2025.44
364.32	1935.33
364.53	2086.88
364.75	1918.95
364.96	2054.11
365.18	2035.68
365.39	1988.58
365.61	1902.56
365.82	2207.71
366.04	1970.15
366.25	1945.57
366.47	2029.54
366.68	2090.98
366.90	1892.32
367.11	2029.54
367.33	2101.22
367.54	2090.98
367.76	2031.58
367.97	2142.18
368.19	2007.01
368.40	2133.98
368.62	1972.19
368.83	2035.68
369.05	2084.83
369.26	2002.91
369.48	2000.87
369.69	2033.63
369.91	2162.66
370.12	2068.45
370.33	2158.56
370.55	2056.16
370.76	2047.97
370.98	2127.84
371.19	2097.12
371.41	2066.40
371.62	2125.79
371.84	2015.20
372.05	2199.52
372.27	2074.59
372.48	2121.70
372.69	2056.16
372.91	2191.33
373.12	2191.33
373.34	2093.02
373.55	2207.71
373.77	2144.22
373.98	2158.56
374.20	2213.85
374.41	2357.21
374.62	2263.01
374.84	2199.52
375.05	2154.46
375.27	2187.23
375.48	2150.37
375.70	2207.71
375.91	2162.66
376.12	2273.25
376.34	2119.65
376.55	2144.22
376.77	2181.09
376.98	2117.60
377.19	2222.05
377.41	2152.42
377.62	2222.05
377.84	2258.91
378.05	2330.59
378.27	2215.90
378.48	2267.10
378.69	2359.26
378.91	2383.84
379.12	2322.40
379.34	2263.01
379.55	2283.49
379.76	2254.81
379.98	2217.95
380.19	2228.19
380.41	2222.05
380.62	2252.77
380.83	2260.96
381.05	2176.99
381.26	2363.36
381.47	2240.48
381.69	2267.10
381.90	2363.36
382.12	2310.11
382.33	2293.72
382.54	2334.68
382.76	2355.16
382.97	2334.68
383.19	2217.95
383.40	2394.08
383.61	2279.39
383.83	2338.78
384.04	2250.72
384.25	2322.40
384.47	2396.12
384.68	2394.08
384.89	2342.88
385.11	2318.30
385.32	2344.92
385.54	2330.59
385.75	2373.60
385.96	2394.08
386.18	2389.98
386.39	2379.74
386.60	2459.61
386.82	2455.51
387.03	2435.03
387.24	2416.60
387.46	2457.56
387.67	2541.53
387.88	2613.21
388.10	2537.43
388.31	2539.48
388.52	2627.54
388.74	2525.15
388.95	2609.11
389.16	2559.96
389.38	2588.63
389.59	2578.39
389.80	2615.26
390.02	2557.91
390.23	2734.04
390.44	2592.73
390.66	2576.34
390.87	2500.57
391.08	2510.81
391.30	2631.64
391.51	2660.31
391.72	2723.80
391.94	2643.93
392.15	2682.84
392.36	2641.88
392.58	2584.54
392.79	2660.31
393.00	2719.70
393.22	2766.81
393.43	2820.05
393.64	2811.86
393.85	2760.66
394.07	2701.27
394.28	2691.03
394.49	2752.47
394.71	2699.22
394.92	2951.12
395.13	2738.13
395.35	2764.76
395.56	2811.86
395.77	2820.05
395.98	2863.06
396.20	2848.72
396.41	2891.73
396.62	2951.12
396.84	2834.39
397.05	2854.87
397.26	2994.13
397.47	3090.38
397.69	2822.10
397.90	3082.19
398.11	2985.94
398.32	2967.51
398.54	2904.02
398.75	2998.23
398.96	2961.36
399.18	3121.10
399.39	3082.19
399.60	3045.33
399.81	2942.93
400.03	3000.27
400.24	3264.46
400.45	2969.55
400.66	3102.67
400.88	3006.42
401.09	3366.86
401.30	3151.82
401.51	3100.62
401.73	3196.88
401.94	3139.54
402.15	3219.41
402.36	3178.45
402.58	3184.59
402.79	3307.47
403.00	3205.07
403.21	3295.18
403.43	3332.05
403.64	3334.09
403.85	3256.27
404.06	3293.13
404.27	3248.08
404.49	3213.26
404.70	3274.70
404.91	3280.85
405.12	3250.13
405.34	3291.09
405.55	3438.54
405.76	3149.78
405.97	3252.17
406.19	3518.41
406.40	3250.13
406.61	3391.44
406.82	3330.00
407.03	3452.88
407.25	3383.24
407.46	3479.50
407.67	3583.95
407.88	3633.10
408.09	3395.53
408.31	3362.76
408.52	3530.70
408.73	3358.67
408.94	3395.53
409.15	3626.95
409.37	3530.70
409.58	3647.43
409.79	3610.57
410.00	3604.42
410.21	3506.12
410.43	3571.66
410.64	3344.33
410.85	3512.27
411.06	3542.99
411.27	3532.75
411.48	3606.47
411.70	3489.74
411.91	3592.14
412.12	3583.95
412.33	3579.85
412.54	3600.33
412.76	3719.11
412.97	3733.45
413.18	3583.95
413.39	3678.15
413.60	3708.87
413.81	3649.48
414.03	3653.58
414.24	3721.16
414.45	3772.36
414.66	3669.96
414.87	3815.37
415.08	3780.55
415.30	3749.83
415.51	3829.70
415.72	3811.27
415.93	3755.97
416.14	3708.87
416.35	3772.36
416.56	3833.80
416.78	3887.04
416.99	3907.52
417.20	3831.75
417.41	3983.30
417.62	4022.21
417.83	4018.11
418.04	3909.57
418.26	3977.16
418.47	3999.68
418.68	3964.87
418.89	4048.83
419.10	4104.13
419.31	4040.64
419.52	4050.88
419.73	3991.49
419.95	4251.58
420.16	3966.92
420.37	4054.98
420.58	4124.61
420.79	3866.56
421.00	4071.36
421.21	4218.82
421.42	4159.42
421.63	4190.14
421.85	4222.91
422.06	4186.05
422.27	4085.70
422.48	4259.78
422.69	4286.40
422.90	4198.34
423.11	4253.63
423.32	4177.86
423.53	4425.66
423.75	4431.80
423.96	4358.08
424.17	4417.47
424.38	4644.79
424.59	4442.04
424.80	4698.04
425.01	4485.05
425.22	4595.64
425.43	4433.85
425.64	4562.87
425.85	4790.20
426.06	4669.37
426.28	4515.77
426.49	4569.02
426.70	4671.42
426.91	4702.14
427.12	4790.20
427.33	4622.27
427.54	4714.42
427.75	4847.54
427.96	4829.11
428.17	4833.21
428.38	4808.63
428.59	4796.34
428.80	4906.93
429.01	4839.35
429.23	4960.18
429.44	5029.81
429.65	5099.44
429.86	4964.28
430.07	4988.85
430.28	4976.56
430.49	5015.48
430.70	5242.80
430.91	5277.62
431.12	5128.11
431.33	5205.94
431.54	5400.49
431.75	5132.21
431.96	5179.31
432.17	5339.05
432.38	5310.38
432.59	5347.25
432.80	5298.10
433.01	5302.19
433.22	5457.84
433.43	5392.30
433.64	5568.43
433.85	5535.66
434.06	5515.18
434.27	5509.04
434.49	5517.23
434.70	5607.34
434.91	5670.83
435.12	5564.33
435.33	5603.24
435.54	5502.89
435.75	5492.65
435.96	5713.83
436.17	5636.01
436.38	5681.07
436.59	5742.50
436.80	5658.54
437.01	5937.06
437.22	5916.58
437.43	5785.51
437.64	5650.35
437.85	5857.19
438.06	6057.89
438.27	5932.97
438.48	5830.57
438.69	5912.49
438.90	6031.27
439.11	5701.54
439.32	6246.30
439.53	6090.66
439.74	6029.22
439.95	5971.88
440.16	5994.40
440.37	5949.35
440.57	5973.92
440.78	6072.23
440.99	5984.16
441.20	6107.04
441.41	5994.40
441.62	6135.71
441.83	6061.99
442.04	6104.99
442.25	6211.49
442.46	6102.95
442.67	6313.89
442.88	6664.09
443.09	6260.64
443.30	6258.59
443.51	6334.37
443.72	6500.25
443.93	6195.11
444.14	6494.11
444.35	6193.06
444.56	6502.30
444.77	6455.20
444.98	6365.09
445.19	6604.70
445.40	6436.77
445.61	6526.88
445.81	6610.84
446.02	6709.15
446.23	6768.54
446.44	6487.96
446.65	6703.00
446.86	6674.33
447.07	6684.57
447.28	6811.54
447.49	6754.20
447.70	6739.87
447.91	6686.62
448.12	6653.85
448.33	6893.46
448.54	6852.50
448.74	6567.84
448.95	6768.54
449.16	6705.05
449.37	7139.22
449.58	6840.22
449.79	7063.44
450.00	6883.22
450.21	7036.82
450.42	7100.31
450.63	7153.55
450.84	7102.36
451.05	7079.83
451.25	7102.36
451.46	6954.90
451.67	7206.80
451.88	7235.47
452.09	7327.63
452.30	7008.15
452.51	7276.43
452.72	7395.22
452.93	7657.36
453.13	7153.55
453.34	7159.70
453.55	7483.28
453.76	7374.74
453.97	7661.45
454.18	7524.24
454.39	7724.94
454.60	7567.24
454.81	7579.53
455.01	7622.54
455.22	7434.13
455.43	7690.12
455.64	7778.19
455.85	7950.21
456.06	8077.19
456.27	7882.63
456.48	7794.57
456.68	7856.01
456.89	7995.27
457.10	8083.33
457.31	7966.60
457.52	7927.69
457.73	8114.05
457.94	8314.75
458.14	8116.10
458.35	8380.29
458.56	8087.43
458.77	8322.94
458.98	8335.23
459.19	8370.05
459.39	8406.91
459.60	8525.69
459.81	8433.54
460.02	8386.43
460.23	8472.45
460.44	8863.61
460.65	8824.70
460.85	8839.03
461.06	8836.99
461.27	8535.93
461.48	9074.55
461.69	8834.94
461.89	8609.66
462.10	8841.08
462.31	8632.19
462.52	8959.86
462.73	9060.21
462.94	9219.96
463.14	9324.40
463.35	9064.31
463.56	9451.38
463.77	9512.81
463.98	9211.76
464.18	9273.20
464.39	9543.53
464.60	9799.53
464.81	9699.18
465.02	9547.63
465.23	9858.92
465.43	9596.78
465.64	9752.43
465.85	9848.68
466.06	9602.93
466.27	10166.12
466.47	10159.97
466.68	10022.76
466.89	9979.75
467.10	10381.15
467.30	10151.78
467.51	10280.80
467.72	10637.15
467.93	10325.86
468.14	10588.00
468.34	10719.07
468.55	10538.85
468.76	10686.30
468.97	10520.42
469.17	10964.82
469.38	10807.13
469.59	11253.59
469.80	11018.07
470.01	11028.31
470.21	11077.46
470.42	11306.84
470.63	11308.88
470.84	11347.79
471.04	11429.71
471.25	11618.13
471.46	11364.18
471.67	11652.94
471.87	11781.96
472.08	11829.07
472.29	12033.86
472.50	11718.48
472.70	12042.06
472.91	12183.37
473.12	12255.04
473.33	12146.50
473.53	12304.20
473.74	12332.87
473.95	12566.34
474.16	12685.12
474.36	12699.45
474.57	12771.13
474.78	13023.03
474.99	12951.35
475.19	12920.63
475.40	13190.97
475.61	13444.91
475.81	13332.28
476.02	13629.23
476.23	13528.88
476.44	13782.83
476.64	13864.75
476.85	13879.08
477.06	14026.54
477.27	14108.46
477.47	14071.59
477.68	14085.93
477.89	14358.31
478.09	14133.03
478.30	14479.14
478.51	14563.11
478.71	14583.59
478.92	14788.38
479.13	14941.98
479.34	14941.98
479.54	15101.72
479.75	15179.54
479.96	15025.95
480.16	15181.59
480.37	15320.85
480.58	15472.40
480.78	15779.60
480.99	15576.85
481.20	16023.31
481.41	15869.71
481.61	15879.95
481.82	16121.61
482.03	15957.77
482.23	16094.99
482.44	16615.17
482.65	16586.50
482.85	16695.04
483.06	16713.47
483.27	16686.85
483.47	16764.67
483.68	17045.24
483.89	16918.27
484.09	17030.91
484.30	17137.40
484.51	17297.14
484.71	17264.38
484.92	17643.25
485.13	17497.84
485.33	17895.15
485.54	17704.69
485.75	17858.29
485.95	17995.50
486.16	18054.89
486.37	18104.04
486.57	17905.39
486.78	17934.06
486.98	18183.91
487.19	18405.10
487.40	18790.11
487.60	18552.55
487.81	18908.90
488.02	18773.73
488.22	18605.80
488.43	18880.22
488.64	18964.19
488.84	19107.55
489.05	19402.46
489.25	19166.94
489.46	19418.84
489.67	19248.86
489.87	19338.97
490.08	19662.55
490.29	19814.10
490.49	20098.77
490.70	19656.40
490.90	20141.77
491.11	20147.92
491.32	20186.83
491.52	20235.98
491.73	20416.20
491.94	20471.50
492.14	20182.73
492.35	21018.30
492.55	20526.79
492.76	20909.76
492.97	21008.06
493.17	20965.06
493.38	21073.60
493.58	21079.74
493.79	21243.58
494.00	21223.10
494.20	21372.60
494.41	21411.51
494.61	21470.90
494.82	21489.34
495.02	21456.57
495.23	21526.20
495.44	21954.22
495.64	21978.80
495.85	21831.35
496.05	21976.75
496.26	21915.31
496.47	22218.41
496.67	21962.42
496.88	22226.60
497.08	22288.04
497.29	22625.96
497.49	22204.08
497.70	22687.40
497.91	22724.26
498.11	22785.70
498.32	22609.58
498.52	23154.33
498.73	23250.59
498.93	22884.00
499.14	23082.66
499.34	22929.06
499.55	23510.68
499.76	23602.84
499.96	23443.10
500.17	23162.53
500.37	23436.95
500.58	23410.33
500.78	23559.83
500.99	23506.59
501.19	23746.20
501.40	23918.23
501.60	23760.53
501.81	23971.47
502.02	24297.10
502.22	23924.37
502.43	24014.48
502.63	23998.10
502.84	24358.54
503.04	24235.66
503.25	24452.75
503.45	24327.82
503.66	24399.50
503.86	24438.41
504.07	24442.51
504.27	24686.22
504.48	25022.08
504.68	24835.72
504.89	24995.46
505.09	25255.55
505.30	24848.00
505.50	24823.43
505.71	25171.58
505.91	25388.67
506.12	25120.38
506.32	25097.86
506.53	25269.89
506.73	25208.45
506.94	25575.03
507.14	25636.47
507.35	25257.60
507.55	25648.76
507.76	25833.08
507.96	25425.53
508.17	25654.90
508.37	25691.77
508.58	25869.94
508.78	25763.45
508.99	26001.01
509.19	26054.26
509.40	26154.61
509.60	26130.03
509.81	25869.94
510.01	26050.16
510.22	26230.38
510.42	26136.18
510.63	26740.33
510.83	26367.60
511.04	26338.93
511.24	26637.93
511.44	26551.91
511.65	26830.44
511.85	26584.68
512.06	26547.82
512.26	26603.11
512.47	27143.78
512.67	26822.25
512.88	27176.55
513.08	26668.65
513.29	27399.77
513.49	27162.21
513.69	27375.20
513.90	27258.46
514.10	27221.60
514.31	27598.43
514.51	27639.39
514.72	27448.93
514.92	27569.76
515.13	27596.38
515.33	27960.92
515.53	27582.04
515.74	27899.48
515.94	27721.30
516.15	27940.44
516.35	27686.49
516.56	28106.32
516.76	27907.67
516.96	28159.57
517.17	28290.64
517.37	28315.22
517.58	28415.57
517.78	28569.16
517.99	28575.31
518.19	28915.27
518.39	28696.14
518.60	28565.07
518.80	28724.81
519.01	28958.28
519.21	28968.52
519.41	29062.72
519.62	29066.82
519.82	29255.23
520.03	29593.15
520.23	28950.09
520.43	29212.23
520.64	29611.58
520.84	29840.95
521.05	29683.26
521.25	29646.40
521.45	29996.60
521.66	30350.90
521.86	29847.10
522.07	29824.57
522.27	30164.53
522.47	30395.95
522.68	30662.19
522.88	30248.50
523.08	30758.44
523.29	30545.45
523.49	30813.74
523.70	30789.16
523.90	31049.25
524.10	31006.25
524.31	31247.91
524.51	31233.57
524.71	31608.35
524.92	31258.15
525.12	31491.62
525.33	31594.01
525.53	31968.79
525.73	31966.74
525.94	32142.87
526.14	31989.27
526.34	31958.55
526.55	32169.49
526.75	32325.14
526.95	32554.51
527.16	32220.69
527.36	32222.74
527.56	32804.36
527.77	32714.25
527.97	32368.15
528.17	32763.40
528.38	32773.64
528.58	33275.40
528.78	33240.58
528.99	33121.80
529.19	33506.82
529.39	33216.01
529.60	33744.38
529.80	33615.36
530.00	33738.24
530.21	33883.64
530.41	34184.69
530.61	33891.83
530.82	33926.65
531.02	34182.65
531.22	34110.97
531.43	34287.09
531.63	34766.32
531.83	34592.24
532.04	35161.58
532.24	34676.21
532.44	35239.40
532.64	35100.14
532.85	35016.17
533.05	35255.78
533.25	35128.81
533.46	35530.21
533.66	35808.73
533.86	35585.50
534.07	36144.60
534.27	35841.50
534.47	36017.63
534.67	35806.69
534.88	36031.96
535.08	35964.38
535.28	36015.58
535.49	36515.28
535.69	36627.92
535.89	37047.75
536.09	36976.08
536.30	36826.57
536.50	37227.98
536.70	37207.50
536.91	36699.60
537.11	37357.00
537.31	37258.70
537.51	37311.94
537.72	37785.02
537.92	37834.17
538.12	37989.82
538.32	38073.79
538.53	37909.95
538.73	37981.63
538.93	37871.04
539.13	38120.89
539.34	37897.66
539.54	38147.51
539.74	38559.16
539.94	38079.93
540.15	38673.84
540.35	39112.11
540.55	38602.16
540.75	38507.96
540.96	38921.65
541.16	39169.45
541.36	38901.17
541.56	38835.63
541.77	39294.38
541.97	39101.87
542.17	39065.00
542.37	39542.18
542.58	39589.28
542.78	39507.37
542.98	39415.21
543.18	39550.37
543.38	40193.43
543.59	39966.11
543.79	39828.90
543.99	39558.56
544.19	40103.32
544.40	39794.08
544.60	40465.81
544.80	40088.99
545.00	40420.76
545.20	40545.69
545.41	40160.67
545.61	40103.32
545.81	40752.53
546.01	40555.93
546.21	40318.36
546.42	40279.45
546.62	40830.35
546.82	40519.06
547.02	40715.67
547.22	40891.79
547.43	40584.60
547.63	40707.47
547.83	40959.38
548.03	40842.64
548.23	41368.97
548.44	41033.10
548.64	41190.80
548.84	41176.46
549.04	41391.50
549.24	41481.61
549.45	41303.43
549.65	41323.91
549.85	41330.06
550.05	41629.06
550.25	41502.09
550.45	42061.18
550.66	41762.18
550.86	41112.97
551.06	41885.06
551.26	41633.16
551.46	42229.12
551.66	41907.58
551.87	41655.68
552.07	41696.64
552.27	41760.13
552.47	42317.18
552.67	42128.77
552.87	42421.62
553.07	42227.07
553.28	42222.97
553.48	42169.72
553.68	41883.01
553.88	42438.01
554.08	41964.93
554.28	42433.91
554.48	42327.42
554.69	42597.75
554.89	42321.27
555.09	42358.14
555.29	42351.99
555.49	42390.91
555.69	42237.31
555.89	42958.19
556.10	42829.17
556.30	42136.96
556.50	42980.72
556.70	42501.50
556.90	42583.41
557.10	42587.51
557.30	42237.31
557.50	43048.30
557.70	43201.90
557.91	43193.71
558.11	42765.68
558.31	42884.47
558.51	42362.23
558.71	42923.38
558.91	43210.09
559.11	42698.10
559.31	43048.30
559.51	42947.95
559.72	43105.65
559.92	43029.87
560.12	42786.16
560.32	42939.76
560.52	43017.58
560.72	43160.94
560.92	43429.23
561.12	43287.92
561.32	43582.82
561.52	43036.02
561.72	43539.82
561.93	42941.81
562.13	43537.77
562.33	42990.96
562.53	43595.11
562.73	43222.38
562.93	43259.24
563.13	43695.46
563.33	43318.64
563.53	43375.98
563.73	43259.24
563.93	43865.44
564.13	43658.60
564.33	43763.04
564.53	43562.34
564.74	43478.38
564.94	43390.31
565.14	43820.39
565.34	43480.42
565.54	43701.61
565.74	43877.73
565.94	44746.07
566.14	43414.89
566.34	43930.98
566.54	43951.46
566.74	43765.09
566.94	43949.41
567.14	44131.68
567.34	44049.76
567.54	43857.25
567.74	44203.36
567.94	43789.67
568.14	44246.36
568.34	44225.89
568.54	44008.80
568.74	44547.42
568.94	44127.58
569.14	44559.70
569.34	44232.03
569.54	44399.96
569.75	44434.78
569.95	44125.53
570.15	44803.41
570.35	44512.60
570.55	44408.15
570.75	44363.10
570.95	44696.92
571.15	44838.23
571.35	44922.19
571.55	45348.17
571.75	44766.55
571.95	44885.33
572.15	44899.67
572.35	44760.40
572.55	44926.29
572.75	44590.42
572.95	45032.78
573.15	44963.15
573.35	45053.26
573.55	44981.59
573.75	45151.57
573.95	45374.80
574.15	44965.20
574.35	45552.97
574.55	45217.10
574.75	45264.21
574.95	45550.92
575.15	45421.90
575.34	45690.18
575.54	45436.23
575.74	45782.34
575.94	45677.90
576.14	45583.69
576.34	46028.10
576.54	46425.40
576.74	45727.05
576.94	46202.18
577.14	45866.31
577.34	46443.84
577.54	46165.31
577.74	46517.56
577.94	45989.19
578.14	46140.74
578.34	46363.96
578.54	45890.88
578.74	46013.76
578.94	46230.85
579.14	46163.26
579.34	46130.50
579.54	46429.50
579.74	46835.00
579.94	46871.86
580.13	46921.01
580.33	46871.86
580.53	47160.62
580.73	46916.92
580.93	47152.43
581.13	46968.12
581.33	46974.26
581.53	47330.61
581.73	47340.85
581.93	47342.89
582.13	47355.18
582.33	47777.06
582.53	47543.59
582.73	47422.76
582.92	48129.31
583.12	48194.85
583.32	47891.75
583.52	47897.89
583.72	48100.64
583.92	48133.41
584.12	47889.70
584.32	48284.96
584.52	48133.41
584.72	48149.79
584.92	48514.33
585.11	48274.72
585.31	48770.33
585.51	48659.74
585.71	48432.41
585.91	48715.03
586.11	48256.29
586.31	48575.77
586.51	48858.39
586.71	48690.46
586.91	48559.39
587.10	49278.22
587.30	48870.68
587.50	49503.50
587.70	49429.77
587.90	49509.64
588.10	49011.99
588.30	49503.50
588.50	49657.10
588.69	49728.78
588.89	49698.06
589.09	49921.29
589.29	49382.67
589.49	49937.67
589.69	49583.37
589.89	50064.64
590.08	49888.52
590.28	49751.30
590.48	49667.34
590.68	50115.84
590.88	50349.31
591.08	50005.25
591.28	49747.21
591.47	50517.25
591.67	50318.59
591.87	50238.72
592.07	50601.21
592.27	50814.20
592.47	50431.23
592.67	50775.29
592.86	50570.49
593.06	50730.23
593.26	50738.43
593.46	50613.50
593.66	50498.81
593.86	51174.64
594.05	51010.81
594.25	51619.05
594.45	50857.21
594.65	51117.30
594.85	51080.44
595.05	51520.75
595.24	51889.38
595.44	51059.96
595.64	51311.86
595.84	51610.86
596.04	51772.65
596.23	51807.47
596.43	51807.47
596.63	51780.84
596.83	52243.68
597.03	52139.24
597.22	52153.57
597.42	52204.77
597.62	52405.47
597.82	52174.05
598.02	52081.89
598.21	52794.59
598.41	52237.54
598.61	52614.37
598.81	52477.15
599.01	52718.81
599.20	52901.08
599.40	52851.93
599.60	52999.38
599.80	52942.04
600.00	53048.53
600.19	53144.79
600.39	52530.40
600.59	53144.79
600.79	53603.53
600.98	53372.11
601.18	53468.37
601.38	53669.07
601.58	53615.82
601.78	53404.88
601.97	53804.24
602.17	54072.52
602.37	53761.23
602.57	53892.30
602.76	54226.12
602.96	53941.45
603.16	54301.89
603.36	53929.16
603.55	54531.26
603.75	53945.54
603.95	54764.73
604.15	54439.11
604.34	54336.71
604.54	54572.22
604.74	54648.00
604.94	54903.99
605.13	54402.24
605.33	54691.01
605.53	54381.76
605.73	55301.30
605.92	54817.98
606.12	55039.16
606.32	55585.97
606.52	55073.98
606.71	55403.70
606.91	55473.33
607.11	55426.23
607.30	55301.30
607.50	55518.38
607.70	55637.17
607.90	55258.29
608.09	55932.07
608.29	55411.89
608.49	55710.89
608.68	55612.59
608.88	56018.09
609.08	55585.97
609.28	55932.07
609.47	55919.79
609.67	56456.35
609.87	55788.72
610.06	56265.89
610.26	56337.57
610.46	56106.15
610.66	55958.70
610.85	56198.31
611.05	55993.51
611.25	56439.97
611.44	55911.59
611.64	56112.30
611.84	56198.31
612.03	56333.48
612.23	56452.26
612.43	55925.93
612.62	56071.34
612.82	56448.16
613.02	56220.84
613.21	56415.40
613.41	56114.34
613.61	56376.48
613.80	56095.91
614.00	56468.64
614.20	56487.07
614.39	56452.26
614.59	56747.17
614.79	56708.25
614.98	56673.44
615.18	56652.96
615.38	56872.09
615.57	55911.59
615.77	56736.93
615.97	56650.91
616.16	56407.20
616.36	56648.86
616.56	56612.00
616.75	56702.11
616.95	56382.63
617.15	56888.48
617.34	56466.59
617.54	56921.24
617.74	57140.38
617.93	56614.05
618.13	56554.66
618.32	56708.25
618.52	56310.95
618.72	56485.03
618.91	56722.59
619.11	56040.62
619.31	56618.14
619.50	56239.27
619.70	56173.73
619.90	56274.09
620.09	56456.35
620.29	56642.72
620.48	56063.14
620.68	57029.79
620.88	56280.23
621.07	56472.74
621.27	56317.09
621.46	56319.14
621.66	56464.55
621.86	56364.20
622.05	56020.14
622.25	56886.43
622.44	56253.61
622.64	56247.46
622.84	56349.86
623.03	56333.48
623.23	56292.52
623.42	56431.78
623.62	56368.29
623.82	56628.38
624.01	56263.85
624.21	56728.73
624.40	56024.23
624.60	55923.88
624.80	56401.06
624.99	56554.66
625.19	55504.05
625.38	56644.77
625.58	56489.12
625.77	56069.29
625.97	56251.56
626.17	56077.48
626.36	56001.71
626.56	56372.39
626.75	55659.69
626.95	56790.17
627.14	55901.36
627.34	56028.33
627.54	55866.54
627.73	55758.00
627.93	56331.43
628.12	55680.17
628.32	55850.16
628.51	55968.94
628.71	56222.89
628.90	55686.32
629.10	55708.85
629.30	55977.13
629.49	55823.53
629.69	55841.96
629.88	55571.63
630.08	56159.40
630.27	56198.31
630.47	56468.64
630.66	55608.50
630.86	56267.94
631.05	55456.95
631.25	56054.95
631.44	55760.05
631.64	56013.99
631.84	55964.84
632.03	56210.60
632.23	55925.93
632.42	55960.75
632.62	56061.10
632.81	55598.26
633.01	55536.82
633.20	56145.06
633.40	56093.86
633.59	56226.98
633.79	55600.30
633.98	56028.33
634.18	55665.84
634.37	56155.30
634.57	55745.71
634.76	56138.92
634.96	55884.97
635.15	56124.58
635.35	55495.86
635.54	55473.33
635.74	55989.42
635.93	55610.54
636.13	55889.07
636.32	56009.90
636.52	55545.01
636.71	55647.41
636.91	55915.69
637.10	55778.48
637.30	55350.45
637.49	55616.69
637.69	55772.33
637.88	56026.28
638.08	55188.66
638.27	55628.98
638.46	55628.98
638.66	55764.14
638.85	55551.15
639.05	55123.13
639.24	55999.66
639.44	55649.45
639.63	55741.61
639.83	55502.00
640.02	56003.75
640.22	55682.22
640.41	55985.32
640.61	55268.53
640.80	55635.12
640.99	55645.36
641.19	55966.89
641.38	55823.53
641.58	55456.95
641.77	55444.66
641.97	55465.14
642.16	55903.40
642.36	55614.64
642.55	55850.16
642.74	55710.89
642.94	56476.83
643.13	55622.83
643.33	55792.81
643.52	55741.61
643.72	55682.22
643.91	55897.26
644.10	55735.47
644.30	55682.22
644.49	55702.70
644.69	55876.78
644.88	55497.91
645.08	55405.75
645.27	55618.74
645.46	55350.45
645.66	55678.13
645.85	55571.63
646.05	55919.79
646.24	55768.24
646.43	55762.09
646.63	55993.51
646.82	55911.59
647.02	55948.46
647.21	55776.43
647.40	55737.52
647.60	55977.13
647.79	55981.23
647.99	56206.50
648.18	55579.82
648.37	55932.07
648.57	55825.58
648.76	55852.20
648.96	55297.20
649.15	56128.68
649.34	56337.57
649.54	56120.49
649.73	55471.28
649.92	55780.52
650.12	55751.85
650.31	56421.54
650.51	55977.13
650.70	56218.79
650.89	55745.71
651.09	56603.81
651.28	55768.24
651.47	56097.96
651.67	56022.19
651.86	55956.65
652.06	55581.87
652.25	55758.00
652.44	56263.85
652.64	55948.46
652.83	55606.45
653.02	55903.40
653.22	56054.95
653.41	55481.52
653.60	55674.03
653.80	55686.32
653.99	56216.74
654.18	55588.02
654.38	55866.54
654.57	55592.11
654.76	56226.98
654.96	55585.97
655.15	55577.78
655.34	55581.87
655.54	55495.86
655.73	55966.89
655.92	55977.13
656.12	56106.15
656.31	55964.84
656.50	56087.72
656.70	55989.42
656.89	55772.33
657.08	56253.61
657.28	55985.32
657.47	56343.72
657.66	56454.31
657.86	55731.37
658.05	56085.67
658.24	55866.54
658.43	55694.51
658.63	56071.34
658.82	56093.86
659.01	55854.25
659.21	56444.07
659.40	55968.94
659.59	55899.31
659.79	56401.06
659.98	56145.06
660.17	56249.51
660.36	56095.91
660.56	56194.21
660.75	56114.34
660.94	55950.51
661.14	56173.73
661.33	56259.75
661.52	55547.06
661.71	56337.57
661.91	56163.50
662.10	55409.84
662.29	56282.28
662.49	56140.97
662.68	56124.58
662.87	56173.73
663.06	56345.76
663.26	55794.86
663.45	56415.40
663.64	56597.66
663.83	56808.61
664.03	56382.63
664.22	55925.93
664.41	56222.89
664.60	55907.50
664.80	56087.72
664.99	56104.10
665.18	56472.74
665.37	56550.56
665.57	56282.28
665.76	56284.33
665.95	56292.52
666.14	56458.40
666.34	56485.03
666.53	56251.56
666.72	56511.65
666.91	56024.23
667.11	55993.51
667.30	56390.82
667.49	55796.91
667.68	55870.64
667.87	56118.44
668.07	56198.31
668.26	55938.22
668.45	56409.25
668.64	55694.51
668.84	56458.40
669.03	56480.93
669.22	56667.30
669.41	56530.08
669.60	56325.28
669.80	56595.62
669.99	56466.59
670.18	56415.40
670.37	56738.97
670.57	56540.32
670.76	56624.29
670.95	56347.81
671.14	56128.68
671.33	56353.96
671.53	56573.09
671.72	56401.06
671.91	56800.41
672.10	56450.21
672.29	56700.06
672.48	56458.40
672.68	56339.62
672.87	56747.17
673.06	56360.10
673.25	56734.88
673.44	56528.03
673.64	56857.76
673.83	56192.17
674.02	56427.68
674.21	56118.44
674.40	56466.59
674.59	56126.63
674.79	56173.73
674.98	55923.88
675.17	56331.43
675.36	56419.49
675.55	56794.27
675.74	56194.21
675.94	56095.91
676.13	56769.69
676.32	56722.59
676.51	56816.80
676.70	57056.41
676.89	56439.97
677.08	56898.72
677.28	56726.69
677.47	57377.94
677.66	57150.62
677.85	56771.74
678.04	56947.87
678.23	57138.33
678.42	56851.61
678.62	56595.62
678.81	56870.04
679.00	57011.35
679.19	57234.58
679.38	56689.82
679.57	56820.89
679.76	56599.71
679.96	57273.49
680.15	56796.32
680.34	56732.83
680.53	56784.03
680.72	56603.81
680.91	57119.90
681.10	56630.43
681.29	56908.96
681.48	56329.38
681.68	56747.17
681.87	56984.73
682.06	56597.66
682.25	56267.94
682.44	56745.12
682.63	56947.87
682.82	56093.86
683.01	56507.55
683.20	55993.51
683.39	56964.25
683.59	56417.44
683.78	56571.04
683.97	56319.14
684.16	56583.33
684.35	56122.54
684.54	56607.90
684.73	56525.99
684.92	56224.93
685.11	56525.99
685.30	56218.79
685.49	56814.75
685.69	56624.29
685.88	56579.23
686.07	56612.00
686.26	56652.96
686.45	56509.60
686.64	56501.41
686.83	56474.79
687.02	56530.08
687.21	56589.47
687.40	56433.83
687.59	56702.11
687.78	56781.98
687.97	57111.70
688.16	56417.44
688.35	56175.78
688.54	56614.05
688.74	56407.20
688.93	56558.75
689.12	56417.44
689.31	56843.42
689.50	56870.04
689.69	56050.86
689.88	55950.51
690.07	56609.95
690.26	56321.19
690.45	56722.59
690.64	56278.18
690.83	56487.07
691.02	55989.42
691.21	56245.41
691.40	56333.48
691.59	56147.11
691.78	56161.45
691.97	56736.93
692.16	56429.73
692.35	56472.74
692.54	56517.79
692.73	56589.47
692.92	56431.78
693.11	56599.71
693.30	56204.45
693.49	56347.81
693.68	56151.21
693.87	55938.22
694.06	56276.13
694.25	56093.86
694.44	56050.86
694.63	56321.19
694.82	56276.13
695.01	56175.78
695.20	55772.33
695.39	56372.39
695.58	55954.60
695.77	56110.25
695.96	55825.58
696.15	56239.27
696.34	56108.20
696.53	56249.51
696.72	56159.40
696.91	55887.02
697.10	56321.19
697.29	56325.28
697.48	56437.92
697.67	56288.42
697.86	55565.49
698.05	55688.37
698.24	56571.04
698.43	55524.53
698.62	56011.95
698.81	55780.52
699.00	56153.26
699.19	55594.16
699.38	55602.35
699.57	55387.31
699.76	56267.94
699.95	55626.93
700.14	55717.04
700.32	55327.92
700.51	55671.98
700.70	55862.44
700.89	56175.78
701.08	56032.42
701.27	55940.27
701.46	56042.66
701.65	55323.83
701.84	55835.82
702.03	55518.38
702.22	55194.81
702.41	55735.47
702.60	55766.19
702.79	55321.78
702.98	55665.84
703.17	55456.95
703.35	55076.02
703.54	55360.69
703.73	55219.38
703.92	55125.17
704.11	55194.81
704.30	54768.83
704.49	54803.64
704.68	54860.99
704.87	55301.30
705.06	55448.75
705.25	55256.24
705.43	55446.71
705.62	55211.19
705.81	55073.98
706.00	55309.49
706.19	54758.59
706.38	54695.10
706.57	55280.82
706.76	54762.68
706.95	55104.70
707.14	54817.98
707.32	54703.29
707.51	54340.80
707.70	54455.49
707.89	54721.72
708.08	54619.33
708.27	54848.70
708.46	55192.76
708.65	54924.47
708.84	55243.96
709.02	54760.64
709.21	54924.47
709.40	54426.82
709.59	54871.23
709.78	54119.62
709.97	54754.49
710.16	54375.62
710.34	54224.07
710.53	54785.21
710.72	54346.95
710.91	54502.59
711.10	54559.94
711.29	54611.13
711.48	54297.80
711.66	53941.45
711.85	53724.36
712.04	54465.73
712.23	54260.93
712.42	54291.65
712.61	54072.52
712.80	53896.39
712.98	54355.14
713.17	53662.93
713.36	53851.34
713.55	54095.05
713.74	54009.03
713.93	53888.20
714.11	54217.92
714.30	53818.57
714.49	53691.60
714.68	53818.57
714.87	53894.35
715.06	54033.61
715.24	53671.12
715.43	53576.91
715.62	52952.28
715.81	53621.97
716.00	54015.18
716.18	53050.58
716.37	53179.60
716.56	53044.44
716.75	53673.16
716.94	53275.86
717.12	52919.51
717.31	53695.69
717.50	53181.65
717.69	52868.31
717.88	53138.65
718.06	52944.09
718.25	53597.39
718.44	52487.39
718.63	52559.07
718.82	52585.69
719.00	52753.63
719.19	52313.31
719.38	52436.19
719.57	52249.83
719.76	51774.70
719.94	51690.73
720.13	51827.95
720.32	52329.70
720.51	52194.53
720.69	52065.51
720.88	51889.38
721.07	51924.20
721.26	51379.44
721.44	51840.23
721.63	51193.07
721.82	51414.26
722.01	51774.70
722.20	51639.53
722.38	51754.22
722.57	51037.43
722.76	51442.93
722.95	50971.89
723.13	51160.31
723.32	51221.75
723.51	50795.77
723.70	51066.10
723.88	51332.34
724.07	51145.97
724.26	50668.79
724.44	50144.51
724.63	50889.98
724.82	50830.58
725.01	50748.67
725.19	50666.75
725.38	50722.04
725.57	50418.94
725.76	50820.34
725.94	50625.79
726.13	50846.97
726.32	50369.79
726.51	50064.64
726.69	50654.46
726.88	50375.94
727.07	50046.21
727.25	50722.04
727.44	50070.79
727.63	50035.97
727.82	49980.68
728.00	50040.07
728.19	49958.15
728.38	50173.19
728.56	49530.12
728.75	50197.76
728.94	49726.73
729.12	50220.29
729.31	49509.64
729.50	49845.51
729.69	49976.58
729.87	49841.42
730.06	49988.87
730.25	49650.95
730.43	50375.94
730.62	49784.07
730.81	50119.94
730.99	50287.87
731.18	50068.74
731.37	50050.31
731.55	49792.26
731.74	50226.43
731.93	49730.83
732.11	49980.68
732.30	49599.76
732.49	49591.56
732.67	49628.43
732.86	49755.40
733.05	49417.49
733.23	49511.69
733.42	49061.14
733.61	49079.57
733.79	49075.48
733.98	50019.59
734.17	49757.45
734.35	49792.26
734.54	49474.83
734.73	49128.72
734.91	49581.32
735.10	49425.68
735.29	49487.12
735.47	48944.41
735.66	48887.06
735.84	49243.41
736.03	48946.45
736.22	49100.05
736.40	49171.73
736.59	48944.41
736.78	48968.98
736.96	48543.00
737.15	48764.18
737.33	48815.38
737.52	48882.97
737.71	48305.44
737.89	48698.65
738.08	48332.06
738.27	48405.79
738.45	48590.11
738.64	48848.15
738.82	48194.85
739.01	48325.92
739.20	48391.45
739.38	48407.84
739.57	48743.70
739.75	48590.11
739.94	48112.93
740.13	48303.39
740.31	48260.38
740.50	48147.75
740.68	48350.49
740.87	48252.19
741.06	48344.35
741.24	47912.23
741.43	48143.65
741.61	47834.41
741.80	47746.34
741.99	47983.91
742.17	47625.51
742.36	47752.49
742.54	47715.62
742.73	47295.79
742.91	47928.61
743.10	47336.75
743.29	47930.66
743.47	47754.54
743.66	47576.36
743.84	47508.78
744.03	47502.64
744.21	47181.10
744.40	47637.80
744.59	47412.52
744.77	47068.47
744.96	47461.68
745.14	47289.65
745.33	47490.35
745.51	46964.02
745.70	47148.34
745.88	47240.50
746.07	47279.41
746.26	46611.77
746.44	47154.48
746.63	46658.87
746.81	47119.66
747.00	46413.12
747.18	46673.21
747.37	46753.08
747.55	46394.68
747.74	47383.85
747.92	46449.98
748.11	46445.88
748.29	46525.75
748.48	46892.34
748.66	46497.08
748.85	46646.58
749.03	46456.12
749.22	46175.55
749.41	46144.83
749.59	46204.22
749.78	46361.92
749.96	45802.82
750.15	45962.56
750.33	46011.71
750.52	46011.71
750.70	45657.42
750.89	45659.46
751.07	45374.80
751.26	46007.62
751.44	45772.10
751.63	45628.74
751.81	45569.35
752.00	45518.15
752.18	45544.78
752.37	45716.81
752.55	45184.33
752.74	45268.30
752.92	45161.81
753.10	44834.13
753.29	45405.52
753.47	45090.13
753.66	44891.48
753.84	44899.67
754.03	45133.14
754.21	44871.00
754.40	44932.43
754.58	44787.03
754.77	44844.37
754.95	44625.24
755.14	44586.33
755.32	44533.08
755.51	44772.69
755.69	44703.06
755.88	44631.38
756.06	44531.03
756.24	44180.83
756.43	44416.35
756.61	44827.99
756.80	44248.41
756.98	44129.63
757.17	44359.00
757.35	44254.56
757.54	43824.48
757.72	44205.41
757.90	43603.30
758.09	43795.81
758.27	44057.95
758.46	44086.62
758.64	43898.21
758.83	44060.00
759.01	43941.22
759.19	43812.20
759.38	43754.85
759.56	43914.59
759.75	43820.39
759.93	44053.86
760.12	43509.10
760.30	43296.11
760.48	43924.83
760.67	43175.28
760.85	43822.44
761.04	43640.17
761.22	43625.83
761.40	43601.25
761.59	43576.68
761.77	42972.53
761.96	43191.66
762.14	43349.35
762.32	42517.88
762.51	42667.38
762.69	43171.18
762.88	42431.86
763.06	42925.42
763.24	42827.12
763.43	43160.94
763.61	42857.84
763.80	42614.13
763.98	42626.42
764.16	42448.25
764.35	42603.89
764.53	42564.98
764.72	42591.61
764.90	42816.88
765.08	42382.71
765.27	42265.98
765.45	42214.78
765.63	42141.05
765.82	42446.20
766.00	42182.01
766.18	42229.12
766.37	42616.18
766.55	42022.27
766.74	42339.71
766.92	41727.36
767.10	42169.72
767.29	41635.20
767.47	41362.82
767.65	41719.17
767.84	41428.36
768.02	41739.65
768.20	41401.74
768.39	41676.16
768.57	41559.43
768.75	41104.78
768.94	41473.42
769.12	41512.33
769.30	40990.09
769.49	40551.83
769.67	41418.12
769.85	41096.59
770.04	41051.53
770.22	40842.64
770.40	40723.86
770.59	40301.98
770.77	40867.22
770.95	40734.10
771.14	40641.94
771.32	40590.74
771.50	40717.71
771.69	40347.03
771.87	40856.98
772.05	40664.47
772.24	40226.20
772.42	40543.64
772.60	40371.61
772.78	40060.32
772.97	40033.69
773.15	40568.21
773.33	40349.08
773.52	39941.53
773.70	40254.87
773.88	40224.15
774.07	40021.41
774.25	40170.91
774.43	40297.88
774.61	40285.59
774.80	40420.76
774.98	40510.87
775.16	40672.66
775.34	40402.33
775.53	40005.02
775.71	40412.57
775.89	40408.47
776.08	40523.16
776.26	40189.34
776.44	40646.04
776.62	40279.45
776.81	40310.17
776.99	40222.11
777.17	40619.41
777.35	40375.70
777.54	40703.38
777.72	39982.49
777.90	40463.77
778.08	40736.15
778.27	40367.51
778.45	40408.47
778.63	40818.07
778.81	40639.89
779.00	40988.05
779.18	40576.40
779.36	40926.61
779.54	40433.05
779.73	40588.69
779.91	41035.15
780.09	41082.25
780.27	40777.11
780.46	40531.35
780.64	41254.28
780.82	40891.79
781.00	40656.28
781.19	41360.78
781.37	41334.15
781.55	41446.79
781.73	41596.29
781.91	40924.56
782.10	40924.56
782.28	41178.51
782.46	41190.80
782.64	41241.99
782.82	40942.99
783.01	41434.50
783.19	41393.54
783.37	41178.51
783.55	41184.65
783.74	41633.16
783.92	40934.80
784.10	41635.20
784.28	41440.65
784.46	40840.59
784.64	40641.94
784.83	41270.67
785.01	41364.87
785.19	41104.78
785.37	41454.98
785.55	41399.69
785.74	40799.63
785.92	40908.18
786.10	41084.30
786.28	41063.82
786.46	40986.00
786.64	40738.19
786.83	41004.43
787.01	40971.66
787.19	40965.52
787.37	41024.91
787.55	40691.09
787.74	40957.33
787.92	40920.46
788.10	40664.47
788.28	40449.43
788.46	41053.58
788.64	40596.88
788.82	41059.73
789.01	41162.12
789.19	40695.19
789.37	40431.00
789.55	40381.85
789.73	40156.57
789.91	40152.48
790.09	40074.65
790.28	40611.22
790.46	39775.65
790.64	40617.36
790.82	39865.76
791.00	39910.82
791.18	39599.52
791.36	39933.34
791.55	39953.82
791.73	39687.59
791.91	39648.68
792.09	39460.26
792.27	39892.38
792.45	39486.89
792.63	39341.48
792.81	39515.56
793.00	39273.90
793.18	39142.83
793.36	39452.07
793.54	38821.30
793.72	39105.96
793.90	38759.86
794.08	38989.23
794.26	39087.53
794.44	38548.92
794.62	38739.38
794.81	38950.32
794.99	38624.69
795.17	38307.26
795.35	38153.66
795.53	38303.16
795.71	38372.79
795.89	38149.56
796.07	38077.88
796.25	37901.76
796.43	37987.77
796.61	37549.51
796.80	37690.82
796.98	38038.97
797.16	37678.53
797.34	37797.31
797.52	37610.95
797.70	37768.64
797.88	37531.08
798.06	37014.99
798.24	37467.59
798.42	37410.25
798.60	37410.25
798.78	37021.13
798.96	37213.64
799.14	36900.30
799.32	37002.70
799.51	36802.00
799.69	36783.57
799.87	36400.60
800.05	36556.24
800.23	36488.66
800.41	36290.01
800.59	36533.71
800.77	36218.33
800.95	36142.55
801.13	36038.11
801.31	35984.86
801.49	36070.87
801.67	35866.08
801.85	36687.31
802.03	35872.22
802.21	35448.29
802.39	35395.04
802.57	35620.32
802.75	35448.29
802.93	35474.91
803.11	35118.57
803.29	35419.62
803.47	35063.27
803.65	35161.58
803.83	35216.87
804.01	35476.96
804.19	34778.61
804.37	34627.06
804.55	34489.84
804.73	34622.96
804.91	34727.41
805.09	34815.47
805.27	34670.06
805.45	34532.85
805.63	34653.68
805.81	34158.07
805.99	34450.93
806.17	34825.71
806.35	34151.93
806.53	33803.77
806.71	34147.83
806.89	34051.58
807.07	34205.17
807.25	33996.28
807.43	33842.68
807.61	34498.03
807.79	33783.29
807.97	33635.84
808.15	33897.98
808.33	33715.71
808.51	33400.32
808.69	33428.99
808.87	32892.43
809.05	33314.31
809.23	33132.04
809.41	33093.13
809.59	32960.01
809.77	33400.32
809.95	33091.08
810.13	33193.48
810.31	32855.56
810.49	32484.88
810.67	32947.72
810.84	32955.91
811.02	32781.84
811.20	32878.09
811.38	32884.23
811.56	32484.88
811.74	32128.53
811.92	32392.72
812.10	32792.08
812.28	32630.29
812.46	32466.45
812.64	32607.76
812.82	32028.18
813.00	31993.37
813.18	32011.80
813.36	31948.31
813.53	31952.41
813.71	31583.77
813.89	31972.89
814.07	31784.48
814.25	31983.13
814.43	31923.74
814.61	31409.70
814.79	31430.18
814.97	31381.03
815.15	31675.93
815.33	31213.09
815.50	31100.45
815.68	31213.09
815.86	31342.11
816.04	31178.28
816.22	30993.96
816.40	31438.37
816.58	31393.31
816.76	30942.76
816.94	30838.31
817.11	30326.32
817.29	30905.90
817.47	30664.24
817.65	30547.50
817.83	30856.75
818.01	30740.01
818.19	30600.75
818.37	30559.79
818.54	30277.17
818.72	30533.17
818.90	30533.17
819.08	30451.25
819.26	30672.43
819.44	30463.54
819.62	30352.94
819.80	30643.76
819.97	30574.13
820.15	30340.66
820.33	29996.60
820.51	30189.11
820.69	29931.06
820.87	29941.30
821.05	29978.17
821.22	29855.29
821.40	30041.65
821.58	29646.40
821.76	29699.64
821.94	29511.23
822.12	29834.81
822.29	29752.89
822.47	29537.85
822.65	29804.09
822.83	29716.03
823.01	29840.95
823.19	29527.61
823.36	29421.12
823.54	29439.55
823.72	29259.33
823.90	29247.04
824.08	28689.99
824.25	29486.65
824.43	28945.99
824.61	29136.45
824.79	29130.31
824.97	29042.24
825.15	29187.65
825.32	28941.89
825.50	28868.17
825.68	28880.46
825.86	29589.05
826.04	28935.75
826.21	28986.95
826.39	28925.51
826.57	28812.87
826.75	28345.94
826.93	28593.74
827.10	28743.24
827.28	28776.01
827.46	28436.05
827.64	28511.82
827.81	28491.34
827.99	28315.22
828.17	28321.36
828.35	28382.80
828.53	28550.73
828.70	28530.25
828.88	28440.14
829.06	28008.02
829.24	28460.62
829.41	28061.27
829.59	28374.61
829.77	28341.84
829.95	28161.62
830.12	27989.59
830.30	27811.42
830.48	28300.88
830.66	28200.53
830.84	28022.36
831.01	27717.21
831.19	28153.43
831.37	27813.46
831.55	27313.76
831.72	27291.23
831.90	27692.63
832.08	27641.43
832.25	27813.46
832.43	27756.12
832.61	27467.36
832.79	27313.76
832.96	27602.52
833.14	27616.86
833.32	27502.17
833.50	27434.59
833.67	27063.91
833.85	27547.23
834.03	27078.24
834.20	27586.14
834.38	27217.50
834.56	27405.92
834.74	27235.94
834.91	27033.19
835.09	26900.07
835.27	26779.24
835.44	26603.11
835.62	26535.53
835.80	26766.95
835.98	26959.46
836.15	26895.97
836.33	26750.57
836.51	26986.08
836.68	26721.90
836.86	26951.27
837.04	26758.76
837.21	26932.84
837.39	26783.34
837.57	26926.69
837.75	26928.74
837.92	26549.87
838.10	26291.82
838.28	26336.88
838.45	26588.78
838.63	26314.35
838.81	26230.38
838.98	26461.80
839.16	26281.58
839.34	26390.13
839.51	26035.83
839.69	26093.17
839.87	26248.82
840.04	26144.37
840.22	26087.03
840.40	26064.50
840.57	25697.91
840.75	26017.40
840.93	25869.94
841.10	25798.26
841.28	26130.03
841.46	26111.60
841.63	25974.39
841.81	25517.69
841.98	25685.62
842.16	26017.40
842.34	25609.85
842.51	25728.63
842.69	25785.97
842.87	25638.52
843.04	25806.45
843.22	25370.24
843.40	25323.13
843.57	25585.27
843.75	25366.14
843.92	25339.52
844.10	25605.75
844.28	25564.79
844.45	25331.33
844.63	25523.83
844.81	25450.11
844.98	25376.38
845.16	25292.41
845.33	25058.95
845.51	25054.85
845.69	25015.94
845.86	25009.79
846.04	24837.76
846.21	24850.05
846.39	25089.67
846.57	24813.19
846.74	25071.23
846.92	24714.89
847.09	24557.19
847.27	24759.94
847.45	24606.34
847.62	24708.74
847.80	24827.53
847.97	24831.62
848.15	24766.09
848.32	24479.37
848.50	24823.43
848.68	24522.38
848.85	24403.60
849.03	24196.75
849.20	24596.10
849.38	24446.60
849.56	24495.75
849.73	24385.16
849.91	24362.64
850.08	24557.19
850.26	24178.32
850.43	24206.99
850.61	24401.55
850.78	23967.38
850.96	24170.13
851.14	23924.37
851.31	23910.04
851.49	23864.98
851.66	23936.66
851.84	23797.40
852.01	23969.43
852.19	23748.25
852.36	23821.97
852.54	23717.53
852.71	23703.19
852.89	23719.57
853.07	23596.70
853.24	23735.96
853.42	23809.68
853.59	23707.29
853.77	23776.92
853.94	23592.60
854.12	23828.12
854.29	23668.37
854.47	23709.33
854.64	23613.08
854.82	23488.15
854.99	23854.74
855.17	23617.18
855.34	23416.47
855.52	23639.70
855.69	23717.53
855.87	23357.08
856.04	23219.87
856.22	23316.12
856.39	23103.14
856.57	23285.40
856.74	23111.33
856.92	23338.65
857.09	22902.43
857.27	23082.66
857.44	23058.08
857.62	22988.45
857.79	22900.39
857.97	23133.86
858.14	22924.96
858.32	23021.22
858.49	22902.43
858.67	23008.93
858.84	22802.08
859.02	23013.02
859.19	22683.30
859.37	22664.87
859.54	22490.79
859.72	22628.01
859.89	22515.37
860.06	22927.01
860.24	22554.28
860.41	22505.13
860.59	22425.26
860.76	22619.81
860.94	22247.08
861.11	22552.23
861.29	22329.00
861.46	22199.98
861.64	22234.80
861.81	22296.24
861.98	22116.01
862.16	22142.64
862.33	21706.42
862.51	21927.60
862.68	21941.94
862.86	22038.19
863.03	21966.51
863.21	21835.44
863.38	21747.38
863.55	21577.40
863.73	22025.90
863.90	21841.59
864.08	21804.72
864.25	21753.52
864.43	21765.81
864.60	21759.67
864.77	21659.32
864.95	21771.96
865.12	21339.83
865.30	21675.70
865.47	21608.12
865.64	21399.23
865.82	21411.51
865.99	21731.00
866.17	21524.15
866.34	21393.08
866.51	21186.24
866.69	21251.77
866.86	21462.71
867.04	21130.94
867.21	21059.26
867.38	20901.57
867.56	21128.89
867.73	20874.95
867.91	21001.92
868.08	20870.85
868.25	20700.87
868.43	20852.42
868.60	20911.81
868.78	20641.48
868.95	20833.99
869.12	20819.65
869.30	20743.88
869.47	20905.66
869.64	20610.76
869.82	20641.48
869.99	20373.19
870.16	20821.70
870.34	20582.09
870.51	20649.67
870.69	20408.01
870.86	20528.84
871.03	20379.34
871.21	20088.53
871.38	20352.71
871.55	20321.99
871.73	19975.89
871.90	20039.37
872.07	20000.46
872.25	19955.41
872.42	20106.96
872.59	19830.48
872.77	19883.73
872.94	19979.98
873.11	20076.24
873.29	20156.11
873.46	19807.95
873.63	19885.78
873.81	19476.18
873.98	19723.99
874.15	19803.86
874.33	19644.12
874.50	19693.27
874.67	19379.93
874.85	19273.43
875.02	19236.57
875.19	19302.11
875.37	19263.19
875.54	19072.73
875.71	19064.54
875.88	19021.53
876.06	19099.36
876.23	19220.19
876.40	19115.74
876.58	19078.88
876.75	18949.85
876.92	18710.24
877.10	18982.62
877.27	18958.05
877.44	18906.85
877.61	18765.54
877.79	18581.22
877.96	18718.43
878.13	18857.70
878.31	18401.00
878.48	18435.81
878.65	18347.75
878.82	18208.49
879.00	18437.86
879.17	18288.36
879.34	18380.52
879.51	18278.12
879.69	18204.39
879.86	18362.09
880.03	18286.31
880.21	18118.38
880.38	18183.91
880.55	18001.65
880.72	18056.94
880.90	17972.97
881.07	17958.64
881.24	17938.16
881.41	18140.91
881.59	17823.47
881.76	17921.77
881.93	17846.00
882.10	17739.51
882.28	17575.67
882.45	17829.62
882.62	17696.50
882.79	17577.72
882.96	17579.76
883.14	17651.44
883.31	17598.20
883.48	17497.84
883.65	17614.58
883.83	17706.74
884.00	17452.79
884.17	17600.24
884.34	17628.92
884.51	17385.21
884.69	17426.17
884.86	17475.32
885.03	17280.76
885.20	17438.45
885.38	17327.86
885.55	17284.86
885.72	17237.75
885.89	17018.62
886.06	17184.51
886.24	17125.11
886.41	17055.48
886.58	17235.70
886.75	17329.91
886.92	17078.01
887.10	17323.77
887.27	16912.13
887.44	16994.04
887.61	16873.21
887.78	16969.47
887.95	17217.27
888.13	16897.79
888.30	16752.38
888.47	16733.95
888.64	16727.81
888.81	17063.68
888.99	16789.25
889.16	16801.54
889.33	16615.17
889.50	16635.65
889.67	16623.36
889.84	16568.07
890.01	16363.27
890.19	16785.15
890.36	16520.96
890.53	16602.88
890.70	16301.83
890.87	16264.97
891.04	16482.05
891.22	16510.72
891.39	16226.06
891.56	16328.45
891.73	16219.91
891.90	16244.49
892.07	16090.89
892.24	16228.10
892.42	16006.92
892.59	15994.64
892.76	15943.44
892.93	16043.79
893.10	15933.20
893.27	15922.96
893.44	15869.71
893.61	15755.02
893.79	15859.47
893.96	16152.33
894.13	15863.57
894.30	15943.44
894.47	15523.60
894.64	15836.94
894.81	15728.40
894.98	15931.15
895.15	15660.82
895.33	15705.87
895.50	15830.80
895.67	15742.74
895.84	15828.75
896.01	15529.75
896.18	15544.08
896.35	15728.40
896.52	15705.87
896.69	15703.82
896.86	15644.43
897.04	15763.22
897.21	15480.60
897.38	15574.80
897.55	15499.03
897.72	15580.95
897.89	15542.03
898.06	15603.47
898.23	15675.15
898.40	15703.82
898.57	15392.53
898.74	15558.42
898.91	15509.27
899.08	15505.17
899.26	15630.10
899.43	15435.54
899.60	15503.12
899.77	15716.11
899.94	15421.20
900.11	15441.68
900.28	15400.72
900.45	15552.27
900.62	15277.85
900.79	15482.64
900.96	15456.02
901.13	15576.85
901.30	15449.88
901.47	15263.51
901.64	15400.72
901.81	15345.43
901.98	15277.85
902.15	15363.86
902.32	15251.22
902.49	15515.41
902.66	15169.30
902.83	15370.01
903.01	15327.00
903.18	15427.35
903.35	15359.77
903.52	15388.44
903.69	15507.22
903.86	15519.51
904.03	15386.39
904.20	15580.95
904.37	15451.92
904.54	15353.62
904.71	15286.04
904.88	15130.39
905.05	15027.99
905.22	15218.46
905.39	15214.36
905.56	15265.56
905.73	15081.24
905.90	15157.02
906.07	15296.28
906.24	15595.28
906.41	15253.27
906.58	15349.53
906.75	15324.95
906.92	15234.84
907.09	15144.73
907.26	15099.67
907.43	14921.50
907.60	15183.64
907.77	15251.22
907.93	15265.56
908.10	15167.26
908.27	15265.56
908.44	15230.74
908.61	14989.08
908.78	14999.32
908.95	14974.75
909.12	15255.32
909.29	15073.05
909.46	15079.19
909.63	15103.77
909.80	15071.00
909.97	14843.68
910.14	15017.75
910.31	15050.52
910.48	15089.43
910.65	15159.06
910.82	14948.12
910.99	15179.54
911.16	15058.71
911.33	15023.90
911.50	14794.53
911.66	14868.25
911.83	14837.53
912.00	14862.11
912.17	14483.24
912.34	14714.66
912.51	14612.26
912.68	14534.43
912.85	14831.39
913.02	14802.72
913.19	14495.52
913.36	14495.52
913.53	14784.29
913.70	14565.15
913.86	14704.42
914.03	14380.84
914.20	14319.40
914.37	14257.96
914.54	14389.03
914.71	14696.22
914.88	14413.60
915.05	14483.24
915.22	14423.84
915.39	14331.69
915.55	14096.17
915.72	14087.98
915.89	14159.66
916.06	14098.22
916.23	13879.08
916.40	13797.17
916.57	13741.87
916.74	13825.84
916.91	13770.54
917.07	13674.29
917.24	13723.44
917.41	13885.23
917.58	13692.72
917.75	13657.90
917.92	13475.63
918.09	13514.55
918.26	13442.87
918.42	13743.92
918.59	13627.18
918.76	13508.40
918.93	13242.17
919.10	13287.22
919.27	13334.32
919.44	13410.10
919.60	13231.93
919.77	13231.93
919.94	13326.13
920.11	13352.76
920.28	13356.85
920.45	13137.72
920.61	13039.42
920.78	13127.48
920.95	13045.56
921.12	13012.79
921.29	12920.63
921.46	12631.87
921.62	12572.48
921.79	12963.64
921.96	12662.59
922.13	12789.56
922.30	12576.58
922.47	12525.38
922.63	12640.06
922.80	12678.97
922.97	12498.75
923.14	12296.00
923.31	12396.35
923.47	12201.80
923.64	12422.98
923.81	12136.26
923.98	12185.41
924.15	12138.31
924.32	12044.10
924.48	12085.06
924.65	12218.18
924.82	12021.58
924.99	11747.15
925.15	11556.69
925.32	11927.37
925.49	11757.39
925.66	11661.13
925.83	11757.39
925.99	11571.02
926.16	11759.44
926.33	11491.15
926.50	11267.92
926.67	11728.72
926.83	11364.18
927.00	11333.46
927.17	11208.53
927.34	11124.57
927.50	11241.30
927.67	11143.00
927.84	11331.41
928.01	11196.25
928.17	11011.93
928.34	11140.95
928.51	10905.43
928.68	11095.89
928.84	10843.99
929.01	10706.78
929.18	10671.97
929.35	10649.44
929.51	10712.92
929.68	10645.34
929.85	10422.11
930.02	10602.33
930.18	10403.68
930.35	10471.26
930.52	10411.87
930.69	10676.06
930.85	10463.07
931.02	10178.40
931.19	10096.49
931.36	10149.73
931.52	10321.76
931.69	10243.94
931.86	9955.18
932.02	9930.60
932.19	10012.52
932.36	9830.25
932.53	10104.68
932.69	9781.10
932.86	9736.04
933.03	9766.76
933.19	9674.60
933.36	9799.53
933.53	9615.21
933.70	9510.77
933.86	9455.47
934.03	9535.34
934.20	9322.35
934.36	9451.38
934.53	9293.68
934.70	9205.62
934.86	9174.90
935.03	8914.81
935.20	8978.30
935.36	9060.21
935.53	8859.51
935.70	8822.65
935.86	8763.26
936.03	8728.44
936.20	8580.99
936.36	8503.17
936.53	8449.92
936.70	8408.96
936.86	8634.24
937.03	8509.31
937.20	8249.22
937.36	8144.77
937.53	8048.52
937.70	7827.34
937.86	7849.86
938.03	7735.18
938.20	7706.51
938.36	7604.11
938.53	7661.45
938.70	7491.47
938.86	7501.71
939.03	7481.23
939.20	7182.23
939.36	7288.72
939.53	7028.63
939.70	7180.18
939.86	6915.99
940.03	6789.02
940.19	6672.28
940.36	6944.66
940.53	6709.15
940.69	6621.08
940.86	6604.70
941.03	6520.73
941.19	6238.11
941.36	6131.62
941.52	6393.76
941.69	6246.30
941.86	6164.39
942.02	6000.55
942.19	6094.76
942.35	6088.61
942.52	5924.77
942.69	6010.79
942.85	5779.37
943.02	5910.44
943.18	5867.43
943.35	5734.31
943.52	5697.45
943.68	5758.89
943.85	5509.04
944.01	5648.30
944.18	5703.59
944.35	5593.00
944.51	5470.12
944.68	5347.25
944.84	5451.69
945.01	5296.05
945.17	5498.80
945.34	5492.65
945.51	5500.84
945.67	5410.73
945.84	5361.58
946.00	5154.74
946.17	5287.86
946.33	5189.55
946.50	5269.42
946.67	5408.69
946.83	5191.60
947.00	5334.96
947.16	5384.11
947.33	5261.23
947.49	5279.66
947.66	5130.16
947.82	5259.18
947.99	5289.90
948.16	5167.03
948.32	5326.77
948.49	5445.55
948.65	5269.42
948.82	5277.62
948.98	5322.67
949.15	5212.08
949.31	5380.01
949.48	5271.47
949.64	5287.86
949.81	5207.98
949.97	5162.93
950.14	5164.98
950.30	5191.60
950.47	5253.04
950.63	5273.52
950.80	5287.86
950.96	5238.70
951.13	5160.88
951.30	5277.62
951.46	5306.29
951.63	5345.20
951.79	5427.12
951.96	5384.11
952.12	5218.22
952.29	5318.57
952.45	5222.32
952.62	5265.33
952.78	5265.33
952.94	5294.00
953.11	5312.43
953.27	5171.12
953.44	5322.67
953.60	5330.86
953.77	5357.49
953.93	5304.24
954.10	5324.72
954.26	5310.38
954.43	5433.26
954.59	5425.07
954.76	5480.36
954.92	5214.13
955.09	5408.69
955.25	5312.43
955.42	5244.85
955.58	5312.43
955.75	5337.01
955.91	5253.04
956.07	5406.64
956.24	5502.89
956.40	5377.97
956.57	5445.55
956.73	5400.49
956.90	5527.47
957.06	5382.06
957.23	5345.20
957.39	5296.05
957.56	5302.19
957.72	5394.35
957.88	5361.58
958.05	5529.52
958.21	5425.07
958.38	5474.22
958.54	5545.90
958.71	5498.80
958.87	5408.69
959.03	5433.26
959.20	5498.80
959.36	5414.83
959.53	5390.25
959.69	5339.05
959.85	5435.31
960.02	5341.10
960.18	5285.81
960.35	5359.53
960.51	5455.79
960.68	5257.14
960.84	5367.73
961.00	5269.42
961.17	5396.40
961.33	5353.39
961.50	5496.75
961.66	5334.96
961.82	5310.38
961.99	5431.21
962.15	5394.35
962.31	5431.21
962.48	5384.11
962.64	5472.17
962.81	5398.45
962.97	5355.44
963.13	5351.34
963.30	5404.59
963.46	5312.43
963.62	5361.58
963.79	5398.45
963.95	5359.53
964.12	5433.26
964.28	5294.00
964.44	5222.32
964.61	5337.01
964.77	5472.17
964.93	5332.91
965.10	5296.05
965.26	5287.86
965.42	5332.91
965.59	5214.13
965.75	5316.53
965.92	5177.26
966.08	5250.99
966.24	5201.84
966.41	5191.60
966.57	5492.65
966.73	5234.61
966.90	5353.39
967.06	5283.76
967.22	5156.79
967.39	5150.64
967.55	5117.87
967.71	5285.81
967.88	5078.96
968.04	5203.89
968.20	4970.42
968.37	5011.38
968.53	5007.28
968.69	5121.97
968.85	5068.72
969.02	5124.02
969.18	5160.88
969.34	4894.65
969.51	5148.59
969.67	5140.40
969.83	5111.73
970.00	5349.29
970.16	5146.55
970.32	4984.76
970.48	5183.41
970.65	5017.52
970.81	4964.28
970.97	4995.00
971.14	4913.08
971.30	5095.35
971.46	4837.30
971.63	5009.33
971.79	5001.14
971.95	4915.12
972.11	4966.32
972.28	4954.04
972.44	5025.72
972.60	4777.91
972.76	4968.37
972.93	5003.19
973.09	4855.73
973.25	4880.31
973.42	4913.08
973.58	4988.85
973.74	4937.65
973.90	4958.13
974.07	4784.06
974.23	4951.99
974.39	4900.79
974.55	4835.25
974.72	4659.13
974.88	4693.94
975.04	4849.59
975.20	4908.98
975.37	4804.53
975.53	4765.62
975.69	4720.57
975.85	4759.48
976.01	4693.94
976.18	4693.94
976.34	4673.46
976.50	4761.53
976.66	4769.72
976.83	4657.08
976.99	4474.81
977.15	4620.22
977.31	4581.31
977.47	4669.37
977.64	4681.66
977.80	4622.27
977.96	4536.25
978.12	4501.44
978.29	4452.28
978.45	4452.28
978.61	4595.64
978.77	4616.12
978.93	4466.62
979.10	4571.07
979.26	4573.11
979.42	4556.73
979.58	4442.04
979.74	4394.94
979.91	4495.29
980.07	4296.64
980.23	4470.72
980.39	4423.61
980.55	4433.85
980.71	4505.53
980.88	4315.07
981.04	4333.50
981.20	4431.80
981.36	4491.20
981.52	4433.85
981.68	4282.30
981.85	4358.08
982.01	4349.89
982.17	4331.45
982.33	4351.93
982.49	4347.84
982.65	4337.60
982.82	4347.84
982.98	4310.97
983.14	4145.09
983.30	4380.61
983.46	4378.56
983.62	4249.54
983.79	4251.58
983.95	4190.14
984.11	4181.95
984.27	4184.00
984.43	4126.66
984.59	4227.01
984.75	4233.15
984.91	4108.23
985.08	4286.40
985.24	4046.79
985.40	4100.03
985.56	4145.09
985.72	4114.37
985.88	4163.52
986.04	4112.32
986.20	4040.64
986.37	4112.32
986.53	3868.61
986.69	4030.40
986.85	4030.40
987.01	4042.69
987.17	4069.31
987.33	4034.50
987.49	3960.77
987.65	4024.26
987.82	3919.81
987.98	3950.53
988.14	4001.73
988.30	3989.44
988.46	3938.24
988.62	3942.34
988.78	3776.45
988.94	3936.20
989.10	3862.47
989.26	3878.85
989.42	3925.96
989.59	3815.37
989.75	3798.98
989.91	3919.81
990.07	3731.40
990.23	3817.41
990.39	3803.08
990.55	3739.59
990.71	3780.55
990.87	3915.72
991.03	3784.65
991.19	3844.04
991.35	3764.17
991.51	3764.17
991.67	3772.36
991.83	3760.07
992.00	3731.40
992.16	3803.08
992.32	3600.33
992.48	3678.15
992.64	3571.66
992.80	3669.96
992.96	3622.86
993.12	3760.07
993.28	3739.59
993.44	3600.33
993.60	3727.30
993.76	3622.86
993.92	3690.44
994.08	3678.15
994.24	3651.53
994.40	3581.90
994.56	3616.71
994.72	3647.43
994.88	3559.37
995.04	3600.33
995.20	3579.85
995.36	3495.88
995.52	3641.29
995.68	3497.93
995.84	3530.70
996.00	3532.75
996.16	3598.28
996.32	3452.88
996.48	3487.69
996.64	3538.89
996.80	3491.79
996.96	3555.27
997.12	3475.40
997.28	3403.72
997.44	3342.28
997.60	3514.31
997.76	3532.75
997.92	3446.73
998.08	3487.69
998.24	3315.66
998.40	3405.77
998.56	3399.63
998.72	3340.24
998.88	3334.09
999.04	3348.43
999.20	3368.91
999.36	3317.71
999.52	3385.29
999.68	3346.38
999.84	3379.15
1000.00	3295.18
1000.16	3342.28
1000.32	3178.45
1000.48	3360.72
1000.64	3229.65
1000.80	3280.85
1000.95	3155.92
1001.11	3270.61
1001.27	3139.54
1001.43	3237.84
1001.59	3137.49
1001.75	3117.01
1001.91	3182.54
1002.07	3184.59
1002.23	3243.98
1002.39	3203.02
1002.55	3205.07
1002.71	3131.34
1002.87	3184.59
1003.03	3037.14
1003.19	3166.16
1003.34	3157.97
1003.50	3104.72
1003.66	3147.73
1003.82	3102.67
1003.98	3108.82
1004.14	3055.57
1004.30	2936.79
1004.46	2944.98
1004.62	3063.76
1004.78	3121.10
1004.94	3047.38
1005.09	3043.28
1005.25	2959.31
1005.41	2936.79
1005.57	2936.79
1005.73	2928.60
1005.89	2990.03
1006.05	2895.83
1006.21	2916.31
1006.37	2961.36
1006.52	3045.33
1006.68	2926.55
1006.84	2965.46
1007.00	2949.08
1007.16	3088.34
1007.32	2826.20
1007.48	2983.89
1007.64	2967.51
1007.79	2871.25
1007.95	2936.79
1008.11	2920.40
1008.27	2838.48
1008.43	2863.06
1008.59	2811.86
1008.75	2904.02
1008.91	2815.96
1009.06	2734.04
1009.22	2883.54
1009.38	2818.00
1009.54	2834.39
1009.70	2813.91
1009.86	2752.47
1010.01	2920.40
1010.17	2705.37
1010.33	2811.86
1010.49	2760.66
1010.65	2861.01
1010.81	2760.66
1010.96	2844.63
1011.12	2750.42
1011.28	2750.42
1011.44	2736.09
1011.60	2674.65
1011.76	2670.55
1011.91	2805.72
1012.07	2723.80
1012.23	2574.30
1012.39	2654.17
1012.55	2766.81
1012.71	2709.46
1012.86	2562.01
1013.02	2697.17
1013.18	2605.02
1013.34	2668.50
1013.50	2623.45
1013.65	2703.32
1013.81	2619.35
1013.97	2572.25
1014.13	2666.46
1014.29	2629.59
1014.44	2621.40
1014.60	2641.88
1014.76	2539.48
1014.92	2615.26
1015.07	2660.31
1015.23	2600.92
1015.39	2457.56
1015.55	2613.21
1015.71	2557.91
1015.86	2602.97
1016.02	2486.23
1016.18	2475.99
1016.34	2492.38
1016.49	2549.72
1016.65	2506.71
1016.81	2555.86
1016.97	2420.70
1017.12	2498.52
1017.28	2432.99
1017.44	2383.84
1017.60	2473.95
1017.75	2471.90
1017.91	2482.14
1018.07	2500.57
1018.23	2432.99
1018.38	2447.32
1018.54	2494.43
1018.70	2486.23
1018.86	2482.14
1019.01	2412.51
1019.17	2416.60
1019.33	2473.95
1019.49	2392.03
1019.64	2500.57
1019.80	2451.42
1019.96	2428.89
1020.12	2453.47
1020.27	2334.68
1020.43	2322.40
1020.59	2359.26
1020.74	2385.88
1020.90	2430.94
1021.06	2252.77
1021.22	2349.02
1021.37	2418.65
1021.53	2336.73
1021.69	2392.03
1021.84	2334.68
1022.00	2359.26
1022.16	2318.30
1022.31	2281.44
1022.47	2252.77
1022.63	2402.27
1022.79	2279.39
1022.94	2230.24
1023.10	2310.11
1023.26	2226.14
1023.41	2263.01
1023.57	2283.49
1023.73	2353.12
1023.88	2277.34
1024.04	2193.37
1024.20	2322.40
1024.35	2312.16
1024.51	2299.87
1024.67	2254.81
1024.82	2328.54
1024.98	2250.72
1025.14	2215.90
1025.29	2228.19
1025.45	2324.44
1025.61	2099.17
1025.76	2205.66
1025.92	2203.61
1026.08	2254.81
1026.23	2193.37
1026.39	2166.75
1026.55	2195.42
1026.70	2269.15
1026.86	2236.38
1027.02	2211.81
1027.17	2314.20
1027.33	2174.94
1027.48	2090.98
1027.64	2203.61
1027.80	2125.79
1027.95	2140.13
1028.11	2105.31
1028.27	2133.98
1028.42	2150.37
1028.58	2174.94
1028.73	2158.56
1028.89	2174.94
1029.05	2164.70
1029.20	2207.71
>>>>>End Processed Spectral Data<<<<<
