SpectraSuite Data File
++++++++++++++++++++++++++++++++++++
Date: Fri Jun 02 14:52:25 CEST 2017
User: INFO_000
Dark Spectrum Present: No
Reference Spectrum Present: No
Number of Sampled Component Spectra: 1
Spectrometers: USB4H00879
Integration Time (usec): 80000 (USB4H00879)
Spectra Averaged: 1 (USB4H00879)
Boxcar Smoothing: 0 (USB4H00879)
Correct for Electrical Dark: No (USB4H00879)
Strobe/Lamp Enabled: No (USB4H00879)
Correct for Detector Non-linearity: No (USB4H00879)
Correct for Stray Light: No (USB4H00879)
Number of Pixels in Processed Spectrum: 3648
>>>>>Begin Processed Spectral Data<<<<<
345.13	1271.79
345.34	1271.79
345.56	1271.79
345.78	1290.22
345.99	1230.83
346.21	1699.81
346.42	1699.81
346.64	1626.09
346.86	1787.88
347.07	1722.34
347.29	1683.43
347.50	1658.85
347.72	1763.30
347.94	1705.96
348.15	1605.61
348.37	1611.75
348.59	1712.10
348.80	1636.33
349.02	1798.12
349.23	1886.18
349.45	1798.12
349.67	1896.42
349.88	1806.31
350.10	1945.57
350.31	1828.84
350.53	1789.92
350.75	1992.67
350.96	1839.08
351.18	1880.04
351.39	1800.16
351.61	1820.64
351.82	1904.61
352.04	1941.47
352.26	1865.70
352.47	1794.02
352.69	1923.04
352.90	1671.14
353.12	1873.89
353.34	1920.99
353.55	1984.48
353.77	1875.94
353.98	1818.60
354.20	1843.17
354.41	1910.75
354.63	1888.23
354.85	2019.30
355.06	1976.29
355.28	1789.92
355.49	1929.19
355.71	1880.04
355.92	1843.17
356.14	1953.76
356.35	1947.62
356.57	1888.23
356.79	1961.95
357.00	1826.79
357.22	1953.76
357.43	1828.84
357.65	2017.25
357.86	1871.84
358.08	1927.14
358.29	1941.47
358.51	2037.73
358.72	1863.65
358.94	2025.44
359.16	1908.71
359.37	1982.43
359.59	1908.71
359.80	2029.54
360.02	1918.95
360.23	2015.20
360.45	2015.20
360.66	1896.42
360.88	1851.36
361.09	1970.15
361.31	1978.34
361.52	2015.20
361.74	2074.59
361.95	2064.35
362.17	1867.75
362.38	2078.69
362.60	2074.59
362.81	1988.58
363.03	1964.00
363.24	2013.15
363.46	2047.97
363.67	2105.31
363.89	2043.87
364.10	1947.62
364.32	1976.29
364.53	2027.49
364.75	1882.08
364.96	1982.43
365.18	2052.06
365.39	2017.25
365.61	2045.92
365.82	2115.55
366.04	2017.25
366.25	1982.43
366.47	2066.40
366.68	2009.06
366.90	2017.25
367.11	2095.07
367.33	2117.60
367.54	2052.06
367.76	2037.73
367.97	2154.46
368.19	2121.70
368.40	2056.16
368.62	1970.15
368.83	2002.91
369.05	2086.88
369.26	2025.44
369.48	2029.54
369.69	2004.96
369.91	2080.74
370.12	2072.54
370.33	2129.89
370.55	1988.58
370.76	2025.44
370.98	2072.54
371.19	2131.94
371.41	2129.89
371.62	2088.93
371.84	2109.41
372.05	2260.96
372.27	2056.16
372.48	2019.30
372.69	2207.71
372.91	2215.90
373.12	2152.42
373.34	2052.06
373.55	2162.66
373.77	2154.46
373.98	2162.66
374.20	2185.18
374.41	2277.34
374.62	2203.61
374.84	2211.81
375.05	2252.77
375.27	2269.15
375.48	2183.13
375.70	2142.18
375.91	2279.39
376.12	2234.33
376.34	2195.42
376.55	2215.90
376.77	2299.87
376.98	2136.03
377.19	2090.98
377.41	2183.13
377.62	2318.30
377.84	2277.34
378.05	2306.01
378.27	2279.39
378.48	2267.10
378.69	2383.84
378.91	2322.40
379.12	2187.23
379.34	2191.33
379.55	2355.16
379.76	2303.96
379.98	2289.63
380.19	2242.53
380.41	2363.36
380.62	2346.97
380.83	2291.68
381.05	2238.43
381.26	2381.79
381.47	2306.01
381.69	2299.87
381.90	2420.70
382.12	2318.30
382.33	2252.77
382.54	2355.16
382.76	2269.15
382.97	2346.97
383.19	2220.00
383.40	2379.74
383.61	2361.31
383.83	2299.87
384.04	2340.83
384.25	2357.21
384.47	2492.38
384.68	2412.51
384.89	2361.31
385.11	2338.78
385.32	2322.40
385.54	2373.60
385.75	2416.60
385.96	2447.32
386.18	2379.74
386.39	2447.32
386.60	2514.91
386.82	2394.08
387.03	2465.75
387.24	2428.89
387.46	2473.95
387.67	2443.23
387.88	2435.03
388.10	2553.82
388.31	2451.42
388.52	2492.38
388.74	2516.95
388.95	2500.57
389.16	2545.63
389.38	2521.05
389.59	2568.15
389.80	2635.74
390.02	2549.72
390.23	2639.83
390.44	2570.20
390.66	2502.62
390.87	2580.44
391.08	2576.34
391.30	2695.13
391.51	2633.69
391.72	2586.58
391.94	2734.04
392.15	2668.50
392.36	2658.26
392.58	2639.83
392.79	2770.90
393.00	2723.80
393.22	2736.09
393.43	2703.32
393.64	2858.96
393.85	2830.29
394.07	2779.09
394.28	2760.66
394.49	2791.38
394.71	2748.37
394.92	2949.08
395.13	2793.43
395.35	2846.68
395.56	2756.57
395.77	2785.24
395.98	2832.34
396.20	2885.59
396.41	2863.06
396.62	2895.83
396.84	2695.13
397.05	2846.68
397.26	2887.64
397.47	3000.27
397.69	2891.73
397.90	3020.75
398.11	2930.64
398.32	2949.08
398.54	2897.88
398.75	2914.26
398.96	2961.36
399.18	3100.62
399.39	2930.64
399.60	3078.10
399.81	2955.22
400.03	2926.55
400.24	3315.66
400.45	3147.73
400.66	3022.80
400.88	3074.00
401.09	3258.32
401.30	3071.95
401.51	3219.41
401.73	3198.93
401.94	3145.68
402.15	3239.89
402.36	3104.72
402.58	3135.44
402.79	3125.20
403.00	3196.88
403.21	3231.69
403.43	3223.50
403.64	3248.08
403.85	3180.50
404.06	3258.32
404.27	3106.77
404.49	3235.79
404.70	3246.03
404.91	3239.89
405.12	3332.05
405.34	3264.46
405.55	3463.12
405.76	3286.99
405.97	3180.50
406.19	3330.00
406.40	3190.74
406.61	3405.77
406.82	3373.00
407.03	3282.89
407.25	3364.81
407.46	3497.93
407.67	3502.03
407.88	3432.40
408.09	3387.34
408.31	3352.52
408.52	3444.68
408.73	3321.81
408.94	3463.12
409.15	3405.77
409.37	3542.99
409.58	3616.71
409.79	3545.03
410.00	3526.60
410.21	3399.63
410.43	3557.32
410.64	3542.99
410.85	3540.94
411.06	3626.95
411.27	3575.75
411.48	3706.82
411.70	3510.22
411.91	3667.91
412.12	3665.86
412.33	3667.91
412.54	3665.86
412.76	3657.67
412.97	3704.78
413.18	3657.67
413.39	3702.73
413.60	3657.67
413.81	3684.30
414.03	3762.12
414.24	3663.82
414.45	3866.56
414.66	3629.00
414.87	3876.80
415.08	3735.50
415.30	3755.97
415.51	3919.81
415.72	3743.69
415.93	3741.64
416.14	3831.75
416.35	3876.80
416.56	4032.45
416.78	3905.48
416.99	3889.09
417.20	3858.37
417.41	3968.96
417.62	3897.28
417.83	3968.96
418.04	3921.86
418.26	4061.12
418.47	3968.96
418.68	4036.55
418.89	4005.83
419.10	4206.53
419.31	4048.83
419.52	4040.64
419.73	4169.66
419.95	4173.76
420.16	4079.55
420.37	4048.83
420.58	4235.20
420.79	4052.93
421.00	4132.80
421.21	4286.40
421.42	4196.29
421.63	4270.01
421.85	4091.84
422.06	4358.08
422.27	4184.00
422.48	4259.78
422.69	4425.66
422.90	4374.46
423.11	4335.55
423.32	4386.75
423.53	4569.02
423.75	4487.10
423.96	4493.24
424.17	4331.45
424.38	4556.73
424.59	4560.83
424.80	4712.38
425.01	4534.20
425.22	4550.59
425.43	4564.92
425.64	4702.14
425.85	4814.77
426.06	4616.12
426.28	4661.18
426.49	4648.89
426.70	4722.62
426.91	4607.93
427.12	4829.11
427.33	4720.57
427.54	4698.04
427.75	4837.30
427.96	5005.24
428.17	4847.54
428.38	4870.07
428.59	4980.66
428.80	4976.56
429.01	5009.33
429.23	4906.93
429.44	5132.21
429.65	4933.56
429.86	5091.25
430.07	5064.63
430.28	5017.52
430.49	5089.20
430.70	5197.74
430.91	5224.37
431.12	5025.72
431.33	5203.89
431.54	5136.31
431.75	5341.10
431.96	5246.90
432.17	5240.75
432.38	5402.54
432.59	5564.33
432.80	5418.93
433.01	5375.92
433.22	5304.24
433.43	5515.18
433.64	5429.17
433.85	5275.57
434.06	5492.65
434.27	5519.28
434.49	5547.95
434.70	5799.85
434.91	5517.23
435.12	5531.56
435.33	5582.76
435.54	5547.95
435.75	5347.25
435.96	5691.31
436.17	5453.74
436.38	5744.55
436.59	5590.95
436.80	5756.84
437.01	5810.09
437.22	5885.86
437.43	5746.60
437.64	5658.54
437.85	5943.21
438.06	5930.92
438.27	5781.42
438.48	5842.85
438.69	5939.11
438.90	5846.95
439.11	5767.08
439.32	5967.78
439.53	5826.47
439.74	5971.88
439.95	5916.58
440.16	5994.40
440.37	6018.98
440.57	5941.16
440.78	6000.55
440.99	5978.02
441.20	6117.28
441.41	6033.32
441.62	5978.02
441.83	5935.01
442.04	6305.70
442.25	6143.91
442.46	6150.05
442.67	6234.02
442.88	6653.85
443.09	6004.64
443.30	6170.53
443.51	6393.76
443.72	6490.01
443.93	6152.10
444.14	6547.36
444.35	6246.30
444.56	6324.13
444.77	6416.29
444.98	6555.55
445.19	6424.48
445.40	6637.47
445.61	6596.51
445.81	6586.27
446.02	6647.71
446.23	6571.93
446.44	6334.37
446.65	6576.03
446.86	6438.81
447.07	6573.98
447.28	6733.72
447.49	6746.01
447.70	6686.62
447.91	6731.67
448.12	6774.68
448.33	6875.03
448.54	6713.24
448.74	6799.26
448.95	6815.64
449.16	6797.21
449.37	7069.59
449.58	6893.46
449.79	7157.65
450.00	6961.05
450.21	6883.22
450.42	7088.02
450.63	7100.31
450.84	6999.96
451.05	7135.12
451.25	7112.60
451.46	7040.92
451.67	7184.27
451.88	7307.15
452.09	7315.34
452.30	7258.00
452.51	7169.94
452.72	7346.06
452.93	7493.52
453.13	7276.43
453.34	7360.40
453.55	7444.37
453.76	7376.78
453.97	7823.24
454.18	7565.20
454.39	7708.55
454.60	7581.58
454.81	7673.74
455.01	7692.17
455.22	7446.41
455.43	7667.60
455.64	7921.54
455.85	7950.21
456.06	8120.20
456.27	7909.26
456.48	7819.14
456.68	8048.52
456.89	7993.22
457.10	8206.21
457.31	8185.73
457.52	8056.71
457.73	8220.55
457.94	8546.17
458.14	8114.05
458.35	8537.98
458.56	8241.03
458.77	8183.68
458.98	8566.65
459.19	8398.72
459.39	8437.63
459.60	8701.82
459.81	8490.88
460.02	8714.11
460.23	8714.11
460.44	8941.43
460.65	8796.03
460.85	8925.05
461.06	8980.34
461.27	8773.50
461.48	9004.92
461.69	9170.80
461.89	8783.74
462.10	9117.56
462.31	8923.00
462.52	8955.77
462.73	9107.32
462.94	9416.56
463.14	9478.00
463.35	9176.95
463.56	9650.03
463.77	9531.25
463.98	9394.03
464.18	9580.40
464.39	9645.93
464.60	9981.80
464.81	9867.11
465.02	9928.55
465.23	9989.99
465.43	9860.97
465.64	10270.56
465.85	9959.27
466.06	9998.18
466.27	10415.97
466.47	10299.23
466.68	10194.79
466.89	10358.63
467.10	10268.52
467.30	10387.30
467.51	10557.28
467.72	10764.12
467.93	10397.54
468.14	10745.69
468.34	10700.64
468.55	10792.80
468.76	10981.21
468.97	10690.40
469.17	11276.12
469.38	11194.20
469.59	11583.31
469.80	10973.02
470.01	10973.02
470.21	11226.96
470.42	11337.56
470.63	11644.75
470.84	11435.86
471.04	11634.51
471.25	11609.93
471.46	11523.92
471.67	11872.07
471.87	11792.20
472.08	12007.24
472.29	12248.90
472.50	11745.10
472.70	12148.55
472.91	12187.46
473.12	12293.96
473.33	12371.78
473.53	12439.36
473.74	12439.36
473.95	12640.06
474.16	12820.28
474.36	12648.26
474.57	13211.45
474.78	12943.16
474.99	12984.12
475.19	12693.31
475.40	13297.46
475.61	13481.78
475.81	13246.26
476.02	13629.23
476.23	13303.60
476.44	13578.03
476.64	13653.81
476.85	13954.86
477.06	14057.26
477.27	13911.85
477.47	14346.02
477.68	14153.51
477.89	14393.12
478.09	14491.43
478.30	14384.93
478.51	14366.50
478.71	14905.12
478.92	14860.06
479.13	14989.08
479.34	14960.41
479.54	14907.16
479.75	15005.47
479.96	15212.31
480.16	15208.22
480.37	15460.12
480.58	15529.75
480.78	15716.11
480.99	15640.34
481.20	15771.41
481.41	15863.57
481.61	16062.22
481.82	16090.89
482.03	16127.75
482.23	16019.21
482.44	16264.97
482.65	16453.38
482.85	16674.56
483.06	16682.75
483.27	16654.08
483.47	16703.23
483.68	16828.16
483.89	17301.24
484.09	16918.27
484.30	17121.02
484.51	17268.47
484.71	17252.09
484.92	17235.70
485.13	17499.89
485.33	17413.88
485.54	17305.34
485.75	17809.14
485.95	18120.43
486.16	17993.45
486.37	18196.20
486.57	18073.32
486.78	17970.93
486.98	18110.19
487.19	18417.38
487.40	18632.42
487.60	18386.66
487.81	18939.62
488.02	18616.04
488.22	18673.38
488.43	19029.73
488.64	18888.42
488.84	18855.65
489.05	19115.74
489.25	18884.32
489.46	19394.26
489.67	19287.77
489.87	19257.05
490.08	19785.43
490.29	19549.91
490.49	19834.58
490.70	19932.88
490.90	20152.01
491.11	19920.59
491.32	19810.00
491.52	20002.51
491.73	20143.82
491.94	20412.10
492.14	20096.72
492.35	20494.02
492.55	20348.62
492.76	20610.76
492.97	20821.70
493.17	20520.65
493.38	20723.40
493.58	20854.47
493.79	21081.79
494.00	21147.33
494.20	21284.54
494.41	21223.10
494.61	21585.59
494.82	21434.04
495.02	21415.61
495.23	21608.12
495.44	21683.89
495.64	21868.21
495.85	21552.82
496.05	21718.71
496.26	21829.30
496.47	22156.97
496.67	22095.53
496.88	22408.87
497.08	22095.53
497.29	22447.79
497.49	22714.02
497.70	22609.58
497.91	22636.20
498.11	22896.29
498.32	22730.41
498.52	23096.99
498.73	22877.86
498.93	22771.36
499.14	22965.92
499.34	23240.35
499.55	23277.21
499.76	23158.43
499.96	23156.38
500.17	23565.98
500.37	23600.79
500.58	23500.44
500.78	23516.83
500.99	23432.86
501.19	23948.95
501.40	24069.78
501.60	23774.87
501.81	23920.28
502.02	24082.06
502.22	24118.93
502.43	24348.30
502.63	24256.14
502.84	24305.29
503.04	24270.48
503.25	24407.69
503.45	24450.70
503.66	24546.95
503.86	24542.86
504.07	24800.90
504.27	24428.17
504.48	24966.79
504.68	24878.72
504.89	25271.93
505.09	24956.55
505.30	24913.54
505.50	24700.55
505.71	25267.84
505.91	25407.10
506.12	25144.96
506.32	25335.42
506.53	25425.53
506.73	25446.01
506.94	25611.90
507.14	25468.54
507.35	25534.07
507.55	25710.20
507.76	25798.26
507.96	25513.59
508.17	25820.79
508.37	25730.68
508.58	26283.63
508.78	26027.63
508.99	26394.22
509.19	26023.54
509.40	26261.10
509.60	26351.21
509.81	26304.11
510.01	26498.67
510.22	26441.32
510.42	26685.03
510.63	26828.39
510.83	26648.17
511.04	26531.44
511.24	26803.82
511.44	26938.98
511.65	26922.60
511.85	27068.00
512.06	26986.08
512.26	27029.09
512.47	27305.57
512.67	27274.85
512.88	27088.48
513.08	27000.42
513.29	27514.46
513.49	27434.59
513.69	27582.04
513.90	27463.26
514.10	27530.84
514.31	27848.28
514.51	27672.15
514.72	27958.87
514.92	28030.55
515.13	27651.67
515.33	27997.78
515.53	27752.02
515.74	28161.62
515.94	28640.84
516.15	28231.25
516.35	28255.82
516.56	28323.41
516.76	28132.95
516.96	28608.08
517.17	28638.80
517.37	28616.27
517.58	28855.88
517.78	28571.21
517.99	28835.40
518.19	29206.08
518.39	29320.77
518.60	29249.09
518.80	29152.84
519.01	29220.42
519.21	29179.46
519.41	29308.48
519.62	29476.41
519.82	29652.54
520.03	29705.79
520.23	29929.02
520.43	29464.13
520.64	29947.45
520.84	30074.42
521.05	29980.21
521.25	30232.11
521.45	29984.31
521.66	30101.04
521.86	30031.41
522.07	30144.05
522.27	30635.56
522.47	30481.97
522.68	30950.95
522.88	30621.23
523.08	31102.50
523.29	30699.05
523.49	30946.86
523.70	31047.21
523.90	31335.97
524.10	31118.89
524.31	31190.56
524.51	31188.52
524.71	31872.54
524.92	31393.31
525.12	31694.36
525.33	31622.69
525.53	31960.60
525.73	32081.43
525.94	32017.94
526.14	32243.22
526.34	32011.80
526.55	32226.84
526.75	32452.11
526.95	32556.56
527.16	32335.38
527.36	32601.61
527.56	32564.75
527.77	32888.33
527.97	32763.40
528.17	32749.07
528.38	33142.28
528.58	33353.22
528.78	33453.57
528.99	33271.30
529.19	33551.87
529.39	33168.90
529.60	33809.92
529.80	33881.60
530.00	33592.83
530.21	33736.19
530.41	34016.76
530.61	34354.68
530.82	34348.53
531.02	34403.83
531.22	34377.20
531.43	34465.27
531.63	34878.96
531.83	34559.47
532.04	35534.31
532.24	34784.75
532.44	35513.83
532.64	35149.29
532.85	35141.10
533.05	35395.04
533.25	35497.44
533.46	35397.09
533.66	35753.44
533.86	35343.84
534.07	35948.00
534.27	35427.81
534.47	36394.45
534.67	36404.69
534.88	36212.18
535.08	36277.72
535.28	36406.74
535.49	36650.45
535.69	37344.71
535.89	36539.86
536.09	36912.59
536.30	36937.16
536.50	36865.49
536.70	37187.02
536.91	37109.19
537.11	37137.87
537.31	37559.75
537.51	37455.30
537.72	37830.08
537.92	37883.33
538.12	38102.46
538.32	37621.19
538.53	38073.79
538.73	37877.18
538.93	37942.72
539.13	38202.81
539.34	37944.76
539.54	38120.89
539.74	38434.23
539.94	38170.04
540.15	38204.86
540.35	38612.40
540.55	38841.78
540.75	38387.13
540.96	38942.13
541.16	38706.61
541.36	39105.96
541.56	38622.64
541.77	39511.46
541.97	39050.67
542.17	39234.99
542.37	39531.94
542.58	39359.91
542.78	39482.79
542.98	39667.11
543.18	39478.69
543.38	39855.52
543.59	40482.20
543.79	39990.69
543.99	39894.43
544.19	40158.62
544.40	39544.23
544.60	40420.76
544.80	39789.98
545.00	39617.96
545.20	40508.82
545.41	40242.59
545.61	40525.21
545.81	40478.10
546.01	40631.70
546.21	40754.58
546.42	40326.55
546.62	40918.42
546.82	40824.21
547.02	40920.46
547.22	40949.14
547.43	41022.86
547.63	41301.39
547.83	41020.81
548.03	40770.96
548.23	41350.54
548.44	41121.16
548.64	41471.37
548.84	41246.09
549.04	41457.03
549.24	41256.33
549.45	41555.33
549.65	41436.55
549.85	41647.49
550.05	41868.67
550.25	41991.55
550.45	42440.06
550.66	41532.81
550.86	41794.95
551.06	42083.71
551.26	41719.17
551.46	42323.32
551.66	42040.70
551.87	41913.73
552.07	41889.15
552.27	42057.09
552.47	42159.48
552.67	42325.37
552.87	42298.75
553.07	42376.57
553.28	42470.78
553.48	42472.82
553.68	42308.99
553.88	42478.97
554.08	42190.20
554.28	42782.07
554.48	42311.03
554.69	42227.07
554.89	42954.10
555.09	42831.22
555.29	42438.01
555.49	42890.61
555.69	42894.71
555.89	43060.59
556.10	42902.90
556.30	42696.05
556.50	43081.07
556.70	43040.11
556.90	43459.94
557.10	43138.41
557.30	42755.44
557.50	43021.68
557.70	43480.42
557.91	43918.69
558.11	43036.02
558.31	43128.17
558.51	43054.45
558.71	43392.36
558.91	43533.67
559.11	43347.31
559.31	43138.41
559.51	43179.37
559.72	43259.24
559.92	43609.45
560.12	43236.72
560.32	43601.25
560.52	43461.99
560.72	43816.29
560.92	44016.99
561.12	43509.10
561.32	43738.47
561.52	43525.48
561.72	43550.06
561.93	43603.30
562.13	43832.68
562.33	43146.61
562.53	44125.53
562.73	43412.84
562.93	43912.55
563.13	43545.96
563.33	43840.87
563.53	44019.04
563.73	43785.57
563.93	44236.12
564.13	44402.01
564.33	44422.49
564.53	44262.75
564.74	44359.00
564.94	43652.45
565.14	44279.13
565.34	43861.35
565.54	44045.66
565.74	44078.43
565.94	44701.01
566.14	44356.96
566.34	43984.22
566.54	44690.77
566.74	44406.11
566.94	44449.11
567.14	44516.70
567.34	44060.00
567.54	44950.87
567.74	44447.07
567.94	44469.59
568.14	44840.28
568.34	44410.20
568.54	44827.99
568.74	44821.84
568.94	44741.97
569.14	44852.56
569.34	44518.74
569.54	44914.00
569.75	44299.61
569.95	45014.35
570.15	45327.69
570.35	44821.84
570.55	44821.84
570.75	45118.80
570.95	45208.91
571.15	45266.25
571.35	44977.49
571.55	45512.01
571.75	45235.53
571.95	45184.33
572.15	45327.69
572.35	45483.34
572.55	45170.00
572.75	45143.38
572.95	45489.48
573.15	45548.87
573.35	45339.98
573.55	45188.43
573.75	45489.48
573.95	45337.93
574.15	45483.34
574.35	45514.06
574.55	45651.27
574.75	45495.63
574.95	45579.59
575.15	45725.00
575.34	45792.58
575.54	45905.22
575.74	46277.95
575.94	46378.30
576.14	46103.87
576.34	46273.85
576.54	46259.52
576.74	46245.18
576.94	46116.16
577.14	46376.25
577.34	46732.60
577.54	46355.77
577.74	46556.47
577.94	46230.85
578.14	46363.96
578.34	46744.89
578.54	46241.09
578.74	46402.88
578.94	46802.23
579.14	46589.24
579.34	46839.09
579.54	47076.66
579.74	46959.92
579.94	46765.37
580.13	47394.09
580.33	46951.73
580.53	47011.12
580.73	47177.01
580.93	46980.40
581.13	47465.77
581.33	47254.83
581.53	47627.56
581.73	47693.10
581.93	47711.53
582.13	47680.81
582.33	47508.78
582.53	47375.66
582.73	48166.18
582.92	47600.94
583.12	47734.06
583.32	47858.98
583.52	47840.55
583.72	48143.65
583.92	47621.42
584.12	48215.33
584.32	48387.36
584.52	48022.82
584.72	48377.12
584.92	48133.41
585.11	48665.88
585.31	48063.78
585.51	48647.45
585.71	48297.25
585.91	48905.49
586.11	48454.94
586.31	48700.70
586.51	48643.35
586.71	48612.63
586.91	49208.59
587.10	48870.68
587.30	48819.48
587.50	49032.47
587.70	49413.39
587.90	49296.66
588.10	49241.36
588.30	49118.48
588.50	49499.40
588.69	49241.36
588.89	49026.32
589.09	49792.26
589.29	49423.63
589.49	49755.40
589.69	49335.57
589.89	49890.57
590.08	49718.54
590.28	49659.15
590.48	49462.54
590.68	49941.77
590.88	49657.10
591.08	49911.05
591.28	50078.98
591.47	50361.60
591.67	49947.91
591.87	50017.54
592.07	50369.79
592.27	50345.22
592.47	50500.86
592.67	50117.89
592.86	49822.98
593.06	50826.49
593.26	50656.51
593.46	50607.36
593.66	50722.04
593.86	50517.25
594.05	50722.04
594.25	51363.06
594.45	50818.30
594.65	50674.94
594.85	50230.53
595.05	50896.12
595.24	51066.10
595.44	50838.78
595.64	51049.72
595.84	51272.95
596.04	51213.55
596.23	51252.47
596.43	51731.69
596.63	51635.44
596.83	51356.91
597.03	51283.19
597.22	52102.37
597.42	51442.93
597.62	51942.63
597.82	51819.75
598.02	51651.82
598.21	52034.79
598.41	51352.82
598.61	51920.10
598.81	52026.60
599.01	52608.22
599.20	52190.44
599.40	52194.53
599.60	52737.24
599.80	52577.50
600.00	52575.45
600.19	52727.00
600.39	52409.57
600.59	52753.63
600.79	53077.21
600.98	53122.26
601.18	52858.07
601.38	53288.15
601.58	53236.95
601.78	53292.24
601.97	53040.34
602.17	53605.58
602.37	53425.36
602.57	53531.86
602.76	53652.69
602.96	53337.30
603.16	53128.41
603.36	53359.83
603.55	53605.58
603.75	53687.50
603.95	54107.33
604.15	54236.36
604.34	53810.38
604.54	53976.26
604.74	54369.47
604.94	54086.85
605.13	54176.97
605.33	54303.94
605.53	54351.04
605.73	54510.78
605.92	54308.04
606.12	54516.93
606.32	54893.75
606.52	54953.15
606.71	54791.36
606.91	54758.59
607.11	54392.00
607.30	54901.95
607.50	54719.68
607.70	55057.59
607.90	54717.63
608.09	54676.67
608.29	55121.08
608.49	55432.37
608.68	55364.79
608.88	55450.80
609.08	55196.85
609.28	55270.58
609.47	55409.84
609.67	55751.85
609.87	55407.79
610.06	55678.13
610.26	55776.43
610.46	55508.14
610.66	55334.07
610.85	55778.48
611.05	55616.69
611.25	55663.79
611.44	55841.96
611.64	55907.50
611.84	55571.63
612.03	55086.26
612.23	56278.18
612.43	55622.83
612.62	55798.96
612.82	56333.48
613.02	55743.66
613.21	55809.20
613.41	55659.69
613.61	56050.86
613.80	55864.49
614.00	56026.28
614.20	56007.85
614.39	56128.68
614.59	56374.44
614.79	56421.54
614.98	56054.95
615.18	56169.64
615.38	56091.82
615.57	56286.37
615.77	56200.36
615.97	56431.78
616.16	55938.22
616.36	56108.20
616.56	56687.78
616.75	56579.23
616.95	56390.82
617.15	56140.97
617.34	56276.13
617.54	56417.44
617.74	56685.73
617.93	56439.97
618.13	56253.61
618.32	56556.70
618.52	56202.41
618.72	56263.85
618.91	56751.26
619.11	56124.58
619.31	56796.32
619.50	56442.02
619.70	56325.28
619.90	56274.09
620.09	56589.47
620.29	56523.94
620.48	56413.35
620.68	56841.37
620.88	56245.41
621.07	56419.49
621.27	56667.30
621.46	56140.97
621.66	56648.86
621.86	56419.49
622.05	56612.00
622.25	56964.25
622.44	56134.82
622.64	56630.43
622.84	56540.32
623.03	56313.00
623.23	56642.72
623.42	56689.82
623.62	56730.78
623.82	56538.27
624.01	56368.29
624.21	56837.28
624.40	56583.33
624.60	56753.31
624.80	56321.19
624.99	56515.75
625.19	56161.45
625.38	56603.81
625.58	56679.58
625.77	56638.62
625.97	56460.45
626.17	56726.69
626.36	56505.51
626.56	56616.10
626.75	55604.40
626.95	56681.63
627.14	55985.32
627.34	56849.56
627.54	56962.20
627.73	56538.27
627.93	57140.38
628.12	56521.89
628.32	56409.25
628.51	56446.11
628.71	56382.63
628.90	56452.26
629.10	56394.92
629.30	56767.65
629.49	56415.40
629.69	56403.11
629.88	56687.78
630.08	56700.06
630.27	56614.05
630.47	56396.96
630.66	56095.91
630.86	56835.23
631.05	56407.20
631.25	57103.51
631.44	56247.46
631.64	56358.05
631.84	56523.94
632.03	57232.53
632.23	56515.75
632.42	56816.80
632.62	56734.88
632.81	56128.68
633.01	56894.62
633.20	56726.69
633.40	56681.63
633.59	56841.37
633.79	56669.34
633.98	56571.04
634.18	56841.37
634.37	56829.08
634.57	56544.42
634.76	56839.32
634.96	56831.13
635.15	56925.34
635.35	56452.26
635.54	56620.19
635.74	56890.52
635.93	56568.99
636.13	57035.93
636.32	56951.96
636.52	56442.02
636.71	56931.48
636.91	57095.32
637.10	56888.48
637.30	56847.52
637.49	57035.93
637.69	56374.44
637.88	56628.38
638.08	56650.91
638.27	56925.34
638.46	56663.20
638.66	56407.20
638.85	56652.96
639.05	56835.23
639.24	56712.35
639.44	56587.42
639.63	56949.92
639.83	56722.59
640.02	56595.62
640.22	57078.94
640.41	57128.09
640.61	56945.82
640.80	56599.71
640.99	56476.83
641.19	57382.04
641.38	56437.92
641.58	56726.69
641.77	56712.35
641.97	56521.89
642.16	57171.10
642.36	57138.33
642.55	57433.24
642.74	56878.24
642.94	57533.59
643.13	56818.84
643.33	57212.06
643.52	57201.82
643.72	57144.47
643.91	57126.04
644.10	57021.59
644.30	57570.45
644.49	56906.91
644.69	56882.33
644.88	57119.90
645.08	56888.48
645.27	57142.42
645.46	56788.13
645.66	57015.45
645.85	56933.53
646.05	56896.67
646.24	56859.80
646.43	56913.05
646.63	56990.87
646.82	57373.84
647.02	57091.22
647.21	57171.10
647.40	57123.99
647.60	57164.95
647.79	57154.71
647.99	56884.38
648.18	56667.30
648.37	57564.31
648.57	57037.98
648.76	57185.43
648.96	56870.04
649.15	56753.31
649.34	57222.29
649.54	56999.07
649.73	57562.26
649.92	57193.62
650.12	56962.20
650.31	57164.95
650.51	57496.72
650.70	57054.36
650.89	57418.90
651.09	58272.90
651.28	56874.14
651.47	57152.66
651.67	57425.04
651.86	57681.04
652.06	56890.52
652.25	57179.29
652.44	56665.25
652.64	56839.32
652.83	57029.79
653.02	57029.79
653.22	57250.97
653.41	57087.13
653.60	56990.87
653.80	57351.32
653.99	57291.93
654.18	56923.29
654.38	57228.44
654.57	57154.71
654.76	57005.21
654.96	56853.66
655.15	56788.13
655.34	56984.73
655.54	56865.95
655.73	57009.31
655.92	56919.20
656.12	57332.89
656.31	56951.96
656.50	57121.94
656.70	57345.17
656.89	57095.32
657.08	56962.20
657.28	57144.47
657.47	56886.43
657.66	57142.42
657.86	57037.98
658.05	57377.94
658.24	57087.13
658.43	56925.34
658.63	56847.52
658.82	57128.09
659.01	57373.84
659.21	57152.66
659.40	57545.87
659.59	56415.40
659.79	57164.95
659.98	57705.62
660.17	57150.62
660.36	57187.48
660.56	57078.94
660.75	57238.68
660.94	57017.50
661.14	56978.59
661.33	57379.99
661.52	56730.78
661.71	57226.39
661.91	56808.61
662.10	57224.34
662.29	57330.84
662.49	57146.52
662.68	57037.98
662.87	56960.15
663.06	57070.75
663.26	56831.13
663.45	56931.48
663.64	56913.05
663.83	57119.90
664.03	57046.17
664.22	56929.44
664.41	56964.25
664.60	56777.89
664.80	57160.86
664.99	56695.97
665.18	56616.10
665.37	56761.50
665.57	57052.31
665.76	57064.60
665.95	57232.53
666.14	56728.73
666.34	56884.38
666.53	56800.41
666.72	57347.22
666.91	56781.98
667.11	56437.92
667.30	57015.45
667.49	56542.37
667.68	56640.67
667.87	56390.82
668.07	56974.49
668.26	56816.80
668.45	57037.98
668.64	56341.67
668.84	57220.25
669.03	56800.41
669.22	56820.89
669.41	57142.42
669.60	56870.04
669.80	56462.50
669.99	56800.41
670.18	56571.04
670.37	56554.66
670.57	57199.77
670.76	56513.70
670.95	56677.54
671.14	56571.04
671.33	56448.16
671.53	57414.80
671.72	56603.81
671.91	56462.50
672.10	56351.91
672.29	56980.63
672.48	56636.58
672.68	56786.08
672.87	56779.93
673.06	56542.37
673.25	56306.85
673.44	56075.43
673.64	56341.67
673.83	56243.37
674.02	56366.24
674.21	55891.12
674.40	56710.30
674.59	56206.50
674.79	56034.47
674.98	55927.98
675.17	56781.98
675.36	56112.30
675.55	56634.53
675.74	56128.68
675.94	56415.40
676.13	56847.52
676.32	56528.03
676.51	56734.88
676.70	56358.05
676.89	56446.11
677.08	56620.19
677.28	56013.99
677.47	56411.30
677.66	56644.77
677.85	56220.84
678.04	56405.16
678.23	56286.37
678.42	56341.67
678.62	56460.45
678.81	56620.19
679.00	56032.42
679.19	56964.25
679.38	56530.08
679.57	56087.72
679.76	56308.90
679.96	56286.37
680.15	56136.87
680.34	56503.46
680.53	56155.30
680.72	56392.87
680.91	56122.54
681.10	56231.08
681.29	56190.12
681.48	56202.41
681.68	55907.50
681.87	55620.78
682.06	55649.45
682.25	55608.50
682.44	56173.73
682.63	55731.37
682.82	56061.10
683.01	55671.98
683.20	55493.81
683.39	56130.73
683.59	55751.85
683.78	55422.13
683.97	55690.41
684.16	55981.23
684.35	55356.60
684.54	55858.35
684.73	55608.50
684.92	55313.59
685.11	55481.52
685.30	55671.98
685.49	55735.47
685.69	55788.72
685.88	55792.81
686.07	55551.15
686.26	55571.63
686.45	55633.07
686.64	55465.14
686.83	55532.72
687.02	55465.14
687.21	56132.78
687.40	55659.69
687.59	55149.75
687.78	55452.85
687.97	56042.66
688.16	55753.90
688.35	55393.46
688.54	55182.52
688.74	55743.66
688.93	55215.29
689.12	55489.71
689.31	55446.71
689.50	55643.31
689.69	55100.60
689.88	54850.75
690.07	55174.33
690.26	55223.48
690.45	55643.31
690.64	55104.70
690.83	54973.63
691.02	54875.32
691.21	54987.96
691.40	55149.75
691.59	55631.02
691.78	55123.13
691.97	55782.57
692.16	55309.49
692.35	55166.13
692.54	55096.50
692.73	54924.47
692.92	55229.62
693.11	55094.46
693.30	55125.17
693.49	55071.93
693.68	54906.04
693.87	54822.08
694.06	54701.25
694.25	54785.21
694.44	54795.45
694.63	54740.16
694.82	55170.23
695.01	54797.50
695.20	54881.47
695.39	54791.36
695.58	54787.26
695.77	54797.50
695.96	54672.57
696.15	54920.38
696.34	54807.74
696.53	54756.54
696.72	54588.61
696.91	54895.80
697.10	54613.18
697.29	54564.03
697.48	54705.34
697.67	54265.03
697.86	54189.25
698.05	54193.35
698.24	54658.24
698.43	54084.81
698.62	54359.23
698.81	53974.22
699.00	54256.84
699.19	54023.37
699.38	54508.74
699.57	53908.68
699.76	54965.43
699.95	54066.38
700.14	54564.03
700.32	54154.44
700.51	54179.01
700.70	54727.87
700.89	54408.39
701.08	54598.85
701.27	53908.68
701.46	54764.73
701.65	53875.91
701.84	54242.50
702.03	54451.39
702.22	54088.90
702.41	54006.98
702.60	54299.84
702.79	53869.77
702.98	53736.65
703.17	53742.80
703.35	53589.20
703.54	53490.90
703.73	54015.18
703.92	53837.00
704.11	53880.01
704.30	53642.45
704.49	53613.77
704.68	53396.69
704.87	53646.54
705.06	53675.21
705.25	53503.18
705.43	53556.43
705.62	53679.31
705.81	53843.15
706.00	53695.69
706.19	53349.59
706.38	53499.09
706.57	53787.85
706.76	53404.88
706.95	53646.54
707.14	53361.87
707.32	53220.56
707.51	53124.31
707.70	53863.63
707.89	53087.45
708.08	53195.99
708.27	53294.29
708.46	53396.69
708.65	53140.69
708.84	53646.54
709.02	53462.22
709.21	53406.93
709.40	53169.36
709.59	53851.34
709.78	53247.19
709.97	53552.33
710.16	52909.27
710.34	53458.13
710.53	53304.53
710.72	52780.25
710.91	53185.75
711.10	53048.53
711.29	53232.85
711.48	53036.25
711.66	53073.11
711.85	52745.44
712.04	53347.54
712.23	52860.12
712.42	52892.89
712.61	52831.45
712.80	52630.75
712.98	53097.69
713.17	52917.46
713.36	52788.44
713.55	52985.05
713.74	52581.60
713.93	52573.41
714.11	53048.53
714.30	52393.18
714.49	52737.24
714.68	52714.72
714.87	52647.13
715.06	53040.34
715.24	52473.06
715.43	52557.02
715.62	52036.84
715.81	52577.50
716.00	52905.18
716.18	52391.14
716.37	52192.48
716.56	52368.61
716.75	52829.40
716.94	52419.81
717.12	52012.26
717.31	52524.25
717.50	51995.88
717.69	51924.20
717.88	52204.77
718.06	52204.77
718.25	52540.64
718.44	51758.31
718.63	52174.05
718.82	51588.33
719.00	52589.79
719.19	52032.74
719.38	51750.12
719.57	51475.69
719.76	51305.71
719.94	51485.93
720.13	51371.25
720.32	51543.28
720.51	51320.05
720.69	51496.17
720.88	51555.57
721.07	51336.43
721.26	51430.64
721.44	50799.86
721.63	51090.68
721.82	50713.85
722.01	50902.26
722.20	51019.00
722.38	51086.58
722.57	50697.47
722.76	50799.86
722.95	50742.52
723.13	50277.63
723.32	50791.67
723.51	50476.29
723.70	50351.36
723.88	50619.64
724.07	50390.27
724.26	50765.05
724.44	49968.39
724.63	51191.03
724.82	50459.90
725.01	50531.58
725.19	50427.13
725.38	50531.58
725.57	49984.77
725.76	50793.72
725.94	50523.39
726.13	50078.98
726.32	50214.15
726.51	49730.83
726.69	50349.31
726.88	50248.96
727.07	49894.66
727.25	50046.21
727.44	50128.13
727.63	49468.69
727.82	50009.35
728.00	50052.36
728.19	50001.16
728.38	50179.33
728.56	49298.70
728.75	50230.53
728.94	49728.78
729.12	50078.98
729.31	49976.58
729.50	49986.82
729.69	49947.91
729.87	49956.10
730.06	49708.30
730.25	49837.32
730.43	50408.70
730.62	49968.39
730.81	50148.61
730.99	49925.38
731.18	49970.44
731.37	49841.42
731.55	49853.70
731.74	50035.97
731.93	50267.39
732.11	50091.27
732.30	49464.59
732.49	49829.13
732.67	50191.62
732.86	49757.45
733.05	49814.79
733.23	49370.38
733.42	49976.58
733.61	49784.07
733.79	49962.25
733.98	50132.23
734.17	49816.84
734.35	49865.99
734.54	50099.46
734.73	50140.42
734.91	49876.23
735.10	49755.40
735.29	50136.32
735.47	49603.85
735.66	50306.30
735.84	49847.56
736.03	49671.43
736.22	50128.13
736.40	49403.15
736.59	49898.76
736.78	50001.16
736.96	49632.52
737.15	49722.63
737.33	49302.80
737.52	49286.42
737.71	49282.32
737.89	49622.28
738.08	49343.76
738.27	49194.26
738.45	49571.08
738.64	49282.32
738.82	49419.53
739.01	49366.29
739.20	49347.86
739.38	49364.24
739.57	49702.15
739.75	49397.01
739.94	49497.36
740.13	48952.60
740.31	49292.56
740.50	49124.63
740.68	48741.66
740.87	49333.52
741.06	49018.13
741.24	48946.45
741.43	48758.04
741.61	49059.09
741.80	48563.48
741.99	48903.45
742.17	48653.59
742.36	48891.16
742.54	48563.48
742.73	48659.74
742.91	48739.61
743.10	48868.63
743.29	48557.34
743.47	48796.95
743.66	48588.06
743.84	48563.48
744.03	48629.02
744.21	48432.41
744.40	48770.33
744.59	48227.62
744.77	48420.13
744.96	48448.80
745.14	48385.31
745.33	48395.55
745.51	47932.71
745.70	48370.97
745.88	48043.30
746.07	48555.29
746.26	48014.63
746.44	48121.12
746.63	48305.44
746.81	48276.77
747.00	48108.83
747.18	48139.55
747.37	48080.16
747.55	48141.60
747.74	48065.83
747.92	47650.09
748.11	47981.86
748.29	47770.92
748.48	48137.51
748.66	48098.59
748.85	47607.08
749.03	47715.62
749.22	47580.46
749.41	48121.12
749.59	48039.20
749.78	47559.98
749.96	47193.39
750.15	47686.95
750.33	47519.02
750.52	47625.51
750.70	47283.50
750.89	47072.56
751.07	47252.78
751.26	47439.15
751.44	47287.60
751.63	47328.56
751.81	47267.12
752.00	47117.62
752.18	47078.71
752.37	47131.95
752.55	46812.47
752.74	46753.08
752.92	46744.89
753.10	46495.03
753.29	47197.49
753.47	46933.30
753.66	46482.75
753.84	46939.44
754.03	46691.64
754.21	46912.82
754.40	46798.13
754.58	46671.16
754.77	46253.37
754.95	46179.65
755.14	46382.40
755.32	46449.98
755.51	46384.44
755.69	46216.51
755.88	46396.73
756.06	46132.54
756.24	45874.50
756.43	46187.84
756.61	46298.43
756.80	46140.74
756.98	45624.65
757.17	45974.85
757.35	45970.75
757.54	45632.84
757.72	46136.64
757.90	45757.77
758.09	45681.99
758.27	45802.82
758.46	45395.28
758.64	45577.54
758.83	46171.46
759.01	45966.66
759.19	45688.13
759.38	45681.99
759.56	46054.72
759.75	45616.46
759.93	45595.98
760.12	45423.95
760.30	45612.36
760.48	45419.85
760.67	45595.98
760.85	45286.73
761.04	45493.58
761.22	45094.22
761.40	45262.16
761.59	45425.99
761.77	45088.08
761.96	44903.76
762.14	44813.65
762.32	44967.25
762.51	44576.09
762.69	44752.21
762.88	44825.94
763.06	44746.07
763.24	45036.88
763.43	45075.79
763.61	44447.07
763.80	44283.23
763.98	44031.33
764.16	44365.15
764.35	44176.73
764.53	44234.08
764.72	44348.76
764.90	44639.57
765.08	44496.22
765.27	44516.70
765.45	44115.29
765.63	43533.67
765.82	44334.43
766.00	44137.82
766.18	43994.46
766.37	44080.48
766.55	43990.37
766.74	44039.52
766.92	44080.48
767.10	43705.70
767.29	43392.36
767.47	43492.71
767.65	43828.58
767.84	43115.89
768.02	43312.49
768.20	43103.60
768.39	43056.50
768.57	43447.66
768.75	43457.90
768.94	43273.58
769.12	43287.92
769.30	42718.58
769.49	43099.50
769.67	42913.14
769.85	42829.17
770.04	42685.81
770.22	42421.62
770.40	42542.45
770.59	42726.77
770.77	42753.40
770.95	42761.59
771.14	42517.88
771.32	42169.72
771.50	42372.47
771.69	42239.36
771.87	42427.77
772.05	42253.69
772.24	41903.49
772.42	41979.26
772.60	42014.08
772.78	41778.56
772.97	41565.57
773.15	42024.32
773.33	41571.72
773.52	41870.72
773.70	41690.50
773.88	41891.20
774.07	41649.54
774.25	41491.85
774.43	41692.55
774.61	41354.63
774.80	41840.00
774.98	42102.14
775.16	41819.52
775.34	42034.56
775.53	41289.10
775.71	41964.93
775.89	41901.44
776.08	41897.34
776.26	42304.89
776.44	41870.72
776.62	41612.68
776.81	41770.37
776.99	41971.07
777.17	41801.09
777.35	41760.13
777.54	42249.60
777.72	41807.23
777.90	42071.42
778.08	41919.87
778.27	41895.30
778.45	41962.88
778.63	42591.61
778.81	41655.68
779.00	42390.91
779.18	42354.04
779.36	42694.00
779.54	42067.33
779.73	41983.36
779.91	42032.51
780.09	42247.55
780.27	42313.08
780.46	42087.81
780.64	42425.72
780.82	42216.83
781.00	42562.93
781.19	42521.98
781.37	42446.20
781.55	42339.71
781.73	42708.34
781.91	42358.14
782.10	42636.66
782.28	42341.75
782.46	42487.16
782.64	42505.59
782.82	42280.31
783.01	42665.33
783.19	42687.86
783.37	42407.29
783.55	42182.01
783.74	42706.29
783.92	42014.08
784.10	42911.09
784.28	42392.95
784.46	42550.65
784.64	42026.37
784.83	42632.57
785.01	42689.91
785.19	42241.40
785.37	42640.76
785.55	42366.33
785.74	42077.57
785.92	41899.39
786.10	42413.43
786.28	42245.50
786.46	41923.97
786.64	41911.68
786.83	41809.28
787.01	42276.22
787.19	42130.81
787.37	42153.34
787.55	41919.87
787.74	41704.84
787.92	42227.07
788.10	41784.71
788.28	41696.64
788.46	42247.55
788.64	41317.77
788.82	41885.06
789.01	41573.77
789.19	41651.59
789.37	41633.16
789.55	41555.33
789.73	41047.44
789.91	40961.42
790.09	41264.52
790.28	40977.81
790.46	40906.13
790.64	40998.29
790.82	41006.48
791.00	41196.94
791.18	40422.81
791.36	41115.02
791.55	41012.62
791.73	40893.84
791.91	40459.67
792.09	40224.15
792.27	40158.62
792.45	40424.86
792.63	39673.25
792.81	40289.69
793.00	39722.40
793.18	39953.82
793.36	39990.69
793.54	39611.81
793.72	39550.37
793.90	39531.94
794.08	39630.24
794.26	39482.79
794.44	38935.98
794.62	39323.05
794.81	38829.49
794.99	39243.18
795.17	38999.47
795.35	39042.48
795.53	39277.99
795.71	38974.89
795.89	38682.03
796.07	38350.26
796.25	38079.93
796.43	38327.74
796.61	37985.72
796.80	38106.55
796.98	38368.69
797.16	37729.73
797.34	37879.23
797.52	37936.57
797.70	38184.38
797.88	37739.97
798.06	37645.76
798.24	37803.46
798.42	37336.52
798.60	37184.97
798.78	37144.01
798.96	37240.26
799.14	37119.43
799.32	37322.18
799.51	36896.20
799.69	37338.57
799.87	36914.64
800.05	36662.74
800.23	36791.76
800.41	36439.51
800.59	36584.91
800.77	36556.24
800.95	35935.71
801.13	36089.31
801.31	36165.08
801.49	36349.40
801.67	35909.08
801.85	35763.68
802.03	35632.61
802.21	35626.46
802.39	35618.27
802.57	35747.29
802.75	35632.61
802.93	35575.27
803.11	35622.37
803.29	34878.96
803.47	34735.60
803.65	34799.08
803.83	35077.61
804.01	35093.99
804.19	34794.99
804.37	34907.63
804.55	34739.69
804.73	34579.95
804.91	34592.24
805.09	35026.41
805.27	34567.66
805.45	34715.12
805.63	34432.50
805.81	34534.90
805.99	34283.00
806.17	34248.18
806.35	34127.35
806.53	34084.34
806.71	34045.43
806.89	33566.21
807.07	33924.60
807.25	33533.44
807.43	33431.04
807.61	33766.91
807.79	33259.01
807.97	33529.34
808.15	32982.54
808.33	33289.73
808.51	33351.17
808.69	32777.74
808.87	33091.08
809.05	32511.50
809.23	32912.91
809.41	32613.90
809.59	32640.53
809.77	32615.95
809.95	32478.74
810.13	32671.25
810.31	32718.35
810.49	32620.05
810.67	32675.34
810.84	32493.07
811.02	32380.43
811.20	32280.08
811.38	32101.91
811.56	31700.51
811.74	32134.68
811.92	32163.35
812.10	32060.95
812.28	31921.69
812.46	31673.88
812.64	31974.94
812.82	31663.64
813.00	31659.55
813.18	31620.64
813.36	31510.05
813.53	31118.89
813.71	31356.45
813.89	31135.27
814.07	31501.86
814.25	31258.15
814.43	30983.72
814.61	31190.56
814.79	31102.50
814.97	30729.77
815.15	30768.68
815.33	30705.20
815.50	30570.03
815.68	30740.01
815.86	30858.79
816.04	30635.56
816.22	30469.68
816.40	30596.65
816.58	30551.60
816.76	30205.49
816.94	29959.73
817.11	30443.06
817.29	30334.51
817.47	30240.31
817.65	30025.27
817.83	30072.37
818.01	29939.26
818.19	29593.15
818.37	30307.89
818.54	29623.87
818.72	29445.69
818.90	29634.11
819.08	29421.12
819.26	29693.50
819.44	29152.84
819.62	29548.09
819.80	29431.36
819.97	29527.61
820.15	29269.57
820.33	29367.87
820.51	29197.89
820.69	29212.23
820.87	28984.90
821.05	29414.98
821.22	28845.64
821.40	28976.71
821.58	28546.64
821.76	28679.75
821.94	28847.69
822.12	28730.95
822.29	29265.47
822.47	28831.30
822.65	28974.66
822.83	28870.22
823.01	28864.07
823.19	28507.72
823.36	28456.53
823.54	28452.43
823.72	28534.35
823.90	28307.02
824.08	28128.85
824.25	28266.06
824.43	28233.30
824.61	28212.82
824.79	28194.39
824.97	28296.78
825.15	28200.53
825.32	27778.65
825.50	27860.57
825.68	27917.91
825.86	28233.30
826.04	27922.01
826.21	27991.64
826.39	28227.15
826.57	27674.20
826.75	27749.98
826.93	27420.25
827.10	27747.93
827.28	27512.41
827.46	27786.84
827.64	27649.63
827.81	27434.59
827.99	27174.50
828.17	27465.31
828.35	27141.73
828.53	27043.43
828.70	27213.41
828.88	27135.59
829.06	27457.12
829.24	27149.92
829.41	27250.27
829.59	27018.85
829.77	26969.70
829.95	26957.41
830.12	26859.11
830.30	26873.45
830.48	27104.87
830.66	26859.11
830.84	26971.75
831.01	26541.68
831.19	26857.06
831.37	26709.61
831.55	26582.63
831.72	26590.83
831.90	26605.16
832.08	26609.26
832.25	26652.27
832.43	26259.06
832.61	26429.04
832.79	26240.62
832.96	26594.92
833.14	26564.20
833.32	26408.56
833.50	26527.34
833.67	26285.68
833.85	26156.66
834.03	25921.14
834.20	26304.11
834.38	26168.94
834.56	26273.39
834.74	26013.30
834.91	26082.93
835.09	26130.03
835.27	25876.09
835.44	26123.89
835.62	25835.13
835.80	25622.14
835.98	26113.65
836.15	25890.42
836.33	25587.32
836.51	25876.09
836.68	25820.79
836.86	25699.96
837.04	25749.11
837.21	25405.05
837.39	25454.20
837.57	25591.42
837.75	26017.40
837.92	25181.82
838.10	25568.89
838.28	25114.24
838.45	25237.12
838.63	25015.94
838.81	25446.01
838.98	25159.30
839.16	25036.42
839.34	24876.68
839.51	25034.37
839.69	24878.72
839.87	25032.32
840.04	25228.93
840.22	25171.58
840.40	25024.13
840.57	24835.72
840.75	24923.78
840.93	24141.46
841.10	24954.50
841.28	25060.99
841.46	24753.80
841.63	24940.16
841.81	24665.74
841.98	24780.42
842.16	24678.02
842.34	24727.17
842.51	24274.57
842.69	24495.75
842.87	24538.76
843.04	24774.28
843.22	24372.88
843.40	24213.13
843.57	24241.81
843.75	24381.07
843.92	24581.77
844.10	24329.87
844.28	24385.16
844.45	24276.62
844.63	24215.18
844.81	24204.94
844.98	24344.20
845.16	24219.28
845.33	24174.22
845.51	23981.71
845.69	23862.93
845.86	23881.36
846.04	23920.28
846.21	23916.18
846.39	24080.02
846.57	23680.66
846.74	23795.35
846.92	23836.31
847.09	23623.32
847.27	23672.47
847.45	23774.87
847.62	23688.85
847.80	23522.97
847.97	23469.72
848.15	23639.70
848.32	23666.33
848.50	23584.41
848.68	23479.96
848.85	23441.05
849.03	23015.07
849.20	23580.31
849.38	23387.80
849.56	23441.05
849.73	23150.24
849.91	23520.92
850.08	23439.00
850.26	23076.51
850.43	23213.73
850.61	23127.71
850.78	23084.70
850.96	23041.70
851.14	22963.87
851.31	23230.11
851.49	22933.15
851.66	23047.84
851.84	23221.92
852.01	22726.31
852.19	23051.94
852.36	22705.83
852.54	22867.62
852.71	23342.75
852.89	22845.09
853.07	22810.28
853.24	23017.12
853.42	23080.61
853.59	22812.32
853.77	22929.06
853.94	22738.60
854.12	22863.52
854.29	22341.29
854.47	22791.84
854.64	22607.53
854.82	22595.24
854.99	22521.51
855.17	22881.95
855.34	22605.48
855.52	22666.92
855.69	22480.55
855.87	22556.33
856.04	22263.47
856.22	22204.08
856.39	22173.36
856.57	22224.56
856.74	22193.84
856.92	22329.00
857.09	21786.29
857.27	22081.20
857.44	22171.31
857.62	22210.22
857.79	22240.94
857.97	22101.68
858.14	22159.02
858.32	22085.30
858.49	22150.83
858.67	22097.58
858.84	21958.32
859.02	21907.12
859.19	21821.11
859.37	21833.39
859.54	21661.37
859.72	21687.99
859.89	21993.14
860.06	22011.57
860.24	21806.77
860.41	21833.39
860.59	21640.89
860.76	21849.78
860.94	21345.98
861.11	21630.65
861.29	21391.03
861.46	21669.56
861.64	21384.89
861.81	21503.67
861.98	21716.66
862.16	21366.46
862.33	21366.46
862.51	21292.73
862.68	21485.24
862.86	21198.52
863.03	21229.24
863.21	21104.32
863.38	21190.33
863.55	21038.78
863.73	21182.14
863.90	21108.41
864.08	21051.07
864.25	20817.60
864.43	20973.25
864.60	20917.95
864.77	20960.96
864.95	21018.30
865.12	20801.22
865.30	20778.69
865.47	20854.47
865.64	20805.31
865.82	20915.90
865.99	20993.73
866.17	20694.72
866.34	20678.34
866.51	20532.93
866.69	20913.86
866.86	20405.96
867.04	20651.72
867.21	20682.44
867.38	20483.78
867.56	20426.44
867.73	20555.46
867.91	20379.34
868.08	20346.57
868.25	20387.53
868.43	20289.23
868.60	20139.72
868.78	20371.15
868.95	20414.15
869.12	20264.65
869.30	20092.62
869.47	20551.37
869.64	19875.54
869.82	20227.79
869.99	20139.72
870.16	19977.94
870.34	20066.00
870.51	20221.64
870.69	20235.98
870.86	20174.54
871.03	20240.08
871.21	20037.33
871.38	19949.26
871.55	19822.29
871.73	19881.68
871.90	19467.99
872.07	19769.04
872.25	19478.23
872.42	19572.44
872.59	19523.29
872.77	19656.40
872.94	19672.79
873.11	19642.07
873.29	19480.28
873.46	19388.12
873.63	19615.44
873.81	19365.59
873.98	19398.36
874.15	19275.48
874.33	19021.53
874.50	19220.19
874.67	19207.90
874.85	19076.83
875.02	19074.78
875.19	18919.14
875.37	19082.97
875.54	18710.24
875.71	18994.91
875.88	18814.69
876.06	18765.54
876.23	18863.84
876.40	18763.49
876.58	18540.26
876.75	18763.49
876.92	18515.69
877.10	18495.21
877.27	18441.96
877.44	18657.00
877.61	18591.46
877.79	18536.17
877.96	18345.70
878.13	18220.78
878.31	18464.49
878.48	18249.45
878.65	18439.91
878.82	17909.49
879.00	18206.44
879.17	18102.00
879.34	18151.15
879.51	18222.83
879.69	18007.79
879.86	17956.59
880.03	17936.11
880.21	17698.55
880.38	17975.02
880.55	18138.86
880.72	18001.65
880.90	17868.53
881.07	17952.49
881.24	18018.03
881.41	17995.50
881.59	17929.97
881.76	17780.46
881.93	17608.44
882.10	17780.46
882.28	17813.23
882.45	17719.03
882.62	17731.31
882.79	17676.02
882.96	17452.79
883.14	17647.35
883.31	17663.73
883.48	17616.63
883.65	17860.34
883.83	17686.26
884.00	17260.28
884.17	17651.44
884.34	17352.44
884.51	17559.28
884.69	17469.17
884.86	17385.21
885.03	17489.65
885.20	17116.92
885.38	17223.42
885.55	17090.30
885.72	17010.43
885.89	16924.41
886.06	17118.97
886.24	17020.67
886.41	17016.57
886.58	17334.01
886.75	17176.31
886.92	16805.63
887.10	17166.07
887.27	17008.38
887.44	17030.91
887.61	17389.30
887.78	17166.07
887.95	17108.73
888.13	17217.27
888.30	17026.81
888.47	16768.77
888.64	16856.83
888.81	16918.27
888.99	16670.47
889.16	16695.04
889.33	16537.35
889.50	16625.41
889.67	16750.34
889.84	16557.83
890.01	16477.96
890.19	16549.64
890.36	16445.19
890.53	16625.41
890.70	16428.81
890.87	16510.72
891.04	16371.46
891.22	16420.61
891.39	16432.90
891.56	16129.80
891.73	16371.46
891.90	16326.41
892.07	16162.57
892.24	16465.67
892.42	16047.88
892.59	16213.77
892.76	16084.75
892.93	16271.11
893.10	16166.67
893.27	16150.28
893.44	16084.75
893.61	15882.00
893.79	16029.45
893.96	15896.33
894.13	16121.61
894.30	16299.78
894.47	16094.99
894.64	15922.96
894.81	15945.48
894.98	15949.58
895.15	16043.79
895.33	16072.46
895.50	15931.15
895.67	15976.20
895.84	15863.57
896.01	15959.82
896.18	16174.86
896.35	16178.95
896.52	16017.16
896.69	15980.30
896.86	15785.74
897.04	16199.43
897.21	16008.97
897.38	16043.79
897.55	15765.26
897.72	15957.77
897.89	15890.19
898.06	15752.98
898.23	15722.26
898.40	15732.50
898.57	15804.17
898.74	15877.90
898.91	15525.65
899.08	15724.30
899.26	15841.04
899.43	15781.65
899.60	15779.60
899.77	15726.35
899.94	15714.06
900.11	15871.76
900.28	15748.88
900.45	15613.71
900.62	15669.01
900.79	15968.01
900.96	15775.50
901.13	15746.83
901.30	15712.02
901.47	15496.98
901.64	15886.09
901.81	15886.09
901.98	15685.39
902.15	15920.91
902.32	15621.91
902.49	15705.87
902.66	15859.47
902.83	15818.51
903.01	15707.92
903.18	15945.48
903.35	15703.82
903.52	15927.05
903.69	15804.17
903.86	15822.61
904.03	15669.01
904.20	15634.19
904.37	15865.61
904.54	15884.05
904.71	15789.84
904.88	15603.47
905.05	15761.17
905.22	15894.29
905.39	15417.11
905.56	15466.26
905.73	15488.79
905.90	15824.65
906.07	15814.41
906.24	15832.85
906.41	15869.71
906.58	15826.70
906.75	15865.61
906.92	15703.82
907.09	15632.15
907.26	16076.55
907.43	15683.34
907.60	15597.33
907.77	15826.70
907.93	15814.41
908.10	15777.55
908.27	15900.43
908.44	15349.53
908.61	15429.40
908.78	15673.10
908.95	15662.86
909.12	15626.00
909.29	15460.12
909.46	15478.55
909.63	15691.54
909.80	15587.09
909.97	15681.30
910.14	15701.78
910.31	15644.43
910.48	15519.51
910.65	15539.99
910.82	15343.38
910.99	15638.29
911.16	15666.96
911.33	15425.30
911.50	15376.15
911.66	15466.26
911.83	15396.63
912.00	15355.67
912.17	15216.41
912.34	15294.23
912.51	15152.92
912.68	15101.72
912.85	15056.67
913.02	15157.02
913.19	15251.22
913.36	15238.94
913.53	14923.55
913.70	15226.65
913.86	15146.78
914.03	15081.24
914.20	14898.97
914.37	15175.45
914.54	14884.64
914.71	15021.85
914.88	14866.21
915.05	14810.91
915.22	14880.54
915.39	14905.12
915.55	14733.09
915.72	14933.79
915.89	14612.26
916.06	14714.66
916.23	14681.89
916.40	14507.81
916.57	14714.66
916.74	14610.21
916.91	14427.94
917.07	14210.86
917.24	14382.88
917.41	14518.05
917.58	14317.35
917.75	14264.10
917.92	14161.70
918.09	14114.60
918.26	14122.79
918.42	14292.77
918.59	14182.18
918.76	14225.19
918.93	13741.87
919.10	13887.28
919.27	13909.80
919.44	13897.52
919.60	14114.60
919.77	13791.02
919.94	13575.98
920.11	13702.96
920.28	13877.04
920.45	13868.84
920.61	13641.52
920.78	13678.38
920.95	13506.35
921.12	13575.98
921.29	13614.90
921.46	13342.52
921.62	13479.73
921.79	13496.11
921.96	13195.06
922.13	13080.38
922.30	13338.42
922.47	13154.10
922.63	13033.27
922.80	13029.18
922.97	13109.05
923.14	12836.67
923.31	13182.77
923.47	12750.65
923.64	13285.17
923.81	12613.44
923.98	12857.15
924.15	12609.34
924.32	12767.04
924.48	12599.10
924.65	12578.62
924.82	12494.66
924.99	12478.27
925.15	12410.69
925.32	12386.12
925.49	12226.37
925.66	12199.75
925.83	12136.26
925.99	11798.35
926.16	12058.44
926.33	12132.17
926.50	12070.73
926.67	11761.48
926.83	11966.28
927.00	11810.64
927.17	11652.94
927.34	11771.72
927.50	11611.98
927.67	11693.90
927.84	11816.78
928.01	11595.60
928.17	11501.39
928.34	11558.74
928.51	11411.28
928.68	11444.05
928.84	11374.42
929.01	11042.65
929.18	11298.64
929.35	11143.00
929.51	11011.93
929.68	11112.28
929.85	11122.52
930.02	10966.87
930.18	10915.67
930.35	11091.80
930.52	10948.44
930.69	10913.63
930.85	10780.51
931.02	10923.87
931.19	10731.36
931.36	10850.14
931.52	10788.70
931.69	10608.48
931.86	10631.01
932.02	10708.83
932.19	10510.18
932.36	10411.87
932.53	10733.40
932.69	10276.71
932.86	10327.91
933.03	10229.60
933.19	10037.09
933.36	10110.82
933.53	10227.56
933.70	10037.09
933.86	9912.17
934.03	9949.03
934.20	9926.50
934.36	9918.31
934.53	9523.05
934.70	9555.82
934.86	9654.12
935.03	9551.73
935.20	9346.93
935.36	9256.82
935.53	9166.71
935.70	9160.56
935.86	9308.02
936.03	9064.31
936.20	8939.38
936.36	8789.88
936.53	8806.27
936.70	8703.87
936.86	8935.29
937.03	8718.20
937.20	8654.72
937.36	8742.78
937.53	8238.98
937.70	8093.57
937.86	8155.01
938.03	8198.02
938.20	8138.63
938.36	7833.48
938.53	7892.87
938.70	7839.62
938.86	7729.03
939.03	7540.62
939.20	7489.42
939.36	7565.20
939.53	7501.71
939.70	7624.59
939.86	7319.44
940.03	7227.28
940.19	7010.20
940.36	7104.40
940.53	6989.72
940.69	6834.07
940.86	6791.06
941.03	6797.21
941.19	6516.64
941.36	6666.14
941.52	6528.92
941.69	6469.53
941.86	6449.05
942.02	6197.15
942.19	6356.90
942.35	6424.48
942.52	6221.73
942.69	6219.68
942.85	5975.97
943.02	6166.43
943.18	6043.56
943.35	6188.96
943.52	5894.05
943.68	5953.45
943.85	5799.85
944.01	5668.78
944.18	5693.35
944.35	5984.16
944.51	5836.71
944.68	5496.75
944.84	5666.73
945.01	5687.21
945.17	5613.48
945.34	5633.96
945.51	5676.97
945.67	5734.31
945.84	5564.33
946.00	5476.27
946.17	5554.09
946.33	5375.92
946.50	5560.24
946.67	5420.97
946.83	5476.27
947.00	5554.09
947.16	5423.02
947.33	5392.30
947.49	5337.01
947.66	5490.60
947.82	5402.54
947.99	5365.68
948.16	5550.00
948.32	5496.75
948.49	5484.46
948.65	5504.94
948.82	5466.03
948.98	5242.80
949.15	5394.35
949.31	5392.30
949.48	5459.88
949.64	5361.58
949.81	5433.26
949.97	5412.78
950.14	5570.48
950.30	5459.88
950.47	5410.73
950.63	5470.12
950.80	5461.93
950.96	5531.56
951.13	5539.76
951.30	5517.23
951.46	5513.13
951.63	5531.56
951.79	5597.10
951.96	5558.19
952.12	5447.60
952.29	5658.54
952.45	5455.79
952.62	5541.80
952.78	5670.83
952.94	5582.76
953.11	5527.47
953.27	5468.08
953.44	5656.49
953.60	5439.40
953.77	5584.81
953.93	5545.90
954.10	5498.80
954.26	5629.87
954.43	5490.60
954.59	5539.76
954.76	5672.87
954.92	5640.11
955.09	5666.73
955.25	5568.43
955.42	5480.36
955.58	5640.11
955.75	5631.91
955.91	5496.75
956.07	5603.24
956.24	5605.29
956.40	5543.85
956.57	5816.23
956.73	5578.67
956.90	5564.33
957.06	5515.18
957.23	5539.76
957.39	5656.49
957.56	5625.77
957.72	5593.00
957.88	5482.41
958.05	5910.44
958.21	5783.46
958.38	5576.62
958.54	5519.28
958.71	5715.88
958.87	5685.16
959.03	5523.37
959.20	5603.24
959.36	5582.76
959.53	5603.24
959.69	5644.20
959.85	5588.91
960.02	5668.78
960.18	5586.86
960.35	5599.15
960.51	5611.43
960.68	5652.39
960.84	5554.09
961.00	5644.20
961.17	5527.47
961.33	5576.62
961.50	5535.66
961.66	5568.43
961.82	5398.45
961.99	5625.77
962.15	5566.38
962.31	5564.33
962.48	5564.33
962.64	5703.59
962.81	5578.67
962.97	5640.11
963.13	5572.52
963.30	5492.65
963.46	5650.35
963.62	5515.18
963.79	5445.55
963.95	5552.04
964.12	5556.14
964.28	5519.28
964.44	5500.84
964.61	5500.84
964.77	5449.64
964.93	5715.88
965.10	5461.93
965.26	5498.80
965.42	5367.73
965.59	5529.52
965.75	5349.29
965.92	5484.46
966.08	5410.73
966.24	5365.68
966.41	5404.59
966.57	5339.05
966.73	5521.32
966.90	5500.84
967.06	5361.58
967.22	5394.35
967.39	5369.77
967.55	5367.73
967.71	5337.01
967.88	5220.27
968.04	5275.57
968.20	5263.28
968.37	5287.86
968.53	5324.72
968.69	5337.01
968.85	5250.99
969.02	5205.94
969.18	5191.60
969.34	5138.35
969.51	5269.42
969.67	5365.68
969.83	5238.70
970.00	5334.96
970.16	5210.03
970.32	5083.06
970.48	5107.63
970.65	5121.97
970.81	5035.96
970.97	5201.84
971.14	5062.58
971.30	5154.74
971.46	5085.11
971.63	5132.21
971.79	5267.38
971.95	4935.60
972.11	4921.27
972.28	4986.80
972.44	5111.73
972.60	4960.18
972.76	5029.81
972.93	4962.23
973.09	5099.44
973.25	5101.49
973.42	4962.23
973.58	5124.02
973.74	5081.01
973.90	5169.07
974.07	4908.98
974.23	4902.84
974.39	4886.45
974.55	5019.57
974.72	4882.36
974.88	4794.29
975.04	4933.56
975.20	4833.21
975.37	4997.04
975.53	4837.30
975.69	4947.89
975.85	4833.21
976.01	4677.56
976.18	4876.21
976.34	4759.48
976.50	4802.49
976.66	4970.42
976.83	4712.38
976.99	4765.62
977.15	4724.66
977.31	4566.97
977.47	4812.73
977.64	4698.04
977.80	4933.56
977.96	4685.75
978.12	4728.76
978.29	4650.94
978.45	4661.18
978.61	4650.94
978.77	4638.65
978.93	4542.39
979.10	4587.45
979.26	4601.79
979.42	4700.09
979.58	4417.47
979.74	4491.20
979.91	4579.26
980.07	4452.28
980.23	4591.55
980.39	4487.10
980.55	4460.48
980.71	4571.07
980.88	4378.56
981.04	4368.32
981.20	4409.28
981.36	4540.35
981.52	4480.96
981.68	4394.94
981.85	4466.62
982.01	4358.08
982.17	4446.14
982.33	4313.02
982.49	4530.11
982.65	4394.94
982.82	4304.83
982.98	4513.72
983.14	4224.96
983.30	4421.56
983.46	4319.17
983.62	4267.97
983.79	4188.10
983.95	4298.69
984.11	4208.58
984.27	4292.54
984.43	4272.06
984.59	4267.97
984.75	4255.68
984.91	4267.97
985.08	4315.07
985.24	4276.16
985.40	4100.03
985.56	4145.09
985.72	4235.20
985.88	4134.85
986.04	4034.50
986.20	4145.09
986.37	4126.66
986.53	3921.86
986.69	4120.51
986.85	4026.31
987.01	3975.11
987.17	4011.97
987.33	3942.34
987.49	3979.20
987.65	4026.31
987.82	4018.11
987.98	3946.44
988.14	3801.03
988.30	4108.23
988.46	3950.53
988.62	3966.92
988.78	3950.53
988.94	3907.52
989.10	4001.73
989.26	3940.29
989.42	3827.65
989.59	3899.33
989.75	3887.04
989.91	3954.63
990.07	3719.11
990.23	3854.28
990.39	3856.33
990.55	3968.96
990.71	3768.26
990.87	3876.80
991.03	3901.38
991.19	3678.15
991.35	3749.83
991.51	3798.98
991.67	3874.76
991.83	3815.37
992.00	3692.49
992.16	3805.13
992.32	3772.36
992.48	3809.22
992.64	3766.21
992.80	3747.78
992.96	3725.26
993.12	3739.59
993.28	3766.21
993.44	3639.24
993.60	3674.06
993.76	3643.34
993.92	3674.06
994.08	3657.67
994.24	3624.90
994.40	3504.07
994.56	3688.39
994.72	3715.02
994.88	3606.47
995.04	3588.04
995.20	3588.04
995.36	3581.90
995.52	3581.90
995.68	3573.71
995.84	3510.22
996.00	3743.69
996.16	3487.69
996.32	3495.88
996.48	3461.07
996.64	3518.41
996.80	3540.94
996.96	3471.31
997.12	3399.63
997.28	3360.72
997.44	3416.01
997.60	3362.76
997.76	3448.78
997.92	3585.99
998.08	3495.88
998.24	3377.10
998.40	3383.24
998.56	3411.92
998.72	3258.32
998.88	3219.41
999.04	3325.90
999.20	3332.05
999.36	3305.42
999.52	3348.43
999.68	3274.70
999.84	3332.05
1000.00	3315.66
1000.16	3385.29
1000.32	3217.36
1000.48	3504.07
1000.64	3243.98
1000.80	3209.17
1000.95	3170.26
1001.11	3266.51
1001.27	3157.97
1001.43	3256.27
1001.59	3131.34
1001.75	3106.77
1001.91	3280.85
1002.07	3055.57
1002.23	3188.69
1002.39	3106.77
1002.55	3162.06
1002.71	3168.21
1002.87	3145.68
1003.03	3067.86
1003.19	3131.34
1003.34	3096.53
1003.50	3094.48
1003.66	3139.54
1003.82	3135.44
1003.98	2920.40
1004.14	3067.86
1004.30	2990.03
1004.46	2985.94
1004.62	3094.48
1004.78	3084.24
1004.94	3049.43
1005.09	3123.15
1005.25	3016.66
1005.41	2949.08
1005.57	2953.17
1005.73	2990.03
1005.89	2944.98
1006.05	3020.75
1006.21	3018.71
1006.37	2987.99
1006.52	2940.88
1006.68	2889.68
1006.84	3008.47
1007.00	2858.96
1007.16	2969.55
1007.32	2838.48
1007.48	2834.39
1007.64	3028.95
1007.79	2901.97
1007.95	2899.92
1008.11	2957.27
1008.27	2871.25
1008.43	2910.16
1008.59	2861.01
1008.75	2971.60
1008.91	2852.82
1009.06	2822.10
1009.22	2818.00
1009.38	2793.43
1009.54	2856.92
1009.70	2797.53
1009.86	2918.36
1010.01	2899.92
1010.17	2729.94
1010.33	2813.91
1010.49	2813.91
1010.65	2947.03
1010.81	2668.50
1010.96	2727.89
1011.12	2783.19
1011.28	2674.65
1011.44	2818.00
1011.60	2805.72
1011.76	2721.75
1011.91	2770.90
1012.07	2709.46
1012.23	2619.35
1012.39	2660.31
1012.55	2777.05
1012.71	2643.93
1012.86	2588.63
1013.02	2611.16
1013.18	2588.63
1013.34	2607.06
1013.50	2754.52
1013.65	2641.88
1013.81	2701.27
1013.97	2512.86
1014.13	2584.54
1014.29	2625.50
1014.44	2600.92
1014.60	2535.39
1014.76	2545.63
1014.92	2584.54
1015.07	2594.78
1015.23	2617.30
1015.39	2455.51
1015.55	2545.63
1015.71	2576.34
1015.86	2584.54
1016.02	2465.75
1016.18	2459.61
1016.34	2584.54
1016.49	2539.48
1016.65	2553.82
1016.81	2508.76
1016.97	2490.33
1017.12	2459.61
1017.28	2508.76
1017.44	2406.36
1017.60	2394.08
1017.75	2453.47
1017.91	2408.41
1018.07	2410.46
1018.23	2478.04
1018.38	2365.40
1018.54	2396.12
1018.70	2437.08
1018.86	2371.55
1019.01	2328.54
1019.17	2455.51
1019.33	2490.33
1019.49	2375.64
1019.64	2463.71
1019.80	2389.98
1019.96	2369.50
1020.12	2357.21
1020.27	2301.92
1020.43	2369.50
1020.59	2437.08
1020.74	2424.80
1020.90	2551.77
1021.06	2295.77
1021.22	2359.26
1021.37	2283.49
1021.53	2338.78
1021.69	2344.92
1021.84	2306.01
1022.00	2263.01
1022.16	2226.14
1022.31	2312.16
1022.47	2318.30
1022.63	2336.73
1022.79	2207.71
1022.94	2217.95
1023.10	2365.40
1023.26	2312.16
1023.41	2252.77
1023.57	2273.25
1023.73	2269.15
1023.88	2306.01
1024.04	2179.04
1024.20	2189.28
1024.35	2338.78
1024.51	2351.07
1024.67	2306.01
1024.82	2355.16
1024.98	2238.43
1025.14	2273.25
1025.29	2140.13
1025.45	2254.81
1025.61	2199.52
1025.76	2277.34
1025.92	2201.57
1026.08	2236.38
1026.23	2240.48
1026.39	2267.10
1026.55	2217.95
1026.70	2187.23
1026.86	2193.37
1027.02	2222.05
1027.17	2138.08
1027.33	2170.85
1027.48	2160.61
1027.64	2142.18
1027.80	2146.27
1027.95	2230.24
1028.11	2086.88
1028.27	2164.70
1028.42	2121.70
1028.58	2150.37
1028.73	2152.42
1028.89	2131.94
1029.05	2211.81
1029.20	2123.74
>>>>>End Processed Spectral Data<<<<<
