SpectraSuite Data File
++++++++++++++++++++++++++++++++++++
Date: Fri Jun 02 14:57:18 CEST 2017
User: INFO_000
Dark Spectrum Present: No
Reference Spectrum Present: No
Number of Sampled Component Spectra: 1
Spectrometers: USB4H00879
Integration Time (usec): 80000 (USB4H00879)
Spectra Averaged: 1 (USB4H00879)
Boxcar Smoothing: 0 (USB4H00879)
Correct for Electrical Dark: No (USB4H00879)
Strobe/Lamp Enabled: No (USB4H00879)
Correct for Detector Non-linearity: No (USB4H00879)
Correct for Stray Light: No (USB4H00879)
Number of Pixels in Processed Spectrum: 3648
>>>>>Begin Processed Spectral Data<<<<<
345.13	1304.56
345.34	1304.56
345.56	1304.56
345.78	1247.21
345.99	1277.93
346.21	1673.19
346.42	1673.19
346.64	1648.61
346.86	1748.97
347.07	1654.76
347.29	1691.62
347.50	1656.81
347.72	1685.48
347.94	1777.64
348.15	1525.74
348.37	1583.08
348.59	1640.42
348.80	1634.28
349.02	1810.40
349.23	1929.19
349.45	1804.26
349.67	1837.03
349.88	1832.93
350.10	1877.99
350.31	1863.65
350.53	1847.27
350.75	1947.62
350.96	1806.31
351.18	1839.08
351.39	1884.13
351.61	1759.21
351.82	1882.08
352.04	1918.95
352.26	1839.08
352.47	1908.71
352.69	1906.66
352.90	1746.92
353.12	1853.41
353.34	1877.99
353.55	1914.85
353.77	1837.03
353.98	1880.04
354.20	1814.50
354.41	1943.52
354.63	1912.80
354.85	1978.34
355.06	2011.11
355.28	1871.84
355.49	1966.05
355.71	1861.60
355.92	1839.08
356.14	1953.76
356.35	1861.60
356.57	1916.90
356.79	1923.04
357.00	1863.65
357.22	1968.10
357.43	1820.64
357.65	1931.23
357.86	1851.36
358.08	1947.62
358.29	1847.27
358.51	2000.87
358.72	1923.04
358.94	2019.30
359.16	1916.90
359.37	1927.14
359.59	2009.06
359.80	2002.91
360.02	1935.33
360.23	1945.57
360.45	2031.58
360.66	1904.61
360.88	1871.84
361.09	1904.61
361.31	2043.87
361.52	1982.43
361.74	2015.20
361.95	2025.44
362.17	1933.28
362.38	2068.45
362.60	2025.44
362.81	1937.38
363.03	1976.29
363.24	2052.06
363.46	2107.36
363.67	2021.35
363.89	1949.67
364.10	1982.43
364.32	1951.71
364.53	2076.64
364.75	1925.09
364.96	2113.50
365.18	2004.96
365.39	2007.01
365.61	1941.47
365.82	2074.59
366.04	2019.30
366.25	2009.06
366.47	2043.87
366.68	2090.98
366.90	1972.19
367.11	2052.06
367.33	2052.06
367.54	2043.87
367.76	1990.63
367.97	2009.06
368.19	1990.63
368.40	2119.65
368.62	1976.29
368.83	1957.86
369.05	2027.49
369.26	1937.38
369.48	2025.44
369.69	2015.20
369.91	2039.78
370.12	2021.35
370.33	2121.70
370.55	1988.58
370.76	2105.31
370.98	2068.45
371.19	2109.41
371.41	2037.73
371.62	2090.98
371.84	1990.63
372.05	2113.50
372.27	1996.77
372.48	2113.50
372.69	2070.50
372.91	2064.35
373.12	2283.49
373.34	2082.78
373.55	2097.12
373.77	2125.79
373.98	2093.02
374.20	2158.56
374.41	2287.58
374.62	2193.37
374.84	2152.42
375.05	2160.61
375.27	2150.37
375.48	2215.90
375.70	2183.13
375.91	2220.00
376.12	2330.59
376.34	2181.09
376.55	2228.19
376.77	2265.05
376.98	2109.41
377.19	2189.28
377.41	2154.46
377.62	2140.13
377.84	2254.81
378.05	2369.50
378.27	2166.75
378.48	2336.73
378.69	2389.98
378.91	2240.48
379.12	2267.10
379.34	2152.42
379.55	2306.01
379.76	2295.77
379.98	2256.86
380.19	2226.14
380.41	2275.29
380.62	2303.96
380.83	2232.29
381.05	2265.05
381.26	2402.27
381.47	2189.28
381.69	2217.95
381.90	2396.12
382.12	2248.67
382.33	2295.77
382.54	2246.62
382.76	2387.93
382.97	2344.92
383.19	2228.19
383.40	2336.73
383.61	2297.82
383.83	2312.16
384.04	2334.68
384.25	2430.94
384.47	2435.03
384.68	2473.95
384.89	2344.92
385.11	2322.40
385.32	2326.49
385.54	2297.82
385.75	2394.08
385.96	2488.28
386.18	2394.08
386.39	2324.44
386.60	2375.64
386.82	2443.23
387.03	2453.47
387.24	2553.82
387.46	2545.63
387.67	2480.09
387.88	2537.43
388.10	2398.17
388.31	2598.87
388.52	2529.24
388.74	2418.65
388.95	2572.25
389.16	2602.97
389.38	2588.63
389.59	2639.83
389.80	2625.50
390.02	2582.49
390.23	2623.45
390.44	2582.49
390.66	2543.58
390.87	2547.67
391.08	2582.49
391.30	2748.37
391.51	2494.43
391.72	2725.85
391.94	2617.30
392.15	2609.11
392.36	2697.17
392.58	2627.54
392.79	2562.01
393.00	2688.98
393.22	2709.46
393.43	2830.29
393.64	2875.35
393.85	2807.77
394.07	2633.69
394.28	2717.65
394.49	2869.20
394.71	2750.42
394.92	2922.45
395.13	2697.17
395.35	2729.94
395.56	2699.22
395.77	2869.20
395.98	2867.16
396.20	2934.74
396.41	2820.05
396.62	2893.78
396.84	2805.72
397.05	2889.68
397.26	2813.91
397.47	2977.75
397.69	2787.29
397.90	3014.61
398.11	2912.21
398.32	2897.88
398.54	2818.00
398.75	2959.31
398.96	3014.61
399.18	3121.10
399.39	3018.71
399.60	3041.23
399.81	3049.43
400.03	2951.12
400.24	3272.65
400.45	2951.12
400.66	3166.16
400.88	3006.42
401.09	3182.54
401.30	3100.62
401.51	3155.92
401.73	3121.10
401.94	3217.36
402.15	3002.32
402.36	3229.65
402.58	3125.20
402.79	3198.93
403.00	3203.02
403.21	3241.93
403.43	3164.11
403.64	3180.50
403.85	3076.05
404.06	3252.17
404.27	3065.81
404.49	3336.14
404.70	3125.20
404.91	3196.88
405.12	3229.65
405.34	3229.65
405.55	3387.34
405.76	3188.69
405.97	3315.66
406.19	3428.30
406.40	3182.54
406.61	3260.37
406.82	3291.09
407.03	3315.66
407.25	3344.33
407.46	3274.70
407.67	3426.25
407.88	3362.76
408.09	3403.72
408.31	3370.96
408.52	3352.52
408.73	3315.66
408.94	3383.24
409.15	3330.00
409.37	3434.44
409.58	3493.83
409.79	3461.07
410.00	3485.64
410.21	3436.49
410.43	3420.11
410.64	3289.04
410.85	3536.84
411.06	3504.07
411.27	3432.40
411.48	3631.05
411.70	3520.46
411.91	3440.59
412.12	3674.06
412.33	3639.24
412.54	3573.71
412.76	3669.96
412.97	3737.54
413.18	3516.36
413.39	3602.38
413.60	3657.67
413.81	3626.95
414.03	3514.31
414.24	3583.95
414.45	3684.30
414.66	3592.14
414.87	3749.83
415.08	3721.16
415.30	3768.26
415.51	3626.95
415.72	3669.96
415.93	3760.07
416.14	3776.45
416.35	3727.30
416.56	3837.89
416.78	3860.42
416.99	3882.95
417.20	3854.28
417.41	3854.28
417.62	3823.56
417.83	3907.52
418.04	3813.32
418.26	3930.05
418.47	3887.04
418.68	4038.59
418.89	3934.15
419.10	3960.77
419.31	4059.07
419.52	4044.74
419.73	3991.49
419.95	4089.79
420.16	3880.90
420.37	4040.64
420.58	3917.76
420.79	4018.11
421.00	4184.00
421.21	4093.89
421.42	4151.23
421.63	4249.54
421.85	4112.32
422.06	4280.25
422.27	4165.57
422.48	4186.05
422.69	4231.10
422.90	4360.13
423.11	4249.54
423.32	4353.98
423.53	4413.37
423.75	4313.02
423.96	4497.34
424.17	4241.34
424.38	4423.61
424.59	4417.47
424.80	4536.25
425.01	4468.67
425.22	4382.65
425.43	4431.80
425.64	4710.33
425.85	4630.46
426.06	4599.74
426.28	4603.83
426.49	4483.00
426.70	4550.59
426.91	4589.50
427.12	4646.84
427.33	4648.89
427.54	4755.38
427.75	4681.66
427.96	4837.30
428.17	4685.75
428.38	4790.20
428.59	4874.17
428.80	4804.53
429.01	4986.80
429.23	4839.35
429.44	5138.35
429.65	5001.14
429.86	5107.63
430.07	5015.48
430.28	4888.50
430.49	5054.39
430.70	5230.51
430.91	5132.21
431.12	5144.50
431.33	5152.69
431.54	5314.48
431.75	5328.81
431.96	5261.23
432.17	5330.86
432.38	5189.55
432.59	5451.69
432.80	5377.97
433.01	5330.86
433.22	5334.96
433.43	5300.14
433.64	5375.92
433.85	5234.61
434.06	5451.69
434.27	5412.78
434.49	5412.78
434.70	5486.51
434.91	5500.84
435.12	5541.80
435.33	5578.67
435.54	5605.29
435.75	5402.54
435.96	5480.36
436.17	5408.69
436.38	5621.67
436.59	5810.09
436.80	5527.47
437.01	5844.90
437.22	5906.34
437.43	5711.78
437.64	5547.95
437.85	5904.29
438.06	5865.38
438.27	5681.07
438.48	5740.46
438.69	5975.97
438.90	6059.94
439.11	5685.16
439.32	6002.60
439.53	5836.71
439.74	6010.79
439.95	5996.45
440.16	6078.37
440.37	6154.15
440.57	5881.77
440.78	6059.94
440.99	6209.44
441.20	6141.86
441.41	5902.25
441.62	6115.23
441.83	6049.70
442.04	6049.70
442.25	6039.46
442.46	6197.15
442.67	6436.77
442.88	6625.18
443.09	6082.47
443.30	6229.92
443.51	6268.83
443.72	6600.60
443.93	6223.78
444.14	6567.84
444.35	6168.48
444.56	6426.53
444.77	6328.22
444.98	6604.70
445.19	6598.56
445.40	6426.53
445.61	6471.58
445.81	6434.72
446.02	6586.27
446.23	6567.84
446.44	6322.08
446.65	6688.67
446.86	6459.29
447.07	6703.00
447.28	6748.06
447.49	6840.22
447.70	6586.27
447.91	6725.53
448.12	6686.62
448.33	6924.18
448.54	6825.88
448.74	6555.55
448.95	6748.06
449.16	6811.54
449.37	7184.27
449.58	6789.02
449.79	7061.40
450.00	6889.37
450.21	7008.15
450.42	7217.04
450.63	7208.85
450.84	6975.38
451.05	7135.12
451.25	7032.72
451.46	7075.73
451.67	7239.57
451.88	7333.78
452.09	7069.59
452.30	7042.96
452.51	7243.67
452.72	7413.65
452.93	7548.81
453.13	7151.51
453.34	7169.94
453.55	7358.35
453.76	7370.64
453.97	7608.20
454.18	7475.09
454.39	7421.84
454.60	7456.65
454.81	7374.74
455.01	7802.76
455.22	7317.39
455.43	7610.25
455.64	7858.06
455.85	7866.25
456.06	7843.72
456.27	7708.55
456.48	7659.40
456.68	8046.47
456.89	7989.13
457.10	7966.60
457.31	7876.49
457.52	7868.30
457.73	7847.82
457.94	8198.02
458.14	7821.19
458.35	8429.44
458.56	8171.40
458.77	8030.09
458.98	8382.34
459.19	8302.47
459.39	8421.25
459.60	8347.52
459.81	8343.42
460.02	8537.98
460.23	8386.43
460.44	8613.76
460.65	8527.74
460.85	8626.04
461.06	8605.56
461.27	8382.34
461.48	8722.30
461.69	8830.84
461.89	8605.56
462.10	8916.86
462.31	8775.55
462.52	8681.34
462.73	8771.45
462.94	9131.89
463.14	8972.15
463.35	9074.55
463.56	9475.95
463.77	9330.55
463.98	8978.30
464.18	9054.07
464.39	9170.80
464.60	9459.57
464.81	9432.94
465.02	9525.10
465.23	9715.56
465.43	9480.05
465.64	9506.67
465.85	9672.56
466.06	9535.34
466.27	10018.66
466.47	9824.11
466.68	9809.77
466.89	9877.35
467.10	9955.18
467.30	9873.26
467.51	10159.97
467.72	10452.83
467.93	10069.86
468.14	10211.17
468.34	10254.18
468.55	10444.64
468.76	10243.94
468.97	10297.19
469.17	10471.26
469.38	10522.46
469.59	10848.09
469.80	10571.61
470.01	10661.73
470.21	10590.05
470.42	11063.13
470.63	11034.46
470.84	10975.06
471.04	10956.63
471.25	11143.00
471.46	11116.37
471.67	11454.29
471.87	11378.51
472.08	11503.44
472.29	11308.88
472.50	11257.68
472.70	11376.47
472.91	11571.02
473.12	11898.70
473.33	11849.55
473.53	11935.56
473.74	11775.82
473.95	12072.78
474.16	12361.54
474.36	12031.82
474.57	12304.20
474.78	12375.88
474.99	12343.11
475.19	12324.68
475.40	12611.39
475.61	12732.22
475.81	12959.55
476.02	13037.37
476.23	12908.35
476.44	12769.09
476.64	13102.90
476.85	13459.25
477.06	13147.96
477.27	13682.48
477.47	13457.20
477.68	13573.94
477.89	13690.67
478.09	13451.06
478.30	13950.76
478.51	13750.06
478.71	14010.15
478.92	14133.03
479.13	14096.17
479.34	14413.60
479.54	14507.81
479.75	14454.56
479.96	14561.06
480.16	14597.92
480.37	14757.66
480.58	14962.46
480.78	15152.92
480.99	14999.32
481.20	14984.99
481.41	15382.29
481.61	15314.71
481.82	15539.99
482.03	15419.16
482.23	15562.51
482.44	15709.97
482.65	16008.97
482.85	15732.50
483.06	15980.30
483.27	16267.02
483.47	16133.90
483.68	16221.96
483.89	16305.93
484.09	16387.85
484.30	16230.15
484.51	16731.90
484.71	16813.82
484.92	16692.99
485.13	16881.41
485.33	17016.57
485.54	16885.50
485.75	17272.57
485.95	17407.73
486.16	17508.08
486.37	17522.42
486.57	17487.61
486.78	17559.28
486.98	17716.98
487.19	17731.31
487.40	17995.50
487.60	17872.62
487.81	18290.41
488.02	18278.12
488.22	18355.94
488.43	18491.11
488.64	18386.66
488.84	18568.93
489.05	18802.40
489.25	18577.12
489.46	19027.68
489.67	18700.00
489.87	19103.45
490.08	19158.75
490.29	19269.34
490.49	19566.29
490.70	19844.82
490.90	19685.08
491.11	19349.21
491.32	19668.69
491.52	19904.21
491.73	19859.15
491.94	19951.31
492.14	20031.18
492.35	20315.85
492.55	20457.16
492.76	20625.09
492.97	20266.70
493.17	20641.48
493.38	20807.36
493.58	21049.02
493.79	20991.68
494.00	20985.54
494.20	21049.02
494.41	21096.13
494.61	21302.97
494.82	21274.30
495.02	21354.17
495.23	21747.38
495.44	21446.33
495.64	21493.43
495.85	21872.31
496.05	21968.56
496.26	22083.25
496.47	22148.78
496.67	22124.21
496.88	22466.22
497.08	22353.58
497.29	22423.21
497.49	22585.00
497.70	22720.17
497.91	22535.85
498.11	22978.21
498.32	22957.73
498.52	22922.91
498.73	23277.21
498.93	23312.03
499.14	22841.00
499.34	23213.73
499.55	23658.14
499.76	23619.22
499.96	23723.67
500.17	23633.56
500.37	23981.71
500.58	23545.50
500.78	23881.36
500.99	23817.88
501.19	24215.18
501.40	23946.90
501.60	24080.02
501.81	24374.92
502.02	24200.85
502.22	24272.53
502.43	24522.38
502.63	24637.06
502.84	24714.89
503.04	24581.77
503.25	24618.63
503.45	24698.50
503.66	24948.36
503.86	24698.50
504.07	25482.88
504.27	24888.96
504.48	25224.83
504.68	25200.26
504.89	25624.18
505.09	25454.20
505.30	25446.01
505.50	25728.63
505.71	25615.99
505.91	25726.58
506.12	25566.84
506.32	25695.86
506.53	25763.45
506.73	26175.09
506.94	25937.52
507.14	25933.43
507.35	26121.84
507.55	25906.80
507.76	26332.78
507.96	26261.10
508.17	26279.54
508.37	26582.63
508.58	26494.57
508.78	26271.34
508.99	26576.49
509.19	26795.62
509.40	26572.39
509.60	26566.25
509.81	26754.66
510.01	26715.75
510.22	27037.28
510.42	26732.14
510.63	27362.91
510.83	26848.87
511.04	27035.24
511.24	27299.42
511.44	27283.04
511.65	27106.91
511.85	27498.08
512.06	27412.06
512.26	27416.16
512.47	27661.91
512.67	27475.55
512.88	27731.54
513.08	27506.27
513.29	27629.15
513.49	27885.14
513.69	27827.80
513.90	27434.59
514.10	27991.64
514.31	27813.46
514.51	28304.98
514.72	27821.66
514.92	27915.86
515.13	28255.82
515.33	28057.17
515.53	28257.87
515.74	28413.52
515.94	28462.67
516.15	28208.72
516.35	28358.22
516.56	28843.59
516.76	28401.23
516.96	28458.57
517.17	28804.68
517.37	28843.59
517.58	28575.31
517.78	28991.05
517.99	28618.32
518.19	29087.30
518.39	29007.43
518.60	29027.91
518.80	29005.38
519.01	29242.95
519.21	29457.98
519.41	29146.69
519.62	29486.65
519.82	29349.44
520.03	29763.13
520.23	29468.22
520.43	29457.98
520.64	29654.59
520.84	29851.19
521.05	29681.21
521.25	29853.24
521.45	30006.84
521.66	30406.19
521.86	30002.74
522.07	29990.45
522.27	29900.34
522.47	30242.35
522.68	30561.84
522.88	30309.94
523.08	30721.58
523.29	30363.18
523.49	30643.76
523.70	30729.77
523.90	30789.16
524.10	30823.98
524.31	30707.24
524.51	30666.28
524.71	31233.57
524.92	31014.44
525.12	31485.47
525.33	31462.94
525.53	31196.71
525.73	31479.33
525.94	31358.50
526.14	31286.82
526.34	31438.37
526.55	31378.98
526.75	31184.42
526.95	32017.94
527.16	31634.97
527.36	31608.35
527.56	31895.07
527.77	32247.32
527.97	32040.47
528.17	32462.35
528.38	32101.91
528.58	32441.87
528.78	32187.92
528.99	32372.24
529.19	32503.31
529.39	32632.33
529.60	32452.11
529.80	32669.20
530.00	32640.53
530.21	32896.52
530.41	33043.98
530.61	32830.99
530.82	32906.76
531.02	33058.31
531.22	33521.15
531.43	33173.00
531.63	33281.54
531.83	33777.15
532.04	33529.34
532.24	33539.58
532.44	34160.12
532.64	33797.63
532.85	33967.61
533.05	34147.83
533.25	34133.50
533.46	33535.49
533.66	34321.91
533.86	34151.93
534.07	34723.31
534.27	34594.29
534.47	34477.55
534.67	34567.66
534.88	34305.52
535.08	34870.76
535.28	35046.89
535.49	34557.42
535.69	35597.79
535.89	35284.45
536.09	35536.35
536.30	35130.86
536.50	35216.87
536.70	35472.87
536.91	35571.17
537.11	35743.20
537.31	35610.08
537.51	35708.38
537.72	35892.70
537.92	36179.42
538.12	36308.44
538.32	35671.52
538.53	36074.97
538.73	35698.14
538.93	36148.70
539.13	36230.62
539.34	36105.69
539.54	36009.43
539.74	36529.62
539.94	36099.55
540.15	36259.29
540.35	36830.67
540.55	36601.30
540.75	36804.05
540.96	36775.37
541.16	36640.21
541.36	37045.71
541.56	37017.04
541.77	37469.64
541.97	36963.79
542.17	37303.75
542.37	37281.22
542.58	37057.99
542.78	37066.19
542.98	37330.37
543.18	37539.27
543.38	37754.30
543.59	37848.51
543.79	37721.54
543.99	37760.45
544.19	38026.68
544.40	37721.54
544.60	38348.21
544.80	37836.22
545.00	38016.44
545.20	38344.12
545.41	37907.90
545.61	38088.12
545.81	38596.02
546.01	38352.31
546.21	38395.32
546.42	38213.05
546.62	38561.20
546.82	38294.97
547.02	38901.17
547.22	38907.31
547.43	38809.01
547.63	38788.53
547.83	38665.65
548.03	38831.54
548.23	39333.29
548.44	38694.32
548.64	38987.18
548.84	39151.02
549.04	38938.03
549.24	39652.77
549.45	39531.94
549.65	39536.04
549.85	39499.17
550.05	39546.28
550.25	39333.29
550.45	39644.58
550.66	39777.70
550.86	39484.84
551.06	39570.85
551.26	39921.05
551.46	40013.21
551.66	40033.69
551.87	39755.17
552.07	39957.92
552.27	39871.90
552.47	39910.82
552.67	40129.95
552.87	40224.15
553.07	40150.43
553.28	40125.85
553.48	40533.40
553.68	40269.21
553.88	41000.33
554.08	40299.93
554.28	40707.47
554.48	40162.72
554.69	40721.81
554.89	40574.36
555.09	40893.84
555.29	40607.12
555.49	40986.00
555.69	41057.68
555.89	40658.32
556.10	41110.92
556.30	40756.63
556.50	41055.63
556.70	41094.54
556.90	41237.90
557.10	41229.71
557.30	40877.46
557.50	41379.21
557.70	41418.12
557.91	41387.40
558.11	41639.30
558.31	41522.57
558.51	41465.22
558.71	41325.96
558.91	41854.34
559.11	41563.53
559.31	41880.96
559.51	41573.77
559.72	41782.66
559.92	41893.25
560.12	41622.92
560.32	42091.90
560.52	41653.64
560.72	41727.36
560.92	42458.49
561.12	42327.42
561.32	42618.23
561.52	42046.85
561.72	42589.56
561.93	42073.47
562.13	42351.99
562.33	42274.17
562.53	42722.68
562.73	42032.51
562.93	42734.96
563.13	42644.85
563.33	42218.88
563.53	42970.48
563.73	42259.84
563.93	42849.65
564.13	42806.64
564.33	42802.55
564.53	42894.71
564.74	43281.77
564.94	42788.21
565.14	42866.03
565.34	43148.65
565.54	42874.23
565.74	43119.98
565.94	43203.95
566.14	43470.18
566.34	43222.38
566.54	43177.33
566.74	43478.38
566.94	43148.65
567.14	43486.57
567.34	42980.72
567.54	43941.22
567.74	43406.70
567.94	43599.21
568.14	43607.40
568.34	43906.40
568.54	43857.25
568.74	44033.38
568.94	43859.30
569.14	43717.99
569.34	44236.12
569.54	44385.63
569.75	43758.95
569.95	44338.52
570.15	44303.71
570.35	44213.60
570.55	44246.36
570.75	44528.98
570.95	44449.11
571.15	45094.22
571.35	44422.49
571.55	44528.98
571.75	44488.03
571.95	44479.83
572.15	44664.15
572.35	44735.83
572.55	44803.41
572.75	44920.15
572.95	44772.69
573.15	45043.02
573.35	44899.67
573.55	45047.12
573.75	45278.54
573.95	44756.31
574.15	45288.78
574.35	45489.48
574.55	45296.97
574.75	45126.99
574.95	45598.02
575.15	45346.12
575.34	45303.12
575.54	46087.49
575.74	45751.62
575.94	46173.50
576.14	45851.97
576.34	46030.15
576.54	46118.21
576.74	46030.15
576.94	45815.11
577.14	45911.36
577.34	46208.32
577.54	45946.18
577.74	46380.35
577.94	46724.41
578.14	46171.46
578.34	46679.35
578.54	46253.37
578.74	46839.09
578.94	47074.61
579.14	46814.52
579.34	46677.30
579.54	47154.48
579.74	47201.58
579.94	46998.83
580.13	47494.44
580.33	47289.65
580.53	47297.84
580.73	47418.67
580.93	47459.63
581.13	47488.30
581.33	47527.21
581.53	47877.41
581.73	47330.61
581.93	47918.37
582.13	47836.45
582.33	47795.49
582.53	47897.89
582.73	48190.75
582.92	48012.58
583.12	48125.22
583.32	47783.21
583.52	48106.79
583.72	48403.74
583.92	48555.29
584.12	48192.80
584.32	49014.04
584.52	48620.83
584.72	48665.88
584.92	48936.21
585.11	49061.14
585.31	49042.71
585.51	49083.67
585.71	49116.43
585.91	49394.96
586.11	48987.41
586.31	48882.97
586.51	49239.31
586.71	49267.98
586.91	49425.68
587.10	49777.93
587.30	49491.21
587.50	49837.32
587.70	49683.72
587.90	49865.99
588.10	49542.41
588.30	49620.23
588.50	50050.31
588.69	49775.88
588.89	49763.59
589.09	49814.79
589.29	49640.71
589.49	50398.46
589.69	50130.18
589.89	50803.96
590.08	50318.59
590.28	50519.29
590.48	50150.66
590.68	50369.79
590.88	50296.06
591.08	50402.56
591.28	50689.27
591.47	50978.04
591.67	50521.34
591.87	50486.53
592.07	51039.48
592.27	50748.67
592.47	51143.92
592.67	51180.79
592.86	50707.71
593.06	50924.79
593.26	51434.74
593.46	51397.87
593.66	51168.50
593.86	51113.20
594.05	51057.91
594.25	51582.19
594.45	51094.77
594.65	51381.49
594.85	51193.07
595.05	51645.68
595.24	51516.65
595.44	52026.60
595.64	51584.24
595.84	51719.40
596.04	51422.45
596.23	51840.23
596.43	52364.51
596.63	52020.45
596.83	51885.29
597.03	52131.04
597.22	52507.87
597.42	52274.40
597.62	52614.37
597.82	52534.49
598.02	52368.61
598.21	52696.28
598.41	52133.09
598.61	52430.05
598.81	52776.15
599.01	52819.16
599.20	52888.79
599.40	52692.19
599.60	52735.20
599.80	52962.52
600.00	53030.10
600.19	52942.04
600.39	52634.84
600.59	53069.01
600.79	53390.55
600.98	52675.80
601.18	53288.15
601.38	53552.33
601.58	53867.72
601.78	53542.10
601.97	53617.87
602.17	54107.33
602.37	53732.56
602.57	53300.43
602.76	53810.38
602.96	53828.81
603.16	54006.98
603.36	53834.95
603.55	54109.38
603.75	54148.29
603.95	53988.55
604.15	54340.80
604.34	54150.34
604.54	54301.89
604.74	54346.95
604.94	54211.78
605.13	54797.50
605.33	54867.13
605.53	54209.73
605.73	54686.91
605.92	54711.49
606.12	54772.92
606.32	54895.80
606.52	54490.30
606.71	54768.83
606.91	55049.40
607.11	54543.55
607.30	54809.79
607.50	54396.10
607.70	54953.15
607.90	55526.58
608.09	55213.24
608.29	54912.19
608.49	55358.64
608.68	54961.34
608.88	55385.27
609.08	55291.06
609.28	55108.79
609.47	55145.65
609.67	55563.44
609.87	55516.34
610.06	55262.39
610.26	55792.81
610.46	55483.57
610.66	55702.70
610.85	55698.61
611.05	55491.76
611.25	55661.74
611.44	55354.55
611.64	55784.62
611.84	55719.09
612.03	55319.73
612.23	55469.23
612.43	55784.62
612.62	55463.09
612.82	56052.90
613.02	55567.54
613.21	55817.39
613.41	55745.71
613.61	55989.42
613.80	55350.45
614.00	55921.83
614.20	55798.96
614.39	55815.34
614.59	55805.10
614.79	55495.86
614.98	55622.83
615.18	55526.58
615.38	55712.94
615.57	55282.87
615.77	55796.91
615.97	55956.65
616.16	55585.97
616.36	55692.46
616.56	55927.98
616.75	55567.54
616.95	55604.40
617.15	56104.10
617.34	55606.45
617.54	55739.57
617.74	56235.17
617.93	55710.89
618.13	55563.44
618.32	55880.88
618.52	55358.64
618.72	56120.49
618.91	55819.44
619.11	55844.01
619.31	55633.07
619.50	55434.42
619.70	55631.02
619.90	55850.16
620.09	55909.55
620.29	55559.34
620.48	55538.86
620.68	56341.67
620.88	55248.05
621.07	55956.65
621.27	55565.49
621.46	55219.38
621.66	55258.29
621.86	55678.13
622.05	55440.56
622.25	55813.29
622.44	55325.88
622.64	55477.43
622.84	55921.83
623.03	55219.38
623.23	55727.28
623.42	55575.73
623.62	55760.05
623.82	55960.75
624.01	55377.08
624.21	55256.24
624.40	55317.68
624.60	55338.16
624.80	54908.09
624.99	55233.72
625.19	55270.58
625.38	55338.16
625.58	55153.85
625.77	55002.30
625.97	55426.23
626.17	54883.51
626.36	54942.91
626.56	55342.26
626.75	54826.17
626.95	55581.87
627.14	55241.91
627.34	55284.92
627.54	55092.41
627.73	54744.25
627.93	55387.31
628.12	54809.79
628.32	54871.23
628.51	54813.88
628.71	55389.36
628.90	54672.57
629.10	55024.82
629.30	55102.65
629.49	54817.98
629.69	55258.29
629.88	55047.35
630.08	55295.16
630.27	55471.28
630.47	55129.27
630.66	55164.09
630.86	55071.93
631.05	54883.51
631.25	55698.61
631.44	55233.72
631.64	54940.86
631.84	54867.13
632.03	55555.25
632.23	55399.60
632.42	55213.24
632.62	55200.95
632.81	54774.97
633.01	55073.98
633.20	55186.61
633.40	55391.41
633.59	55110.84
633.79	54676.67
633.98	54764.73
634.18	55256.24
634.37	54914.23
634.57	54521.02
634.76	54871.23
634.96	54793.40
635.15	55303.35
635.35	54688.96
635.54	55080.12
635.74	55352.50
635.93	54969.53
636.13	55164.09
636.32	55123.13
636.52	54906.04
636.71	54944.95
636.91	55456.95
637.10	54594.75
637.30	55239.86
637.49	54934.71
637.69	55112.89
637.88	55266.48
638.08	55080.12
638.27	55080.12
638.46	55149.75
638.66	54498.50
638.85	55114.94
639.05	55080.12
639.24	55110.84
639.44	54705.34
639.63	55139.51
639.83	55022.78
640.02	54983.86
640.22	54990.01
640.41	55262.39
640.61	54516.93
640.80	54953.15
640.99	54473.92
641.19	55022.78
641.38	54920.38
641.58	55207.09
641.77	54893.75
641.97	55055.54
642.16	55069.88
642.36	54924.47
642.55	55628.98
642.74	54699.20
642.94	55418.03
643.13	54842.56
643.33	55551.15
643.52	54760.64
643.72	55530.67
643.91	54465.73
644.10	55172.28
644.30	55452.85
644.49	55121.08
644.69	55219.38
644.88	55082.17
645.08	55098.55
645.27	54695.10
645.46	54740.16
645.66	55393.46
645.85	54600.89
646.05	55344.31
646.24	55493.81
646.43	54920.38
646.63	55477.43
646.82	55446.71
647.02	55071.93
647.21	55082.17
647.40	55145.65
647.60	55620.78
647.79	55375.03
647.99	55682.22
648.18	55264.44
648.37	55260.34
648.57	55059.64
648.76	55194.81
648.96	54998.20
649.15	55305.40
649.34	55772.33
649.54	55456.95
649.73	54899.90
649.92	55407.79
650.12	55092.41
650.31	55473.33
650.51	55260.34
650.70	55282.87
650.89	55159.99
651.09	55846.06
651.28	55530.67
651.47	55000.25
651.67	55114.94
651.86	55700.65
652.06	54793.40
652.25	55131.32
652.44	55401.65
652.64	55110.84
652.83	54914.23
653.02	54768.83
653.22	55088.31
653.41	54992.06
653.60	54916.28
653.80	54729.92
653.99	55213.24
654.18	55399.60
654.38	55360.69
654.57	55096.50
654.76	55239.86
654.96	54867.13
655.15	55502.00
655.34	55284.92
655.54	55303.35
655.73	54957.24
655.92	54965.43
656.12	54785.21
656.31	55295.16
656.50	54938.81
656.70	55194.81
656.89	54947.00
657.08	55141.56
657.28	55358.64
657.47	54899.90
657.66	55379.12
657.86	55516.34
658.05	55264.44
658.24	55506.10
658.43	55139.51
658.63	55375.03
658.82	55594.16
659.01	55491.76
659.21	55602.35
659.40	55614.64
659.59	54879.42
659.79	55194.81
659.98	55743.66
660.17	55753.90
660.36	55415.99
660.56	55241.91
660.75	55731.37
660.94	55440.56
661.14	55153.85
661.33	55329.97
661.52	55008.44
661.71	55301.30
661.91	55280.82
662.10	55315.64
662.29	55944.36
662.49	55614.64
662.68	55387.31
662.87	55483.57
663.06	55784.62
663.26	55207.09
663.45	55719.09
663.64	55454.90
663.83	55626.93
664.03	55620.78
664.22	55440.56
664.41	55211.19
664.60	55227.57
664.80	55497.91
664.99	55182.52
665.18	54918.33
665.37	55588.02
665.57	55082.17
665.76	55147.70
665.95	55563.44
666.14	55329.97
666.34	55370.93
666.53	55432.37
666.72	55299.25
666.91	55231.67
667.11	55127.22
667.30	55551.15
667.49	55262.39
667.68	55327.92
667.87	55203.00
668.07	55325.88
668.26	55598.26
668.45	55561.39
668.64	55280.82
668.84	56347.81
669.03	55604.40
669.22	55315.64
669.41	55743.66
669.60	55444.66
669.80	55119.03
669.99	55571.63
670.18	55311.54
670.37	55211.19
670.57	55721.13
670.76	55221.43
670.95	55694.51
671.14	55938.22
671.33	55133.37
671.53	55735.47
671.72	55334.07
671.91	55217.33
672.10	55192.76
672.29	54965.43
672.48	54895.80
672.68	55743.66
672.87	55260.34
673.06	55088.31
673.25	54797.50
673.44	54983.86
673.64	54906.04
673.83	55182.52
674.02	55260.34
674.21	54695.10
674.40	55661.74
674.59	55022.78
674.79	54908.09
674.98	54852.80
675.17	55381.17
675.36	55014.58
675.55	55223.48
675.74	55047.35
675.94	54844.60
676.13	55516.34
676.32	55211.19
676.51	55223.48
676.70	55321.78
676.89	55313.59
677.08	55159.99
677.28	54967.48
677.47	55088.31
677.66	55286.96
677.85	55360.69
678.04	55088.31
678.23	55362.74
678.42	55219.38
678.62	54916.28
678.81	55121.08
679.00	55399.60
679.19	55573.68
679.38	55293.11
679.57	55248.05
679.76	54990.01
679.96	54781.12
680.15	54975.67
680.34	54942.91
680.53	55018.68
680.72	55026.87
680.91	55348.40
681.10	54320.32
681.29	55137.46
681.48	54781.12
681.68	54940.86
681.87	54936.76
682.06	55215.29
682.25	54543.55
682.44	54588.61
682.63	55000.25
682.82	54308.04
683.01	54752.44
683.20	54019.27
683.39	54883.51
683.59	54559.94
683.78	54680.77
683.97	54650.05
684.16	54774.97
684.35	54357.19
684.54	54650.05
684.73	54678.72
684.92	54457.54
685.11	54455.49
685.30	54658.24
685.49	55063.74
685.69	54564.03
685.88	54398.15
686.07	54637.76
686.26	54598.85
686.45	54564.03
686.64	54637.76
686.83	54715.58
687.02	54465.73
687.21	54584.51
687.40	54416.58
687.59	54346.95
687.78	54293.70
687.97	54693.05
688.16	54826.17
688.35	54420.67
688.54	54275.27
688.74	54758.59
688.93	54627.52
689.12	54521.02
689.31	54609.09
689.50	54426.82
689.69	53914.83
689.88	54209.73
690.07	54924.47
690.26	54039.75
690.45	54953.15
690.64	54404.29
690.83	54342.85
691.02	54207.68
691.21	54277.32
691.40	54000.84
691.59	54273.22
691.78	54400.19
691.97	54320.32
692.16	54662.33
692.35	54310.08
692.54	54056.14
692.73	53789.90
692.92	54342.85
693.11	54109.38
693.30	54394.05
693.49	54336.71
693.68	53867.72
693.87	53951.69
694.06	54000.84
694.25	53978.31
694.44	53880.01
694.63	54412.48
694.82	54289.60
695.01	54099.14
695.20	53906.63
695.39	54086.85
695.58	53992.65
695.77	53636.30
695.96	54090.95
696.15	54156.49
696.34	53908.68
696.53	53966.02
696.72	53925.07
696.91	53822.67
697.10	54101.19
697.29	54052.04
697.48	54095.05
697.67	53888.20
697.86	53880.01
698.05	53818.57
698.24	54400.19
698.43	53032.15
698.62	53697.74
698.81	53527.76
699.00	54183.11
699.19	53540.05
699.38	53490.90
699.57	53345.49
699.76	53904.59
699.95	53322.96
700.14	53527.76
700.32	53183.70
700.51	53183.70
700.70	53955.78
700.89	53617.87
701.08	53757.13
701.27	53200.08
701.46	54246.60
701.65	52956.38
701.84	53433.55
702.03	53220.56
702.22	53298.39
702.41	53576.91
702.60	53572.81
702.79	53187.80
702.98	53290.19
703.17	53275.86
703.35	53259.48
703.54	53435.60
703.73	53128.41
703.92	53126.36
704.11	53370.07
704.30	53146.84
704.49	53331.15
704.68	53015.77
704.87	53132.50
705.06	52931.80
705.25	52724.96
705.43	53181.65
705.62	53122.26
705.81	52856.03
706.00	53288.15
706.19	52448.48
706.38	52622.56
706.57	52931.80
706.76	52888.79
706.95	53363.92
707.14	52606.17
707.32	52763.87
707.51	52761.82
707.70	52765.91
707.89	52833.50
708.08	52886.74
708.27	52917.46
708.46	52714.72
708.65	52722.91
708.84	52655.32
709.02	52440.29
709.21	52804.83
709.40	52831.45
709.59	52526.30
709.78	52770.01
709.97	52630.75
710.16	52821.21
710.34	52593.89
710.53	52614.37
710.72	52477.15
710.91	52655.32
711.10	52761.82
711.29	52810.97
711.48	52770.01
711.66	52100.32
711.85	52090.09
712.04	52196.58
712.23	52681.95
712.42	52278.50
712.61	52491.49
712.80	52120.80
712.98	52454.62
713.17	52116.71
713.36	52221.16
713.55	52004.07
713.74	52550.88
713.93	52573.41
714.11	52358.37
714.30	51981.54
714.49	52085.99
714.68	52040.93
714.87	52270.31
715.06	52350.18
715.24	52210.92
715.43	52155.62
715.62	51582.19
715.81	52106.47
716.00	52684.00
716.18	52053.22
716.37	51604.72
716.56	51447.02
716.75	52290.79
716.94	51649.77
717.12	51717.35
717.31	52020.45
717.50	51969.26
717.69	51608.81
717.88	51999.97
718.06	51539.18
718.25	51715.31
718.44	51385.58
718.63	51483.89
718.82	51139.83
719.00	51682.54
719.19	51397.87
719.38	51055.86
719.57	51037.43
719.76	50873.59
719.94	50855.16
720.13	50996.47
720.32	50992.37
720.51	50918.65
720.69	51051.76
720.88	50849.02
721.07	51166.45
721.26	50511.10
721.44	50468.09
721.63	50824.44
721.82	50529.53
722.01	50261.25
722.20	50105.60
722.38	50394.37
722.57	50038.02
722.76	50629.88
722.95	50435.33
723.13	50085.12
723.32	50222.34
723.51	49966.34
723.70	50255.11
723.88	50277.63
724.07	49784.07
724.26	49898.76
724.44	49116.43
724.63	50373.89
724.82	49622.28
725.01	49626.38
725.19	50160.90
725.38	49614.09
725.57	49939.72
725.76	49741.06
725.94	49607.95
726.13	49820.94
726.32	49872.14
726.51	49435.92
726.69	50117.89
726.88	49739.02
727.07	49882.37
727.25	49749.26
727.44	50097.41
727.63	49372.43
727.82	49734.92
728.00	49657.10
728.19	49009.94
728.38	49968.39
728.56	49288.46
728.75	49906.95
728.94	49591.56
729.12	49726.73
729.31	49329.42
729.50	49700.11
729.69	49616.14
729.87	49620.23
730.06	49755.40
730.25	49386.77
730.43	50205.95
730.62	49831.18
730.81	49716.49
730.99	49675.53
731.18	49364.24
731.37	49243.41
731.55	50095.36
731.74	49501.45
731.93	49454.35
732.11	49165.59
732.30	49583.37
732.49	49409.29
732.67	49513.74
732.86	49470.73
733.05	49366.29
733.23	49046.80
733.42	49071.38
733.61	49317.14
733.79	49661.19
733.98	49360.14
734.17	49378.57
734.35	49501.45
734.54	49362.19
734.73	49583.37
734.91	49474.83
735.10	49485.07
735.29	49462.54
735.47	49155.35
735.66	49274.13
735.84	49190.16
736.03	49229.07
736.22	49347.86
736.40	49214.74
736.59	49329.42
736.78	48977.17
736.96	49284.37
737.15	48811.29
737.33	48815.38
737.52	48766.23
737.71	48874.77
737.89	48923.93
738.08	48876.82
738.27	48569.63
738.45	49452.30
738.64	48915.73
738.82	49298.70
739.01	48637.21
739.20	48880.92
739.38	48649.50
739.57	49108.24
739.75	48981.27
739.94	48839.96
740.13	48465.18
740.31	48430.36
740.50	48469.28
740.68	48420.13
740.87	48796.95
741.06	48723.22
741.24	48401.69
741.43	48203.04
741.61	48737.56
741.80	48495.90
741.99	48334.11
742.17	48287.01
742.36	48354.59
742.54	48229.66
742.73	48508.19
742.91	48315.68
743.10	48330.01
743.29	48309.53
743.47	48301.34
743.66	48244.00
743.84	48123.17
744.03	48504.09
744.21	47951.14
744.40	48608.54
744.59	47738.15
744.77	48043.30
744.96	48248.10
745.14	48106.79
745.33	48141.60
745.51	47930.66
745.70	48295.20
745.88	47906.08
746.07	48256.29
746.26	47686.95
746.44	48080.16
746.63	48160.03
746.81	48246.05
747.00	47723.82
747.18	48106.79
747.37	47486.25
747.55	47531.31
747.74	47928.61
747.92	47408.43
748.11	47232.30
748.29	47727.91
748.48	47263.02
748.66	47238.45
748.85	47357.23
749.03	47519.02
749.22	47224.11
749.41	47383.85
749.59	47459.63
749.78	47803.69
749.96	46990.64
750.15	47252.78
750.33	47519.02
750.52	47453.48
750.70	47244.59
750.89	46613.82
751.07	46624.06
751.26	47056.18
751.44	46916.92
751.63	46970.16
751.81	46658.87
752.00	46777.65
752.18	46624.06
752.37	46748.98
752.55	46449.98
752.74	46497.08
752.92	46744.89
753.10	46030.15
753.29	46619.96
753.47	46298.43
753.66	45878.60
753.84	46705.98
754.03	46456.12
754.21	46253.37
754.40	46642.49
754.58	46486.84
754.77	46386.49
754.95	45919.56
755.14	46003.52
755.32	46419.26
755.51	45843.78
755.69	45995.33
755.88	45962.56
756.06	46083.39
756.24	45944.13
756.43	45714.76
756.61	46159.17
756.80	46040.39
756.98	45665.61
757.17	45790.53
757.35	45552.97
757.54	45942.08
757.72	45651.27
757.90	45518.15
758.09	45739.33
758.27	45477.19
758.46	45524.30
758.64	45587.78
758.83	45530.44
759.01	45280.59
759.19	45253.97
759.38	45167.95
759.56	45745.48
759.75	45247.82
759.93	45139.28
760.12	45161.81
760.30	45024.59
760.48	45026.64
760.67	44938.58
760.85	45094.22
761.04	45079.89
761.22	44866.90
761.40	44723.54
761.59	44719.45
761.77	44838.23
761.96	44533.08
762.14	44954.96
762.32	44356.96
762.51	44438.87
762.69	44461.40
762.88	44432.73
763.06	44469.59
763.24	44533.08
763.43	44141.92
763.61	44369.24
763.80	44168.54
763.98	44004.70
764.16	44414.30
764.35	44074.34
764.53	43879.78
764.72	44082.53
764.90	44076.38
765.08	43965.79
765.27	44057.95
765.45	43887.97
765.63	43617.64
765.82	43652.45
766.00	43834.72
766.18	43617.64
766.37	44084.58
766.55	43789.67
766.74	43451.75
766.92	43429.23
767.10	43646.31
767.29	43257.20
767.47	43234.67
767.65	43318.64
767.84	43050.35
768.02	43406.70
768.20	43003.25
768.39	43361.64
768.57	42866.03
768.75	42919.28
768.94	42997.10
769.12	43111.79
769.30	42818.93
769.49	42702.20
769.67	42665.33
769.85	42210.68
770.04	42548.60
770.22	42546.55
770.40	42491.26
770.59	42202.49
770.77	42747.25
770.95	42216.83
771.14	42141.05
771.32	42161.53
771.50	41899.39
771.69	42442.10
771.87	42143.10
772.05	41919.87
772.24	41899.39
772.42	41782.66
772.60	41928.06
772.78	41805.19
772.97	41237.90
773.15	41862.53
773.33	41659.78
773.52	41442.70
773.70	41876.86
773.88	41782.66
774.07	41694.60
774.25	41612.68
774.43	41880.96
774.61	41645.44
774.80	42020.22
774.98	41667.97
775.16	42102.14
775.34	41735.56
775.53	41321.87
775.71	42194.30
775.89	41913.73
776.08	41407.88
776.26	42139.00
776.44	41973.12
776.62	41776.51
776.81	42042.75
776.99	41901.44
777.17	41622.92
777.35	41432.46
777.54	42333.56
777.72	41235.85
777.90	41465.22
778.08	41870.72
778.27	41733.51
778.45	41803.14
778.63	42093.95
778.81	41776.51
779.00	42448.25
779.18	41923.97
779.36	42433.91
779.54	41983.36
779.73	41835.91
779.91	42325.37
780.09	41809.28
780.27	42648.95
780.46	42579.32
780.64	42530.17
780.82	42188.16
781.00	41934.21
781.19	42214.78
781.37	42726.77
781.55	42278.27
781.73	42284.41
781.91	42278.27
782.10	41999.74
782.28	42311.03
782.46	42651.00
782.64	42745.20
782.82	42247.55
783.01	42558.84
783.19	42259.84
783.37	42308.99
783.55	42415.48
783.74	42593.65
783.92	42169.72
784.10	42737.01
784.28	42460.54
784.46	42186.11
784.64	42374.52
784.83	42190.20
785.01	42685.81
785.19	42216.83
785.37	42509.69
785.55	42134.91
785.74	42120.57
785.92	41708.93
786.10	42294.65
786.28	42438.01
786.46	42128.77
786.64	41864.58
786.83	42089.85
787.01	42059.13
787.19	41997.70
787.37	42411.38
787.55	42040.70
787.74	41641.35
787.92	41704.84
788.10	41518.47
788.28	41274.76
788.46	41805.19
788.64	40988.05
788.82	41796.99
789.01	40920.46
789.19	41414.02
789.37	41172.36
789.55	41268.62
789.73	41153.93
789.91	41160.08
790.09	41029.01
790.28	40797.59
790.46	40807.83
790.64	40674.71
790.82	41067.92
791.00	40689.04
791.18	40289.69
791.36	40512.92
791.55	40367.51
791.73	40355.22
791.91	40189.34
792.09	40265.11
792.27	39824.80
792.45	40129.95
792.63	40035.74
792.81	40150.43
793.00	39841.18
793.18	39919.01
793.36	39771.55
793.54	39269.80
793.72	39218.60
793.90	39277.99
794.08	39310.76
794.26	39458.21
794.44	38884.78
794.62	38991.28
794.81	39495.08
794.99	38933.93
795.17	38821.30
795.35	38819.25
795.53	39058.86
795.71	39230.89
795.89	38442.42
796.07	38225.34
796.25	38194.62
796.43	38315.45
796.61	38102.46
796.80	38004.16
796.98	38174.14
797.16	37748.16
797.34	37811.65
797.52	38102.46
797.70	37651.91
797.88	37537.22
798.06	37619.14
798.24	37553.60
798.42	37213.64
798.60	37397.96
798.78	37240.26
798.96	37397.96
799.14	36783.57
799.32	37041.61
799.51	36797.90
799.69	36994.51
799.87	36638.16
800.05	36574.67
800.23	36949.45
800.41	36570.58
800.59	37025.23
800.77	36355.54
800.95	36070.87
801.13	36203.99
801.31	35921.37
801.49	36083.16
801.67	35659.23
801.85	35784.16
802.03	35489.25
802.21	35534.31
802.39	35599.84
802.57	35302.89
802.75	35370.47
802.93	35141.10
803.11	35298.79
803.29	35182.06
803.47	35220.97
803.65	35157.48
803.83	35147.24
804.01	35149.29
804.19	34649.58
804.37	34696.69
804.55	34737.65
804.73	34598.38
804.91	34407.92
805.09	34346.48
805.27	34366.96
805.45	34442.74
805.63	34366.96
805.81	34459.12
805.99	34172.41
806.17	34100.73
806.35	34170.36
806.53	33996.28
806.71	33852.92
806.89	33938.94
807.07	33973.75
807.25	33848.83
807.43	33297.92
807.61	34020.86
807.79	32878.09
807.97	33351.17
808.15	33076.74
808.33	33140.23
808.51	32646.67
808.69	32888.33
808.87	32673.29
809.05	32880.14
809.23	32675.34
809.41	32372.24
809.59	32173.59
809.77	32753.16
809.95	32472.59
810.13	32738.83
810.31	32511.50
810.49	32122.39
810.67	32103.96
810.84	31909.40
811.02	32292.37
811.20	31868.44
811.38	32173.59
811.56	31913.50
811.74	31888.92
811.92	31790.62
812.10	31743.52
812.28	31847.96
812.46	31974.94
812.64	31417.89
812.82	31411.74
813.00	31716.89
813.18	31323.68
813.36	31237.67
813.53	31286.82
813.71	31200.80
813.89	30922.28
814.07	30811.69
814.25	30942.76
814.43	30969.38
814.61	30953.00
814.79	30805.55
814.97	30760.49
815.15	30733.87
815.33	30473.78
815.50	30344.75
815.68	30537.26
815.86	30375.47
816.04	30463.54
816.22	30271.03
816.40	30168.63
816.58	30367.28
816.76	30103.09
816.94	30299.70
817.11	30301.75
817.29	30533.17
817.47	29859.38
817.65	29791.80
817.83	30137.91
818.01	29388.35
818.19	29478.46
818.37	29421.12
818.54	29804.09
818.72	29187.65
818.90	29513.28
819.08	29212.23
819.26	29212.23
819.44	29201.99
819.62	29007.43
819.80	29132.36
819.97	29034.05
820.15	29308.48
820.33	29099.59
820.51	29351.49
820.69	28733.00
820.87	28857.93
821.05	28986.95
821.22	28923.46
821.40	28796.49
821.58	28796.49
821.76	28497.49
821.94	28513.87
822.12	28583.50
822.29	28649.03
822.47	28458.57
822.65	28835.40
822.83	28706.38
823.01	28442.19
823.19	28184.15
823.36	28116.56
823.54	28251.73
823.72	28282.45
823.90	28429.90
824.08	27874.90
824.25	28020.31
824.43	28008.02
824.61	27829.85
824.79	27803.22
824.97	27596.38
825.15	27858.52
825.32	27551.32
825.50	27913.81
825.68	27835.99
825.86	27870.81
826.04	27895.38
826.21	27096.67
826.39	27610.71
826.57	27338.33
826.75	27262.56
826.93	27145.83
827.10	27178.59
827.28	27471.45
827.46	27534.94
827.64	27145.83
827.81	27113.06
827.99	27299.42
828.17	27145.83
828.35	27217.50
828.53	26801.77
828.70	26631.79
828.88	26482.28
829.06	27022.95
829.24	26953.32
829.41	26472.04
829.59	26865.25
829.77	26941.03
829.95	26588.78
830.12	26639.98
830.30	26662.51
830.48	26830.44
830.66	26652.27
830.84	26633.83
831.01	26545.77
831.19	26302.06
831.37	26345.07
831.55	26269.30
831.72	26336.88
831.90	26457.71
832.08	26244.72
832.25	26076.79
832.43	26168.94
832.61	25951.86
832.79	25831.03
832.96	26166.90
833.14	26080.88
833.32	26398.32
833.50	25863.80
833.67	25949.81
833.85	25958.00
834.03	25513.59
834.20	25824.89
834.38	25720.44
834.56	26025.59
834.74	25472.64
834.91	25806.45
835.09	25822.84
835.27	25204.35
835.44	25415.29
835.62	25290.37
835.80	25355.90
835.98	25489.02
836.15	25470.59
836.33	25314.94
836.51	25554.55
836.68	24819.33
836.86	25097.86
837.04	25179.78
837.21	24987.27
837.39	25075.33
837.57	25140.86
837.75	24952.45
837.92	24850.05
838.10	25013.89
838.28	24829.57
838.45	24792.71
838.63	24725.13
838.81	24876.68
838.98	24700.55
839.16	24426.12
839.34	24610.44
839.51	24587.91
839.69	24499.85
839.87	24733.32
840.04	24452.75
840.22	24598.15
840.40	24161.94
840.57	24395.40
840.75	24440.46
840.93	24077.97
841.10	24503.95
841.28	24643.21
841.46	24266.38
841.63	24409.74
841.81	24358.54
841.98	24176.27
842.16	24108.69
842.34	24358.54
842.51	24016.53
842.69	24510.09
842.87	24151.70
843.04	23985.81
843.22	23611.03
843.40	23967.38
843.57	24092.30
843.75	24014.48
843.92	24073.87
844.10	24094.35
844.28	23936.66
844.45	24020.63
844.63	24051.34
844.81	23516.83
844.98	23717.53
845.16	23797.40
845.33	23449.24
845.51	23285.40
845.69	23668.37
845.86	23602.84
846.04	23371.42
846.21	23545.50
846.39	23453.34
846.57	23608.98
846.74	23338.65
846.92	23285.40
847.09	23551.64
847.27	23117.47
847.45	23445.15
847.62	23357.08
847.80	22851.24
847.97	23357.08
848.15	23064.22
848.32	22843.04
848.50	23047.84
848.68	22806.18
848.85	23070.37
849.03	22789.80
849.20	22816.42
849.38	22861.48
849.56	22709.93
849.73	22855.33
849.91	22820.52
850.08	22724.26
850.26	22714.02
850.43	22865.57
850.61	22578.86
850.78	22560.42
850.96	22603.43
851.14	22621.86
851.31	22787.75
851.49	22316.72
851.66	22652.58
851.84	22576.81
852.01	22650.53
852.19	22558.38
852.36	22357.67
852.54	22523.56
852.71	22615.72
852.89	22279.85
853.07	22451.88
853.24	22505.13
853.42	22333.10
853.59	22451.88
853.77	22271.66
853.94	22546.09
854.12	22603.43
854.29	22060.72
854.47	22195.89
854.64	22103.73
854.82	22421.16
854.99	21817.01
855.17	21878.45
855.34	21864.11
855.52	21780.15
855.69	22097.58
855.87	21661.37
856.04	21604.02
856.22	21935.79
856.39	21495.48
856.57	21714.61
856.74	21690.04
856.92	21763.76
857.09	21569.21
857.27	21630.65
857.44	21667.51
857.62	21511.86
857.79	21544.63
857.97	21329.59
858.14	21513.91
858.32	21511.86
858.49	21358.27
858.67	21204.67
858.84	21071.55
859.02	21286.59
859.19	21288.64
859.37	21034.69
859.54	21438.14
859.72	21311.16
859.89	21401.27
860.06	21008.06
860.24	21049.02
860.41	21169.85
860.59	20821.70
860.76	21186.24
860.94	20983.49
861.11	21020.35
861.29	20946.62
861.46	20698.82
861.64	20487.88
861.81	20477.64
861.98	20764.36
862.16	20795.07
862.33	20580.04
862.51	20397.77
862.68	20776.64
862.86	20721.35
863.03	20696.77
863.21	20524.74
863.38	20682.44
863.55	20440.78
863.73	20692.68
863.90	20514.50
864.08	20543.17
864.25	20465.35
864.43	20518.60
864.60	20426.44
864.77	20242.12
864.95	20238.03
865.12	19943.12
865.30	20428.49
865.47	20156.11
865.64	19795.67
865.82	20027.09
865.99	20096.72
866.17	20076.24
866.34	20164.30
866.51	19826.39
866.69	20115.15
866.86	20166.35
867.04	19945.17
867.21	19922.64
867.38	19957.46
867.56	19732.18
867.73	19834.58
867.91	19607.25
868.08	19601.11
868.25	19449.56
868.43	19547.86
868.60	19760.85
868.78	19560.15
868.95	19953.36
869.12	19494.61
869.30	19621.59
869.47	19439.32
869.64	19168.99
869.82	19672.79
869.99	19396.31
870.16	19361.50
870.34	19465.94
870.51	19582.68
870.69	19105.50
870.86	19275.48
871.03	19277.53
871.21	19261.15
871.38	19363.54
871.55	19201.76
871.73	19166.94
871.90	19058.40
872.07	18743.01
872.25	18767.59
872.42	18880.22
872.59	18738.91
872.77	18958.05
872.94	18663.14
873.11	18831.07
873.29	19078.88
873.46	18669.28
873.63	19029.73
873.81	18712.29
873.98	18349.80
874.15	18441.96
874.33	18325.22
874.50	18441.96
874.67	18448.10
874.85	18646.76
875.02	18390.76
875.19	18296.55
875.37	18194.15
875.54	18130.67
875.71	18114.28
875.88	17968.88
876.06	17977.07
876.23	18061.04
876.40	17979.12
876.58	18063.08
876.75	18099.95
876.92	17733.36
877.10	18218.73
877.27	17876.72
877.44	17766.13
877.61	17762.03
877.79	17624.82
877.96	17643.25
878.13	17725.17
878.31	17559.28
878.48	17678.07
878.65	17686.26
878.82	17573.62
879.00	17536.76
879.17	17516.28
879.34	17426.17
879.51	17520.37
879.69	17477.37
879.86	17395.45
880.03	17176.31
880.21	17340.15
880.38	17424.12
880.55	17315.58
880.72	17420.02
880.90	17108.73
881.07	17266.42
881.24	17200.89
881.41	17411.83
881.59	17129.21
881.76	17078.01
881.93	16795.39
882.10	16916.22
882.28	16813.82
882.45	16901.89
882.62	16973.56
882.79	17090.30
882.96	16852.73
883.14	16961.28
883.31	16916.22
883.48	16797.44
883.65	17035.00
883.83	16895.74
884.00	17028.86
884.17	16844.54
884.34	16647.94
884.51	16752.38
884.69	16887.55
884.86	16879.36
885.03	16586.50
885.20	16482.05
885.38	16793.34
885.55	16563.97
885.72	16832.26
885.89	16525.06
886.06	16533.25
886.24	16430.85
886.41	16469.76
886.58	16572.16
886.75	16543.49
886.92	16260.87
887.10	16797.44
887.27	16457.48
887.44	16146.19
887.61	16578.31
887.78	16559.88
887.95	16369.41
888.13	16434.95
888.30	15892.24
888.47	16406.28
888.64	16224.01
888.81	16391.94
888.99	16135.95
889.16	16111.37
889.33	15935.24
889.50	15929.10
889.67	16221.96
889.84	16076.55
890.01	15855.37
890.19	15943.44
890.36	15953.68
890.53	15849.23
890.70	15699.73
890.87	15910.67
891.04	15718.16
891.22	15812.37
891.39	15843.09
891.56	15595.28
891.73	15582.99
891.90	15615.76
892.07	15539.99
892.24	15632.15
892.42	15605.52
892.59	15537.94
892.76	15560.47
892.93	15370.01
893.10	15419.16
893.27	15550.23
893.44	15359.77
893.61	15642.39
893.79	15646.48
893.96	15404.82
894.13	15529.75
894.30	15380.25
894.47	15251.22
894.64	15484.69
894.81	15228.70
894.98	15423.25
895.15	15394.58
895.33	15216.41
895.50	15451.92
895.67	15476.50
895.84	15253.27
896.01	15437.59
896.18	15384.34
896.35	15470.36
896.52	15394.58
896.69	15513.36
896.86	15277.85
897.04	15253.27
897.21	15447.83
897.38	15222.55
897.55	15056.67
897.72	15267.61
897.89	15120.15
898.06	15277.85
898.23	15183.64
898.40	15370.01
898.57	15251.22
898.74	15359.77
898.91	15316.76
899.08	15382.29
899.26	15355.67
899.43	15154.97
899.60	15167.26
899.77	15214.36
899.94	15236.89
900.11	15013.66
900.28	15288.09
900.45	15200.02
900.62	15013.66
900.79	15378.20
900.96	15345.43
901.13	15261.46
901.30	15128.35
901.47	14952.22
901.64	15177.50
901.81	15195.93
901.98	15042.33
902.15	15232.79
902.32	14948.12
902.49	15310.61
902.66	15290.13
902.83	15279.89
903.01	15122.20
903.18	15288.09
903.35	15038.23
903.52	15179.54
903.69	15216.41
903.86	15107.87
904.03	15148.82
904.20	15306.52
904.37	15034.14
904.54	15093.53
904.71	15230.74
904.88	15249.18
905.05	14878.49
905.22	14898.97
905.39	15181.59
905.56	15040.28
905.73	15025.95
905.90	15077.15
906.07	15234.84
906.24	15271.70
906.41	15095.58
906.58	15183.64
906.75	15273.75
906.92	15056.67
907.09	14991.13
907.26	15163.16
907.43	14982.94
907.60	15101.72
907.77	15177.50
907.93	15327.00
908.10	15042.33
908.27	15128.35
908.44	15089.43
908.61	14726.94
908.78	15128.35
908.95	15105.82
909.12	15027.99
909.29	14835.49
909.46	14888.73
909.63	15021.85
909.80	14995.23
909.97	14921.50
910.14	15085.34
910.31	14870.30
910.48	14962.46
910.65	15093.53
910.82	14855.97
910.99	14837.53
911.16	14815.01
911.33	14769.95
911.50	14784.29
911.66	14679.84
911.83	14743.33
912.00	14632.74
912.17	14448.42
912.34	14733.09
912.51	14810.91
912.68	14610.21
912.85	14728.99
913.02	14628.64
913.19	14352.16
913.36	14663.46
913.53	14612.26
913.70	14503.71
913.86	14548.77
914.03	14606.11
914.20	14518.05
914.37	14548.77
914.54	14268.20
914.71	14507.81
914.88	14288.68
915.05	14380.84
915.22	14090.02
915.39	14171.94
915.55	14128.94
915.72	14270.25
915.89	14118.70
916.06	13963.05
916.23	14034.73
916.40	14118.70
916.57	13977.39
916.74	14051.11
916.91	14096.17
917.07	13700.91
917.24	13868.84
917.41	13688.62
917.58	13999.91
917.75	13725.49
917.92	13711.15
918.09	13944.62
918.26	13561.65
918.42	13547.31
918.59	13705.01
918.76	13565.74
918.93	13408.05
919.10	13457.20
919.27	13604.66
919.44	13623.09
919.60	13623.09
919.77	13532.98
919.94	13432.63
920.11	13260.60
920.28	13264.69
920.45	13293.37
920.61	13047.61
920.78	13276.98
920.95	12953.40
921.12	13010.75
921.29	12924.73
921.46	12957.50
921.62	12728.13
921.79	12939.07
921.96	12797.76
922.13	12965.69
922.30	12652.35
922.47	12697.41
922.63	12697.41
922.80	12640.06
922.97	12457.79
923.14	12379.97
923.31	12570.43
923.47	12382.02
923.64	12644.16
923.81	12314.44
923.98	12447.55
924.15	12101.45
924.32	12156.74
924.48	12232.52
924.65	12296.00
924.82	12377.92
924.99	12009.29
925.15	11908.94
925.32	12181.32
925.49	11923.27
925.66	11884.36
925.83	11974.47
925.99	11792.20
926.16	11730.76
926.33	11835.21
926.50	11552.59
926.67	11767.63
926.83	11648.85
927.00	11396.95
927.17	11573.07
927.34	11489.10
927.50	11376.47
927.67	11777.87
927.84	11353.94
928.01	11501.39
928.17	11310.93
928.34	11136.85
928.51	11294.55
928.68	11155.29
928.84	10809.18
929.01	10907.48
929.18	10880.86
929.35	10993.50
929.51	10985.30
929.68	10770.27
929.85	10862.43
930.02	10704.73
930.18	10655.58
930.35	10676.06
930.52	10755.93
930.69	10639.20
930.85	10635.10
931.02	10481.50
931.19	10413.92
931.36	10352.48
931.52	10514.27
931.69	10420.06
931.86	10317.67
932.02	10354.53
932.19	10186.60
932.36	10125.16
932.53	10170.21
932.69	10018.66
932.86	10147.69
933.03	9989.99
933.19	9723.76
933.36	9955.18
933.53	9922.41
933.70	9858.92
933.86	9942.89
934.03	9625.45
934.20	9684.84
934.36	9815.91
934.53	9473.90
934.70	9142.13
934.86	9488.24
935.03	9303.92
935.20	9068.41
935.36	9260.91
935.53	8978.30
935.70	9076.60
935.86	9025.40
936.03	9043.83
936.20	8783.74
936.36	8798.07
936.53	8744.83
936.70	8474.49
936.86	8818.55
937.03	8447.87
937.20	8290.18
937.36	8404.86
937.53	8251.27
937.70	8116.10
937.86	7894.92
938.03	7978.89
938.20	8075.14
938.36	7819.14
938.53	7903.11
938.70	7626.64
938.86	7708.55
939.03	7423.89
939.20	7479.18
939.36	7456.65
939.53	7417.74
939.70	7456.65
939.86	6875.03
940.03	7098.26
940.19	6821.78
940.36	6899.61
940.53	6897.56
940.69	6639.51
940.86	6719.39
941.03	6614.94
941.19	6487.96
941.36	6754.20
941.52	6479.77
941.69	6332.32
941.86	6367.13
942.02	6205.35
942.19	6307.74
942.35	6320.03
942.52	6061.99
942.69	6000.55
942.85	5836.71
943.02	6084.52
943.18	6055.84
943.35	5932.97
943.52	5773.22
943.68	5801.90
943.85	5787.56
944.01	5648.30
944.18	5595.05
944.35	5707.69
944.51	5681.07
944.68	5572.52
944.84	5578.67
945.01	5484.46
945.17	5490.60
945.34	5414.83
945.51	5580.71
945.67	5427.12
945.84	5636.01
946.00	5320.62
946.17	5574.57
946.33	5320.62
946.50	5570.48
946.67	5449.64
946.83	5402.54
947.00	5441.45
947.16	5351.34
947.33	5363.63
947.49	5361.58
947.66	5224.37
947.82	5482.41
947.99	5273.52
948.16	5377.97
948.32	5349.29
948.49	5253.04
948.65	5382.06
948.82	5394.35
948.98	5400.49
949.15	5134.26
949.31	5308.34
949.48	5466.03
949.64	5343.15
949.81	5439.40
949.97	5308.34
950.14	5386.16
950.30	5316.53
950.47	5484.46
950.63	5377.97
950.80	5523.37
950.96	5447.60
951.13	5365.68
951.30	5431.21
951.46	5447.60
951.63	5451.69
951.79	5521.32
951.96	5533.61
952.12	5590.95
952.29	5447.60
952.45	5504.94
952.62	5369.77
952.78	5500.84
952.94	5455.79
953.11	5443.50
953.27	5457.84
953.44	5654.44
953.60	5420.97
953.77	5494.70
953.93	5517.23
954.10	5435.31
954.26	5539.76
954.43	5402.54
954.59	5656.49
954.76	5666.73
954.92	5472.17
955.09	5535.66
955.25	5392.30
955.42	5550.00
955.58	5648.30
955.75	5719.98
955.91	5584.81
956.07	5631.91
956.24	5574.57
956.40	5656.49
956.57	5580.71
956.73	5441.45
956.90	5648.30
957.06	5509.04
957.23	5679.02
957.39	5679.02
957.56	5527.47
957.72	5357.49
957.88	5535.66
958.05	5537.71
958.21	5640.11
958.38	5683.11
958.54	5550.00
958.71	5674.92
958.87	5492.65
959.03	5689.26
959.20	5519.28
959.36	5449.64
959.53	5599.15
959.69	5519.28
959.85	5627.82
960.02	5539.76
960.18	5619.63
960.35	5500.84
960.51	5539.76
960.68	5384.11
960.84	5556.14
961.00	5509.04
961.17	5390.25
961.33	5523.37
961.50	5488.56
961.66	5791.66
961.82	5513.13
961.99	5609.39
962.15	5613.48
962.31	5429.17
962.48	5472.17
962.64	5574.57
962.81	5404.59
962.97	5572.52
963.13	5513.13
963.30	5472.17
963.46	5541.80
963.62	5398.45
963.79	5429.17
963.95	5502.89
964.12	5513.13
964.28	5490.60
964.44	5433.26
964.61	5408.69
964.77	5439.40
964.93	5570.48
965.10	5396.40
965.26	5513.13
965.42	5472.17
965.59	5314.48
965.75	5461.93
965.92	5443.50
966.08	5478.32
966.24	5390.25
966.41	5463.98
966.57	5392.30
966.73	5394.35
966.90	5459.88
967.06	5302.19
967.22	5416.88
967.39	5279.66
967.55	5277.62
967.71	5373.87
967.88	5298.10
968.04	5320.62
968.20	5185.46
968.37	5160.88
968.53	5205.94
968.69	5330.86
968.85	5373.87
969.02	5267.38
969.18	5248.94
969.34	5289.90
969.51	5099.44
969.67	5314.48
969.83	5212.08
970.00	5263.28
970.16	5296.05
970.32	5279.66
970.48	5404.59
970.65	5191.60
970.81	5201.84
970.97	5300.14
971.14	5081.01
971.30	5164.98
971.46	5228.46
971.63	5158.83
971.79	5164.98
971.95	5185.46
972.11	5048.24
972.28	5081.01
972.44	5150.64
972.60	5009.33
972.76	4980.66
972.93	5052.34
973.09	5175.22
973.25	5013.43
973.42	4925.36
973.58	5015.48
973.74	5023.67
973.90	4943.80
974.07	4900.79
974.23	5040.05
974.39	5009.33
974.55	4890.55
974.72	4956.08
974.88	4908.98
975.04	4927.41
975.20	4902.84
975.37	4839.35
975.53	4831.16
975.69	4769.72
975.85	4749.24
976.01	4804.53
976.18	4767.67
976.34	4675.51
976.50	4902.84
976.66	4937.65
976.83	4841.40
976.99	4689.85
977.15	4855.73
977.31	4683.70
977.47	4923.32
977.64	4720.57
977.80	4782.01
977.96	4710.33
978.12	4788.15
978.29	4739.00
978.45	4724.66
978.61	4630.46
978.77	4739.00
978.93	4515.77
979.10	4761.53
979.26	4511.68
979.42	4630.46
979.58	4564.92
979.74	4605.88
979.91	4714.42
980.07	4513.72
980.23	4532.15
980.39	4433.85
980.55	4616.12
980.71	4440.00
980.88	4456.38
981.04	4511.68
981.20	4501.44
981.36	4507.58
981.52	4401.08
981.68	4317.12
981.85	4503.48
982.01	4483.00
982.17	4462.52
982.33	4415.42
982.49	4501.44
982.65	4478.91
982.82	4327.36
982.98	4345.79
983.14	4288.45
983.30	4411.32
983.46	4450.24
983.62	4319.17
983.79	4327.36
983.95	4317.12
984.11	4288.45
984.27	4353.98
984.43	4212.67
984.59	4290.49
984.75	4384.70
984.91	4255.68
985.08	4343.74
985.24	4220.86
985.40	4339.65
985.56	4214.72
985.72	4276.16
985.88	4349.89
986.04	4229.06
986.20	4202.43
986.37	4249.54
986.53	4052.93
986.69	4173.76
986.85	4122.56
987.01	4038.59
987.17	3930.05
987.33	4083.65
987.49	4093.89
987.65	4110.27
987.82	4069.31
987.98	4093.89
988.14	3985.35
988.30	4063.17
988.46	3948.48
988.62	4124.61
988.78	3997.64
988.94	3991.49
989.10	3934.15
989.26	3999.68
989.42	3891.14
989.59	3878.85
989.75	3987.40
989.91	3831.75
990.07	3858.37
990.23	3815.37
990.39	3841.99
990.55	3911.62
990.71	3758.02
990.87	3844.04
991.03	3887.04
991.19	3956.68
991.35	3936.20
991.51	3919.81
991.67	3876.80
991.83	3821.51
992.00	3885.00
992.16	3788.74
992.32	3870.66
992.48	3854.28
992.64	3846.09
992.80	3852.23
992.96	3854.28
993.12	3854.28
993.28	3819.46
993.44	3704.78
993.60	3680.20
993.76	3708.87
993.92	3620.81
994.08	3778.50
994.24	3569.61
994.40	3645.38
994.56	3829.70
994.72	3553.23
994.88	3686.34
995.04	3614.66
995.20	3551.18
995.36	3557.32
995.52	3561.42
995.68	3647.43
995.84	3536.84
996.00	3647.43
996.16	3588.04
996.32	3508.17
996.48	3579.85
996.64	3612.62
996.80	3424.20
996.96	3575.75
997.12	3583.95
997.28	3452.88
997.44	3436.49
997.60	3514.31
997.76	3407.82
997.92	3403.72
998.08	3475.40
998.24	3233.74
998.40	3475.40
998.56	3647.43
998.72	3364.81
998.88	3280.85
999.04	3319.76
999.20	3436.49
999.36	3266.51
999.52	3493.83
999.68	3387.34
999.84	3352.52
1000.00	3352.52
1000.16	3383.24
1000.32	3241.93
1000.48	3379.15
1000.64	3297.23
1000.80	3295.18
1000.95	3243.98
1001.11	3295.18
1001.27	3170.26
1001.43	3291.09
1001.59	3330.00
1001.75	3192.78
1001.91	3166.16
1002.07	3080.14
1002.23	3157.97
1002.39	3213.26
1002.55	3114.96
1002.71	3180.50
1002.87	3184.59
1003.03	3213.26
1003.19	3127.25
1003.34	3252.17
1003.50	3061.71
1003.66	3344.33
1003.82	3141.58
1003.98	3135.44
1004.14	3084.24
1004.30	3014.61
1004.46	3129.30
1004.62	3084.24
1004.78	3100.62
1004.94	3061.71
1005.09	3117.01
1005.25	3010.51
1005.41	3078.10
1005.57	3057.62
1005.73	3086.29
1005.89	3024.85
1006.05	3033.04
1006.21	3114.96
1006.37	2977.75
1006.52	2967.51
1006.68	2891.73
1006.84	2906.07
1007.00	2973.65
1007.16	2906.07
1007.32	2901.97
1007.48	3022.80
1007.64	3016.66
1007.79	2965.46
1007.95	2820.05
1008.11	2930.64
1008.27	2852.82
1008.43	2844.63
1008.59	2805.72
1008.75	3000.27
1008.91	2944.98
1009.06	2836.44
1009.22	2883.54
1009.38	2809.81
1009.54	2887.64
1009.70	2836.44
1009.86	2824.15
1010.01	2830.29
1010.17	2805.72
1010.33	2840.53
1010.49	2815.96
1010.65	2944.98
1010.81	2793.43
1010.96	2805.72
1011.12	2734.04
1011.28	2815.96
1011.44	2783.19
1011.60	2768.85
1011.76	2703.32
1011.91	2836.44
1012.07	2666.46
1012.23	2629.59
1012.39	2629.59
1012.55	2768.85
1012.71	2703.32
1012.86	2664.41
1013.02	2703.32
1013.18	2654.17
1013.34	2600.92
1013.50	2754.52
1013.65	2613.21
1013.81	2584.54
1013.97	2602.97
1014.13	2598.87
1014.29	2654.17
1014.44	2781.14
1014.60	2666.46
1014.76	2586.58
1014.92	2541.53
1015.07	2592.73
1015.23	2674.65
1015.39	2553.82
1015.55	2598.87
1015.71	2467.80
1015.86	2586.58
1016.02	2545.63
1016.18	2473.95
1016.34	2578.39
1016.49	2580.44
1016.65	2672.60
1016.81	2527.19
1016.97	2516.95
1017.12	2510.81
1017.28	2469.85
1017.44	2447.32
1017.60	2471.90
1017.75	2525.15
1017.91	2469.85
1018.07	2514.91
1018.23	2484.19
1018.38	2449.37
1018.54	2467.80
1018.70	2478.04
1018.86	2351.07
1019.01	2387.93
1019.17	2453.47
1019.33	2486.23
1019.49	2342.88
1019.64	2545.63
1019.80	2406.36
1019.96	2441.18
1020.12	2502.62
1020.27	2387.93
1020.43	2396.12
1020.59	2400.22
1020.74	2326.49
1020.90	2461.66
1021.06	2375.64
1021.22	2383.84
1021.37	2430.94
1021.53	2310.11
1021.69	2369.50
1021.84	2242.53
1022.00	2408.41
1022.16	2353.12
1022.31	2363.36
1022.47	2375.64
1022.63	2402.27
1022.79	2252.77
1022.94	2297.82
1023.10	2334.68
1023.26	2373.60
1023.41	2252.77
1023.57	2314.20
1023.73	2318.30
1023.88	2215.90
1024.04	2277.34
1024.20	2322.40
1024.35	2359.26
1024.51	2303.96
1024.67	2265.05
1024.82	2271.20
1024.98	2140.13
1025.14	2230.24
1025.29	2211.81
1025.45	2328.54
1025.61	2256.86
1025.76	2187.23
1025.92	2224.09
1026.08	2207.71
1026.23	2209.76
1026.39	2256.86
1026.55	2201.57
1026.70	2238.43
1026.86	2222.05
1027.02	2297.82
1027.17	2211.81
1027.33	2314.20
1027.48	2191.33
1027.64	2027.49
1027.80	2170.85
1027.95	2197.47
1028.11	2131.94
1028.27	2201.57
1028.42	2168.80
1028.58	2064.35
1028.73	2023.39
1028.89	2074.59
1029.05	2170.85
1029.20	2062.30
>>>>>End Processed Spectral Data<<<<<
