SpectraSuite Data File
++++++++++++++++++++++++++++++++++++
Date: Fri Jun 02 14:57:23 CEST 2017
User: INFO_000
Dark Spectrum Present: No
Reference Spectrum Present: No
Number of Sampled Component Spectra: 1
Spectrometers: USB4H00879
Integration Time (usec): 80000 (USB4H00879)
Spectra Averaged: 1 (USB4H00879)
Boxcar Smoothing: 0 (USB4H00879)
Correct for Electrical Dark: No (USB4H00879)
Strobe/Lamp Enabled: No (USB4H00879)
Correct for Detector Non-linearity: No (USB4H00879)
Correct for Stray Light: No (USB4H00879)
Number of Pixels in Processed Spectrum: 3648
>>>>>Begin Processed Spectral Data<<<<<
345.13	1267.69
345.34	1267.69
345.56	1267.69
345.78	1294.32
345.99	1273.84
346.21	1693.67
346.42	1732.58
346.64	1613.80
346.86	1814.50
347.07	1675.24
347.29	1710.05
347.50	1576.94
347.72	1736.68
347.94	1724.39
348.15	1525.74
348.37	1624.04
348.59	1644.52
348.80	1650.66
349.02	1718.25
349.23	1839.08
349.45	1806.31
349.67	1882.08
349.88	1826.79
350.10	1953.76
350.31	1863.65
350.53	1789.92
350.75	2017.25
350.96	1767.40
351.18	1843.17
351.39	1900.52
351.61	1810.40
351.82	1845.22
352.04	1845.22
352.26	1839.08
352.47	1875.94
352.69	1859.56
352.90	1771.49
353.12	1894.37
353.34	1771.49
353.55	1916.90
353.77	1877.99
353.98	1824.74
354.20	1861.60
354.41	1961.95
354.63	1953.76
354.85	2078.69
355.06	1896.42
355.28	1818.60
355.49	1740.77
355.71	1853.41
355.92	1927.14
356.14	1896.42
356.35	1814.50
356.57	1877.99
356.79	1961.95
357.00	1867.75
357.22	1990.63
357.43	1894.37
357.65	1986.53
357.86	1812.45
358.08	1888.23
358.29	1957.86
358.51	2019.30
358.72	2009.06
358.94	1900.52
359.16	1935.33
359.37	1918.95
359.59	1875.94
359.80	1994.72
360.02	1935.33
360.23	1996.77
360.45	2052.06
360.66	1955.81
360.88	1896.42
361.09	1826.79
361.31	1970.15
361.52	2015.20
361.74	2031.58
361.95	2080.74
362.17	1980.39
362.38	2125.79
362.60	2058.21
362.81	2086.88
363.03	1957.86
363.24	1937.38
363.46	2146.27
363.67	2011.11
363.89	1996.77
364.10	1986.53
364.32	1978.34
364.53	2082.78
364.75	1918.95
364.96	2011.11
365.18	2054.11
365.39	2015.20
365.61	1955.81
365.82	2150.37
366.04	2025.44
366.25	1939.43
366.47	2031.58
366.68	2093.02
366.90	2017.25
367.11	2090.98
367.33	2109.41
367.54	2107.36
367.76	1994.72
367.97	2068.45
368.19	1998.82
368.40	2084.83
368.62	1896.42
368.83	1982.43
369.05	2154.46
369.26	1982.43
369.48	2002.91
369.69	2052.06
369.91	2031.58
370.12	1992.67
370.33	2121.70
370.55	1994.72
370.76	2015.20
370.98	2047.97
371.19	1943.52
371.41	2097.12
371.62	2068.45
371.84	1896.42
372.05	2240.48
372.27	2037.73
372.48	2066.40
372.69	2050.02
372.91	2176.99
373.12	2099.17
373.34	2117.60
373.55	2115.55
373.77	2103.26
373.98	2056.16
374.20	2115.55
374.41	2238.43
374.62	2039.78
374.84	2146.27
375.05	2181.09
375.27	2174.94
375.48	2187.23
375.70	2131.94
375.91	2250.72
376.12	2189.28
376.34	2232.29
376.55	2232.29
376.77	2176.99
376.98	2154.46
377.19	2058.21
377.41	2072.54
377.62	2215.90
377.84	2283.49
378.05	2400.22
378.27	2220.00
378.48	2299.87
378.69	2361.31
378.91	2326.49
379.12	2193.37
379.34	2306.01
379.55	2187.23
379.76	2299.87
379.98	2258.91
380.19	2357.21
380.41	2248.67
380.62	2312.16
380.83	2203.61
381.05	2236.38
381.26	2377.69
381.47	2189.28
381.69	2346.97
381.90	2369.50
382.12	2228.19
382.33	2316.25
382.54	2293.72
382.76	2271.20
382.97	2320.35
383.19	2193.37
383.40	2279.39
383.61	2273.25
383.83	2328.54
384.04	2344.92
384.25	2396.12
384.47	2340.83
384.68	2295.77
384.89	2248.67
385.11	2324.44
385.32	2332.64
385.54	2400.22
385.75	2349.02
385.96	2430.94
386.18	2461.66
386.39	2463.71
386.60	2420.70
386.82	2414.56
387.03	2488.28
387.24	2496.47
387.46	2418.65
387.67	2412.51
387.88	2547.67
388.10	2443.23
388.31	2527.19
388.52	2590.68
388.74	2564.06
388.95	2400.22
389.16	2519.00
389.38	2566.10
389.59	2535.39
389.80	2615.26
390.02	2553.82
390.23	2672.60
390.44	2615.26
390.66	2516.95
390.87	2498.52
391.08	2637.78
391.30	2740.18
391.51	2652.12
391.72	2584.54
391.94	2592.73
392.15	2697.17
392.36	2621.40
392.58	2695.13
392.79	2715.61
393.00	2652.12
393.22	2709.46
393.43	2635.74
393.64	2826.20
393.85	2754.52
394.07	2688.98
394.28	2672.60
394.49	2703.32
394.71	2750.42
394.92	2760.66
395.13	2736.09
395.35	2729.94
395.56	2719.70
395.77	2695.13
395.98	2740.18
396.20	2824.15
396.41	2822.10
396.62	2875.35
396.84	2840.53
397.05	2891.73
397.26	2875.35
397.47	2947.03
397.69	2797.53
397.90	3018.71
398.11	2944.98
398.32	2920.40
398.54	2858.96
398.75	2889.68
398.96	2934.74
399.18	3137.49
399.39	2973.65
399.60	3086.29
399.81	2955.22
400.03	2971.60
400.24	3215.31
400.45	2920.40
400.66	3112.91
400.88	2928.60
401.09	3213.26
401.30	3006.42
401.51	3131.34
401.73	3028.95
401.94	3100.62
402.15	3059.67
402.36	3139.54
402.58	3155.92
402.79	3114.96
403.00	3088.34
403.21	3192.78
403.43	3239.89
403.64	3282.89
403.85	3168.21
404.06	3174.35
404.27	3041.23
404.49	3239.89
404.70	3125.20
404.91	3164.11
405.12	3131.34
405.34	3211.22
405.55	3278.80
405.76	3198.93
405.97	3198.93
406.19	3461.07
406.40	3231.69
406.61	3313.61
406.82	3303.37
407.03	3256.27
407.25	3194.83
407.46	3426.25
407.67	3440.59
407.88	3524.55
408.09	3420.11
408.31	3416.01
408.52	3397.58
408.73	3305.42
408.94	3334.09
409.15	3475.40
409.37	3522.51
409.58	3485.64
409.79	3459.02
410.00	3497.93
410.21	3461.07
410.43	3436.49
410.64	3284.94
410.85	3559.37
411.06	3592.14
411.27	3491.79
411.48	3551.18
411.70	3504.07
411.91	3483.59
412.12	3686.34
412.33	3579.85
412.54	3579.85
412.76	3616.71
412.97	3686.34
413.18	3542.99
413.39	3577.80
413.60	3633.10
413.81	3661.77
414.03	3612.62
414.24	3594.19
414.45	3844.04
414.66	3573.71
414.87	3696.58
415.08	3729.35
415.30	3680.20
415.51	3792.84
415.72	3758.02
415.93	3731.40
416.14	3821.51
416.35	3737.54
416.56	3858.37
416.78	3889.09
416.99	3850.18
417.20	3743.69
417.41	3907.52
417.62	3846.09
417.83	3882.95
418.04	3964.87
418.26	3928.00
418.47	3905.48
418.68	3987.40
418.89	3919.81
419.10	4143.04
419.31	3983.30
419.52	4042.69
419.73	4028.35
419.95	4145.09
420.16	3872.71
420.37	4071.36
420.58	4114.37
420.79	3911.62
421.00	4065.22
421.21	4075.46
421.42	4054.98
421.63	4173.76
421.85	4136.90
422.06	4108.23
422.27	4042.69
422.48	4167.62
422.69	4245.44
422.90	4292.54
423.11	4173.76
423.32	4423.61
423.53	4333.50
423.75	4284.35
423.96	4347.84
424.17	4353.98
424.38	4470.72
424.59	4464.57
424.80	4698.04
425.01	4431.80
425.22	4341.69
425.43	4470.72
425.64	4546.49
425.85	4693.94
426.06	4566.97
426.28	4517.82
426.49	4534.20
426.70	4540.35
426.91	4591.55
427.12	4710.33
427.33	4495.29
427.54	4569.02
427.75	4722.62
427.96	4732.86
428.17	4779.96
428.38	4769.72
428.59	4812.73
428.80	4753.34
429.01	4751.29
429.23	4915.12
429.44	4921.27
429.65	4951.99
429.86	4767.67
430.07	4849.59
430.28	4870.07
430.49	4902.84
430.70	5142.45
430.91	5117.87
431.12	5193.65
431.33	5095.35
431.54	5068.72
431.75	5124.02
431.96	5189.55
432.17	5042.10
432.38	5115.83
432.59	5267.38
432.80	5246.90
433.01	5375.92
433.22	5283.76
433.43	5207.98
433.64	5154.74
433.85	5214.13
434.06	5285.81
434.27	5253.04
434.49	5459.88
434.70	5427.12
434.91	5537.71
435.12	5388.21
435.33	5318.57
435.54	5463.98
435.75	5298.10
435.96	5414.83
436.17	5359.53
436.38	5459.88
436.59	5576.62
436.80	5521.32
437.01	5801.90
437.22	5726.12
437.43	5580.71
437.64	5384.11
437.85	5814.18
438.06	5760.94
438.27	5439.40
438.48	5599.15
438.69	5636.01
438.90	5668.78
439.11	5781.42
439.32	5863.33
439.53	5736.36
439.74	5699.50
439.95	5799.85
440.16	5857.19
440.37	5857.19
440.57	5762.98
440.78	5957.54
440.99	6010.79
441.20	5935.01
441.41	5859.24
441.62	5910.44
441.83	5832.62
442.04	6098.85
442.25	6092.71
442.46	6113.19
442.67	6033.32
442.88	6440.86
443.09	5955.49
443.30	6078.37
443.51	6129.57
443.72	6320.03
443.93	6086.56
444.14	6371.23
444.35	6000.55
444.56	6299.55
444.77	6195.11
444.98	6412.19
445.19	6342.56
445.40	6344.61
445.61	6299.55
445.81	6483.87
446.02	6436.77
446.23	6406.05
446.44	6217.63
446.65	6424.48
446.86	6567.84
447.07	6483.87
447.28	6713.24
447.49	6619.04
447.70	6414.24
447.91	6713.24
448.12	6571.93
448.33	6651.80
448.54	6805.40
448.74	6635.42
448.95	6774.68
449.16	6760.34
449.37	7024.53
449.58	6705.05
449.79	6829.98
450.00	6758.30
450.21	6963.09
450.42	6868.89
450.63	6924.18
450.84	6975.38
451.05	6944.66
451.25	6942.61
451.46	6838.17
451.67	7192.47
451.88	7268.24
452.09	7081.88
452.30	7135.12
452.51	7002.01
452.72	7120.79
452.93	7427.98
453.13	7143.32
453.34	7198.61
453.55	7184.27
453.76	7325.58
453.97	7579.53
454.18	7352.21
454.39	7446.41
454.60	7536.52
454.81	7518.09
455.01	7577.48
455.22	7423.89
455.43	7479.18
455.64	7677.83
455.85	7786.38
456.06	7911.30
456.27	7657.36
456.48	7688.07
456.68	7729.03
456.89	7835.53
457.10	7870.34
457.31	7942.02
457.52	8003.46
457.73	8122.24
457.94	8122.24
458.14	7735.18
458.35	8357.76
458.56	8271.75
458.77	8171.40
458.98	8267.65
459.19	8275.84
459.39	8204.16
459.60	8677.24
459.81	8341.38
460.02	8644.48
460.23	8408.96
460.44	8660.86
460.65	8482.69
460.85	8585.08
461.06	8712.06
461.27	8390.53
461.48	9092.98
461.69	8824.70
461.89	8648.57
462.10	9000.82
462.31	8546.17
462.52	8730.49
462.73	8877.94
462.94	9148.28
463.14	9117.56
463.35	8970.10
463.56	9461.62
463.77	9314.16
463.98	9097.08
464.18	9174.90
464.39	9293.68
464.60	9523.05
464.81	9535.34
465.02	9475.95
465.23	9717.61
465.43	9529.20
465.64	9869.16
465.85	9785.19
466.06	9717.61
466.27	10024.81
466.47	10016.62
466.68	9932.65
466.89	9895.78
467.10	9969.51
467.30	9951.08
467.51	10094.44
467.72	10293.09
467.93	10295.14
468.14	10174.31
468.34	10547.04
468.55	10360.67
468.76	10440.54
468.97	10454.88
469.17	10784.60
469.38	10604.38
469.59	10907.48
469.80	10665.82
470.01	10594.14
470.21	10866.52
470.42	11116.37
470.63	11177.81
470.84	11237.20
471.04	11099.99
471.25	11130.71
471.46	11235.16
471.67	11560.78
471.87	11542.35
472.08	11394.90
472.29	11751.24
472.50	11425.62
472.70	11642.70
472.91	11769.68
473.12	11970.38
473.33	12177.22
473.53	11878.22
473.74	11956.04
473.95	12064.58
474.16	12238.66
474.36	12255.04
474.57	12447.55
474.78	12588.86
474.99	12468.03
475.19	12480.32
475.40	12719.93
475.61	13127.48
475.81	12959.55
476.02	13127.48
476.23	12881.72
476.44	13168.44
476.64	13317.94
476.85	13569.84
477.06	13444.91
477.27	13430.58
477.47	13698.86
477.68	13668.14
477.89	13860.65
478.09	13987.63
478.30	13965.10
478.51	14051.11
478.71	14204.71
478.92	14128.94
479.13	14270.25
479.34	14552.87
479.54	14350.12
479.75	14429.99
479.96	14546.72
480.16	14645.02
480.37	14774.05
480.58	14778.14
480.78	15132.44
480.99	15093.53
481.20	15286.04
481.41	15554.32
481.61	15476.50
481.82	15499.03
482.03	15572.75
482.23	15587.09
482.44	15890.19
482.65	15871.76
482.85	16006.92
483.06	16060.17
483.27	16209.67
483.47	16097.03
483.68	16142.09
483.89	16312.07
484.09	16189.19
484.30	16617.22
484.51	16697.09
484.71	16715.52
484.92	16842.50
485.13	16731.90
485.33	16897.79
485.54	16842.50
485.75	17422.07
485.95	17567.48
486.16	17358.58
486.37	17393.40
486.57	17575.67
486.78	17422.07
486.98	17387.25
487.19	17905.39
487.40	17919.73
487.60	17889.01
487.81	18210.54
488.02	18147.05
488.22	18040.56
488.43	18362.09
488.64	18433.77
488.84	18329.32
489.05	18687.71
489.25	18441.96
489.46	18902.75
489.67	18718.43
489.87	19025.63
490.08	19027.68
490.29	19232.47
490.49	19205.85
490.70	19341.02
490.90	19371.74
491.11	19445.46
491.32	19482.33
491.52	19523.29
491.73	19953.36
491.94	19670.74
492.14	19922.64
492.35	19842.77
492.55	19928.78
492.76	20340.43
492.97	20375.24
493.17	19959.50
493.38	20446.92
493.58	20471.50
493.79	20471.50
494.00	20375.24
494.20	20614.85
494.41	20831.94
494.61	20838.08
494.82	20930.24
495.02	20688.58
495.23	21065.41
495.44	21231.29
495.64	21348.03
495.85	21597.88
496.05	21290.68
496.26	21362.36
496.47	21847.73
496.67	21434.04
496.88	21661.37
497.08	21624.50
497.29	21980.85
497.49	21950.13
497.70	21882.55
497.91	22152.88
498.11	22212.27
498.32	22224.56
498.52	22191.79
498.73	22750.88
498.93	22685.35
499.14	22750.88
499.34	22734.50
499.55	22720.17
499.76	22578.86
499.96	22765.22
500.17	22752.93
500.37	23226.01
500.58	23107.23
500.78	23150.24
500.99	23244.45
501.19	23502.49
501.40	22795.94
501.60	23357.08
501.81	23543.45
502.02	23811.73
502.22	23432.86
502.43	23611.03
502.63	23840.40
502.84	23991.95
503.04	23815.83
503.25	23946.90
503.45	23996.05
503.66	24198.80
503.86	24180.37
504.07	24311.44
504.27	24264.33
504.48	24442.51
504.68	24368.78
504.89	24708.74
505.09	24620.68
505.30	24622.73
505.50	24839.81
505.71	24974.98
505.91	24698.50
506.12	24645.26
506.32	24852.10
506.53	24854.15
506.73	25241.21
506.94	25310.85
507.14	25085.57
507.35	24934.02
507.55	25239.17
507.76	25333.37
507.96	25409.15
508.17	25456.25
508.37	25620.09
508.58	25624.18
508.78	25624.18
508.99	25777.78
509.19	25722.49
509.40	25624.18
509.60	26209.90
509.81	25976.44
510.01	25728.63
510.22	26132.08
510.42	26076.79
510.63	26322.54
510.83	26127.99
511.04	26388.08
511.24	26164.85
511.44	26433.13
511.65	26480.24
511.85	26375.79
512.06	26257.01
512.26	26510.96
512.47	26566.25
512.67	26578.54
512.88	26355.31
513.08	26513.00
513.29	26543.72
513.49	27106.91
513.69	27010.66
513.90	26746.47
514.10	27221.60
514.31	27045.48
514.51	26904.17
514.72	27149.92
514.92	27248.22
515.13	26887.78
515.33	27274.85
515.53	27475.55
515.74	27258.46
515.94	27530.84
516.15	27592.28
516.35	27444.83
516.56	27670.11
516.76	27737.69
516.96	27915.86
517.17	28139.09
517.37	27684.44
517.58	28137.04
517.78	27938.39
517.99	28253.78
518.19	28102.23
518.39	27956.82
518.60	28225.11
518.80	28155.47
519.01	28468.81
519.21	28307.02
519.41	28311.12
519.62	28227.15
519.82	28769.86
520.03	28802.63
520.23	28741.19
520.43	28685.90
520.64	29040.20
520.84	29277.76
521.05	29142.60
521.25	29105.73
521.45	29109.83
521.66	29095.49
521.86	29550.14
522.07	29519.42
522.27	29152.84
522.47	29384.26
522.68	29859.38
522.88	29462.08
523.08	30021.17
523.29	29791.80
523.49	30191.16
523.70	29890.10
523.90	30125.62
524.10	29906.49
524.31	30438.96
524.51	30047.80
524.71	30262.83
524.92	30246.45
525.12	30647.85
525.33	30813.74
525.53	30789.16
525.73	30809.64
525.94	30737.96
526.14	30766.63
526.34	31301.15
526.55	31217.19
526.75	31133.22
526.95	31245.86
527.16	31153.70
527.36	31303.20
527.56	31370.79
527.77	31622.69
527.97	31565.34
528.17	31759.90
528.38	32001.56
528.58	31936.02
528.78	32017.94
528.99	31856.15
529.19	32599.57
529.39	32136.73
529.60	32814.60
529.80	32318.99
530.00	32607.76
530.21	33058.31
530.41	32708.11
530.61	32441.87
530.82	32970.25
531.02	32812.56
531.22	33316.36
531.43	33222.15
531.63	33191.43
531.83	33588.74
532.04	33465.86
532.24	33281.54
532.44	33541.63
532.64	33928.70
532.85	33738.24
533.05	33662.46
533.25	34035.19
533.46	33936.89
533.66	34299.38
533.86	33756.67
534.07	34627.06
534.27	34522.61
534.47	34588.14
534.67	34729.45
534.88	34670.06
535.08	34590.19
535.28	34921.96
535.49	35112.42
535.69	35552.74
535.89	35345.89
536.09	35532.26
536.30	35534.31
536.50	35573.22
536.70	35413.48
536.91	35319.27
537.11	35589.60
537.31	35956.19
537.51	35716.58
537.72	36382.16
537.92	36308.44
538.12	36328.92
538.32	35950.04
538.53	36632.02
538.73	36558.29
538.93	36443.60
539.13	36359.64
539.34	36492.76
539.54	36388.31
539.74	36660.69
539.94	36754.90
540.15	36761.04
540.35	37209.54
540.55	37074.38
540.75	37205.45
540.96	37119.43
541.16	37113.29
541.36	37406.15
541.56	37520.84
541.77	37817.79
541.97	37830.08
542.17	37918.14
542.37	37639.62
542.58	37942.72
542.78	37928.38
542.98	37971.39
543.18	38430.13
543.38	38157.75
543.59	38673.84
543.79	38100.41
543.99	38229.43
544.19	38743.47
544.40	38475.19
544.60	38778.29
544.80	38598.07
545.00	39112.11
545.20	39167.40
545.41	38913.45
545.61	38479.28
545.81	39065.00
546.01	39353.77
546.21	39200.17
546.42	38917.55
546.62	39366.06
546.82	39251.37
547.02	39421.35
547.22	39568.80
547.43	39554.47
547.63	39392.68
547.83	39505.32
548.03	39636.39
548.23	40109.47
548.44	39873.95
548.64	39810.46
548.84	39839.14
549.04	39951.77
549.24	39744.93
549.45	40387.99
549.65	40197.53
549.85	40080.80
550.05	40525.21
550.25	40457.62
550.45	40861.07
550.66	40844.69
550.86	40818.07
551.06	40687.00
551.26	40705.43
551.46	41098.64
551.66	40895.89
551.87	40643.99
552.07	40754.58
552.27	40928.66
552.47	41160.08
552.67	41311.63
552.87	41090.44
553.07	41051.53
553.28	41538.95
553.48	41117.07
553.68	41170.32
553.88	41530.76
554.08	41276.81
554.28	41344.39
554.48	40940.94
554.69	41749.89
554.89	41819.52
555.09	41655.68
555.29	41819.52
555.49	41657.73
555.69	41637.25
555.89	41883.01
556.10	41651.59
556.30	41520.52
556.50	42270.08
556.70	41819.52
556.90	42128.77
557.10	42188.16
557.30	42147.20
557.50	42327.42
557.70	42249.60
557.91	42372.47
558.11	41989.50
558.31	42433.91
558.51	42438.01
558.71	42470.78
558.91	42685.81
559.11	42335.61
559.31	42667.38
559.51	42487.16
559.72	42689.91
559.92	42360.19
560.12	42380.67
560.32	42569.08
560.52	42614.13
560.72	42968.43
560.92	42872.18
561.12	43068.78
561.32	43115.89
561.52	42941.81
561.72	43238.76
561.93	42906.99
562.13	43488.62
562.33	42575.22
562.53	43388.27
562.73	42925.42
562.93	43160.94
563.13	43386.22
563.33	43011.44
563.53	43359.59
563.73	43259.24
563.93	43335.02
564.13	43539.82
564.33	43494.76
564.53	43554.15
564.74	43521.38
564.94	43586.92
565.14	43617.64
565.34	43478.38
565.54	43771.24
565.74	43937.12
565.94	43625.83
566.14	43890.02
566.34	43517.29
566.54	43982.18
566.74	43869.54
566.94	43908.45
567.14	44012.90
567.34	43871.59
567.54	44025.18
567.74	43726.18
567.94	44127.58
568.14	44092.77
568.34	43947.36
568.54	44211.55
568.74	44225.89
568.94	44293.47
569.14	44604.76
569.34	44203.36
569.54	44383.58
569.75	43920.74
569.95	44258.65
570.15	44750.17
570.35	44473.69
570.55	44291.42
570.75	44807.51
570.95	44823.89
571.15	45102.42
571.35	44514.65
571.55	44672.34
571.75	44229.98
571.95	44612.95
572.15	44586.33
572.35	45077.84
572.55	44848.47
572.75	44653.91
572.95	44909.91
573.15	44770.64
573.35	45018.45
573.55	44660.05
573.75	45053.26
573.95	44928.34
574.15	45122.90
574.35	45354.32
574.55	45090.13
574.75	45075.79
574.95	45335.88
575.15	45579.59
575.34	45237.58
575.54	45491.53
575.74	45569.35
575.94	45737.29
576.14	45608.26
576.34	45827.40
576.54	46032.19
576.74	46060.87
576.94	45688.13
577.14	46021.95
577.34	46093.63
577.54	45645.13
577.74	45854.02
577.94	46040.39
578.14	45741.38
578.34	45743.43
578.54	45264.21
578.74	45765.96
578.94	46384.44
579.14	46052.67
579.34	46327.10
579.54	46341.44
579.74	46400.83
579.94	46044.48
580.13	46724.41
580.33	46378.30
580.53	46775.61
580.73	46556.47
580.93	46835.00
581.13	46579.00
581.33	46722.36
581.53	47121.71
581.73	46730.55
581.93	46878.00
582.13	47123.76
582.33	47142.19
582.53	47078.71
582.73	47168.82
582.92	47111.47
583.12	47193.39
583.32	47433.00
583.52	46968.12
583.72	47326.51
583.92	47287.60
584.12	47271.21
584.32	47648.04
584.52	47500.59
584.72	47310.13
584.92	47861.03
585.11	48069.92
585.31	48141.60
585.51	47863.08
585.71	47805.73
585.91	47797.54
586.11	47443.24
586.31	48241.95
586.51	48041.25
586.71	47985.96
586.91	48190.75
587.10	48188.70
587.30	48401.69
587.50	48565.53
587.70	48239.90
587.90	48385.31
588.10	48555.29
588.30	48200.99
588.50	48604.44
588.69	48622.87
588.89	48321.82
589.09	48469.28
589.29	48532.76
589.49	48887.06
589.69	48147.75
589.89	48710.94
590.08	48833.81
590.28	48721.18
590.48	48500.00
590.68	48629.02
590.88	49100.05
591.08	48897.30
591.28	48885.01
591.47	49108.24
591.67	48727.32
591.87	49011.99
592.07	49175.83
592.27	49470.73
592.47	49726.73
592.67	49052.95
592.86	49075.48
593.06	49399.05
593.26	49485.07
593.46	49575.18
593.66	49427.73
593.86	49231.12
594.05	49601.80
594.25	49882.37
594.45	49403.15
594.65	49624.33
594.85	48915.73
595.05	49681.67
595.24	49806.60
595.44	49739.02
595.64	49890.57
595.84	49816.84
596.04	50035.97
596.23	49790.22
596.43	50369.79
596.63	49700.11
596.83	49890.57
597.03	50271.49
597.22	50584.83
597.42	50328.83
597.62	50932.98
597.82	50509.05
598.02	50230.53
598.21	50605.31
598.41	50482.43
598.61	50748.67
598.81	50576.64
599.01	50709.75
599.20	50593.02
599.40	50558.20
599.60	50595.07
599.80	51113.20
600.00	50578.68
600.19	51242.23
600.39	50636.03
600.59	51457.26
600.79	51102.96
600.98	50789.62
601.18	51254.51
601.38	51369.20
601.58	51932.39
601.78	51487.98
601.97	51285.23
602.17	51840.23
602.37	51162.36
602.57	51328.24
602.76	52135.14
602.96	51752.17
603.16	51848.42
603.36	52026.60
603.55	52180.20
603.75	51959.02
603.95	51870.95
604.15	51899.62
604.34	51875.05
604.54	52241.63
604.74	51946.73
604.94	51791.08
605.13	52337.89
605.33	52206.82
605.53	52104.42
605.73	52655.32
605.92	52176.10
606.12	52540.64
606.32	52698.33
606.52	52331.75
606.71	52350.18
606.91	52970.71
607.11	52290.79
607.30	52477.15
607.50	52983.00
607.70	52600.03
607.90	52421.86
608.09	52503.77
608.29	52976.86
608.49	53069.01
608.68	52608.22
608.88	53183.70
609.08	53155.03
609.28	53161.17
609.47	52751.58
609.67	53486.80
609.87	53339.35
610.06	53357.78
610.26	53255.38
610.46	53497.04
610.66	53333.20
610.85	53494.99
611.05	53425.36
611.25	53204.18
611.44	53322.96
611.64	53804.24
611.84	53355.73
612.03	53300.43
612.23	53738.70
612.43	53777.61
612.62	53411.02
612.82	53570.77
613.02	53587.15
613.21	53384.40
613.41	53449.94
613.61	53632.21
613.80	53597.39
614.00	53908.68
614.20	53589.20
614.39	53548.24
614.59	53560.53
614.79	53738.70
614.98	53769.42
615.18	53798.09
615.38	53724.36
615.57	53523.66
615.77	53734.60
615.97	53789.90
616.16	54228.16
616.36	53765.32
616.56	54314.18
616.75	53943.50
616.95	53462.22
617.15	53953.74
617.34	54254.79
617.54	53744.84
617.74	54394.05
617.93	54009.03
618.13	53671.12
618.32	53814.47
618.52	53966.02
618.72	54310.08
618.91	53859.53
619.11	53968.07
619.31	54004.94
619.50	54111.43
619.70	53824.71
619.90	53951.69
620.09	54174.92
620.29	53779.66
620.48	53886.15
620.68	54475.97
620.88	53765.32
621.07	54226.12
621.27	54404.29
621.46	53859.53
621.66	53972.17
621.86	54146.25
622.05	53943.50
622.25	54183.11
622.44	53998.79
622.64	53933.26
622.84	54074.57
623.03	54129.86
623.23	54146.25
623.42	54254.79
623.62	53814.47
623.82	53847.24
624.01	54252.74
624.21	54060.23
624.40	53918.92
624.60	54136.01
624.80	53769.42
624.99	54150.34
625.19	53662.93
625.38	54066.38
625.58	54150.34
625.77	54240.45
625.97	54271.17
626.17	53992.65
626.36	54086.85
626.56	54703.29
626.75	53445.84
626.95	54215.88
627.14	53785.80
627.34	54553.79
627.54	54146.25
627.73	54023.37
627.93	54475.97
628.12	53953.74
628.32	53810.38
628.51	54453.44
628.71	54348.99
628.90	54613.18
629.10	54484.16
629.30	54179.01
629.49	54392.00
629.69	54600.89
629.88	54375.62
630.08	54781.12
630.27	54559.94
630.47	54711.49
630.66	54359.23
630.86	54629.57
631.05	54291.65
631.25	54791.36
631.44	54416.58
631.64	54121.67
631.84	54754.49
632.03	54834.36
632.23	54332.61
632.42	54836.41
632.62	54979.77
632.81	54531.26
633.01	54371.52
633.20	54719.68
633.40	54758.59
633.59	54568.13
633.79	54645.95
633.98	54875.32
634.18	54977.72
634.37	54877.37
634.57	54774.97
634.76	55020.73
634.96	55145.65
635.15	54672.57
635.35	54412.48
635.54	54799.55
635.74	54756.54
635.93	54490.30
636.13	55411.89
636.32	54885.56
636.52	54459.58
636.71	54983.86
636.91	54754.49
637.10	55006.39
637.30	55518.38
637.49	54967.48
637.69	54953.15
637.88	55340.21
638.08	54998.20
638.27	55319.73
638.46	55086.26
638.66	55141.56
638.85	54981.82
639.05	55334.07
639.24	55252.15
639.44	55370.93
639.63	55405.75
639.83	55182.52
640.02	55274.68
640.22	55153.85
640.41	55999.66
640.61	55096.50
640.80	55043.26
640.99	55362.74
641.19	55948.46
641.38	55571.63
641.58	55426.23
641.77	55334.07
641.97	55305.40
642.16	55311.54
642.36	55823.53
642.55	56089.77
642.74	55317.68
642.94	56274.09
643.13	55557.30
643.33	56052.90
643.52	55993.51
643.72	55837.87
643.91	55612.59
644.10	55485.62
644.30	55966.89
644.49	55989.42
644.69	55868.59
644.88	55876.78
645.08	55688.37
645.27	55512.24
645.46	55551.15
645.66	56229.03
645.85	55727.28
646.05	55999.66
646.24	56093.86
646.43	55792.81
646.63	56100.01
646.82	56321.19
647.02	55731.37
647.21	56065.19
647.40	55841.96
647.60	56468.64
647.79	56251.56
647.99	56792.22
648.18	56480.93
648.37	56835.23
648.57	56435.87
648.76	56431.78
648.96	56087.72
649.15	56765.60
649.34	56579.23
649.54	56540.32
649.73	56294.56
649.92	56358.05
650.12	56495.27
650.31	56874.14
650.51	56464.55
650.70	56591.52
650.89	56313.00
651.09	57179.29
651.28	56558.75
651.47	56652.96
651.67	56480.93
651.86	56992.92
652.06	56325.28
652.25	56886.43
652.44	56530.08
652.64	56460.45
652.83	56401.06
653.02	56331.43
653.22	56751.26
653.41	56437.92
653.60	56521.89
653.80	56712.35
653.99	56900.76
654.18	56521.89
654.38	56917.15
654.57	56450.21
654.76	56016.04
654.96	56476.83
655.15	57123.99
655.34	56597.66
655.54	56259.75
655.73	56464.55
655.92	56861.85
656.12	56425.64
656.31	56947.87
656.50	56890.52
656.70	56960.15
656.89	56530.08
657.08	56843.42
657.28	56693.92
657.47	56865.95
657.66	57060.51
657.86	56781.98
658.05	56622.24
658.24	56886.43
658.43	56921.24
658.63	57033.88
658.82	57029.79
659.01	57261.21
659.21	56980.63
659.40	57050.27
659.59	56921.24
659.79	56870.04
659.98	56638.62
660.17	57324.69
660.36	57332.89
660.56	56620.19
660.75	57226.39
660.94	57136.28
661.14	57062.55
661.33	56616.10
661.52	56894.62
661.71	57656.46
661.91	56931.48
662.10	57113.75
662.29	57377.94
662.49	57078.94
662.68	56988.83
662.87	56851.61
663.06	57320.60
663.26	57007.26
663.45	57480.34
663.64	56917.15
663.83	57447.57
664.03	57386.13
664.22	57267.35
664.41	57130.14
664.60	57021.59
664.80	56874.14
664.99	56888.48
665.18	57097.37
665.37	57029.79
665.57	57625.74
665.76	56755.36
665.95	57052.31
666.14	56898.72
666.34	57005.21
666.53	57158.81
666.72	56263.85
666.91	56761.50
667.11	57160.86
667.30	57009.31
667.49	56992.92
667.68	56779.93
667.87	56614.05
668.07	57185.43
668.26	56872.09
668.45	57160.86
668.64	56595.62
668.84	57496.72
669.03	57189.53
669.22	56974.49
669.41	56618.14
669.60	57095.32
669.80	56591.52
669.99	57150.62
670.18	57160.86
670.37	56890.52
670.57	57023.64
670.76	56693.92
670.95	57201.82
671.14	56925.34
671.33	56792.22
671.53	57515.15
671.72	57123.99
671.91	57109.66
672.10	56337.57
672.29	56956.06
672.48	56472.74
672.68	57119.90
672.87	56609.95
673.06	56419.49
673.25	56710.30
673.44	56700.06
673.64	56673.44
673.83	56706.21
674.02	56661.15
674.21	56405.16
674.40	57113.75
674.59	56452.26
674.79	56659.10
674.98	56476.83
675.17	56634.53
675.36	56122.54
675.55	56407.20
675.74	56788.13
675.94	56439.97
676.13	56870.04
676.32	56612.00
676.51	56925.34
676.70	56286.37
676.89	56433.83
677.08	56458.40
677.28	56493.22
677.47	56571.04
677.66	56728.73
677.85	56536.23
678.04	56859.80
678.23	56652.96
678.42	56415.40
678.62	56151.21
678.81	56853.66
679.00	56501.41
679.19	57349.27
679.38	56356.00
679.57	55985.32
679.76	56722.59
679.96	56550.56
680.15	56964.25
680.34	56548.51
680.53	56063.14
680.72	56583.33
680.91	56501.41
681.10	56036.52
681.29	56335.52
681.48	56351.91
681.68	55786.67
681.87	55891.12
682.06	56206.50
682.25	55827.63
682.44	55940.27
682.63	56022.19
682.82	55688.37
683.01	55835.82
683.20	55723.18
683.39	55970.99
683.59	55485.62
683.78	55581.87
683.97	55731.37
684.16	55542.96
684.35	55469.23
684.54	55807.15
684.73	55733.42
684.92	55721.13
685.11	55653.55
685.30	55581.87
685.49	55839.92
685.69	55696.56
685.88	55446.71
686.07	55108.79
686.26	55530.67
686.45	55383.22
686.64	55588.02
686.83	55329.97
687.02	55628.98
687.21	55473.33
687.40	55567.54
687.59	55151.80
687.78	55350.45
687.97	55729.33
688.16	55702.70
688.35	55211.19
688.54	55065.78
688.74	55477.43
688.93	55262.39
689.12	55442.61
689.31	54928.57
689.50	55325.88
689.69	54885.56
689.88	54903.99
690.07	55413.94
690.26	54777.02
690.45	55028.92
690.64	54977.72
690.83	54875.32
691.02	54813.88
691.21	54799.55
691.40	54785.21
691.59	55051.45
691.78	54430.91
691.97	54994.10
692.16	54604.99
692.35	54441.15
692.54	54918.33
692.73	55166.13
692.92	54650.05
693.11	54750.40
693.30	54541.50
693.49	54459.58
693.68	54262.98
693.87	54564.03
694.06	54203.59
694.25	54172.87
694.44	54351.04
694.63	54449.35
694.82	54072.52
695.01	54256.84
695.20	54377.67
695.39	54375.62
695.58	54334.66
695.77	53912.78
695.96	53744.84
696.15	54336.71
696.34	53695.69
696.53	53798.09
696.72	54152.39
696.91	53839.05
697.10	53845.19
697.29	53718.22
697.48	54101.19
697.67	53923.02
697.86	53882.06
698.05	53628.11
698.24	54244.55
698.43	53392.59
698.62	53959.88
698.81	53501.14
699.00	53769.42
699.19	53599.44
699.38	53476.56
699.57	53124.31
699.76	54015.18
699.95	53335.25
700.14	53466.32
700.32	53312.72
700.51	53447.89
700.70	53449.94
700.89	53415.12
701.08	53449.94
701.27	53064.92
701.46	53912.78
701.65	52753.63
701.84	52870.36
702.03	53245.14
702.22	52913.37
702.41	53185.75
702.60	52770.01
702.79	52688.09
702.98	52802.78
703.17	53009.62
703.35	52880.60
703.54	52991.19
703.73	52919.51
703.92	52772.06
704.11	53093.59
704.30	52712.67
704.49	52763.87
704.68	52376.80
704.87	52602.08
705.06	52180.20
705.25	52341.99
705.43	52626.65
705.62	52430.05
705.81	52126.95
706.00	52212.96
706.19	52274.40
706.38	52423.90
706.57	52384.99
706.76	51770.60
706.95	52270.31
707.14	52036.84
707.32	51418.35
707.51	52129.00
707.70	51877.10
707.89	52040.93
708.08	51686.64
708.27	52446.43
708.46	52057.32
708.65	51612.91
708.84	52231.40
709.02	52143.33
709.21	52085.99
709.40	51848.42
709.59	52466.91
709.78	51033.33
709.97	52036.84
710.16	51629.29
710.34	51649.77
710.53	51827.95
710.72	51543.28
710.91	51174.64
711.10	51604.72
711.29	51848.42
711.48	51215.60
711.66	51434.74
711.85	51016.95
712.04	51410.16
712.23	51272.95
712.42	50998.52
712.61	51221.75
712.80	50920.70
712.98	51248.37
713.17	50849.02
713.36	51090.68
713.55	51000.57
713.74	51031.29
713.93	51215.60
714.11	50611.45
714.30	50574.59
714.49	50584.83
714.68	50814.20
714.87	51000.57
715.06	50701.56
715.24	50996.47
715.43	50883.83
715.62	50648.32
715.81	50437.37
716.00	50533.63
716.18	50316.54
716.37	50623.74
716.56	49919.24
716.75	50730.23
716.94	50535.68
717.12	50289.92
717.31	50603.26
717.50	50504.96
717.69	50115.84
717.88	50085.12
718.06	50013.44
718.25	50085.12
718.44	49771.78
718.63	50457.85
718.82	49736.97
719.00	50119.94
719.19	50062.60
719.38	49708.30
719.57	49681.67
719.76	49394.96
719.94	49132.82
720.13	49593.61
720.32	49214.74
720.51	49605.90
720.69	49329.42
720.88	49302.80
721.07	49472.78
721.26	48551.20
721.44	49300.75
721.63	49186.07
721.82	48686.36
722.01	48289.06
722.20	49253.65
722.38	48911.64
722.57	48127.27
722.76	49014.04
722.95	48510.24
723.13	48442.65
723.32	48743.70
723.51	48174.37
723.70	48350.49
723.88	48479.52
724.07	48239.90
724.26	48373.02
724.44	48151.84
724.63	48411.93
724.82	48493.85
725.01	48221.47
725.19	47963.43
725.38	47940.90
725.57	47822.12
725.76	48157.99
725.94	47732.01
726.13	47652.14
726.32	48127.27
726.51	47879.46
726.69	48137.51
726.88	47983.91
727.07	47992.10
727.25	47904.04
727.44	48010.53
727.63	47519.02
727.82	47289.65
728.00	47457.58
728.19	47635.75
728.38	47992.10
728.56	47357.23
728.75	47992.10
728.94	47418.67
729.12	47623.47
729.31	47590.70
729.50	47813.93
729.69	47914.28
729.87	47215.92
730.06	47478.06
730.25	47666.47
730.43	48076.07
730.62	47428.91
730.81	48002.34
730.99	48110.88
731.18	47314.22
731.37	47789.35
731.55	47981.86
731.74	47719.72
731.93	47758.63
732.11	47793.45
732.30	47750.44
732.49	47363.37
732.67	47228.21
732.86	47564.07
733.05	47385.90
733.23	47117.62
733.42	47164.72
733.61	47486.25
733.79	47396.14
733.98	48129.31
734.17	47400.24
734.35	47516.97
734.54	47701.29
734.73	47785.25
734.91	47263.02
735.10	47154.48
735.29	47461.68
735.47	47230.26
735.66	47430.96
735.84	47263.02
736.03	47160.62
736.22	47625.51
736.40	47019.31
736.59	47293.74
736.78	46916.92
736.96	46945.59
737.15	47301.93
737.33	46882.10
737.52	46943.54
737.71	46728.50
737.89	46953.78
738.08	46249.28
738.27	46671.16
738.45	47400.24
738.64	47211.82
738.82	47011.12
739.01	46910.77
739.20	46886.20
739.38	46363.96
739.57	46628.15
739.75	46708.02
739.94	46486.84
740.13	46390.59
740.31	46105.92
740.50	46585.15
740.68	46404.92
740.87	46708.02
741.06	46740.79
741.24	46802.23
741.43	46593.34
741.61	46548.28
741.80	46542.14
741.99	46636.34
742.17	46353.72
742.36	46421.31
742.54	46521.66
742.73	46411.07
742.91	46501.18
743.10	46234.94
743.29	46511.42
743.47	46847.29
743.66	46046.53
743.84	46101.82
744.03	46411.07
744.21	46161.22
744.40	46671.16
744.59	46294.33
744.77	45745.48
744.96	46161.22
745.14	46208.32
745.33	45774.15
745.51	45970.75
745.70	45919.56
745.88	45925.70
746.07	45999.43
746.26	45743.43
746.44	45749.57
746.63	45856.07
746.81	45823.30
747.00	45292.88
747.18	45804.87
747.37	45665.61
747.55	46007.62
747.74	46085.44
747.92	45706.57
748.11	45403.47
748.29	45700.42
748.48	46011.71
748.66	45612.36
748.85	45258.06
749.03	45290.83
749.22	45856.07
749.41	45315.40
749.59	45720.90
749.78	45505.87
749.96	44981.59
750.15	45421.90
750.33	45182.29
750.52	45038.93
750.70	45245.77
750.89	45292.88
751.07	45090.13
751.26	45241.68
751.44	44868.95
751.63	45233.49
751.81	44621.14
752.00	44447.07
752.18	44807.51
752.37	44957.01
752.55	44918.10
752.74	44756.31
752.92	44688.73
753.10	44498.26
753.29	44766.55
753.47	44563.80
753.66	44365.15
753.84	44725.59
754.03	44623.19
754.21	44496.22
754.40	44723.54
754.58	44502.36
754.77	44203.36
754.95	44260.70
755.14	44221.79
755.32	44176.73
755.51	44148.06
755.69	43984.22
755.88	44133.73
756.06	44160.35
756.24	44127.58
756.43	44172.64
756.61	44166.49
756.80	43937.12
756.98	44062.05
757.17	43869.54
757.35	44070.24
757.54	44066.14
757.72	43930.98
757.90	43939.17
758.09	43568.49
758.27	44094.82
758.46	43984.22
758.64	43685.22
758.83	43736.42
759.01	43732.32
759.19	43500.90
759.38	43742.56
759.56	43812.20
759.75	43296.11
759.93	43642.21
760.12	43744.61
760.30	43517.29
760.48	43717.99
760.67	43548.01
760.85	43685.22
761.04	43582.82
761.22	43545.96
761.40	43443.56
761.59	43552.10
761.77	43074.93
761.96	43179.37
762.14	43038.06
762.32	43249.00
762.51	43040.11
762.69	43242.86
762.88	43036.02
763.06	43345.26
763.24	42868.08
763.43	42843.51
763.61	42816.88
763.80	42655.09
763.98	42771.83
764.16	42968.43
764.35	42491.26
764.53	42362.23
764.72	42550.65
764.90	42620.28
765.08	42642.81
765.27	42515.83
765.45	42132.86
765.63	42093.95
765.82	42894.71
766.00	42450.30
766.18	42587.51
766.37	42831.22
766.55	42474.87
766.74	42413.43
766.92	42253.69
767.10	42403.19
767.29	42192.25
767.47	41706.88
767.65	41969.02
767.84	41782.66
768.02	42325.37
768.20	41866.63
768.39	42104.19
768.57	42018.17
768.75	41584.01
768.94	41616.77
769.12	41964.93
769.30	41485.70
769.49	41825.67
769.67	41170.32
769.85	41493.89
770.04	41250.19
770.22	41371.02
770.40	41141.64
770.59	41104.78
770.77	41215.37
770.95	41096.59
771.14	41250.19
771.32	41100.68
771.50	41217.42
771.69	41268.62
771.87	40926.61
772.05	40834.45
772.24	40529.30
772.42	40897.94
772.60	40795.54
772.78	40670.61
772.97	40471.96
773.15	40873.36
773.33	40887.70
773.52	40707.47
773.70	40502.68
773.88	41049.49
774.07	40674.71
774.25	40902.03
774.43	41221.52
774.61	40637.84
774.80	41141.64
774.98	40703.38
775.16	41035.15
775.34	40942.99
775.53	40586.64
775.71	40904.08
775.89	40803.73
776.08	40818.07
776.26	40990.09
776.44	41024.91
776.62	40809.87
776.81	40682.90
776.99	41434.50
777.17	40705.43
777.35	41174.41
777.54	41272.71
777.72	40687.00
777.90	40856.98
778.08	41493.89
778.27	40940.94
778.45	41557.38
778.63	40873.36
778.81	41336.20
779.00	41211.28
779.18	41285.00
779.36	41907.58
779.54	41168.27
779.73	41217.42
779.91	41338.25
780.09	41442.70
780.27	41670.02
780.46	41545.09
780.64	41833.86
780.82	41573.77
781.00	41303.43
781.19	41770.37
781.37	42048.89
781.55	41878.91
781.73	41964.93
781.91	41739.65
782.10	41713.03
782.28	41966.98
782.46	42198.40
782.64	41966.98
782.82	41299.34
783.01	41665.92
783.19	42063.23
783.37	42130.81
783.55	41807.23
783.74	42313.08
783.92	41786.75
784.10	42503.54
784.28	41962.88
784.46	41817.47
784.64	41719.17
784.83	42036.61
785.01	42161.53
785.19	41901.44
785.37	42276.22
785.55	41932.16
785.74	41819.52
785.92	41778.56
786.10	41614.72
786.28	42216.83
786.46	41608.58
786.64	41713.03
786.83	41803.14
787.01	41919.87
787.19	41514.37
787.37	41688.45
787.55	41536.90
787.74	41291.15
787.92	41670.02
788.10	41305.48
788.28	41174.41
788.46	41635.20
788.64	40789.39
788.82	41387.40
789.01	41090.44
789.19	41479.56
789.37	41069.97
789.55	41454.98
789.73	40519.06
789.91	41018.77
790.09	41119.12
790.28	40408.47
790.46	40240.54
790.64	41160.08
790.82	40404.38
791.00	40543.64
791.18	40486.29
791.36	40500.63
791.55	40646.04
791.73	40314.26
791.91	40093.08
792.09	40226.20
792.27	40263.07
792.45	40406.42
792.63	39572.90
792.81	39802.27
793.00	39962.01
793.18	39765.41
793.36	39560.61
793.54	39441.83
793.72	39525.80
793.90	39177.64
794.08	39267.75
794.26	39421.35
794.44	39247.27
794.62	38991.28
794.81	39298.47
794.99	39093.68
795.17	38792.62
795.35	38700.47
795.53	38720.95
795.71	38829.49
795.89	38745.52
796.07	38581.68
796.25	38368.69
796.43	38270.39
796.61	38356.41
796.80	37975.48
796.98	38112.70
797.16	37737.92
797.34	38172.09
797.52	37838.27
797.70	38282.68
797.88	37895.61
798.06	37477.83
798.24	37430.72
798.42	37494.21
798.60	37772.74
798.78	37389.77
798.96	37477.83
799.14	36566.48
799.32	37332.42
799.51	37031.37
799.69	37506.50
799.87	37166.54
800.05	36855.25
800.23	37101.00
800.41	36693.46
800.59	36974.03
800.77	36689.36
800.95	36480.47
801.13	36572.63
801.31	35825.12
801.49	36222.42
801.67	36115.93
801.85	35935.71
802.03	35921.37
802.21	36036.06
802.39	35724.77
802.57	35671.52
802.75	35589.60
802.93	35802.59
803.11	35665.38
803.29	35341.80
803.47	35317.22
803.65	35436.00
803.83	35519.97
804.01	35114.47
804.19	35251.69
804.37	34794.99
804.55	35202.53
804.73	35010.03
804.91	34776.56
805.09	35145.19
805.27	34977.26
805.45	34797.04
805.63	34711.02
805.81	34633.20
805.99	35161.58
806.17	34477.55
806.35	34719.21
806.53	34045.43
806.71	34272.76
806.89	34414.07
807.07	34061.82
807.25	34010.62
807.43	33650.17
807.61	34080.25
807.79	33822.20
807.97	33613.31
808.15	33621.50
808.33	33562.11
808.51	33347.08
808.69	33289.73
808.87	33472.00
809.05	33267.20
809.23	33027.59
809.41	32730.64
809.59	33086.98
809.77	33189.38
809.95	33199.62
810.13	33177.09
810.31	32771.60
810.49	32763.40
810.67	32962.06
810.84	32613.90
811.02	32605.71
811.20	32497.17
811.38	32546.32
811.56	32359.95
811.74	32067.09
811.92	32177.68
812.10	32663.05
812.28	32450.06
812.46	31970.84
812.64	32220.69
812.82	32181.78
813.00	31698.46
813.18	32083.48
813.36	31788.57
813.53	31475.23
813.71	31487.52
813.89	31706.65
814.07	31604.25
814.25	31985.18
814.43	31450.66
814.61	31288.87
814.79	31563.29
814.97	31227.43
815.15	31344.16
815.33	31057.45
815.50	30985.77
815.68	31340.07
815.86	31264.29
816.04	30770.73
816.22	31039.01
816.40	30907.94
816.58	30387.76
816.76	30963.24
816.94	30697.00
817.11	30766.63
817.29	30737.96
817.47	30565.93
817.65	30733.87
817.83	30821.93
818.01	30111.28
818.19	30475.82
818.37	30236.21
818.54	30322.23
818.72	30277.17
818.90	30398.00
819.08	30359.09
819.26	29990.45
819.44	29978.17
819.62	30156.34
819.80	30193.20
819.97	30041.65
820.15	29881.91
820.33	29777.47
820.51	29908.54
820.69	29394.50
820.87	29763.13
821.05	29922.87
821.22	29519.42
821.40	29584.96
821.58	29390.40
821.76	29328.96
821.94	29572.67
822.12	29365.82
822.29	29529.66
822.47	29154.88
822.65	29517.37
822.83	29664.83
823.01	29464.13
823.19	29197.89
823.36	28874.31
823.54	28931.65
823.72	29042.24
823.90	28984.90
824.08	28847.69
824.25	28843.59
824.43	28888.65
824.61	28384.85
824.79	28618.32
824.97	28859.98
825.15	28550.73
825.32	28626.51
825.50	28493.39
825.68	28235.35
825.86	28225.11
826.04	28493.39
826.21	28151.38
826.39	28431.95
826.57	28288.59
826.75	28194.39
826.93	28024.40
827.10	28120.66
827.28	27924.05
827.46	28487.25
827.64	27858.52
827.81	27919.96
827.99	28065.36
828.17	27692.63
828.35	27706.97
828.53	27569.76
828.70	27633.24
828.88	27403.87
829.06	27772.50
829.24	27756.12
829.41	27627.10
829.59	27907.67
829.77	27512.41
829.95	27311.71
830.12	27469.40
830.30	27336.29
830.48	27272.80
830.66	27612.76
830.84	27330.14
831.01	27151.97
831.19	27231.84
831.37	27199.07
831.55	26981.99
831.72	27135.59
831.90	27223.65
832.08	27049.57
832.25	26609.26
832.43	27158.11
832.61	26719.85
832.79	26711.66
832.96	26480.24
833.14	26785.38
833.32	27045.48
833.50	27025.00
833.67	26785.38
833.85	26719.85
834.03	26607.21
834.20	26801.77
834.38	26527.34
834.56	27029.09
834.74	26521.20
834.91	26685.03
835.09	26592.87
835.27	26420.84
835.44	26205.81
835.62	26001.01
835.80	25851.51
835.98	26250.86
836.15	26066.55
836.33	26084.98
836.51	26318.45
836.68	25837.17
836.86	26101.36
837.04	26265.20
837.21	25970.29
837.39	26127.99
837.57	26119.79
837.75	26152.56
837.92	25611.90
838.10	25833.08
838.28	25323.13
838.45	25532.03
838.63	25704.06
838.81	25706.10
838.98	25519.74
839.16	25421.44
839.34	25278.08
839.51	25374.33
839.69	25312.89
839.87	25228.93
840.04	25067.14
840.22	25712.25
840.40	25241.21
840.57	24856.20
840.75	25331.33
840.93	24778.37
841.10	25028.23
841.28	25503.35
841.46	25015.94
841.63	24954.50
841.81	25153.15
841.98	25132.67
842.16	24942.21
842.34	24669.83
842.51	24551.05
842.69	25132.67
842.87	24927.88
843.04	25020.03
843.22	24686.22
843.40	24829.57
843.57	24493.71
843.75	24772.23
843.92	24766.09
844.10	24686.22
844.28	24813.19
844.45	24735.37
844.63	24645.26
844.81	24583.82
844.98	24528.52
845.16	24606.34
845.33	24430.22
845.51	24356.49
845.69	24399.50
845.86	24108.69
846.04	24108.69
846.21	24329.87
846.39	24082.06
846.57	23944.85
846.74	24356.49
846.92	24104.59
847.09	23946.90
847.27	23953.04
847.45	23867.03
847.62	23936.66
847.80	24012.43
847.97	23889.56
848.15	24088.21
848.32	23695.00
848.50	23797.40
848.68	23568.02
848.85	23662.23
849.03	23262.88
849.20	23568.02
849.38	23647.90
849.56	23490.20
849.73	23142.05
849.91	23502.49
850.08	23754.39
850.26	23135.90
850.43	23414.43
850.61	23344.80
850.78	23174.81
850.96	23252.64
851.14	22728.36
851.31	23277.21
851.49	23258.78
851.66	23135.90
851.84	23291.55
852.01	23004.83
852.19	23193.25
852.36	23205.53
852.54	23096.99
852.71	22963.87
852.89	23037.60
853.07	23096.99
853.24	23041.70
853.42	22849.19
853.59	22851.24
853.77	22834.85
853.94	22681.25
854.12	23047.84
854.29	22369.96
854.47	22591.14
854.64	22740.64
854.82	22623.91
854.99	22238.89
855.17	22372.01
855.34	22738.60
855.52	22666.92
855.69	22947.49
855.87	22286.00
856.04	22339.24
856.22	22521.51
856.39	22208.17
856.57	22179.50
856.74	22392.49
856.92	22271.66
857.09	22005.42
857.27	22372.01
857.44	22349.48
857.62	22195.89
857.79	22060.72
857.97	22187.69
858.14	22261.42
858.32	22001.33
858.49	21991.09
858.67	21749.43
858.84	21640.89
859.02	22101.68
859.19	21728.95
859.37	21624.50
859.54	21726.90
859.72	21833.39
859.89	21870.26
860.06	21761.72
860.24	21601.97
860.41	21675.70
860.59	21563.06
860.76	21556.92
860.94	21253.82
861.11	21503.67
861.29	21528.25
861.46	21382.84
861.64	21216.96
861.81	21104.32
861.98	21143.23
862.16	21067.45
862.33	20864.71
862.51	21311.16
862.68	21274.30
862.86	21169.85
863.03	21307.07
863.21	20958.91
863.38	21049.02
863.55	21026.50
863.73	20997.82
863.90	20883.14
864.08	20846.27
864.25	20850.37
864.43	21137.09
864.60	20659.91
864.77	20831.94
864.95	20506.31
865.12	20528.84
865.30	20602.57
865.47	20725.44
865.64	20436.68
865.82	20721.35
865.99	20637.38
866.17	20594.37
866.34	20616.90
866.51	20317.90
866.69	20827.84
866.86	20784.83
867.04	20377.29
867.21	20166.35
867.38	20233.93
867.56	20086.48
867.73	20129.48
867.91	20180.68
868.08	20291.27
868.25	20084.43
868.43	20182.73
868.60	19850.96
868.78	19893.97
868.95	20168.40
869.12	20049.61
869.30	19939.02
869.47	20129.48
869.64	19793.62
869.82	19887.82
869.99	19627.73
870.16	20006.61
870.34	19889.87
870.51	20066.00
870.69	19533.53
870.86	19756.75
871.03	19609.30
871.21	19588.82
871.38	19785.43
871.55	19367.64
871.73	19420.89
871.90	19414.74
872.07	19582.68
872.25	19146.46
872.42	19226.33
872.59	19189.47
872.77	19158.75
872.94	19263.19
873.11	19039.97
873.29	19007.20
873.46	18996.96
873.63	19027.68
873.81	19267.29
873.98	18904.80
874.15	18892.51
874.33	18822.88
874.50	18611.94
874.67	18673.38
874.85	18966.24
875.02	18390.76
875.19	18310.89
875.37	18456.29
875.54	18702.05
875.71	18439.91
875.88	18349.80
876.06	18147.05
876.23	18380.52
876.40	18243.31
876.58	18300.65
876.75	18396.90
876.92	18263.79
877.10	18613.99
877.27	18099.95
877.44	18173.67
877.61	18071.28
877.79	18216.68
877.96	17964.78
878.13	18093.80
878.31	17970.93
878.48	18015.98
878.65	17977.07
878.82	17878.77
879.00	17661.68
879.17	18081.52
879.34	17798.90
879.51	17557.24
879.69	17467.13
879.86	17725.17
880.03	17465.08
880.21	17424.12
880.38	17518.32
880.55	17766.13
880.72	17522.42
880.90	17544.95
881.07	17526.52
881.24	17387.25
881.41	17268.47
881.59	17493.75
881.76	17323.77
881.93	17231.61
882.10	17125.11
882.28	17329.91
882.45	17209.08
882.62	17329.91
882.79	17403.64
882.96	17078.01
883.14	17243.90
883.31	17112.83
883.48	17067.77
883.65	17329.91
883.83	16860.93
884.00	16973.56
884.17	17030.91
884.34	16946.94
884.51	16998.14
884.69	17006.33
884.86	16723.71
885.03	16897.79
885.20	16740.10
885.38	17080.06
885.55	16912.13
885.72	16946.94
885.89	16645.89
886.06	16639.75
886.24	16563.97
886.41	16602.88
886.58	16793.34
886.75	16721.66
886.92	16496.39
887.10	16625.41
887.27	16301.83
887.44	16480.00
887.61	16756.48
887.78	16660.23
887.95	16785.15
888.13	16437.00
888.30	16213.77
888.47	16088.84
888.64	16172.81
888.81	16445.19
888.99	16183.05
889.16	16162.57
889.33	16045.84
889.50	16121.61
889.67	15914.77
889.84	16017.16
890.01	16011.02
890.19	15904.53
890.36	16131.85
890.53	15867.66
890.70	15722.26
890.87	15886.09
891.04	15890.19
891.22	15628.05
891.39	15865.61
891.56	15716.11
891.73	15955.72
891.90	15615.76
892.07	15578.90
892.24	15687.44
892.42	15595.28
892.59	15585.04
892.76	15568.66
892.93	15507.22
893.10	15599.38
893.27	15505.17
893.44	15396.63
893.61	15468.31
893.79	15804.17
893.96	15499.03
894.13	15791.89
894.30	15689.49
894.47	15560.47
894.64	15210.26
894.81	15265.56
894.98	15245.08
895.15	15372.05
895.33	15505.17
895.50	15378.20
895.67	15367.96
895.84	15234.84
896.01	15212.31
896.18	15372.05
896.35	15443.73
896.52	15402.77
896.69	15283.99
896.86	15341.33
897.04	15269.66
897.21	15161.11
897.38	15406.87
897.55	15169.30
897.72	15206.17
897.89	15171.35
898.06	15101.72
898.23	15355.67
898.40	15302.42
898.57	15324.95
898.74	15238.94
898.91	15335.19
899.08	15236.89
899.26	15302.42
899.43	15349.53
899.60	15308.57
899.77	14980.89
899.94	15056.67
900.11	15128.35
900.28	15216.41
900.45	15032.09
900.62	15009.56
900.79	15224.60
900.96	15105.82
901.13	15021.85
901.30	15288.09
901.47	15120.15
901.64	15302.42
901.81	15193.88
901.98	15091.48
902.15	15310.61
902.32	15107.87
902.49	15275.80
902.66	15232.79
902.83	15157.02
903.01	15083.29
903.18	15281.94
903.35	15290.13
903.52	15068.95
903.69	15308.57
903.86	15226.65
904.03	15099.67
904.20	15372.05
904.37	15238.94
904.54	14923.55
904.71	15015.71
904.88	15087.39
905.05	15118.11
905.22	15277.85
905.39	14925.60
905.56	14954.27
905.73	15101.72
905.90	14876.44
906.07	15013.66
906.24	14903.07
906.41	14919.45
906.58	15243.03
906.75	14962.46
906.92	14980.89
907.09	14835.49
907.26	15027.99
907.43	14927.64
907.60	14993.18
907.77	15136.54
907.93	15032.09
908.10	14860.06
908.27	15249.18
908.44	14991.13
908.61	14868.25
908.78	14802.72
908.95	14999.32
909.12	14890.78
909.29	14624.54
909.46	14968.60
909.63	15048.47
909.80	14751.52
909.97	14815.01
910.14	14741.28
910.31	14599.97
910.48	14714.66
910.65	14722.85
910.82	14737.18
910.99	15085.34
911.16	14829.34
911.33	14608.16
911.50	14612.26
911.66	14597.92
911.83	14663.46
912.00	14497.57
912.17	14669.60
912.34	14374.69
912.51	14450.47
912.68	14532.39
912.85	14460.71
913.02	14452.52
913.19	14325.54
913.36	14450.47
913.53	14436.13
913.70	14321.45
913.86	14460.71
914.03	14391.08
914.20	14454.56
914.37	14501.67
914.54	14210.86
914.71	14391.08
914.88	14139.18
915.05	13868.84
915.22	14016.30
915.39	14102.31
915.55	14057.26
915.72	14034.73
915.89	13813.55
916.06	13860.65
916.23	13756.21
916.40	13836.08
916.57	13743.92
916.74	13735.73
916.91	13543.22
917.07	13559.60
917.24	13528.88
917.41	13778.73
917.58	13819.69
917.75	13608.75
917.92	13311.80
918.09	13438.77
918.26	13567.79
918.42	13391.67
918.59	13584.18
918.76	13408.05
918.93	13248.31
919.10	13221.69
919.27	12730.17
919.44	13477.68
919.60	13358.90
919.77	13145.91
919.94	12982.07
920.11	13133.62
920.28	13211.45
920.45	13074.23
920.61	12922.68
920.78	12900.16
920.95	12799.80
921.12	13043.51
921.29	12709.69
921.46	12613.44
921.62	12812.09
921.79	12836.67
921.96	12506.95
922.13	12506.95
922.30	12511.04
922.47	12441.41
922.63	12447.55
922.80	12363.59
922.97	12375.88
923.14	12273.48
923.31	12496.71
923.47	12197.70
923.64	12341.06
923.81	12355.40
923.98	12074.82
924.15	12027.72
924.32	11970.38
924.48	11886.41
924.65	11994.95
924.82	11845.45
924.99	11640.65
925.15	11747.15
925.32	11988.81
925.49	11620.17
925.66	11698.00
925.83	11585.36
925.99	11413.33
926.16	11646.80
926.33	11542.35
926.50	11442.00
926.67	11509.58
926.83	11540.30
927.00	11439.95
927.17	11312.98
927.34	11046.74
927.50	11274.07
927.67	11497.30
927.84	11083.61
928.01	11009.88
928.17	10954.58
928.34	10960.73
928.51	10934.11
928.68	10930.01
928.84	10843.99
929.01	10897.24
929.18	10588.00
929.35	10516.32
929.51	10667.87
929.68	10643.29
929.85	10469.22
930.02	10418.02
930.18	10585.95
930.35	10536.80
930.52	10491.74
930.69	10401.63
930.85	10372.96
931.02	10426.21
931.19	10370.91
931.36	10078.05
931.52	10151.78
931.69	10241.89
931.86	10067.81
932.02	10100.58
932.19	9918.31
932.36	9774.95
932.53	9748.33
932.69	9867.11
932.86	9740.14
933.03	9768.81
933.19	9531.25
933.36	9627.50
933.53	9707.37
933.70	9424.75
933.86	9586.54
934.03	9482.10
934.20	9224.05
934.36	9363.31
934.53	9416.56
934.70	9191.28
934.86	9027.45
935.03	8980.34
935.20	9041.78
935.36	9017.21
935.53	8748.92
935.70	8773.50
935.86	8705.92
936.03	8650.62
936.20	8454.02
936.36	8611.71
936.53	8507.26
936.70	8492.93
936.86	8386.43
937.03	8306.56
937.20	8146.82
937.36	8112.00
937.53	7890.82
937.70	8032.13
937.86	7798.66
938.03	7821.19
938.20	7903.11
938.36	7415.69
938.53	7720.84
938.70	7376.78
938.86	7493.52
939.03	7274.38
939.20	7040.92
939.36	7196.56
939.53	6975.38
939.70	7241.62
939.86	6875.03
940.03	6868.89
940.19	6608.80
940.36	6737.82
940.53	6954.90
940.69	6485.92
940.86	6475.68
941.03	6518.68
941.19	6328.22
941.36	6451.10
941.52	6373.28
941.69	6270.88
941.86	6057.89
942.02	6143.91
942.19	6016.93
942.35	6096.80
942.52	5963.68
942.69	5836.71
942.85	5713.83
943.02	5830.57
943.18	5719.98
943.35	5644.20
943.52	5666.73
943.68	5769.13
943.85	5572.52
944.01	5558.19
944.18	5492.65
944.35	5599.15
944.51	5525.42
944.68	5394.35
944.84	5357.49
945.01	5351.34
945.17	5531.56
945.34	5451.69
945.51	5423.02
945.67	5402.54
945.84	5328.81
946.00	5392.30
946.17	5351.34
946.33	5267.38
946.50	5328.81
946.67	5277.62
946.83	5234.61
947.00	5404.59
947.16	5271.47
947.33	5375.92
947.49	5285.81
947.66	5201.84
947.82	5322.67
947.99	5169.07
948.16	5353.39
948.32	5232.56
948.49	5416.88
948.65	5461.93
948.82	5191.60
948.98	5310.38
949.15	5109.68
949.31	5275.57
949.48	5197.74
949.64	5222.32
949.81	5345.20
949.97	5316.53
950.14	5332.91
950.30	5314.48
950.47	5312.43
950.63	5277.62
950.80	5183.41
950.96	5267.38
951.13	5332.91
951.30	5392.30
951.46	5332.91
951.63	5334.96
951.79	5160.88
951.96	5414.83
952.12	5377.97
952.29	5420.97
952.45	5294.00
952.62	5380.01
952.78	5353.39
952.94	5285.81
953.11	5294.00
953.27	5218.22
953.44	5496.75
953.60	5367.73
953.77	5447.60
953.93	5363.63
954.10	5279.66
954.26	5377.97
954.43	5455.79
954.59	5433.26
954.76	5533.61
954.92	5296.05
955.09	5425.07
955.25	5361.58
955.42	5351.34
955.58	5408.69
955.75	5427.12
955.91	5341.10
956.07	5500.84
956.24	5363.63
956.40	5355.44
956.57	5437.36
956.73	5412.78
956.90	5314.48
957.06	5394.35
957.23	5271.47
957.39	5240.75
957.56	5463.98
957.72	5322.67
957.88	5474.22
958.05	5492.65
958.21	5500.84
958.38	5445.55
958.54	5353.39
958.71	5476.27
958.87	5349.29
959.03	5386.16
959.20	5449.64
959.36	5320.62
959.53	5318.57
959.69	5343.15
959.85	5377.97
960.02	5167.03
960.18	5388.21
960.35	5283.76
960.51	5388.21
960.68	5304.24
960.84	5365.68
961.00	5427.12
961.17	5406.64
961.33	5392.30
961.50	5521.32
961.66	5461.93
961.82	5326.77
961.99	5265.33
962.15	5375.92
962.31	5382.06
962.48	5363.63
962.64	5523.37
962.81	5185.46
962.97	5437.36
963.13	5408.69
963.30	5406.64
963.46	5255.09
963.62	5248.94
963.79	5300.14
963.95	5339.05
964.12	5238.70
964.28	5382.06
964.44	5328.81
964.61	5361.58
964.77	5253.04
964.93	5431.21
965.10	5416.88
965.26	5197.74
965.42	5171.12
965.59	5175.22
965.75	5091.25
965.92	5343.15
966.08	5269.42
966.24	5314.48
966.41	5138.35
966.57	5250.99
966.73	5132.21
966.90	5302.19
967.06	5269.42
967.22	5103.54
967.39	5128.11
967.55	5042.10
967.71	5228.46
967.88	5138.35
968.04	5062.58
968.20	5220.27
968.37	5103.54
968.53	5044.15
968.69	5263.28
968.85	5083.06
969.02	5113.78
969.18	5095.35
969.34	5005.24
969.51	5195.70
969.67	5199.79
969.83	5044.15
970.00	5187.50
970.16	5193.65
970.32	5207.98
970.48	5132.21
970.65	4911.03
970.81	5066.67
970.97	4988.85
971.14	4982.71
971.30	5097.39
971.46	5029.81
971.63	4984.76
971.79	5152.69
971.95	5113.78
972.11	4935.60
972.28	4999.09
972.44	4945.84
972.60	5019.57
972.76	4921.27
972.93	4974.52
973.09	5064.63
973.25	4976.56
973.42	4779.96
973.58	4784.06
973.74	5009.33
973.90	4767.67
974.07	4779.96
974.23	4775.86
974.39	4765.62
974.55	4833.21
974.72	4765.62
974.88	4751.29
975.04	4677.56
975.20	4681.66
975.37	4681.66
975.53	4669.37
975.69	4771.77
975.85	4687.80
976.01	4558.78
976.18	4638.65
976.34	4673.46
976.50	4630.46
976.66	4751.29
976.83	4652.98
976.99	4648.89
977.15	4616.12
977.31	4394.94
977.47	4786.10
977.64	4646.84
977.80	4638.65
977.96	4411.32
978.12	4546.49
978.29	4675.51
978.45	4460.48
978.61	4489.15
978.77	4640.70
978.93	4587.45
979.10	4503.48
979.26	4575.16
979.42	4405.18
979.58	4560.83
979.74	4456.38
979.91	4409.28
980.07	4360.13
980.23	4476.86
980.39	4446.14
980.55	4366.27
980.71	4386.75
980.88	4433.85
981.04	4345.79
981.20	4435.90
981.36	4403.13
981.52	4345.79
981.68	4222.91
981.85	4329.41
982.01	4278.21
982.17	4245.44
982.33	4253.63
982.49	4431.80
982.65	4270.01
982.82	4411.32
982.98	4384.70
983.14	4149.18
983.30	4288.45
983.46	4298.69
983.62	4327.36
983.79	4196.29
983.95	4179.90
984.11	3997.64
984.27	4200.38
984.43	4147.14
984.59	4151.23
984.75	4386.75
984.91	4036.55
985.08	4313.02
985.24	4108.23
985.40	3928.00
985.56	4116.42
985.72	4134.85
985.88	4243.39
986.04	4026.31
986.20	4069.31
986.37	4100.03
986.53	3944.39
986.69	4040.64
986.85	4018.11
987.01	3985.35
987.17	4018.11
987.33	3928.00
987.49	3999.68
987.65	4077.51
987.82	3981.25
987.98	3928.00
988.14	3952.58
988.30	3989.44
988.46	3950.53
988.62	3985.35
988.78	3885.00
988.94	3909.57
989.10	3850.18
989.26	3846.09
989.42	3735.50
989.59	3782.60
989.75	3770.31
989.91	3839.94
990.07	3723.21
990.23	3745.73
990.39	3737.54
990.55	3798.98
990.71	3780.55
990.87	3731.40
991.03	3712.97
991.19	3737.54
991.35	3741.64
991.51	3706.82
991.67	3784.65
991.83	3702.73
992.00	3798.98
992.16	3852.23
992.32	3737.54
992.48	3764.17
992.64	3604.42
992.80	3555.27
992.96	3657.67
993.12	3684.30
993.28	3669.96
993.44	3579.85
993.60	3717.06
993.76	3647.43
993.92	3573.71
994.08	3680.20
994.24	3604.42
994.40	3573.71
994.56	3614.66
994.72	3651.53
994.88	3563.47
995.04	3444.68
995.20	3456.97
995.36	3518.41
995.52	3555.27
995.68	3510.22
995.84	3387.34
996.00	3624.90
996.16	3407.82
996.32	3411.92
996.48	3409.87
996.64	3448.78
996.80	3438.54
996.96	3485.64
997.12	3397.58
997.28	3493.83
997.44	3418.06
997.60	3354.57
997.76	3387.34
997.92	3362.76
998.08	3381.20
998.24	3334.09
998.40	3452.88
998.56	3368.91
998.72	3282.89
998.88	3342.28
999.04	3370.96
999.20	3358.67
999.36	3264.46
999.52	3313.61
999.68	3323.85
999.84	3229.65
1000.00	3282.89
1000.16	3190.74
1000.32	3307.47
1000.48	3338.19
1000.64	3209.17
1000.80	3100.62
1000.95	3203.02
1001.11	3123.15
1001.27	3196.88
1001.43	3295.18
1001.59	2996.18
1001.75	3186.64
1001.91	3233.74
1002.07	3119.06
1002.23	3176.40
1002.39	3125.20
1002.55	3164.11
1002.71	3047.38
1002.87	3094.48
1003.03	3108.82
1003.19	3008.47
1003.34	3137.49
1003.50	3123.15
1003.66	3080.14
1003.82	3104.72
1003.98	3020.75
1004.14	3059.67
1004.30	3020.75
1004.46	3092.43
1004.62	3035.09
1004.78	3059.67
1004.94	3084.24
1005.09	3051.47
1005.25	3086.29
1005.41	3049.43
1005.57	2996.18
1005.73	2979.79
1005.89	2899.92
1006.05	2998.23
1006.21	3047.38
1006.37	2875.35
1006.52	2871.25
1006.68	2867.16
1006.84	2973.65
1007.00	2893.78
1007.16	2920.40
1007.32	2934.74
1007.48	2985.94
1007.64	2934.74
1007.79	2969.55
1007.95	2801.62
1008.11	2961.36
1008.27	2809.81
1008.43	2889.68
1008.59	2801.62
1008.75	2916.31
1008.91	2920.40
1009.06	2762.71
1009.22	2842.58
1009.38	2861.01
1009.54	2846.68
1009.70	2822.10
1009.86	2801.62
1010.01	2846.68
1010.17	2723.80
1010.33	2828.24
1010.49	2740.18
1010.65	2856.92
1010.81	2777.05
1010.96	2758.61
1011.12	2654.17
1011.28	2658.26
1011.44	2711.51
1011.60	2676.70
1011.76	2645.98
1011.91	2883.54
1012.07	2660.31
1012.23	2627.54
1012.39	2562.01
1012.55	2682.84
1012.71	2648.02
1012.86	2656.22
1013.02	2613.21
1013.18	2582.49
1013.34	2625.50
1013.50	2713.56
1013.65	2688.98
1013.81	2562.01
1013.97	2531.29
1014.13	2699.22
1014.29	2611.16
1014.44	2602.97
1014.60	2568.15
1014.76	2519.00
1014.92	2582.49
1015.07	2516.95
1015.23	2566.10
1015.39	2471.90
1015.55	2613.21
1015.71	2588.63
1015.86	2566.10
1016.02	2418.65
1016.18	2508.76
1016.34	2609.11
1016.49	2455.51
1016.65	2555.86
1016.81	2412.51
1016.97	2576.34
1017.12	2506.71
1017.28	2482.14
1017.44	2426.84
1017.60	2375.64
1017.75	2428.89
1017.91	2453.47
1018.07	2504.67
1018.23	2426.84
1018.38	2404.32
1018.54	2408.41
1018.70	2504.67
1018.86	2377.69
1019.01	2387.93
1019.17	2404.32
1019.33	2576.34
1019.49	2418.65
1019.64	2455.51
1019.80	2363.36
1019.96	2506.71
1020.12	2371.55
1020.27	2322.40
1020.43	2334.68
1020.59	2396.12
1020.74	2432.99
1020.90	2482.14
1021.06	2295.77
1021.22	2426.84
1021.37	2230.24
1021.53	2234.33
1021.69	2320.35
1021.84	2310.11
1022.00	2375.64
1022.16	2322.40
1022.31	2400.22
1022.47	2412.51
1022.63	2381.79
1022.79	2254.81
1022.94	2303.96
1023.10	2359.26
1023.26	2295.77
1023.41	2308.06
1023.57	2238.43
1023.73	2285.53
1023.88	2220.00
1024.04	2115.55
1024.20	2189.28
1024.35	2289.63
1024.51	2299.87
1024.67	2338.78
1024.82	2224.09
1024.98	2142.18
1025.14	2215.90
1025.29	2230.24
1025.45	2285.53
1025.61	2142.18
1025.76	2224.09
1025.92	2187.23
1026.08	2156.51
1026.23	2277.34
1026.39	2203.61
1026.55	2127.84
1026.70	2174.94
1026.86	2199.52
1027.02	2308.06
1027.17	2187.23
1027.33	2232.29
1027.48	2105.31
1027.64	2133.98
1027.80	2158.56
1027.95	2170.85
1028.11	2086.88
1028.27	2168.80
1028.42	2181.09
1028.58	2129.89
1028.73	2056.16
1028.89	1988.58
1029.05	2267.10
1029.20	2146.27
>>>>>End Processed Spectral Data<<<<<
