SpectraSuite Data File
++++++++++++++++++++++++++++++++++++
Date: Fri Jun 02 14:57:18 CEST 2017
User: INFO_000
Dark Spectrum Present: No
Reference Spectrum Present: No
Number of Sampled Component Spectra: 1
Spectrometers: USB4H00879
Integration Time (usec): 80000 (USB4H00879)
Spectra Averaged: 1 (USB4H00879)
Boxcar Smoothing: 0 (USB4H00879)
Correct for Electrical Dark: No (USB4H00879)
Strobe/Lamp Enabled: No (USB4H00879)
Correct for Detector Non-linearity: No (USB4H00879)
Correct for Stray Light: No (USB4H00879)
Number of Pixels in Processed Spectrum: 3648
>>>>>Begin Processed Spectral Data<<<<<
345.13	1288.17
345.34	1288.17
345.56	1288.17
345.78	1306.60
345.99	1316.84
346.21	1599.46
346.42	1687.53
346.64	1617.90
346.86	1728.49
347.07	1619.94
347.29	1765.35
347.50	1619.94
347.72	1681.38
347.94	1853.41
348.15	1611.75
348.37	1679.33
348.59	1679.33
348.80	1624.04
349.02	1761.25
349.23	1918.95
349.45	1841.12
349.67	1910.75
349.88	1847.27
350.10	1974.24
350.31	1818.60
350.53	1767.40
350.75	1949.67
350.96	1820.64
351.18	1826.79
351.39	1845.22
351.61	1818.60
351.82	1845.22
352.04	1886.18
352.26	1830.88
352.47	1863.65
352.69	1875.94
352.90	1771.49
353.12	1886.18
353.34	1851.36
353.55	1902.56
353.77	1839.08
353.98	1806.31
354.20	1798.12
354.41	1877.99
354.63	1941.47
354.85	2033.63
355.06	1951.71
355.28	1708.01
355.49	1933.28
355.71	1882.08
355.92	1935.33
356.14	1927.14
356.35	1937.38
356.57	1843.17
356.79	1976.29
357.00	1920.99
357.22	1992.67
357.43	1884.13
357.65	1925.09
357.86	1886.18
358.08	1869.80
358.29	1966.05
358.51	2009.06
358.72	1945.57
358.94	1966.05
359.16	1902.56
359.37	1937.38
359.59	1964.00
359.80	1990.63
360.02	1990.63
360.23	1978.34
360.45	2027.49
360.66	1908.71
360.88	1873.89
361.09	1898.47
361.31	1914.85
361.52	1935.33
361.74	2045.92
361.95	2027.49
362.17	1951.71
362.38	2101.22
362.60	2074.59
362.81	2062.30
363.03	1959.91
363.24	2007.01
363.46	2138.08
363.67	2035.68
363.89	1931.23
364.10	2121.70
364.32	1992.67
364.53	2027.49
364.75	1916.90
364.96	1992.67
365.18	1976.29
365.39	1990.63
365.61	1929.19
365.82	2084.83
366.04	2019.30
366.25	1916.90
366.47	2058.21
366.68	2041.82
366.90	2043.87
367.11	2041.82
367.33	2121.70
367.54	2121.70
367.76	2074.59
367.97	2095.07
368.19	2041.82
368.40	2019.30
368.62	1933.28
368.83	1998.82
369.05	2074.59
369.26	2027.49
369.48	2101.22
369.69	2043.87
369.91	2017.25
370.12	2004.96
370.33	2127.84
370.55	1943.52
370.76	2031.58
370.98	2172.89
371.19	2066.40
371.41	1998.82
371.62	2047.97
371.84	2013.15
372.05	2183.13
372.27	2086.88
372.48	2146.27
372.69	2154.46
372.91	2191.33
373.12	2209.76
373.34	2099.17
373.55	2174.94
373.77	2158.56
373.98	2150.37
374.20	2224.09
374.41	2224.09
374.62	2113.50
374.84	2197.47
375.05	2244.57
375.27	2256.86
375.48	2187.23
375.70	2164.70
375.91	2217.95
376.12	2353.12
376.34	2115.55
376.55	2181.09
376.77	2238.43
376.98	2023.39
377.19	2166.75
377.41	2076.64
377.62	2250.72
377.84	2213.85
378.05	2244.57
378.27	2164.70
378.48	2279.39
378.69	2371.55
378.91	2187.23
379.12	2172.89
379.34	2181.09
379.55	2232.29
379.76	2260.96
379.98	2150.37
380.19	2217.95
380.41	2236.38
380.62	2328.54
380.83	2215.90
381.05	2154.46
381.26	2387.93
381.47	2220.00
381.69	2269.15
381.90	2445.27
382.12	2203.61
382.33	2301.92
382.54	2295.77
382.76	2355.16
382.97	2326.49
383.19	2228.19
383.40	2420.70
383.61	2256.86
383.83	2263.01
384.04	2310.11
384.25	2244.57
384.47	2416.60
384.68	2387.93
384.89	2281.44
385.11	2349.02
385.32	2389.98
385.54	2299.87
385.75	2408.41
385.96	2406.36
386.18	2340.83
386.39	2437.08
386.60	2424.80
386.82	2426.84
387.03	2449.37
387.24	2437.08
387.46	2535.39
387.67	2494.43
387.88	2525.15
388.10	2494.43
388.31	2478.04
388.52	2600.92
388.74	2473.95
388.95	2473.95
389.16	2467.80
389.38	2572.25
389.59	2625.50
389.80	2678.74
390.02	2494.43
390.23	2666.46
390.44	2508.76
390.66	2504.67
390.87	2467.80
391.08	2602.97
391.30	2684.89
391.51	2662.36
391.72	2770.90
391.94	2693.08
392.15	2568.15
392.36	2641.88
392.58	2537.43
392.79	2680.79
393.00	2662.36
393.22	2736.09
393.43	2793.43
393.64	2770.90
393.85	2822.10
394.07	2762.71
394.28	2688.98
394.49	2809.81
394.71	2779.09
394.92	2953.17
395.13	2641.88
395.35	2768.85
395.56	2705.37
395.77	2779.09
395.98	2832.34
396.20	2854.87
396.41	2846.68
396.62	2930.64
396.84	2777.05
397.05	2758.61
397.26	2834.39
397.47	2928.60
397.69	2854.87
397.90	3153.87
398.11	2961.36
398.32	2924.50
398.54	2908.12
398.75	2938.84
398.96	2990.03
399.18	3061.71
399.39	3008.47
399.60	2969.55
399.81	2990.03
400.03	2983.89
400.24	3168.21
400.45	3000.27
400.66	3071.95
400.88	3039.19
401.09	3123.15
401.30	3100.62
401.51	3110.86
401.73	3121.10
401.94	3205.07
402.15	3094.48
402.36	3049.43
402.58	3174.35
402.79	3330.00
403.00	3180.50
403.21	3108.82
403.43	3147.73
403.64	3235.79
403.85	3145.68
404.06	3284.94
404.27	3076.05
404.49	3219.41
404.70	3190.74
404.91	3160.02
405.12	3198.93
405.34	3299.28
405.55	3321.81
405.76	3248.08
405.97	3182.54
406.19	3383.24
406.40	3164.11
406.61	3284.94
406.82	3264.46
407.03	3360.72
407.25	3286.99
407.46	3342.28
407.67	3475.40
407.88	3477.45
408.09	3205.07
408.31	3319.76
408.52	3420.11
408.73	3385.29
408.94	3317.71
409.15	3438.54
409.37	3397.58
409.58	3508.17
409.79	3479.50
410.00	3508.17
410.21	3393.48
410.43	3475.40
410.64	3411.92
410.85	3512.27
411.06	3467.21
411.27	3463.12
411.48	3510.22
411.70	3508.17
411.91	3504.07
412.12	3661.77
412.33	3612.62
412.54	3549.13
412.76	3694.54
412.97	3712.97
413.18	3508.17
413.39	3583.95
413.60	3715.02
413.81	3663.82
414.03	3596.23
414.24	3665.86
414.45	3809.22
414.66	3583.95
414.87	3735.50
415.08	3778.50
415.30	3770.31
415.51	3682.25
415.72	3729.35
415.93	3719.11
416.14	3774.41
416.35	3776.45
416.56	3790.79
416.78	3899.33
416.99	3825.61
417.20	3758.02
417.41	4028.35
417.62	3999.68
417.83	3995.59
418.04	3876.80
418.26	4020.16
418.47	3928.00
418.68	3973.06
418.89	3938.24
419.10	4106.18
419.31	4114.37
419.52	4038.59
419.73	4042.69
419.95	4106.18
420.16	3975.11
420.37	3930.05
420.58	4081.60
420.79	3944.39
421.00	4165.57
421.21	4218.82
421.42	4122.56
421.63	4093.89
421.85	4112.32
422.06	4237.25
422.27	4292.54
422.48	4116.42
422.69	4280.25
422.90	4220.86
423.11	4263.87
423.32	4476.86
423.53	4480.96
423.75	4239.30
423.96	4523.96
424.17	4470.72
424.38	4456.38
424.59	4396.99
424.80	4669.37
425.01	4485.05
425.22	4513.72
425.43	4466.62
425.64	4718.52
425.85	4624.31
426.06	4708.28
426.28	4579.26
426.49	4657.08
426.70	4612.03
426.91	4661.18
427.12	4665.27
427.33	4632.51
427.54	4501.44
427.75	4765.62
427.96	4888.50
428.17	4786.10
428.38	5066.67
428.59	5009.33
428.80	4937.65
429.01	4933.56
429.23	4802.49
429.44	4972.47
429.65	4995.00
429.86	4956.08
430.07	4995.00
430.28	4988.85
430.49	5089.20
430.70	5152.69
430.91	5167.03
431.12	5224.37
431.33	5156.79
431.54	5185.46
431.75	5294.00
431.96	5179.31
432.17	5171.12
432.38	5066.67
432.59	5455.79
432.80	5431.21
433.01	5330.86
433.22	5447.60
433.43	5357.49
433.64	5228.46
433.85	5339.05
434.06	5384.11
434.27	5226.42
434.49	5511.08
434.70	5451.69
434.91	5369.77
435.12	5691.31
435.33	5552.04
435.54	5539.76
435.75	5433.26
435.96	5412.78
436.17	5410.73
436.38	5664.68
436.59	5713.83
436.80	5556.14
437.01	5777.32
437.22	5818.28
437.43	5623.72
437.64	5496.75
437.85	5732.26
438.06	5740.46
438.27	5545.90
438.48	5636.01
438.69	5693.35
438.90	5863.33
439.11	5660.59
439.32	5877.67
439.53	5754.79
439.74	5892.01
439.95	5881.77
440.16	6006.69
440.37	5965.73
440.57	5849.00
440.78	6121.38
440.99	6039.46
441.20	5998.50
441.41	6035.36
441.62	6025.12
441.83	5918.63
442.04	5996.45
442.25	6238.11
442.46	6066.08
442.67	6260.64
442.88	6524.83
443.09	6188.96
443.30	6070.18
443.51	6166.43
443.72	6254.50
443.93	6172.58
444.14	6428.57
444.35	6090.66
444.56	6234.02
444.77	6250.40
444.98	6492.06
445.19	6291.36
445.40	6365.09
445.61	6248.35
445.81	6430.62
446.02	6471.58
446.23	6344.61
446.44	6301.60
446.65	6270.88
446.86	6500.25
447.07	6557.60
447.28	6672.28
447.49	6633.37
447.70	6397.85
447.91	6664.09
448.12	6447.01
448.33	6686.62
448.54	6762.39
448.74	6567.84
448.95	6619.04
449.16	6582.17
449.37	6942.61
449.58	6608.80
449.79	6811.54
450.00	6614.94
450.21	6872.98
450.42	6954.90
450.63	6844.31
450.84	6868.89
451.05	7133.08
451.25	6977.43
451.46	6846.36
451.67	7139.22
451.88	6993.81
452.09	7133.08
452.30	7141.27
452.51	6918.04
452.72	7260.05
452.93	7384.98
453.13	7010.20
453.34	7151.51
453.55	7106.45
453.76	7055.25
453.97	7479.18
454.18	7425.93
454.39	7327.63
454.60	7466.89
454.81	7366.54
455.01	7534.48
455.22	7384.98
455.43	7495.57
455.64	7593.87
455.85	7669.64
456.06	7813.00
456.27	7710.60
456.48	7835.53
456.68	7749.51
456.89	7864.20
457.10	8089.48
457.31	7810.95
457.52	7798.66
457.73	7868.30
457.94	8200.07
458.14	7919.50
458.35	8429.44
458.56	7991.17
458.77	7948.17
458.98	8263.55
459.19	8216.45
459.39	8322.94
459.60	8333.18
459.81	8384.38
460.02	8546.17
460.23	8216.45
460.44	8718.20
460.65	8650.62
460.85	8564.61
461.06	8695.68
461.27	8513.41
461.48	8793.98
461.69	8959.86
461.89	8634.24
462.10	8904.57
462.31	8662.91
462.52	8681.34
462.73	9041.78
462.94	9187.19
463.14	8902.52
463.35	8998.77
463.56	9518.96
463.77	9277.30
463.98	9172.85
464.18	9351.03
464.39	9459.57
464.60	9496.43
464.81	9686.89
465.02	9391.98
465.23	9695.08
465.43	9621.36
465.64	9793.39
465.85	9772.91
466.06	9850.73
466.27	10071.91
466.47	10098.53
466.68	10186.60
466.89	10073.96
467.10	10440.54
467.30	9891.69
467.51	10178.40
467.72	10585.95
467.93	10217.32
468.14	10309.47
468.34	10528.61
468.55	10714.97
468.76	10684.25
468.97	10442.59
469.17	10870.62
469.38	10829.66
469.59	10979.16
469.80	10647.39
470.01	10823.51
470.21	11007.83
470.42	11099.99
470.63	11286.36
470.84	11442.00
471.04	11528.02
471.25	11360.08
471.46	11417.43
471.67	11476.82
471.87	11738.96
472.08	11630.41
472.29	11902.79
472.50	11622.22
472.70	11769.68
472.91	11945.80
473.12	12095.30
473.33	12175.17
473.53	12275.52
473.74	12287.81
473.95	12500.80
474.16	12572.48
474.36	12613.44
474.57	12877.63
474.78	12750.65
474.99	12853.05
475.19	12795.71
475.40	13209.40
475.61	13238.07
475.81	13252.41
476.02	13424.44
476.23	13141.82
476.44	13375.28
476.64	13670.19
476.85	13850.41
477.06	13793.07
477.27	13893.42
477.47	13967.15
477.68	13899.56
477.89	14186.28
478.09	14196.52
478.30	14229.29
478.51	14376.74
478.71	14550.82
478.92	14569.25
479.13	14786.33
479.34	14784.29
479.54	14784.29
479.75	14733.09
479.96	14935.84
480.16	14958.36
480.37	15195.93
480.58	15306.52
480.78	15558.42
480.99	15472.40
481.20	15693.58
481.41	15537.94
481.61	15746.83
481.82	15884.05
482.03	15642.39
482.23	15998.73
482.44	16242.44
482.65	16277.26
482.85	16541.44
483.06	16375.56
483.27	16416.52
483.47	16537.35
483.68	16641.79
483.89	16414.47
484.09	16606.98
484.30	16979.71
484.51	17274.62
484.71	17235.70
484.92	17254.14
485.13	17204.99
485.33	17065.72
485.54	17452.79
485.75	17784.56
485.95	17585.91
486.16	17651.44
486.37	17854.19
486.57	17727.22
486.78	17843.95
486.98	17905.39
487.19	18306.79
487.40	18321.13
487.60	18241.26
487.81	18603.75
488.02	18548.45
488.22	18403.05
488.43	18718.43
488.64	18579.17
488.84	18818.78
489.05	18947.81
489.25	18728.67
489.46	19318.49
489.67	18912.99
489.87	19439.32
490.08	18962.14
490.29	19201.76
490.49	19642.07
490.70	19705.56
490.90	19707.60
491.11	19554.01
491.32	19883.73
491.52	19990.22
491.73	19906.26
491.94	19869.39
492.14	20086.48
492.35	20397.77
492.55	20266.70
492.76	20367.05
492.97	20408.01
493.17	20530.89
493.38	20625.09
493.58	20985.54
493.79	20612.81
494.00	20836.03
494.20	20719.30
494.41	20977.34
494.61	20987.58
494.82	21319.35
495.02	21006.02
495.23	21460.66
495.44	21225.15
495.64	21587.64
495.85	21497.53
496.05	21591.73
496.26	21751.48
496.47	21550.78
496.67	21831.35
496.88	21970.61
497.08	21534.39
497.29	21970.61
497.49	22062.77
497.70	22046.38
497.91	22238.89
498.11	22206.13
498.32	22286.00
498.52	22281.90
498.73	22683.30
498.93	22394.54
499.14	22589.10
499.34	22556.33
499.55	22601.38
499.76	22830.76
499.96	22822.56
500.17	22904.48
500.37	23064.22
500.58	22972.07
500.78	23162.53
500.99	23211.68
501.19	23336.60
501.40	23074.46
501.60	23154.33
501.81	23385.76
502.02	23371.42
502.22	22920.87
502.43	23461.53
502.63	23817.88
502.84	23510.68
503.04	23467.67
503.25	23479.96
503.45	23709.33
503.66	23651.99
503.86	23740.05
504.07	24360.59
504.27	23942.80
504.48	24395.40
504.68	24151.70
504.89	24426.12
505.09	24143.50
505.30	24686.22
505.50	24536.71
505.71	24503.95
505.91	24800.90
506.12	24716.93
506.32	24475.27
506.53	24657.54
506.73	24727.17
506.94	24985.22
507.14	24802.95
507.35	24796.81
507.55	24667.78
507.76	25304.70
507.96	25007.75
508.17	25011.84
508.37	24817.29
508.58	25097.86
508.78	25224.83
508.99	25630.33
509.19	25630.33
509.40	25529.98
509.60	25495.16
509.81	25695.86
510.01	25411.20
510.22	25796.21
510.42	25878.13
510.63	25798.26
510.83	25638.52
511.04	25849.46
511.24	26039.92
511.44	26168.94
511.65	26185.33
511.85	26078.83
512.06	26117.75
512.26	26097.27
512.47	26285.68
512.67	26390.13
512.88	26605.16
513.08	26048.11
513.29	26603.11
513.49	26568.30
513.69	26674.79
513.90	26588.78
514.10	26795.62
514.31	26922.60
514.51	26666.60
514.72	26791.53
514.92	26818.15
515.13	27106.91
515.33	26912.36
515.53	27154.02
515.74	27117.15
515.94	27328.10
516.15	27237.98
516.35	27260.51
516.56	27629.15
516.76	27280.99
516.96	27682.39
517.17	27711.07
517.37	27919.96
517.58	27850.33
517.78	27897.43
517.99	27952.73
518.19	28298.83
518.39	28266.06
518.60	28368.46
518.80	28178.00
519.01	28159.57
519.21	28446.29
519.41	28472.91
519.62	28741.19
519.82	28663.37
520.03	28720.71
520.23	28577.36
520.43	28565.07
520.64	29072.96
520.84	29019.72
521.05	28800.58
521.25	29107.78
521.45	29300.29
521.66	29275.71
521.86	29201.99
522.07	29244.99
522.27	29234.75
522.47	29711.93
522.68	30045.75
522.88	29560.38
523.08	29773.37
523.29	29920.82
523.49	30129.72
523.70	29972.02
523.90	30203.44
524.10	30230.07
524.31	30623.28
524.51	30398.00
524.71	30613.04
524.92	30565.93
525.12	30600.75
525.33	30846.51
525.53	31163.94
525.73	31106.60
525.94	31229.48
526.14	31022.63
526.34	31311.39
526.55	31301.15
526.75	31671.84
526.95	31643.17
527.16	31399.46
527.36	31790.62
527.56	31825.43
527.77	32122.39
527.97	32196.12
528.17	32239.12
528.38	32298.52
528.58	32495.12
528.78	32308.76
528.99	32392.72
529.19	32644.62
529.39	32421.39
529.60	32556.56
529.80	32753.16
530.00	33175.05
530.21	33222.15
530.41	33414.66
530.61	33424.90
530.82	33162.76
531.02	33764.86
531.22	33564.16
531.43	33768.96
531.63	33564.16
531.83	33846.78
532.04	34266.61
532.24	34217.46
532.44	34455.03
532.64	34784.75
532.85	34518.51
533.05	34534.90
533.25	34950.63
533.46	34522.61
533.66	35157.48
533.86	34948.59
534.07	35378.66
534.27	35108.33
534.47	35624.42
534.67	35270.12
534.88	35309.03
535.08	35456.48
535.28	35900.89
535.49	35589.60
535.69	36410.84
535.89	36017.63
536.09	35952.09
536.30	36298.20
536.50	36464.08
536.70	36554.19
536.91	36681.17
537.11	36468.18
537.31	36965.84
537.51	36869.58
537.72	37391.81
537.92	37031.37
538.12	37209.54
538.32	37320.13
538.53	37230.02
538.73	37154.25
538.93	37238.22
539.13	37508.55
539.34	37373.38
539.54	37115.34
539.74	38055.36
539.94	38026.68
540.15	38102.46
540.35	38600.12
540.55	38024.64
540.75	38247.86
540.96	38550.96
541.16	38657.46
541.36	38305.21
541.56	38389.17
541.77	38903.21
541.97	38692.27
542.17	39081.39
542.37	38735.28
542.58	38735.28
542.78	38983.09
542.98	39228.84
543.18	39196.07
543.38	39515.56
543.59	39665.06
543.79	39323.05
543.99	39171.50
544.19	39753.12
544.40	39552.42
544.60	39896.48
544.80	39712.16
545.00	39552.42
545.20	40148.38
545.41	39789.98
545.61	39810.46
545.81	40295.83
546.01	40453.53
546.21	40293.79
546.42	40074.65
546.62	40539.54
546.82	40072.60
547.02	40285.59
547.22	40555.93
547.43	40119.71
547.63	40873.36
547.83	40609.17
548.03	40920.46
548.23	40844.69
548.44	40680.85
548.64	40873.36
548.84	40947.09
549.04	40945.04
549.24	41272.71
549.45	41190.80
549.65	40973.71
549.85	40979.85
550.05	41332.11
550.25	41399.69
550.45	41545.09
550.66	41260.43
550.86	41368.97
551.06	41706.88
551.26	41483.66
551.46	41665.92
551.66	41657.73
551.87	41461.13
552.07	41817.47
552.27	41465.22
552.47	41584.01
552.67	42159.48
552.87	41713.03
553.07	42235.26
553.28	42020.22
553.48	42286.46
553.68	41821.57
553.88	42239.36
554.08	41997.70
554.28	42173.82
554.48	42055.04
554.69	42528.12
554.89	42648.95
555.09	42210.68
555.29	41901.44
555.49	42616.18
555.69	42040.70
555.89	42524.02
556.10	42519.93
556.30	42411.38
556.50	42870.13
556.70	42222.97
556.90	43017.58
557.10	42802.55
557.30	42902.90
557.50	42861.94
557.70	42976.62
557.91	43042.16
558.11	42894.71
558.31	42968.43
558.51	42831.22
558.71	42960.24
558.91	42845.55
559.11	42849.65
559.31	42939.76
559.51	42440.06
559.72	42945.90
559.92	42857.84
560.12	42925.42
560.32	43150.70
560.52	43013.49
560.72	43046.26
560.92	43193.71
561.12	42870.13
561.32	43494.76
561.52	42904.95
561.72	43689.32
561.93	42712.44
562.13	43529.58
562.33	43007.34
562.53	43439.47
562.73	42978.67
562.93	42964.34
563.13	43412.84
563.33	43351.40
563.53	43214.19
563.73	43169.13
563.93	43636.07
564.13	43771.24
564.33	43505.00
564.53	43466.09
564.74	43890.02
564.94	43206.00
565.14	43722.08
565.34	43269.48
565.54	43646.31
565.74	43545.96
565.94	43826.53
566.14	43228.52
566.34	43502.95
566.54	44045.66
566.74	43476.33
566.94	43531.62
567.14	43873.63
567.34	43754.85
567.54	44246.36
567.74	43836.77
567.94	43705.70
568.14	44303.71
568.34	44025.18
568.54	43748.71
568.74	43951.46
568.94	43847.01
569.14	43937.12
569.34	43980.13
569.54	44359.00
569.75	43902.31
569.95	43791.72
570.15	44262.75
570.35	44178.78
570.55	44252.51
570.75	44008.80
570.95	43847.01
571.15	44518.74
571.35	44234.08
571.55	44655.96
571.75	44168.54
571.95	44008.80
572.15	44191.07
572.35	44600.66
572.55	44389.72
572.75	44610.90
572.95	44637.53
573.15	44475.74
573.35	44383.58
573.55	44035.42
573.75	44432.73
573.95	44784.98
574.15	44416.35
574.35	44827.99
574.55	44860.76
574.75	44246.36
574.95	44916.05
575.15	44619.10
575.34	44991.83
575.54	44791.12
575.74	44787.03
575.94	45114.70
576.14	44940.63
576.34	45245.77
576.54	44883.28
576.74	44963.15
576.94	45145.42
577.14	45372.75
577.34	45233.49
577.54	44997.97
577.74	45405.52
577.94	45634.89
578.14	45229.39
578.34	45401.42
578.54	45126.99
578.74	45325.64
578.94	45839.68
579.14	45397.32
579.34	45638.98
579.54	45413.71
579.74	45921.60
579.94	45675.85
580.13	45806.92
580.33	45731.14
580.53	46159.17
580.73	45892.93
580.93	46269.76
581.13	45950.27
581.33	46120.26
581.53	46593.34
581.73	46437.69
581.93	46454.08
582.13	46208.32
582.33	46542.14
582.53	46030.15
582.73	46568.76
582.92	46622.01
583.12	46726.46
583.32	46673.21
583.52	46409.02
583.72	46445.88
583.92	46753.08
584.12	46402.88
584.32	47244.59
584.52	46585.15
584.72	47019.31
584.92	46937.40
585.11	47631.66
585.31	47021.36
585.51	47013.17
585.71	46822.71
585.91	47705.38
586.11	46912.82
586.31	47240.50
586.51	47213.87
586.71	47277.36
586.91	47641.90
587.10	47344.94
587.30	47947.04
587.50	47838.50
587.70	47822.12
587.90	47942.95
588.10	47699.24
588.30	47883.56
588.50	48137.51
588.69	47754.54
588.89	47828.26
589.09	47781.16
589.29	48053.54
589.49	48307.49
589.69	47901.99
589.89	48583.96
590.08	48031.01
590.28	48287.01
590.48	48502.04
590.68	48217.38
590.88	48444.70
591.08	48461.08
591.28	48074.02
591.47	48663.83
591.67	48215.33
591.87	48422.17
592.07	48330.01
592.27	48497.95
592.47	48663.83
592.67	48692.50
592.86	48997.65
593.06	49407.25
593.26	49011.99
593.46	49030.42
593.66	49151.25
593.86	49028.37
594.05	49079.57
594.25	49196.31
594.45	49067.28
594.65	49329.42
594.85	48819.48
595.05	49724.68
595.24	49638.67
595.44	49562.89
595.64	49329.42
595.84	49478.92
596.04	49786.12
596.23	49790.22
596.43	50150.66
596.63	49460.49
596.83	49913.09
597.03	50425.09
597.22	50437.37
597.42	50455.81
597.62	50496.77
597.82	50414.85
598.02	50410.75
598.21	50631.93
598.41	50679.03
598.61	50644.22
598.81	50629.88
599.01	50707.71
599.20	50740.47
599.40	50840.82
599.60	50889.98
599.80	50771.19
600.00	51090.68
600.19	51145.97
600.39	50869.50
600.59	51186.93
600.79	51062.00
600.98	51330.29
601.18	51465.45
601.38	51451.12
601.58	51619.05
601.78	51563.76
601.97	51432.69
602.17	52413.66
602.37	51877.10
602.57	51733.74
602.76	52206.82
602.96	51895.53
603.16	52159.72
603.36	52075.75
603.55	52540.64
603.75	52172.00
603.95	52098.28
604.15	52632.80
604.34	52559.07
604.54	52511.97
604.74	52552.93
604.94	52878.55
605.13	53085.40
605.33	52923.61
605.53	52772.06
605.73	53148.88
605.92	52962.52
606.12	53253.33
606.32	53290.19
606.52	53165.27
606.71	53224.66
606.91	53224.66
607.11	53454.03
607.30	53304.53
607.50	53564.62
607.70	53707.98
607.90	52999.38
608.09	53294.29
608.29	53490.90
608.49	54031.56
608.68	53548.24
608.88	54004.94
609.08	53912.78
609.28	54254.79
609.47	53632.21
609.67	54615.23
609.87	53908.68
610.06	54453.44
610.26	54049.99
610.46	54908.09
610.66	54256.84
610.85	54598.85
611.05	54494.40
611.25	54371.52
611.44	54144.20
611.64	54623.42
611.84	54641.85
612.03	54531.26
612.23	54957.24
612.43	54627.52
612.62	54566.08
612.82	54582.46
613.02	54639.81
613.21	54838.46
613.41	54617.28
613.61	55065.78
613.80	54482.11
614.00	54885.56
614.20	55018.68
614.39	55069.88
614.59	55456.95
614.79	55243.96
614.98	55295.16
615.18	55272.63
615.38	55026.87
615.57	54953.15
615.77	55637.17
615.97	55219.38
616.16	55422.13
616.36	55155.89
616.56	55594.16
616.75	55862.44
616.95	55424.18
617.15	55510.19
617.34	55628.98
617.54	55522.48
617.74	55786.67
617.93	55215.29
618.13	55131.32
618.32	55454.90
618.52	55303.35
618.72	55350.45
618.91	55538.86
619.11	55231.67
619.31	55596.21
619.50	55411.89
619.70	55381.17
619.90	55338.16
620.09	55579.82
620.29	55581.87
620.48	55502.00
620.68	56085.67
620.88	55266.48
621.07	55493.81
621.27	55846.06
621.46	55483.57
621.66	56046.76
621.86	55932.07
622.05	55467.19
622.25	55913.64
622.44	55516.34
622.64	55690.41
622.84	56067.24
623.03	55784.62
623.23	55880.88
623.42	55841.96
623.62	55987.37
623.82	55923.88
624.01	55958.70
624.21	55764.14
624.40	55487.67
624.60	55846.06
624.80	55563.44
624.99	55522.48
625.19	55248.05
625.38	56284.33
625.58	55962.79
625.77	55833.77
625.97	56011.95
626.17	55960.75
626.36	56177.83
626.56	56116.39
626.75	55696.56
626.95	56202.41
627.14	55710.89
627.34	55786.67
627.54	55659.69
627.73	55968.94
627.93	56028.33
628.12	55426.23
628.32	56059.05
628.51	55848.11
628.71	56065.19
628.90	56073.38
629.10	56321.19
629.30	56030.38
629.49	55862.44
629.69	56126.63
629.88	56489.12
630.08	56341.67
630.27	56009.90
630.47	56511.65
630.66	56143.02
630.86	56183.97
631.05	55653.55
631.25	56349.86
631.44	56325.28
631.64	56028.33
631.84	55956.65
632.03	56847.52
632.23	55858.35
632.42	56456.35
632.62	56202.41
632.81	55872.68
633.01	56370.34
633.20	56196.26
633.40	56329.38
633.59	56200.36
633.79	55831.72
633.98	56210.60
634.18	56276.13
634.37	56427.68
634.57	56329.38
634.76	56669.34
634.96	56261.80
635.15	56636.58
635.35	56351.91
635.54	56351.91
635.74	56583.33
635.93	56317.09
636.13	56878.24
636.32	56499.36
636.52	56364.20
636.71	56462.50
636.91	56523.94
637.10	56329.38
637.30	56274.09
637.49	55944.36
637.69	56130.73
637.88	56636.58
638.08	56800.41
638.27	56427.68
638.46	56542.37
638.66	55676.08
638.85	55899.31
639.05	56487.07
639.24	56726.69
639.44	56046.76
639.63	56497.31
639.83	56845.47
640.02	56411.30
640.22	56833.18
640.41	56734.88
640.61	56161.45
640.80	56691.87
640.99	56663.20
641.19	56868.00
641.38	56616.10
641.58	56417.44
641.77	56394.92
641.97	56370.34
642.16	56530.08
642.36	56859.80
642.55	56841.37
642.74	56302.76
642.94	56853.66
643.13	56120.49
643.33	56747.17
643.52	56630.43
643.72	56714.40
643.91	56628.38
644.10	56251.56
644.30	56972.44
644.49	56138.92
644.69	56861.85
644.88	56474.79
645.08	56251.56
645.27	56591.52
645.46	56421.54
645.66	56908.96
645.85	56552.61
646.05	56233.13
646.24	56632.48
646.43	56861.85
646.63	57093.27
646.82	57093.27
647.02	56523.94
647.21	56929.44
647.40	56425.64
647.60	56669.34
647.79	57066.65
647.99	56575.14
648.18	56317.09
648.37	57230.49
648.57	57128.09
648.76	56523.94
648.96	56612.00
649.15	56863.90
649.34	56855.71
649.54	56824.99
649.73	56609.95
649.92	57228.44
650.12	56509.60
650.31	56618.14
650.51	57046.17
650.70	57138.33
650.89	56906.91
651.09	57365.65
651.28	56833.18
651.47	57175.19
651.67	56951.96
651.86	57353.36
652.06	56401.06
652.25	56851.61
652.44	56800.41
652.64	56384.68
652.83	56677.54
653.02	56472.74
653.22	57132.18
653.41	56411.30
653.60	56771.74
653.80	56558.75
653.99	56687.78
654.18	57154.71
654.38	56493.22
654.57	56976.54
654.76	56620.19
654.96	56165.54
655.15	56366.24
655.34	56503.46
655.54	56380.58
655.73	56882.33
655.92	57017.50
656.12	56704.16
656.31	56636.58
656.50	56818.84
656.70	56677.54
656.89	56052.90
657.08	56966.30
657.28	56962.20
657.47	56743.07
657.66	56685.73
657.86	56738.97
658.05	56546.47
658.24	56661.15
658.43	56399.01
658.63	56390.82
658.82	56489.12
659.01	56829.08
659.21	56837.28
659.40	56487.07
659.59	56464.55
659.79	56695.97
659.98	56632.48
660.17	57310.36
660.36	56335.52
660.56	56370.34
660.75	56392.87
660.94	56618.14
661.14	56505.51
661.33	56571.04
661.52	56063.14
661.71	56681.63
661.91	56143.02
662.10	56095.91
662.29	56880.28
662.49	56321.19
662.68	56362.15
662.87	56358.05
663.06	56419.49
663.26	56302.76
663.45	56767.65
663.64	56233.13
663.83	56992.92
664.03	56603.81
664.22	56214.69
664.41	56472.74
664.60	56460.45
664.80	56118.44
664.99	56278.18
665.18	55846.06
665.37	56368.29
665.57	56411.30
665.76	55942.31
665.95	56566.94
666.14	55844.01
666.34	56472.74
666.53	55985.32
666.72	55917.74
666.91	55794.86
667.11	55489.71
667.30	56333.48
667.49	55727.28
667.68	55817.39
667.87	55731.37
668.07	56165.54
668.26	56067.24
668.45	56030.38
668.64	55690.41
668.84	56437.92
669.03	55942.31
669.22	56009.90
669.41	55676.08
669.60	56050.86
669.80	55452.85
669.99	56292.52
670.18	55706.80
670.37	55925.93
670.57	56245.41
670.76	55502.00
670.95	56310.95
671.14	55858.35
671.33	55674.03
671.53	56095.91
671.72	55682.22
671.91	55170.23
672.10	55538.86
672.29	55815.34
672.48	55583.92
672.68	55776.43
672.87	55358.64
673.06	55264.44
673.25	55420.08
673.44	55211.19
673.64	55145.65
673.83	55327.92
674.02	55260.34
674.21	55379.12
674.40	56104.10
674.59	54953.15
674.79	55194.81
674.98	55420.08
675.17	55520.43
675.36	55203.00
675.55	55243.96
675.74	55254.20
675.94	55243.96
676.13	55315.64
676.32	55424.18
676.51	55526.58
676.70	55182.52
676.89	55071.93
677.08	55669.93
677.28	54824.12
677.47	55399.60
677.66	55497.91
677.85	54891.71
678.04	55305.40
678.23	54957.24
678.42	55211.19
678.62	55186.61
678.81	55129.27
679.00	55135.41
679.19	55575.73
679.38	54858.94
679.57	55256.24
679.76	55559.34
679.96	55135.41
680.15	55000.25
680.34	54514.88
680.53	54977.72
680.72	55116.98
680.91	55143.61
681.10	54719.68
681.29	54740.16
681.48	54998.20
681.68	54863.03
681.87	54793.40
682.06	54643.90
682.25	54965.43
682.44	54486.21
682.63	54729.92
682.82	54518.98
683.01	54394.05
683.20	54418.63
683.39	54187.21
683.59	54449.35
683.78	54217.92
683.97	54174.92
684.16	54414.53
684.35	54156.49
684.54	54293.70
684.73	54600.89
684.92	53873.87
685.11	54400.19
685.30	54080.71
685.49	54547.65
685.69	54473.92
685.88	54682.81
686.07	54072.52
686.26	54320.32
686.45	54150.34
686.64	54136.01
686.83	54308.04
687.02	54170.82
687.21	54228.16
687.40	54136.01
687.59	54162.63
687.78	53841.10
687.97	54512.83
688.16	54113.48
688.35	54154.44
688.54	53966.02
688.74	54260.93
688.93	54209.73
689.12	53873.87
689.31	54021.32
689.50	54088.90
689.69	53593.29
689.88	53419.22
690.07	53933.26
690.26	53499.09
690.45	53935.30
690.64	53740.75
690.83	53312.72
691.02	53583.05
691.21	53427.41
691.40	53523.66
691.59	53206.23
691.78	53806.28
691.97	54113.48
692.16	53562.57
692.35	53734.60
692.54	53470.42
692.73	53519.57
692.92	53853.39
693.11	53865.67
693.30	53546.19
693.49	54066.38
693.68	53271.76
693.87	53531.86
694.06	53089.49
694.25	52921.56
694.44	53093.59
694.63	53679.31
694.82	53740.75
695.01	53408.98
695.20	53347.54
695.39	53122.26
695.58	53187.80
695.77	52976.86
695.96	53249.24
696.15	53312.72
696.34	53427.41
696.53	53636.30
696.72	53447.89
696.91	53122.26
697.10	53497.04
697.29	53124.31
697.48	53034.20
697.67	53089.49
697.86	52665.56
698.05	53130.45
698.24	53400.79
698.43	52866.27
698.62	53077.21
698.81	52626.65
699.00	53105.88
699.19	52589.79
699.38	52821.21
699.57	52585.69
699.76	53302.48
699.95	52739.29
700.14	52761.82
700.32	53101.78
700.51	53077.21
700.70	53105.88
700.89	52741.34
701.08	52950.23
701.27	52475.10
701.46	53437.65
701.65	52518.11
701.84	52987.10
702.03	52884.70
702.22	52384.99
702.41	52880.60
702.60	52821.21
702.79	52698.33
702.98	52290.79
703.17	52393.18
703.35	52401.38
703.54	52393.18
703.73	53089.49
703.92	52493.54
704.11	52333.79
704.30	52643.04
704.49	52282.59
704.68	51918.06
704.87	52301.03
705.06	52010.21
705.25	52139.24
705.43	52593.89
705.62	52122.85
705.81	51987.69
706.00	52260.07
706.19	51961.06
706.38	51807.47
706.57	52360.42
706.76	51741.93
706.95	52139.24
707.14	51870.95
707.32	51334.38
707.51	51709.16
707.70	52067.56
707.89	52235.49
708.08	52188.39
708.27	52083.94
708.46	52524.25
708.65	51791.08
708.84	51954.92
709.02	51852.52
709.21	51903.72
709.40	52002.02
709.59	52262.11
709.78	51969.26
709.97	52167.91
710.16	51875.05
710.34	51995.88
710.53	51758.31
710.72	51737.83
710.91	52034.79
711.10	51809.51
711.29	51428.59
711.48	51854.57
711.66	51576.04
711.85	51348.72
712.04	51383.54
712.23	51404.02
712.42	51565.81
712.61	52014.31
712.80	51160.31
712.98	51746.03
713.17	51094.77
713.36	51545.33
713.55	51541.23
713.74	51553.52
713.93	51492.08
714.11	51467.50
714.30	51031.29
714.49	51334.38
714.68	51127.54
714.87	51102.96
715.06	51459.31
715.24	51225.84
715.43	51627.24
715.62	51053.81
715.81	51328.24
716.00	51682.54
716.18	50935.03
716.37	50695.42
716.56	50545.92
716.75	51449.07
716.94	51344.62
717.12	50681.08
717.31	51176.69
717.50	50896.12
717.69	50943.22
717.88	50507.01
718.06	50769.15
718.25	51385.58
718.44	50748.67
718.63	50756.86
718.82	50527.48
719.00	50896.12
719.19	50502.91
719.38	50400.51
719.57	50382.08
719.76	50183.43
719.94	49954.05
720.13	50298.11
720.32	50144.51
720.51	50369.79
720.69	50418.94
720.88	50187.52
721.07	50390.27
721.26	49878.28
721.44	50035.97
721.63	50029.83
721.82	49720.59
722.01	49792.26
722.20	50183.43
722.38	49550.60
722.57	49181.97
722.76	49693.96
722.95	50242.82
723.13	49239.31
723.32	49591.56
723.51	49349.90
723.70	49153.30
723.88	49677.58
724.07	49384.72
724.26	49894.66
724.44	49294.61
724.63	49616.14
724.82	49411.34
725.01	49560.84
725.19	49575.18
725.38	49095.95
725.57	49249.55
725.76	49513.74
725.94	49120.53
726.13	49038.61
726.32	49110.29
726.51	48848.15
726.69	49962.25
726.88	49558.80
727.07	49558.80
727.25	49200.40
727.44	49329.42
727.63	49198.35
727.82	49261.84
728.00	48975.12
728.19	48911.64
728.38	49112.34
728.56	48882.97
728.75	49513.74
728.94	48579.87
729.12	49489.16
729.31	49075.48
729.50	48819.48
729.69	48958.74
729.87	49034.52
730.06	48950.55
730.25	49276.18
730.43	49304.85
730.62	48864.53
730.81	49427.73
730.99	49427.73
731.18	49069.33
731.37	49204.50
731.55	49427.73
731.74	49095.95
731.93	49124.63
732.11	49261.84
732.30	48903.45
732.49	48975.12
732.67	48952.60
732.86	49059.09
733.05	48667.93
733.23	48938.26
733.42	48876.82
733.61	49063.19
733.79	49124.63
733.98	49239.31
734.17	48667.93
734.35	48946.45
734.54	49067.28
734.73	49067.28
734.91	49087.76
735.10	48923.93
735.29	49218.83
735.47	48880.92
735.66	49145.11
735.84	48796.95
736.03	48784.66
736.22	49409.29
736.40	48612.63
736.59	48940.31
736.78	48657.69
736.96	48733.46
737.15	48735.51
737.33	48612.63
737.52	48528.67
737.71	48379.17
737.89	48577.82
738.08	48383.26
738.27	48817.43
738.45	49057.04
738.64	48327.97
738.82	49007.89
739.01	48299.30
739.20	48729.37
739.38	48543.00
739.57	48786.71
739.75	48440.60
739.94	48178.46
740.13	48690.46
740.31	48250.14
740.50	48504.09
740.68	48555.29
740.87	48733.46
741.06	48844.05
741.24	48409.89
741.43	48162.08
741.61	48645.40
741.80	48108.83
741.99	48241.95
742.17	47897.89
742.36	48186.66
742.54	47985.96
742.73	48033.06
742.91	48174.37
743.10	48192.80
743.29	48559.39
743.47	48346.40
743.66	48278.82
743.84	48274.72
744.03	48215.33
744.21	48022.82
744.40	48778.52
744.59	47928.61
744.77	47615.27
744.96	48248.10
745.14	48336.16
745.33	47707.43
745.51	47824.17
745.70	48311.58
745.88	47695.14
746.07	48135.46
746.26	47365.42
746.44	47523.11
746.63	47846.69
746.81	47858.98
747.00	47682.86
747.18	47570.22
747.37	47609.13
747.55	47549.74
747.74	47977.76
747.92	47355.18
748.11	46935.35
748.29	47519.02
748.48	47705.38
748.66	46902.58
748.85	47420.72
749.03	47494.44
749.22	47187.25
749.41	47252.78
749.59	47375.66
749.78	47154.48
749.96	47025.46
750.15	47299.89
750.33	47572.27
750.52	47447.34
750.70	47002.93
750.89	46646.58
751.07	46687.54
751.26	46619.96
751.44	47027.51
751.63	46759.22
751.81	46746.93
752.00	46773.56
752.18	46818.61
752.37	46914.87
752.55	46234.94
752.74	46761.27
752.92	46282.05
753.10	46538.04
753.29	46380.35
753.47	46470.46
753.66	46153.02
753.84	46392.64
754.03	46300.48
754.21	46333.24
754.40	46386.49
754.58	46513.47
754.77	46628.15
754.95	45798.73
755.14	46142.78
755.32	46275.90
755.51	46071.10
755.69	46097.73
755.88	45901.12
756.06	45942.08
756.24	45667.66
756.43	45811.01
756.61	45804.87
756.80	45555.02
756.98	45489.48
757.17	45675.85
757.35	45372.75
757.54	45403.47
757.72	45768.01
757.90	45622.60
758.09	45620.55
758.27	45626.70
758.46	45417.80
758.64	45462.86
758.83	45550.92
759.01	45464.91
759.19	45507.91
759.38	45323.60
759.56	45505.87
759.75	45237.58
759.93	45092.18
760.12	45161.81
760.30	45280.59
760.48	44965.20
760.67	44846.42
760.85	45010.26
761.04	45274.45
761.22	45110.61
761.40	44920.15
761.59	44774.74
761.77	45006.16
761.96	44875.09
762.14	45184.33
762.32	44533.08
762.51	44641.62
762.69	44823.89
762.88	44246.36
763.06	44811.60
763.24	44494.17
763.43	44678.49
763.61	44236.12
763.80	44156.25
763.98	44344.67
764.16	44279.13
764.35	44062.05
764.53	43732.32
764.72	44186.97
764.90	43892.07
765.08	44035.42
765.27	44031.33
765.45	43804.00
765.63	43656.55
765.82	43890.02
766.00	43601.25
766.18	43470.18
766.37	43922.79
766.55	43861.35
766.74	43496.81
766.92	43386.22
767.10	43220.33
767.29	43187.56
767.47	43203.95
767.65	43339.11
767.84	42700.15
768.02	43468.14
768.20	43140.46
768.39	43154.80
768.57	43375.98
768.75	43556.20
768.94	43162.99
769.12	42915.19
769.30	42784.12
769.49	42863.99
769.67	42706.29
769.85	42446.20
770.04	42726.77
770.22	42210.68
770.40	42263.93
770.59	42171.77
770.77	42534.26
770.95	42198.40
771.14	42294.65
771.32	42552.69
771.50	41901.44
771.69	41635.20
771.87	42206.59
772.05	42139.00
772.24	42026.37
772.42	41731.46
772.60	42177.92
772.78	41825.67
772.97	41756.03
773.15	42165.63
773.33	42063.23
773.52	41688.45
773.70	41801.09
773.88	41889.15
774.07	41461.13
774.25	41788.80
774.43	41549.19
774.61	41864.58
774.80	41250.19
774.98	41657.73
775.16	41600.39
775.34	42143.10
775.53	41178.51
775.71	42044.80
775.89	41631.11
776.08	41672.07
776.26	41858.43
776.44	41481.61
776.62	41880.96
776.81	41758.08
776.99	41895.30
777.17	41643.40
777.35	41885.06
777.54	41770.37
777.72	41645.44
777.90	41303.43
778.08	42141.05
778.27	41645.44
778.45	41768.32
778.63	42157.44
778.81	41954.69
779.00	42216.83
779.18	41940.35
779.36	42194.30
779.54	42087.81
779.73	41952.64
779.91	41688.45
780.09	42014.08
780.27	42366.33
780.46	41960.83
780.64	42341.75
780.82	41883.01
781.00	41946.50
781.19	41993.60
781.37	42890.61
781.55	42552.69
781.73	42792.31
781.91	42212.73
782.10	42294.65
782.28	42063.23
782.46	42444.15
782.64	42657.14
782.82	42057.09
783.01	42302.84
783.19	42388.86
783.37	42372.47
783.55	42155.39
783.74	42661.24
783.92	41905.54
784.10	42495.35
784.28	42321.27
784.46	41807.23
784.64	41880.96
784.83	42188.16
785.01	42286.46
785.19	42405.24
785.37	42325.37
785.55	42104.19
785.74	41921.92
785.92	41983.36
786.10	42208.64
786.28	42069.37
786.46	41796.99
786.64	41805.19
786.83	41997.70
787.01	41893.25
787.19	41751.94
787.37	41735.56
787.55	41850.24
787.74	41424.26
787.92	41612.68
788.10	41233.80
788.28	41280.91
788.46	41657.73
788.64	41309.58
788.82	41493.89
789.01	41596.29
789.19	41606.53
789.37	41252.23
789.55	41213.32
789.73	40773.01
789.91	40949.14
790.09	40949.14
790.28	40801.68
790.46	40179.10
790.64	41022.86
790.82	40695.19
791.00	40803.73
791.18	40330.65
791.36	40435.10
791.55	40246.68
791.73	40279.45
791.91	40181.15
792.09	40070.56
792.27	39794.08
792.45	39957.92
792.63	39890.34
792.81	39597.48
793.00	39607.72
793.18	39609.76
793.36	39038.38
793.54	39239.08
793.72	38923.69
793.90	38804.91
794.08	38960.56
794.26	38995.37
794.44	39204.27
794.62	38827.44
794.81	38884.78
794.99	38942.13
795.17	38809.01
795.35	38550.96
795.53	38821.30
795.71	38755.76
795.89	38372.79
796.07	38049.21
796.25	38190.52
796.43	37852.61
796.61	37717.44
796.80	37733.82
796.98	37836.22
797.16	37219.78
797.34	37572.03
797.52	37486.02
797.70	37828.03
797.88	37479.88
798.06	37316.04
798.24	37447.11
798.42	37195.21
798.60	36779.47
798.78	37027.28
798.96	36900.30
799.14	36513.23
799.32	36967.88
799.51	36214.23
799.69	36472.28
799.87	36941.26
800.05	36339.16
800.23	36447.70
800.41	36247.00
800.59	36523.47
800.77	36077.02
800.95	35751.39
801.13	36179.42
801.31	35642.85
801.49	35728.86
801.67	35595.74
801.85	35939.80
802.03	35401.19
802.21	35397.09
802.39	35087.85
802.57	35257.83
802.75	35085.80
802.93	34928.11
803.11	35239.40
803.29	34610.67
803.47	34586.10
803.65	34692.59
803.83	34944.49
804.01	34663.92
804.19	34326.00
804.37	34196.98
804.55	34334.20
804.73	34119.16
804.91	34168.31
805.09	34133.50
805.27	34039.29
805.45	33836.54
805.63	34010.62
805.81	33644.03
805.99	34141.69
806.17	34315.76
806.35	33838.59
806.53	33285.64
806.71	33811.96
806.89	33490.43
807.07	33189.38
807.25	33385.99
807.43	33316.36
807.61	33437.19
807.79	33234.44
807.97	32562.70
808.15	32859.66
808.33	32685.58
808.51	32613.90
808.69	32781.84
808.87	32626.19
809.05	32392.72
809.23	32388.63
809.41	32206.36
809.59	32359.95
809.77	32359.95
809.95	31825.43
810.13	32226.84
810.31	31997.46
810.49	32177.68
810.67	31960.60
810.84	32040.47
811.02	31972.89
811.20	31700.51
811.38	31831.58
811.56	31618.59
811.74	31178.28
811.92	31268.39
812.10	31460.90
812.28	31675.93
812.46	31104.55
812.64	31274.53
812.82	31106.60
813.00	31075.88
813.18	31163.94
813.36	31118.89
813.53	30799.40
813.71	30615.08
813.89	30496.30
814.07	30797.35
814.25	30920.23
814.43	30514.73
814.61	30447.15
814.79	30572.08
814.97	30596.65
815.15	30793.26
815.33	30275.12
815.50	30099.00
815.68	30533.17
815.86	30621.23
816.04	30201.40
816.22	29722.17
816.40	29953.59
816.58	29681.21
816.76	29836.86
816.94	30047.80
817.11	29824.57
817.29	29535.81
817.47	29564.48
817.65	29466.17
817.83	29406.78
818.01	29320.77
818.19	29255.23
818.37	29322.82
818.54	29101.64
818.72	29247.04
818.90	28829.26
819.08	28954.18
819.26	29226.56
819.44	29181.51
819.62	29040.20
819.80	28636.75
819.97	29146.69
820.15	29036.10
820.33	28794.44
820.51	28821.06
820.69	28403.28
820.87	28991.05
821.05	29075.01
821.22	28487.25
821.40	28544.59
821.58	28472.91
821.76	28405.33
821.94	28546.64
822.12	28231.25
822.29	28454.48
822.47	28386.89
822.65	28378.70
822.83	28388.94
823.01	28042.84
823.19	28409.42
823.36	27879.00
823.54	27680.35
823.72	28061.27
823.90	27897.43
824.08	27522.65
824.25	28038.74
824.43	27833.94
824.61	27612.76
824.79	27967.06
824.97	27584.09
825.15	27879.00
825.32	27432.54
825.50	27242.08
825.68	27258.46
825.86	27319.90
826.04	27629.15
826.21	27405.92
826.39	27383.39
826.57	27348.57
826.75	27264.61
826.93	26932.84
827.10	26848.87
827.28	27098.72
827.46	27168.35
827.64	27389.53
827.81	26873.45
827.99	26955.36
828.17	27072.10
828.35	26725.99
828.53	26932.84
828.70	26529.39
828.88	26545.77
829.06	26807.91
829.24	26738.28
829.41	26672.74
829.59	26707.56
829.77	26711.66
829.95	26494.57
830.12	26336.88
830.30	26271.34
830.48	26537.58
830.66	26453.61
830.84	26326.64
831.01	26138.23
831.19	25955.96
831.37	26150.51
831.55	26105.46
831.72	26046.07
831.90	26003.06
832.08	26222.19
832.25	26259.06
832.43	26109.55
832.61	25646.71
832.79	25626.23
832.96	25534.07
833.14	25618.04
833.32	26293.87
833.50	25648.76
833.67	25794.17
833.85	25523.83
834.03	25245.31
834.20	25654.90
834.38	25577.08
834.56	25677.43
834.74	25398.91
834.91	25499.26
835.09	25249.41
835.27	25192.06
835.44	25142.91
835.62	24735.37
835.80	25226.88
835.98	25206.40
836.15	25056.90
836.33	25130.62
836.51	25212.54
836.68	25044.61
836.86	24952.45
837.04	25190.02
837.21	25079.43
837.39	25329.28
837.57	25028.23
837.75	25196.16
837.92	24745.61
838.10	24655.50
838.28	24491.66
838.45	24759.94
838.63	24372.88
838.81	24534.67
838.98	24512.14
839.16	24659.59
839.34	24282.77
839.51	24399.50
839.69	24348.30
839.87	24342.16
840.04	24350.35
840.22	24479.37
840.40	24559.24
840.57	24233.61
840.75	24311.44
840.93	24213.13
841.10	24270.48
841.28	24366.73
841.46	24381.07
841.63	24493.71
841.81	24030.87
841.98	24260.24
842.16	24112.78
842.34	23983.76
842.51	23950.99
842.69	24084.11
842.87	24137.36
843.04	24000.15
843.22	23664.28
843.40	23750.29
843.57	23768.73
843.75	23846.55
843.92	23645.85
844.10	23672.47
844.28	23891.60
844.45	23713.43
844.63	23723.67
844.81	23596.70
844.98	23791.25
845.16	23701.14
845.33	23735.96
845.51	23651.99
845.69	23606.94
845.86	23852.69
846.04	23193.25
846.21	23320.22
846.39	23355.04
846.57	23195.29
846.74	23346.84
846.92	23017.12
847.09	23152.29
847.27	23291.55
847.45	23152.29
847.62	23289.50
847.80	23348.89
847.97	22982.31
848.15	23264.92
848.32	23006.88
848.50	22769.32
848.68	22822.56
848.85	22931.11
849.03	22793.89
849.20	23176.86
849.38	22679.21
849.56	22830.76
849.73	22718.12
849.91	22998.69
850.08	22816.42
850.26	22447.79
850.43	22611.62
850.61	22732.45
850.78	22154.93
850.96	22574.76
851.14	22400.68
851.31	22738.60
851.49	22447.79
851.66	22838.95
851.84	22765.22
852.01	22556.33
852.19	22623.91
852.36	22630.05
852.54	22398.63
852.71	22347.44
852.89	22099.63
853.07	22308.52
853.24	22245.04
853.42	22351.53
853.59	22263.47
853.77	22038.19
853.94	22298.28
854.12	22390.44
854.29	22052.53
854.47	22275.76
854.64	22163.12
854.82	21964.46
854.99	22159.02
855.17	22062.77
855.34	22032.05
855.52	21860.02
855.69	22079.15
855.87	21853.87
856.04	21616.31
856.22	21790.39
856.39	21663.41
856.57	21735.09
856.74	21706.42
856.92	21728.95
857.09	21395.13
857.27	21882.55
857.44	21745.33
857.62	21819.06
857.79	21827.25
857.97	21694.13
858.14	21702.32
858.32	21499.58
858.49	21487.29
858.67	21499.58
858.84	21352.12
859.02	21573.30
859.19	21415.61
859.37	21149.37
859.54	21153.47
859.72	21358.27
859.89	21440.18
860.06	21327.55
860.24	21198.52
860.41	21157.57
860.59	21089.98
860.76	21421.75
860.94	21073.60
861.11	21042.88
861.29	20930.24
861.46	20848.32
861.64	20760.26
861.81	20858.56
861.98	21141.18
862.16	20465.35
862.33	20729.54
862.51	20868.80
862.68	20780.74
862.86	20442.82
863.03	20625.09
863.21	20844.23
863.38	20768.45
863.55	20815.55
863.73	20602.57
863.90	20876.99
864.08	20512.46
864.25	20512.46
864.43	20483.78
864.60	20502.22
864.77	20430.54
864.95	20483.78
865.12	20217.55
865.30	20565.70
865.47	20412.10
865.64	20238.03
865.82	20625.09
865.99	20661.96
866.17	20197.07
866.34	20467.40
866.51	20242.12
866.69	20391.62
866.86	20360.91
867.04	20188.88
867.21	20063.95
867.38	20143.82
867.56	19914.45
867.73	19922.64
867.91	20262.60
868.08	20147.92
868.25	19689.17
868.43	19771.09
868.60	19701.46
868.78	19766.99
868.95	19857.10
869.12	19771.09
869.30	19822.29
869.47	19795.67
869.64	19420.89
869.82	19506.90
869.99	19691.22
870.16	19650.26
870.34	19736.27
870.51	19537.62
870.69	19349.21
870.86	19443.42
871.03	19295.96
871.21	19349.21
871.38	19513.05
871.55	19318.49
871.73	19205.85
871.90	19007.20
872.07	19019.49
872.25	19248.86
872.42	18992.86
872.59	19121.88
872.77	19160.80
872.94	19150.56
873.11	19091.16
873.29	19230.43
873.46	19050.21
873.63	18890.46
873.81	18896.61
873.98	18968.29
874.15	18669.28
874.33	18669.28
874.50	18650.85
874.67	18915.04
874.85	19005.15
875.02	18577.12
875.19	18532.07
875.37	18650.85
875.54	18493.16
875.71	18634.47
875.88	18556.64
876.06	18366.18
876.23	18564.84
876.40	18208.49
876.58	18235.11
876.75	18228.97
876.92	18222.83
877.10	18220.78
877.27	18052.84
877.44	18269.93
877.61	18011.89
877.79	18093.80
877.96	18132.72
878.13	17983.21
878.31	18069.23
878.48	17780.46
878.65	17825.52
878.82	17874.67
879.00	17940.21
879.17	17868.53
879.34	17891.06
879.51	17680.11
879.69	17739.51
879.86	17673.97
880.03	17569.52
880.21	17532.66
880.38	17905.39
880.55	17708.79
880.72	17594.10
880.90	17608.44
881.07	17557.24
881.24	17329.91
881.41	17757.94
881.59	17299.19
881.76	17387.25
881.93	17180.41
882.10	17682.16
882.28	17428.21
882.45	17428.21
882.62	17557.24
882.79	17114.87
882.96	16860.93
883.14	17381.11
883.31	17153.79
883.48	17350.39
883.65	17057.53
883.83	17278.71
884.00	17100.54
884.17	16967.42
884.34	17274.62
884.51	16938.75
884.69	17039.10
884.86	16899.84
885.03	17045.24
885.20	16699.14
885.38	16918.27
885.55	16832.26
885.72	17112.83
885.89	16914.17
886.06	17039.10
886.24	16817.92
886.41	16699.14
886.58	16946.94
886.75	17061.63
886.92	16709.38
887.10	16754.43
887.27	16799.49
887.44	17041.15
887.61	16678.66
887.78	16873.21
887.95	16787.20
888.13	16617.22
888.30	16680.71
888.47	16449.28
888.64	16629.51
888.81	16439.05
888.99	16576.26
889.16	16404.23
889.33	16240.39
889.50	16330.50
889.67	16004.88
889.84	16244.49
890.01	16393.99
890.19	16477.96
890.36	16248.58
890.53	15961.87
890.70	15992.59
890.87	16226.06
891.04	15882.00
891.22	16103.18
891.39	15976.20
891.56	15863.57
891.73	16123.66
891.90	16037.64
892.07	16011.02
892.24	16045.84
892.42	15830.80
892.59	15871.76
892.76	15673.10
892.93	15818.51
893.10	15763.22
893.27	15898.38
893.44	15830.80
893.61	15705.87
893.79	15927.05
893.96	15812.37
894.13	15970.06
894.30	15902.48
894.47	15996.68
894.64	16099.08
894.81	15818.51
894.98	15607.57
895.15	15816.46
895.33	15781.65
895.50	15832.85
895.67	15875.85
895.84	15542.03
896.01	15470.36
896.18	15597.33
896.35	15863.57
896.52	15484.69
896.69	15773.46
896.86	15773.46
897.04	15681.30
897.21	15695.63
897.38	15746.83
897.55	15595.28
897.72	15662.86
897.89	15531.80
898.06	15664.91
898.23	15599.38
898.40	15339.29
898.57	15771.41
898.74	15734.54
898.91	15640.34
899.08	15482.64
899.26	15683.34
899.43	15853.33
899.60	15554.32
899.77	15556.37
899.94	15539.99
900.11	15353.62
900.28	15582.99
900.45	15415.06
900.62	15271.70
900.79	15398.68
900.96	15560.47
901.13	15605.52
901.30	15339.29
901.47	15449.88
901.64	15582.99
901.81	15589.14
901.98	15419.16
902.15	15681.30
902.32	15462.16
902.49	15701.78
902.66	15669.01
902.83	15425.30
903.01	15709.97
903.18	15597.33
903.35	15558.42
903.52	15574.80
903.69	15609.62
903.86	15828.75
904.03	15615.76
904.20	15685.39
904.37	15724.30
904.54	15718.16
904.71	15562.51
904.88	15550.23
905.05	15539.99
905.22	15548.18
905.39	15355.67
905.56	15361.81
905.73	15316.76
905.90	15621.91
906.07	15449.88
906.24	15595.28
906.41	15795.98
906.58	15486.74
906.75	15585.04
906.92	15429.40
907.09	15507.22
907.26	15474.45
907.43	15279.89
907.60	15294.23
907.77	15697.68
907.93	15484.69
908.10	15601.43
908.27	15726.35
908.44	15439.64
908.61	15421.20
908.78	15200.02
908.95	15466.26
909.12	15154.97
909.29	15386.39
909.46	15304.47
909.63	15552.27
909.80	15515.41
909.97	15482.64
910.14	15587.09
910.31	15277.85
910.48	15193.88
910.65	15099.67
910.82	15154.97
910.99	15310.61
911.16	15079.19
911.33	15279.89
911.50	15064.86
911.66	14931.74
911.83	15183.64
912.00	15052.57
912.17	14853.92
912.34	14991.13
912.51	15109.91
912.68	15132.44
912.85	14925.60
913.02	15138.58
913.19	14921.50
913.36	15015.71
913.53	14944.03
913.70	14880.54
913.86	15062.81
914.03	14843.68
914.20	14667.55
914.37	14853.92
914.54	14903.07
914.71	14946.08
914.88	14708.51
915.05	14681.89
915.22	14538.53
915.39	14692.13
915.55	14458.66
915.72	14303.01
915.89	14370.60
916.06	14364.45
916.23	14516.00
916.40	14307.11
916.57	14133.03
916.74	13969.19
916.91	14219.05
917.07	14085.93
917.24	14204.71
917.41	14245.67
917.58	14245.67
917.75	14217.00
917.92	14087.98
918.09	13827.88
918.26	14028.59
918.42	13934.38
918.59	13969.19
918.76	13899.56
918.93	13877.04
919.10	13743.92
919.27	13702.96
919.44	13901.61
919.60	13727.53
919.77	13618.99
919.94	13707.05
920.11	13711.15
920.28	13606.70
920.45	13694.77
920.61	13512.50
920.78	13561.65
920.95	13461.30
921.12	13391.67
921.29	13414.20
921.46	13375.28
921.62	13109.05
921.79	13270.84
921.96	13182.77
922.13	13092.66
922.30	13104.95
922.47	13137.72
922.63	12814.14
922.80	12951.35
922.97	12965.69
923.14	12580.67
923.31	12951.35
923.47	12719.93
923.64	13070.14
923.81	12429.12
923.98	12685.12
924.15	12570.43
924.32	12646.21
924.48	12609.34
924.65	12734.27
924.82	12275.52
924.99	12207.94
925.15	12220.23
925.32	12347.20
925.49	12230.47
925.66	12259.14
925.83	12209.99
925.99	12285.76
926.16	12123.98
926.33	11984.71
926.50	12058.44
926.67	12062.54
926.83	12040.01
927.00	11804.49
927.17	11693.90
927.34	11720.53
927.50	11812.68
927.67	11775.82
927.84	11454.29
928.01	11620.17
928.17	11573.07
928.34	11575.12
928.51	11439.95
928.68	11306.84
928.84	11257.68
929.01	11222.87
929.18	11183.96
929.35	11071.32
929.51	11118.42
929.68	10893.15
929.85	10829.66
930.02	11050.84
930.18	10719.07
930.35	10788.70
930.52	10872.67
930.69	10782.56
930.85	10800.99
931.02	10770.27
931.19	10731.36
931.36	10620.77
931.52	10493.79
931.69	10622.81
931.86	10499.94
932.02	10356.58
932.19	10198.88
932.36	10286.95
932.53	10239.84
932.69	10059.62
932.86	10420.06
933.03	10065.77
933.19	10182.50
933.36	10063.72
933.53	10047.33
933.70	10069.86
933.86	10000.23
934.03	9846.63
934.20	9836.39
934.36	9805.67
934.53	9676.65
934.70	9510.77
934.86	9647.98
935.03	9246.58
935.20	9318.26
935.36	9447.28
935.53	9172.85
935.70	9119.60
935.86	9228.15
936.03	8937.34
936.20	8929.14
936.36	8961.91
936.53	8861.56
936.70	8714.11
936.86	8802.17
937.03	8712.06
937.20	8474.49
937.36	8609.66
937.53	8300.42
937.70	8087.43
937.86	8195.97
938.03	8105.86
938.20	8206.21
938.36	8030.09
938.53	7913.35
938.70	7671.69
938.86	7853.96
939.03	7788.43
939.20	7604.11
939.36	7366.54
939.53	7440.27
939.70	7548.81
939.86	7255.95
940.03	7053.20
940.19	6952.85
940.36	7079.83
940.53	7049.11
940.69	6760.34
940.86	6784.92
941.03	6727.58
941.19	6565.79
941.36	6553.50
941.52	6631.32
941.69	6412.19
941.86	6490.01
942.02	6301.60
942.19	6438.81
942.35	6348.70
942.52	6139.81
942.69	6014.88
942.85	6107.04
943.02	6057.89
943.18	6137.76
943.35	5980.07
943.52	5851.05
943.68	5787.56
943.85	5955.49
944.01	5904.29
944.18	5713.83
944.35	5904.29
944.51	5705.64
944.68	5730.22
944.84	5572.52
945.01	5615.53
945.17	5623.72
945.34	5537.71
945.51	5603.24
945.67	5582.76
945.84	5531.56
946.00	5459.88
946.17	5451.69
946.33	5461.93
946.50	5574.57
946.67	5447.60
946.83	5535.66
947.00	5472.17
947.16	5468.08
947.33	5500.84
947.49	5396.40
947.66	5359.53
947.82	5474.22
947.99	5345.20
948.16	5550.00
948.32	5427.12
948.49	5447.60
948.65	5443.50
948.82	5527.47
948.98	5398.45
949.15	5396.40
949.31	5459.88
949.48	5414.83
949.64	5414.83
949.81	5506.99
949.97	5330.86
950.14	5351.34
950.30	5408.69
950.47	5447.60
950.63	5414.83
950.80	5468.08
950.96	5617.58
951.13	5408.69
951.30	5470.12
951.46	5459.88
951.63	5566.38
951.79	5545.90
951.96	5607.34
952.12	5521.32
952.29	5593.00
952.45	5388.21
952.62	5412.78
952.78	5582.76
952.94	5420.97
953.11	5609.39
953.27	5273.52
953.44	5595.05
953.60	5509.04
953.77	5664.68
953.93	5582.76
954.10	5554.09
954.26	5562.28
954.43	5541.80
954.59	5525.42
954.76	5646.25
954.92	5560.24
955.09	5525.42
955.25	5533.61
955.42	5478.32
955.58	5832.62
955.75	5562.28
955.91	5654.44
956.07	5648.30
956.24	5640.11
956.40	5730.22
956.57	5701.54
956.73	5566.38
956.90	5638.06
957.06	5570.48
957.23	5652.39
957.39	5619.63
957.56	5615.53
957.72	5408.69
957.88	5599.15
958.05	5646.25
958.21	5578.67
958.38	5599.15
958.54	5539.76
958.71	5765.03
958.87	5558.19
959.03	5543.85
959.20	5525.42
959.36	5511.08
959.53	5726.12
959.69	5490.60
959.85	5568.43
960.02	5566.38
960.18	5375.92
960.35	5568.43
960.51	5607.34
960.68	5492.65
960.84	5562.28
961.00	5527.47
961.17	5529.52
961.33	5537.71
961.50	5627.82
961.66	5707.69
961.82	5425.07
961.99	5668.78
962.15	5474.22
962.31	5494.70
962.48	5588.91
962.64	5640.11
962.81	5525.42
962.97	5466.03
963.13	5605.29
963.30	5650.35
963.46	5459.88
963.62	5459.88
963.79	5439.40
963.95	5595.05
964.12	5377.97
964.28	5431.21
964.44	5441.45
964.61	5429.17
964.77	5373.87
964.93	5636.01
965.10	5332.91
965.26	5394.35
965.42	5480.36
965.59	5373.87
965.75	5545.90
965.92	5420.97
966.08	5402.54
966.24	5472.17
966.41	5408.69
966.57	5408.69
966.73	5433.26
966.90	5377.97
967.06	5369.77
967.22	5494.70
967.39	5386.16
967.55	5410.73
967.71	5455.79
967.88	5365.68
968.04	5140.40
968.20	5377.97
968.37	5281.71
968.53	5357.49
968.69	5189.55
968.85	5298.10
969.02	5199.79
969.18	5339.05
969.34	5337.01
969.51	5283.76
969.67	5312.43
969.83	5076.91
970.00	5298.10
970.16	5179.31
970.32	5183.41
970.48	5394.35
970.65	5003.19
970.81	5119.92
970.97	5054.39
971.14	5177.26
971.30	5169.07
971.46	5107.63
971.63	5113.78
971.79	5111.73
971.95	5162.93
972.11	5019.57
972.28	5078.96
972.44	5199.79
972.60	4941.75
972.76	5050.29
972.93	4921.27
973.09	5212.08
973.25	4921.27
973.42	4951.99
973.58	5007.28
973.74	4911.03
973.90	5009.33
974.07	4825.01
974.23	4958.13
974.39	5078.96
974.55	4859.83
974.72	4917.17
974.88	4755.38
975.04	4839.35
975.20	4890.55
975.37	4951.99
975.53	4782.01
975.69	4841.40
975.85	4917.17
976.01	4792.25
976.18	4716.47
976.34	4835.25
976.50	4820.92
976.66	4837.30
976.83	4835.25
976.99	4874.17
977.15	4773.82
977.31	4622.27
977.47	4769.72
977.64	4730.81
977.80	4845.49
977.96	4728.76
978.12	4648.89
978.29	4489.15
978.45	4605.88
978.61	4673.46
978.77	4708.28
978.93	4483.00
979.10	4577.21
979.26	4597.69
979.42	4575.16
979.58	4519.87
979.74	4575.16
979.91	4462.52
980.07	4423.61
980.23	4493.24
980.39	4532.15
980.55	4526.01
980.71	4593.59
980.88	4544.44
981.04	4368.32
981.20	4452.28
981.36	4478.91
981.52	4466.62
981.68	4360.13
981.85	4521.92
982.01	4421.56
982.17	4462.52
982.33	4321.21
982.49	4394.94
982.65	4419.52
982.82	4368.32
982.98	4321.21
983.14	4343.74
983.30	4333.50
983.46	4401.08
983.62	4349.89
983.79	4251.58
983.95	4257.73
984.11	4208.58
984.27	4366.27
984.43	4298.69
984.59	4184.00
984.75	4294.59
984.91	4210.62
985.08	4317.12
985.24	4247.49
985.40	4155.33
985.56	4118.47
985.72	4190.14
985.88	4331.45
986.04	4071.36
986.20	4067.27
986.37	4167.62
986.53	4040.64
986.69	4196.29
986.85	4014.02
987.01	3911.62
987.17	4138.94
987.33	4018.11
987.49	3977.16
987.65	4169.66
987.82	4011.97
987.98	4028.35
988.14	3956.68
988.30	3891.14
988.46	3850.18
988.62	3895.24
988.78	3936.20
988.94	3917.76
989.10	3983.30
989.26	3971.01
989.42	3907.52
989.59	3870.66
989.75	3909.57
989.91	3835.85
990.07	3739.59
990.23	3848.13
990.39	3876.80
990.55	3755.97
990.71	3811.27
990.87	3788.74
991.03	3846.09
991.19	3772.36
991.35	3751.88
991.51	3839.94
991.67	3760.07
991.83	3717.06
992.00	3741.64
992.16	3700.68
992.32	3745.73
992.48	3815.37
992.64	3665.86
992.80	3688.39
992.96	3686.34
993.12	3700.68
993.28	3706.82
993.44	3624.90
993.60	3663.82
993.76	3672.01
993.92	3719.11
994.08	3653.58
994.24	3678.15
994.40	3563.47
994.56	3637.19
994.72	3563.47
994.88	3508.17
995.04	3661.77
995.20	3551.18
995.36	3516.36
995.52	3514.31
995.68	3448.78
995.84	3493.83
996.00	3643.34
996.16	3555.27
996.32	3375.05
996.48	3370.96
996.64	3624.90
996.80	3407.82
996.96	3411.92
997.12	3606.47
997.28	3354.57
997.44	3403.72
997.60	3432.40
997.76	3401.68
997.92	3475.40
998.08	3467.21
998.24	3235.79
998.40	3411.92
998.56	3358.67
998.72	3260.37
998.88	3284.94
999.04	3250.13
999.20	3377.10
999.36	3413.96
999.52	3330.00
999.68	3264.46
999.84	3387.34
1000.00	3297.23
1000.16	3330.00
1000.32	3264.46
1000.48	3379.15
1000.64	3096.53
1000.80	3162.06
1000.95	3196.88
1001.11	3217.36
1001.27	3151.82
1001.43	3266.51
1001.59	3127.25
1001.75	3102.67
1001.91	3225.55
1002.07	3133.39
1002.23	3088.34
1002.39	3082.19
1002.55	3207.12
1002.71	3098.58
1002.87	3018.71
1003.03	3061.71
1003.19	3090.38
1003.34	3162.06
1003.50	3076.05
1003.66	3131.34
1003.82	3106.77
1003.98	3024.85
1004.14	3129.30
1004.30	3037.14
1004.46	2953.17
1004.62	2959.31
1004.78	3043.28
1004.94	2994.13
1005.09	3100.62
1005.25	2998.23
1005.41	3010.51
1005.57	3071.95
1005.73	3026.90
1005.89	2959.31
1006.05	3055.57
1006.21	3026.90
1006.37	2985.94
1006.52	2928.60
1006.68	2961.36
1006.84	2940.88
1007.00	2895.83
1007.16	2953.17
1007.32	2871.25
1007.48	2938.84
1007.64	2899.92
1007.79	2928.60
1007.95	2791.38
1008.11	2846.68
1008.27	2908.12
1008.43	2809.81
1008.59	2811.86
1008.75	2887.64
1008.91	2955.22
1009.06	2799.57
1009.22	2789.33
1009.38	2918.36
1009.54	2846.68
1009.70	2838.48
1009.86	2797.53
1010.01	2867.16
1010.17	2779.09
1010.33	2713.56
1010.49	2654.17
1010.65	2822.10
1010.81	2678.74
1010.96	2746.33
1011.12	2625.50
1011.28	2639.83
1011.44	2729.94
1011.60	2654.17
1011.76	2688.98
1011.91	2682.84
1012.07	2744.28
1012.23	2621.40
1012.39	2619.35
1012.55	2697.17
1012.71	2605.02
1012.86	2596.82
1013.02	2590.68
1013.18	2588.63
1013.34	2658.26
1013.50	2777.05
1013.65	2596.82
1013.81	2588.63
1013.97	2633.69
1014.13	2711.51
1014.29	2602.97
1014.44	2613.21
1014.60	2562.01
1014.76	2639.83
1014.92	2643.93
1015.07	2580.44
1015.23	2633.69
1015.39	2568.15
1015.55	2592.73
1015.71	2592.73
1015.86	2412.51
1016.02	2510.81
1016.18	2396.12
1016.34	2514.91
1016.49	2428.89
1016.65	2590.68
1016.81	2475.99
1016.97	2514.91
1017.12	2576.34
1017.28	2408.41
1017.44	2318.30
1017.60	2449.37
1017.75	2514.91
1017.91	2496.47
1018.07	2514.91
1018.23	2457.56
1018.38	2418.65
1018.54	2469.85
1018.70	2361.31
1018.86	2459.61
1019.01	2338.78
1019.17	2414.56
1019.33	2502.62
1019.49	2355.16
1019.64	2396.12
1019.80	2357.21
1019.96	2414.56
1020.12	2404.32
1020.27	2351.07
1020.43	2320.35
1020.59	2310.11
1020.74	2344.92
1020.90	2453.47
1021.06	2342.88
1021.22	2306.01
1021.37	2279.39
1021.53	2328.54
1021.69	2392.03
1021.84	2330.59
1022.00	2236.38
1022.16	2342.88
1022.31	2258.91
1022.47	2297.82
1022.63	2320.35
1022.79	2234.33
1022.94	2351.07
1023.10	2373.60
1023.26	2301.92
1023.41	2207.71
1023.57	2306.01
1023.73	2342.88
1023.88	2328.54
1024.04	2197.47
1024.20	2277.34
1024.35	2222.05
1024.51	2228.19
1024.67	2205.66
1024.82	2279.39
1024.98	2105.31
1025.14	2306.01
1025.29	2164.70
1025.45	2283.49
1025.61	2138.08
1025.76	2265.05
1025.92	2226.14
1026.08	2152.42
1026.23	2234.33
1026.39	2207.71
1026.55	2199.52
1026.70	2125.79
1026.86	2176.99
1027.02	2215.90
1027.17	2220.00
1027.33	2240.48
1027.48	2179.04
1027.64	2181.09
1027.80	2133.98
1027.95	2138.08
1028.11	2093.02
1028.27	2162.66
1028.42	2117.60
1028.58	2084.83
1028.73	2025.44
1028.89	2025.44
1029.05	2189.28
1029.20	2248.67
>>>>>End Processed Spectral Data<<<<<
