SpectraSuite Data File
++++++++++++++++++++++++++++++++++++
Date: Fri Jun 02 14:57:23 CEST 2017
User: INFO_000
Dark Spectrum Present: No
Reference Spectrum Present: No
Number of Sampled Component Spectra: 1
Spectrometers: USB4H00879
Integration Time (usec): 80000 (USB4H00879)
Spectra Averaged: 1 (USB4H00879)
Boxcar Smoothing: 0 (USB4H00879)
Correct for Electrical Dark: No (USB4H00879)
Strobe/Lamp Enabled: No (USB4H00879)
Correct for Detector Non-linearity: No (USB4H00879)
Correct for Stray Light: No (USB4H00879)
Number of Pixels in Processed Spectrum: 3648
>>>>>Begin Processed Spectral Data<<<<<
345.13	1322.99
345.34	1322.99
345.56	1322.99
345.78	1257.45
345.99	1290.22
346.21	1724.39
346.42	1650.66
346.64	1621.99
346.86	1777.64
347.07	1689.57
347.29	1757.16
347.50	1626.09
347.72	1662.95
347.94	1753.06
348.15	1562.60
348.37	1607.66
348.59	1718.25
348.80	1720.29
349.02	1751.01
349.23	1828.84
349.45	1796.07
349.67	1925.09
349.88	1826.79
350.10	1941.47
350.31	1902.56
350.53	1794.02
350.75	1974.24
350.96	1763.30
351.18	1882.08
351.39	1888.23
351.61	1779.68
351.82	1970.15
352.04	1908.71
352.26	1781.73
352.47	1787.88
352.69	1890.28
352.90	1732.58
353.12	1945.57
353.34	1845.22
353.55	1918.95
353.77	1853.41
353.98	1828.84
354.20	1855.46
354.41	1964.00
354.63	1943.52
354.85	2052.06
355.06	1941.47
355.28	1781.73
355.49	1908.71
355.71	1857.51
355.92	1867.75
356.14	1822.69
356.35	1843.17
356.57	1882.08
356.79	1961.95
357.00	1851.36
357.22	1920.99
357.43	1740.77
357.65	2000.87
357.86	1871.84
358.08	1859.56
358.29	1900.52
358.51	2002.91
358.72	1974.24
358.94	2027.49
359.16	1912.80
359.37	1920.99
359.59	1957.86
359.80	1943.52
360.02	1908.71
360.23	1980.39
360.45	2015.20
360.66	1974.24
360.88	1912.80
361.09	1957.86
361.31	1986.53
361.52	1904.61
361.74	2027.49
361.95	2066.40
362.17	1970.15
362.38	2123.74
362.60	2050.02
362.81	1990.63
363.03	1947.62
363.24	2015.20
363.46	2062.30
363.67	2013.15
363.89	2058.21
364.10	1990.63
364.32	1875.94
364.53	2072.54
364.75	1943.52
364.96	2076.64
365.18	1904.61
365.39	2019.30
365.61	1941.47
365.82	2176.99
366.04	1978.34
366.25	1920.99
366.47	2064.35
366.68	2035.68
366.90	1923.04
367.11	2015.20
367.33	2127.84
367.54	2101.22
367.76	2025.44
367.97	2133.98
368.19	2027.49
368.40	2136.03
368.62	1939.43
368.83	1947.62
369.05	2097.12
369.26	1961.95
369.48	1959.91
369.69	1998.82
369.91	2009.06
370.12	2043.87
370.33	2119.65
370.55	1955.81
370.76	2123.74
370.98	2105.31
371.19	1929.19
371.41	2097.12
371.62	1980.39
371.84	1951.71
372.05	2164.70
372.27	2146.27
372.48	2080.74
372.69	2119.65
372.91	2191.33
373.12	2187.23
373.34	2127.84
373.55	2158.56
373.77	2125.79
373.98	2095.07
374.20	2162.66
374.41	2205.66
374.62	2224.09
374.84	2105.31
375.05	2205.66
375.27	2174.94
375.48	2299.87
375.70	2228.19
375.91	2176.99
376.12	2275.29
376.34	2070.50
376.55	2181.09
376.77	2170.85
376.98	2176.99
377.19	2121.70
377.41	2107.36
377.62	2164.70
377.84	2273.25
378.05	2326.49
378.27	2176.99
378.48	2346.97
378.69	2342.88
378.91	2236.38
379.12	2246.62
379.34	2117.60
379.55	2338.78
379.76	2346.97
379.98	2226.14
380.19	2346.97
380.41	2252.77
380.62	2260.96
380.83	2269.15
381.05	2193.37
381.26	2432.99
381.47	2297.82
381.69	2246.62
381.90	2404.32
382.12	2295.77
382.33	2306.01
382.54	2273.25
382.76	2240.48
382.97	2359.26
383.19	2265.05
383.40	2424.80
383.61	2277.34
383.83	2260.96
384.04	2338.78
384.25	2363.36
384.47	2432.99
384.68	2404.32
384.89	2303.96
385.11	2301.92
385.32	2353.12
385.54	2340.83
385.75	2371.55
385.96	2482.14
386.18	2473.95
386.39	2373.60
386.60	2353.12
386.82	2402.27
387.03	2494.43
387.24	2525.15
387.46	2496.47
387.67	2459.61
387.88	2512.86
388.10	2445.27
388.31	2514.91
388.52	2457.56
388.74	2478.04
388.95	2432.99
389.16	2527.19
389.38	2490.33
389.59	2590.68
389.80	2521.05
390.02	2539.48
390.23	2611.16
390.44	2482.14
390.66	2559.96
390.87	2461.66
391.08	2529.24
391.30	2674.65
391.51	2525.15
391.72	2713.56
391.94	2637.78
392.15	2625.50
392.36	2557.91
392.58	2445.27
392.79	2633.69
393.00	2574.30
393.22	2711.51
393.43	2740.18
393.64	2789.33
393.85	2684.89
394.07	2615.26
394.28	2697.17
394.49	2744.28
394.71	2736.09
394.92	2830.29
395.13	2674.65
395.35	2742.23
395.56	2719.70
395.77	2731.99
395.98	2895.83
396.20	2922.45
396.41	2865.11
396.62	2944.98
396.84	2795.48
397.05	2701.27
397.26	2783.19
397.47	2920.40
397.69	2897.88
397.90	2969.55
398.11	2838.48
398.32	2869.20
398.54	2824.15
398.75	2895.83
398.96	2916.31
399.18	3037.14
399.39	2828.24
399.60	3022.80
399.81	2942.93
400.03	2955.22
400.24	3198.93
400.45	2877.40
400.66	3094.48
400.88	2975.70
401.09	3137.49
401.30	3088.34
401.51	3100.62
401.73	3213.26
401.94	3215.31
402.15	3094.48
402.36	3215.31
402.58	3223.50
402.79	3151.82
403.00	3133.39
403.21	3276.75
403.43	3235.79
403.64	3313.61
403.85	3141.58
404.06	3272.65
404.27	3160.02
404.49	3117.01
404.70	3182.54
404.91	3354.57
405.12	3315.66
405.34	3270.61
405.55	3336.14
405.76	3172.30
405.97	3246.03
406.19	3370.96
406.40	3182.54
406.61	3334.09
406.82	3327.95
407.03	3264.46
407.25	3387.34
407.46	3440.59
407.67	3342.28
407.88	3452.88
408.09	3375.05
408.31	3311.57
408.52	3274.70
408.73	3319.76
408.94	3403.72
409.15	3502.03
409.37	3637.19
409.58	3475.40
409.79	3424.20
410.00	3559.37
410.21	3493.83
410.43	3450.83
410.64	3364.81
410.85	3608.52
411.06	3643.34
411.27	3604.42
411.48	3678.15
411.70	3448.78
411.91	3614.66
412.12	3608.52
412.33	3497.93
412.54	3573.71
412.76	3663.82
412.97	3698.63
413.18	3522.51
413.39	3655.62
413.60	3762.12
413.81	3661.77
414.03	3614.66
414.24	3598.28
414.45	3723.21
414.66	3551.18
414.87	3723.21
415.08	3747.78
415.30	3743.69
415.51	3850.18
415.72	3805.13
415.93	3672.01
416.14	3848.13
416.35	3850.18
416.56	3772.36
416.78	3878.85
416.99	3864.52
417.20	3893.19
417.41	3905.48
417.62	3862.47
417.83	3923.91
418.04	3887.04
418.26	3948.48
418.47	3936.20
418.68	3936.20
418.89	3999.68
419.10	4065.22
419.31	3962.82
419.52	4120.51
419.73	4069.31
419.95	4063.17
420.16	3866.56
420.37	4087.75
420.58	4126.66
420.79	3917.76
421.00	4081.60
421.21	4200.38
421.42	4067.27
421.63	4179.90
421.85	4200.38
422.06	4212.67
422.27	4196.29
422.48	4091.84
422.69	4224.96
422.90	4358.08
423.11	4241.34
423.32	4235.20
423.53	4368.32
423.75	4181.95
423.96	4458.43
424.17	4433.85
424.38	4351.93
424.59	4329.41
424.80	4472.76
425.01	4339.65
425.22	4392.89
425.43	4421.56
425.64	4739.00
425.85	4685.75
426.06	4665.27
426.28	4544.44
426.49	4523.96
426.70	4546.49
426.91	4632.51
427.12	4558.78
427.33	4603.83
427.54	4667.32
427.75	4550.59
427.96	4716.47
428.17	4716.47
428.38	4827.06
428.59	4972.47
428.80	4726.71
429.01	4741.05
429.23	4788.15
429.44	5062.58
429.65	4784.06
429.86	5042.10
430.07	4755.38
430.28	4843.45
430.49	4982.71
430.70	4876.21
430.91	5005.24
431.12	4923.32
431.33	5085.11
431.54	5226.42
431.75	5050.29
431.96	4984.76
432.17	5025.72
432.38	4992.95
432.59	5242.80
432.80	5226.42
433.01	5181.36
433.22	5412.78
433.43	5167.03
433.64	5253.04
433.85	5136.31
434.06	5382.06
434.27	5189.55
434.49	5261.23
434.70	5408.69
434.91	5294.00
435.12	5527.47
435.33	5468.08
435.54	5498.80
435.75	5189.55
435.96	5222.32
436.17	5339.05
436.38	5486.51
436.59	5519.28
436.80	5457.84
437.01	5822.38
437.22	5785.51
437.43	5599.15
437.64	5423.02
437.85	5642.15
438.06	5736.36
438.27	5578.67
438.48	5547.95
438.69	5697.45
438.90	5738.41
439.11	5554.09
439.32	5889.96
439.53	5711.78
439.74	5871.53
439.95	5838.76
440.16	5599.15
440.37	5908.39
440.57	5758.89
440.78	5990.31
440.99	6051.75
441.20	5885.86
441.41	5789.61
441.62	5855.14
441.83	5734.31
442.04	5969.83
442.25	6000.55
442.46	5816.23
442.67	6143.91
442.88	6530.97
443.09	5892.01
443.30	6080.42
443.51	6113.19
443.72	6418.33
443.93	6098.85
444.14	6379.42
444.35	6172.58
444.56	6207.39
444.77	6266.78
444.98	6426.53
445.19	6387.61
445.40	6492.06
445.61	6111.14
445.81	6404.00
446.02	6453.15
446.23	6320.03
446.44	6188.96
446.65	6393.76
446.86	6426.53
447.07	6354.85
447.28	6604.70
447.49	6649.75
447.70	6457.25
447.91	6512.54
448.12	6584.22
448.33	6778.78
448.54	6748.06
448.74	6571.93
448.95	6645.66
449.16	6612.89
449.37	7139.22
449.58	6672.28
449.79	6922.13
450.00	6594.46
450.21	6774.68
450.42	7085.97
450.63	7020.44
450.84	6746.01
451.05	6973.33
451.25	6961.05
451.46	6875.03
451.67	7077.78
451.88	6997.91
452.09	7126.93
452.30	7030.68
452.51	7098.26
452.72	7233.43
452.93	7495.57
453.13	7067.54
453.34	7147.41
453.55	7268.24
453.76	7317.39
453.97	7769.99
454.18	7548.81
454.39	7511.95
454.60	7473.04
454.81	7460.75
455.01	7671.69
455.22	7407.50
455.43	7628.68
455.64	7696.27
455.85	7819.14
456.06	7919.50
456.27	7919.50
456.48	7679.88
456.68	7903.11
456.89	7882.63
457.10	7882.63
457.31	8005.51
457.52	8060.80
457.73	7978.89
457.94	8191.88
458.14	8025.99
458.35	8286.08
458.56	8142.72
458.77	8136.58
458.98	8099.72
459.19	8187.78
459.39	8413.06
459.60	8527.74
459.81	8396.67
460.02	8578.94
460.23	8621.95
460.44	8910.71
460.65	8548.22
460.85	8816.51
461.06	8918.90
461.27	8564.61
461.48	8935.29
461.69	8789.88
461.89	8818.55
462.10	9021.30
462.31	8710.01
462.52	8695.68
462.73	8980.34
462.94	9164.66
463.14	9256.82
463.35	9152.37
463.56	9596.78
463.77	9367.41
463.98	9217.91
464.18	9340.79
464.39	9498.48
464.60	9576.30
464.81	9449.33
465.02	9478.00
465.23	9584.49
465.43	9736.04
465.64	9916.26
465.85	9707.37
466.06	9693.04
466.27	10012.52
466.47	10260.32
466.68	10190.69
466.89	10067.81
467.10	10096.49
467.30	10026.86
467.51	10377.06
467.72	10581.85
467.93	10303.33
468.14	10375.01
468.34	10436.45
468.55	10516.32
468.76	10651.49
468.97	10389.35
469.17	10694.49
469.38	10930.01
469.59	11050.84
469.80	10700.64
470.01	10899.29
470.21	10946.39
470.42	11059.03
470.63	11288.40
470.84	11175.77
471.04	11489.10
471.25	11245.40
471.46	11290.45
471.67	11657.04
471.87	11550.54
472.08	11585.36
472.29	11843.40
472.50	11642.70
472.70	11636.56
472.91	11964.23
473.12	11982.67
473.33	11818.83
473.53	12152.65
473.74	12023.62
473.95	12226.37
474.16	12470.08
474.36	12529.47
474.57	12640.06
474.78	12513.09
474.99	12654.40
475.19	12382.02
475.40	12836.67
475.61	12898.11
475.81	12971.83
476.02	13076.28
476.23	12732.22
476.44	13242.17
476.64	13616.94
476.85	13705.01
477.06	13352.76
477.27	13793.07
477.47	13682.48
477.68	13494.07
477.89	13807.41
478.09	13911.85
478.30	13985.58
478.51	14102.31
478.71	14147.37
478.92	14280.49
479.13	14423.84
479.34	14548.77
479.54	14421.80
479.75	14440.23
479.96	14516.00
480.16	14728.99
480.37	14642.98
480.58	14941.98
480.78	15091.48
480.99	15130.39
481.20	15089.43
481.41	15302.42
481.61	15462.16
481.82	15320.85
482.03	15771.41
482.23	15556.37
482.44	15851.28
482.65	15861.52
482.85	15871.76
483.06	15798.03
483.27	15888.14
483.47	16146.19
483.68	16148.23
483.89	16295.69
484.09	16244.49
484.30	16547.59
484.51	16621.31
484.71	16715.52
484.92	16584.45
485.13	16938.75
485.33	16920.32
485.54	17061.63
485.75	17121.02
485.95	17254.14
486.16	17391.35
486.37	17336.06
486.57	17295.10
486.78	17295.10
486.98	17651.44
487.19	17538.80
487.40	17745.65
487.60	17592.05
487.81	18069.23
488.02	17762.03
488.22	17940.21
488.43	18302.70
488.64	18212.59
488.84	18296.55
489.05	18415.34
489.25	18648.80
489.46	18845.41
489.67	18620.13
489.87	18982.62
490.08	18831.07
490.29	19119.84
490.49	19125.98
490.70	19097.31
490.90	19228.38
491.11	19314.39
491.32	19291.87
491.52	19349.21
491.73	19394.26
491.94	19373.78
492.14	19742.42
492.35	19906.26
492.55	19906.26
492.76	19773.14
492.97	19934.93
493.17	20033.23
493.38	20412.10
493.58	20127.44
493.79	20260.55
494.00	20442.82
494.20	20405.96
494.41	20412.10
494.61	20481.74
494.82	20766.40
495.02	20760.26
495.23	21124.80
495.44	21065.41
495.64	20971.20
495.85	21145.28
496.05	21102.27
496.26	21280.44
496.47	21571.25
496.67	21520.06
496.88	21743.28
497.08	21290.68
497.29	21765.81
497.49	21724.85
497.70	21984.94
497.91	21896.88
498.11	22030.00
498.32	22148.78
498.52	22154.93
498.73	22224.56
498.93	22173.36
499.14	22369.96
499.34	22419.11
499.55	22587.05
499.76	22599.34
499.96	22722.21
500.17	22595.24
500.37	22707.88
500.58	22734.50
500.78	22894.24
500.99	22886.05
501.19	23236.25
501.40	23092.90
501.60	22957.73
501.81	23133.86
502.02	23682.71
502.22	23209.63
502.43	23576.22
502.63	23701.14
502.84	23813.78
503.04	23744.15
503.25	23666.33
503.45	23584.41
503.66	24082.06
503.86	23664.28
504.07	23948.95
504.27	24090.26
504.48	24303.25
504.68	24051.34
504.89	24501.90
505.09	24346.25
505.30	24551.05
505.50	24422.03
505.71	24301.20
505.91	24419.98
506.12	24536.71
506.32	24645.26
506.53	24739.46
506.73	24915.59
506.94	25093.76
507.14	24954.50
507.35	25034.37
507.55	24954.50
507.76	25056.90
507.96	24929.92
508.17	25224.83
508.37	25042.56
508.58	25124.48
508.78	25302.65
508.99	25681.53
509.19	25638.52
509.40	25407.10
509.60	25435.77
509.81	25742.97
510.01	25527.93
510.22	25730.68
510.42	25906.80
510.63	25818.74
510.83	25902.71
511.04	26078.83
511.24	26148.46
511.44	26041.97
511.65	26381.93
511.85	26455.66
512.06	26318.45
512.26	26304.11
512.47	26660.46
512.67	26582.63
512.88	26633.83
513.08	26295.92
513.29	26617.45
513.49	26558.06
513.69	26707.56
513.90	26652.27
514.10	26912.36
514.31	27176.55
514.51	26930.79
514.72	26990.18
514.92	27113.06
515.13	27016.80
515.33	27223.65
515.53	27354.72
515.74	27297.38
515.94	27438.69
516.15	27516.51
516.35	27178.59
516.56	27723.35
516.76	27600.47
516.96	27932.25
517.17	27952.73
517.37	27731.54
517.58	27838.04
517.78	28055.12
517.99	27774.55
518.19	27987.54
518.39	28417.61
518.60	28485.20
518.80	28243.54
519.01	28481.10
519.21	28317.26
519.41	28565.07
519.62	28626.51
519.82	28683.85
520.03	28767.82
520.23	28839.50
520.43	28612.17
520.64	29210.18
520.84	29296.19
521.05	29091.40
521.25	29343.30
521.45	29081.16
521.66	29558.33
521.86	29118.02
522.07	29429.31
522.27	29699.64
522.47	29447.74
522.68	29853.24
522.88	30055.99
523.08	29851.19
523.29	30164.53
523.49	30127.67
523.70	29963.83
523.90	29853.24
524.10	30172.72
524.31	30428.72
524.51	30133.81
524.71	30709.29
524.92	30539.31
525.12	30780.97
525.33	30897.70
525.53	30670.38
525.73	31022.63
525.94	31270.43
526.14	30967.34
526.34	31526.43
526.55	31426.08
526.75	31450.66
526.95	31579.68
527.16	31313.44
527.36	31665.69
527.56	31817.24
527.77	31864.35
527.97	31956.50
528.17	31835.67
528.38	32167.45
528.58	32126.49
528.78	32364.05
528.99	32335.38
529.19	32347.67
529.39	32669.20
529.60	32923.15
529.80	32747.02
530.00	32589.33
530.21	33324.55
530.41	33166.85
530.61	33019.40
530.82	33101.32
531.02	33209.86
531.22	33525.25
531.43	33492.48
531.63	33570.30
531.83	33703.42
532.04	34039.29
532.24	33818.11
532.44	34196.98
532.64	34209.27
532.85	34199.03
533.05	34348.53
533.25	34332.15
533.46	34076.15
533.66	34428.40
533.86	34577.90
534.07	35212.77
534.27	34637.30
534.47	35139.05
534.67	35298.79
534.88	35399.14
535.08	35003.88
535.28	35157.48
535.49	35554.79
535.69	36140.50
535.89	35812.83
536.09	35626.46
536.30	36238.81
536.50	35851.74
536.70	36007.39
536.91	36054.49
537.11	36236.76
537.31	36189.66
537.51	36001.24
537.72	36877.77
537.92	36675.02
538.12	37017.04
538.32	36771.28
538.53	36902.35
538.73	36351.45
538.93	36840.91
539.13	37119.43
539.34	37131.72
539.54	37281.22
539.74	37602.75
539.94	37137.87
540.15	37326.28
540.35	37565.89
540.55	37078.47
540.75	37787.07
540.96	37514.69
541.16	37473.73
541.36	37582.27
541.56	37807.55
541.77	38018.49
541.97	38251.96
542.17	38170.04
542.37	38489.52
542.58	38440.37
542.78	38696.37
542.98	38471.09
543.18	38387.13
543.38	38702.51
543.59	38958.51
543.79	38655.41
543.99	38583.73
544.19	39073.20
544.40	39019.95
544.60	39183.79
544.80	38806.96
545.00	38856.11
545.20	39306.66
545.41	38938.03
545.61	39314.86
545.81	39556.52
546.01	39751.07
546.21	39540.13
546.42	39249.32
546.62	40072.60
546.82	39785.89
547.02	39486.89
547.22	39751.07
547.43	39906.72
547.63	39810.46
547.83	40605.08
548.03	40220.06
548.23	40605.08
548.44	40101.28
548.64	40760.72
548.84	40629.65
549.04	40193.43
549.24	40697.24
549.45	40873.36
549.65	40830.35
549.85	40469.91
550.05	41072.01
550.25	40660.37
550.45	41262.47
550.66	41035.15
550.86	40633.75
551.06	41100.68
551.26	40906.13
551.46	41231.75
551.66	41164.17
551.87	41115.02
552.07	41104.78
552.27	41213.32
552.47	41207.18
552.67	41438.60
552.87	41442.70
553.07	41584.01
553.28	41465.22
553.48	41903.49
553.68	41203.08
553.88	41979.26
554.08	41833.86
554.28	41465.22
554.48	41407.88
554.69	41770.37
554.89	41706.88
555.09	41725.32
555.29	41966.98
555.49	42065.28
555.69	41747.84
555.89	42014.08
556.10	42128.77
556.30	42128.77
556.50	42399.10
556.70	42077.57
556.90	42444.15
557.10	42536.31
557.30	42548.60
557.50	42444.15
557.70	42728.82
557.91	42438.01
558.11	41923.97
558.31	42743.16
558.51	42270.08
558.71	42538.36
558.91	42841.46
559.11	42573.17
559.31	42397.05
559.51	42499.45
559.72	42599.80
559.92	42927.47
560.12	42315.13
560.32	42620.28
560.52	42538.36
560.72	42786.16
560.92	42757.49
561.12	42900.85
561.32	43242.86
561.52	42696.05
561.72	43455.85
561.93	42804.59
562.13	43197.80
562.33	42878.32
562.53	43507.05
562.73	43126.13
562.93	43093.36
563.13	43072.88
563.33	42956.14
563.53	43674.98
563.73	42872.18
563.93	43029.87
564.13	43523.43
564.33	43400.55
564.53	43228.52
564.74	43505.00
564.94	43027.82
565.14	43332.97
565.34	42794.36
565.54	43683.17
565.74	43959.65
565.94	43785.57
566.14	43767.14
566.34	43103.60
566.54	44057.95
566.74	43822.44
566.94	43640.17
567.14	44143.97
567.34	43396.46
567.54	44129.63
567.74	43824.48
567.94	43904.35
568.14	44094.82
568.34	43986.27
568.54	43806.05
568.74	44047.71
568.94	44105.06
569.14	44066.14
569.34	44309.85
569.54	43990.37
569.75	43746.66
569.95	43859.30
570.15	44348.76
570.35	43988.32
570.55	44215.65
570.75	44232.03
570.95	44410.20
571.15	44270.94
571.35	44014.94
571.55	44488.03
571.75	44283.23
571.95	44668.25
572.15	44356.96
572.35	44404.06
572.55	44637.53
572.75	44678.49
572.95	44600.66
573.15	44463.45
573.35	44623.19
573.55	44492.12
573.75	44750.17
573.95	44760.40
574.15	44455.26
574.35	44729.69
574.55	44723.54
574.75	44762.45
574.95	44989.78
575.15	44817.75
575.34	44703.06
575.54	45114.70
575.74	45206.86
575.94	45278.54
576.14	45137.23
576.34	45796.68
576.54	45210.96
576.74	45380.94
576.94	45204.81
577.14	45522.25
577.34	45524.30
577.54	45409.61
577.74	45577.54
577.94	45585.74
578.14	45423.95
578.34	45598.02
578.54	45366.60
578.74	45798.73
578.94	46382.40
579.14	45829.44
579.34	45858.12
579.54	45987.14
579.74	46052.67
579.94	45911.36
580.13	45915.46
580.33	45925.70
580.53	45921.60
580.73	46015.81
580.93	46396.73
581.13	46329.15
581.33	46601.53
581.53	46363.96
581.73	46193.98
581.93	46429.50
582.13	46785.85
582.33	46771.51
582.53	46464.32
582.73	46662.97
582.92	46937.40
583.12	46900.53
583.32	46882.10
583.52	46675.26
583.72	46791.99
583.92	46949.68
584.12	47113.52
584.32	47136.05
584.52	47277.36
584.72	47152.43
584.92	47279.41
585.11	47580.46
585.31	47365.42
585.51	47150.38
585.71	47162.67
585.91	47381.80
586.11	46810.42
586.31	47086.90
586.51	47408.43
586.71	47789.35
586.91	47590.70
587.10	47781.16
587.30	47674.66
587.50	47797.54
587.70	47766.82
587.90	47734.06
588.10	48217.38
588.30	47602.99
588.50	48119.07
588.69	47963.43
588.89	47959.33
589.09	48225.57
589.29	48393.50
589.49	48160.03
589.69	48196.90
589.89	48444.70
590.08	48307.49
590.28	48319.77
590.48	48479.52
590.68	48170.27
590.88	48700.70
591.08	48497.95
591.28	48530.72
591.47	48946.45
591.67	48413.98
591.87	48825.62
592.07	48942.36
592.27	49018.13
592.47	48409.89
592.67	48424.22
592.86	48819.48
593.06	48782.62
593.26	48729.37
593.46	48770.33
593.66	48971.03
593.86	49179.92
594.05	49124.63
594.25	49386.77
594.45	49216.78
594.65	49073.43
594.85	48506.14
595.05	49329.42
595.24	49362.19
595.44	48991.51
595.64	49538.32
595.84	49542.41
596.04	49239.31
596.23	49493.26
596.43	49716.49
596.63	49663.24
596.83	49784.07
597.03	50134.28
597.22	50052.36
597.42	49622.28
597.62	50208.00
597.82	50115.84
598.02	49808.65
598.21	50519.29
598.41	49767.69
598.61	50662.65
598.81	50162.95
599.01	50351.36
599.20	50588.92
599.40	50232.58
599.60	50478.33
599.80	50386.18
600.00	50550.01
600.19	50945.27
600.39	50562.30
600.59	50808.06
600.79	51000.57
600.98	50619.64
601.18	51285.23
601.38	51205.36
601.58	51346.67
601.78	51201.27
601.97	51426.54
602.17	51590.38
602.37	51240.18
602.57	51660.01
602.76	51459.31
602.96	51436.78
603.16	51336.43
603.36	51260.66
603.55	51668.20
603.75	51442.93
603.95	52118.76
604.15	51530.99
604.34	51973.35
604.54	52061.41
604.74	51696.88
604.94	51840.23
605.13	52378.85
605.33	52057.32
605.53	52042.98
605.73	52368.61
605.92	52174.05
606.12	52270.31
606.32	52374.75
606.52	52163.81
606.71	51885.29
606.91	53087.45
607.11	52499.68
607.30	52583.65
607.50	52839.64
607.70	52583.65
607.90	52372.70
608.09	52882.65
608.29	53007.58
608.49	52274.40
608.68	52825.31
608.88	53355.73
609.08	53198.04
609.28	53161.17
609.47	52825.31
609.67	53460.18
609.87	52958.42
610.06	53753.04
610.26	53118.17
610.46	53808.33
610.66	53081.30
610.85	53451.98
611.05	53359.83
611.25	53499.09
611.44	52804.83
611.64	53163.22
611.84	53363.92
612.03	53343.44
612.23	53632.21
612.43	53824.71
612.62	53460.18
612.82	53824.71
613.02	53826.76
613.21	53796.04
613.41	53630.16
613.61	53656.78
613.80	53544.14
614.00	54035.66
614.20	54058.18
614.39	53900.49
614.59	53914.83
614.79	53916.87
614.98	53947.59
615.18	53869.77
615.38	53681.36
615.57	53920.97
615.77	54422.72
615.97	54150.34
616.16	53886.15
616.36	53822.67
616.56	54387.91
616.75	54340.80
616.95	53972.17
617.15	54113.48
617.34	54215.88
617.54	54156.49
617.74	54549.70
617.93	54359.23
618.13	53697.74
618.32	54312.13
618.52	54205.64
618.72	54518.98
618.91	54998.20
619.11	54174.92
619.31	54490.30
619.50	54301.89
619.70	53796.04
619.90	54633.66
620.09	53875.91
620.29	54580.42
620.48	54344.90
620.68	54963.39
620.88	53849.29
621.07	54539.46
621.27	54289.60
621.46	54314.18
621.66	54590.66
621.86	54121.67
622.05	54113.48
622.25	54676.67
622.44	54375.62
622.64	54271.17
622.84	54564.03
623.03	54232.26
623.23	54580.42
623.42	54596.80
623.62	54375.62
623.82	55006.39
624.01	54105.29
624.21	54326.47
624.40	54471.87
624.60	54406.34
624.80	54838.46
624.99	54746.30
625.19	54058.18
625.38	54543.55
625.58	54437.06
625.77	54658.24
625.97	54623.42
626.17	54744.25
626.36	54920.38
626.56	54611.13
626.75	54138.05
626.95	54957.24
627.14	54351.04
627.34	54787.26
627.54	54734.01
627.73	54670.53
627.93	54539.46
628.12	54228.16
628.32	54576.32
628.51	54764.73
628.71	54504.64
628.90	55076.02
629.10	54920.38
629.30	54990.01
629.49	54166.73
629.69	54736.06
629.88	54940.86
630.08	55051.45
630.27	55284.92
630.47	54484.16
630.66	54703.29
630.86	55319.73
631.05	54473.92
631.25	55061.69
631.44	55647.41
631.64	54906.04
631.84	55327.92
632.03	55475.38
632.23	54914.23
632.42	55442.61
632.62	55041.21
632.81	54514.88
633.01	54762.68
633.20	55448.75
633.40	55440.56
633.59	55385.27
633.79	55166.13
633.98	55418.03
634.18	55192.76
634.37	55145.65
634.57	55448.75
634.76	55485.62
634.96	55581.87
635.15	55338.16
635.35	55260.34
635.54	55280.82
635.74	55856.30
635.93	54746.30
636.13	55542.96
636.32	55717.04
636.52	55686.32
636.71	55774.38
636.91	55442.61
637.10	55563.44
637.30	55833.77
637.49	55522.48
637.69	55723.18
637.88	55518.38
638.08	55344.31
638.27	55446.71
638.46	55653.55
638.66	55837.87
638.85	55291.06
639.05	55704.75
639.24	56204.45
639.44	55534.77
639.63	55940.27
639.83	55569.58
640.02	55731.37
640.22	55927.98
640.41	56009.90
640.61	55731.37
640.80	56046.76
640.99	55821.48
641.19	55807.15
641.38	55598.26
641.58	56022.19
641.77	55850.16
641.97	55747.76
642.16	55887.02
642.36	56206.50
642.55	56435.87
642.74	55821.48
642.94	56667.30
643.13	55819.44
643.33	55934.12
643.52	56386.72
643.72	56433.83
643.91	56153.26
644.10	56394.92
644.30	56702.11
644.49	56280.23
644.69	56280.23
644.88	56450.21
645.08	56050.86
645.27	56360.10
645.46	55999.66
645.66	56278.18
645.85	56429.73
646.05	56554.66
646.24	56149.16
646.43	56546.47
646.63	57046.17
646.82	56351.91
647.02	56591.52
647.21	56532.13
647.40	56497.31
647.60	56677.54
647.79	56814.75
647.99	56558.75
648.18	56423.59
648.37	57074.84
648.57	56925.34
648.76	56767.65
648.96	56575.14
649.15	56816.80
649.34	56771.74
649.54	57037.98
649.73	56394.92
649.92	56800.41
650.12	56829.08
650.31	56958.11
650.51	56937.63
650.70	57074.84
650.89	56935.58
651.09	57513.11
651.28	57205.91
651.47	57291.93
651.67	56925.34
651.86	57332.89
652.06	56796.32
652.25	57095.32
652.44	57203.86
652.64	56675.49
652.83	57027.74
653.02	56868.00
653.22	56974.49
653.41	56843.42
653.60	56939.68
653.80	56800.41
653.99	57400.47
654.18	56935.58
654.38	57042.07
654.57	57152.66
654.76	57341.08
654.96	56859.80
655.15	57089.18
655.34	57431.19
655.54	56714.40
655.73	57007.26
655.92	57070.75
656.12	57058.46
656.31	57070.75
656.50	57164.95
656.70	57162.90
656.89	56931.48
657.08	56951.96
657.28	57388.18
657.47	57050.27
657.66	57412.76
657.86	56712.35
658.05	57169.05
658.24	57193.62
658.43	56691.87
658.63	57609.36
658.82	57212.06
659.01	57889.93
659.21	57724.05
659.40	57554.07
659.59	57289.88
659.79	57242.77
659.98	57390.23
660.17	57285.78
660.36	57033.88
660.56	57062.55
660.75	57042.07
660.94	57443.48
661.14	57506.96
661.33	57382.04
661.52	56947.87
661.71	57207.96
661.91	57003.16
662.10	57187.48
662.29	57494.67
662.49	57123.99
662.68	57089.18
662.87	57089.18
663.06	57382.04
663.26	57119.90
663.45	57361.56
663.64	57214.10
663.83	57730.19
664.03	57664.66
664.22	57406.61
664.41	56972.44
664.60	57046.17
664.80	57394.32
664.99	57119.90
665.18	57093.27
665.37	57513.11
665.57	57672.85
665.76	56849.56
665.95	57105.56
666.14	56949.92
666.34	57056.41
666.53	57087.13
666.72	57218.20
666.91	57015.45
667.11	57035.93
667.30	56939.68
667.49	56849.56
667.68	57226.39
667.87	56943.77
668.07	57144.47
668.26	56872.09
668.45	57441.43
668.64	56630.43
668.84	57934.99
669.03	57527.44
669.22	57197.72
669.41	56808.61
669.60	57316.50
669.80	56954.01
669.99	57377.94
670.18	57134.23
670.37	56900.76
670.57	57562.26
670.76	56990.87
670.95	57271.45
671.14	57334.93
671.33	56544.42
671.53	57078.94
671.72	57144.47
671.91	57320.60
672.10	56882.33
672.29	56636.58
672.48	56695.97
672.68	57336.98
672.87	56974.49
673.06	56761.50
673.25	56360.10
673.44	56517.79
673.64	56634.53
673.83	56712.35
674.02	56751.26
674.21	56229.03
674.40	56792.22
674.59	56106.15
674.79	56652.96
674.98	56564.90
675.17	56302.76
675.36	56339.62
675.55	56556.70
675.74	56272.04
675.94	56206.50
676.13	56491.17
676.32	56585.38
676.51	56804.51
676.70	56419.49
676.89	56466.59
677.08	56865.95
677.28	56104.10
677.47	56642.72
677.66	56435.87
677.85	56263.85
678.04	56671.39
678.23	56923.29
678.42	56716.45
678.62	56280.23
678.81	56276.13
679.00	56435.87
679.19	56935.58
679.38	56425.64
679.57	56337.57
679.76	56319.14
679.96	56165.54
680.15	56112.30
680.34	56100.01
680.53	55772.33
680.72	55981.23
680.91	56194.21
681.10	56251.56
681.29	56095.91
681.48	56036.52
681.68	56530.08
681.87	56009.90
682.06	55768.24
682.25	55809.20
682.44	55764.14
682.63	56427.68
682.82	55434.42
683.01	55514.29
683.20	55399.60
683.39	55747.76
683.59	55299.25
683.78	55522.48
683.97	55352.50
684.16	55407.79
684.35	55776.43
684.54	55411.89
684.73	55387.31
684.92	55430.32
685.11	55198.90
685.30	55610.54
685.49	55688.37
685.69	55469.23
685.88	55559.34
686.07	55325.88
686.26	55545.01
686.45	55282.87
686.64	55317.68
686.83	54953.15
687.02	55166.13
687.21	55299.25
687.40	55127.22
687.59	55071.93
687.78	55108.79
687.97	55778.48
688.16	54973.63
688.35	54777.02
688.54	54715.58
688.74	54768.83
688.93	54957.24
689.12	55211.19
689.31	55125.17
689.50	55133.37
689.69	54285.51
689.88	54404.29
690.07	54893.75
690.26	54883.51
690.45	55375.03
690.64	54678.72
690.83	54457.54
691.02	54379.71
691.21	54215.88
691.40	54136.01
691.59	54658.24
691.78	54539.46
691.97	54772.92
692.16	54686.91
692.35	54561.98
692.54	54459.58
692.73	54768.83
692.92	54744.25
693.11	54236.36
693.30	54031.56
693.49	54424.77
693.68	53988.55
693.87	54133.96
694.06	53953.74
694.25	53947.59
694.44	54455.49
694.63	54082.76
694.82	53988.55
695.01	53683.40
695.20	53769.42
695.39	53980.36
695.58	53963.98
695.77	53474.51
695.96	53630.16
696.15	54060.23
696.34	53359.83
696.53	54000.84
696.72	53601.49
696.91	53615.82
697.10	53830.86
697.29	53613.77
697.48	53456.08
697.67	53595.34
697.86	53255.38
698.05	53542.10
698.24	53535.95
698.43	53054.68
698.62	52800.73
698.81	53046.49
699.00	53224.66
699.19	52939.99
699.38	53431.50
699.57	52882.65
699.76	53630.16
699.95	52835.55
700.14	53040.34
700.32	52995.29
700.51	52876.51
700.70	53050.58
700.89	53163.22
701.08	52706.52
701.27	52829.40
701.46	53505.23
701.65	52434.14
701.84	52843.74
702.03	52864.22
702.22	52933.85
702.41	52569.31
702.60	52978.90
702.79	52600.03
702.98	52649.18
703.17	52677.85
703.35	52251.87
703.54	52462.82
703.73	52600.03
703.92	52542.69
704.11	52438.24
704.30	52069.61
704.49	52380.90
704.68	52235.49
704.87	52237.54
705.06	52085.99
705.25	51971.30
705.43	51961.06
705.62	52059.37
705.81	51954.92
706.00	52051.17
706.19	51844.33
706.38	51827.95
706.57	51690.73
706.76	52131.04
706.95	51905.77
707.14	51805.42
707.32	51455.21
707.51	51696.88
707.70	51676.40
707.89	51582.19
708.08	51393.78
708.27	51584.24
708.46	51559.66
708.65	50953.46
708.84	51625.20
709.02	51662.06
709.21	51166.45
709.40	51330.29
709.59	51588.33
709.78	51270.90
709.97	51504.37
710.16	51287.28
710.34	51246.32
710.53	51254.51
710.72	51143.92
710.91	51180.79
711.10	51115.25
711.29	51250.42
711.48	51070.20
711.66	51016.95
711.85	50588.92
712.04	51010.81
712.23	51055.86
712.42	50550.01
712.61	50504.96
712.80	50894.07
712.98	50930.93
713.17	50701.56
713.36	50394.37
713.55	50576.64
713.74	50738.43
713.93	50711.80
714.11	50595.07
714.30	50103.56
714.49	50443.52
714.68	50861.30
714.87	50406.65
715.06	50494.72
715.24	50214.15
715.43	50509.05
715.62	49874.18
715.81	50363.65
716.00	50558.20
716.18	50330.88
716.37	50017.54
716.56	50140.42
716.75	50205.95
716.94	49734.92
717.12	49880.33
717.31	50349.31
717.50	50128.13
717.69	49980.68
717.88	49853.70
718.06	49552.65
718.25	49687.82
718.44	49435.92
718.63	49779.98
718.82	49540.36
719.00	49550.60
719.19	49454.35
719.38	49065.24
719.57	49159.44
719.76	48672.03
719.94	48930.07
720.13	48907.54
720.32	49069.33
720.51	48993.56
720.69	49259.79
720.88	49390.86
721.07	48870.68
721.26	48588.06
721.44	48608.54
721.63	48641.31
721.82	48598.30
722.01	48282.91
722.20	49110.29
722.38	48563.48
722.57	48037.16
722.76	48477.47
722.95	48252.19
723.13	48342.30
723.32	48334.11
723.51	48049.44
723.70	47611.18
723.88	48213.28
724.07	47838.50
724.26	48141.60
724.44	47514.92
724.63	48137.51
724.82	48078.11
725.01	47797.54
725.19	48022.82
725.38	47314.22
725.57	47572.27
725.76	47930.66
725.94	47523.11
726.13	47629.61
726.32	48188.70
726.51	47285.55
726.69	47662.38
726.88	47641.90
727.07	47945.00
727.25	47615.27
727.44	47498.54
727.63	47564.07
727.82	47605.03
728.00	47109.43
728.19	47400.24
728.38	47551.79
728.56	47039.79
728.75	47412.52
728.94	47191.34
729.12	47256.88
729.31	47617.32
729.50	47328.56
729.69	47078.71
729.87	47443.24
730.06	46937.40
730.25	47527.21
730.43	47594.79
730.62	47303.98
730.81	47160.62
730.99	47449.39
731.18	46730.55
731.37	47338.80
731.55	47461.68
731.74	47912.23
731.93	47224.11
732.11	46912.82
732.30	47353.13
732.49	46998.83
732.67	47129.90
732.86	47054.13
733.05	47088.95
733.23	46798.13
733.42	47299.89
733.61	46941.49
733.79	47095.09
733.98	47672.62
734.17	47342.89
734.35	47205.68
734.54	47150.38
734.73	47844.65
734.91	47461.68
735.10	46980.40
735.29	47381.80
735.47	46421.31
735.66	46894.39
735.84	47226.16
736.03	46533.95
736.22	47013.17
736.40	46988.60
736.59	46904.63
736.78	46751.03
736.96	46878.00
737.15	46880.05
737.33	46595.38
737.52	46767.41
737.71	46701.88
737.89	46564.67
738.08	46531.90
738.27	46447.93
738.45	46914.87
738.64	46757.17
738.82	46607.67
739.01	46701.88
739.20	46589.24
739.38	46646.58
739.57	46626.10
739.75	46593.34
739.94	46232.89
740.13	46339.39
740.31	46296.38
740.50	46462.27
740.68	46683.45
740.87	46431.55
741.06	46671.16
741.24	46398.78
741.43	46384.44
741.61	46546.23
741.80	46277.95
741.99	46224.70
742.17	45980.99
742.36	46101.82
742.54	46382.40
742.73	46089.54
742.91	46525.75
743.10	46071.10
743.29	46335.29
743.47	46464.32
743.66	46220.61
743.84	46146.88
744.03	46056.77
744.21	45690.18
744.40	46314.81
744.59	46234.94
744.77	45956.42
744.96	46222.65
745.14	45952.32
745.33	46052.67
745.51	45872.45
745.70	45907.27
745.88	45626.70
746.07	45905.22
746.26	45415.76
746.44	45413.71
746.63	45778.25
746.81	45731.14
747.00	45411.66
747.18	45667.66
747.37	45552.97
747.55	45577.54
747.74	45759.81
747.92	45548.87
748.11	45208.91
748.29	45413.71
748.48	45847.88
748.66	45442.38
748.85	45319.50
749.03	45231.44
749.22	45638.98
749.41	45473.10
749.59	45837.64
749.78	45350.22
749.96	44914.00
750.15	44950.87
750.33	45716.81
750.52	45296.97
750.70	45256.01
750.89	45194.57
751.07	44586.33
751.26	45110.61
751.44	45184.33
751.63	44649.81
751.81	44731.73
752.00	44434.78
752.18	45210.96
752.37	44369.24
752.55	44410.20
752.74	44735.83
752.92	45008.21
753.10	44895.57
753.29	44752.21
753.47	44729.69
753.66	44311.90
753.84	44680.53
754.03	44492.12
754.21	44420.44
754.40	44850.52
754.58	44762.45
754.77	44442.97
754.95	44404.06
755.14	44948.82
755.32	44324.19
755.51	44248.41
755.69	44356.96
755.88	44645.72
756.06	44240.22
756.24	44262.75
756.43	44078.43
756.61	43998.56
756.80	44174.69
756.98	44168.54
757.17	44305.76
757.35	44002.66
757.54	43910.50
757.72	44068.19
757.90	43767.14
758.09	43894.11
758.27	44053.86
758.46	43533.67
758.64	43857.25
758.83	43818.34
759.01	43838.82
759.19	44293.47
759.38	43861.35
759.56	44039.52
759.75	43963.75
759.93	43879.78
760.12	43304.30
760.30	43375.98
760.48	43455.85
760.67	43238.76
760.85	43834.72
761.04	43584.87
761.22	43947.36
761.40	43582.82
761.59	43607.40
761.77	43210.09
761.96	43111.79
762.14	43320.68
762.32	42700.15
762.51	42964.34
762.69	43087.21
762.88	42784.12
763.06	42911.09
763.24	43054.45
763.43	42988.91
763.61	43017.58
763.80	43136.37
763.98	43119.98
764.16	42956.14
764.35	42689.91
764.53	42257.79
764.72	42775.92
764.90	42286.46
765.08	43068.78
765.27	42888.56
765.45	42464.63
765.63	42145.15
765.82	42775.92
766.00	42491.26
766.18	42997.10
766.37	42644.85
766.55	42476.92
766.74	42294.65
766.92	41770.37
767.10	42110.33
767.29	42356.09
767.47	42360.19
767.65	42184.06
767.84	42114.43
768.02	41756.03
768.20	41651.59
768.39	42108.29
768.57	42134.91
768.75	42653.05
768.94	42173.82
769.12	42112.38
769.30	41807.23
769.49	41825.67
769.67	41782.66
769.85	41598.34
770.04	41592.20
770.22	41450.89
770.40	41571.72
770.59	40869.26
770.77	41813.38
770.95	41508.23
771.14	41072.01
771.32	41399.69
771.50	40971.66
771.69	41241.99
771.87	41506.18
772.05	41348.49
772.24	41039.25
772.42	40740.24
772.60	41162.12
772.78	41160.08
772.97	40940.94
773.15	41469.32
773.33	41029.01
773.52	40852.88
773.70	40830.35
773.88	41123.21
774.07	40537.49
774.25	41176.46
774.43	41254.28
774.61	41129.36
774.80	41063.82
774.98	40861.07
775.16	40899.98
775.34	41311.63
775.53	40584.60
775.71	41080.21
775.89	40781.20
776.08	40691.09
776.26	41037.20
776.44	41153.93
776.62	41117.07
776.81	41383.30
776.99	41348.49
777.17	41489.80
777.35	41375.11
777.54	41403.78
777.72	40891.79
777.90	41037.20
778.08	41416.07
778.27	41475.46
778.45	41776.51
778.63	41948.54
778.81	41145.74
779.00	41964.93
779.18	41285.00
779.36	41581.96
779.54	41272.71
779.73	41319.82
779.91	41665.92
780.09	41870.72
780.27	41706.88
780.46	41579.91
780.64	42259.84
780.82	41737.60
781.00	41504.13
781.19	42104.19
781.37	42055.04
781.55	41915.78
781.73	42556.79
781.91	42163.58
782.10	41735.56
782.28	41614.72
782.46	42392.95
782.64	42157.44
782.82	41977.22
783.01	41973.12
783.19	42173.82
783.37	42474.87
783.55	41866.63
783.74	42257.79
783.92	42169.72
784.10	42599.80
784.28	41993.60
784.46	42024.32
784.64	42085.76
784.83	42130.81
785.01	42218.88
785.19	42177.92
785.37	42610.04
785.55	42292.60
785.74	42118.53
785.92	42007.94
786.10	42407.29
786.28	42466.68
786.46	42003.84
786.64	41694.60
786.83	41899.39
787.01	42169.72
787.19	41608.58
787.37	42059.13
787.55	41936.26
787.74	42052.99
787.92	41387.40
788.10	41801.09
788.28	41565.57
788.46	41694.60
788.64	41170.32
788.82	41569.67
789.01	41653.64
789.19	41682.31
789.37	41246.09
789.55	41543.05
789.73	40859.02
789.91	41207.18
790.09	41203.08
790.28	40938.90
790.46	40844.69
790.64	41432.46
790.82	41280.91
791.00	40637.84
791.18	40895.89
791.36	40701.33
791.55	40797.59
791.73	40285.59
791.91	40179.10
792.09	40680.85
792.27	40412.57
792.45	40007.07
792.63	40668.56
792.81	40484.25
793.00	39947.68
793.18	39947.68
793.36	39896.48
793.54	39794.08
793.72	39994.78
793.90	40236.44
794.08	39742.88
794.26	39513.51
794.44	39370.15
794.62	39165.35
794.81	39876.00
794.99	39306.66
795.17	39546.28
795.35	39046.57
795.53	39253.42
795.71	39210.41
795.89	38960.56
796.07	38788.53
796.25	38766.00
796.43	38475.19
796.61	38442.42
796.80	38370.74
796.98	38671.79
797.16	38243.77
797.34	38178.23
797.52	38299.06
797.70	38319.54
797.88	38434.23
798.06	38167.99
798.24	38280.63
798.42	37742.02
798.60	37928.38
798.78	37995.96
798.96	38063.55
799.14	37524.93
799.32	37510.60
799.51	37406.15
799.69	37393.86
799.87	37639.62
800.05	37060.04
800.23	37279.18
800.41	37197.26
800.59	37197.26
800.77	36885.97
800.95	36994.51
801.13	36863.44
801.31	36763.09
801.49	36754.90
801.67	36648.40
801.85	36484.56
802.03	36546.00
802.21	36214.23
802.39	36056.54
802.57	36384.21
802.75	35821.02
802.93	36294.10
803.11	35632.61
803.29	35995.10
803.47	35673.57
803.65	35980.76
803.83	35694.05
804.01	35714.53
804.19	35108.33
804.37	35362.28
804.55	35223.01
804.73	35304.93
804.91	35173.86
805.09	35501.54
805.27	35132.90
805.45	35253.73
805.63	35048.94
805.81	34850.28
805.99	34962.92
806.17	35302.89
806.35	34792.94
806.53	34518.51
806.71	34817.52
806.89	34549.23
807.07	34389.49
807.25	34538.99
807.43	34072.06
807.61	34905.58
807.79	34272.76
807.97	33973.75
808.15	34072.06
808.33	33920.51
808.51	33924.60
808.69	33932.79
808.87	33545.73
809.05	33578.50
809.23	33480.19
809.41	33187.33
809.59	33459.71
809.77	33601.02
809.95	33347.08
810.13	33453.57
810.31	33267.20
810.49	33365.51
810.67	33371.65
810.84	33263.11
811.02	33076.74
811.20	32931.34
811.38	33564.16
811.56	32523.79
811.74	32765.45
811.92	32749.07
812.10	32443.92
812.28	32622.09
812.46	32818.70
812.64	32734.73
812.82	32288.28
813.00	32468.50
813.18	32466.45
813.36	32106.01
813.53	31958.55
813.71	32056.85
813.89	31845.91
814.07	32232.98
814.25	32050.71
814.43	31637.02
814.61	31346.21
814.79	31823.39
814.97	31800.86
815.15	31616.54
815.33	31413.79
815.50	31512.10
815.68	31352.35
815.86	31256.10
816.04	30996.01
816.22	31034.92
816.40	31325.73
816.58	31049.25
816.76	30891.56
816.94	30905.90
817.11	31026.73
817.29	30912.04
817.47	30524.97
817.65	30760.49
817.83	30907.94
818.01	30826.03
818.19	30496.30
818.37	30502.45
818.54	30518.83
818.72	30381.62
818.90	30506.54
819.08	30539.31
819.26	30182.96
819.44	30295.60
819.62	30072.37
819.80	30146.10
819.97	30615.08
820.15	29961.78
820.33	29965.88
820.51	29914.68
820.69	29507.13
820.87	30078.52
821.05	30111.28
821.22	29996.60
821.40	29918.78
821.58	29591.10
821.76	29570.62
821.94	29382.21
822.12	29599.29
822.29	29691.45
822.47	29216.32
822.65	29888.06
822.83	29695.55
823.01	29466.17
823.19	29193.79
823.36	29177.41
823.54	29347.39
823.72	28864.07
823.90	29054.53
824.08	28902.98
824.25	28937.80
824.43	28716.62
824.61	28976.71
824.79	28755.53
824.97	28526.16
825.15	28958.28
825.32	28681.80
825.50	28495.44
825.68	28313.17
825.86	28833.35
826.04	28599.88
826.21	28335.70
826.39	28309.07
826.57	28278.35
826.75	28270.16
826.93	27958.87
827.10	28325.46
827.28	28087.89
827.46	28376.66
827.64	28411.47
827.81	28061.27
827.99	28186.19
828.17	27768.41
828.35	28436.05
828.53	27999.83
828.70	27528.80
828.88	27797.08
829.06	28096.08
829.24	27887.19
829.41	27629.15
829.59	27829.85
829.77	27772.50
829.95	27735.64
830.12	27268.70
830.30	27356.77
830.48	27625.05
830.66	27459.16
830.84	27424.35
831.01	27520.60
831.19	27188.83
831.37	27096.67
831.55	27182.69
831.72	27047.52
831.90	27328.10
832.08	27565.66
832.25	26963.56
832.43	27385.44
832.61	27098.72
832.79	26766.95
832.96	26920.55
833.14	27098.72
833.32	27055.72
833.50	27276.90
833.67	26961.51
833.85	26664.55
834.03	26578.54
834.20	26695.27
834.38	26609.26
834.56	26674.79
834.74	26656.36
834.91	26627.69
835.09	26316.40
835.27	26232.43
835.44	26238.58
835.62	25980.53
835.80	26418.80
835.98	26551.91
836.15	25929.33
836.33	26295.92
836.51	26498.67
836.68	25962.10
836.86	26056.31
837.04	25937.52
837.21	26011.25
837.39	26007.16
837.57	26095.22
837.75	26197.62
837.92	25992.82
838.10	25882.23
838.28	25403.00
838.45	25763.45
838.63	25628.28
838.81	25798.26
838.98	25468.54
839.16	25259.65
839.34	25333.37
839.51	25523.83
839.69	25419.39
839.87	25370.24
840.04	25183.87
840.22	25593.47
840.40	25198.21
840.57	25192.06
840.75	25366.14
840.93	25204.35
841.10	25099.90
841.28	25523.83
841.46	24989.31
841.63	25515.64
841.81	25024.13
841.98	24899.20
842.16	25290.37
842.34	24897.16
842.51	25009.79
842.69	25101.95
842.87	24811.14
843.04	25015.94
843.22	24776.33
843.40	25095.81
843.57	24571.53
843.75	24684.17
843.92	24911.49
844.10	24768.13
844.28	24759.94
844.45	24718.98
844.63	24907.40
844.81	24387.21
844.98	24538.76
845.16	24313.48
845.33	24680.07
845.51	24776.33
845.69	24219.28
845.86	24172.18
846.04	24077.97
846.21	24557.19
846.39	24262.29
846.57	24254.09
846.74	24151.70
846.92	24102.54
847.09	23971.47
847.27	23830.16
847.45	24215.18
847.62	23776.92
847.80	23895.70
847.97	23965.33
848.15	23950.99
848.32	23742.10
848.50	23666.33
848.68	23764.63
848.85	23682.71
849.03	23768.73
849.20	23740.05
849.38	23883.41
849.56	23453.34
849.73	23760.53
849.91	23537.30
850.08	23811.73
850.26	23207.58
850.43	23541.40
850.61	23449.24
850.78	23269.02
850.96	23563.93
851.14	23342.75
851.31	23250.59
851.49	23385.76
851.66	23344.80
851.84	23144.09
852.01	23232.16
852.19	23230.11
852.36	23156.38
852.54	22920.87
852.71	22961.83
852.89	23058.08
853.07	22931.11
853.24	23027.36
853.42	23207.58
853.59	22924.96
853.77	22683.30
853.94	22830.76
854.12	22961.83
854.29	22597.29
854.47	22789.80
854.64	22851.24
854.82	22691.49
854.99	22453.93
855.17	22472.36
855.34	22658.73
855.52	22464.17
855.69	22599.34
855.87	22333.10
856.04	22257.32
856.22	22564.52
856.39	22070.96
856.57	22367.91
856.74	21894.83
856.92	22191.79
857.09	21878.45
857.27	22335.15
857.44	22132.40
857.62	22019.76
857.79	22048.43
857.97	22187.69
858.14	22107.82
858.32	22206.13
858.49	21855.92
858.67	22267.56
858.84	22058.67
859.02	22073.01
859.19	21935.79
859.37	21937.84
859.54	21630.65
859.72	21925.55
859.89	21569.21
860.06	21731.00
860.24	21749.43
860.41	21515.96
860.59	21505.72
860.76	22021.81
860.94	21403.32
861.11	21653.17
861.29	21780.15
861.46	21497.53
861.64	21335.74
861.81	21272.25
861.98	21540.54
862.16	20975.30
862.33	21155.52
862.51	21159.61
862.68	21120.70
862.86	21245.63
863.03	21020.35
863.21	21126.85
863.38	21087.93
863.55	20911.81
863.73	20983.49
863.90	21180.09
864.08	20889.28
864.25	20790.98
864.43	20850.37
864.60	20803.27
864.77	20799.17
864.95	20526.79
865.12	20489.93
865.30	20594.37
865.47	20698.82
865.64	20631.24
865.82	20870.85
865.99	20801.22
866.17	20344.52
866.34	20606.66
866.51	20092.62
866.69	20590.28
866.86	20393.67
867.04	20389.58
867.21	20373.19
867.38	20092.62
867.56	20043.47
867.73	20344.52
867.91	20104.91
868.08	20324.04
868.25	20109.01
868.43	20029.13
868.60	19998.41
868.78	20078.29
868.95	20184.78
869.12	19742.42
869.30	19666.64
869.47	19965.65
869.64	19766.99
869.82	19898.06
869.99	19842.77
870.16	19877.58
870.34	19678.93
870.51	19771.09
870.69	19484.37
870.86	19324.63
871.03	19611.35
871.21	19564.25
871.38	19746.51
871.55	19322.59
871.73	19293.91
871.90	19162.84
872.07	19162.84
872.25	19324.63
872.42	19287.77
872.59	19277.53
872.77	18900.70
872.94	19308.25
873.11	19316.44
873.29	19386.07
873.46	18935.52
873.63	18808.54
873.81	18974.43
873.98	18890.46
874.15	18681.57
874.33	18640.61
874.50	18618.08
874.67	18779.87
874.85	18683.62
875.02	18495.21
875.19	18157.29
875.37	18536.17
875.54	18468.58
875.71	18407.14
875.88	18470.63
876.06	18357.99
876.23	18329.32
876.40	18398.95
876.58	18196.20
876.75	18288.36
876.92	18065.13
877.10	18038.51
877.27	18280.17
877.44	18085.61
877.61	17989.36
877.79	18132.72
877.96	17932.01
878.13	17997.55
878.31	17733.36
878.48	17901.29
878.65	17839.86
878.82	17663.73
879.00	17710.83
879.17	17567.48
879.34	17874.67
879.51	17542.90
879.69	17456.89
879.86	17493.75
880.03	17342.20
880.21	17399.54
880.38	17385.21
880.55	17700.59
880.72	17397.49
880.90	17303.29
881.07	17280.76
881.24	17401.59
881.41	17477.37
881.59	17135.35
881.76	17176.31
881.93	17381.11
882.10	17045.24
882.28	16930.56
882.45	17190.65
882.62	17114.87
882.79	17190.65
882.96	17145.59
883.14	17180.41
883.31	17221.37
883.48	17000.19
883.65	17182.46
883.83	17000.19
884.00	16961.28
884.17	16797.44
884.34	16822.02
884.51	16783.10
884.69	16772.86
884.86	16680.71
885.03	16658.18
885.20	16719.62
885.38	16746.24
885.55	16813.82
885.72	16682.75
885.89	16774.91
886.06	16774.91
886.24	16328.45
886.41	16447.24
886.58	16738.05
886.75	16535.30
886.92	16326.41
887.10	16643.84
887.27	16320.26
887.44	16453.38
887.61	16492.29
887.78	16690.95
887.95	16537.35
888.13	16447.24
888.30	16402.18
888.47	16285.45
888.64	16291.59
888.81	16305.93
888.99	16115.47
889.16	15994.64
889.33	16062.22
889.50	16287.50
889.67	16129.80
889.84	16080.65
890.01	16008.97
890.19	15965.96
890.36	16045.84
890.53	15951.63
890.70	15707.92
890.87	15855.37
891.04	15822.61
891.22	15714.06
891.39	15943.44
891.56	15695.63
891.73	15517.46
891.90	15632.15
892.07	15666.96
892.24	15544.08
892.42	15462.16
892.59	15382.29
892.76	15259.42
892.93	15488.79
893.10	15390.49
893.27	15441.68
893.44	15269.66
893.61	15400.72
893.79	15542.03
893.96	15279.89
894.13	15249.18
894.30	15376.15
894.47	15222.55
894.64	15507.22
894.81	15314.71
894.98	15580.95
895.15	15163.16
895.33	15185.69
895.50	15161.11
895.67	15290.13
895.84	15361.81
896.01	15107.87
896.18	15247.13
896.35	15277.85
896.52	15179.54
896.69	15247.13
896.86	15462.16
897.04	15052.57
897.21	15367.96
897.38	14841.63
897.55	15265.56
897.72	15040.28
897.89	15089.43
898.06	15232.79
898.23	15208.22
898.40	15222.55
898.57	15087.39
898.74	15027.99
898.91	15003.42
899.08	15025.95
899.26	15056.67
899.43	14952.22
899.60	15054.62
899.77	15206.17
899.94	14817.05
900.11	14833.44
900.28	15175.45
900.45	14941.98
900.62	14950.17
900.79	15415.06
900.96	15130.39
901.13	15060.76
901.30	15177.50
901.47	14792.48
901.64	15023.90
901.81	15197.98
901.98	14960.41
902.15	15456.02
902.32	15103.77
902.49	14812.96
902.66	14886.68
902.83	15142.68
903.01	15079.19
903.18	15267.61
903.35	15073.05
903.52	15064.86
903.69	15130.39
903.86	14974.75
904.03	15179.54
904.20	14982.94
904.37	15286.04
904.54	15062.81
904.71	14784.29
904.88	14939.93
905.05	14759.71
905.22	15122.20
905.39	15036.19
905.56	14868.25
905.73	14866.21
905.90	14921.50
906.07	14815.01
906.24	15249.18
906.41	14825.25
906.58	14714.66
906.75	14911.26
906.92	14610.21
907.09	14851.87
907.26	14872.35
907.43	14956.32
907.60	15087.39
907.77	15116.06
907.93	14984.99
908.10	14812.96
908.27	14919.45
908.44	14763.81
908.61	14774.05
908.78	14921.50
908.95	14894.88
909.12	14698.27
909.29	14624.54
909.46	14782.24
909.63	14610.21
909.80	14728.99
909.97	14884.64
910.14	14726.94
910.31	14821.15
910.48	14880.54
910.65	14690.08
910.82	14616.35
910.99	14513.95
911.16	14642.98
911.33	14581.54
911.50	14393.12
911.66	14303.01
911.83	14536.48
912.00	14317.35
912.17	14348.07
912.34	14364.45
912.51	14370.60
912.68	14323.49
912.85	14438.18
913.02	14165.80
913.19	14374.69
913.36	14360.36
913.53	14473.00
913.70	14169.90
913.86	14206.76
914.03	14151.46
914.20	14270.25
914.37	14126.89
914.54	14114.60
914.71	14360.36
914.88	14040.87
915.05	14067.50
915.22	13786.93
915.39	13877.04
915.55	13956.91
915.72	13846.32
915.89	13997.87
916.06	13662.00
916.23	13733.68
916.40	13655.86
916.57	13618.99
916.74	13780.78
916.91	13602.61
917.07	13520.69
917.24	13565.74
917.41	13469.49
917.58	13575.98
917.75	13322.04
917.92	13346.61
918.09	13190.97
918.26	13360.95
918.42	13367.09
918.59	13324.08
918.76	13233.97
918.93	13172.54
919.10	13158.20
919.27	13037.37
919.44	13328.18
919.60	13055.80
919.77	13086.52
919.94	12986.17
920.11	12844.86
920.28	12803.90
920.45	12777.28
920.61	12996.41
920.78	12719.93
920.95	12740.41
921.12	12615.49
921.29	12709.69
921.46	12595.01
921.62	12640.06
921.79	12572.48
921.96	12699.45
922.13	12517.18
922.30	12384.07
922.47	12308.29
922.63	12406.59
922.80	12238.66
922.97	12318.53
923.14	12101.45
923.31	12293.96
923.47	12027.72
923.64	12377.92
923.81	12029.77
923.98	12212.04
924.15	11857.74
924.32	12027.72
924.48	11978.57
924.65	11990.86
924.82	11870.03
924.99	11648.85
925.15	11509.58
925.32	11812.68
925.49	11468.62
925.66	11591.50
925.83	11689.81
925.99	11566.93
926.16	11624.27
926.33	11456.34
926.50	11188.05
926.67	11519.82
926.83	11202.39
927.00	11360.08
927.17	11093.85
927.34	11110.23
927.50	10970.97
927.67	11390.80
927.84	11034.46
928.01	10766.17
928.17	10964.82
928.34	10932.06
928.51	10739.55
928.68	10843.99
928.84	10559.33
929.01	10571.61
929.18	10336.10
929.35	10522.46
929.51	10739.55
929.68	10418.02
929.85	10325.86
930.02	10469.22
930.18	10573.66
930.35	10334.05
930.52	10323.81
930.69	10272.61
930.85	10141.54
931.02	9987.94
931.19	10219.36
931.36	10145.64
931.52	10108.77
931.69	10041.19
931.86	9795.43
932.02	9897.83
932.19	9949.03
932.36	9901.93
932.53	9762.67
932.69	9760.62
932.86	9867.11
933.03	9572.21
933.19	9541.49
933.36	9588.59
933.53	9686.89
933.70	9391.98
933.86	9414.51
934.03	9455.47
934.20	9451.38
934.36	9455.47
934.53	9222.00
934.70	8984.44
934.86	9271.15
935.03	8996.73
935.20	8904.57
935.36	9000.82
935.53	8693.63
935.70	8558.46
935.86	8779.64
936.03	8449.92
936.20	8460.16
936.36	8486.78
936.53	8390.53
936.70	8365.95
936.86	8451.97
937.03	8128.39
937.20	8210.31
937.36	8105.86
937.53	7829.38
937.70	7872.39
937.86	7849.86
938.03	7765.90
938.20	7874.44
938.36	7675.79
938.53	7620.49
938.70	7317.39
938.86	7475.09
939.03	7237.52
939.20	7266.19
939.36	7233.43
939.53	7026.58
939.70	7122.84
939.86	6877.08
940.03	6782.87
940.19	6770.58
940.36	6662.04
940.53	6678.43
940.69	6557.60
940.86	6633.37
941.03	6334.37
941.19	6242.21
941.36	6399.90
941.52	6250.40
941.69	6213.54
941.86	6156.19
942.02	6180.77
942.19	5926.82
942.35	6084.52
942.52	5992.36
942.69	6070.18
942.85	5779.37
943.02	5771.18
943.18	5805.99
943.35	5660.59
943.52	5582.76
943.68	5670.83
943.85	5654.44
944.01	5525.42
944.18	5576.62
944.35	5533.61
944.51	5433.26
944.68	5351.34
944.84	5279.66
945.01	5486.51
945.17	5265.33
945.34	5451.69
945.51	5414.83
945.67	5279.66
945.84	5128.11
946.00	5220.27
946.17	5216.18
946.33	5238.70
946.50	5316.53
946.67	5195.70
946.83	5287.86
947.00	5500.84
947.16	5232.56
947.33	5126.07
947.49	5332.91
947.66	5189.55
947.82	5187.50
947.99	5363.63
948.16	5332.91
948.32	5044.15
948.49	5271.47
948.65	5140.40
948.82	5334.96
948.98	5216.18
949.15	5113.78
949.31	5236.66
949.48	5173.17
949.64	5187.50
949.81	5099.44
949.97	5072.82
950.14	5296.05
950.30	5205.94
950.47	5306.29
950.63	5216.18
950.80	5291.95
950.96	5169.07
951.13	5255.09
951.30	5398.45
951.46	5326.77
951.63	5271.47
951.79	5277.62
951.96	5363.63
952.12	5199.79
952.29	5396.40
952.45	5148.59
952.62	5435.31
952.78	5322.67
952.94	5337.01
953.11	5312.43
953.27	5140.40
953.44	5451.69
953.60	5275.57
953.77	5386.16
953.93	5320.62
954.10	5318.57
954.26	5324.72
954.43	5277.62
954.59	5453.74
954.76	5547.95
954.92	5420.97
955.09	5502.89
955.25	5201.84
955.42	5306.29
955.58	5636.01
955.75	5425.07
955.91	5308.34
956.07	5361.58
956.24	5425.07
956.40	5386.16
956.57	5517.23
956.73	5359.53
956.90	5420.97
957.06	5255.09
957.23	5169.07
957.39	5384.11
957.56	5334.96
957.72	5275.57
957.88	5281.71
958.05	5402.54
958.21	5425.07
958.38	5533.61
958.54	5349.29
958.71	5492.65
958.87	5457.84
959.03	5283.76
959.20	5388.21
959.36	5246.90
959.53	5365.68
959.69	5304.24
959.85	5388.21
960.02	5296.05
960.18	5377.97
960.35	5418.93
960.51	5431.21
960.68	5318.57
960.84	5410.73
961.00	5412.78
961.17	5425.07
961.33	5406.64
961.50	5300.14
961.66	5445.55
961.82	5369.77
961.99	5388.21
962.15	5367.73
962.31	5283.76
962.48	5357.49
962.64	5277.62
962.81	5273.52
962.97	5410.73
963.13	5410.73
963.30	5343.15
963.46	5291.95
963.62	5345.20
963.79	5296.05
963.95	5322.67
964.12	5244.85
964.28	5353.39
964.44	5230.51
964.61	5298.10
964.77	5308.34
964.93	5558.19
965.10	5224.37
965.26	5181.36
965.42	5275.57
965.59	5263.28
965.75	5316.53
965.92	5330.86
966.08	5242.80
966.24	5173.17
966.41	5099.44
966.57	5099.44
966.73	5212.08
966.90	5285.81
967.06	5179.31
967.22	5154.74
967.39	5128.11
967.55	5070.77
967.71	5263.28
967.88	5148.59
968.04	5130.16
968.20	5019.57
968.37	5164.98
968.53	5040.05
968.69	5218.22
968.85	5152.69
969.02	5119.92
969.18	5132.21
969.34	5062.58
969.51	5167.03
969.67	5185.46
969.83	4984.76
970.00	5234.61
970.16	5091.25
970.32	4968.37
970.48	5195.70
970.65	5142.45
970.81	4974.52
970.97	5099.44
971.14	4831.16
971.30	5140.40
971.46	5113.78
971.63	4919.22
971.79	5115.83
971.95	4902.84
972.11	4894.65
972.28	4941.75
972.44	4999.09
972.60	4896.69
972.76	4851.64
972.93	4812.73
973.09	4943.80
973.25	5019.57
973.42	4917.17
973.58	4947.89
973.74	4906.93
973.90	4818.87
974.07	4749.24
974.23	4827.06
974.39	4892.60
974.55	4937.65
974.72	4837.30
974.88	4673.46
975.04	4698.04
975.20	4704.18
975.37	4837.30
975.53	4751.29
975.69	4739.00
975.85	4597.69
976.01	4841.40
976.18	4640.70
976.34	4616.12
976.50	4814.77
976.66	4671.42
976.83	4698.04
976.99	4536.25
977.15	4603.83
977.31	4712.38
977.47	4763.58
977.64	4648.89
977.80	4560.83
977.96	4550.59
978.12	4655.03
978.29	4671.42
978.45	4519.87
978.61	4493.24
978.77	4634.55
978.93	4581.31
979.10	4532.15
979.26	4526.01
979.42	4526.01
979.58	4394.94
979.74	4431.80
979.91	4523.96
980.07	4460.48
980.23	4476.86
980.39	4405.18
980.55	4435.90
980.71	4468.67
980.88	4302.78
981.04	4483.00
981.20	4437.95
981.36	4335.55
981.52	4335.55
981.68	4272.06
981.85	4356.03
982.01	4323.26
982.17	4257.73
982.33	4261.82
982.49	4366.27
982.65	4163.52
982.82	4366.27
982.98	4206.53
983.14	4194.24
983.30	4116.42
983.46	4302.78
983.62	4251.58
983.79	4235.20
983.95	4124.61
984.11	4126.66
984.27	4222.91
984.43	4100.03
984.59	4249.54
984.75	4161.47
984.91	4184.00
985.08	4239.30
985.24	4212.67
985.40	3989.44
985.56	4163.52
985.72	4171.71
985.88	4102.08
986.04	4108.23
986.20	3997.64
986.37	4085.70
986.53	4071.36
986.69	4026.31
986.85	4071.36
987.01	4059.07
987.17	4016.07
987.33	4003.78
987.49	3864.52
987.65	3975.11
987.82	3991.49
987.98	3901.38
988.14	4102.08
988.30	3899.33
988.46	3850.18
988.62	3899.33
988.78	3885.00
988.94	3829.70
989.10	3885.00
989.26	3844.04
989.42	3864.52
989.59	3821.51
989.75	3860.42
989.91	3899.33
990.07	3637.19
990.23	3753.93
990.39	3710.92
990.55	3811.27
990.71	3829.70
990.87	3815.37
991.03	3788.74
991.19	3678.15
991.35	3835.85
991.51	3837.89
991.67	3729.35
991.83	3784.65
992.00	3700.68
992.16	3819.46
992.32	3721.16
992.48	3676.10
992.64	3665.86
992.80	3780.55
992.96	3727.30
993.12	3684.30
993.28	3608.52
993.44	3676.10
993.60	3690.44
993.76	3581.90
993.92	3622.86
994.08	3583.95
994.24	3594.19
994.40	3559.37
994.56	3577.80
994.72	3592.14
994.88	3583.95
995.04	3614.66
995.20	3573.71
995.36	3540.94
995.52	3522.51
995.68	3471.31
995.84	3436.49
996.00	3499.98
996.16	3459.02
996.32	3342.28
996.48	3321.81
996.64	3575.75
996.80	3428.30
996.96	3465.16
997.12	3395.53
997.28	3370.96
997.44	3411.92
997.60	3448.78
997.76	3358.67
997.92	3321.81
998.08	3483.59
998.24	3334.09
998.40	3401.68
998.56	3373.00
998.72	3248.08
998.88	3317.71
999.04	3399.63
999.20	3325.90
999.36	3332.05
999.52	3391.44
999.68	3264.46
999.84	3286.99
1000.00	3426.25
1000.16	3299.28
1000.32	3157.97
1000.48	3317.71
1000.64	3151.82
1000.80	3205.07
1000.95	3168.21
1001.11	3254.22
1001.27	3141.58
1001.43	3180.50
1001.59	3323.85
1001.75	3223.50
1001.91	3180.50
1002.07	3057.62
1002.23	3125.20
1002.39	3082.19
1002.55	3207.12
1002.71	3028.95
1002.87	3205.07
1003.03	3141.58
1003.19	3049.43
1003.34	3180.50
1003.50	2998.23
1003.66	3184.59
1003.82	3071.95
1003.98	3125.20
1004.14	3030.99
1004.30	3000.27
1004.46	2922.45
1004.62	3006.42
1004.78	3071.95
1004.94	3164.11
1005.09	3051.47
1005.25	2963.41
1005.41	2967.51
1005.57	3006.42
1005.73	2961.36
1005.89	2936.79
1006.05	2942.93
1006.21	3018.71
1006.37	2938.84
1006.52	2924.50
1006.68	2994.13
1006.84	3035.09
1007.00	2953.17
1007.16	2918.36
1007.32	2891.73
1007.48	2858.96
1007.64	2914.26
1007.79	2877.40
1007.95	2916.31
1008.11	2971.60
1008.27	2865.11
1008.43	2885.59
1008.59	2799.57
1008.75	2938.84
1008.91	2959.31
1009.06	2772.95
1009.22	2772.95
1009.38	2877.40
1009.54	2783.19
1009.70	2686.94
1009.86	2824.15
1010.01	2858.96
1010.17	2748.37
1010.33	2856.92
1010.49	2713.56
1010.65	2803.67
1010.81	2742.23
1010.96	2795.48
1011.12	2691.03
1011.28	2531.29
1011.44	2766.81
1011.60	2766.81
1011.76	2680.79
1011.91	2818.00
1012.07	2609.11
1012.23	2633.69
1012.39	2633.69
1012.55	2652.12
1012.71	2631.64
1012.86	2596.82
1013.02	2695.13
1013.18	2639.83
1013.34	2707.41
1013.50	2621.40
1013.65	2680.79
1013.81	2633.69
1013.97	2609.11
1014.13	2562.01
1014.29	2519.00
1014.44	2662.36
1014.60	2543.58
1014.76	2543.58
1014.92	2543.58
1015.07	2592.73
1015.23	2572.25
1015.39	2484.19
1015.55	2519.00
1015.71	2578.39
1015.86	2568.15
1016.02	2506.71
1016.18	2467.80
1016.34	2523.10
1016.49	2447.32
1016.65	2521.05
1016.81	2463.71
1016.97	2445.27
1017.12	2488.28
1017.28	2351.07
1017.44	2432.99
1017.60	2553.82
1017.75	2484.19
1017.91	2475.99
1018.07	2428.89
1018.23	2506.71
1018.38	2383.84
1018.54	2377.69
1018.70	2420.70
1018.86	2435.03
1019.01	2363.36
1019.17	2461.66
1019.33	2584.54
1019.49	2475.99
1019.64	2400.22
1019.80	2402.27
1019.96	2400.22
1020.12	2418.65
1020.27	2340.83
1020.43	2422.75
1020.59	2396.12
1020.74	2385.88
1020.90	2412.51
1021.06	2387.93
1021.22	2357.21
1021.37	2285.53
1021.53	2295.77
1021.69	2351.07
1021.84	2226.14
1022.00	2263.01
1022.16	2299.87
1022.31	2260.96
1022.47	2285.53
1022.63	2334.68
1022.79	2285.53
1022.94	2308.06
1023.10	2404.32
1023.26	2260.96
1023.41	2265.05
1023.57	2228.19
1023.73	2263.01
1023.88	2168.80
1024.04	2242.53
1024.20	2283.49
1024.35	2316.25
1024.51	2207.71
1024.67	2207.71
1024.82	2367.45
1024.98	2146.27
1025.14	2246.62
1025.29	2265.05
1025.45	2271.20
1025.61	2174.94
1025.76	2232.29
1025.92	2183.13
1026.08	2277.34
1026.23	2213.85
1026.39	2246.62
1026.55	2183.13
1026.70	2093.02
1026.86	2099.17
1027.02	2226.14
1027.17	2146.27
1027.33	2226.14
1027.48	2125.79
1027.64	2086.88
1027.80	2152.42
1027.95	2187.23
1028.11	2084.83
1028.27	2238.43
1028.42	2162.66
1028.58	2150.37
1028.73	2119.65
1028.89	2023.39
1029.05	2246.62
1029.20	2136.03
>>>>>End Processed Spectral Data<<<<<
