SpectraSuite Data File
++++++++++++++++++++++++++++++++++++
Date: Fri Jun 02 14:57:23 CEST 2017
User: INFO_000
Dark Spectrum Present: No
Reference Spectrum Present: No
Number of Sampled Component Spectra: 1
Spectrometers: USB4H00879
Integration Time (usec): 80000 (USB4H00879)
Spectra Averaged: 1 (USB4H00879)
Boxcar Smoothing: 0 (USB4H00879)
Correct for Electrical Dark: No (USB4H00879)
Strobe/Lamp Enabled: No (USB4H00879)
Correct for Detector Non-linearity: No (USB4H00879)
Correct for Stray Light: No (USB4H00879)
Number of Pixels in Processed Spectrum: 3648
>>>>>Begin Processed Spectral Data<<<<<
345.13	1257.45
345.34	1257.45
345.56	1257.45
345.78	1232.88
345.99	1243.12
346.21	1693.67
346.42	1761.25
346.64	1675.24
346.86	1746.92
347.07	1746.92
347.29	1716.20
347.50	1632.23
347.72	1679.33
347.94	1714.15
348.15	1597.42
348.37	1583.08
348.59	1722.34
348.80	1638.38
349.02	1818.60
349.23	1949.67
349.45	1855.46
349.67	1808.36
349.88	1828.84
350.10	1959.91
350.31	1855.46
350.53	1882.08
350.75	2039.78
350.96	1787.88
351.18	1914.85
351.39	1873.89
351.61	1781.73
351.82	1900.52
352.04	1894.37
352.26	1884.13
352.47	1871.84
352.69	1877.99
352.90	1837.03
353.12	1916.90
353.34	1886.18
353.55	2013.15
353.77	1865.70
353.98	1826.79
354.20	1824.74
354.41	1914.85
354.63	1904.61
354.85	2097.12
355.06	1884.13
355.28	1822.69
355.49	1877.99
355.71	1886.18
355.92	1894.37
356.14	1855.46
356.35	1888.23
356.57	1798.12
356.79	1955.81
357.00	1890.28
357.22	1990.63
357.43	1888.23
357.65	1957.86
357.86	1898.47
358.08	1837.03
358.29	1892.32
358.51	1970.15
358.72	1994.72
358.94	1992.67
359.16	1920.99
359.37	1935.33
359.59	1937.38
359.80	2002.91
360.02	1925.09
360.23	1955.81
360.45	2011.11
360.66	1955.81
360.88	1820.64
361.09	1925.09
361.31	1908.71
361.52	1920.99
361.74	2140.13
361.95	2037.73
362.17	2000.87
362.38	2037.73
362.60	1978.34
362.81	1955.81
363.03	1947.62
363.24	2029.54
363.46	2068.45
363.67	1984.48
363.89	2138.08
364.10	1988.58
364.32	1935.33
364.53	1996.77
364.75	1849.32
364.96	2037.73
365.18	1961.95
365.39	2023.39
365.61	1945.57
365.82	2146.27
366.04	2002.91
366.25	1990.63
366.47	2031.58
366.68	2037.73
366.90	2007.01
367.11	2080.74
367.33	2115.55
367.54	2037.73
367.76	2076.64
367.97	2164.70
368.19	2007.01
368.40	2013.15
368.62	1914.85
368.83	2011.11
369.05	2015.20
369.26	2009.06
369.48	1961.95
369.69	2019.30
369.91	2181.09
370.12	1998.82
370.33	2117.60
370.55	2002.91
370.76	1978.34
370.98	2136.03
371.19	2095.07
371.41	2017.25
371.62	2088.93
371.84	2009.06
372.05	2197.47
372.27	2103.26
372.48	2086.88
372.69	2060.26
372.91	2119.65
373.12	2197.47
373.34	1990.63
373.55	2097.12
373.77	2213.85
373.98	2035.68
374.20	2224.09
374.41	2240.48
374.62	2170.85
374.84	2189.28
375.05	2144.22
375.27	2228.19
375.48	2111.46
375.70	2088.93
375.91	2179.04
376.12	2240.48
376.34	2148.32
376.55	2199.52
376.77	2168.80
376.98	2125.79
377.19	2170.85
377.41	2185.18
377.62	2181.09
377.84	2185.18
378.05	2306.01
378.27	2238.43
378.48	2353.12
378.69	2271.20
378.91	2271.20
379.12	2236.38
379.34	2248.67
379.55	2279.39
379.76	2215.90
379.98	2244.57
380.19	2301.92
380.41	2187.23
380.62	2301.92
380.83	2172.89
381.05	2320.35
381.26	2463.71
381.47	2136.03
381.69	2271.20
381.90	2435.03
382.12	2220.00
382.33	2248.67
382.54	2207.71
382.76	2312.16
382.97	2389.98
383.19	2344.92
383.40	2373.60
383.61	2322.40
383.83	2248.67
384.04	2355.16
384.25	2359.26
384.47	2410.46
384.68	2422.75
384.89	2351.07
385.11	2281.44
385.32	2377.69
385.54	2322.40
385.75	2320.35
385.96	2361.31
386.18	2404.32
386.39	2383.84
386.60	2344.92
386.82	2455.51
387.03	2402.27
387.24	2475.99
387.46	2531.29
387.67	2502.62
387.88	2441.18
388.10	2441.18
388.31	2488.28
388.52	2594.78
388.74	2453.47
388.95	2627.54
389.16	2512.86
389.38	2519.00
389.59	2641.88
389.80	2564.06
390.02	2590.68
390.23	2580.44
390.44	2533.34
390.66	2551.77
390.87	2467.80
391.08	2582.49
391.30	2625.50
391.51	2582.49
391.72	2650.07
391.94	2605.02
392.15	2584.54
392.36	2613.21
392.58	2615.26
392.79	2680.79
393.00	2633.69
393.22	2676.70
393.43	2682.84
393.64	2805.72
393.85	2691.03
394.07	2617.30
394.28	2744.28
394.49	2742.23
394.71	2695.13
394.92	2840.53
395.13	2715.61
395.35	2748.37
395.56	2715.61
395.77	2772.95
395.98	2809.81
396.20	2789.33
396.41	2826.20
396.62	2949.08
396.84	2787.29
397.05	2799.57
397.26	3028.95
397.47	2920.40
397.69	2871.25
397.90	3053.52
398.11	2930.64
398.32	2922.45
398.54	2781.14
398.75	2844.63
398.96	2936.79
399.18	3008.47
399.39	2953.17
399.60	3020.75
399.81	2975.70
400.03	2916.31
400.24	3262.41
400.45	2973.65
400.66	3102.67
400.88	3043.28
401.09	3213.26
401.30	3045.33
401.51	3203.02
401.73	3100.62
401.94	3074.00
402.15	3047.38
402.36	3182.54
402.58	3151.82
402.79	3231.69
403.00	3160.02
403.21	3215.31
403.43	3180.50
403.64	3346.38
403.85	3041.23
404.06	3123.15
404.27	3145.68
404.49	3088.34
404.70	3084.24
404.91	3233.74
405.12	3264.46
405.34	3280.85
405.55	3334.09
405.76	3196.88
405.97	3213.26
406.19	3307.47
406.40	3211.22
406.61	3282.89
406.82	3391.44
407.03	3317.71
407.25	3291.09
407.46	3391.44
407.67	3362.76
407.88	3360.72
408.09	3403.72
408.31	3291.09
408.52	3463.12
408.73	3344.33
408.94	3235.79
409.15	3461.07
409.37	3444.68
409.58	3420.11
409.79	3399.63
410.00	3583.95
410.21	3352.52
410.43	3506.12
410.64	3407.82
410.85	3485.64
411.06	3565.51
411.27	3489.74
411.48	3575.75
411.70	3547.08
411.91	3612.62
412.12	3665.86
412.33	3573.71
412.54	3518.41
412.76	3651.53
412.97	3792.84
413.18	3510.22
413.39	3612.62
413.60	3557.32
413.81	3637.19
414.03	3665.86
414.24	3698.63
414.45	3860.42
414.66	3633.10
414.87	3665.86
415.08	3723.21
415.30	3583.95
415.51	3758.02
415.72	3708.87
415.93	3717.06
416.14	3803.08
416.35	3753.93
416.56	3702.73
416.78	3874.76
416.99	3874.76
417.20	3678.15
417.41	3860.42
417.62	3854.28
417.83	3905.48
418.04	3856.33
418.26	3960.77
418.47	3811.27
418.68	3940.29
418.89	3936.20
419.10	4034.50
419.31	3907.52
419.52	4014.02
419.73	4001.73
419.95	4100.03
420.16	3938.24
420.37	3889.09
420.58	3966.92
420.79	3784.65
421.00	4069.31
421.21	4157.38
421.42	4001.73
421.63	4112.32
421.85	4052.93
422.06	3997.64
422.27	4145.09
422.48	4116.42
422.69	4239.30
422.90	4263.87
423.11	4155.33
423.32	4315.07
423.53	4308.93
423.75	4247.49
423.96	4366.27
424.17	4407.23
424.38	4362.17
424.59	4300.73
424.80	4440.00
425.01	4460.48
425.22	4429.76
425.43	4474.81
425.64	4560.83
425.85	4607.93
426.06	4503.48
426.28	4552.63
426.49	4415.42
426.70	4413.37
426.91	4591.55
427.12	4501.44
427.33	4521.92
427.54	4526.01
427.75	4644.79
427.96	4710.33
428.17	4624.31
428.38	4683.70
428.59	4753.34
428.80	4741.05
429.01	4718.52
429.23	4724.66
429.44	4923.32
429.65	4874.17
429.86	4849.59
430.07	4718.52
430.28	4777.91
430.49	4933.56
430.70	5097.39
430.91	5113.78
431.12	4999.09
431.33	5033.91
431.54	5011.38
431.75	5029.81
431.96	4968.37
432.17	5035.96
432.38	5023.67
432.59	5304.24
432.80	5226.42
433.01	5267.38
433.22	5246.90
433.43	5158.83
433.64	5332.91
433.85	5314.48
434.06	5222.32
434.27	5228.46
434.49	5449.64
434.70	5351.34
434.91	5277.62
435.12	5412.78
435.33	5392.30
435.54	5394.35
435.75	5236.66
435.96	5324.72
436.17	5332.91
436.38	5660.59
436.59	5572.52
436.80	5402.54
437.01	5744.55
437.22	5752.74
437.43	5615.53
437.64	5423.02
437.85	5760.94
438.06	5619.63
438.27	5625.77
438.48	5689.26
438.69	5724.07
438.90	5732.26
439.11	5611.43
439.32	5908.39
439.53	5742.50
439.74	5982.12
439.95	5879.72
440.16	5644.20
440.37	5875.62
440.57	5693.35
440.78	5975.97
440.99	5982.12
441.20	5908.39
441.41	5838.76
441.62	5949.35
441.83	5904.29
442.04	6043.56
442.25	6129.57
442.46	5990.31
442.67	6014.88
442.88	6551.45
443.09	5982.12
443.30	5996.45
443.51	6107.04
443.72	6363.04
443.93	6201.25
444.14	6410.14
444.35	6191.01
444.56	6143.91
444.77	6369.18
444.98	6367.13
445.19	6406.05
445.40	6387.61
445.61	6365.09
445.81	6365.09
446.02	6397.85
446.23	6424.48
446.44	6389.66
446.65	6487.96
446.86	6494.11
447.07	6573.98
447.28	6680.47
447.49	6647.71
447.70	6514.59
447.91	6739.87
448.12	6643.61
448.33	6758.30
448.54	6915.99
448.74	6651.80
448.95	6678.43
449.16	6668.19
449.37	6872.98
449.58	6692.76
449.79	7026.58
450.00	6768.54
450.21	6838.17
450.42	7016.34
450.63	7100.31
450.84	7161.75
451.05	6877.08
451.25	7071.64
451.46	6897.56
451.67	7096.21
451.88	7317.39
452.09	7366.54
452.30	7137.17
452.51	7112.60
452.72	7229.33
452.93	7440.27
453.13	7217.04
453.34	7161.75
453.55	7266.19
453.76	7305.10
453.97	7561.10
454.18	7364.50
454.39	7397.26
454.60	7337.87
454.81	7524.24
455.01	7663.50
455.22	7153.55
455.43	7559.05
455.64	7673.74
455.85	7784.33
456.06	7982.98
456.27	7874.44
456.48	7737.23
456.68	7806.86
456.89	7884.68
457.10	7909.26
457.31	7817.10
457.52	8023.94
457.73	8054.66
457.94	8226.69
458.14	7970.69
458.35	8396.67
458.56	8230.79
458.77	8054.66
458.98	8296.32
459.19	8253.31
459.39	8400.77
459.60	8546.17
459.81	8476.54
460.02	8402.82
460.23	8501.12
460.44	8660.86
460.65	8707.96
460.85	8523.65
461.06	8798.07
461.27	8525.69
461.48	9017.21
461.69	9054.07
461.89	8585.08
462.10	8888.18
462.31	8646.52
462.52	8734.59
462.73	8906.62
462.94	9146.23
463.14	9207.67
463.35	9191.28
463.56	9449.33
463.77	9148.28
463.98	9000.82
464.18	9301.87
464.39	9381.74
464.60	9555.82
464.81	9404.27
465.02	9396.08
465.23	9820.01
465.43	9412.46
465.64	9949.03
465.85	9660.27
466.06	9660.27
466.27	9940.84
466.47	9879.40
466.68	9996.14
466.89	10061.67
467.10	9949.03
467.30	9817.96
467.51	10307.43
467.72	10270.56
467.93	10092.39
468.14	10325.86
468.34	10364.77
468.55	10463.07
468.76	10526.56
468.97	10436.45
469.17	10612.57
469.38	10764.12
469.59	10887.00
469.80	10600.29
470.01	10624.86
470.21	10887.00
470.42	10975.06
470.63	11112.28
470.84	10915.67
471.04	11216.72
471.25	11116.37
471.46	11315.03
471.67	11616.08
471.87	11226.96
472.08	11663.18
472.29	11667.28
472.50	11605.84
472.70	11568.98
472.91	11579.22
473.12	11810.64
473.33	12097.35
473.53	11837.26
473.74	12128.07
473.95	12087.11
474.16	12095.30
474.36	12156.74
474.57	12349.25
474.78	12533.57
474.99	12345.16
475.19	12437.31
475.40	12642.11
475.61	12906.30
475.81	12758.85
476.02	12969.79
476.23	12875.58
476.44	13102.90
476.64	13346.61
476.85	13283.13
477.06	13115.19
477.27	13551.41
477.47	13461.30
477.68	13733.68
477.89	13731.63
478.09	13967.15
478.30	13698.86
478.51	13817.65
478.71	14128.94
478.92	14137.13
479.13	14075.69
479.34	14243.62
479.54	14100.26
479.75	14501.67
479.96	14421.80
480.16	14638.88
480.37	14681.89
480.58	14864.16
480.78	14923.55
480.99	14870.30
481.20	15011.61
481.41	15173.40
481.61	15093.53
481.82	15431.44
482.03	15370.01
482.23	15316.76
482.44	15507.22
482.65	15904.53
482.85	15855.37
483.06	15795.98
483.27	16133.90
483.47	16013.07
483.68	15912.72
483.89	16203.53
484.09	16238.34
484.30	16240.39
484.51	16531.20
484.71	16656.13
484.92	16303.88
485.13	16641.79
485.33	16867.07
485.54	16600.83
485.75	17051.39
485.95	17327.86
486.16	17141.50
486.37	17307.38
486.57	17161.98
486.78	17260.28
486.98	17559.28
487.19	17301.24
487.40	17579.76
487.60	17708.79
487.81	18183.91
488.02	17800.94
488.22	17893.10
488.43	17905.39
488.64	18192.11
488.84	18317.03
489.05	18482.92
489.25	18298.60
489.46	18642.66
489.67	18372.33
489.87	18728.67
490.08	18786.02
490.29	18880.22
490.49	19148.51
490.70	19031.77
490.90	19312.35
491.11	19259.10
491.32	19443.42
491.52	19269.34
491.73	19488.47
491.94	19988.18
492.14	19826.39
492.35	19963.60
492.55	20027.09
492.76	19859.15
492.97	20096.72
493.17	19984.08
493.38	19939.02
493.58	20522.69
493.79	20278.99
494.00	20367.05
494.20	20772.55
494.41	20803.27
494.61	20969.15
494.82	20874.95
495.02	21040.83
495.23	20952.77
495.44	21561.02
495.64	21042.88
495.85	21245.63
496.05	21071.55
496.26	21438.14
496.47	21747.38
496.67	21503.67
496.88	21722.80
497.08	21403.32
497.29	21888.69
497.49	21864.11
497.70	22312.62
497.91	22355.63
498.11	22468.27
498.32	22257.32
498.52	22326.96
498.73	22484.65
498.93	22554.28
499.14	22724.26
499.34	22519.46
499.55	22863.52
499.76	22775.46
499.96	23088.80
500.17	23203.49
500.37	22863.52
500.58	22869.67
500.78	23131.81
500.99	22986.40
501.19	23570.07
501.40	23408.28
501.60	23344.80
501.81	23627.42
502.02	23584.41
502.22	23594.65
502.43	23623.32
502.63	23832.21
502.84	23854.74
503.04	23979.67
503.25	24229.52
503.45	24383.12
503.66	24030.87
503.86	24346.25
504.07	24694.41
504.27	24342.16
504.48	24610.44
504.68	24223.37
504.89	24911.49
505.09	24778.37
505.30	24848.00
505.50	24700.55
505.71	24747.65
505.91	25026.18
506.12	24909.44
506.32	24884.87
506.53	24907.40
506.73	25077.38
506.94	25577.08
507.14	25499.26
507.35	25278.08
507.55	25560.70
507.76	25411.20
507.96	25368.19
508.17	25876.09
508.37	25681.53
508.58	25597.56
508.78	25763.45
508.99	26183.28
509.19	25874.04
509.40	26097.27
509.60	25564.79
509.81	26394.22
510.01	26076.79
510.22	26408.56
510.42	26224.24
510.63	26291.82
510.83	26316.40
511.04	26355.31
511.24	26527.34
511.44	26465.90
511.65	26588.78
511.85	26658.41
512.06	26832.49
512.26	26969.70
512.47	27008.61
512.67	26957.41
512.88	26881.64
513.08	26906.21
513.29	26981.99
513.49	27045.48
513.69	27182.69
513.90	27317.86
514.10	27209.31
514.31	27698.78
514.51	27154.02
514.72	27520.60
514.92	27446.88
515.13	27330.14
515.33	27459.16
515.53	28108.37
515.74	27663.96
515.94	27797.08
516.15	27825.75
516.35	27891.29
516.56	28020.31
516.76	27569.76
516.96	28081.75
517.17	28368.46
517.37	28239.44
517.58	27969.11
517.78	28178.00
517.99	28440.14
518.19	28171.86
518.39	28769.86
518.60	28743.24
518.80	28427.85
519.01	28825.16
519.21	28735.05
519.41	29077.06
519.62	28956.23
519.82	28952.13
520.03	29048.39
520.23	28808.78
520.43	28716.62
520.64	29433.41
520.84	29595.20
521.05	29371.97
521.25	29662.78
521.45	29550.14
521.66	29697.59
521.86	29607.48
522.07	29668.92
522.27	29730.36
522.47	29304.38
522.68	30033.46
522.88	29552.19
523.08	30170.68
523.29	30070.33
523.49	30185.01
523.70	30346.80
523.90	30621.23
524.10	30354.99
524.31	30514.73
524.51	30373.42
524.71	30942.76
524.92	30774.83
525.12	30877.22
525.33	30656.04
525.53	31397.41
525.73	31292.96
525.94	31204.90
526.14	31161.89
526.34	31460.90
526.55	31075.88
526.75	31473.18
526.95	31682.08
527.16	31372.83
527.36	31647.26
527.56	31901.21
527.77	31890.97
527.97	31739.42
528.17	31911.45
528.38	31692.32
528.58	32026.14
528.78	32386.58
528.99	32185.88
529.19	32347.67
529.39	32314.90
529.60	32325.14
529.80	32597.52
530.00	32280.08
530.21	32720.40
530.41	32943.63
530.61	32704.01
530.82	32824.84
531.02	33123.85
531.22	33007.11
531.43	33287.68
531.63	33324.55
531.83	33633.79
532.04	33836.54
532.24	33435.14
532.44	33969.66
532.64	33758.72
532.85	33625.60
533.05	33816.06
533.25	33961.47
533.46	33650.17
533.66	34434.55
533.86	34047.48
534.07	34573.81
534.27	34291.19
534.47	34637.30
534.67	34846.19
534.88	34510.32
535.08	34432.50
535.28	34778.61
535.49	35280.36
535.69	35007.98
535.89	35284.45
536.09	35161.58
536.30	35352.04
536.50	35601.89
536.70	35296.74
536.91	35698.14
537.11	35845.60
537.31	35706.34
537.51	35821.02
537.72	36150.74
537.92	36124.12
538.12	36359.64
538.32	35913.18
538.53	36591.06
538.73	36181.46
538.93	36677.07
539.13	36312.53
539.34	36421.08
539.54	36271.57
539.74	36877.77
539.94	36720.08
540.15	36298.20
540.35	37041.61
540.55	36922.83
540.75	36937.16
540.96	36804.05
541.16	37213.64
541.36	37115.34
541.56	36892.11
541.77	37254.60
541.97	37098.95
542.17	37502.40
542.37	37819.84
542.58	37565.89
542.78	38106.55
542.98	37735.87
543.18	38026.68
543.38	38217.14
543.59	38137.27
543.79	37807.55
543.99	37934.53
544.19	38114.75
544.40	38106.55
544.60	38583.73
544.80	38147.51
545.00	38272.44
545.20	38675.89
545.41	38075.84
545.61	38444.47
545.81	38860.21
546.01	38667.70
546.21	38778.29
546.42	38759.86
546.62	39026.09
546.82	38733.23
547.02	39048.62
547.22	39343.53
547.43	39073.20
547.63	39087.53
547.83	39091.63
548.03	39259.56
548.23	39273.90
548.44	39296.42
548.64	39493.03
548.84	39302.57
549.04	39566.76
549.24	39454.12
549.45	40015.26
549.65	39832.99
549.85	39499.17
550.05	40189.34
550.25	39693.73
550.45	40326.55
550.66	39785.89
550.86	39536.04
551.06	40596.88
551.26	39953.82
551.46	40240.54
551.66	40324.50
551.87	40066.46
552.07	40568.21
552.27	40236.44
552.47	40203.67
552.67	40793.49
552.87	40375.70
553.07	40338.84
553.28	40496.53
553.48	40342.94
553.68	40541.59
553.88	40842.64
554.08	40719.76
554.28	41031.05
554.48	40414.62
554.69	40863.12
554.89	40850.83
555.09	40861.07
555.29	40768.91
555.49	41123.21
555.69	40883.60
555.89	40990.09
556.10	41350.54
556.30	40918.42
556.50	41500.04
556.70	41233.80
556.90	41323.91
557.10	41467.27
557.30	40793.49
557.50	41805.19
557.70	41403.78
557.91	41645.44
558.11	41811.33
558.31	42079.61
558.51	41571.72
558.71	41792.90
558.91	41868.67
559.11	41913.73
559.31	41944.45
559.51	41627.01
559.72	41801.09
559.92	42251.64
560.12	41717.12
560.32	41932.16
560.52	41954.69
560.72	42255.74
560.92	42493.30
561.12	42562.93
561.32	42427.77
561.52	42050.94
561.72	42421.62
561.93	42321.27
562.13	42632.57
562.33	42450.30
562.53	43062.64
562.73	42222.97
562.93	42708.34
563.13	42886.51
563.33	42419.58
563.53	43015.54
563.73	42470.78
563.93	42890.61
564.13	42825.07
564.33	42950.00
564.53	42689.91
564.74	42780.02
564.94	42730.87
565.14	43158.89
565.34	42851.70
565.54	42646.90
565.74	42694.00
565.94	43451.75
566.14	43316.59
566.34	42763.64
566.54	43283.82
566.74	43058.54
566.94	43300.20
567.14	43468.14
567.34	43132.27
567.54	43242.86
567.74	43470.18
567.94	43490.66
568.14	43713.89
568.34	44121.44
568.54	43648.36
568.74	44002.66
568.94	43857.25
569.14	44328.28
569.34	44062.05
569.54	43937.12
569.75	43550.06
569.95	43877.73
570.15	44213.60
570.35	44367.20
570.55	43836.77
570.75	44340.57
570.95	43930.98
571.15	44232.03
571.35	44422.49
571.55	44272.99
571.75	44551.51
571.95	44342.62
572.15	44332.38
572.35	44647.77
572.55	44574.04
572.75	44377.43
572.95	44981.59
573.15	44533.08
573.35	44946.77
573.55	44645.72
573.75	44555.61
573.95	44922.19
574.15	45028.69
574.35	45159.76
574.55	45065.55
574.75	44928.34
574.95	45258.06
575.15	45227.34
575.34	45034.83
575.54	45241.68
575.74	45434.19
575.94	45428.04
576.14	45288.78
576.34	45864.26
576.54	45843.78
576.74	45958.47
576.94	45512.01
577.14	46216.51
577.34	45827.40
577.54	45616.46
577.74	45866.31
577.94	45716.81
578.14	46202.18
578.34	46517.56
578.54	45380.94
578.74	45538.63
578.94	46466.36
579.14	46134.59
579.34	46206.27
579.54	46107.97
579.74	46775.61
579.94	46087.49
580.13	46843.19
580.33	46505.27
580.53	46734.65
580.73	46814.52
580.93	46689.59
581.13	46808.37
581.33	46873.91
581.53	47025.46
581.73	46933.30
581.93	47314.22
582.13	47418.67
582.33	47365.42
582.53	47164.72
582.73	47334.70
582.92	47654.18
583.12	47619.37
583.32	47365.42
583.52	47406.38
583.72	48022.82
583.92	47580.46
584.12	47912.23
584.32	48358.69
584.52	47631.66
584.72	47791.40
584.92	48137.51
585.11	48078.11
585.31	48092.45
585.51	48364.83
585.71	48176.42
585.91	48719.13
586.11	48170.27
586.31	47930.66
586.51	48522.52
586.71	48301.34
586.91	48618.78
587.10	48829.72
587.30	48452.89
587.50	48364.83
587.70	48821.53
587.90	48801.05
588.10	48975.12
588.30	49095.95
588.50	49198.35
588.69	48780.57
588.89	48880.92
589.09	49257.74
589.29	48866.58
589.49	49050.90
589.69	49181.97
589.89	49675.53
590.08	49212.69
590.28	49300.75
590.48	49407.25
590.68	49763.59
590.88	49425.68
591.08	49571.08
591.28	49141.01
591.47	49698.06
591.67	49327.38
591.87	49816.84
592.07	49870.09
592.27	50099.46
592.47	50056.45
592.67	49812.74
592.86	49626.38
593.06	49677.58
593.26	49943.81
593.46	49816.84
593.66	49958.15
593.86	50238.72
594.05	50484.48
594.25	50662.65
594.45	49624.33
594.65	50341.12
594.85	49890.57
595.05	50945.27
595.24	50461.95
595.44	50607.36
595.64	50498.81
595.84	50584.83
596.04	50650.36
596.23	50568.44
596.43	50982.13
596.63	50674.94
596.83	50801.91
597.03	51332.34
597.22	51225.84
597.42	50902.26
597.62	51580.14
597.82	51188.98
598.02	50822.39
598.21	51467.50
598.41	51447.02
598.61	51182.84
598.81	51291.38
599.01	51375.34
599.20	51250.42
599.40	51295.47
599.60	51764.46
599.80	51729.64
600.00	51817.71
600.19	52065.51
600.39	51913.96
600.59	52180.20
600.79	52053.22
600.98	51518.70
601.18	51922.15
601.38	52253.92
601.58	52219.11
601.78	52208.87
601.97	51907.82
602.17	52690.14
602.37	52319.46
602.57	52229.35
602.76	52704.48
602.96	52059.37
603.16	52659.42
603.36	52606.17
603.55	52778.20
603.75	52810.97
603.95	52761.82
604.15	52923.61
604.34	52763.87
604.54	52907.22
604.74	52765.91
604.94	52835.55
605.13	53044.44
605.33	52870.36
605.53	52722.91
605.73	53431.50
605.92	52675.80
606.12	53292.24
606.32	53740.75
606.52	53415.12
606.71	53275.86
606.91	53673.16
607.11	53282.00
607.30	53513.42
607.50	53447.89
607.70	53644.49
607.90	53824.71
608.09	53474.51
608.29	53728.46
608.49	53730.51
608.68	53994.70
608.88	53503.18
609.08	53654.73
609.28	53904.59
609.47	53671.12
609.67	54459.58
609.87	53839.05
610.06	54031.56
610.26	53900.49
610.46	53914.83
610.66	53927.11
610.85	54242.50
611.05	54045.90
611.25	54463.68
611.44	53931.21
611.64	54604.99
611.84	53781.71
612.03	53974.22
612.23	54383.81
612.43	54379.71
612.62	54387.91
612.82	54383.81
613.02	54252.74
613.21	54080.71
613.41	54316.23
613.61	54486.21
613.80	54256.84
614.00	54240.45
614.20	54168.77
614.39	54492.35
614.59	54482.11
614.79	54404.29
614.98	54412.48
615.18	54830.27
615.38	54486.21
615.57	54162.63
615.77	54791.36
615.97	54691.01
616.16	54555.84
616.36	54295.75
616.56	54942.91
616.75	54555.84
616.95	54127.81
617.15	54414.53
617.34	53978.31
617.54	54529.22
617.74	54766.78
617.93	54793.40
618.13	54508.74
618.32	54553.79
618.52	54537.41
618.72	54613.18
618.91	54727.87
619.11	54226.12
619.31	54596.80
619.50	54484.16
619.70	54676.67
619.90	54719.68
620.09	54424.77
620.29	54203.59
620.48	54308.04
620.68	54748.35
620.88	53853.39
621.07	54367.43
621.27	54709.44
621.46	54205.64
621.66	54326.47
621.86	54359.23
622.05	53769.42
622.25	54392.00
622.44	54277.32
622.64	53855.43
622.84	54795.45
623.03	54142.15
623.23	54314.18
623.42	54537.41
623.62	54090.95
623.82	54719.68
624.01	54557.89
624.21	54785.21
624.40	54222.02
624.60	54291.65
624.80	54166.73
624.99	54629.57
625.19	53578.96
625.38	54539.46
625.58	54072.52
625.77	54428.87
625.97	54387.91
626.17	54371.52
626.36	54148.29
626.56	54455.49
626.75	53687.50
626.95	54498.50
627.14	54078.66
627.34	54303.94
627.54	54379.71
627.73	54310.08
627.93	53949.64
628.12	53785.80
628.32	53947.59
628.51	54265.03
628.71	54129.86
628.90	54537.41
629.10	54183.11
629.30	54072.52
629.49	54326.47
629.69	54039.75
629.88	54037.70
630.08	54467.78
630.27	54404.29
630.47	54324.42
630.66	54160.58
630.86	54303.94
631.05	53789.90
631.25	54822.08
631.44	54203.59
631.64	54471.87
631.84	54514.88
632.03	54363.33
632.23	54463.68
632.42	54727.87
632.62	54650.05
632.81	53884.11
633.01	54310.08
633.20	54703.29
633.40	54742.20
633.59	54238.40
633.79	54322.37
633.98	54213.83
634.18	54412.48
634.37	54447.30
634.57	54320.32
634.76	54287.56
634.96	54564.03
635.15	54654.14
635.35	54262.98
635.54	54482.11
635.74	54471.87
635.93	54260.93
636.13	54619.33
636.32	54891.71
636.52	54174.92
636.71	54992.06
636.91	54590.66
637.10	54879.42
637.30	54461.63
637.49	54654.14
637.69	54377.67
637.88	54494.40
638.08	54305.99
638.27	54695.10
638.46	54899.90
638.66	53814.47
638.85	54648.00
639.05	54768.83
639.24	54797.50
639.44	54273.22
639.63	54435.01
639.83	54826.17
640.02	54621.37
640.22	54451.39
640.41	54658.24
640.61	54410.43
640.80	54998.20
640.99	54887.61
641.19	55069.88
641.38	54703.29
641.58	54678.72
641.77	54979.77
641.97	54408.39
642.16	54777.02
642.36	55305.40
642.55	55006.39
642.74	54623.42
642.94	54981.82
643.13	54854.84
643.33	55096.50
643.52	55194.81
643.72	55061.69
643.91	54811.84
644.10	54942.91
644.30	54789.31
644.49	54760.64
644.69	54899.90
644.88	54883.51
645.08	54770.88
645.27	54564.03
645.46	54817.98
645.66	54949.05
645.85	55088.31
646.05	55112.89
646.24	55471.28
646.43	55278.77
646.63	55336.12
646.82	55268.53
647.02	55209.14
647.21	55108.79
647.40	55088.31
647.60	55194.81
647.79	55409.84
647.99	55065.78
648.18	55415.99
648.37	55502.00
648.57	55348.40
648.76	55794.86
648.96	54793.40
649.15	55440.56
649.34	55348.40
649.54	55284.92
649.73	55235.77
649.92	55567.54
650.12	55395.51
650.31	55391.41
650.51	55520.43
650.70	55751.85
650.89	55289.01
651.09	56124.58
651.28	55471.28
651.47	55669.93
651.67	55522.48
651.86	56241.32
652.06	55172.28
652.25	55686.32
652.44	55798.96
652.64	54975.67
652.83	55475.38
653.02	54850.75
653.22	55549.10
653.41	55385.27
653.60	55538.86
653.80	55516.34
653.99	55592.11
654.18	55598.26
654.38	55618.74
654.57	55465.14
654.76	55170.23
654.96	55467.19
655.15	55401.65
655.34	55344.31
655.54	55428.27
655.73	55592.11
655.92	55872.68
656.12	55192.76
656.31	55655.60
656.50	55985.32
656.70	55491.76
656.89	55229.62
657.08	55811.24
657.28	55389.36
657.47	55731.37
657.66	55852.20
657.86	55626.93
658.05	55678.13
658.24	56038.57
658.43	55329.97
658.63	55925.93
658.82	55784.62
659.01	55856.30
659.21	55813.29
659.40	55829.68
659.59	55436.47
659.79	55792.81
659.98	55628.98
660.17	56157.35
660.36	55534.77
660.56	55956.65
660.75	55901.36
660.94	55987.37
661.14	55604.40
661.33	55794.86
661.52	55426.23
661.71	55944.36
661.91	55743.66
662.10	55612.59
662.29	56218.79
662.49	56183.97
662.68	56116.39
662.87	55934.12
663.06	56057.00
663.26	55862.44
663.45	56450.21
663.64	55803.05
663.83	55893.16
664.03	56046.76
664.22	55258.29
664.41	55917.74
664.60	55688.37
664.80	56026.28
664.99	56157.35
665.18	55999.66
665.37	55751.85
665.57	55958.70
665.76	55547.06
665.95	56155.30
666.14	56038.57
666.34	55882.92
666.53	55770.28
666.72	55590.06
666.91	55784.62
667.11	55678.13
667.30	56482.98
667.49	56106.15
667.68	55725.23
667.87	56013.99
668.07	56173.73
668.26	55899.31
668.45	56257.70
668.64	55573.68
668.84	56253.61
669.03	55813.29
669.22	56108.20
669.41	55827.63
669.60	56073.38
669.80	56038.57
669.99	56091.82
670.18	55817.39
670.37	56026.28
670.57	56274.09
670.76	55878.83
670.95	56376.48
671.14	55872.68
671.33	55770.28
671.53	56026.28
671.72	56198.31
671.91	56319.14
672.10	55841.96
672.29	56065.19
672.48	56054.95
672.68	56323.24
672.87	55686.32
673.06	55407.79
673.25	55626.93
673.44	55835.82
673.64	55682.22
673.83	55637.17
674.02	55780.52
674.21	55579.82
674.40	55909.55
674.59	56079.53
674.79	55925.93
674.98	55669.93
675.17	55956.65
675.36	55223.48
675.55	56122.54
675.74	55356.60
675.94	55518.38
676.13	55860.40
676.32	55977.13
676.51	56181.93
676.70	55932.07
676.89	55624.88
677.08	55968.94
677.28	55538.86
677.47	56153.26
677.66	56026.28
677.85	56054.95
678.04	56366.24
678.23	55766.19
678.42	56165.54
678.62	55946.41
678.81	55942.31
679.00	55440.56
679.19	56284.33
679.38	55745.71
679.57	55868.59
679.76	55819.44
679.96	56071.34
680.15	55997.61
680.34	55841.96
680.53	56061.10
680.72	55968.94
680.91	55927.98
681.10	55653.55
681.29	55948.46
681.48	55555.25
681.68	55743.66
681.87	55696.56
682.06	56106.15
682.25	55129.27
682.44	55891.12
682.63	55981.23
682.82	55620.78
683.01	55145.65
683.20	55395.51
683.39	55663.79
683.59	55082.17
683.78	55346.36
683.97	54971.58
684.16	55686.32
684.35	55264.44
684.54	54899.90
684.73	55379.12
684.92	55284.92
685.11	55356.60
685.30	55237.81
685.49	55659.69
685.69	55743.66
685.88	55372.98
686.07	54973.63
686.26	55440.56
686.45	55305.40
686.64	55059.64
686.83	55327.92
687.02	55569.58
687.21	55375.03
687.40	55540.91
687.59	55375.03
687.78	55647.41
687.97	55551.15
688.16	55196.85
688.35	55045.30
688.54	55057.59
688.74	55106.74
688.93	54965.43
689.12	54781.12
689.31	54863.03
689.50	55235.77
689.69	55090.36
689.88	54979.77
690.07	55266.48
690.26	54987.96
690.45	55442.61
690.64	54865.08
690.83	55047.35
691.02	54566.08
691.21	55155.89
691.40	54670.53
691.59	54842.56
691.78	54740.16
691.97	55512.24
692.16	54768.83
692.35	54899.90
692.54	54777.02
692.73	54828.22
692.92	54803.64
693.11	54809.79
693.30	54766.78
693.49	54596.80
693.68	54326.47
693.87	54971.58
694.06	53873.87
694.25	54799.55
694.44	54033.61
694.63	54371.52
694.82	54951.10
695.01	54727.87
695.20	54686.91
695.39	54392.00
695.58	54383.81
695.77	54308.04
695.96	54103.24
696.15	54871.23
696.34	54187.21
696.53	54287.56
696.72	54324.42
696.91	54150.34
697.10	54187.21
697.29	54273.22
697.48	54707.39
697.67	54113.48
697.86	54002.89
698.05	54123.72
698.24	54996.15
698.43	54097.09
698.62	53984.46
698.81	53699.79
699.00	54258.88
699.19	53998.79
699.38	53943.50
699.57	53562.57
699.76	54541.50
699.95	53734.60
700.14	53845.19
700.32	54093.00
700.51	53843.15
700.70	54064.33
700.89	54117.57
701.08	54181.06
701.27	53867.72
701.46	53945.54
701.65	52772.06
701.84	53851.34
702.03	53787.85
702.22	53560.53
702.41	53785.80
702.60	53630.16
702.79	53470.42
702.98	53277.91
703.17	53437.65
703.35	53548.24
703.54	53216.47
703.73	53490.90
703.92	53441.74
704.11	53134.55
704.30	53474.51
704.49	53200.08
704.68	53306.58
704.87	53193.94
705.06	52866.27
705.25	52804.83
705.43	52970.71
705.62	53236.95
705.81	53499.09
706.00	53167.32
706.19	52643.04
706.38	52862.17
706.57	53109.97
706.76	52647.13
706.95	52870.36
707.14	52937.94
707.32	52987.10
707.51	53132.50
707.70	52872.41
707.89	52786.39
708.08	52778.20
708.27	52923.61
708.46	52761.82
708.65	52473.06
708.84	53122.26
709.02	52866.27
709.21	52493.54
709.40	52509.92
709.59	52815.07
709.78	52624.60
709.97	52370.66
710.16	52532.45
710.34	52442.34
710.53	52235.49
710.72	51954.92
710.91	52825.31
711.10	52597.98
711.29	52733.15
711.48	52632.80
711.66	52153.57
711.85	52042.98
712.04	51916.01
712.23	51959.02
712.42	52020.45
712.61	52503.77
712.80	52227.30
712.98	52088.04
713.17	51959.02
713.36	51741.93
713.55	52002.02
713.74	52165.86
713.93	51901.67
714.11	52106.47
714.30	51520.75
714.49	51705.07
714.68	51592.43
714.87	51924.20
715.06	51791.08
715.24	51614.96
715.43	51766.51
715.62	51440.88
715.81	51318.00
716.00	52129.00
716.18	50928.89
716.37	51416.30
716.56	50763.00
716.75	51617.00
716.94	51719.40
717.12	51381.49
717.31	51698.92
717.50	51172.60
717.69	50967.80
717.88	51389.68
718.06	51332.34
718.25	51377.39
718.44	50955.51
718.63	51059.96
718.82	50588.92
719.00	50689.27
719.19	50912.50
719.38	51051.76
719.57	50439.42
719.76	50478.33
719.94	50572.54
720.13	50543.87
720.32	50498.81
720.51	50709.75
720.69	50103.56
720.88	50474.24
721.07	50167.04
721.26	49734.92
721.44	49909.00
721.63	50017.54
721.82	49765.64
722.01	49607.95
722.20	50201.86
722.38	50197.76
722.57	49530.12
722.76	49894.66
722.95	50042.12
723.13	49638.67
723.32	49708.30
723.51	49329.42
723.70	49528.08
723.88	49435.92
724.07	49114.39
724.26	49091.86
724.44	48846.10
724.63	49349.90
724.82	49304.85
725.01	49181.97
725.19	49292.56
725.38	49011.99
725.57	48899.35
725.76	49313.04
725.94	48989.46
726.13	49126.67
726.32	48782.62
726.51	48649.50
726.69	49362.19
726.88	49087.76
727.07	48983.32
727.25	48907.54
727.44	49394.96
727.63	48647.45
727.82	48604.44
728.00	48848.15
728.19	48651.55
728.38	49118.48
728.56	48481.56
728.75	48815.38
728.94	48510.24
729.12	48706.84
729.31	48735.51
729.50	48575.77
729.69	48848.15
729.87	48919.83
730.06	48571.67
730.25	48440.60
730.43	48776.47
730.62	48479.52
730.81	49313.04
730.99	48688.41
731.18	48373.02
731.37	48592.15
731.55	48731.42
731.74	48614.68
731.93	48665.88
732.11	48338.21
732.30	48493.85
732.49	48389.41
732.67	48354.59
732.86	48137.51
733.05	48213.28
733.23	48002.34
733.42	48469.28
733.61	48510.24
733.79	48360.73
733.98	48446.75
734.17	48174.37
734.35	48166.18
734.54	48669.98
734.73	48776.47
734.91	48475.42
735.10	48282.91
735.29	48495.90
735.47	47576.36
735.66	48280.86
735.84	48186.66
736.03	48325.92
736.22	48407.84
736.40	47877.41
736.59	48317.73
736.78	47957.28
736.96	47949.09
737.15	47856.93
737.33	47605.03
737.52	47865.13
737.71	47752.49
737.89	47781.16
738.08	47740.20
738.27	48100.64
738.45	48129.31
738.64	47648.04
738.82	48237.86
739.01	47461.68
739.20	47514.92
739.38	47490.35
739.57	47754.54
739.75	47742.25
739.94	47713.58
740.13	47396.14
740.31	47320.37
740.50	47324.46
740.68	47607.08
740.87	47068.47
741.06	47504.68
741.24	47705.38
741.43	47525.16
741.61	47222.06
741.80	47072.56
741.99	47271.21
742.17	46597.43
742.36	47189.30
742.54	47306.03
742.73	46855.48
742.91	47443.24
743.10	47017.27
743.29	47117.62
743.47	47211.82
743.66	46744.89
743.84	47217.97
744.03	46990.64
744.21	46605.62
744.40	47514.92
744.59	46587.19
744.77	46296.38
744.96	46865.72
745.14	46724.41
745.33	47117.62
745.51	46777.65
745.70	46556.47
745.88	46392.64
746.07	46687.54
746.26	46572.86
746.44	46589.24
746.63	46273.85
746.81	46234.94
747.00	46382.40
747.18	46912.82
747.37	46335.29
747.55	46257.47
747.74	46683.45
747.92	46110.02
748.11	46249.28
748.29	45849.92
748.48	46372.16
748.66	45917.51
748.85	46292.29
749.03	46302.53
749.22	46146.88
749.41	45929.80
749.59	46128.45
749.78	45884.74
749.96	45542.73
750.15	46011.71
750.33	45970.75
750.52	45622.60
750.70	45608.26
750.89	45184.33
751.07	45585.74
751.26	45540.68
751.44	45393.23
751.63	45305.16
751.81	45520.20
752.00	45450.57
752.18	45534.54
752.37	45593.93
752.55	45286.73
752.74	45344.08
752.92	45374.80
753.10	44985.68
753.29	45055.31
753.47	44926.29
753.66	44793.17
753.84	45561.16
754.03	45110.61
754.21	44721.49
754.40	45059.41
754.58	45157.71
754.77	45008.21
754.95	44725.59
755.14	45040.98
755.32	44676.44
755.51	44410.20
755.69	44496.22
755.88	44535.13
756.06	44766.55
756.24	44651.86
756.43	44119.39
756.61	44475.74
756.80	44131.68
756.98	44033.38
757.17	44555.61
757.35	44125.53
757.54	43980.13
757.72	44080.48
757.90	44217.69
758.09	44041.57
758.27	44363.10
758.46	44250.46
758.64	43445.61
758.83	44004.70
759.01	43713.89
759.19	44115.29
759.38	43711.84
759.56	44238.17
759.75	43855.20
759.93	44074.34
760.12	43750.76
760.30	43603.30
760.48	43890.02
760.67	43562.34
760.85	43611.49
761.04	43619.69
761.22	43517.29
761.40	43556.20
761.59	43390.31
761.77	43103.60
761.96	43117.93
762.14	43251.05
762.32	42890.61
762.51	43206.00
762.69	43416.94
762.88	43226.48
763.06	43316.59
763.24	43253.10
763.43	42868.08
763.61	42575.22
763.80	42605.94
763.98	42833.27
764.16	42849.65
764.35	42757.49
764.53	42206.59
764.72	42665.33
764.90	42569.08
765.08	42415.48
765.27	42648.95
765.45	42591.61
765.63	41946.50
765.82	42718.58
766.00	42472.82
766.18	42005.89
766.37	42331.51
766.55	42173.82
766.74	42134.91
766.92	42243.45
767.10	42114.43
767.29	42130.81
767.47	42169.72
767.65	42149.24
767.84	41729.41
768.02	41616.77
768.20	41428.36
768.39	41622.92
768.57	41786.75
768.75	41837.95
768.94	41842.05
769.12	41848.19
769.30	41643.40
769.49	41817.47
769.67	41534.85
769.85	40951.18
770.04	41551.24
770.22	41266.57
770.40	40826.26
770.59	40752.53
770.77	41225.61
770.95	41397.64
771.14	40709.52
771.32	40691.09
771.50	40867.22
771.69	40822.16
771.87	41231.75
772.05	40674.71
772.24	40404.38
772.42	40916.37
772.60	40281.50
772.78	40498.58
772.97	40474.01
773.15	40717.71
773.33	40664.47
773.52	40207.77
773.70	40203.67
773.88	40656.28
774.07	40236.44
774.25	40265.11
774.43	40525.21
774.61	40826.26
774.80	40633.75
774.98	40267.16
775.16	40740.24
775.34	40633.75
775.53	40127.90
775.71	40947.09
775.89	40758.67
776.08	40658.32
776.26	40592.79
776.44	40822.16
776.62	40590.74
776.81	40566.16
776.99	40627.60
777.17	40441.24
777.35	40531.35
777.54	40738.19
777.72	40627.60
777.90	40512.92
778.08	40865.17
778.27	40525.21
778.45	40867.22
778.63	41315.72
778.81	40596.88
779.00	40975.76
779.18	41006.48
779.36	41041.29
779.54	40902.03
779.73	40674.71
779.91	41338.25
780.09	41209.23
780.27	41207.18
780.46	41260.43
780.64	41225.61
780.82	41307.53
781.00	40916.37
781.19	41045.39
781.37	41172.36
781.55	41184.65
781.73	41678.21
781.91	41012.62
782.10	41244.04
782.28	41063.82
782.46	41428.36
782.64	41440.65
782.82	41155.98
783.01	41606.53
783.19	41262.47
783.37	41485.70
783.55	41354.63
783.74	41493.89
783.92	41059.73
784.10	41842.05
784.28	41371.02
784.46	41098.64
784.64	41391.50
784.83	41346.44
785.01	41328.01
785.19	41102.73
785.37	41467.27
785.55	41313.67
785.74	41006.48
785.92	40844.69
786.10	41493.89
786.28	41125.26
786.46	40668.56
786.64	40916.37
786.83	41076.11
787.01	41065.87
787.19	41033.10
787.37	40983.95
787.55	40703.38
787.74	40349.08
787.92	40582.55
788.10	40600.98
788.28	40314.26
788.46	40803.73
788.64	40154.52
788.82	40730.00
789.01	40629.65
789.19	40650.13
789.37	40236.44
789.55	40650.13
789.73	40154.52
789.91	39859.62
790.09	39871.90
790.28	40064.41
790.46	40050.08
790.64	40021.41
790.82	40277.40
791.00	39966.11
791.18	39806.37
791.36	39798.18
791.55	39699.87
791.73	39517.60
791.91	39257.51
792.09	39169.45
792.27	39255.46
792.45	38950.32
792.63	39036.33
792.81	39163.31
793.00	39321.00
793.18	38815.15
793.36	38827.44
793.54	38772.14
793.72	38716.85
793.90	38831.54
794.08	38297.02
794.26	38391.22
794.44	38399.41
794.62	38380.98
794.81	38426.04
794.99	38303.16
795.17	38284.73
795.35	38116.79
795.53	38325.69
795.71	38639.03
795.89	37899.71
796.07	37279.18
796.25	37551.56
796.43	37668.29
796.61	37404.10
796.80	37283.27
796.98	37293.51
797.16	36990.41
797.34	37313.99
797.52	36906.44
797.70	37496.26
797.88	37156.30
798.06	36730.32
798.24	36838.86
798.42	36709.84
798.60	36586.96
798.78	36378.07
798.96	36337.11
799.14	36421.08
799.32	36636.11
799.51	36058.59
799.69	36611.54
799.87	36287.96
800.05	36031.96
800.23	36023.77
800.41	35616.22
800.59	35810.78
800.77	35835.36
800.95	35509.73
801.13	35683.81
801.31	35685.86
801.49	35755.49
801.67	35239.40
801.85	35524.07
802.03	35192.30
802.21	35112.42
802.39	35077.61
802.57	34821.61
802.75	35005.93
802.93	34950.63
803.11	34909.68
803.29	34960.87
803.47	34891.24
803.65	35116.52
803.83	34799.08
804.01	34469.36
804.19	34209.27
804.37	34317.81
804.55	34115.06
804.73	34096.63
804.91	34125.30
805.09	33945.08
805.27	34225.65
805.45	34063.86
805.63	34047.48
805.81	34029.05
805.99	33916.41
806.17	33875.45
806.35	33859.07
806.53	33236.48
806.71	33674.75
806.89	33639.93
807.07	33076.74
807.25	33211.91
807.43	32740.88
807.61	33377.79
807.79	33381.89
807.97	32873.99
808.15	33011.21
808.33	32947.72
808.51	32826.89
808.69	32822.80
808.87	32577.04
809.05	32241.17
809.23	32437.78
809.41	32007.70
809.59	32577.04
809.77	32740.88
809.95	32134.68
810.13	32390.67
810.31	32046.62
810.49	32112.15
810.67	31915.54
810.84	31940.12
811.02	32083.48
811.20	31874.59
811.38	31800.86
811.56	31387.17
811.74	31657.50
811.92	31409.70
812.10	31577.63
812.28	31817.24
812.46	31591.97
812.64	31612.45
812.82	31098.41
813.00	31145.51
813.18	31329.83
813.36	31073.83
813.53	30871.08
813.71	30901.80
813.89	30537.26
814.07	30893.61
814.25	31290.91
814.43	30408.24
814.61	30764.59
814.79	30776.87
814.97	30619.18
815.15	30570.03
815.33	30496.30
815.50	30287.41
815.68	30453.30
815.86	30529.07
816.04	29943.35
816.22	30395.95
816.40	30389.81
816.58	29791.80
816.76	30078.52
816.94	30010.93
817.11	29926.97
817.29	29875.77
817.47	29556.28
817.65	29783.61
817.83	29875.77
818.01	29703.74
818.19	29541.95
818.37	29648.44
818.54	29277.76
818.72	29136.45
818.90	29959.73
819.08	29480.51
819.26	29455.93
819.44	29128.26
819.62	29075.01
819.80	29447.74
819.97	29150.79
820.15	28933.70
820.33	29046.34
820.51	29154.88
820.69	28747.34
820.87	29267.52
821.05	29271.62
821.22	29111.88
821.40	29167.17
821.58	28876.36
821.76	29005.38
821.94	28726.86
822.12	28792.39
822.29	28421.71
822.47	28352.08
822.65	29025.86
822.83	28681.80
823.01	28477.01
823.19	28302.93
823.36	28276.30
823.54	28636.75
823.72	27960.92
823.90	28188.24
824.08	28024.40
824.25	28200.53
824.43	28339.79
824.61	27995.73
824.79	28202.58
824.97	28147.28
825.15	28243.54
825.32	27852.38
825.50	27666.01
825.68	27442.78
825.86	28014.16
826.04	27842.14
826.21	27680.35
826.39	27688.54
826.57	27764.31
826.75	27450.97
826.93	27659.87
827.10	27481.69
827.28	27713.11
827.46	27688.54
827.64	27344.48
827.81	27442.78
827.99	27430.49
828.17	27293.28
828.35	26785.38
828.53	27197.02
828.70	27262.56
828.88	27311.71
829.06	26941.03
829.24	27221.60
829.41	27205.22
829.59	27080.29
829.77	27111.01
829.95	27025.00
830.12	26611.31
830.30	26797.67
830.48	26984.04
830.66	26662.51
830.84	26893.93
831.01	26359.41
831.19	26764.90
831.37	26584.68
831.55	26500.72
831.72	26658.41
831.90	26676.84
832.08	26498.67
832.25	26457.71
832.43	26447.47
832.61	26371.69
832.79	26082.93
832.96	26252.91
833.14	26263.15
833.32	26623.59
833.50	26578.54
833.67	26199.66
833.85	26027.63
834.03	25888.37
834.20	26283.63
834.38	26197.62
834.56	26220.14
834.74	25947.76
834.91	26084.98
835.09	25857.65
835.27	25572.99
835.44	25753.21
835.62	25456.25
835.80	25747.06
835.98	25831.03
836.15	26052.21
836.33	25769.59
836.51	25466.49
836.68	25306.75
836.86	25734.78
837.04	25386.62
837.21	25337.47
837.39	25288.32
837.57	25693.82
837.75	25656.95
837.92	25261.69
838.10	25173.63
838.28	24698.50
838.45	25298.56
838.63	25325.18
838.81	25370.24
838.98	25013.89
839.16	24966.79
839.34	24718.98
839.51	25009.79
839.69	24592.01
839.87	24974.98
840.04	25042.56
840.22	24956.55
840.40	24997.51
840.57	24723.08
840.75	24895.11
840.93	24530.57
841.10	24759.94
841.28	25441.92
841.46	24798.85
841.63	25067.14
841.81	24663.69
841.98	24559.24
842.16	24587.91
842.34	24696.46
842.51	24479.37
842.69	24792.71
842.87	24432.27
843.04	24587.91
843.22	24196.75
843.40	24286.86
843.57	24336.01
843.75	24276.62
843.92	24549.00
844.10	24350.35
844.28	24530.57
844.45	24323.72
844.63	24327.82
844.81	23875.22
844.98	24487.56
845.16	24200.85
845.33	24004.24
845.51	24000.15
845.69	24075.92
845.86	24215.18
846.04	23930.51
846.21	23701.14
846.39	23723.67
846.57	23901.84
846.74	23856.79
846.92	23621.27
847.09	23588.50
847.27	23201.44
847.45	23848.60
847.62	23617.18
847.80	23920.28
847.97	23727.77
848.15	23658.14
848.32	23619.22
848.50	23561.88
848.68	23549.59
848.85	23658.14
849.03	23234.21
849.20	23381.66
849.38	23414.43
849.56	23336.60
849.73	23121.57
849.91	23389.85
850.08	23342.75
850.26	22927.01
850.43	22984.35
850.61	23228.06
850.78	22910.63
850.96	22943.39
851.14	22881.95
851.31	22804.13
851.49	23119.52
851.66	23086.75
851.84	23023.26
852.01	23178.91
852.19	23107.23
852.36	23033.50
852.54	22869.67
852.71	22720.17
852.89	22685.35
853.07	22941.35
853.24	22836.90
853.42	22724.26
853.59	22838.95
853.77	22908.58
853.94	22711.97
854.12	22525.61
854.29	22591.14
854.47	22529.70
854.64	22574.76
854.82	22470.31
854.99	22345.39
855.17	22382.25
855.34	22376.11
855.52	22455.98
855.69	22546.09
855.87	22310.57
856.04	22173.36
856.22	22552.23
856.39	22136.49
856.57	22214.32
856.74	22265.52
856.92	22365.87
857.09	22083.25
857.27	21993.14
857.44	22390.44
857.62	22056.62
857.79	22204.08
857.97	22253.23
858.14	22091.44
858.32	21743.28
858.49	21761.72
858.67	21903.03
858.84	21804.72
859.02	21825.20
859.19	21833.39
859.37	21671.61
859.54	21434.04
859.72	21626.55
859.89	21679.80
860.06	21913.27
860.24	21728.95
860.41	21739.19
860.59	21405.37
860.76	21675.70
860.94	21477.05
861.11	21593.78
861.29	21751.48
861.46	21417.66
861.64	21348.03
861.81	21132.99
861.98	21298.88
862.16	20942.53
862.33	21122.75
862.51	21016.26
862.68	21466.81
862.86	20981.44
863.03	20936.38
863.21	21196.48
863.38	21153.47
863.55	20860.61
863.73	21057.21
863.90	21014.21
864.08	21108.41
864.25	20985.54
864.43	21089.98
864.60	20815.55
864.77	20809.41
864.95	20952.77
865.12	20647.62
865.30	20668.10
865.47	20833.99
865.64	20487.88
865.82	20670.15
865.99	20803.27
866.17	20676.29
866.34	20500.17
866.51	20463.30
866.69	20670.15
866.86	20565.70
867.04	20362.95
867.21	20399.82
867.38	20448.97
867.56	20295.37
867.73	20305.61
867.91	20309.71
868.08	20317.90
868.25	20225.74
868.43	20121.29
868.60	20264.65
868.78	19850.96
868.95	20336.33
869.12	20217.55
869.30	20076.24
869.47	20172.49
869.64	19818.19
869.82	19832.53
869.99	19715.80
870.16	19957.46
870.34	19611.35
870.51	19982.03
870.69	19717.84
870.86	19812.05
871.03	19850.96
871.21	19627.73
871.38	19951.31
871.55	19640.02
871.73	19742.42
871.90	19711.70
872.07	19384.02
872.25	19504.85
872.42	19302.11
872.59	19416.79
872.77	19547.86
872.94	19345.11
873.11	19263.19
873.29	19095.26
873.46	19271.39
873.63	19293.91
873.81	19117.79
873.98	19009.25
874.15	19052.25
874.33	18876.13
874.50	18763.49
874.67	18841.31
874.85	18822.88
875.02	18869.98
875.19	18820.83
875.37	18788.07
875.54	18423.53
875.71	18921.18
875.88	18480.87
876.06	18591.46
876.23	18808.54
876.40	18583.27
876.58	18351.85
876.75	18663.14
876.92	18288.36
877.10	18665.19
877.27	18589.41
877.44	18427.62
877.61	18525.93
877.79	18220.78
877.96	18251.50
878.13	18190.06
878.31	18095.85
878.48	18194.15
878.65	18067.18
878.82	17970.93
879.00	18231.02
879.17	17901.29
879.34	17886.96
879.51	17723.12
879.69	17544.95
879.86	17913.58
880.03	17792.75
880.21	17788.66
880.38	17663.73
880.55	17942.25
880.72	17620.72
880.90	17731.31
881.07	17465.08
881.24	17757.94
881.41	17473.27
881.59	17454.84
881.76	17583.86
881.93	17602.29
882.10	17061.63
882.28	17467.13
882.45	17331.96
882.62	17307.38
882.79	17608.44
882.96	17108.73
883.14	17553.14
883.31	17616.63
883.48	17303.29
883.65	17551.09
883.83	17450.74
884.00	17071.87
884.17	17049.34
884.34	17229.56
884.51	17151.74
884.69	17215.23
884.86	17092.35
885.03	17233.66
885.20	16965.37
885.38	16998.14
885.55	16709.38
885.72	16867.07
885.89	16883.45
886.06	16838.40
886.24	16887.55
886.41	16699.14
886.58	16944.89
886.75	16936.70
886.92	16846.59
887.10	16920.32
887.27	16596.74
887.44	17028.86
887.61	17073.92
887.78	16893.69
887.95	16789.25
888.13	16623.36
888.30	16729.86
888.47	16652.03
888.64	16717.57
888.81	16623.36
888.99	16600.83
889.16	16168.71
889.33	16170.76
889.50	16398.09
889.67	16357.13
889.84	16234.25
890.01	16064.27
890.19	15929.10
890.36	16355.08
890.53	16299.78
890.70	16402.18
890.87	16068.36
891.04	16248.58
891.22	16277.26
891.39	16166.67
891.56	16017.16
891.73	16140.04
891.90	16209.67
892.07	15742.74
892.24	15882.00
892.42	15886.09
892.59	16107.27
892.76	15988.49
892.93	16051.98
893.10	16074.51
893.27	15808.27
893.44	15599.38
893.61	15798.03
893.79	16074.51
893.96	15703.82
894.13	15861.52
894.30	15898.38
894.47	15773.46
894.64	15824.65
894.81	15746.83
894.98	15763.22
895.15	15814.41
895.33	15759.12
895.50	15388.44
895.67	15626.00
895.84	15476.50
896.01	15529.75
896.18	15761.17
896.35	15673.10
896.52	15458.07
896.69	15509.27
896.86	15732.50
897.04	15789.84
897.21	15609.62
897.38	15656.72
897.55	15261.46
897.72	15482.64
897.89	15388.44
898.06	15519.51
898.23	15580.95
898.40	15429.40
898.57	15398.68
898.74	15529.75
898.91	15759.12
899.08	15453.97
899.26	15417.11
899.43	15695.63
899.60	15605.52
899.77	15361.81
899.94	15501.08
900.11	15337.24
900.28	15404.82
900.45	15312.66
900.62	15515.41
900.79	15621.91
900.96	15496.98
901.13	15406.87
901.30	15353.62
901.47	15304.47
901.64	15445.78
901.81	15523.60
901.98	15410.96
902.15	15552.27
902.32	15134.49
902.49	15470.36
902.66	15664.91
902.83	15675.15
903.01	15425.30
903.18	15333.14
903.35	15675.15
903.52	15370.01
903.69	15734.54
903.86	15546.13
904.03	15386.39
904.20	15456.02
904.37	15372.05
904.54	15277.85
904.71	15351.57
904.88	15122.20
905.05	15386.39
905.22	15595.28
905.39	15472.40
905.56	15425.30
905.73	15265.56
905.90	15300.37
906.07	15476.50
906.24	15116.06
906.41	15157.02
906.58	15318.81
906.75	15372.05
906.92	15152.92
907.09	15331.09
907.26	15238.94
907.43	15288.09
907.60	15333.14
907.77	15517.46
907.93	15396.63
908.10	15292.18
908.27	15410.96
908.44	15144.73
908.61	15216.41
908.78	15126.30
908.95	15062.81
909.12	15370.01
909.29	15138.58
909.46	14978.84
909.63	15355.67
909.80	15310.61
909.97	15163.16
910.14	15120.15
910.31	15259.42
910.48	15120.15
910.65	15275.80
910.82	15152.92
910.99	14939.93
911.16	15120.15
911.33	14935.84
911.50	15210.26
911.66	14929.69
911.83	14948.12
912.00	14694.18
912.17	14790.43
912.34	14700.32
912.51	14753.57
912.68	14704.42
912.85	14667.55
913.02	15068.95
913.19	14683.94
913.36	14716.70
913.53	14802.72
913.70	14581.54
913.86	14984.99
914.03	14651.17
914.20	14669.60
914.37	14618.40
914.54	14593.83
914.71	14685.98
914.88	14333.73
915.05	14380.84
915.22	14157.61
915.39	14300.97
915.55	14411.56
915.72	14413.60
915.89	14479.14
916.06	14315.30
916.23	13956.91
916.40	14219.05
916.57	14120.74
916.74	14137.13
916.91	14194.47
917.07	13799.21
917.24	13881.13
917.41	14024.49
917.58	14094.12
917.75	14106.41
917.92	13686.58
918.09	13862.70
918.26	13913.90
918.42	13688.62
918.59	13602.61
918.76	13709.10
918.93	13516.59
919.10	13496.11
919.27	13467.44
919.44	13520.69
919.60	13655.86
919.77	13551.41
919.94	13301.56
920.11	13395.76
920.28	13537.07
920.45	13037.37
920.61	13082.42
920.78	13180.73
920.95	13262.65
921.12	13242.17
921.29	12801.85
921.46	13070.14
921.62	12728.13
921.79	13010.75
921.96	12984.12
922.13	12949.31
922.30	12822.33
922.47	12853.05
922.63	12777.28
922.80	12699.45
922.97	12771.13
923.14	12425.03
923.31	12662.59
923.47	12195.65
923.64	12607.30
923.81	12377.92
923.98	12341.06
924.15	12373.83
924.32	12416.83
924.48	12175.17
924.65	12384.07
924.82	12042.06
924.99	11970.38
925.15	12029.77
925.32	12201.80
925.49	11925.32
925.66	11910.99
925.83	12156.74
925.99	11812.68
926.16	12056.39
926.33	11718.48
926.50	11632.46
926.67	11669.33
926.83	11718.48
927.00	11507.54
927.17	11536.21
927.34	11437.91
927.50	11442.00
927.67	11583.31
927.84	11421.52
928.01	11355.99
928.17	11253.59
928.34	11323.22
928.51	11067.22
928.68	11231.06
928.84	11079.51
929.01	11011.93
929.18	10899.29
929.35	10745.69
929.51	11032.41
929.68	10618.72
929.85	10962.78
930.02	10768.22
930.18	10725.21
930.35	10733.40
930.52	10700.64
930.69	10635.10
930.85	10493.79
931.02	10354.53
931.19	10471.26
931.36	10391.39
931.52	10463.07
931.69	10614.62
931.86	10127.21
932.02	10170.21
932.19	10245.99
932.36	10282.85
932.53	10094.44
932.69	9971.56
932.86	10022.76
933.03	9934.70
933.19	9883.50
933.36	9832.30
933.53	9899.88
933.70	9752.43
933.86	9652.08
934.03	9744.24
934.20	9250.67
934.36	9394.03
934.53	9269.11
934.70	9310.07
934.86	9328.50
935.03	9334.64
935.20	9080.69
935.36	9305.97
935.53	8961.91
935.70	9004.92
935.86	9086.84
936.03	8712.06
936.20	8777.59
936.36	8556.41
936.53	8732.54
936.70	8456.06
936.86	8593.28
937.03	8406.91
937.20	8195.97
937.36	8314.75
937.53	8107.91
937.70	8001.41
937.86	7950.21
938.03	7964.55
938.20	7884.68
938.36	7688.07
938.53	7802.76
938.70	7600.01
938.86	7612.30
939.03	7501.71
939.20	7128.98
939.36	7341.97
939.53	7296.91
939.70	7415.69
939.86	7057.30
940.03	6893.46
940.19	6844.31
940.36	6981.53
940.53	6784.92
940.69	6797.21
940.86	6670.23
941.03	6530.97
941.19	6553.50
941.36	6623.13
941.52	6387.61
941.69	6285.22
941.86	6256.54
942.02	6238.11
942.19	6156.19
942.35	6191.01
942.52	6041.51
942.69	6094.76
942.85	6027.17
943.02	5855.14
943.18	5885.86
943.35	5840.81
943.52	5793.70
943.68	5699.50
943.85	5584.81
944.01	5644.20
944.18	5656.49
944.35	5605.29
944.51	5517.23
944.68	5359.53
944.84	5564.33
945.01	5472.17
945.17	5545.90
945.34	5410.73
945.51	5441.45
945.67	5560.24
945.84	5361.58
946.00	5392.30
946.17	5416.88
946.33	5435.31
946.50	5498.80
946.67	5494.70
946.83	5488.56
947.00	5431.21
947.16	5214.13
947.33	5384.11
947.49	5298.10
947.66	5302.19
947.82	5316.53
947.99	5246.90
948.16	5283.76
948.32	5341.10
948.49	5420.97
948.65	5343.15
948.82	5402.54
948.98	5337.01
949.15	5191.60
949.31	5439.40
949.48	5296.05
949.64	5255.09
949.81	5351.34
949.97	5455.79
950.14	5308.34
950.30	5341.10
950.47	5337.01
950.63	5302.19
950.80	5359.53
950.96	5380.01
951.13	5289.90
951.30	5382.06
951.46	5275.57
951.63	5386.16
951.79	5380.01
951.96	5291.95
952.12	5427.12
952.29	5365.68
952.45	5240.75
952.62	5341.10
952.78	5431.21
952.94	5451.69
953.11	5506.99
953.27	5369.77
953.44	5529.52
953.60	5529.52
953.77	5492.65
953.93	5515.18
954.10	5466.03
954.26	5500.84
954.43	5398.45
954.59	5574.57
954.76	5541.80
954.92	5457.84
955.09	5435.31
955.25	5392.30
955.42	5259.18
955.58	5662.63
955.75	5437.36
955.91	5513.13
956.07	5435.31
956.24	5466.03
956.40	5515.18
956.57	5601.19
956.73	5418.93
956.90	5490.60
957.06	5459.88
957.23	5562.28
957.39	5431.21
957.56	5466.03
957.72	5439.40
957.88	5318.57
958.05	5590.95
958.21	5556.14
958.38	5656.49
958.54	5486.51
958.71	5554.09
958.87	5443.50
959.03	5517.23
959.20	5453.74
959.36	5453.74
959.53	5429.17
959.69	5633.96
959.85	5420.97
960.02	5607.34
960.18	5498.80
960.35	5494.70
960.51	5402.54
960.68	5353.39
960.84	5509.04
961.00	5412.78
961.17	5382.06
961.33	5386.16
961.50	5523.37
961.66	5617.58
961.82	5541.80
961.99	5515.18
962.15	5447.60
962.31	5289.90
962.48	5433.26
962.64	5365.68
962.81	5431.21
962.97	5420.97
963.13	5484.46
963.30	5441.45
963.46	5312.43
963.62	5316.53
963.79	5513.13
963.95	5394.35
964.12	5404.59
964.28	5554.09
964.44	5275.57
964.61	5371.82
964.77	5404.59
964.93	5457.84
965.10	5322.67
965.26	5279.66
965.42	5238.70
965.59	5281.71
965.75	5353.39
965.92	5345.20
966.08	5334.96
966.24	5476.27
966.41	5199.79
966.57	5369.77
966.73	5367.73
966.90	5257.14
967.06	5412.78
967.22	5148.59
967.39	5226.42
967.55	5132.21
967.71	5126.07
967.88	5156.79
968.04	5230.51
968.20	5302.19
968.37	5263.28
968.53	5062.58
968.69	5277.62
968.85	5294.00
969.02	5201.84
969.18	5160.88
969.34	5148.59
969.51	5169.07
969.67	5304.24
969.83	5109.68
970.00	5273.52
970.16	5058.48
970.32	5222.32
970.48	5257.14
970.65	5158.83
970.81	5095.35
970.97	5083.06
971.14	4890.55
971.30	5054.39
971.46	4984.76
971.63	5119.92
971.79	5023.67
971.95	5099.44
972.11	4990.90
972.28	5019.57
972.44	4999.09
972.60	5007.28
972.76	4937.65
972.93	4894.65
973.09	5052.34
973.25	4941.75
973.42	4859.83
973.58	4849.59
973.74	4904.89
973.90	5062.58
974.07	4759.48
974.23	4822.97
974.39	4747.19
974.55	4775.86
974.72	4753.34
974.88	4661.18
975.04	4845.49
975.20	4722.62
975.37	4872.12
975.53	4730.81
975.69	4812.73
975.85	4708.28
976.01	4661.18
976.18	4655.03
976.34	4759.48
976.50	4726.71
976.66	4865.97
976.83	4730.81
976.99	4667.32
977.15	4736.95
977.31	4558.78
977.47	4685.75
977.64	4581.31
977.80	4534.20
977.96	4763.58
978.12	4534.20
978.29	4575.16
978.45	4536.25
978.61	4552.63
978.77	4655.03
978.93	4456.38
979.10	4579.26
979.26	4444.09
979.42	4509.63
979.58	4403.13
979.74	4450.24
979.91	4491.20
980.07	4394.94
980.23	4360.13
980.39	4390.84
980.55	4308.93
980.71	4497.34
980.88	4353.98
981.04	4429.76
981.20	4345.79
981.36	4425.66
981.52	4351.93
981.68	4286.40
981.85	4427.71
982.01	4343.74
982.17	4415.42
982.33	4206.53
982.49	4423.61
982.65	4175.81
982.82	4300.73
982.98	4386.75
983.14	4198.34
983.30	4257.73
983.46	4331.45
983.62	4351.93
983.79	4145.09
983.95	4235.20
984.11	4104.13
984.27	4255.68
984.43	4104.13
984.59	4212.67
984.75	4229.06
984.91	4093.89
985.08	4196.29
985.24	4163.52
985.40	4054.98
985.56	4151.23
985.72	4108.23
985.88	4042.69
986.04	4048.83
986.20	4005.83
986.37	4097.99
986.53	4057.03
986.69	4042.69
986.85	4104.13
987.01	4077.51
987.17	4030.40
987.33	3919.81
987.49	4018.11
987.65	4057.03
987.82	3932.10
987.98	3934.15
988.14	3889.09
988.30	4026.31
988.46	3956.68
988.62	3975.11
988.78	3813.32
988.94	3876.80
989.10	3952.58
989.26	3846.09
989.42	3860.42
989.59	3880.90
989.75	3811.27
989.91	3885.00
990.07	3809.22
990.23	3798.98
990.39	3715.02
990.55	3936.20
990.71	3778.50
990.87	3823.56
991.03	3801.03
991.19	3819.46
991.35	3807.17
991.51	3854.28
991.67	3776.45
991.83	3669.96
992.00	3807.17
992.16	3706.82
992.32	3647.43
992.48	3669.96
992.64	3489.74
992.80	3682.25
992.96	3782.60
993.12	3616.71
993.28	3667.91
993.44	3522.51
993.60	3633.10
993.76	3512.27
993.92	3559.37
994.08	3688.39
994.24	3575.75
994.40	3575.75
994.56	3581.90
994.72	3426.25
994.88	3436.49
995.04	3561.42
995.20	3551.18
995.36	3477.45
995.52	3585.99
995.68	3526.60
995.84	3456.97
996.00	3575.75
996.16	3473.36
996.32	3444.68
996.48	3479.50
996.64	3481.55
996.80	3332.05
996.96	3459.02
997.12	3411.92
997.28	3330.00
997.44	3340.24
997.60	3420.11
997.76	3319.76
997.92	3487.69
998.08	3268.56
998.24	3319.76
998.40	3358.67
998.56	3399.63
998.72	3377.10
998.88	3272.65
999.04	3336.14
999.20	3465.16
999.36	3383.24
999.52	3385.29
999.68	3289.04
999.84	3321.81
1000.00	3377.10
1000.16	3344.33
1000.32	3127.25
1000.48	3358.67
1000.64	3286.99
1000.80	3270.61
1000.95	3153.87
1001.11	3280.85
1001.27	3145.68
1001.43	3235.79
1001.59	3051.47
1001.75	3141.58
1001.91	3182.54
1002.07	3051.47
1002.23	3067.86
1002.39	3114.96
1002.55	3151.82
1002.71	3106.77
1002.87	3170.26
1003.03	2971.60
1003.19	3084.24
1003.34	3059.67
1003.50	3030.99
1003.66	3108.82
1003.82	3117.01
1003.98	3065.81
1004.14	3139.54
1004.30	2998.23
1004.46	2961.36
1004.62	2979.79
1004.78	3088.34
1004.94	2910.16
1005.09	3098.58
1005.25	2981.84
1005.41	3039.19
1005.57	2987.99
1005.73	2924.50
1005.89	2947.03
1006.05	2969.55
1006.21	2975.70
1006.37	2891.73
1006.52	2865.11
1006.68	2889.68
1006.84	3002.32
1007.00	2795.48
1007.16	2973.65
1007.32	2834.39
1007.48	2783.19
1007.64	2891.73
1007.79	2836.44
1007.95	2842.58
1008.11	2934.74
1008.27	2777.05
1008.43	2891.73
1008.59	2848.72
1008.75	2977.75
1008.91	2830.29
1009.06	2770.90
1009.22	2807.77
1009.38	2918.36
1009.54	2766.81
1009.70	2791.38
1009.86	2836.44
1010.01	2760.66
1010.17	2793.43
1010.33	2822.10
1010.49	2725.85
1010.65	2772.95
1010.81	2664.41
1010.96	2740.18
1011.12	2686.94
1011.28	2633.69
1011.44	2766.81
1011.60	2822.10
1011.76	2648.02
1011.91	2815.96
1012.07	2697.17
1012.23	2680.79
1012.39	2596.82
1012.55	2770.90
1012.71	2635.74
1012.86	2686.94
1013.02	2602.97
1013.18	2592.73
1013.34	2543.58
1013.50	2684.89
1013.65	2670.55
1013.81	2555.86
1013.97	2619.35
1014.13	2582.49
1014.29	2582.49
1014.44	2686.94
1014.60	2584.54
1014.76	2617.30
1014.92	2531.29
1015.07	2674.65
1015.23	2559.96
1015.39	2514.91
1015.55	2531.29
1015.71	2611.16
1015.86	2539.48
1016.02	2435.03
1016.18	2498.52
1016.34	2508.76
1016.49	2582.49
1016.65	2598.87
1016.81	2504.67
1016.97	2437.08
1017.12	2566.10
1017.28	2418.65
1017.44	2408.41
1017.60	2471.90
1017.75	2406.36
1017.91	2437.08
1018.07	2439.13
1018.23	2469.85
1018.38	2463.71
1018.54	2439.13
1018.70	2467.80
1018.86	2332.64
1019.01	2404.32
1019.17	2371.55
1019.33	2559.96
1019.49	2371.55
1019.64	2471.90
1019.80	2330.59
1019.96	2461.66
1020.12	2426.84
1020.27	2314.20
1020.43	2400.22
1020.59	2408.41
1020.74	2416.60
1020.90	2492.38
1021.06	2334.68
1021.22	2349.02
1021.37	2365.40
1021.53	2361.31
1021.69	2365.40
1021.84	2273.25
1022.00	2252.77
1022.16	2279.39
1022.31	2291.68
1022.47	2316.25
1022.63	2289.63
1022.79	2197.47
1022.94	2303.96
1023.10	2367.45
1023.26	2330.59
1023.41	2207.71
1023.57	2217.95
1023.73	2244.57
1023.88	2140.13
1024.04	2269.15
1024.20	2289.63
1024.35	2375.64
1024.51	2256.86
1024.67	2265.05
1024.82	2242.53
1024.98	2185.18
1025.14	2301.92
1025.29	2232.29
1025.45	2232.29
1025.61	2174.94
1025.76	2254.81
1025.92	2187.23
1026.08	2248.67
1026.23	2228.19
1026.39	2222.05
1026.55	2154.46
1026.70	2148.32
1026.86	2129.89
1027.02	2191.33
1027.17	2203.61
1027.33	2170.85
1027.48	2127.84
1027.64	2039.78
1027.80	2170.85
1027.95	2158.56
1028.11	2127.84
1028.27	2183.13
1028.42	2119.65
1028.58	2072.54
1028.73	2127.84
1028.89	2084.83
1029.05	2131.94
1029.20	2131.94
>>>>>End Processed Spectral Data<<<<<
