SpectraSuite Data File
++++++++++++++++++++++++++++++++++++
Date: Fri Jun 02 14:57:23 CEST 2017
User: INFO_000
Dark Spectrum Present: No
Reference Spectrum Present: No
Number of Sampled Component Spectra: 1
Spectrometers: USB4H00879
Integration Time (usec): 80000 (USB4H00879)
Spectra Averaged: 1 (USB4H00879)
Boxcar Smoothing: 0 (USB4H00879)
Correct for Electrical Dark: No (USB4H00879)
Strobe/Lamp Enabled: No (USB4H00879)
Correct for Detector Non-linearity: No (USB4H00879)
Correct for Stray Light: No (USB4H00879)
Number of Pixels in Processed Spectrum: 3648
>>>>>Begin Processed Spectral Data<<<<<
345.13	1267.69
345.34	1267.69
345.56	1267.69
345.78	1339.37
345.99	1257.45
346.21	1738.73
346.42	1730.53
346.64	1685.48
346.86	1794.02
347.07	1652.71
347.29	1671.14
347.50	1574.89
347.72	1763.30
347.94	1789.92
348.15	1583.08
348.37	1638.38
348.59	1718.25
348.80	1662.95
349.02	1779.68
349.23	1894.37
349.45	1892.32
349.67	1966.05
349.88	1814.50
350.10	1966.05
350.31	1877.99
350.53	1769.44
350.75	2019.30
350.96	1820.64
351.18	1834.98
351.39	1886.18
351.61	1740.77
351.82	1933.28
352.04	1906.66
352.26	1847.27
352.47	1896.42
352.69	1867.75
352.90	1855.46
353.12	1925.09
353.34	1847.27
353.55	1961.95
353.77	1765.35
353.98	1863.65
354.20	1800.16
354.41	1896.42
354.63	2017.25
354.85	2093.02
355.06	1933.28
355.28	1810.40
355.49	1904.61
355.71	1851.36
355.92	1888.23
356.14	1951.71
356.35	1798.12
356.57	1843.17
356.79	1941.47
357.00	1855.46
357.22	2029.54
357.43	1888.23
357.65	1984.48
357.86	1857.51
358.08	1849.32
358.29	1918.95
358.51	2021.35
358.72	1966.05
358.94	1902.56
359.16	1925.09
359.37	1957.86
359.59	1920.99
359.80	2031.58
360.02	1951.71
360.23	1912.80
360.45	1929.19
360.66	1931.23
360.88	1894.37
361.09	1933.28
361.31	1931.23
361.52	1974.24
361.74	2066.40
361.95	2074.59
362.17	1912.80
362.38	2113.50
362.60	2043.87
362.81	2035.68
363.03	1859.56
363.24	2011.11
363.46	2095.07
363.67	2011.11
363.89	1929.19
364.10	2035.68
364.32	1947.62
364.53	2088.93
364.75	1906.66
364.96	1986.53
365.18	1992.67
365.39	1980.39
365.61	1970.15
365.82	2166.75
366.04	2027.49
366.25	2007.01
366.47	2070.50
366.68	2070.50
366.90	2002.91
367.11	2052.06
367.33	2078.69
367.54	2039.78
367.76	2093.02
367.97	2107.36
368.19	2002.91
368.40	2107.36
368.62	2007.01
368.83	1984.48
369.05	2062.30
369.26	1988.58
369.48	2093.02
369.69	1966.05
369.91	2060.26
370.12	2062.30
370.33	2131.94
370.55	2076.64
370.76	2095.07
370.98	2076.64
371.19	2068.45
371.41	2007.01
371.62	2099.17
371.84	2076.64
372.05	2148.32
372.27	2072.54
372.48	2029.54
372.69	2050.02
372.91	2121.70
373.12	2179.04
373.34	2117.60
373.55	2111.46
373.77	2215.90
373.98	2076.64
374.20	2158.56
374.41	2248.67
374.62	2056.16
374.84	2211.81
375.05	2226.14
375.27	2156.51
375.48	2242.53
375.70	2142.18
375.91	2283.49
376.12	2256.86
376.34	2111.46
376.55	2217.95
376.77	2174.94
376.98	2113.50
377.19	2248.67
377.41	2189.28
377.62	2154.46
377.84	2344.92
378.05	2385.88
378.27	2222.05
378.48	2330.59
378.69	2369.50
378.91	2334.68
379.12	2236.38
379.34	2193.37
379.55	2285.53
379.76	2215.90
379.98	2193.37
380.19	2273.25
380.41	2314.20
380.62	2349.02
380.83	2236.38
381.05	2199.52
381.26	2367.45
381.47	2267.10
381.69	2226.14
381.90	2367.45
382.12	2306.01
382.33	2236.38
382.54	2344.92
382.76	2385.88
382.97	2392.03
383.19	2293.72
383.40	2369.50
383.61	2297.82
383.83	2244.57
384.04	2289.63
384.25	2344.92
384.47	2416.60
384.68	2346.97
384.89	2330.59
385.11	2322.40
385.32	2389.98
385.54	2410.46
385.75	2314.20
385.96	2342.88
386.18	2361.31
386.39	2353.12
386.60	2367.45
386.82	2459.61
387.03	2387.93
387.24	2480.09
387.46	2482.14
387.67	2494.43
387.88	2531.29
388.10	2439.13
388.31	2494.43
388.52	2562.01
388.74	2453.47
388.95	2484.19
389.16	2527.19
389.38	2457.56
389.59	2611.16
389.80	2662.36
390.02	2478.04
390.23	2623.45
390.44	2631.64
390.66	2514.91
390.87	2539.48
391.08	2607.06
391.30	2637.78
391.51	2519.00
391.72	2672.60
391.94	2662.36
392.15	2682.84
392.36	2594.78
392.58	2596.82
392.79	2756.57
393.00	2682.84
393.22	2768.85
393.43	2764.76
393.64	2766.81
393.85	2854.87
394.07	2633.69
394.28	2688.98
394.49	2818.00
394.71	2781.14
394.92	2830.29
395.13	2641.88
395.35	2660.31
395.56	2762.71
395.77	2838.48
395.98	2803.67
396.20	2789.33
396.41	2793.43
396.62	2867.16
396.84	2791.38
397.05	2727.89
397.26	2861.01
397.47	3041.23
397.69	2830.29
397.90	3010.51
398.11	2977.75
398.32	2967.51
398.54	2901.97
398.75	2932.69
398.96	2861.01
399.18	3030.99
399.39	2934.74
399.60	2971.60
399.81	2973.65
400.03	2969.55
400.24	3305.42
400.45	2955.22
400.66	3063.76
400.88	3018.71
401.09	3239.89
401.30	3069.91
401.51	3137.49
401.73	3143.63
401.94	3186.64
402.15	3166.16
402.36	3164.11
402.58	3127.25
402.79	3147.73
403.00	3246.03
403.21	3207.12
403.43	3237.84
403.64	3332.05
403.85	3141.58
404.06	3192.78
404.27	3221.45
404.49	3203.02
404.70	3198.93
404.91	3305.42
405.12	3227.60
405.34	3227.60
405.55	3551.18
405.76	3174.35
405.97	3264.46
406.19	3475.40
406.40	3286.99
406.61	3385.29
406.82	3278.80
407.03	3305.42
407.25	3342.28
407.46	3463.12
407.67	3391.44
407.88	3461.07
408.09	3297.23
408.31	3219.41
408.52	3432.40
408.73	3352.52
408.94	3272.65
409.15	3514.31
409.37	3346.38
409.58	3526.60
409.79	3465.16
410.00	3452.88
410.21	3379.15
410.43	3522.51
410.64	3538.89
410.85	3555.27
411.06	3577.80
411.27	3579.85
411.48	3508.17
411.70	3491.79
411.91	3524.55
412.12	3532.75
412.33	3600.33
412.54	3614.66
412.76	3706.82
412.97	3764.17
413.18	3450.83
413.39	3635.14
413.60	3649.48
413.81	3594.19
414.03	3579.85
414.24	3665.86
414.45	3727.30
414.66	3522.51
414.87	3817.41
415.08	3676.10
415.30	3856.33
415.51	3852.23
415.72	3653.58
415.93	3755.97
416.14	3946.44
416.35	3758.02
416.56	3760.07
416.78	3850.18
416.99	3882.95
417.20	3665.86
417.41	3878.85
417.62	3919.81
417.83	3899.33
418.04	3858.37
418.26	3755.97
418.47	3954.63
418.68	4042.69
418.89	3805.13
419.10	4057.03
419.31	3979.20
419.52	4116.42
419.73	3985.35
419.95	4081.60
420.16	3899.33
420.37	4024.26
420.58	4173.76
420.79	3858.37
421.00	4165.57
421.21	4132.80
421.42	3975.11
421.63	4048.83
421.85	4134.85
422.06	4181.95
422.27	4147.14
422.48	4294.59
422.69	4112.32
422.90	4241.34
423.11	4253.63
423.32	4288.45
423.53	4327.36
423.75	4259.78
423.96	4333.50
424.17	4485.05
424.38	4548.54
424.59	4401.08
424.80	4597.69
425.01	4288.45
425.22	4325.31
425.43	4485.05
425.64	4665.27
425.85	4630.46
426.06	4519.87
426.28	4458.43
426.49	4386.75
426.70	4489.15
426.91	4681.66
427.12	4638.65
427.33	4646.84
427.54	4614.07
427.75	4695.99
427.96	4818.87
428.17	4796.34
428.38	4917.17
428.59	4829.11
428.80	4667.32
429.01	4857.78
429.23	4794.29
429.44	5052.34
429.65	4904.89
429.86	4859.83
430.07	4853.69
430.28	4839.35
430.49	5038.00
430.70	5197.74
430.91	5134.26
431.12	4935.60
431.33	5111.73
431.54	5121.97
431.75	5171.12
431.96	5011.38
432.17	5001.14
432.38	4974.52
432.59	5373.87
432.80	5275.57
433.01	5273.52
433.22	5310.38
433.43	5199.79
433.64	5220.27
433.85	5318.57
434.06	5226.42
434.27	5253.04
434.49	5439.40
434.70	5392.30
434.91	5525.42
435.12	5480.36
435.33	5412.78
435.54	5492.65
435.75	5334.96
435.96	5308.34
436.17	5296.05
436.38	5523.37
436.59	5463.98
436.80	5398.45
437.01	5664.68
437.22	5652.39
437.43	5687.21
437.64	5484.46
437.85	5666.73
438.06	5760.94
438.27	5533.61
438.48	5529.52
438.69	5785.51
438.90	5681.07
439.11	5593.00
439.32	5771.18
439.53	5797.80
439.74	5844.90
439.95	5959.59
440.16	5816.23
440.37	5781.42
440.57	5816.23
440.78	6070.18
440.99	5959.59
441.20	5803.94
441.41	5820.33
441.62	5818.28
441.83	5760.94
442.04	6047.65
442.25	5978.02
442.46	5877.67
442.67	6080.42
442.88	6324.13
443.09	6115.23
443.30	5955.49
443.51	5928.87
443.72	6369.18
443.93	6033.32
444.14	6281.12
444.35	6365.09
444.56	6262.69
444.77	6326.18
444.98	6338.46
445.19	6344.61
445.40	6197.15
445.61	6293.41
445.81	6576.03
446.02	6315.94
446.23	6424.48
446.44	6305.70
446.65	6393.76
446.86	6404.00
447.07	6578.08
447.28	6692.76
447.49	6653.85
447.70	6541.21
447.91	6465.44
448.12	6492.06
448.33	6649.75
448.54	6635.42
448.74	6594.46
448.95	6764.44
449.16	6545.31
449.37	7016.34
449.58	6655.90
449.79	6999.96
450.00	6770.58
450.21	6879.13
450.42	7038.87
450.63	7045.01
450.84	6883.22
451.05	6973.33
451.25	6850.46
451.46	6856.60
451.67	7075.73
451.88	7163.79
452.09	7161.75
452.30	6973.33
452.51	7079.83
452.72	7354.26
452.93	7360.40
453.13	7053.20
453.34	7167.89
453.55	7167.89
453.76	7210.90
453.97	7569.29
454.18	7376.78
454.39	7509.90
454.60	7323.54
454.81	7448.46
455.01	7663.50
455.22	7163.79
455.43	7688.07
455.64	7722.89
455.85	7827.34
456.06	7872.39
456.27	7759.75
456.48	7798.66
456.68	7837.58
456.89	7792.52
457.10	7913.35
457.31	7935.88
457.52	7866.25
457.73	7954.31
457.94	8216.45
458.14	8001.41
458.35	8277.89
458.56	8095.62
458.77	8146.82
458.98	8281.99
459.19	8275.84
459.39	8294.27
459.60	8421.25
459.81	8392.58
460.02	8388.48
460.23	8513.41
460.44	8822.65
460.65	8699.77
460.85	8705.92
461.06	8818.55
461.27	8445.82
461.48	8929.14
461.69	9013.11
461.89	8677.24
462.10	8894.33
462.31	8705.92
462.52	8875.90
462.73	9025.40
462.94	9021.30
463.14	8890.23
463.35	8830.84
463.56	9478.00
463.77	9459.57
463.98	9330.55
464.18	9277.30
464.39	9586.54
464.60	9731.95
464.81	9713.52
465.02	9443.18
465.23	9871.21
465.43	9504.62
465.64	9813.87
465.85	9660.27
466.06	9650.03
466.27	10030.95
466.47	9924.46
466.68	10010.47
466.89	9903.98
467.10	9879.40
467.30	9971.56
467.51	10248.04
467.72	10366.82
467.93	10190.69
468.14	10504.03
468.34	10661.73
468.55	10524.51
468.76	10375.01
468.97	10553.18
469.17	10850.14
469.38	10796.89
469.59	10846.04
469.80	10708.83
470.01	10729.31
470.21	10880.86
470.42	10927.96
470.63	11208.53
470.84	10948.44
471.04	11278.16
471.25	11323.22
471.46	11229.01
471.67	11587.41
471.87	11335.51
472.08	11456.34
472.29	11773.77
472.50	11427.67
472.70	11659.09
472.91	11759.44
473.12	11857.74
473.33	11941.71
473.53	12236.61
473.74	12111.69
473.95	12398.40
474.16	12433.22
474.36	12277.57
474.57	12429.12
474.78	12672.83
474.99	12613.44
475.19	12691.26
475.40	12803.90
475.61	12775.23
475.81	13129.53
476.02	13227.83
476.23	12992.31
476.44	13117.24
476.64	13262.65
476.85	13403.96
477.06	13332.28
477.27	13586.22
477.47	13797.17
477.68	13750.06
477.89	13829.93
478.09	13872.94
478.30	13961.00
478.51	13856.56
478.71	14145.32
478.92	14126.89
479.13	14247.72
479.34	14372.64
479.54	14487.33
479.75	14685.98
479.96	14450.47
480.16	14565.15
480.37	14593.83
480.58	14817.05
480.78	14931.74
480.99	15120.15
481.20	15236.89
481.41	15271.70
481.61	15220.50
481.82	15370.01
482.03	15359.77
482.23	15660.82
482.44	15793.94
482.65	15910.67
482.85	16006.92
483.06	16023.31
483.27	15843.09
483.47	16056.08
483.68	16084.75
483.89	16252.68
484.09	16207.62
484.30	16373.51
484.51	16627.46
484.71	16715.52
484.92	16674.56
485.13	17026.81
485.33	16992.00
485.54	17014.52
485.75	17237.75
485.95	17219.32
486.16	17389.30
486.37	17342.20
486.57	17293.05
486.78	17331.96
486.98	17608.44
487.19	17608.44
487.40	17905.39
487.60	17854.19
487.81	18102.00
488.02	17995.50
488.22	17987.31
488.43	18398.95
488.64	18048.75
488.84	18341.61
489.05	18634.47
489.25	18626.28
489.46	18646.76
489.67	18534.12
489.87	18859.74
490.08	18894.56
490.29	18888.42
490.49	19343.06
490.70	19359.45
490.90	19494.61
491.11	19115.74
491.32	19439.32
491.52	19556.05
491.73	19693.27
491.94	19406.55
492.14	19664.60
492.35	19756.75
492.55	20125.39
492.76	19969.74
492.97	19926.74
493.17	20281.03
493.38	20414.15
493.58	20633.29
493.79	20606.66
494.00	20616.90
494.20	20451.02
494.41	21059.26
494.61	20893.38
494.82	20852.42
495.02	20971.20
495.23	21071.55
495.44	21126.85
495.64	21235.39
495.85	21364.41
496.05	21438.14
496.26	21163.71
496.47	22005.42
496.67	21307.07
496.88	21888.69
497.08	21374.65
497.29	21941.94
497.49	21810.87
497.70	22027.95
497.91	21974.70
498.11	22134.45
498.32	22175.41
498.52	22183.60
498.73	22662.82
498.93	22611.62
499.14	22513.32
499.34	22478.50
499.55	22826.66
499.76	22478.50
499.96	22685.35
500.17	22838.95
500.37	22654.63
500.58	22896.29
500.78	22847.14
500.99	22826.66
501.19	23293.60
501.40	23160.48
501.60	23201.44
501.81	23244.45
502.02	23637.66
502.22	23191.20
502.43	23680.66
502.63	23789.20
502.84	23533.21
503.04	23953.04
503.25	23768.73
503.45	23781.01
503.66	23805.59
503.86	23985.81
504.07	24213.13
504.27	23885.46
504.48	24172.18
504.68	24256.14
504.89	24153.74
505.09	24397.45
505.30	24841.86
505.50	24602.25
505.71	24587.91
505.91	24718.98
506.12	24766.09
506.32	24684.17
506.53	24848.00
506.73	24862.34
506.94	25212.54
507.14	25071.23
507.35	25040.51
507.55	25458.30
507.76	24970.88
507.96	25073.28
508.17	25462.40
508.37	25282.17
508.58	25626.23
508.78	25618.04
508.99	25919.09
509.19	25609.85
509.40	25556.60
509.60	25697.91
509.81	25742.97
510.01	25882.23
510.22	25876.09
510.42	25878.13
510.63	25753.21
510.83	26154.61
511.04	26017.40
511.24	26039.92
511.44	26140.27
511.65	26408.56
511.85	26230.38
512.06	26373.74
512.26	26451.56
512.47	26553.96
512.67	26482.28
512.88	26664.55
513.08	26517.10
513.29	26771.05
513.49	26662.51
513.69	26445.42
513.90	26816.10
514.10	27201.12
514.31	26730.09
514.51	26961.51
514.72	26885.73
514.92	27262.56
515.13	26830.44
515.33	27324.00
515.53	27508.32
515.74	27041.38
515.94	27469.40
516.15	27584.09
516.35	27453.02
516.56	27135.59
516.76	27362.91
516.96	27526.75
517.17	27850.33
517.37	27651.67
517.58	27725.40
517.78	27803.22
517.99	27899.48
518.19	28112.47
518.39	28159.57
518.60	28517.96
518.80	28247.63
519.01	28474.96
519.21	28313.17
519.41	28294.74
519.62	28341.84
519.82	28905.03
520.03	28972.61
520.23	28579.40
520.43	28497.49
520.64	28958.28
520.84	29218.37
521.05	29075.01
521.25	29167.17
521.45	29130.31
521.66	29341.25
521.86	29154.88
522.07	29322.82
522.27	29550.14
522.47	29468.22
522.68	29832.76
522.88	29562.43
523.08	30035.51
523.29	29857.34
523.49	29572.67
523.70	29849.14
523.90	29953.59
524.10	30090.80
524.31	30357.04
524.51	30058.04
524.71	30606.89
524.92	30570.03
525.12	30432.82
525.33	30701.10
525.53	30971.43
525.73	30989.86
525.94	30588.46
526.14	31047.21
526.34	30942.76
526.55	31364.64
526.75	31086.12
526.95	31387.17
527.16	31254.05
527.36	31245.86
527.56	31579.68
527.77	31921.69
527.97	31829.53
528.17	31942.17
528.38	31802.91
528.58	31778.33
528.78	32445.97
528.99	31809.05
529.19	32318.99
529.39	32151.06
529.60	32648.72
529.80	32679.44
530.00	32448.02
530.21	32984.58
530.41	32943.63
530.61	32857.61
530.82	33125.89
531.02	33193.48
531.22	32998.92
531.43	32859.66
531.63	33201.67
531.83	33678.85
532.04	33560.06
532.24	33254.92
532.44	33742.33
532.64	33854.97
532.85	33859.07
533.05	33963.51
533.25	34455.03
533.46	33994.23
533.66	34596.34
533.86	34215.41
534.07	34614.77
534.27	34321.91
534.47	34881.00
534.67	34909.68
534.88	34852.33
535.08	34856.43
535.28	35053.03
535.49	35018.22
535.69	35374.56
535.89	35581.41
536.09	35534.31
536.30	35759.58
536.50	35270.12
536.70	35622.37
536.91	35605.98
537.11	35861.98
537.31	35974.62
537.51	35845.60
537.72	36503.00
537.92	36279.77
538.12	36441.56
538.32	36525.52
538.53	36488.66
538.73	36255.19
538.93	36931.02
539.13	36185.56
539.34	36869.58
539.54	36640.21
539.74	36906.44
539.94	37129.67
540.15	36967.88
540.35	37367.24
540.55	36857.29
540.75	37205.45
540.96	37807.55
541.16	37445.06
541.36	37522.88
541.56	37569.99
541.77	38297.02
541.97	37539.27
542.17	38118.84
542.37	37717.44
542.58	37983.68
542.78	38002.11
542.98	38041.02
543.18	38219.19
543.38	38577.59
543.59	38401.46
543.79	38335.93
543.99	38333.88
544.19	38608.31
544.40	38444.47
544.60	38809.01
544.80	38686.13
545.00	38899.12
545.20	39159.21
545.41	38911.41
545.61	39087.53
545.81	39001.52
546.01	39218.60
546.21	39036.33
546.42	38958.51
546.62	39507.37
546.82	39435.69
547.02	39136.68
547.22	39331.24
547.43	39091.63
547.63	39523.75
547.83	39832.99
548.03	39923.10
548.23	39697.83
548.44	39890.34
548.64	39566.76
548.84	39579.04
549.04	40154.52
549.24	40011.17
549.45	40476.05
549.65	40234.39
549.85	40445.33
550.05	40316.31
550.25	40549.78
550.45	40703.38
550.66	40287.64
550.86	40293.79
551.06	40940.94
551.26	40580.50
551.46	40646.04
551.66	40535.45
551.87	40891.79
552.07	40736.15
552.27	41053.58
552.47	41264.52
552.67	40830.35
552.87	40871.31
553.07	41082.25
553.28	40942.99
553.48	41373.06
553.68	40994.19
553.88	41287.05
554.08	41397.64
554.28	40983.95
554.48	41506.18
554.69	41489.80
554.89	41375.11
555.09	41616.77
555.29	41473.42
555.49	41737.60
555.69	41354.63
555.89	41530.76
556.10	41880.96
556.30	41022.86
556.50	41864.58
556.70	41647.49
556.90	41923.97
557.10	42329.47
557.30	41694.60
557.50	41819.52
557.70	42052.99
557.91	42311.03
558.11	42253.69
558.31	42366.33
558.51	42448.25
558.71	42179.96
558.91	42448.25
559.11	42116.48
559.31	42571.13
559.51	41934.21
559.72	42370.43
559.92	42472.82
560.12	42259.84
560.32	42743.16
560.52	42382.71
560.72	42526.07
560.92	42722.68
561.12	42573.17
561.32	42954.10
561.52	42816.88
561.72	43535.72
561.93	42999.15
562.13	42767.73
562.33	42794.36
562.53	43244.91
562.73	42761.59
562.93	42753.40
563.13	43414.89
563.33	43185.52
563.53	42980.72
563.73	43158.89
563.93	43447.66
564.13	43736.42
564.33	43472.23
564.53	43365.74
564.74	43562.34
564.94	43519.34
565.14	43490.66
565.34	42784.12
565.54	43119.98
565.74	43734.37
565.94	43701.61
566.14	43406.70
566.34	43482.47
566.54	44184.93
566.74	43230.57
566.94	43472.23
567.14	43732.32
567.34	44037.47
567.54	43537.77
567.74	43603.30
567.94	43605.35
568.14	44471.64
568.34	43969.89
568.54	44272.99
568.74	44356.96
568.94	43783.52
569.14	44406.11
569.34	44379.48
569.54	44088.67
569.75	44039.52
569.95	44084.58
570.15	44500.31
570.35	44252.51
570.55	44082.53
570.75	44408.15
570.95	44520.79
571.15	44553.56
571.35	44297.56
571.55	44914.00
571.75	44506.46
571.95	44787.03
572.15	44172.64
572.35	44889.43
572.55	44522.84
572.75	44559.70
572.95	44741.97
573.15	44606.81
573.35	44823.89
573.55	44983.63
573.75	44690.77
573.95	45004.11
574.15	45073.74
574.35	44735.83
574.55	45122.90
574.75	45100.37
574.95	45149.52
575.15	45063.50
575.34	44952.91
575.54	45151.57
575.74	45583.69
575.94	45360.46
576.14	45356.36
576.34	45856.07
576.54	45331.79
576.74	45489.48
576.94	45444.43
577.14	45477.19
577.34	45813.06
577.54	45561.16
577.74	46114.11
577.94	46116.16
578.14	45940.04
578.34	45831.49
578.54	45864.26
578.74	45817.16
578.94	46181.70
579.14	45653.32
579.34	46335.29
579.54	46456.12
579.74	46441.79
579.94	46249.28
580.13	46644.54
580.33	46103.87
580.53	46460.22
580.73	46329.15
580.93	46427.45
581.13	46464.32
581.33	46779.70
581.53	46572.86
581.73	46529.85
581.93	46482.75
582.13	47076.66
582.33	46761.27
582.53	46597.43
582.73	47285.55
582.92	47197.49
583.12	47250.74
583.32	47107.38
583.52	46955.83
583.72	47076.66
583.92	47011.12
584.12	47557.93
584.32	48145.70
584.52	47357.23
584.72	47355.18
584.92	47449.39
585.11	47449.39
585.31	47844.65
585.51	47463.72
585.71	47600.94
585.91	47766.82
586.11	47621.42
586.31	47764.78
586.51	47521.07
586.71	47762.73
586.91	48170.27
587.10	48442.65
587.30	48016.68
587.50	48246.05
587.70	48260.38
587.90	48248.10
588.10	48563.48
588.30	48203.04
588.50	48325.92
588.69	48504.09
588.89	48043.30
589.09	48366.88
589.29	48981.27
589.49	48667.93
589.69	48643.35
589.89	48674.07
590.08	48702.74
590.28	48602.39
590.48	48784.66
590.68	48751.90
590.88	48899.35
591.08	48819.48
591.28	48909.59
591.47	49165.59
591.67	49171.73
591.87	48790.81
592.07	49315.09
592.27	49212.69
592.47	49220.88
592.67	49018.13
592.86	49265.94
593.06	49249.55
593.26	49841.42
593.46	49642.76
593.66	49575.18
593.86	49628.43
594.05	49505.55
594.25	49986.82
594.45	49308.94
594.65	49550.60
594.85	49083.67
595.05	50273.54
595.24	50033.92
595.44	50101.51
595.64	49845.51
595.84	50144.51
596.04	50402.56
596.23	50015.49
596.43	50083.08
596.63	50175.23
596.83	50550.01
597.03	50572.54
597.22	50476.29
597.42	50631.93
597.62	50459.90
597.82	50470.14
598.02	50658.56
598.21	50806.01
598.41	50554.11
598.61	50779.39
598.81	50914.55
599.01	50793.72
599.20	50810.10
599.40	50662.65
599.60	51131.64
599.80	51274.99
600.00	51111.16
600.19	51397.87
600.39	50840.82
600.59	51444.98
600.79	51518.70
600.98	50842.87
601.18	51428.59
601.38	51475.69
601.58	51565.81
601.78	51729.64
601.97	51377.39
602.17	51768.55
602.37	51610.86
602.57	51485.93
602.76	51809.51
602.96	51442.93
603.16	51936.49
603.36	51838.18
603.55	52266.21
603.75	51842.28
603.95	52614.37
604.15	52235.49
604.34	52155.62
604.54	52364.51
604.74	52204.77
604.94	52346.08
605.13	52540.64
605.33	52495.58
605.53	52307.17
605.73	52530.40
605.92	52264.16
606.12	52724.96
606.32	52382.94
606.52	52886.74
606.71	52471.01
606.91	52997.34
607.11	52579.55
607.30	52546.78
607.50	52909.27
607.70	53013.72
607.90	52755.68
608.09	53099.73
608.29	53075.16
608.49	53161.17
608.68	53494.99
608.88	53306.58
609.08	53140.69
609.28	53286.10
609.47	53032.15
609.67	53857.48
609.87	53171.41
610.06	53656.78
610.26	53239.00
610.46	54279.36
610.66	53345.49
610.85	53630.16
611.05	53183.70
611.25	53961.93
611.44	53552.33
611.64	53826.76
611.84	53861.58
612.03	53601.49
612.23	53822.67
612.43	53849.29
612.62	53574.86
612.82	53953.74
613.02	53515.47
613.21	53941.45
613.41	53814.47
613.61	54115.53
613.80	53470.42
614.00	53234.90
614.20	53810.38
614.39	53896.39
614.59	53859.53
614.79	54369.47
614.98	54254.79
615.18	54168.77
615.38	53646.54
615.57	54140.10
615.77	54408.39
615.97	54011.08
616.16	53822.67
616.36	53640.40
616.56	54133.96
616.75	54160.58
616.95	54318.28
617.15	54174.92
617.34	54045.90
617.54	54113.48
617.74	54443.20
617.93	54088.90
618.13	53824.71
618.32	53949.64
618.52	53736.65
618.72	54389.95
618.91	54213.83
619.11	53796.04
619.31	54318.28
619.50	54011.08
619.70	54095.05
619.90	54508.74
620.09	54283.46
620.29	53918.92
620.48	53834.95
620.68	54299.84
620.88	54006.98
621.07	53992.65
621.27	53867.72
621.46	53794.00
621.66	54154.44
621.86	54222.02
622.05	53882.06
622.25	54418.63
622.44	53738.70
622.64	54240.45
622.84	54459.58
623.03	54058.18
623.23	54260.93
623.42	54072.52
623.62	54142.15
623.82	54400.19
624.01	54076.61
624.21	54633.66
624.40	54021.32
624.60	53851.34
624.80	53794.00
624.99	54254.79
625.19	53695.69
625.38	54496.45
625.58	54082.76
625.77	54158.53
625.97	54351.04
626.17	53750.99
626.36	54293.70
626.56	54490.30
626.75	53734.60
626.95	54539.46
627.14	54308.04
627.34	54654.14
627.54	53896.39
627.73	53957.83
627.93	54252.74
628.12	53720.27
628.32	54138.05
628.51	54379.71
628.71	54111.43
628.90	54607.04
629.10	53841.10
629.30	54219.97
629.49	54271.17
629.69	54154.44
629.88	54531.26
630.08	54580.42
630.27	54920.38
630.47	54344.90
630.66	53943.50
630.86	54543.55
631.05	54453.44
631.25	55127.22
631.44	54801.60
631.64	54334.66
631.84	54303.94
632.03	54764.73
632.23	54301.89
632.42	54668.48
632.62	54772.92
632.81	54191.30
633.01	54580.42
633.20	54336.71
633.40	54375.62
633.59	54858.94
633.79	54414.53
633.98	54379.71
634.18	54596.80
634.37	54781.12
634.57	54510.78
634.76	55098.55
634.96	54897.85
635.15	55315.64
635.35	55033.02
635.54	54592.70
635.74	54635.71
635.93	54303.94
636.13	54969.53
636.32	54899.90
636.52	54727.87
636.71	54766.78
636.91	54602.94
637.10	54586.56
637.30	54834.36
637.49	54568.13
637.69	54867.13
637.88	54949.05
638.08	54828.22
638.27	55098.55
638.46	54639.81
638.66	54674.62
638.85	54822.08
639.05	55280.82
639.24	54848.70
639.44	54899.90
639.63	55037.11
639.83	55102.65
640.02	55063.74
640.22	54920.38
640.41	55098.55
640.61	54658.24
640.80	55309.49
640.99	54582.46
641.19	55555.25
641.38	55536.82
641.58	54750.40
641.77	55289.01
641.97	55168.18
642.16	55104.70
642.36	55252.15
642.55	55514.29
642.74	54645.95
642.94	55651.50
643.13	55258.29
643.33	55413.94
643.52	55321.78
643.72	55119.03
643.91	54918.33
644.10	55485.62
644.30	55270.58
644.49	55346.36
644.69	55747.76
644.88	55577.78
645.08	55309.49
645.27	55415.99
645.46	55299.25
645.66	55616.69
645.85	55557.30
646.05	55770.28
646.24	55502.00
646.43	55563.44
646.63	55927.98
646.82	55534.77
647.02	55540.91
647.21	55569.58
647.40	55553.20
647.60	56145.06
647.79	55801.00
647.99	56188.07
648.18	55950.51
648.37	56538.27
648.57	56329.38
648.76	55760.05
648.96	56067.24
649.15	55311.54
649.34	56253.61
649.54	55981.23
649.73	55714.99
649.92	56327.33
650.12	55579.82
650.31	56063.14
650.51	56040.62
650.70	55921.83
650.89	55805.10
651.09	56710.30
651.28	55909.55
651.47	56362.15
651.67	56145.06
651.86	56288.42
652.06	55608.50
652.25	55956.65
652.44	56126.63
652.64	55991.47
652.83	55952.55
653.02	56024.23
653.22	56272.04
653.41	55534.77
653.60	56302.76
653.80	56128.68
653.99	56341.67
654.18	55923.88
654.38	55817.39
654.57	56603.81
654.76	56231.08
654.96	55792.81
655.15	56036.52
655.34	56542.37
655.54	56032.42
655.73	56321.19
655.92	56599.71
656.12	56212.65
656.31	56612.00
656.50	56329.38
656.70	56206.50
656.89	55891.12
657.08	56339.62
657.28	55782.57
657.47	56126.63
657.66	56829.08
657.86	56100.01
658.05	56382.63
658.24	56421.54
658.43	56069.29
658.63	56566.94
658.82	56108.20
659.01	56597.66
659.21	56964.25
659.40	56386.72
659.59	56296.61
659.79	56790.17
659.98	56644.77
660.17	56513.70
660.36	56415.40
660.56	56552.61
660.75	56632.48
660.94	56317.09
661.14	56644.77
661.33	56419.49
661.52	55837.87
661.71	56573.09
661.91	56448.16
662.10	56421.54
662.29	56683.68
662.49	56499.36
662.68	56376.48
662.87	56329.38
663.06	56767.65
663.26	56595.62
663.45	56954.01
663.64	56237.22
663.83	56849.56
664.03	57062.55
664.22	56513.70
664.41	56622.24
664.60	56245.41
664.80	56466.59
664.99	56726.69
665.18	56587.42
665.37	56583.33
665.57	56485.03
665.76	56538.27
665.95	56468.64
666.14	56286.37
666.34	56337.57
666.53	56556.70
666.72	56849.56
666.91	56294.56
667.11	56308.90
667.30	56644.77
667.49	56906.91
667.68	56571.04
667.87	56433.83
668.07	56476.83
668.26	56472.74
668.45	56351.91
668.64	56667.30
668.84	56984.73
669.03	56474.79
669.22	56239.27
669.41	56644.77
669.60	56597.66
669.80	56548.51
669.99	56730.78
670.18	56798.37
670.37	56538.27
670.57	56718.49
670.76	56693.92
670.95	56626.34
671.14	56663.20
671.33	56329.38
671.53	57150.62
671.72	56675.49
671.91	56878.24
672.10	56439.97
672.29	56437.92
672.48	56257.70
672.68	56685.73
672.87	56609.95
673.06	56054.95
673.25	56130.73
673.44	56255.65
673.64	56120.49
673.83	55846.06
674.02	56356.00
674.21	56171.69
674.40	56317.09
674.59	56136.87
674.79	56546.47
674.98	55944.36
675.17	56272.04
675.36	56335.52
675.55	56411.30
675.74	56425.64
675.94	56581.28
676.13	56159.40
676.32	56108.20
676.51	56525.99
676.70	56370.34
676.89	56347.81
677.08	56523.94
677.28	55893.16
677.47	56044.71
677.66	56044.71
677.85	55575.73
678.04	56286.37
678.23	56218.79
678.42	56186.02
678.62	56071.34
678.81	56007.85
679.00	56194.21
679.19	56980.63
679.38	55938.22
679.57	56341.67
679.76	56323.24
679.96	56583.33
680.15	55942.31
680.34	56249.51
680.53	55940.27
680.72	56583.33
680.91	56181.93
681.10	55780.52
681.29	55899.31
681.48	56122.54
681.68	56079.53
681.87	55880.88
682.06	55579.82
682.25	55553.20
682.44	55590.06
682.63	55649.45
682.82	55426.23
683.01	55198.90
683.20	55598.26
683.39	55659.69
683.59	55424.18
683.78	55022.78
683.97	55178.42
684.16	55714.99
684.35	55508.14
684.54	55155.89
684.73	55538.86
684.92	55520.43
685.11	55604.40
685.30	55383.22
685.49	55485.62
685.69	55383.22
685.88	55432.37
686.07	55647.41
686.26	55504.05
686.45	55489.71
686.64	55477.43
686.83	55286.96
687.02	55512.24
687.21	55655.60
687.40	55465.14
687.59	55121.08
687.78	55499.95
687.97	55768.24
688.16	55663.79
688.35	55317.68
688.54	55020.73
688.74	55186.61
688.93	54983.86
689.12	55211.19
689.31	55082.17
689.50	55303.35
689.69	54977.72
689.88	54447.30
690.07	55051.45
690.26	54834.36
690.45	55680.17
690.64	55014.58
690.83	54799.55
691.02	54998.20
691.21	55041.21
691.40	54662.33
691.59	54887.61
691.78	54998.20
691.97	54764.73
692.16	54709.44
692.35	54725.82
692.54	54973.63
692.73	54459.58
692.92	54854.84
693.11	55059.64
693.30	54148.29
693.49	54852.80
693.68	54607.04
693.87	54584.51
694.06	54297.80
694.25	54731.96
694.44	54310.08
694.63	54539.46
694.82	54871.23
695.01	54273.22
695.20	54228.16
695.39	54514.88
695.58	54420.67
695.77	53988.55
695.96	53599.44
696.15	54224.07
696.34	53824.71
696.53	54043.85
696.72	54383.81
696.91	53603.53
697.10	53896.39
697.29	53914.83
697.48	54521.02
697.67	53822.67
697.86	53736.65
698.05	53724.36
698.24	54449.35
698.43	53644.49
698.62	54105.29
698.81	53867.72
699.00	54146.25
699.19	53464.27
699.38	53800.14
699.57	53540.05
699.76	53757.13
699.95	53372.11
700.14	53605.58
700.32	53419.22
700.51	53650.64
700.70	53607.63
700.89	53720.27
701.08	53707.98
701.27	53753.04
701.46	53679.31
701.65	53251.28
701.84	53492.94
702.03	53572.81
702.22	53124.31
702.41	53202.13
702.60	53210.32
702.79	53300.43
702.98	53032.15
703.17	53087.45
703.35	53091.54
703.54	52868.31
703.73	53462.22
703.92	53351.63
704.11	52964.57
704.30	53271.76
704.49	52903.13
704.68	53107.93
704.87	52903.13
705.06	52524.25
705.25	53062.87
705.43	53005.53
705.62	52667.61
705.81	52946.14
706.00	52450.53
706.19	52237.54
706.38	52962.52
706.57	52692.19
706.76	52262.11
706.95	52389.09
707.14	52311.27
707.32	52169.96
707.51	51956.97
707.70	52307.17
707.89	52311.27
708.08	52260.07
708.27	52268.26
708.46	52661.47
708.65	51887.34
708.84	52202.72
709.02	52188.39
709.21	52137.19
709.40	52421.86
709.59	52352.23
709.78	51846.38
709.97	51926.25
710.16	51920.10
710.34	52126.95
710.53	52159.72
710.72	51537.13
710.91	51997.93
711.10	52212.96
711.29	51838.18
711.48	51782.89
711.66	51975.40
711.85	51528.94
712.04	51770.60
712.23	51608.81
712.42	51238.13
712.61	51315.95
712.80	51160.31
712.98	51746.03
713.17	51322.10
713.36	51664.11
713.55	51696.88
713.74	51637.48
713.93	51307.76
714.11	51389.68
714.30	51100.92
714.49	51436.78
714.68	51451.12
714.87	51170.55
715.06	51209.46
715.24	51205.36
715.43	51242.23
715.62	51045.62
715.81	51170.55
716.00	51508.46
716.18	50599.16
716.37	50885.88
716.56	50668.79
716.75	51176.69
716.94	50771.19
717.12	50527.48
717.31	51158.26
717.50	50787.58
717.69	50560.25
717.88	50367.74
718.06	50287.87
718.25	50697.47
718.44	50599.16
718.63	50318.59
718.82	50318.59
719.00	49743.11
719.19	49919.24
719.38	50322.69
719.57	49696.01
719.76	49532.17
719.94	49317.14
720.13	49851.66
720.32	49501.45
720.51	49751.30
720.69	49708.30
720.88	50160.90
721.07	49620.23
721.26	49489.16
721.44	49521.93
721.63	49421.58
721.82	49173.78
722.01	48919.83
722.20	48913.69
722.38	48885.01
722.57	49083.67
722.76	48960.79
722.95	48999.70
723.13	48723.22
723.32	48786.71
723.51	48604.44
723.70	48862.49
723.88	49177.87
724.07	48579.87
724.26	49040.66
724.44	47910.18
724.63	48776.47
724.82	48547.10
725.01	48379.17
725.19	48643.35
725.38	48491.80
725.57	48215.33
725.76	48526.62
725.94	48071.97
726.13	48428.32
726.32	48170.27
726.51	48186.66
726.69	48610.59
726.88	47967.52
727.07	48047.39
727.25	48151.84
727.44	48522.52
727.63	48151.84
727.82	48342.30
728.00	48026.92
728.19	48049.44
728.38	48211.23
728.56	47602.99
728.75	48317.73
728.94	47760.68
729.12	48080.16
729.31	47932.71
729.50	47832.36
729.69	47936.80
729.87	47897.89
730.06	47906.08
730.25	47586.60
730.43	48491.80
730.62	47588.65
730.81	48157.99
730.99	47838.50
731.18	47469.87
731.37	47828.26
731.55	48100.64
731.74	48151.84
731.93	47580.46
732.11	47893.80
732.30	48237.86
732.49	47650.09
732.67	47779.11
732.86	47482.16
733.05	47772.97
733.23	47652.14
733.42	47873.32
733.61	47582.51
733.79	47627.56
733.98	48413.98
734.17	47572.27
734.35	47428.91
734.54	47592.75
734.73	48266.53
734.91	47725.86
735.10	47228.21
735.29	47639.85
735.47	47437.10
735.66	47232.30
735.84	47363.37
736.03	47088.95
736.22	47650.09
736.40	47242.54
736.59	47545.64
736.78	47588.65
736.96	47179.06
737.15	47045.94
737.33	47174.96
737.52	47043.89
737.71	47584.55
737.89	47166.77
738.08	46830.90
738.27	46925.11
738.45	46921.01
738.64	47086.90
738.82	47109.43
739.01	46953.78
739.20	46732.60
739.38	46835.00
739.57	46775.61
739.75	47170.86
739.94	46906.68
740.13	47023.41
740.31	46865.72
740.50	46406.97
740.68	46773.56
740.87	47037.75
741.06	47113.52
741.24	46691.64
741.43	46628.15
741.61	47033.65
741.80	46501.18
741.99	46587.19
742.17	46267.71
742.36	46378.30
742.54	46683.45
742.73	46748.98
742.91	46978.36
743.10	46576.95
743.29	46527.80
743.47	46710.07
743.66	46734.65
743.84	46519.61
744.03	46486.84
744.21	46208.32
744.40	46941.49
744.59	46601.53
744.77	45868.36
744.96	46214.46
745.14	45997.38
745.33	46124.35
745.51	46064.96
745.70	46308.67
745.88	46167.36
746.07	46030.15
746.26	45720.90
746.44	45456.71
746.63	45780.29
746.81	46015.81
747.00	45673.80
747.18	46058.82
747.37	45491.53
747.55	45974.85
747.74	46058.82
747.92	45688.13
748.11	45604.17
748.29	45901.12
748.48	45727.05
748.66	45737.29
748.85	45153.62
749.03	45651.27
749.22	45763.91
749.41	45458.76
749.59	45505.87
749.78	45301.07
749.96	45077.84
750.15	45143.38
750.33	45452.62
750.52	45561.16
750.70	45344.08
750.89	45393.23
751.07	45170.00
751.26	45178.19
751.44	45182.29
751.63	45258.06
751.81	45036.88
752.00	44952.91
752.18	45200.72
752.37	44893.52
752.55	44817.75
752.74	44709.21
752.92	44766.55
753.10	44647.77
753.29	44610.90
753.47	44686.68
753.66	44397.91
753.84	45231.44
754.03	44316.00
754.21	44039.52
754.40	44629.34
754.58	45100.37
754.77	44100.96
754.95	44189.02
755.14	44127.58
755.32	44658.01
755.51	43881.83
755.69	44035.42
755.88	44080.48
756.06	44359.00
756.24	44193.12
756.43	44553.56
756.61	43879.78
756.80	44064.10
756.98	43996.51
757.17	43949.41
757.35	44051.81
757.54	43828.58
757.72	44242.27
757.90	43705.70
758.09	43668.84
758.27	44135.77
758.46	43414.89
758.64	43838.82
758.83	44053.86
759.01	43945.31
759.19	43543.91
759.38	43652.45
759.56	43984.22
759.75	43717.99
759.93	43246.96
760.12	43634.02
760.30	43455.85
760.48	43537.77
760.67	43308.40
760.85	43152.75
761.04	43582.82
761.22	43267.44
761.40	43072.88
761.59	42931.57
761.77	43206.00
761.96	43302.25
762.14	42923.38
762.32	42978.67
762.51	42818.93
762.69	42612.09
762.88	42753.40
763.06	42978.67
763.24	42464.63
763.43	42698.10
763.61	42843.51
763.80	42878.32
763.98	42665.33
764.16	42726.77
764.35	42349.95
764.53	42161.53
764.72	42280.31
764.90	42476.92
765.08	42423.67
765.27	42519.93
765.45	42222.97
765.63	42456.44
765.82	42323.32
766.00	42182.01
766.18	42098.05
766.37	42476.92
766.55	41911.68
766.74	42171.77
766.92	41903.49
767.10	42040.70
767.29	42241.40
767.47	41899.39
767.65	41815.43
767.84	41514.37
768.02	42075.52
768.20	41606.53
768.39	41698.69
768.57	41864.58
768.75	41854.34
768.94	41637.25
769.12	41332.11
769.30	41387.40
769.49	41389.45
769.67	41061.77
769.85	40986.00
770.04	41325.96
770.22	41489.80
770.40	41176.46
770.59	40965.52
770.77	41399.69
770.95	41147.79
771.14	40922.51
771.32	40488.34
771.50	40799.63
771.69	41018.77
771.87	40822.16
772.05	40752.53
772.24	40818.07
772.42	40893.84
772.60	40539.54
772.78	40691.09
772.97	40750.48
773.15	40723.86
773.33	40387.99
773.52	40213.91
773.70	40535.45
773.88	40746.39
774.07	40387.99
774.25	40666.52
774.43	40519.06
774.61	40850.83
774.80	40566.16
774.98	40566.16
775.16	41063.82
775.34	40502.68
775.53	40732.05
775.71	40471.96
775.89	40471.96
776.08	40338.84
776.26	40629.65
776.44	40664.47
776.62	40367.51
776.81	40381.85
776.99	41024.91
777.17	40836.50
777.35	40471.96
777.54	41055.63
777.72	40363.42
777.90	40465.81
778.08	41020.81
778.27	40646.04
778.45	40885.65
778.63	41145.74
778.81	40764.82
779.00	41485.70
779.18	41287.05
779.36	41872.77
779.54	40928.66
779.73	41121.16
779.91	41164.17
780.09	40854.93
780.27	41323.91
780.46	41164.17
780.64	41442.70
780.82	41211.28
781.00	41190.80
781.19	41090.44
781.37	41749.89
781.55	41332.11
781.73	41690.50
781.91	41518.47
782.10	41237.90
782.28	41706.88
782.46	41285.00
782.64	41440.65
782.82	41207.18
783.01	41794.95
783.19	41328.01
783.37	41414.02
783.55	41170.32
783.74	41276.81
783.92	41741.70
784.10	41516.42
784.28	41864.58
784.46	41391.50
784.64	41520.52
784.83	41665.92
785.01	42087.81
785.19	41409.93
785.37	41807.23
785.55	41852.29
785.74	40910.22
785.92	41188.75
786.10	41495.94
786.28	41491.85
786.46	41381.26
786.64	41301.39
786.83	41581.96
787.01	41149.84
787.19	41180.56
787.37	41356.68
787.55	40836.50
787.74	41067.92
787.92	40773.01
788.10	41268.62
788.28	40738.19
788.46	40945.04
788.64	40811.92
788.82	41072.01
789.01	40779.15
789.19	41182.60
789.37	40940.94
789.55	40848.78
789.73	40328.60
789.91	40619.41
790.09	40533.40
790.28	40504.73
790.46	40299.93
790.64	40238.49
790.82	40459.67
791.00	39933.34
791.18	39683.49
791.36	40064.41
791.55	40002.97
791.73	39753.12
791.91	39398.82
792.09	39642.53
792.27	39460.26
792.45	39736.74
792.63	39744.93
792.81	39296.42
793.00	39587.24
793.18	39331.24
793.36	39425.45
793.54	39275.94
793.72	39093.68
793.90	39206.31
794.08	38901.17
794.26	38753.71
794.44	38573.49
794.62	38657.46
794.81	38743.47
794.99	38673.84
795.17	38530.48
795.35	38303.16
795.53	38581.68
795.71	38645.17
795.89	38075.84
796.07	38192.57
796.25	37883.33
796.43	37946.81
796.61	37606.85
796.80	37975.48
796.98	38016.44
797.16	37328.33
797.34	37819.84
797.52	37434.82
797.70	37791.17
797.88	37494.21
798.06	37428.68
798.24	37275.08
798.42	37275.08
798.60	37289.42
798.78	37012.94
798.96	37342.66
799.14	36955.60
799.32	37035.47
799.51	36619.73
799.69	36824.53
799.87	36890.06
800.05	36404.69
800.23	36634.06
800.41	36523.47
800.59	36175.32
800.77	36128.22
800.95	36111.83
801.13	36052.44
801.31	35941.85
801.49	36122.07
801.67	35499.49
801.85	36169.18
802.03	35519.97
802.21	35479.01
802.39	35462.63
802.57	35745.25
802.75	35218.92
802.93	35546.59
803.11	35409.38
803.29	34944.49
803.47	35091.94
803.65	34926.06
803.83	35075.56
804.01	35169.77
804.19	34692.59
804.37	34524.66
804.55	35050.99
804.73	34622.96
804.91	34469.36
805.09	34393.59
805.27	34416.11
805.45	34952.68
805.63	34450.93
805.81	34235.89
805.99	34180.60
806.17	34289.14
806.35	34258.42
806.53	34018.81
806.71	33938.94
806.89	34252.28
807.07	33744.38
807.25	33785.34
807.43	33404.42
807.61	33723.90
807.79	33420.80
807.97	33312.26
808.15	33414.66
808.33	33146.37
808.51	33242.63
808.69	33320.45
808.87	32804.36
809.05	32822.80
809.23	32978.44
809.41	32708.11
809.59	32695.82
809.77	32880.14
809.95	32335.38
810.13	32992.78
810.31	32542.22
810.49	32609.81
810.67	32337.43
810.84	32519.70
811.02	32626.19
811.20	32249.36
811.38	32278.04
811.56	31944.22
811.74	32151.06
811.92	32073.24
812.10	31901.21
812.28	31866.39
812.46	31888.92
812.64	31884.83
812.82	31743.52
813.00	31745.56
813.18	31598.11
813.36	31708.70
813.53	31915.54
813.71	31397.41
813.89	31211.04
814.07	31245.86
814.25	31358.50
814.43	31122.98
814.61	31116.84
814.79	31299.11
814.97	31295.01
815.15	31114.79
815.33	30668.33
815.50	30823.98
815.68	30740.01
815.86	30846.51
816.04	30830.12
816.22	30688.81
816.40	30836.27
816.58	30543.41
816.76	30803.50
816.94	30213.68
817.11	30658.09
817.29	30406.19
817.47	30240.31
817.65	29890.10
817.83	30146.10
818.01	29935.16
818.19	30027.32
818.37	29933.11
818.54	29754.94
818.72	29507.13
818.90	29990.45
819.08	29890.10
819.26	29908.54
819.44	29947.45
819.62	29754.94
819.80	29816.38
819.97	29552.19
820.15	29488.70
820.33	29333.06
820.51	29482.56
820.69	29091.40
820.87	29832.76
821.05	29505.09
821.22	29556.28
821.40	29732.41
821.58	28997.19
821.76	28972.61
821.94	29171.27
822.12	29120.07
822.29	29095.49
822.47	28855.88
822.65	29320.77
822.83	29177.41
823.01	28888.65
823.19	28884.55
823.36	28642.89
823.54	28810.82
823.72	28784.20
823.90	28597.84
824.08	28640.84
824.25	28474.96
824.43	28255.82
824.61	28327.50
824.79	28261.97
824.97	28190.29
825.15	28339.79
825.32	28151.38
825.50	28032.60
825.68	28227.15
825.86	28102.23
826.04	28452.43
826.21	27766.36
826.39	27965.01
826.57	28012.12
826.75	28034.64
826.93	27965.01
827.10	27954.77
827.28	27831.90
827.46	28087.89
827.64	28218.96
827.81	27573.85
827.99	27696.73
828.17	27553.37
828.35	27506.27
828.53	27418.21
828.70	27192.93
828.88	27672.15
829.06	27295.33
829.24	27432.54
829.41	27111.01
829.59	27678.30
829.77	27313.76
829.95	27379.29
830.12	27262.56
830.30	27096.67
830.48	27194.98
830.66	27258.46
830.84	27289.18
831.01	27033.19
831.19	27340.38
831.37	26760.81
831.55	26760.81
831.72	26814.05
831.90	27065.96
832.08	27002.47
832.25	26959.46
832.43	26814.05
832.61	26584.68
832.79	26510.96
832.96	26658.41
833.14	26809.96
833.32	27041.38
833.50	26818.15
833.67	26619.50
833.85	26531.44
834.03	26214.00
834.20	26504.81
834.38	26445.42
834.56	26519.15
834.74	26130.03
834.91	26392.17
835.09	26220.14
835.27	25822.84
835.44	26207.86
835.62	25644.66
835.80	25925.24
835.98	25998.96
836.15	25769.59
836.33	26027.63
836.51	26109.55
836.68	25476.73
836.86	25638.52
837.04	25540.22
837.21	25689.72
837.39	25716.34
837.57	25945.72
837.75	25865.85
837.92	25579.13
838.10	25497.21
838.28	25233.02
838.45	25394.81
838.63	25304.70
838.81	25331.33
838.98	25079.43
839.16	25466.49
839.34	25095.81
839.51	25253.50
839.69	25020.03
839.87	24956.55
840.04	24989.31
840.22	25458.30
840.40	25077.38
840.57	25054.85
840.75	25112.19
840.93	24704.65
841.10	25192.06
841.28	25265.79
841.46	25067.14
841.63	24882.82
841.81	25022.08
841.98	24999.55
842.16	24839.81
842.34	24704.65
842.51	24555.15
842.69	24843.91
842.87	24671.88
843.04	25177.73
843.22	24600.20
843.40	24485.51
843.57	24438.41
843.75	24741.51
843.92	24542.86
844.10	24424.08
844.28	24487.56
844.45	24692.36
844.63	24465.03
844.81	24290.96
844.98	24149.65
845.16	24262.29
845.33	24166.03
845.51	24307.34
845.69	24110.74
845.86	24092.30
846.04	23817.88
846.21	24336.01
846.39	23864.98
846.57	24147.60
846.74	23621.27
846.92	24000.15
847.09	23819.92
847.27	23869.08
847.45	23801.49
847.62	23910.04
847.80	23854.74
847.97	23830.16
848.15	23699.09
848.32	23645.85
848.50	23590.55
848.68	23547.54
848.85	23637.66
849.03	23467.67
849.20	23875.22
849.38	23541.40
849.56	23688.85
849.73	23031.46
849.91	23436.95
850.08	23623.32
850.26	23502.49
850.43	23414.43
850.61	23185.05
850.78	23084.70
850.96	23234.21
851.14	23291.55
851.31	23127.71
851.49	23275.16
851.66	22912.67
851.84	23078.56
852.01	23013.02
852.19	22875.81
852.36	22617.77
852.54	22726.31
852.71	22904.48
852.89	22953.63
853.07	22828.71
853.24	22910.63
853.42	22853.28
853.59	22818.47
853.77	22863.52
853.94	22875.81
854.12	22863.52
854.29	22597.29
854.47	22730.41
854.64	22724.26
854.82	22496.94
854.99	22728.36
855.17	22562.47
855.34	22574.76
855.52	22595.24
855.69	22734.50
855.87	22275.76
856.04	22161.07
856.22	22331.05
856.39	22087.34
856.57	22337.20
856.74	22095.53
856.92	22423.21
857.09	22138.54
857.27	22013.62
857.44	22288.04
857.62	22089.39
857.79	22075.06
857.97	21769.91
858.14	21692.08
858.32	21864.11
858.49	22003.38
858.67	21927.60
858.84	21761.72
859.02	22040.24
859.19	21882.55
859.37	21970.61
859.54	21771.96
859.72	21958.32
859.89	21900.98
860.06	21720.76
860.24	21608.12
860.41	21835.44
860.59	21380.79
860.76	21692.08
860.94	21409.47
861.11	21477.05
861.29	21192.38
861.46	21094.08
861.64	21200.57
861.81	21411.51
861.98	21112.51
862.16	21026.50
862.33	21110.46
862.51	20842.18
862.68	21085.89
862.86	21407.42
863.03	21092.03
863.21	21081.79
863.38	20924.10
863.55	20739.78
863.73	21249.72
863.90	20932.29
864.08	20729.54
864.25	20801.22
864.43	20971.20
864.60	20645.57
864.77	20633.29
864.95	20993.73
865.12	20252.36
865.30	20680.39
865.47	20813.51
865.64	20586.18
865.82	20596.42
865.99	21128.89
866.17	20586.18
866.34	20541.13
866.51	20598.47
866.69	20573.89
866.86	20444.87
867.04	20070.09
867.21	20371.15
867.38	20213.45
867.56	20246.22
867.73	20192.97
867.91	20219.60
868.08	19975.89
868.25	20106.96
868.43	20098.77
868.60	19842.77
868.78	19953.36
868.95	20201.16
869.12	20068.05
869.30	20018.89
869.47	20016.85
869.64	19881.68
869.82	19914.45
869.99	19828.43
870.16	19740.37
870.34	19547.86
870.51	19920.59
870.69	19580.63
870.86	19666.64
871.03	19887.82
871.21	19633.88
871.38	19775.19
871.55	19572.44
871.73	19451.61
871.90	19218.14
872.07	19500.76
872.25	19324.63
872.42	19355.35
872.59	19261.15
872.77	19418.84
872.94	19209.95
873.11	19060.45
873.29	18990.81
873.46	19042.01
873.63	19199.71
873.81	19087.07
873.98	18706.15
874.15	19078.88
874.33	18628.32
874.50	19074.78
874.67	18654.95
874.85	18638.56
875.02	18640.61
875.19	18736.87
875.37	18527.97
875.54	18357.99
875.71	18589.41
875.88	18452.20
876.06	18802.40
876.23	18435.81
876.40	18456.29
876.58	18233.07
876.75	18355.94
876.92	18292.46
877.10	18237.16
877.27	18294.50
877.44	18161.39
877.61	18009.84
877.79	18147.05
877.96	17886.96
878.13	18058.99
878.31	17966.83
878.48	18083.56
878.65	17854.19
878.82	17815.28
879.00	17712.88
879.17	17735.41
879.34	17743.60
879.51	17706.74
879.69	17491.70
879.86	17837.81
880.03	17747.70
880.21	17549.04
880.38	17551.09
880.55	17757.94
880.72	17594.10
880.90	17495.80
881.07	17485.56
881.24	17766.13
881.41	17741.55
881.59	17215.23
881.76	17411.83
881.93	17198.84
882.10	17018.62
882.28	17112.83
882.45	17317.62
882.62	17073.92
882.79	17344.25
882.96	17012.48
883.14	17223.42
883.31	17331.96
883.48	17168.12
883.65	17211.13
883.83	17278.71
884.00	17116.92
884.17	16905.98
884.34	17213.18
884.51	16713.47
884.69	16926.46
884.86	16830.21
885.03	17168.12
885.20	16807.68
885.38	16998.14
885.55	16803.58
885.72	16805.63
885.89	16789.25
886.06	16621.31
886.24	16551.68
886.41	16426.76
886.58	16758.53
886.75	16938.75
886.92	16736.00
887.10	16596.74
887.27	16541.44
887.44	16477.96
887.61	16703.23
887.78	16559.88
887.95	16801.54
888.13	16256.78
888.30	16346.89
888.47	16314.12
888.64	16215.82
888.81	16553.73
888.99	16238.34
889.16	16426.76
889.33	15961.87
889.50	16258.82
889.67	16293.64
889.84	16168.71
890.01	15998.73
890.19	16310.02
890.36	16039.69
890.53	16047.88
890.70	15767.31
890.87	15877.90
891.04	15888.14
891.22	15884.05
891.39	15666.96
891.56	15814.41
891.73	15517.46
891.90	15769.36
892.07	15720.21
892.24	15705.87
892.42	15785.74
892.59	15822.61
892.76	15712.02
892.93	15488.79
893.10	15787.79
893.27	15617.81
893.44	15652.63
893.61	15357.72
893.79	15462.16
893.96	15626.00
894.13	15496.98
894.30	15441.68
894.47	15593.23
894.64	15693.58
894.81	15433.49
894.98	15615.76
895.15	15527.70
895.33	15488.79
895.50	15390.49
895.67	15226.65
895.84	15384.34
896.01	15494.93
896.18	15114.01
896.35	15546.13
896.52	15509.27
896.69	15097.63
896.86	15378.20
897.04	15509.27
897.21	15386.39
897.38	15179.54
897.55	15263.51
897.72	15290.13
897.89	15171.35
898.06	15466.26
898.23	15263.51
898.40	15240.98
898.57	15363.86
898.74	15302.42
898.91	15384.34
899.08	15376.15
899.26	15040.28
899.43	15191.83
899.60	15081.24
899.77	15419.16
899.94	15265.56
900.11	15183.64
900.28	15271.70
900.45	15054.62
900.62	15181.59
900.79	15511.32
900.96	15277.85
901.13	15339.29
901.30	15290.13
901.47	15077.15
901.64	15144.73
901.81	15259.42
901.98	15318.81
902.15	15470.36
902.32	15167.26
902.49	14950.17
902.66	15111.96
902.83	15179.54
903.01	15251.22
903.18	15103.77
903.35	15421.20
903.52	14999.32
903.69	15337.24
903.86	15374.10
904.03	15042.33
904.20	15419.16
904.37	15322.90
904.54	15367.96
904.71	15068.95
904.88	15124.25
905.05	15089.43
905.22	15068.95
905.39	15068.95
905.56	15052.57
905.73	15216.41
905.90	15204.12
906.07	15089.43
906.24	15226.65
906.41	14993.18
906.58	15302.42
906.75	15210.26
906.92	14769.95
907.09	14989.08
907.26	15402.77
907.43	14817.05
907.60	15114.01
907.77	15261.46
907.93	15179.54
908.10	15062.81
908.27	15224.60
908.44	14937.88
908.61	15060.76
908.78	14997.28
908.95	14950.17
909.12	14896.92
909.29	14763.81
909.46	14843.68
909.63	14946.08
909.80	14894.88
909.97	14976.80
910.14	14823.20
910.31	14774.05
910.48	14720.80
910.65	14776.09
910.82	14714.66
910.99	14649.12
911.16	14815.01
911.33	14667.55
911.50	14634.78
911.66	14630.69
911.83	14745.38
912.00	14626.59
912.17	14567.20
912.34	14339.88
912.51	14630.69
912.68	14831.39
912.85	14692.13
913.02	14610.21
913.19	14333.73
913.36	14782.24
913.53	14577.44
913.70	14559.01
913.86	14565.15
914.03	14348.07
914.20	14688.03
914.37	14286.63
914.54	13993.77
914.71	14378.79
914.88	14356.26
915.05	14354.21
915.22	14237.48
915.39	13856.56
915.55	14059.31
915.72	14176.04
915.89	14081.83
916.06	13866.80
916.23	13827.88
916.40	13575.98
916.57	13743.92
916.74	13780.78
916.91	13926.19
917.07	13811.50
917.24	13717.29
917.41	13811.50
917.58	13969.19
917.75	13735.73
917.92	13397.81
918.09	13784.88
918.26	13643.57
918.42	13786.93
918.59	13516.59
918.76	13545.27
918.93	13352.76
919.10	13311.80
919.27	13342.52
919.44	13375.28
919.60	13209.40
919.77	13205.30
919.94	13166.39
920.11	13143.86
920.28	13002.55
920.45	13070.14
920.61	12889.92
920.78	12977.98
920.95	12906.30
921.12	12644.16
921.29	12896.06
921.46	12840.76
921.62	12750.65
921.79	12980.03
921.96	12797.76
922.13	12781.37
922.30	12650.30
922.47	12377.92
922.63	12386.12
922.80	12447.55
922.97	12349.25
923.14	12390.21
923.31	12662.59
923.47	12089.16
923.64	12515.14
923.81	12085.06
923.98	12140.36
924.15	12123.98
924.32	12318.53
924.48	12259.14
924.65	12126.02
924.82	11843.40
924.99	11939.66
925.15	11927.37
925.32	11900.75
925.49	11689.81
925.66	11626.32
925.83	11677.52
925.99	11366.23
926.16	11763.53
926.33	11603.79
926.50	11499.34
926.67	11542.35
926.83	11421.52
927.00	11450.19
927.17	11390.80
927.34	11255.64
927.50	11310.93
927.67	11386.71
927.84	11235.16
928.01	11087.70
928.17	11046.74
928.34	11149.14
928.51	10917.72
928.68	10895.19
928.84	10932.06
929.01	10624.86
929.18	10780.51
929.35	10833.75
929.51	10753.88
929.68	10590.05
929.85	10581.85
930.02	10739.55
930.18	10409.83
930.35	10559.33
930.52	10379.11
930.69	10497.89
930.85	10379.11
931.02	10243.94
931.19	10344.29
931.36	10440.54
931.52	10252.13
931.69	10174.31
931.86	10084.20
932.02	9946.98
932.19	9994.09
932.36	10155.88
932.53	9998.18
932.69	9727.85
932.86	9992.04
933.03	9736.04
933.19	9695.08
933.36	9725.80
933.53	9766.76
933.70	9609.07
933.86	9604.97
934.03	9490.29
934.20	9355.12
934.36	9598.83
934.53	9209.72
934.70	9179.00
934.86	9054.07
935.03	9179.00
935.20	9105.27
935.36	8947.58
935.53	8941.43
935.70	8867.70
935.86	8875.90
936.03	8740.73
936.20	8603.52
936.36	8525.69
936.53	8462.21
936.70	8458.11
936.86	8419.20
937.03	8228.74
937.20	8191.88
937.36	8380.29
937.53	7952.26
937.70	7919.50
937.86	7884.68
938.03	7874.44
938.20	7880.58
938.36	7514.00
938.53	7739.27
938.70	7417.74
938.86	7423.89
939.03	7344.02
939.20	7212.95
939.36	7069.59
939.53	7094.16
939.70	7174.03
939.86	6903.70
940.03	7014.29
940.19	6809.50
940.36	6842.26
940.53	6786.97
940.69	6594.46
940.86	6573.98
941.03	6426.53
941.19	6481.82
941.36	6412.19
941.52	6225.82
941.69	6262.69
941.86	6209.44
942.02	6168.48
942.19	6180.77
942.35	6182.82
942.52	5943.21
942.69	5910.44
942.85	6066.08
943.02	5875.62
943.18	5869.48
943.35	5672.87
943.52	5711.78
943.68	5476.27
943.85	5701.54
944.01	5597.10
944.18	5525.42
944.35	5658.54
944.51	5566.38
944.68	5377.97
944.84	5451.69
945.01	5306.29
945.17	5525.42
945.34	5611.43
945.51	5402.54
945.67	5371.82
945.84	5461.93
946.00	5375.92
946.17	5312.43
946.33	5318.57
946.50	5275.57
946.67	5369.77
946.83	5255.09
947.00	5390.25
947.16	5302.19
947.33	5308.34
947.49	5140.40
947.66	5107.63
947.82	5300.14
947.99	5230.51
948.16	5470.12
948.32	5279.66
948.49	5191.60
948.65	5226.42
948.82	5220.27
948.98	5185.46
949.15	5236.66
949.31	5181.36
949.48	5351.34
949.64	5179.31
949.81	5267.38
949.97	5334.96
950.14	5349.29
950.30	5115.83
950.47	5345.20
950.63	5355.44
950.80	5449.64
950.96	5375.92
951.13	5398.45
951.30	5406.64
951.46	5332.91
951.63	5345.20
951.79	5392.30
951.96	5310.38
952.12	5246.90
952.29	5402.54
952.45	5279.66
952.62	5453.74
952.78	5355.44
952.94	5394.35
953.11	5314.48
953.27	5244.85
953.44	5390.25
953.60	5476.27
953.77	5414.83
953.93	5463.98
954.10	5531.56
954.26	5392.30
954.43	5402.54
954.59	5552.04
954.76	5437.36
954.92	5308.34
955.09	5406.64
955.25	5437.36
955.42	5402.54
955.58	5429.17
955.75	5558.19
955.91	5347.25
956.07	5324.72
956.24	5539.76
956.40	5588.91
956.57	5504.94
956.73	5447.60
956.90	5355.44
957.06	5388.21
957.23	5412.78
957.39	5357.49
957.56	5425.07
957.72	5337.01
957.88	5410.73
958.05	5494.70
958.21	5390.25
958.38	5451.69
958.54	5441.45
958.71	5453.74
958.87	5605.29
959.03	5384.11
959.20	5470.12
959.36	5337.01
959.53	5377.97
959.69	5300.14
959.85	5539.76
960.02	5234.61
960.18	5363.63
960.35	5509.04
960.51	5504.94
960.68	5382.06
960.84	5357.49
961.00	5425.07
961.17	5418.93
961.33	5359.53
961.50	5449.64
961.66	5359.53
961.82	5402.54
961.99	5365.68
962.15	5445.55
962.31	5312.43
962.48	5474.22
962.64	5392.30
962.81	5414.83
962.97	5359.53
963.13	5408.69
963.30	5314.48
963.46	5349.29
963.62	5373.87
963.79	5228.46
963.95	5318.57
964.12	5310.38
964.28	5322.67
964.44	5164.98
964.61	5308.34
964.77	5337.01
964.93	5392.30
965.10	5367.73
965.26	5277.62
965.42	5246.90
965.59	5302.19
965.75	5361.58
965.92	5400.49
966.08	5457.84
966.24	5238.70
966.41	5164.98
966.57	5386.16
966.73	5330.86
966.90	5273.52
967.06	5250.99
967.22	5195.70
967.39	5285.81
967.55	5158.83
967.71	5257.14
967.88	5156.79
968.04	5216.18
968.20	5187.50
968.37	5275.57
968.53	5103.54
968.69	5175.22
968.85	5220.27
969.02	5175.22
969.18	5017.52
969.34	5167.03
969.51	5087.15
969.67	5267.38
969.83	5111.73
970.00	5107.63
970.16	5105.59
970.32	5081.01
970.48	5062.58
970.65	4982.71
970.81	5103.54
970.97	5023.67
971.14	5017.52
971.30	5052.34
971.46	4835.25
971.63	5113.78
971.79	5124.02
971.95	4933.56
972.11	4861.88
972.28	5050.29
972.44	5068.72
972.60	4835.25
972.76	4894.65
972.93	4843.45
973.09	4986.80
973.25	4845.49
973.42	4931.51
973.58	4898.74
973.74	4904.89
973.90	4761.53
974.07	4843.45
974.23	4845.49
974.39	4874.17
974.55	4784.06
974.72	4847.54
974.88	4659.13
975.04	4933.56
975.20	4861.88
975.37	4915.12
975.53	4802.49
975.69	4679.61
975.85	4620.22
976.01	4589.50
976.18	4669.37
976.34	4712.38
976.50	4829.11
976.66	4822.97
976.83	4546.49
976.99	4677.56
977.15	4628.41
977.31	4536.25
977.47	4839.35
977.64	4652.98
977.80	4634.55
977.96	4769.72
978.12	4560.83
978.29	4622.27
978.45	4460.48
978.61	4599.74
978.77	4609.98
978.93	4558.78
979.10	4460.48
979.26	4483.00
979.42	4423.61
979.58	4280.25
979.74	4349.89
979.91	4571.07
980.07	4388.80
980.23	4493.24
980.39	4458.43
980.55	4421.56
980.71	4431.80
980.88	4317.12
981.04	4358.08
981.20	4526.01
981.36	4452.28
981.52	4292.54
981.68	4304.83
981.85	4349.89
982.01	4321.21
982.17	4313.02
982.33	4270.01
982.49	4362.17
982.65	4310.97
982.82	4401.08
982.98	4220.86
983.14	4140.99
983.30	4429.76
983.46	4243.39
983.62	4169.66
983.79	4192.19
983.95	4184.00
984.11	4149.18
984.27	4143.04
984.43	4136.90
984.59	4145.09
984.75	4302.78
984.91	4151.23
985.08	4210.62
985.24	4108.23
985.40	4124.61
985.56	3983.30
985.72	4247.49
985.88	4212.67
986.04	4153.28
986.20	4042.69
986.37	4065.22
986.53	3964.87
986.69	3997.64
986.85	3846.09
987.01	4073.41
987.17	4200.38
987.33	4042.69
987.49	3987.40
987.65	3936.20
987.82	3923.91
987.98	3819.46
988.14	4040.64
988.30	3936.20
988.46	3999.68
988.62	3960.77
988.78	3932.10
988.94	3891.14
989.10	3874.76
989.26	3887.04
989.42	3753.93
989.59	3862.47
989.75	3792.84
989.91	3860.42
990.07	3690.44
990.23	3764.17
990.39	3911.62
990.55	3835.85
990.71	3755.97
990.87	3665.86
991.03	3852.23
991.19	3745.73
991.35	3780.55
991.51	3885.00
991.67	3809.22
991.83	3762.12
992.00	3710.92
992.16	3796.93
992.32	3708.87
992.48	3725.26
992.64	3669.96
992.80	3702.73
992.96	3688.39
993.12	3663.82
993.28	3721.16
993.44	3528.65
993.60	3643.34
993.76	3669.96
993.92	3622.86
994.08	3637.19
994.24	3602.38
994.40	3567.56
994.56	3581.90
994.72	3563.47
994.88	3590.09
995.04	3545.03
995.20	3485.64
995.36	3532.75
995.52	3506.12
995.68	3553.23
995.84	3481.55
996.00	3518.41
996.16	3508.17
996.32	3465.16
996.48	3399.63
996.64	3608.52
996.80	3366.86
996.96	3405.77
997.12	3393.48
997.28	3377.10
997.44	3356.62
997.60	3346.38
997.76	3391.44
997.92	3305.42
998.08	3397.58
998.24	3256.27
998.40	3411.92
998.56	3301.33
998.72	3352.52
998.88	3389.39
999.04	3248.08
999.20	3438.54
999.36	3334.09
999.52	3448.78
999.68	3303.37
999.84	3327.95
1000.00	3391.44
1000.16	3315.66
1000.32	3221.45
1000.48	3389.39
1000.64	3229.65
1000.80	3129.30
1000.95	3231.69
1001.11	3248.08
1001.27	3055.57
1001.43	3278.80
1001.59	3178.45
1001.75	3248.08
1001.91	3237.84
1002.07	3100.62
1002.23	3037.14
1002.39	3178.45
1002.55	3147.73
1002.71	3117.01
1002.87	3260.37
1003.03	3194.83
1003.19	3088.34
1003.34	3215.31
1003.50	3084.24
1003.66	3141.58
1003.82	3065.81
1003.98	3090.38
1004.14	3069.91
1004.30	3024.85
1004.46	2979.79
1004.62	2928.60
1004.78	2924.50
1004.94	3065.81
1005.09	2977.75
1005.25	3080.14
1005.41	2936.79
1005.57	3008.47
1005.73	2949.08
1005.89	2887.64
1006.05	2922.45
1006.21	2957.27
1006.37	2873.30
1006.52	2944.98
1006.68	2787.29
1006.84	3074.00
1007.00	2875.35
1007.16	2953.17
1007.32	2815.96
1007.48	2901.97
1007.64	2922.45
1007.79	2801.62
1007.95	2926.55
1008.11	2934.74
1008.27	2865.11
1008.43	2820.05
1008.59	2877.40
1008.75	2875.35
1008.91	2901.97
1009.06	2883.54
1009.22	2828.24
1009.38	2910.16
1009.54	2842.58
1009.70	2799.57
1009.86	2746.33
1010.01	2836.44
1010.17	2744.28
1010.33	2899.92
1010.49	2736.09
1010.65	2828.24
1010.81	2783.19
1010.96	2770.90
1011.12	2691.03
1011.28	2594.78
1011.44	2813.91
1011.60	2787.29
1011.76	2666.46
1011.91	2731.99
1012.07	2580.44
1012.23	2613.21
1012.39	2555.86
1012.55	2686.94
1012.71	2701.27
1012.86	2635.74
1013.02	2559.96
1013.18	2592.73
1013.34	2648.02
1013.50	2688.98
1013.65	2688.98
1013.81	2549.72
1013.97	2668.50
1014.13	2600.92
1014.29	2598.87
1014.44	2686.94
1014.60	2686.94
1014.76	2537.43
1014.92	2578.39
1015.07	2607.06
1015.23	2586.58
1015.39	2525.15
1015.55	2475.99
1015.71	2531.29
1015.86	2508.76
1016.02	2478.04
1016.18	2420.70
1016.34	2584.54
1016.49	2508.76
1016.65	2461.66
1016.81	2553.82
1016.97	2533.34
1017.12	2584.54
1017.28	2416.60
1017.44	2467.80
1017.60	2449.37
1017.75	2432.99
1017.91	2435.03
1018.07	2469.85
1018.23	2498.52
1018.38	2408.41
1018.54	2369.50
1018.70	2428.89
1018.86	2365.40
1019.01	2441.18
1019.17	2508.76
1019.33	2475.99
1019.49	2441.18
1019.64	2404.32
1019.80	2441.18
1019.96	2461.66
1020.12	2398.17
1020.27	2355.16
1020.43	2271.20
1020.59	2344.92
1020.74	2316.25
1020.90	2484.19
1021.06	2277.34
1021.22	2357.21
1021.37	2328.54
1021.53	2234.33
1021.69	2365.40
1021.84	2308.06
1022.00	2346.97
1022.16	2207.71
1022.31	2301.92
1022.47	2283.49
1022.63	2389.98
1022.79	2185.18
1022.94	2269.15
1023.10	2410.46
1023.26	2293.72
1023.41	2271.20
1023.57	2289.63
1023.73	2281.44
1023.88	2314.20
1024.04	2220.00
1024.20	2230.24
1024.35	2326.49
1024.51	2283.49
1024.67	2250.72
1024.82	2283.49
1024.98	2140.13
1025.14	2222.05
1025.29	2234.33
1025.45	2301.92
1025.61	2148.32
1025.76	2222.05
1025.92	2250.72
1026.08	2252.77
1026.23	2242.53
1026.39	2256.86
1026.55	2207.71
1026.70	2164.70
1026.86	2191.33
1027.02	2244.57
1027.17	2207.71
1027.33	2187.23
1027.48	2181.09
1027.64	2146.27
1027.80	2080.74
1027.95	2220.00
1028.11	2158.56
1028.27	2117.60
1028.42	2154.46
1028.58	2107.36
1028.73	2230.24
1028.89	2140.13
1029.05	2162.66
1029.20	2193.37
>>>>>End Processed Spectral Data<<<<<
