SpectraSuite Data File
++++++++++++++++++++++++++++++++++++
Date: Fri Jun 02 14:57:18 CEST 2017
User: INFO_000
Dark Spectrum Present: No
Reference Spectrum Present: No
Number of Sampled Component Spectra: 1
Spectrometers: USB4H00879
Integration Time (usec): 80000 (USB4H00879)
Spectra Averaged: 1 (USB4H00879)
Boxcar Smoothing: 0 (USB4H00879)
Correct for Electrical Dark: No (USB4H00879)
Strobe/Lamp Enabled: No (USB4H00879)
Correct for Detector Non-linearity: No (USB4H00879)
Correct for Stray Light: No (USB4H00879)
Number of Pixels in Processed Spectrum: 3648
>>>>>Begin Processed Spectral Data<<<<<
345.13	1306.60
345.34	1306.60
345.56	1306.60
345.78	1329.13
345.99	1345.52
346.21	1701.86
346.42	1740.77
346.64	1624.04
346.86	1779.68
347.07	1621.99
347.29	1742.82
347.50	1691.62
347.72	1695.72
347.94	1742.82
348.15	1617.90
348.37	1648.61
348.59	1701.86
348.80	1617.90
349.02	1728.49
349.23	1869.80
349.45	1892.32
349.67	1943.52
349.88	1834.98
350.10	1974.24
350.31	1867.75
350.53	1886.18
350.75	2017.25
350.96	1787.88
351.18	1871.84
351.39	1806.31
351.61	1789.92
351.82	1904.61
352.04	1896.42
352.26	1830.88
352.47	1841.12
352.69	1875.94
352.90	1789.92
353.12	1871.84
353.34	1886.18
353.55	1990.63
353.77	1888.23
353.98	1837.03
354.20	1812.45
354.41	1869.80
354.63	1896.42
354.85	2045.92
355.06	1863.65
355.28	1859.56
355.49	1851.36
355.71	1849.32
355.92	1794.02
356.14	1996.77
356.35	1847.27
356.57	1832.93
356.79	1974.24
357.00	1830.88
357.22	1990.63
357.43	1890.28
357.65	1996.77
357.86	1839.08
358.08	1898.47
358.29	1978.34
358.51	1931.23
358.72	2035.68
358.94	1912.80
359.16	1916.90
359.37	1966.05
359.59	1877.99
359.80	2007.01
360.02	1978.34
360.23	1927.14
360.45	2086.88
360.66	1961.95
360.88	1892.32
361.09	1939.43
361.31	1984.48
361.52	1937.38
361.74	2060.26
361.95	2115.55
362.17	1908.71
362.38	1988.58
362.60	2043.87
362.81	1990.63
363.03	1943.52
363.24	1996.77
363.46	2058.21
363.67	2013.15
363.89	2050.02
364.10	2047.97
364.32	1974.24
364.53	2068.45
364.75	1929.19
364.96	2004.96
365.18	2023.39
365.39	2047.97
365.61	1978.34
365.82	2121.70
366.04	1972.19
366.25	1923.04
366.47	2004.96
366.68	2050.02
366.90	1992.67
367.11	2103.26
367.33	2152.42
367.54	2058.21
367.76	1990.63
367.97	2101.22
368.19	1996.77
368.40	2093.02
368.62	1970.15
368.83	1994.72
369.05	2021.35
369.26	2080.74
369.48	2011.11
369.69	1978.34
369.91	2047.97
370.12	1978.34
370.33	2111.46
370.55	1964.00
370.76	2035.68
370.98	2148.32
371.19	2013.15
371.41	2068.45
371.62	2125.79
371.84	1941.47
372.05	2248.67
372.27	2170.85
372.48	2086.88
372.69	2099.17
372.91	2203.61
373.12	2109.41
373.34	2070.50
373.55	2111.46
373.77	2131.94
373.98	2105.31
374.20	2228.19
374.41	2166.75
374.62	2217.95
374.84	2246.62
375.05	2136.03
375.27	2136.03
375.48	2246.62
375.70	2115.55
375.91	2211.81
376.12	2211.81
376.34	2181.09
376.55	2197.47
376.77	2150.37
376.98	2062.30
377.19	2111.46
377.41	2125.79
377.62	2176.99
377.84	2160.61
378.05	2191.33
378.27	2254.81
378.48	2297.82
378.69	2398.17
378.91	2330.59
379.12	2312.16
379.34	2199.52
379.55	2263.01
379.76	2248.67
379.98	2215.90
380.19	2260.96
380.41	2287.58
380.62	2369.50
380.83	2277.34
381.05	2138.08
381.26	2437.08
381.47	2203.61
381.69	2254.81
381.90	2437.08
382.12	2336.73
382.33	2275.29
382.54	2355.16
382.76	2254.81
382.97	2344.92
383.19	2265.05
383.40	2334.68
383.61	2318.30
383.83	2369.50
384.04	2256.86
384.25	2369.50
384.47	2398.17
384.68	2312.16
384.89	2320.35
385.11	2344.92
385.32	2475.99
385.54	2373.60
385.75	2379.74
385.96	2488.28
386.18	2301.92
386.39	2490.33
386.60	2385.88
386.82	2402.27
387.03	2445.27
387.24	2473.95
387.46	2381.79
387.67	2494.43
387.88	2557.91
388.10	2539.48
388.31	2447.32
388.52	2600.92
388.74	2514.91
388.95	2650.07
389.16	2588.63
389.38	2410.46
389.59	2574.30
389.80	2668.50
390.02	2512.86
390.23	2711.51
390.44	2619.35
390.66	2590.68
390.87	2512.86
391.08	2635.74
391.30	2641.88
391.51	2615.26
391.72	2670.55
391.94	2645.98
392.15	2541.53
392.36	2576.34
392.58	2432.99
392.79	2658.26
393.00	2756.57
393.22	2682.84
393.43	2789.33
393.64	2779.09
393.85	2842.58
394.07	2588.63
394.28	2652.12
394.49	2666.46
394.71	2768.85
394.92	2789.33
395.13	2770.90
395.35	2781.14
395.56	2779.09
395.77	2715.61
395.98	2803.67
396.20	2818.00
396.41	2656.22
396.62	2852.82
396.84	2803.67
397.05	2781.14
397.26	2895.83
397.47	2947.03
397.69	2789.33
397.90	3069.91
398.11	2871.25
398.32	2994.13
398.54	2789.33
398.75	2846.68
398.96	2899.92
399.18	2985.94
399.39	2998.23
399.60	3020.75
399.81	2895.83
400.03	2916.31
400.24	3278.80
400.45	3010.51
400.66	2994.13
400.88	3059.67
401.09	3182.54
401.30	3067.86
401.51	3074.00
401.73	3049.43
401.94	3069.91
402.15	3061.71
402.36	3157.97
402.58	3127.25
402.79	3248.08
403.00	3059.67
403.21	3168.21
403.43	3248.08
403.64	3303.37
403.85	2990.03
404.06	3297.23
404.27	3018.71
404.49	3198.93
404.70	3231.69
404.91	3366.86
405.12	3166.16
405.34	3319.76
405.55	3502.03
405.76	3239.89
405.97	3182.54
406.19	3465.16
406.40	3172.30
406.61	3346.38
406.82	3147.73
407.03	3301.33
407.25	3272.65
407.46	3436.49
407.67	3340.24
407.88	3493.83
408.09	3295.18
408.31	3385.29
408.52	3274.70
408.73	3446.73
408.94	3354.57
409.15	3413.96
409.37	3422.16
409.58	3530.70
409.79	3575.75
410.00	3563.47
410.21	3389.39
410.43	3428.30
410.64	3418.06
410.85	3647.43
411.06	3600.33
411.27	3510.22
411.48	3672.01
411.70	3579.85
411.91	3616.71
412.12	3712.97
412.33	3690.44
412.54	3631.05
412.76	3626.95
412.97	3809.22
413.18	3604.42
413.39	3696.58
413.60	3735.50
413.81	3856.33
414.03	3678.15
414.24	3721.16
414.45	3905.48
414.66	3805.13
414.87	3788.74
415.08	3772.36
415.30	3608.52
415.51	3825.61
415.72	3819.46
415.93	3784.65
416.14	3952.58
416.35	3706.82
416.56	3942.34
416.78	3882.95
416.99	3889.09
417.20	3776.45
417.41	3958.72
417.62	3882.95
417.83	3946.44
418.04	4081.60
418.26	4016.07
418.47	3981.25
418.68	4145.09
418.89	4083.65
419.10	4165.57
419.31	4069.31
419.52	4032.45
419.73	4100.03
419.95	4186.05
420.16	4003.78
420.37	4149.18
420.58	4028.35
420.79	4079.55
421.00	4179.90
421.21	4093.89
421.42	4130.75
421.63	4132.80
421.85	4161.47
422.06	4143.04
422.27	4204.48
422.48	4112.32
422.69	4220.86
422.90	4282.30
423.11	4200.38
423.32	4464.57
423.53	4569.02
423.75	4450.24
423.96	4421.56
424.17	4542.39
424.38	4622.27
424.59	4339.65
424.80	4599.74
425.01	4562.87
425.22	4468.67
425.43	4442.04
425.64	4728.76
425.85	4831.16
426.06	4609.98
426.28	4573.11
426.49	4503.48
426.70	4603.83
426.91	4700.09
427.12	4603.83
427.33	4673.46
427.54	4589.50
427.75	4810.68
427.96	4779.96
428.17	4890.55
428.38	4775.86
428.59	4825.01
428.80	4693.94
429.01	4820.92
429.23	4728.76
429.44	5081.01
429.65	4861.88
429.86	4970.42
430.07	4845.49
430.28	4835.25
430.49	4900.79
430.70	5033.91
430.91	5025.72
431.12	4951.99
431.33	5081.01
431.54	5113.78
431.75	5072.82
431.96	5062.58
432.17	5040.05
432.38	5056.43
432.59	5302.19
432.80	5279.66
433.01	5275.57
433.22	5160.88
433.43	5343.15
433.64	5244.85
433.85	5431.21
434.06	5416.88
434.27	5201.84
434.49	5431.21
434.70	5457.84
434.91	5388.21
435.12	5418.93
435.33	5406.64
435.54	5328.81
435.75	5187.50
435.96	5337.01
436.17	5386.16
436.38	5595.05
436.59	5584.81
436.80	5427.12
437.01	5588.91
437.22	5781.42
437.43	5582.76
437.64	5461.93
437.85	5615.53
438.06	5640.11
438.27	5613.48
438.48	5590.95
438.69	5760.94
438.90	5629.87
439.11	5576.62
439.32	5742.50
439.53	5744.55
439.74	5740.46
439.95	5762.98
440.16	5707.69
440.37	5910.44
440.57	5722.02
440.78	5986.21
440.99	5842.85
441.20	5932.97
441.41	5740.46
441.62	5941.16
441.83	5846.95
442.04	6104.99
442.25	5953.45
442.46	5930.92
442.67	6137.76
442.88	6455.20
443.09	5930.92
443.30	5904.29
443.51	6145.95
443.72	6303.65
443.93	5998.50
444.14	6363.04
444.35	6172.58
444.56	6277.02
444.77	6326.18
444.98	6145.95
445.19	6252.45
445.40	6352.80
445.61	6406.05
445.81	6299.55
446.02	6428.57
446.23	6348.70
446.44	6248.35
446.65	6406.05
446.86	6303.65
447.07	6434.72
447.28	6719.39
447.49	6508.44
447.70	6399.90
447.91	6586.27
448.12	6668.19
448.33	6711.19
448.54	6746.01
448.74	6623.13
448.95	6672.28
449.16	6653.85
449.37	6979.48
449.58	6762.39
449.79	6991.77
450.00	6610.84
450.21	6959.00
450.42	7057.30
450.63	7094.16
450.84	6959.00
451.05	7010.20
451.25	7020.44
451.46	6950.81
451.67	7155.60
451.88	7171.99
452.09	6911.89
452.30	7131.03
452.51	7196.56
452.72	7313.30
452.93	7370.64
453.13	7241.62
453.34	7223.19
453.55	7292.82
453.76	7227.28
453.97	7686.03
454.18	7321.49
454.39	7597.96
454.60	7514.00
454.81	7501.71
455.01	7593.87
455.22	7481.23
455.43	7718.79
455.64	7886.73
455.85	7864.20
456.06	7933.83
456.27	7636.88
456.48	7696.27
456.68	7821.19
456.89	7999.37
457.10	8048.52
457.31	8009.61
457.52	7905.16
457.73	8005.51
457.94	8402.82
458.14	8179.59
458.35	8578.94
458.56	8341.38
458.77	8069.00
458.98	8394.62
459.19	8451.97
459.39	8456.06
459.60	8658.81
459.81	8267.65
460.02	8697.72
460.23	8578.94
460.44	8789.88
460.65	8769.40
460.85	8947.58
461.06	8808.31
461.27	8531.84
461.48	8890.23
461.69	9211.76
461.89	8900.47
462.10	9056.12
462.31	9037.69
462.52	8976.25
462.73	9109.36
462.94	9262.96
463.14	9203.57
463.35	9037.69
463.56	9703.28
463.77	9426.80
463.98	9332.59
464.18	9465.71
464.39	9588.59
464.60	9740.14
464.81	9873.26
465.02	9721.71
465.23	10129.25
465.43	9817.96
465.64	10014.57
465.85	9996.14
466.06	10073.96
466.27	10133.35
466.47	10245.99
466.68	10231.65
466.89	10063.72
467.10	10508.13
467.30	10180.45
467.51	10473.31
467.72	10874.71
467.93	10401.63
468.14	10501.98
468.34	10499.94
468.55	10719.07
468.76	10702.68
468.97	10549.09
469.17	10796.89
469.38	11005.78
469.59	11134.81
469.80	11003.74
470.01	10970.97
470.21	11282.26
470.42	11140.95
470.63	11288.40
470.84	11351.89
471.04	11478.86
471.25	11329.36
471.46	11450.19
471.67	11820.88
471.87	11671.37
472.08	11933.51
472.29	12091.21
472.50	11550.54
472.70	11892.55
472.91	12017.48
473.12	12148.55
473.33	12113.74
473.53	12386.12
473.74	11978.57
473.95	12525.38
474.16	12685.12
474.36	12400.45
474.57	12746.56
474.78	12814.14
474.99	12920.63
475.19	12756.80
475.40	13016.89
475.61	13231.93
475.81	13305.65
476.02	13363.00
476.23	13262.65
476.44	13410.10
476.64	13561.65
476.85	13502.26
477.06	13535.03
477.27	13926.19
477.47	13915.95
477.68	13975.34
477.89	14098.22
478.09	14040.87
478.30	13932.33
478.51	13979.43
478.71	14151.46
478.92	14554.91
479.13	14708.51
479.34	14501.67
479.54	14708.51
479.75	14706.46
479.96	14804.77
480.16	14923.55
480.37	14937.88
480.58	14999.32
480.78	15347.48
480.99	15152.92
481.20	15451.92
481.41	15372.05
481.61	15525.65
481.82	15709.97
482.03	15740.69
482.23	15566.61
482.44	16000.78
482.65	15929.10
482.85	16187.14
483.06	16125.71
483.27	16221.96
483.47	16125.71
483.68	16183.05
483.89	16457.48
484.09	16510.72
484.30	16467.72
484.51	16623.36
484.71	16709.38
484.92	16668.42
485.13	16959.23
485.33	17080.06
485.54	16725.76
485.75	17342.20
485.95	17471.22
486.16	17497.84
486.37	17301.24
486.57	17557.24
486.78	17616.63
486.98	17403.64
487.19	17665.78
487.40	17866.48
487.60	17706.74
487.81	17987.31
488.02	17839.86
488.22	17977.07
488.43	18126.57
488.64	18208.49
488.84	18403.05
489.05	18259.69
489.25	18632.42
489.46	18808.54
489.67	18509.54
489.87	19183.32
490.08	18833.12
490.29	18900.70
490.49	19199.71
490.70	19355.35
490.90	19408.60
491.11	19330.78
491.32	19181.28
491.52	19433.18
491.73	19547.86
491.94	19492.57
492.14	19500.76
492.35	19711.70
492.55	19912.40
492.76	19906.26
492.97	20074.19
493.17	19910.35
493.38	20016.85
493.58	20254.41
493.79	20448.97
494.00	20057.81
494.20	20401.86
494.41	20537.03
494.61	20469.45
494.82	20563.65
495.02	20707.01
495.23	20885.19
495.44	21001.92
495.64	21030.59
495.85	20930.24
496.05	21323.45
496.26	21126.85
496.47	21571.25
496.67	21616.31
496.88	21616.31
497.08	21479.10
497.29	21618.36
497.49	21356.22
497.70	21845.68
497.91	21638.84
498.11	21616.31
498.32	21954.22
498.52	22052.53
498.73	22261.42
498.93	21972.66
499.14	22449.83
499.34	22419.11
499.55	22378.15
499.76	22163.12
499.96	22550.18
500.17	22677.16
500.37	22724.26
500.58	22793.89
500.78	23092.90
500.99	22884.00
501.19	23004.83
501.40	23096.99
501.60	23072.42
501.81	22990.50
502.02	23355.04
502.22	23140.00
502.43	23402.14
502.63	23473.82
502.84	23758.49
503.04	23492.25
503.25	23651.99
503.45	23340.70
503.66	23850.64
503.86	23854.74
504.07	24057.49
504.27	23799.44
504.48	24411.79
504.68	24192.65
504.89	24462.99
505.09	24202.89
505.30	24624.78
505.50	24919.68
505.71	24354.44
505.91	24522.38
506.12	24813.19
506.32	25028.23
506.53	24737.41
506.73	25077.38
506.94	24964.74
507.14	24833.67
507.35	25112.19
507.55	24938.12
507.76	25208.45
507.96	25441.92
508.17	25138.82
508.37	25470.59
508.58	25663.10
508.78	25308.80
508.99	25810.55
509.19	25718.39
509.40	25659.00
509.60	25816.69
509.81	26097.27
510.01	25933.43
510.22	26244.72
510.42	25894.52
510.63	26181.23
510.83	26320.49
511.04	26234.48
511.24	26533.48
511.44	26318.45
511.65	26543.72
511.85	26435.18
512.06	26752.62
512.26	26723.94
512.47	26945.12
512.67	27043.43
512.88	26721.90
513.08	26824.29
513.29	27076.19
513.49	27100.77
513.69	26961.51
513.90	26883.69
514.10	27012.71
514.31	27514.46
514.51	27430.49
514.72	27442.78
514.92	27592.28
515.13	27508.32
515.33	27672.15
515.53	27776.60
515.74	27788.89
515.94	27811.42
516.15	27911.77
516.35	27643.48
516.56	28139.09
516.76	27897.43
516.96	28302.93
517.17	28454.48
517.37	28149.33
517.58	28302.93
517.78	28165.71
517.99	28800.58
518.19	28698.19
518.39	28724.81
518.60	28761.67
518.80	28798.54
519.01	29308.48
519.21	29058.63
519.41	29449.79
519.62	29130.31
519.82	29328.96
520.03	29087.30
520.23	29394.50
520.43	29445.69
520.64	29400.64
520.84	29869.62
521.05	29730.36
521.25	29847.10
521.45	30053.94
521.66	29922.87
521.86	29843.00
522.07	29961.78
522.27	30176.82
522.47	30211.64
522.68	30705.20
522.88	30449.20
523.08	30953.00
523.29	30449.20
523.49	30610.99
523.70	31190.56
523.90	31184.42
524.10	30817.83
524.31	31194.66
524.51	31016.49
524.71	31264.29
524.92	31315.49
525.12	31518.24
525.33	31512.10
525.53	31637.02
525.73	32034.33
525.94	31807.00
526.14	31845.91
526.34	32282.13
526.55	31882.78
526.75	32163.35
526.95	32646.67
527.16	32077.33
527.36	32366.10
527.56	32888.33
527.77	32456.21
527.97	32574.99
528.17	32839.18
528.38	32585.23
528.58	32957.96
528.78	33201.67
528.99	32861.71
529.19	33381.89
529.39	33011.21
529.60	33615.36
529.80	33484.29
530.00	33580.54
530.21	33617.41
530.41	34039.29
530.61	33545.73
530.82	33848.83
531.02	34194.93
531.22	33936.89
531.43	34524.66
531.63	34072.06
531.83	34106.87
532.04	34661.87
532.24	34403.83
532.44	34862.57
532.64	34997.74
532.85	34964.97
533.05	35026.41
533.25	35306.98
533.46	35020.27
533.66	35241.45
533.86	35608.03
534.07	35665.38
534.27	35558.88
534.47	35743.20
534.67	35673.57
534.88	35663.33
535.08	35902.94
535.28	36443.60
535.49	36099.55
535.69	36533.71
535.89	36206.04
536.09	36097.50
536.30	36472.28
536.50	36392.40
536.70	36756.94
536.91	36636.11
537.11	36795.85
537.31	37299.65
537.51	37289.42
537.72	37492.16
537.92	37027.28
538.12	37625.28
538.32	37375.43
538.53	37529.03
538.73	37662.15
538.93	37615.04
539.13	37240.26
539.34	37594.56
539.54	37463.49
539.74	38237.62
539.94	37862.85
540.15	38049.21
540.35	38354.36
540.55	37754.30
540.75	37823.93
540.96	38106.55
541.16	38135.23
541.36	38460.85
541.56	38507.96
541.77	38487.48
541.97	38553.01
542.17	38471.09
542.37	38929.84
542.58	38407.61
542.78	38798.77
542.98	38507.96
543.18	38669.75
543.38	39267.75
543.59	38872.49
543.79	39222.70
543.99	39191.98
544.19	39589.28
544.40	39069.10
544.60	39245.23
544.80	39351.72
545.00	39280.04
545.20	39650.72
545.41	39620.00
545.61	39337.38
545.81	39673.25
546.01	39720.35
546.21	39533.99
546.42	39628.20
546.62	40002.97
546.82	39736.74
547.02	39736.74
547.22	39949.73
547.43	40054.17
547.63	40088.99
547.83	40023.45
548.03	39880.10
548.23	39943.58
548.44	39949.73
548.64	40111.52
548.84	40285.59
549.04	40301.98
549.24	40207.77
549.45	40748.43
549.65	39986.59
549.85	40222.11
550.05	40539.54
550.25	40211.87
550.45	41121.16
550.66	40254.87
550.86	40330.65
551.06	41000.33
551.26	40777.11
551.46	41223.56
551.66	40904.08
551.87	40230.30
552.07	41280.91
552.27	40490.39
552.47	41053.58
552.67	41194.89
552.87	40945.04
553.07	40981.90
553.28	41309.58
553.48	41366.92
553.68	40856.98
553.88	41237.90
554.08	41160.08
554.28	41244.04
554.48	40805.78
554.69	41266.57
554.89	41270.67
555.09	41178.51
555.29	41039.25
555.49	41577.86
555.69	41235.85
555.89	41362.82
556.10	41766.27
556.30	41029.01
556.50	41889.15
556.70	41276.81
556.90	41667.97
557.10	41629.06
557.30	41428.36
557.50	42044.80
557.70	41756.03
557.91	41899.39
558.11	41514.37
558.31	41747.84
558.51	41594.25
558.71	41901.44
558.91	42001.79
559.11	41997.70
559.31	41481.61
559.51	41850.24
559.72	41872.77
559.92	42179.96
560.12	41796.99
560.32	42120.57
560.52	41846.15
560.72	41846.15
560.92	42268.03
561.12	42370.43
561.32	42399.10
561.52	41774.47
561.72	42567.03
561.93	42118.53
562.13	42229.12
562.33	42194.30
562.53	42868.08
562.73	42071.42
562.93	42214.78
563.13	42595.70
563.33	42468.73
563.53	42595.70
563.73	42431.86
563.93	42476.92
564.13	42931.57
564.33	42485.11
564.53	42603.89
564.74	42560.89
564.94	42440.06
565.14	42376.57
565.34	42536.31
565.54	43087.21
565.74	42683.76
565.94	42968.43
566.14	42704.24
566.34	42517.88
566.54	43099.50
566.74	42556.79
566.94	43152.75
567.14	43236.72
567.34	43009.39
567.54	43210.09
567.74	43038.06
567.94	42878.32
568.14	43414.89
568.34	43089.26
568.54	43089.26
568.74	42982.77
568.94	43103.60
569.14	43943.27
569.34	43324.78
569.54	43371.88
569.75	42888.56
569.95	42966.38
570.15	43793.76
570.35	43627.88
570.55	43474.28
570.75	43629.93
570.95	43523.43
571.15	43507.05
571.35	44016.99
571.55	43916.64
571.75	43566.44
571.95	43869.54
572.15	43668.84
572.35	44045.66
572.55	44047.71
572.75	43879.78
572.95	44039.52
573.15	43967.84
573.35	43920.74
573.55	43681.13
573.75	44303.71
573.95	44485.98
574.15	43900.26
574.35	44133.73
574.55	44559.70
574.75	43709.80
574.95	44514.65
575.15	44391.77
575.34	44393.82
575.54	44729.69
575.74	44805.46
575.94	44766.55
576.14	44631.38
576.34	44854.61
576.54	45270.35
576.74	44897.62
576.94	44598.62
577.14	45094.22
577.34	45325.64
577.54	44813.65
577.74	45075.79
577.94	44840.28
578.14	45876.55
578.34	45712.71
578.54	44811.60
578.74	45040.98
578.94	45620.55
579.14	45272.40
579.34	45761.86
579.54	45653.32
579.74	45860.16
579.94	45913.41
580.13	45927.75
580.33	45843.78
580.53	46040.39
580.73	45696.33
580.93	46294.33
581.13	46007.62
581.33	46304.57
581.53	46957.88
581.73	46427.45
581.93	46515.51
582.13	46554.43
582.33	46419.26
582.53	46595.38
582.73	46374.20
582.92	46470.46
583.12	47103.28
583.32	46527.80
583.52	46658.87
583.72	47107.38
583.92	46918.96
584.12	46935.35
584.32	47209.78
584.52	47064.37
584.72	47410.48
584.92	47846.69
585.11	47652.14
585.31	47809.83
585.51	47600.94
585.71	47678.76
585.91	47885.61
586.11	47932.71
586.31	47682.86
586.51	47660.33
586.71	48069.92
586.91	47971.62
587.10	48231.71
587.30	48493.85
587.50	48385.31
587.70	48336.16
587.90	48235.81
588.10	48364.83
588.30	48438.56
588.50	48504.09
588.69	48489.76
588.89	48547.10
589.09	48690.46
589.29	49153.30
589.49	48964.88
589.69	48755.99
589.89	49354.00
590.08	48936.21
590.28	49442.06
590.48	49319.18
590.68	49184.02
590.88	48958.74
591.08	49147.15
591.28	49030.42
591.47	50015.49
591.67	49356.05
591.87	49427.73
592.07	49372.43
592.27	49747.21
592.47	49831.18
592.67	49696.01
592.86	49841.42
593.06	50242.82
593.26	50265.34
593.46	50066.69
593.66	49837.32
593.86	50578.68
594.05	50593.02
594.25	50627.84
594.45	50134.28
594.65	50001.16
594.85	49855.75
595.05	50744.57
595.24	50922.74
595.44	50279.68
595.64	50420.99
595.84	50705.66
596.04	50783.48
596.23	51250.42
596.43	51289.33
596.63	50937.08
596.83	50701.56
597.03	51320.05
597.22	51567.85
597.42	51514.61
597.62	51561.71
597.82	51797.23
598.02	51328.24
598.21	51696.88
598.41	51301.62
598.61	51928.30
598.81	51842.28
599.01	52016.36
599.20	52008.17
599.40	51971.30
599.60	52495.58
599.80	52159.72
600.00	51934.44
600.19	52577.50
600.39	51975.40
600.59	52290.79
600.79	52952.28
600.98	52483.30
601.18	53195.99
601.38	53052.63
601.58	52942.04
601.78	52878.55
601.97	53112.02
602.17	53642.45
602.37	52784.35
602.57	53050.58
602.76	53507.28
602.96	53273.81
603.16	53544.14
603.36	53656.78
603.55	53849.29
603.75	53462.22
603.95	53742.80
604.15	53880.01
604.34	53761.23
604.54	54193.35
604.74	53925.07
604.94	53908.68
605.13	53982.41
605.33	54154.44
605.53	54131.91
605.73	54236.36
605.92	54709.44
606.12	54314.18
606.32	54535.36
606.52	54295.75
606.71	54179.01
606.91	54860.99
607.11	54365.38
607.30	54754.49
607.50	54482.11
607.70	54846.65
607.90	54934.71
608.09	54918.33
608.29	55073.98
608.49	55125.17
608.68	54926.52
608.88	55092.41
609.08	55071.93
609.28	55315.64
609.47	55293.11
609.67	55530.67
609.87	54985.91
610.06	55325.88
610.26	55184.57
610.46	55749.81
610.66	55256.24
610.85	55219.38
611.05	55188.66
611.25	55751.85
611.44	55502.00
611.64	56054.95
611.84	55223.48
612.03	55440.56
612.23	56122.54
612.43	55684.27
612.62	55487.67
612.82	56085.67
613.02	55635.12
613.21	55508.14
613.41	55714.99
613.61	56280.23
613.80	55567.54
614.00	55852.20
614.20	55970.99
614.39	56054.95
614.59	56163.50
614.79	55872.68
614.98	56001.71
615.18	56161.45
615.38	56245.41
615.57	55569.58
615.77	56212.65
615.97	56556.70
616.16	56034.47
616.36	55968.94
616.56	56130.73
616.75	56341.67
616.95	56034.47
617.15	56493.22
617.34	56071.34
617.54	56497.31
617.74	56325.28
617.93	56546.47
618.13	55450.80
618.32	56140.97
618.52	55930.03
618.72	56200.36
618.91	56845.47
619.11	55616.69
619.31	56691.87
619.50	56163.50
619.70	55932.07
619.90	56013.99
620.09	56005.80
620.29	56550.56
620.48	55811.24
620.68	56331.43
620.88	55798.96
621.07	56067.24
621.27	56325.28
621.46	55657.65
621.66	56052.90
621.86	56005.80
622.05	55485.62
622.25	56573.09
622.44	56212.65
622.64	56030.38
622.84	56198.31
623.03	56032.42
623.23	55858.35
623.42	56046.76
623.62	56102.06
623.82	56519.84
624.01	56057.00
624.21	55923.88
624.40	56069.29
624.60	55927.98
624.80	55776.43
624.99	56016.04
625.19	55524.53
625.38	56513.70
625.58	55645.36
625.77	55659.69
625.97	55930.03
626.17	55760.05
626.36	55702.70
626.56	55973.03
626.75	55600.30
626.95	56059.05
627.14	55604.40
627.34	56075.43
627.54	55391.41
627.73	55786.67
627.93	55612.59
628.12	55729.33
628.32	55837.87
628.51	55768.24
628.71	56071.34
628.90	55755.95
629.10	55186.61
629.30	55882.92
629.49	55729.33
629.69	56001.71
629.88	56040.62
630.08	56104.10
630.27	56169.64
630.47	55413.94
630.66	55616.69
630.86	55887.02
631.05	54944.95
631.25	56269.99
631.44	55919.79
631.64	55864.49
631.84	55923.88
632.03	56253.61
632.23	55749.81
632.42	56331.43
632.62	55819.44
632.81	55502.00
633.01	55825.58
633.20	55811.24
633.40	55669.93
633.59	55594.16
633.79	55790.76
633.98	55880.88
634.18	55692.46
634.37	55596.21
634.57	55538.86
634.76	55655.60
634.96	55977.13
635.15	55801.00
635.35	55762.09
635.54	55473.33
635.74	56054.95
635.93	55518.38
636.13	55903.40
636.32	55755.95
636.52	55299.25
636.71	55561.39
636.91	55610.54
637.10	55647.41
637.30	55676.08
637.49	55864.49
637.69	55342.26
637.88	56013.99
638.08	55323.83
638.27	55762.09
638.46	55481.52
638.66	55332.02
638.85	55731.37
639.05	55549.10
639.24	55846.06
639.44	55467.19
639.63	55596.21
639.83	55579.82
640.02	55913.64
640.22	55248.05
640.41	55743.66
640.61	55241.91
640.80	55604.40
640.99	55809.20
641.19	55762.09
641.38	55737.52
641.58	55608.50
641.77	55633.07
641.97	55377.08
642.16	55153.85
642.36	55336.12
642.55	56050.86
642.74	55555.25
642.94	56104.10
643.13	55536.82
643.33	55737.52
643.52	55866.54
643.72	55663.79
643.91	55241.91
644.10	55698.61
644.30	55590.06
644.49	55792.81
644.69	56153.26
644.88	55391.41
645.08	55098.55
645.27	55166.13
645.46	55139.51
645.66	55784.62
645.85	55563.44
646.05	55393.46
646.24	55651.50
646.43	55329.97
646.63	56001.71
646.82	56024.23
647.02	55483.57
647.21	55391.41
647.40	55415.99
647.60	55422.13
647.79	56214.69
647.99	55805.10
648.18	55491.76
648.37	56399.01
648.57	55700.65
648.76	55665.84
648.96	55465.14
649.15	55477.43
649.34	55717.04
649.54	55467.19
649.73	55547.06
649.92	55887.02
650.12	55497.91
650.31	56030.38
650.51	55323.83
650.70	56046.76
650.89	55219.38
651.09	56026.28
651.28	55930.03
651.47	55366.84
651.67	55721.13
651.86	55747.76
652.06	55342.26
652.25	55319.73
652.44	55499.95
652.64	55172.28
652.83	55465.14
653.02	55229.62
653.22	55303.35
653.41	55514.29
653.60	55182.52
653.80	55176.37
653.99	55530.67
654.18	55407.79
654.38	55508.14
654.57	55454.90
654.76	55801.00
654.96	55639.22
655.15	55569.58
655.34	55448.75
655.54	55147.70
655.73	55235.77
655.92	55657.65
656.12	55225.53
656.31	55383.22
656.50	55805.10
656.70	55612.59
656.89	55516.34
657.08	55604.40
657.28	55413.94
657.47	55413.94
657.66	55200.95
657.86	55514.29
658.05	55497.91
658.24	55452.85
658.43	55067.83
658.63	55303.35
658.82	55346.36
659.01	55348.40
659.21	55475.38
659.40	55080.12
659.59	55553.20
659.79	55436.47
659.98	55549.10
660.17	55485.62
660.36	55403.70
660.56	55403.70
660.75	55553.20
660.94	55375.03
661.14	55528.62
661.33	55299.25
661.52	55444.66
661.71	55790.76
661.91	55137.46
662.10	55289.01
662.29	55350.45
662.49	55637.17
662.68	55579.82
662.87	55393.46
663.06	55442.61
663.26	54977.72
663.45	55104.70
663.64	55403.70
663.83	55592.11
664.03	55418.03
664.22	55278.77
664.41	55090.36
664.60	54738.11
664.80	55641.26
664.99	55102.65
665.18	54881.47
665.37	55405.75
665.57	55409.84
665.76	55129.27
665.95	55143.61
666.14	55276.72
666.34	55014.58
666.53	55389.36
666.72	54967.48
666.91	54953.15
667.11	55280.82
667.30	54955.19
667.49	55229.62
667.68	55033.02
667.87	54793.40
668.07	55549.10
668.26	55270.58
668.45	55256.24
668.64	54811.84
668.84	55434.42
669.03	55338.16
669.22	55182.52
669.41	55125.17
669.60	55567.54
669.80	55149.75
669.99	55385.27
670.18	55458.99
670.37	55340.21
670.57	55518.38
670.76	54858.94
670.95	55203.00
671.14	55364.79
671.33	54852.80
671.53	55526.58
671.72	55678.13
671.91	55602.35
672.10	55045.30
672.29	55153.85
672.48	55127.22
672.68	55706.80
672.87	55215.29
673.06	54879.42
673.25	55028.92
673.44	54672.57
673.64	54465.73
673.83	55047.35
674.02	55346.36
674.21	54639.81
674.40	55235.77
674.59	54903.99
674.79	55012.54
674.98	54895.80
675.17	55221.43
675.36	54666.43
675.55	55178.42
675.74	55055.54
675.94	54766.78
676.13	54830.27
676.32	55319.73
676.51	55139.51
676.70	54990.01
676.89	55076.02
677.08	54965.43
677.28	54916.28
677.47	54875.32
677.66	55149.75
677.85	55088.31
678.04	55092.41
678.23	55026.87
678.42	55567.54
678.62	54867.13
678.81	55143.61
679.00	54650.05
679.19	55428.27
679.38	54697.15
679.57	54684.86
679.76	54768.83
679.96	55309.49
680.15	54547.65
680.34	54785.21
680.53	54951.10
680.72	54791.36
680.91	55293.11
681.10	54793.40
681.29	55076.02
681.48	55016.63
681.68	55178.42
681.87	55041.21
682.06	54899.90
682.25	54572.22
682.44	54324.42
682.63	55108.79
682.82	54686.91
683.01	54201.54
683.20	54283.46
683.39	54731.96
683.59	54232.26
683.78	54181.06
683.97	54594.75
684.16	54779.07
684.35	54465.73
684.54	54480.06
684.73	54551.74
684.92	54707.39
685.11	54412.48
685.30	54738.11
685.49	54797.50
685.69	54514.88
685.88	54574.27
686.07	54402.24
686.26	54871.23
686.45	55022.78
686.64	54922.43
686.83	54289.60
687.02	54697.15
687.21	54543.55
687.40	54551.74
687.59	54238.40
687.78	54500.54
687.97	55233.72
688.16	54430.91
688.35	54359.23
688.54	54058.18
688.74	54406.34
688.93	54236.36
689.12	54492.35
689.31	54703.29
689.50	54617.28
689.69	54072.52
689.88	53849.29
690.07	54441.15
690.26	54338.75
690.45	54781.12
690.64	54138.05
690.83	54469.82
691.02	54484.16
691.21	54342.85
691.40	53761.23
691.59	54144.20
691.78	53982.41
691.97	54326.47
692.16	54387.91
692.35	54332.61
692.54	54392.00
692.73	54262.98
692.92	54217.92
693.11	54564.03
693.30	54310.08
693.49	54242.50
693.68	54035.66
693.87	54154.44
694.06	54078.66
694.25	53560.53
694.44	53996.74
694.63	54262.98
694.82	54238.40
695.01	54095.05
695.20	53912.78
695.39	53892.30
695.58	53734.60
695.77	54121.67
695.96	53888.20
696.15	53880.01
696.34	54023.37
696.53	53996.74
696.72	53957.83
696.91	53847.24
697.10	54123.72
697.29	54060.23
697.48	54185.16
697.67	53841.10
697.86	53763.28
698.05	53605.58
698.24	54416.58
698.43	53638.35
698.62	54080.71
698.81	53585.10
699.00	54084.81
699.19	53486.80
699.38	53449.94
699.57	53589.20
699.76	54043.85
699.95	53863.63
700.14	53451.98
700.32	53564.62
700.51	53468.37
700.70	53992.65
700.89	54197.44
701.08	53605.58
701.27	53626.06
701.46	53826.76
701.65	53232.85
701.84	53818.57
702.03	54076.61
702.22	53884.11
702.41	53556.43
702.60	53474.51
702.79	53918.92
702.98	53404.88
703.17	53527.76
703.35	53118.17
703.54	53664.97
703.73	54002.89
703.92	53316.82
704.11	53808.33
704.30	53419.22
704.49	53400.79
704.68	53540.05
704.87	53556.43
705.06	53290.19
705.25	52917.46
705.43	53261.52
705.62	53544.14
705.81	53349.59
706.00	53482.70
706.19	53462.22
706.38	52968.66
706.57	53470.42
706.76	52747.48
706.95	53384.40
707.14	53089.49
707.32	53144.79
707.51	52747.48
707.70	52808.92
707.89	53257.43
708.08	53032.15
708.27	53204.18
708.46	53417.17
708.65	52471.01
708.84	53097.69
709.02	53128.41
709.21	52813.02
709.40	53040.34
709.59	52964.57
709.78	52608.22
709.97	53554.38
710.16	53095.64
710.34	52806.87
710.53	53103.83
710.72	52815.07
710.91	53122.26
711.10	53273.81
711.29	52753.63
711.48	52602.08
711.66	53058.77
711.85	52528.35
712.04	52999.38
712.23	53001.43
712.42	52579.55
712.61	53023.96
712.80	52710.62
712.98	52831.45
713.17	52335.84
713.36	52577.50
713.55	52712.67
713.74	52337.89
713.93	52817.11
714.11	52784.35
714.30	52413.66
714.49	52434.14
714.68	52630.75
714.87	52364.51
715.06	52968.66
715.24	52249.83
715.43	52055.27
715.62	52147.43
715.81	52403.42
716.00	52475.10
716.18	52137.19
716.37	52571.36
716.56	52104.42
716.75	52534.49
716.94	52337.89
717.12	51746.03
717.31	52358.37
717.50	52559.07
717.69	52167.91
717.88	51918.06
718.06	52073.70
718.25	52159.72
718.44	51961.06
718.63	51952.87
718.82	51344.62
719.00	52081.89
719.19	52024.55
719.38	51451.12
719.57	51524.85
719.76	51397.87
719.94	51234.03
720.13	51553.52
720.32	51496.17
720.51	52083.94
720.69	50894.07
720.88	51285.23
721.07	51217.65
721.26	50914.55
721.44	50779.39
721.63	51074.29
721.82	50967.80
722.01	50722.04
722.20	51100.92
722.38	50547.96
722.57	50789.62
722.76	50838.78
722.95	50959.61
723.13	50468.09
723.32	50611.45
723.51	50357.50
723.70	50560.25
723.88	50564.35
724.07	49939.72
724.26	50429.18
724.44	49722.63
724.63	50648.32
724.82	50320.64
725.01	50371.84
725.19	50197.76
725.38	50504.96
725.57	50132.23
725.76	50597.12
725.94	50095.36
726.13	50021.64
726.32	50613.50
726.51	49681.67
726.69	50861.30
726.88	50126.08
727.07	50033.92
727.25	49888.52
727.44	49878.28
727.63	50035.97
727.82	49732.87
728.00	49673.48
728.19	49448.21
728.38	50377.98
728.56	49607.95
728.75	50246.91
728.94	49714.44
729.12	49896.71
729.31	49788.17
729.50	50062.60
729.69	49599.76
729.87	50054.40
730.06	49624.33
730.25	50015.49
730.43	49939.72
730.62	49857.80
730.81	49980.68
730.99	50246.91
731.18	49644.81
731.37	50027.78
731.55	50087.17
731.74	50283.78
731.93	50060.55
732.11	49876.23
732.30	49538.32
732.49	49765.64
732.67	50009.35
732.86	49564.94
733.05	49624.33
733.23	49325.33
733.42	49546.51
733.61	49579.28
733.79	49429.77
733.98	50216.19
734.17	50093.32
734.35	49478.92
734.54	49458.45
734.73	50054.40
734.91	49472.78
735.10	49415.44
735.29	49538.32
735.47	49075.48
735.66	49653.00
735.84	49747.21
736.03	48956.69
736.22	49927.43
736.40	49958.15
736.59	49407.25
736.78	49347.86
736.96	49276.18
737.15	49124.63
737.33	49055.00
737.52	49087.76
737.71	48739.61
737.89	48719.13
738.08	48575.77
738.27	49323.28
738.45	49403.15
738.64	49411.34
738.82	48938.26
739.01	48993.56
739.20	49255.70
739.38	48897.30
739.57	49517.84
739.75	49138.96
739.94	48995.60
740.13	49001.75
740.31	48680.22
740.50	48581.91
740.68	48964.88
740.87	49071.38
741.06	48915.73
741.24	48979.22
741.43	48821.53
741.61	48960.79
741.80	48123.17
741.99	48610.59
742.17	48573.72
742.36	48733.46
742.54	48563.48
742.73	48211.23
742.91	48938.26
743.10	48471.32
743.29	48489.76
743.47	48762.14
743.66	48065.83
743.84	48583.96
744.03	48661.79
744.21	47732.01
744.40	48764.18
744.59	48155.94
744.77	47875.37
744.96	48123.17
745.14	48276.77
745.33	48223.52
745.51	47815.97
745.70	48162.08
745.88	47775.02
746.07	47910.18
746.26	47818.02
746.44	47547.69
746.63	48117.03
746.81	47775.02
747.00	47908.13
747.18	47668.52
747.37	47758.63
747.55	47678.76
747.74	48057.63
747.92	47193.39
748.11	47437.10
748.29	47654.18
748.48	47600.94
748.66	47306.03
748.85	47207.73
749.03	47287.60
749.22	47533.35
749.41	47086.90
749.59	47371.57
749.78	47242.54
749.96	46892.34
750.15	47142.19
750.33	47242.54
750.52	47158.58
750.70	46988.60
750.89	47127.86
751.07	47240.50
751.26	46847.29
751.44	46724.41
751.63	46773.56
751.81	46007.62
752.00	46503.23
752.18	46734.65
752.37	46630.20
752.55	46400.83
752.74	46628.15
752.92	46464.32
753.10	46327.10
753.29	46499.13
753.47	46437.69
753.66	46193.98
753.84	46038.34
754.03	46452.03
754.21	46054.72
754.40	46056.77
754.58	46497.08
754.77	46011.71
754.95	45393.23
755.14	45815.11
755.32	45952.32
755.51	45385.04
755.69	45479.24
755.88	45167.95
756.06	45878.60
756.24	45356.36
756.43	45223.25
756.61	45356.36
756.80	45020.50
756.98	45419.85
757.17	45372.75
757.35	45335.88
757.54	45075.79
757.72	45440.33
757.90	45067.60
758.09	45102.42
758.27	45352.27
758.46	45100.37
758.64	44860.76
758.83	45389.13
759.01	45016.40
759.19	44711.25
759.38	45356.36
759.56	45425.99
759.75	45038.93
759.93	44864.85
760.12	44371.29
760.30	44692.82
760.48	44629.34
760.67	44436.83
760.85	44430.68
761.04	44481.88
761.22	44481.88
761.40	44602.71
761.59	44236.12
761.77	44279.13
761.96	44379.48
762.14	44107.10
762.32	43773.28
762.51	43935.07
762.69	44164.45
762.88	44043.62
763.06	44080.48
763.24	43736.42
763.43	44096.86
763.61	43259.24
763.80	43900.26
763.98	43781.48
764.16	43674.98
764.35	43513.19
764.53	43345.26
764.72	43406.70
764.90	43636.07
765.08	43691.37
765.27	43349.35
765.45	43447.66
765.63	42468.73
765.82	43103.60
766.00	42648.95
766.18	43507.05
766.37	43484.52
766.55	43162.99
766.74	42882.42
766.92	42876.27
767.10	42855.79
767.29	42669.43
767.47	42472.82
767.65	42937.71
767.84	42573.17
768.02	42925.42
768.20	42401.14
768.39	42601.85
768.57	42372.47
768.75	42601.85
768.94	42468.73
769.12	42468.73
769.30	42034.56
769.49	42235.26
769.67	42159.48
769.85	41690.50
770.04	41932.16
770.22	41819.52
770.40	41833.86
770.59	41516.42
770.77	41979.26
770.95	42003.84
771.14	41667.97
771.32	41377.16
771.50	41444.74
771.69	41588.10
771.87	41297.29
772.05	41493.89
772.24	40605.08
772.42	41608.58
772.60	41645.44
772.78	40889.74
772.97	40883.60
773.15	41231.75
773.33	41145.74
773.52	40557.97
773.70	41168.27
773.88	40893.84
774.07	41037.20
774.25	41127.31
774.43	41559.43
774.61	41262.47
774.80	41086.35
774.98	40781.20
775.16	40832.40
775.34	41129.36
775.53	40693.14
775.71	41057.68
775.89	40904.08
776.08	41168.27
776.26	41192.84
776.44	40836.50
776.62	41162.12
776.81	41043.34
776.99	40736.15
777.17	40764.82
777.35	40977.81
777.54	41022.86
777.72	40764.82
777.90	40746.39
778.08	41219.47
778.27	41096.59
778.45	41375.11
778.63	41465.22
778.81	41123.21
779.00	41483.66
779.18	40940.94
779.36	41454.98
779.54	40998.29
779.73	40705.43
779.91	41559.43
780.09	41342.35
780.27	41330.06
780.46	41395.59
780.64	41401.74
780.82	41237.90
781.00	41356.68
781.19	41442.70
781.37	41612.68
781.55	41672.07
781.73	41497.99
781.91	41280.91
782.10	41342.35
782.28	41112.97
782.46	41256.33
782.64	41553.29
782.82	41584.01
783.01	41321.87
783.19	41620.87
783.37	41213.32
783.55	41293.19
783.74	41899.39
783.92	41598.34
784.10	41653.64
784.28	41633.16
784.46	41422.22
784.64	41198.99
784.83	41336.20
785.01	41465.22
785.19	41670.02
785.37	41655.68
785.55	41432.46
785.74	41131.40
785.92	41076.11
786.10	41575.81
786.28	41270.67
786.46	41180.56
786.64	40723.86
786.83	41280.91
787.01	40818.07
787.19	40973.71
787.37	41184.65
787.55	40934.80
787.74	40398.23
787.92	40785.30
788.10	40621.46
788.28	40400.28
788.46	40566.16
788.64	40607.12
788.82	40994.19
789.01	40211.87
789.19	40580.50
789.37	40283.55
789.55	40234.39
789.73	39908.77
789.91	40048.03
790.09	39947.68
790.28	39765.41
790.46	39556.52
790.64	39894.43
790.82	39495.08
791.00	39884.19
791.18	39597.48
791.36	39720.35
791.55	39730.59
791.73	39562.66
791.91	39427.49
792.09	39499.17
792.27	39550.37
792.45	39118.25
792.63	38956.46
792.81	38981.04
793.00	38643.12
793.18	38679.99
793.36	38661.55
793.54	38458.81
793.72	38497.72
793.90	38419.89
794.08	38231.48
794.26	38315.45
794.44	37834.17
794.62	37844.41
794.81	38178.23
794.99	37785.02
795.17	38352.31
795.35	38020.54
795.53	37686.72
795.71	38002.11
795.89	37307.85
796.07	37436.87
796.25	37518.79
796.43	37619.14
796.61	37090.76
796.80	36910.54
796.98	36726.22
797.16	36996.56
797.34	36826.57
797.52	36867.53
797.70	37182.92
797.88	36785.61
798.06	36509.14
798.24	36822.48
798.42	36382.16
798.60	36150.74
798.78	36154.84
798.96	36193.75
799.14	35904.99
799.32	36398.55
799.51	36046.30
799.69	36216.28
799.87	36122.07
800.05	35532.26
800.23	35798.49
800.41	35573.22
800.59	35632.61
800.77	35468.77
800.95	35280.36
801.13	35231.21
801.31	35251.69
801.49	35175.91
801.67	35063.27
801.85	34874.86
802.03	34786.80
802.21	34856.43
802.39	34696.69
802.57	34559.47
802.75	34416.11
802.93	34491.89
803.11	34463.22
803.29	34547.18
803.47	34106.87
803.65	34080.25
803.83	33938.94
804.01	34174.45
804.19	33613.31
804.37	33545.73
804.55	34061.82
804.73	34033.14
804.91	33820.16
805.09	33598.98
805.27	33658.37
805.45	33650.17
805.63	33459.71
805.81	33498.62
805.99	33506.82
806.17	33410.56
806.35	32972.30
806.53	33222.15
806.71	33269.25
806.89	33226.24
807.07	32859.66
807.25	33013.26
807.43	32853.51
807.61	32953.87
807.79	32470.54
807.97	32607.76
808.15	32267.80
808.33	32218.64
808.51	32192.02
808.69	32364.05
808.87	32208.40
809.05	32001.56
809.23	31837.72
809.41	31948.31
809.59	31745.56
809.77	32198.16
809.95	31782.43
810.13	32091.67
810.31	31700.51
810.49	31718.94
810.67	31520.29
810.84	31755.80
811.02	31591.97
811.20	31157.80
811.38	31383.07
811.56	30899.75
811.74	31102.50
811.92	31098.41
812.10	31280.67
812.28	31491.62
812.46	31041.06
812.64	31045.16
812.82	30553.65
813.00	30748.20
813.18	30715.44
813.36	30590.51
813.53	30516.78
813.71	30334.51
813.89	30557.74
814.07	30309.94
814.25	30531.12
814.43	30639.66
814.61	30164.53
814.79	30277.17
814.97	30025.27
815.15	30301.75
815.33	29713.98
815.50	29634.11
815.68	29949.50
815.86	29926.97
816.04	29677.12
816.22	29627.96
816.40	29750.84
816.58	29894.20
816.76	29662.78
816.94	29517.37
817.11	29595.20
817.29	29161.03
817.47	29337.15
817.65	29113.92
817.83	29275.71
818.01	29240.90
818.19	28845.64
818.37	29374.02
818.54	29173.31
818.72	28751.43
818.90	29199.94
819.08	29107.78
819.26	29130.31
819.44	28761.67
819.62	28788.30
819.80	28698.19
819.97	28958.28
820.15	28745.29
820.33	28563.02
820.51	28401.23
820.69	28526.16
820.87	28675.66
821.05	28890.70
821.22	28583.50
821.40	28495.44
821.58	28378.70
821.76	28292.69
821.94	28208.72
822.12	28419.66
822.29	28335.70
822.47	27991.64
822.65	28552.78
822.83	28063.32
823.01	28210.77
823.19	27860.57
823.36	27997.78
823.54	27555.42
823.72	27913.81
823.90	27743.83
824.08	27543.13
824.25	27924.05
824.43	27653.72
824.61	27430.49
824.79	27463.26
824.97	27600.47
825.15	27500.12
825.32	27569.76
825.50	27524.70
825.68	27280.99
825.86	27573.85
826.04	27473.50
826.21	27311.71
826.39	27450.97
826.57	27354.72
826.75	26910.31
826.93	27065.96
827.10	26728.04
827.28	27123.30
827.46	27313.76
827.64	26994.28
827.81	26560.11
827.99	27033.19
828.17	26682.98
828.35	26654.31
828.53	26742.38
828.70	26887.78
828.88	26355.31
829.06	26908.26
829.24	26539.63
829.41	26805.86
829.59	26836.58
829.77	26396.27
829.95	26324.59
830.12	26347.12
830.30	26680.94
830.48	26302.06
830.66	26224.24
830.84	26596.97
831.01	26308.21
831.19	26394.22
831.37	26541.68
831.55	26089.07
831.72	26279.54
831.90	26377.84
832.08	26222.19
832.25	26238.58
832.43	25710.20
832.61	26093.17
832.79	25751.16
832.96	25575.03
833.14	25826.93
833.32	26478.19
833.50	26060.40
833.67	25822.84
833.85	25831.03
834.03	25579.13
834.20	25841.27
834.38	25677.43
834.56	25947.76
834.74	25708.15
834.91	25607.80
835.09	25656.95
835.27	25421.44
835.44	25464.44
835.62	25034.37
835.80	25312.89
835.98	25493.12
836.15	25536.12
836.33	25480.83
836.51	25329.28
836.68	24854.15
836.86	25167.49
837.04	24954.50
837.21	25126.53
837.39	25345.66
837.57	25314.94
837.75	25478.78
837.92	24800.90
838.10	25163.39
838.28	24794.76
838.45	25071.23
838.63	24727.17
838.81	24778.37
838.98	24743.56
839.16	24733.32
839.34	24579.72
839.51	24665.74
839.69	24589.96
839.87	24544.91
840.04	24510.09
840.22	24753.80
840.40	24706.70
840.57	24221.33
840.75	24465.03
840.93	24264.33
841.10	24602.25
841.28	24549.00
841.46	24471.18
841.63	24630.92
841.81	24374.92
841.98	24440.46
842.16	24430.22
842.34	24286.86
842.51	24110.74
842.69	24252.05
842.87	24323.72
843.04	24196.75
843.22	24106.64
843.40	24174.22
843.57	23897.75
843.75	24262.29
843.92	23965.33
844.10	24037.01
844.28	24213.13
844.45	23856.79
844.63	24161.94
844.81	23910.04
844.98	24055.44
845.16	23670.42
845.33	24112.78
845.51	24065.68
845.69	23854.74
845.86	23692.95
846.04	23701.14
846.21	23910.04
846.39	23613.08
846.57	23719.57
846.74	23703.19
846.92	23692.95
847.09	23406.23
847.27	23375.52
847.45	23107.23
847.62	23746.20
847.80	23570.07
847.97	23387.80
848.15	23133.86
848.32	23140.00
848.50	23375.52
848.68	23017.12
848.85	23424.67
849.03	23158.43
849.20	23211.68
849.38	23230.11
849.56	23109.28
849.73	23045.79
849.91	23006.88
850.08	23074.46
850.26	22914.72
850.43	23041.70
850.61	22949.54
850.78	22892.19
850.96	22881.95
851.14	22705.83
851.31	22972.07
851.49	22832.80
851.66	23010.98
851.84	22525.61
852.01	22963.87
852.19	22443.69
852.36	22562.47
852.54	22634.15
852.71	22720.17
852.89	22824.61
853.07	22709.93
853.24	22742.69
853.42	22617.77
853.59	22529.70
853.77	22632.10
853.94	22867.62
854.12	22525.61
854.29	22316.72
854.47	22648.49
854.64	22111.92
854.82	22511.27
854.99	22722.21
855.17	22548.14
855.34	22429.35
855.52	22406.83
855.69	22392.49
855.87	22099.63
856.04	21935.79
856.22	21968.56
856.39	21882.55
856.57	22011.57
856.74	21997.23
856.92	21995.18
857.09	21696.18
857.27	21825.20
857.44	22306.48
857.62	21968.56
857.79	21876.40
857.97	21919.41
858.14	21847.73
858.32	21786.29
858.49	21796.53
858.67	21515.96
858.84	21872.31
859.02	21831.35
859.19	21710.52
859.37	21595.83
859.54	21749.43
859.72	21606.07
859.89	21759.67
860.06	21591.73
860.24	21511.86
860.41	21700.28
860.59	21352.12
860.76	21593.78
860.94	21343.93
861.11	21571.25
861.29	21382.84
861.46	21421.75
861.64	21145.28
861.81	21128.89
861.98	21034.69
862.16	21192.38
862.33	21055.17
862.51	20887.23
862.68	20815.55
862.86	20942.53
863.03	20948.67
863.21	21108.41
863.38	21141.18
863.55	21157.57
863.73	21262.01
863.90	20993.73
864.08	21024.45
864.25	20942.53
864.43	20920.00
864.60	20983.49
864.77	20803.27
864.95	20971.20
865.12	20526.79
865.30	20854.47
865.47	20526.79
865.64	20674.24
865.82	20950.72
865.99	20809.41
866.17	20684.48
866.34	20735.68
866.51	20371.15
866.69	20686.53
866.86	20485.83
867.04	20512.46
867.21	20739.78
867.38	20362.95
867.56	20463.30
867.73	20469.45
867.91	20463.30
868.08	20291.27
868.25	20152.01
868.43	20147.92
868.60	20274.89
868.78	19850.96
868.95	20422.34
869.12	20147.92
869.30	20022.99
869.47	20246.22
869.64	19930.83
869.82	20184.78
869.99	20045.52
870.16	20098.77
870.34	19744.47
870.51	20360.91
870.69	19791.57
870.86	20014.80
871.03	19861.20
871.21	19756.75
871.38	19726.04
871.55	19936.98
871.73	19678.93
871.90	19361.50
872.07	19551.96
872.25	19363.54
872.42	19384.02
872.59	19457.75
872.77	19424.98
872.94	19668.69
873.11	19486.42
873.29	19443.42
873.46	19279.58
873.63	19312.35
873.81	19189.47
873.98	19265.24
874.15	19211.99
874.33	18956.00
874.50	18956.00
874.67	19146.46
874.85	18908.90
875.02	18964.19
875.19	18751.20
875.37	18751.20
875.54	18714.34
875.71	18908.90
875.88	18577.12
876.06	18767.59
876.23	18691.81
876.40	18747.11
876.58	18530.02
876.75	18392.81
876.92	18702.05
877.10	18816.74
877.27	18517.73
877.44	18603.75
877.61	18441.96
877.79	18444.01
877.96	18468.58
878.13	18351.85
878.31	18188.01
878.48	18386.66
878.65	18020.08
878.82	18398.95
879.00	18413.29
879.17	18183.91
879.34	18034.41
879.51	18038.51
879.69	17975.02
879.86	17870.58
880.03	17708.79
880.21	17942.25
880.38	17856.24
880.55	18312.94
880.72	17833.71
880.90	18050.80
881.07	18018.03
881.24	17663.73
881.41	18091.76
881.59	17600.24
881.76	17751.79
881.93	17655.54
882.10	17313.53
882.28	17542.90
882.45	17467.13
882.62	17573.62
882.79	17858.29
882.96	17473.27
883.14	17598.20
883.31	17567.48
883.48	17491.70
883.65	17569.52
883.83	17630.96
884.00	17518.32
884.17	17319.67
884.34	17477.37
884.51	17719.03
884.69	17280.76
884.86	17260.28
885.03	17534.71
885.20	17252.09
885.38	17350.39
885.55	17002.24
885.72	17116.92
885.89	16912.13
886.06	17024.76
886.24	17014.52
886.41	17135.35
886.58	17319.67
886.75	17178.36
886.92	16850.69
887.10	17260.28
887.27	16967.42
887.44	17293.05
887.61	17211.13
887.78	16975.61
887.95	17112.83
888.13	16908.03
888.30	16809.73
888.47	16840.45
888.64	16758.53
888.81	16809.73
888.99	16715.52
889.16	16715.52
889.33	16830.21
889.50	16631.55
889.67	16537.35
889.84	16400.13
890.01	16537.35
890.19	16471.81
890.36	16543.49
890.53	16320.26
890.70	16406.28
890.87	16213.77
891.04	16207.62
891.22	16518.92
891.39	16365.32
891.56	16256.78
891.73	16322.31
891.90	15982.35
892.07	15988.49
892.24	16375.56
892.42	16326.41
892.59	16174.86
892.76	16129.80
892.93	16101.13
893.10	16654.08
893.27	16176.91
893.44	16181.00
893.61	15953.68
893.79	16129.80
893.96	16082.70
894.13	16070.41
894.30	16105.23
894.47	16064.27
894.64	16221.96
894.81	15935.24
894.98	16148.23
895.15	16152.33
895.33	15959.82
895.50	15828.75
895.67	16017.16
895.84	16033.55
896.01	15828.75
896.18	15685.39
896.35	15666.96
896.52	15898.38
896.69	15939.34
896.86	15740.69
897.04	15877.90
897.21	15763.22
897.38	15746.83
897.55	15726.35
897.72	15914.77
897.89	15777.55
898.06	15873.81
898.23	15947.53
898.40	15793.94
898.57	15984.40
898.74	16043.79
898.91	15953.68
899.08	15877.90
899.26	15957.77
899.43	16051.98
899.60	15865.61
899.77	15978.25
899.94	15548.18
900.11	15752.98
900.28	15808.27
900.45	15787.79
900.62	15828.75
900.79	16043.79
900.96	15728.40
901.13	15537.94
901.30	15599.38
901.47	15589.14
901.64	15785.74
901.81	15841.04
901.98	15566.61
902.15	15849.23
902.32	15480.60
902.49	15763.22
902.66	15720.21
902.83	16080.65
903.01	15869.71
903.18	15593.23
903.35	15697.68
903.52	15658.77
903.69	15916.81
903.86	15914.77
904.03	15701.78
904.20	15728.40
904.37	15849.23
904.54	15701.78
904.71	15773.46
904.88	15589.14
905.05	15679.25
905.22	15865.61
905.39	15507.22
905.56	15781.65
905.73	15410.96
905.90	15746.83
906.07	15795.98
906.24	15898.38
906.41	15617.81
906.58	15863.57
906.75	15617.81
906.92	15501.08
907.09	15709.97
907.26	15673.10
907.43	15492.88
907.60	15546.13
907.77	16191.24
907.93	15769.36
908.10	15621.91
908.27	15853.33
908.44	15568.66
908.61	15322.90
908.78	15603.47
908.95	15539.99
909.12	15353.62
909.29	15726.35
909.46	15445.78
909.63	15417.11
909.80	15478.55
909.97	15548.18
910.14	15390.49
910.31	15531.80
910.48	15451.92
910.65	15302.42
910.82	15343.38
910.99	15599.38
911.16	15388.44
911.33	15363.86
911.50	15132.44
911.66	15226.65
911.83	15451.92
912.00	15372.05
912.17	15165.21
912.34	15226.65
912.51	15300.37
912.68	15142.68
912.85	15171.35
913.02	15081.24
913.19	15132.44
913.36	15087.39
913.53	15140.63
913.70	14995.23
913.86	15111.96
914.03	15025.95
914.20	14966.56
914.37	14946.08
914.54	14847.77
914.71	14849.82
914.88	14903.07
915.05	14815.01
915.22	14749.47
915.39	14704.42
915.55	14640.93
915.72	14630.69
915.89	14599.97
916.06	14241.57
916.23	14645.02
916.40	14556.96
916.57	14466.85
916.74	14503.71
916.91	14399.27
917.07	14024.49
917.24	14354.21
917.41	14307.11
917.58	14583.59
917.75	14278.44
917.92	14038.83
918.09	14063.40
918.26	13979.43
918.42	14073.64
918.59	14145.32
918.76	14083.88
918.93	13829.93
919.10	13864.75
919.27	13893.42
919.44	13985.58
919.60	13854.51
919.77	13825.84
919.94	13532.98
920.11	13686.58
920.28	13819.69
920.45	13586.22
920.61	13461.30
920.78	13629.23
920.95	13506.35
921.12	13180.73
921.29	13446.96
921.46	13520.69
921.62	13274.93
921.79	13293.37
921.96	13334.32
922.13	13035.32
922.30	13025.08
922.47	13037.37
922.63	13031.23
922.80	13033.27
922.97	13096.76
923.14	12742.46
923.31	12971.83
923.47	12648.26
923.64	13016.89
923.81	12814.14
923.98	12588.86
924.15	12422.98
924.32	12537.66
924.48	12754.75
924.65	12662.59
924.82	12279.62
924.99	12298.05
925.15	12179.27
925.32	12406.59
925.49	12197.70
925.66	12191.56
925.83	12293.96
925.99	12074.82
926.16	12289.86
926.33	12226.37
926.50	11808.59
926.67	11980.62
926.83	11841.36
927.00	11910.99
927.17	11814.73
927.34	11753.29
927.50	11675.47
927.67	11876.17
927.84	11665.23
928.01	11677.52
928.17	11464.53
928.34	11413.33
928.51	11423.57
928.68	11155.29
928.84	11364.18
929.01	11261.78
929.18	11163.48
929.35	11186.01
929.51	11212.63
929.68	11026.26
929.85	10872.67
930.02	11050.84
930.18	11071.32
930.35	10995.54
930.52	10882.91
930.69	10868.57
930.85	10878.81
931.02	10700.64
931.19	10596.19
931.36	10776.41
931.52	10628.96
931.69	10659.68
931.86	10643.29
932.02	10491.74
932.19	10301.28
932.36	10291.04
932.53	10389.35
932.69	10227.56
932.86	10377.06
933.03	10200.93
933.19	10049.38
933.36	10008.42
933.53	10145.64
933.70	9920.36
933.86	9897.83
934.03	9867.11
934.20	9754.48
934.36	9772.91
934.53	9750.38
934.70	9434.99
934.86	9363.31
935.03	9334.64
935.20	9281.39
935.36	9244.53
935.53	9144.18
935.70	9207.67
935.86	9291.63
936.03	9023.35
936.20	8757.11
936.36	9035.64
936.53	8779.64
936.70	8830.84
936.86	8806.27
937.03	8757.11
937.20	8411.01
937.36	8386.43
937.53	8277.89
937.70	8130.44
937.86	8175.49
938.03	8099.72
938.20	8118.15
938.36	7950.21
938.53	7948.17
938.70	7587.72
938.86	7749.51
939.03	7630.73
939.20	7462.80
939.36	7405.46
939.53	7366.54
939.70	7409.55
939.86	7061.40
940.03	7106.45
940.19	6918.04
940.36	7038.87
940.53	6866.84
940.69	6786.97
940.86	6774.68
941.03	6768.54
941.19	6623.13
941.36	6475.68
941.52	6440.86
941.69	6547.36
941.86	6426.53
942.02	6246.30
942.19	6332.32
942.35	6315.94
942.52	6332.32
942.69	6254.50
942.85	5932.97
943.02	6023.08
943.18	5975.97
943.35	6000.55
943.52	5816.23
943.68	5760.94
943.85	5881.77
944.01	5644.20
944.18	5674.92
944.35	5762.98
944.51	5517.23
944.68	5554.09
944.84	5621.67
945.01	5521.32
945.17	5638.06
945.34	5650.35
945.51	5586.86
945.67	5478.32
945.84	5601.19
946.00	5466.03
946.17	5560.24
946.33	5449.64
946.50	5533.61
946.67	5451.69
946.83	5390.25
947.00	5482.41
947.16	5463.98
947.33	5461.93
947.49	5429.17
947.66	5212.08
947.82	5367.73
947.99	5384.11
948.16	5431.21
948.32	5197.74
948.49	5433.26
948.65	5494.70
948.82	5351.34
948.98	5476.27
949.15	5164.98
949.31	5375.92
949.48	5500.84
949.64	5326.77
949.81	5263.28
949.97	5408.69
950.14	5423.02
950.30	5398.45
950.47	5500.84
950.63	5361.58
950.80	5404.59
950.96	5265.33
951.13	5347.25
951.30	5359.53
951.46	5427.12
951.63	5502.89
951.79	5490.60
951.96	5509.04
952.12	5449.64
952.29	5472.17
952.45	5431.21
952.62	5466.03
952.78	5373.87
952.94	5509.04
953.11	5656.49
953.27	5420.97
953.44	5607.34
953.60	5597.10
953.77	5486.51
953.93	5498.80
954.10	5533.61
954.26	5523.37
954.43	5539.76
954.59	5595.05
954.76	5644.20
954.92	5578.67
955.09	5537.71
955.25	5504.94
955.42	5445.55
955.58	5636.01
955.75	5730.22
955.91	5506.99
956.07	5687.21
956.24	5496.75
956.40	5509.04
956.57	5767.08
956.73	5500.84
956.90	5687.21
957.06	5523.37
957.23	5363.63
957.39	5484.46
957.56	5636.01
957.72	5388.21
957.88	5455.79
958.05	5603.24
958.21	5697.45
958.38	5564.33
958.54	5547.95
958.71	5697.45
958.87	5611.43
959.03	5525.42
959.20	5595.05
959.36	5506.99
959.53	5472.17
959.69	5388.21
959.85	5656.49
960.02	5500.84
960.18	5566.38
960.35	5480.36
960.51	5642.15
960.68	5357.49
960.84	5566.38
961.00	5439.40
961.17	5554.09
961.33	5646.25
961.50	5554.09
961.66	5498.80
961.82	5578.67
961.99	5511.08
962.15	5588.91
962.31	5363.63
962.48	5447.60
962.64	5566.38
962.81	5590.95
962.97	5349.29
963.13	5439.40
963.30	5463.98
963.46	5517.23
963.62	5373.87
963.79	5363.63
963.95	5386.16
964.12	5367.73
964.28	5486.51
964.44	5435.31
964.61	5423.02
964.77	5392.30
964.93	5691.31
965.10	5412.78
965.26	5148.59
965.42	5377.97
965.59	5283.76
965.75	5248.94
965.92	5345.20
966.08	5461.93
966.24	5201.84
966.41	5279.66
966.57	5339.05
966.73	5306.29
966.90	5326.77
967.06	5076.91
967.22	5375.92
967.39	5199.79
967.55	5226.42
967.71	5353.39
967.88	5220.27
968.04	5255.09
968.20	5224.37
968.37	5283.76
968.53	5040.05
968.69	5279.66
968.85	5214.13
969.02	5259.18
969.18	5269.42
969.34	5074.87
969.51	5236.66
969.67	5160.88
969.83	5181.36
970.00	5216.18
970.16	5056.43
970.32	5283.76
970.48	5246.90
970.65	5193.65
970.81	5185.46
970.97	5179.31
971.14	5050.29
971.30	5089.20
971.46	5132.21
971.63	5121.97
971.79	5038.00
971.95	5042.10
972.11	5074.87
972.28	5031.86
972.44	4878.26
972.60	4935.60
972.76	4982.71
972.93	4978.61
973.09	4792.25
973.25	5058.48
973.42	4822.97
973.58	4919.22
973.74	5001.14
973.90	4958.13
974.07	4906.93
974.23	4870.07
974.39	4890.55
974.55	4925.36
974.72	4890.55
974.88	4743.10
975.04	4865.97
975.20	4655.03
975.37	4782.01
975.53	4792.25
975.69	4865.97
975.85	4728.76
976.01	4749.24
976.18	4767.67
976.34	4745.14
976.50	4724.66
976.66	4814.77
976.83	4745.14
976.99	4712.38
977.15	4624.31
977.31	4587.45
977.47	4796.34
977.64	4739.00
977.80	4478.91
977.96	4607.93
978.12	4687.80
978.29	4677.56
978.45	4513.72
978.61	4646.84
978.77	4728.76
978.93	4456.38
979.10	4540.35
979.26	4511.68
979.42	4605.88
979.58	4358.08
979.74	4380.61
979.91	4460.48
980.07	4470.72
980.23	4421.56
980.39	4440.00
980.55	4442.04
980.71	4468.67
980.88	4534.20
981.04	4345.79
981.20	4530.11
981.36	4313.02
981.52	4335.55
981.68	4208.58
981.85	4319.17
982.01	4366.27
982.17	4396.99
982.33	4329.41
982.49	4427.71
982.65	4202.43
982.82	4321.21
982.98	4282.30
983.14	4134.85
983.30	4296.64
983.46	4270.01
983.62	4261.82
983.79	4298.69
983.95	4204.48
984.11	4157.38
984.27	4227.01
984.43	4220.86
984.59	4229.06
984.75	4237.25
984.91	4175.81
985.08	4079.55
985.24	4052.93
985.40	3987.40
985.56	4122.56
985.72	4145.09
985.88	4087.75
986.04	4077.51
986.20	4114.37
986.37	4050.88
986.53	3952.58
986.69	4106.18
986.85	3985.35
987.01	4038.59
987.17	4130.75
987.33	4052.93
987.49	3850.18
987.65	4044.74
987.82	4054.98
987.98	3946.44
988.14	3923.91
988.30	4048.83
988.46	3809.22
988.62	3944.39
988.78	4036.55
988.94	3909.57
989.10	3887.04
989.26	3835.85
989.42	3919.81
989.59	3901.38
989.75	3915.72
989.91	3917.76
990.07	3798.98
990.23	3784.65
990.39	3717.06
990.55	3874.76
990.71	3764.17
990.87	3885.00
991.03	3801.03
991.19	3786.69
991.35	3770.31
991.51	3721.16
991.67	3837.89
991.83	3809.22
992.00	3755.97
992.16	3790.79
992.32	3702.73
992.48	3737.54
992.64	3491.79
992.80	3674.06
992.96	3712.97
993.12	3672.01
993.28	3790.79
993.44	3577.80
993.60	3694.54
993.76	3616.71
993.92	3565.51
994.08	3575.75
994.24	3626.95
994.40	3516.36
994.56	3545.03
994.72	3604.42
994.88	3448.78
995.04	3477.45
995.20	3487.69
995.36	3485.64
995.52	3600.33
995.68	3485.64
995.84	3536.84
996.00	3688.39
996.16	3440.59
996.32	3368.91
996.48	3286.99
996.64	3475.40
996.80	3491.79
996.96	3559.37
997.12	3463.12
997.28	3379.15
997.44	3409.87
997.60	3413.96
997.76	3473.36
997.92	3487.69
998.08	3334.09
998.24	3422.16
998.40	3338.19
998.56	3405.77
998.72	3254.22
998.88	3303.37
999.04	3379.15
999.20	3325.90
999.36	3241.93
999.52	3295.18
999.68	3311.57
999.84	3319.76
1000.00	3278.80
1000.16	3411.92
1000.32	3334.09
1000.48	3377.10
1000.64	3160.02
1000.80	3342.28
1000.95	3096.53
1001.11	3264.46
1001.27	3246.03
1001.43	3205.07
1001.59	3170.26
1001.75	3108.82
1001.91	3168.21
1002.07	3098.58
1002.23	3170.26
1002.39	3020.75
1002.55	3065.81
1002.71	3106.77
1002.87	3168.21
1003.03	3092.43
1003.19	3082.19
1003.34	3084.24
1003.50	3049.43
1003.66	3125.20
1003.82	3076.05
1003.98	2977.75
1004.14	3078.10
1004.30	3006.42
1004.46	2969.55
1004.62	3096.53
1004.78	3041.23
1004.94	3014.61
1005.09	3039.19
1005.25	3041.23
1005.41	2877.40
1005.57	3033.04
1005.73	2998.23
1005.89	2893.78
1006.05	3018.71
1006.21	2994.13
1006.37	2922.45
1006.52	2918.36
1006.68	2867.16
1006.84	2981.84
1007.00	2836.44
1007.16	2873.30
1007.32	2787.29
1007.48	2869.20
1007.64	2904.02
1007.79	2852.82
1007.95	2826.20
1008.11	2879.44
1008.27	2918.36
1008.43	2838.48
1008.59	2760.66
1008.75	2901.97
1008.91	2879.44
1009.06	2762.71
1009.22	2899.92
1009.38	2910.16
1009.54	2807.77
1009.70	2668.50
1009.86	2758.61
1010.01	2781.14
1010.17	2695.13
1010.33	2719.70
1010.49	2789.33
1010.65	2748.37
1010.81	2721.75
1010.96	2717.65
1011.12	2670.55
1011.28	2623.45
1011.44	2754.52
1011.60	2547.67
1011.76	2633.69
1011.91	2658.26
1012.07	2619.35
1012.23	2588.63
1012.39	2617.30
1012.55	2592.73
1012.71	2621.40
1012.86	2619.35
1013.02	2623.45
1013.18	2564.06
1013.34	2580.44
1013.50	2652.12
1013.65	2508.76
1013.81	2539.48
1013.97	2539.48
1014.13	2596.82
1014.29	2623.45
1014.44	2535.39
1014.60	2527.19
1014.76	2559.96
1014.92	2574.30
1015.07	2549.72
1015.23	2559.96
1015.39	2529.24
1015.55	2488.28
1015.71	2541.53
1015.86	2539.48
1016.02	2412.51
1016.18	2488.28
1016.34	2430.94
1016.49	2502.62
1016.65	2549.72
1016.81	2428.89
1016.97	2471.90
1017.12	2490.33
1017.28	2519.00
1017.44	2373.60
1017.60	2455.51
1017.75	2508.76
1017.91	2449.37
1018.07	2410.46
1018.23	2465.75
1018.38	2363.36
1018.54	2379.74
1018.70	2420.70
1018.86	2441.18
1019.01	2389.98
1019.17	2404.32
1019.33	2455.51
1019.49	2418.65
1019.64	2459.61
1019.80	2406.36
1019.96	2463.71
1020.12	2519.00
1020.27	2318.30
1020.43	2349.02
1020.59	2363.36
1020.74	2410.46
1020.90	2359.26
1021.06	2326.49
1021.22	2389.98
1021.37	2322.40
1021.53	2281.44
1021.69	2400.22
1021.84	2273.25
1022.00	2367.45
1022.16	2265.05
1022.31	2306.01
1022.47	2344.92
1022.63	2336.73
1022.79	2240.48
1022.94	2342.88
1023.10	2303.96
1023.26	2344.92
1023.41	2291.68
1023.57	2158.56
1023.73	2224.09
1023.88	2273.25
1024.04	2189.28
1024.20	2185.18
1024.35	2254.81
1024.51	2230.24
1024.67	2215.90
1024.82	2242.53
1024.98	2217.95
1025.14	2269.15
1025.29	2148.32
1025.45	2301.92
1025.61	2201.57
1025.76	2207.71
1025.92	2258.91
1026.08	2222.05
1026.23	2131.94
1026.39	2256.86
1026.55	2127.84
1026.70	2107.36
1026.86	2238.43
1027.02	2136.03
1027.17	2168.80
1027.33	2269.15
1027.48	2201.57
1027.64	2101.22
1027.80	2148.32
1027.95	2183.13
1028.11	2000.87
1028.27	2154.46
1028.42	2117.60
1028.58	2084.83
1028.73	2217.95
1028.89	2009.06
1029.05	2191.33
1029.20	2123.74
>>>>>End Processed Spectral Data<<<<<
