SpectraSuite Data File
++++++++++++++++++++++++++++++++++++
Date: Fri Jun 02 14:47:59 CEST 2017
User: INFO_000
Dark Spectrum Present: No
Reference Spectrum Present: No
Number of Sampled Component Spectra: 1
Spectrometers: USB4H00879
Integration Time (usec): 80000 (USB4H00879)
Spectra Averaged: 1 (USB4H00879)
Boxcar Smoothing: 0 (USB4H00879)
Correct for Electrical Dark: No (USB4H00879)
Strobe/Lamp Enabled: No (USB4H00879)
Correct for Detector Non-linearity: No (USB4H00879)
Correct for Stray Light: No (USB4H00879)
Number of Pixels in Processed Spectrum: 3648
>>>>>Begin Processed Spectral Data<<<<<
345.13	1288.17
345.34	1288.17
345.56	1288.17
345.78	1220.59
345.99	1290.22
346.21	1675.24
346.42	1710.05
346.64	1589.22
346.86	1759.21
347.07	1626.09
347.29	1740.77
347.50	1552.36
347.72	1689.57
347.94	1761.25
348.15	1607.66
348.37	1599.46
348.59	1724.39
348.80	1646.57
349.02	1783.78
349.23	1892.32
349.45	1931.23
349.67	1937.38
349.88	1773.54
350.10	1972.19
350.31	1830.88
350.53	1875.94
350.75	1873.89
350.96	1773.54
351.18	1908.71
351.39	1861.60
351.61	1718.25
351.82	1912.80
352.04	1941.47
352.26	1791.97
352.47	1906.66
352.69	1886.18
352.90	1761.25
353.12	1830.88
353.34	1841.12
353.55	1988.58
353.77	1839.08
353.98	1853.41
354.20	1810.40
354.41	1871.84
354.63	1978.34
354.85	2064.35
355.06	1900.52
355.28	1820.64
355.49	1865.70
355.71	1894.37
355.92	1851.36
356.14	1869.80
356.35	1869.80
356.57	1882.08
356.79	1961.95
357.00	1789.92
357.22	1984.48
357.43	1796.07
357.65	1957.86
357.86	1937.38
358.08	1890.28
358.29	2000.87
358.51	2015.20
358.72	1902.56
358.94	1947.62
359.16	1929.19
359.37	1918.95
359.59	1906.66
359.80	2039.78
360.02	1902.56
360.23	2007.01
360.45	1978.34
360.66	1855.46
360.88	1863.65
361.09	2002.91
361.31	1939.43
361.52	1925.09
361.74	2031.58
361.95	2097.12
362.17	1968.10
362.38	2076.64
362.60	1910.75
362.81	1996.77
363.03	1894.37
363.24	1964.00
363.46	2004.96
363.67	2013.15
363.89	1974.24
364.10	1961.95
364.32	1984.48
364.53	2101.22
364.75	1929.19
364.96	2023.39
365.18	2039.78
365.39	1984.48
365.61	1943.52
365.82	2111.46
366.04	2013.15
366.25	2009.06
366.47	2072.54
366.68	2027.49
366.90	1964.00
367.11	2050.02
367.33	2082.78
367.54	2058.21
367.76	1935.33
367.97	2154.46
368.19	1976.29
368.40	1959.91
368.62	2023.39
368.83	2015.20
369.05	2041.82
369.26	1996.77
369.48	2011.11
369.69	1953.76
369.91	2043.87
370.12	2082.78
370.33	2054.11
370.55	1978.34
370.76	2013.15
370.98	2084.83
371.19	2050.02
371.41	1961.95
371.62	2095.07
371.84	1976.29
372.05	2267.10
372.27	2025.44
372.48	2158.56
372.69	2039.78
372.91	2166.75
373.12	2121.70
373.34	2090.98
373.55	2191.33
373.77	2150.37
373.98	2142.18
374.20	2172.89
374.41	2263.01
374.62	2066.40
374.84	2107.36
375.05	2160.61
375.27	2162.66
375.48	2240.48
375.70	2162.66
375.91	2170.85
376.12	2246.62
376.34	2068.45
376.55	2183.13
376.77	2211.81
376.98	2060.26
377.19	2158.56
377.41	2131.94
377.62	2183.13
377.84	2199.52
378.05	2303.96
378.27	2189.28
378.48	2279.39
378.69	2385.88
378.91	2310.11
379.12	2197.47
379.34	2189.28
379.55	2299.87
379.76	2199.52
379.98	2211.81
380.19	2252.77
380.41	2279.39
380.62	2269.15
380.83	2207.71
381.05	2279.39
381.26	2326.49
381.47	2330.59
381.69	2224.09
381.90	2394.08
382.12	2301.92
382.33	2312.16
382.54	2242.53
382.76	2238.43
382.97	2289.63
383.19	2260.96
383.40	2349.02
383.61	2291.68
383.83	2289.63
384.04	2230.24
384.25	2363.36
384.47	2412.51
384.68	2297.82
384.89	2256.86
385.11	2308.06
385.32	2279.39
385.54	2361.31
385.75	2379.74
385.96	2308.06
386.18	2371.55
386.39	2301.92
386.60	2367.45
386.82	2394.08
387.03	2371.55
387.24	2492.38
387.46	2404.32
387.67	2467.80
387.88	2539.48
388.10	2453.47
388.31	2400.22
388.52	2506.71
388.74	2506.71
388.95	2473.95
389.16	2443.23
389.38	2467.80
389.59	2574.30
389.80	2527.19
390.02	2510.81
390.23	2592.73
390.44	2574.30
390.66	2465.75
390.87	2469.85
391.08	2611.16
391.30	2736.09
391.51	2570.20
391.72	2648.02
391.94	2645.98
392.15	2559.96
392.36	2592.73
392.58	2553.82
392.79	2652.12
393.00	2611.16
393.22	2627.54
393.43	2631.64
393.64	2695.13
393.85	2793.43
394.07	2641.88
394.28	2654.17
394.49	2670.55
394.71	2715.61
394.92	2861.01
395.13	2660.31
395.35	2660.31
395.56	2623.45
395.77	2715.61
395.98	2842.58
396.20	2748.37
396.41	2861.01
396.62	2793.43
396.84	2736.09
397.05	2926.55
397.26	2809.81
397.47	2938.84
397.69	2760.66
397.90	3076.05
398.11	2971.60
398.32	2940.88
398.54	2932.69
398.75	2967.51
398.96	2879.44
399.18	3084.24
399.39	3082.19
399.60	3098.58
399.81	2959.31
400.03	3002.32
400.24	3157.97
400.45	2992.08
400.66	3045.33
400.88	2918.36
401.09	3229.65
401.30	2987.99
401.51	3074.00
401.73	3170.26
401.94	3125.20
402.15	3000.27
402.36	3090.38
402.58	3213.26
402.79	3149.78
403.00	3074.00
403.21	3198.93
403.43	3047.38
403.64	3205.07
403.85	3188.69
404.06	3282.89
404.27	3039.19
404.49	3182.54
404.70	3104.72
404.91	3239.89
405.12	3330.00
405.34	3246.03
405.55	3327.95
405.76	3172.30
405.97	3268.56
406.19	3444.68
406.40	3274.70
406.61	3299.28
406.82	3385.29
407.03	3346.38
407.25	3252.17
407.46	3422.16
407.67	3387.34
407.88	3475.40
408.09	3350.48
408.31	3358.67
408.52	3356.62
408.73	3340.24
408.94	3270.61
409.15	3442.64
409.37	3475.40
409.58	3475.40
409.79	3387.34
410.00	3571.66
410.21	3448.78
410.43	3497.93
410.64	3432.40
410.85	3530.70
411.06	3426.25
411.27	3452.88
411.48	3489.74
411.70	3469.26
411.91	3504.07
412.12	3635.14
412.33	3547.08
412.54	3471.31
412.76	3688.39
412.97	3596.23
413.18	3588.04
413.39	3557.32
413.60	3651.53
413.81	3758.02
414.03	3547.08
414.24	3559.37
414.45	3733.45
414.66	3557.32
414.87	3745.73
415.08	3559.37
415.30	3694.54
415.51	3805.13
415.72	3655.62
415.93	3710.92
416.14	3854.28
416.35	3817.41
416.56	3821.51
416.78	3805.13
416.99	3805.13
417.20	3704.78
417.41	3837.89
417.62	3887.04
417.83	3948.48
418.04	3823.56
418.26	3950.53
418.47	3864.52
418.68	3911.62
418.89	3936.20
419.10	4009.92
419.31	3872.71
419.52	3964.87
419.73	3932.10
419.95	4130.75
420.16	3999.68
420.37	3944.39
420.58	4200.38
420.79	3833.80
421.00	4026.31
421.21	4071.36
421.42	4059.07
421.63	4122.56
421.85	3938.24
422.06	4077.51
422.27	4120.51
422.48	4126.66
422.69	4067.27
422.90	4247.49
423.11	4321.21
423.32	4313.02
423.53	4372.41
423.75	4263.87
423.96	4419.52
424.17	4401.08
424.38	4437.95
424.59	4417.47
424.80	4591.55
425.01	4364.22
425.22	4405.18
425.43	4280.25
425.64	4497.34
425.85	4661.18
426.06	4614.07
426.28	4396.99
426.49	4452.28
426.70	4624.31
426.91	4569.02
427.12	4632.51
427.33	4573.11
427.54	4573.11
427.75	4741.05
427.96	4831.16
428.17	4712.38
428.38	4777.91
428.59	4751.29
428.80	4825.01
429.01	4751.29
429.23	4763.58
429.44	4999.09
429.65	4913.08
429.86	4947.89
430.07	4790.20
430.28	4863.93
430.49	5011.38
430.70	5062.58
430.91	5021.62
431.12	5011.38
431.33	5140.40
431.54	5156.79
431.75	4992.95
431.96	4988.85
432.17	5078.96
432.38	5072.82
432.59	5248.94
432.80	5156.79
433.01	5296.05
433.22	5410.73
433.43	5277.62
433.64	5265.33
433.85	5255.09
434.06	5287.86
434.27	5291.95
434.49	5343.15
434.70	5515.18
434.91	5396.40
435.12	5314.48
435.33	5496.75
435.54	5494.70
435.75	5306.29
435.96	5298.10
436.17	5386.16
436.38	5529.52
436.59	5609.39
436.80	5511.08
437.01	5861.29
437.22	5605.29
437.43	5545.90
437.64	5562.28
437.85	5679.02
438.06	5787.56
438.27	5629.87
438.48	5648.30
438.69	5883.81
438.90	5672.87
439.11	5601.19
439.32	5937.06
439.53	5828.52
439.74	5920.68
439.95	5992.36
440.16	5801.90
440.37	5849.00
440.57	5889.96
440.78	5910.44
440.99	5824.42
441.20	5881.77
441.41	5846.95
441.62	5926.82
441.83	5851.05
442.04	6016.93
442.25	5943.21
442.46	5941.16
442.67	6115.23
442.88	6469.53
443.09	6027.17
443.30	6211.49
443.51	6143.91
443.72	6399.90
443.93	6123.43
444.14	6465.44
444.35	6088.61
444.56	6274.98
444.77	6131.62
444.98	6352.80
445.19	6303.65
445.40	6438.81
445.61	6320.03
445.81	6338.46
446.02	6528.92
446.23	6326.18
446.44	6240.16
446.65	6479.77
446.86	6557.60
447.07	6657.95
447.28	6651.80
447.49	6813.59
447.70	6393.76
447.91	6641.56
448.12	6606.75
448.33	6776.73
448.54	6754.20
448.74	6664.09
448.95	6772.63
449.16	6664.09
449.37	7067.54
449.58	6852.50
449.79	6944.66
450.00	6721.43
450.21	6934.42
450.42	6793.11
450.63	6938.52
450.84	7024.53
451.05	6928.28
451.25	6979.48
451.46	6885.27
451.67	7108.50
451.88	7073.68
452.09	7081.88
452.30	7018.39
452.51	6965.14
452.72	7298.96
452.93	7552.91
453.13	7085.97
453.34	7075.73
453.55	7114.64
453.76	7219.09
453.97	7546.76
454.18	7325.58
454.39	7544.72
454.60	7438.22
454.81	7401.36
455.01	7528.33
455.22	7319.44
455.43	7376.78
455.64	7759.75
455.85	7704.46
456.06	7925.64
456.27	7769.99
456.48	7671.69
456.68	7614.35
456.89	7819.14
457.10	7917.45
457.31	7804.81
457.52	7886.73
457.73	7876.49
457.94	8368.00
458.14	7827.34
458.35	8212.35
458.56	8109.96
458.77	8109.96
458.98	8165.25
459.19	8155.01
459.39	8296.32
459.60	8460.16
459.81	8132.48
460.02	8550.27
460.23	8333.18
460.44	8597.37
460.65	8447.87
460.85	8617.85
461.06	8781.69
461.27	8488.83
461.48	8849.27
461.69	9027.45
461.89	8388.48
462.10	8658.81
462.31	8556.41
462.52	8742.78
462.73	8793.98
462.94	9115.51
463.14	8933.24
463.35	8998.77
463.56	9357.17
463.77	9363.31
463.98	9097.08
464.18	9121.65
464.39	9478.00
464.60	9541.49
464.81	9367.41
465.02	9183.09
465.23	9613.17
465.43	9559.92
465.64	9899.88
465.85	9611.12
466.06	9766.76
466.27	10207.08
466.47	10030.95
466.68	10059.62
466.89	9873.26
467.10	10018.66
467.30	9895.78
467.51	10303.33
467.72	10237.80
467.93	9901.93
468.14	10237.80
468.34	10403.68
468.55	10542.94
468.76	10579.81
468.97	10280.80
469.17	10528.61
469.38	10694.49
469.59	10792.80
469.80	10997.59
470.01	10866.52
470.21	10776.41
470.42	11192.15
470.63	11034.46
470.84	10966.87
471.04	11302.74
471.25	11353.94
471.46	11181.91
471.67	11315.03
471.87	11413.33
472.08	11403.09
472.29	11706.19
472.50	11304.79
472.70	11546.45
472.91	11611.98
473.12	11888.46
473.33	11714.38
473.53	11917.13
473.74	11994.95
473.95	12201.80
474.16	12212.04
474.36	12144.45
474.57	12402.50
474.78	12605.25
474.99	12474.18
475.19	12562.24
475.40	12861.24
475.61	12836.67
475.81	13268.79
476.02	13209.40
476.23	12863.29
476.44	13209.40
476.64	13403.96
476.85	13418.29
477.06	13297.46
477.27	13627.18
477.47	13561.65
477.68	13709.10
477.89	14042.92
478.09	13791.02
478.30	13952.81
478.51	14042.92
478.71	13979.43
478.92	14339.88
479.13	14462.76
479.34	14403.36
479.54	14405.41
479.75	14481.19
479.96	14769.95
480.16	14642.98
480.37	14794.53
480.58	14827.29
480.78	15066.91
480.99	14950.17
481.20	15234.84
481.41	15150.87
481.61	15353.62
481.82	15640.34
482.03	15556.37
482.23	15576.85
482.44	15634.19
482.65	16029.45
482.85	15787.79
483.06	15843.09
483.27	16058.12
483.47	16094.99
483.68	16000.78
483.89	16273.16
484.09	16262.92
484.30	16494.34
484.51	16883.45
484.71	16762.62
484.92	16703.23
485.13	16867.07
485.33	16934.65
485.54	16756.48
485.75	17069.82
485.95	17106.68
486.16	17139.45
486.37	17499.89
486.57	17157.88
486.78	17354.49
486.98	17381.11
487.19	17716.98
487.40	17893.10
487.60	17710.83
487.81	17835.76
488.02	17913.58
488.22	17843.95
488.43	18048.75
488.64	17983.21
488.84	18280.17
489.05	18507.49
489.25	18468.58
489.46	18837.22
489.67	18390.76
489.87	18683.62
490.08	19082.97
490.29	18935.52
490.49	19310.30
490.70	19095.26
490.90	19228.38
491.11	19216.09
491.32	19648.21
491.52	19203.80
491.73	19668.69
491.94	19295.96
492.14	19267.29
492.35	19957.46
492.55	19908.30
492.76	20225.74
492.97	20203.21
493.17	20029.13
493.38	20244.17
493.58	20465.35
493.79	20240.08
494.00	20645.57
494.20	20522.69
494.41	20508.36
494.61	20776.64
494.82	20977.34
495.02	20725.44
495.23	20981.44
495.44	21077.69
495.64	21186.24
495.85	21270.20
496.05	21311.16
496.26	21491.38
496.47	21511.86
496.67	21190.33
496.88	21597.88
497.08	21307.07
497.29	21726.90
497.49	21743.28
497.70	21663.41
497.91	22247.08
498.11	22163.12
498.32	22298.28
498.52	22288.04
498.73	22226.60
498.93	22541.99
499.14	22490.79
499.34	22380.20
499.55	22814.37
499.76	22654.63
499.96	22761.12
500.17	22736.55
500.37	22828.71
500.58	22728.36
500.78	23051.94
500.99	23142.05
501.19	23772.82
501.40	23154.33
501.60	23209.63
501.81	23547.54
502.02	23320.22
502.22	23479.96
502.43	23463.58
502.63	23760.53
502.84	23768.73
503.04	23901.84
503.25	23811.73
503.45	23572.12
503.66	24045.20
503.86	23983.76
504.07	24346.25
504.27	23834.26
504.48	24598.15
504.68	24262.29
504.89	24551.05
505.09	24501.90
505.30	24602.25
505.50	24510.09
505.71	24753.80
505.91	24663.69
506.12	24469.13
506.32	24811.14
506.53	24891.01
506.73	25058.95
506.94	25114.24
507.14	24952.45
507.35	25486.97
507.55	25282.17
507.76	25521.79
507.96	25403.00
508.17	25615.99
508.37	25536.12
508.58	25599.61
508.78	25566.84
508.99	25851.51
509.19	25759.35
509.40	26060.40
509.60	25759.35
509.81	25988.72
510.01	25996.92
510.22	25904.76
510.42	26236.53
510.63	26261.10
510.83	26228.34
511.04	26050.16
511.24	26633.83
511.44	26426.99
511.65	26539.63
511.85	26467.95
512.06	26592.87
512.26	26711.66
512.47	26414.70
512.67	26881.64
512.88	26721.90
513.08	26621.55
513.29	27035.24
513.49	27049.57
513.69	26855.01
513.90	27432.54
514.10	27237.98
514.31	27199.07
514.51	27598.43
514.72	26955.36
514.92	27074.15
515.13	27358.81
515.33	27551.32
515.53	27639.39
515.74	27678.30
515.94	27692.63
516.15	27682.39
516.35	27790.94
516.56	27702.87
516.76	28118.61
516.96	28018.26
517.17	27743.83
517.37	28065.36
517.58	27954.77
517.78	28274.26
517.99	28223.06
518.19	28722.76
518.39	28474.96
518.60	28657.23
518.80	28438.09
519.01	28849.74
519.21	28716.62
519.41	28808.78
519.62	28847.69
519.82	28911.17
520.03	29032.00
520.23	28790.34
520.43	28649.03
520.64	29097.54
520.84	29306.43
521.05	29220.42
521.25	29412.93
521.45	29417.02
521.66	29673.02
521.86	29546.05
522.07	29535.81
522.27	29441.60
522.47	29548.09
522.68	29763.13
522.88	29937.21
523.08	30299.70
523.29	29998.65
523.49	29994.55
523.70	30111.28
523.90	30447.15
524.10	30281.27
524.31	30621.23
524.51	30236.21
524.71	30858.79
524.92	30658.09
525.12	30922.28
525.33	30668.33
525.53	31266.34
525.73	31104.55
525.94	31106.60
526.14	30875.18
526.34	31141.41
526.55	31278.63
526.75	31254.05
526.95	31819.29
527.16	31407.65
527.36	31749.66
527.56	31870.49
527.77	32478.74
527.97	31860.25
528.17	31772.19
528.38	31950.36
528.58	31981.08
528.78	32230.93
528.99	32278.04
529.19	32640.53
529.39	32454.16
529.60	32419.35
529.80	32714.25
530.00	32507.41
530.21	32740.88
530.41	33406.47
530.61	32716.30
530.82	33150.47
531.02	32976.39
531.22	33052.17
531.43	33121.80
531.63	33623.55
531.83	33637.89
532.04	34104.82
532.24	33123.85
532.44	33553.92
532.64	33830.40
532.85	34102.78
533.05	33916.41
533.25	33756.67
533.46	34156.02
533.66	34375.16
533.86	34268.66
534.07	34584.05
534.27	34330.10
534.47	34534.90
534.67	34498.03
534.88	34622.96
535.08	34424.31
535.28	34946.54
535.49	34913.77
535.69	35354.08
535.89	35184.10
536.09	35223.01
536.30	35253.73
536.50	35468.77
536.70	35683.81
536.91	35425.76
537.11	35272.17
537.31	35829.21
537.51	35757.53
537.72	35706.34
537.92	35945.95
538.12	36115.93
538.32	36070.87
538.53	35847.64
538.73	36034.01
538.93	36244.95
539.13	36437.46
539.34	36775.37
539.54	36328.92
539.74	37101.00
539.94	36443.60
540.15	36470.23
540.35	36924.88
540.55	36640.21
540.75	36746.70
540.96	36769.23
541.16	36881.87
541.36	37252.55
541.56	37283.27
541.77	37572.03
541.97	37418.44
542.17	37649.86
542.37	37418.44
542.58	37447.11
542.78	37445.06
542.98	37498.31
543.18	38000.06
543.38	38094.27
543.59	38141.37
543.79	37715.39
543.99	37909.95
544.19	38120.89
544.40	38147.51
544.60	38198.71
544.80	38239.67
545.00	38211.00
545.20	38235.58
545.41	38122.94
545.61	38333.88
545.81	38690.23
546.01	38835.63
546.21	38557.11
546.42	38737.33
546.62	38794.67
546.82	38565.30
547.02	38942.13
547.22	39097.77
547.43	39044.52
547.63	39435.69
547.83	39505.32
548.03	38616.50
548.23	39374.25
548.44	39341.48
548.64	39366.06
548.84	39206.31
549.04	39583.14
549.24	39435.69
549.45	40064.41
549.65	39585.19
549.85	39548.32
550.05	39564.71
550.25	39863.71
550.45	40187.29
550.66	40103.32
550.86	39767.46
551.06	40230.30
551.26	40002.97
551.46	40048.03
551.66	40457.62
551.87	40361.37
552.07	40766.87
552.27	40496.53
552.47	40600.98
552.67	40701.33
552.87	40699.28
553.07	40435.10
553.28	40652.18
553.48	40840.59
553.68	40654.23
553.88	41104.78
554.08	40574.36
554.28	40680.85
554.48	40600.98
554.69	41592.20
554.89	40932.75
555.09	41059.73
555.29	40914.32
555.49	41424.26
555.69	41065.87
555.89	40887.70
556.10	41317.77
556.30	41432.46
556.50	41721.22
556.70	41176.46
556.90	41278.86
557.10	41418.12
557.30	41262.47
557.50	41680.26
557.70	42206.59
557.91	42122.62
558.11	41844.10
558.31	42075.52
558.51	41735.56
558.71	42159.48
558.91	42259.84
559.11	41835.91
559.31	42040.70
559.51	41760.13
559.72	42550.65
559.92	42227.07
560.12	42122.62
560.32	42485.11
560.52	42136.96
560.72	42485.11
560.92	42478.97
561.12	43072.88
561.32	42820.98
561.52	42433.91
561.72	43132.27
561.93	42057.09
562.13	42927.47
562.33	42628.47
562.53	43459.94
562.73	42460.54
562.93	42999.15
563.13	42870.13
563.33	43201.90
563.53	43197.80
563.73	42784.12
563.93	43242.86
564.13	43363.69
564.33	42960.24
564.53	43249.00
564.74	43466.09
564.94	43044.21
565.14	43332.97
565.34	43570.54
565.54	43726.18
565.74	43670.89
565.94	43801.96
566.14	43308.40
566.34	43879.78
566.54	44076.38
566.74	43650.41
566.94	44041.57
567.14	43791.72
567.34	43652.45
567.54	43982.18
567.74	43816.29
567.94	44086.62
568.14	44217.69
568.34	44426.59
568.54	44143.97
568.74	44354.91
568.94	43898.21
569.14	44356.96
569.34	44447.07
569.54	44590.42
569.75	44391.77
569.95	44797.27
570.15	44684.63
570.35	44787.03
570.55	44717.40
570.75	44746.07
570.95	44533.08
571.15	44961.11
571.35	44500.31
571.55	44905.81
571.75	45045.07
571.95	45126.99
572.15	45028.69
572.35	45006.16
572.55	45153.62
572.75	45344.08
572.95	45436.23
573.15	45299.02
573.35	45438.28
573.55	45016.40
573.75	45170.00
573.95	45589.83
574.15	45014.35
574.35	45288.78
574.55	45579.59
574.75	45389.13
574.95	45790.53
575.15	45446.47
575.34	45352.27
575.54	45788.49
575.74	45901.12
575.94	46292.29
576.14	45589.83
576.34	46155.07
576.54	46155.07
576.74	45931.84
576.94	46056.77
577.14	46513.47
577.34	46316.86
577.54	46214.46
577.74	46652.73
577.94	46439.74
578.14	46368.06
578.34	46595.38
578.54	45991.23
578.74	46466.36
578.94	47084.85
579.14	46439.74
579.34	46873.91
579.54	46294.33
579.74	46916.92
579.94	46814.52
580.13	46867.76
580.33	47226.16
580.53	46908.72
580.73	47375.66
580.93	47086.90
581.13	47080.75
581.33	47488.30
581.53	47637.80
581.73	47457.58
581.93	47242.54
582.13	47310.13
582.33	47889.70
582.53	47553.83
582.73	47379.76
582.92	47160.62
583.12	47865.13
583.32	47605.03
583.52	47428.91
583.72	48143.65
583.92	47801.64
584.12	47760.68
584.32	48473.37
584.52	48059.68
584.72	48334.11
584.92	48213.28
585.11	48563.48
585.31	48016.68
585.51	47967.52
585.71	48526.62
585.91	48469.28
586.11	48203.04
586.31	48198.94
586.51	48268.58
586.71	48516.38
586.91	48887.06
587.10	48766.23
587.30	48712.98
587.50	48383.26
587.70	48827.67
587.90	49018.13
588.10	48829.72
588.30	48784.66
588.50	49360.14
588.69	49091.86
588.89	49132.82
589.09	49091.86
589.29	49132.82
589.49	49151.25
589.69	48530.72
589.89	49370.38
590.08	48934.17
590.28	49581.32
590.48	48960.79
590.68	49063.19
590.88	49028.37
591.08	49315.09
591.28	49181.97
591.47	49272.08
591.67	49397.01
591.87	49687.82
592.07	49595.66
592.27	49650.95
592.47	49818.89
592.67	49638.67
592.86	49677.58
593.06	49915.14
593.26	49865.99
593.46	50095.36
593.66	49587.47
593.86	49917.19
594.05	49468.69
594.25	49931.53
594.45	49954.05
594.65	49763.59
594.85	49841.42
595.05	50044.16
595.24	50298.11
595.44	50025.73
595.64	49833.22
595.84	50517.25
596.04	50326.78
596.23	50717.95
596.43	50439.42
596.63	50371.84
596.83	50021.64
597.03	50713.85
597.22	51231.99
597.42	50380.03
597.62	50885.88
597.82	50586.88
598.02	50640.12
598.21	51019.00
598.41	50476.29
598.61	50758.91
598.81	50930.93
599.01	51346.67
599.20	50668.79
599.40	50867.45
599.60	51123.44
599.80	51037.43
600.00	51250.42
600.19	51569.90
600.39	51221.75
600.59	51453.17
600.79	51027.19
600.98	51082.48
601.18	51551.47
601.38	51453.17
601.58	51293.43
601.78	51688.68
601.97	51039.48
602.17	52178.15
602.37	51688.68
602.57	51408.11
602.76	51723.50
602.96	51547.37
603.16	52253.92
603.36	51758.31
603.55	52212.96
603.75	51670.25
603.95	52010.21
604.15	51862.76
604.34	52020.45
604.54	52010.21
604.74	52341.99
604.94	52372.70
605.13	52335.84
605.33	52518.11
605.53	51774.70
605.73	52749.53
605.92	52206.82
606.12	52794.59
606.32	52532.45
606.52	52616.41
606.71	52747.48
606.91	52909.27
607.11	52630.75
607.30	53185.75
607.50	53089.49
607.70	52626.65
607.90	52966.62
608.09	52929.75
608.29	52761.82
608.49	53265.62
608.68	52583.65
608.88	53130.45
609.08	53032.15
609.28	53171.41
609.47	53064.92
609.67	53634.25
609.87	53349.59
610.06	53423.31
610.26	52819.16
610.46	53554.38
610.66	53320.91
610.85	53337.30
611.05	53179.60
611.25	53697.74
611.44	53116.12
611.64	53224.66
611.84	53015.77
612.03	53263.57
612.23	53556.43
612.43	53540.05
612.62	53365.97
612.82	53802.19
613.02	53441.74
613.21	53587.15
613.41	52856.03
613.61	53572.81
613.80	52985.05
614.00	53777.61
614.20	53478.61
614.39	53912.78
614.59	53845.19
614.79	53603.53
614.98	53716.17
615.18	53533.90
615.38	53818.57
615.57	53818.57
615.77	54017.22
615.97	53851.34
616.16	53888.20
616.36	54191.30
616.56	54066.38
616.75	53923.02
616.95	53853.39
617.15	53826.76
617.34	53785.80
617.54	54023.37
617.74	54295.75
617.93	53904.59
618.13	53720.27
618.32	53929.16
618.52	53601.49
618.72	53802.19
618.91	54490.30
619.11	53933.26
619.31	53947.59
619.50	53834.95
619.70	53890.25
619.90	53765.32
620.09	54121.67
620.29	54265.03
620.48	53695.69
620.68	54228.16
620.88	53241.04
621.07	54109.38
621.27	54230.21
621.46	53449.94
621.66	53843.15
621.86	54213.83
622.05	53882.06
622.25	54465.73
622.44	54049.99
622.64	53998.79
622.84	54228.16
623.03	53890.25
623.23	54156.49
623.42	53908.68
623.62	54209.73
623.82	54518.98
624.01	54195.40
624.21	54228.16
624.40	54543.55
624.60	54142.15
624.80	54099.14
624.99	54052.04
625.19	53859.53
625.38	54455.49
625.58	54371.52
625.77	54013.13
625.97	54039.75
626.17	53814.47
626.36	54320.32
626.56	54271.17
626.75	53591.25
626.95	54183.11
627.14	54138.05
627.34	54516.93
627.54	53949.64
627.73	54430.91
627.93	54015.18
628.12	54269.12
628.32	54256.84
628.51	54115.53
628.71	53822.67
628.90	54287.56
629.10	54260.93
629.30	54187.21
629.49	54541.50
629.69	54656.19
629.88	54367.43
630.08	54826.17
630.27	54645.95
630.47	54289.60
630.66	54340.80
630.86	55051.45
631.05	54099.14
631.25	54891.71
631.44	54639.81
631.64	54295.75
631.84	54748.35
632.03	55211.19
632.23	55045.30
632.42	54801.60
632.62	54582.46
632.81	54748.35
633.01	54654.14
633.20	55065.78
633.40	54834.36
633.59	54947.00
633.79	54455.49
633.98	54367.43
634.18	54777.02
634.37	54793.40
634.57	54596.80
634.76	54967.48
634.96	55319.73
635.15	55043.26
635.35	54375.62
635.54	55008.44
635.74	55338.16
635.93	54527.17
636.13	54871.23
636.32	54523.07
636.52	54701.25
636.71	55053.50
636.91	55346.36
637.10	55053.50
637.30	55090.36
637.49	54686.91
637.69	54695.10
637.88	55444.66
638.08	55049.40
638.27	55241.91
638.46	55235.77
638.66	55049.40
638.85	55354.55
639.05	55002.30
639.24	55354.55
639.44	54951.10
639.63	55307.44
639.83	55559.34
640.02	54891.71
640.22	55198.90
640.41	55559.34
640.61	54817.98
640.80	55176.37
640.99	55229.62
641.19	55698.61
641.38	55078.07
641.58	55651.50
641.77	55086.26
641.97	54887.61
642.16	55272.63
642.36	55422.13
642.55	55995.56
642.74	55213.24
642.94	56300.71
643.13	55284.92
643.33	55792.81
643.52	55317.68
643.72	55942.31
643.91	55714.99
644.10	55927.98
644.30	55907.50
644.49	55891.12
644.69	56095.91
644.88	55612.59
645.08	55420.08
645.27	55653.55
645.46	55778.48
645.66	55768.24
645.85	55522.48
646.05	55841.96
646.24	55866.54
646.43	55592.11
646.63	56165.54
646.82	56208.55
647.02	55788.72
647.21	55964.84
647.40	55784.62
647.60	56065.19
647.79	56382.63
647.99	56392.87
648.18	56118.44
648.37	56269.99
648.57	55887.02
648.76	56149.16
648.96	55950.51
649.15	56528.03
649.34	56315.04
649.54	56368.29
649.73	56235.17
649.92	56243.37
650.12	56396.96
650.31	55846.06
650.51	56480.93
650.70	55993.51
650.89	56405.16
651.09	56939.68
651.28	56427.68
651.47	56544.42
651.67	56384.68
651.86	56878.24
652.06	56212.65
652.25	56454.31
652.44	56274.09
652.64	56325.28
652.83	56089.77
653.02	56077.48
653.22	56186.02
653.41	56106.15
653.60	56403.11
653.80	56349.86
653.99	56261.80
654.18	56618.14
654.38	56075.43
654.57	56501.41
654.76	56253.61
654.96	56407.20
655.15	56665.25
655.34	56345.76
655.54	56013.99
655.73	56353.96
655.92	56509.60
656.12	56423.59
656.31	56341.67
656.50	56218.79
656.70	56468.64
656.89	56284.33
657.08	56294.56
657.28	56272.04
657.47	56718.49
657.66	56407.20
657.86	56114.34
658.05	56612.00
658.24	56419.49
658.43	56169.64
658.63	56851.61
658.82	56718.49
659.01	56595.62
659.21	56786.08
659.40	56171.69
659.59	56181.93
659.79	56898.72
659.98	56773.79
660.17	56949.92
660.36	56386.72
660.56	56452.26
660.75	56335.52
660.94	56431.78
661.14	56704.16
661.33	56024.23
661.52	55897.26
661.71	56630.43
661.91	55487.67
662.10	56382.63
662.29	56841.37
662.49	56573.09
662.68	56628.38
662.87	56812.70
663.06	56640.67
663.26	56437.92
663.45	56683.68
663.64	56009.90
663.83	57011.35
664.03	57025.69
664.22	56657.06
664.41	56618.14
664.60	56482.98
664.80	56560.80
664.99	56263.85
665.18	56304.80
665.37	56269.99
665.57	56636.58
665.76	56110.25
665.95	56671.39
666.14	56407.20
666.34	56562.85
666.53	56386.72
666.72	56108.20
666.91	56067.24
667.11	56245.41
667.30	56345.76
667.49	56030.38
667.68	56433.83
667.87	55919.79
668.07	56624.29
668.26	56036.52
668.45	56442.02
668.64	56007.85
668.84	56525.99
669.03	56093.86
669.22	55981.23
669.41	56194.21
669.60	56143.02
669.80	55700.65
669.99	56423.59
670.18	56020.14
670.37	56165.54
670.57	56655.01
670.76	56145.06
670.95	56353.96
671.14	56302.76
671.33	56075.43
671.53	56327.33
671.72	56067.24
671.91	56204.45
672.10	55907.50
672.29	56202.41
672.48	55964.84
672.68	56052.90
672.87	55651.50
673.06	55981.23
673.25	55745.71
673.44	55893.16
673.64	55768.24
673.83	55528.62
674.02	55975.08
674.21	55749.81
674.40	56036.52
674.59	55704.75
674.79	55692.46
674.98	55565.49
675.17	56278.18
675.36	56054.95
675.55	56005.80
675.74	55555.25
675.94	55475.38
676.13	55960.75
676.32	56198.31
676.51	56319.14
676.70	56341.67
676.89	55731.37
677.08	56366.24
677.28	55733.42
677.47	56177.83
677.66	56046.76
677.85	55383.22
678.04	55919.79
678.23	55899.31
678.42	55727.28
678.62	55880.88
678.81	56128.68
679.00	55948.46
679.19	56089.77
679.38	55973.03
679.57	55921.83
679.76	55669.93
679.96	55792.81
680.15	55444.66
680.34	55422.13
680.53	55082.17
680.72	55762.09
680.91	55622.83
681.10	55233.72
681.29	55811.24
681.48	55387.31
681.68	55567.54
681.87	55987.37
682.06	55415.99
682.25	55424.18
682.44	55223.48
682.63	55329.97
682.82	55067.83
683.01	55162.04
683.20	55086.26
683.39	55239.86
683.59	54924.47
683.78	55231.67
683.97	54842.56
684.16	55592.11
684.35	54738.11
684.54	55383.22
684.73	55286.96
684.92	54561.98
685.11	54729.92
685.30	55047.35
685.49	55049.40
685.69	54846.65
685.88	55094.46
686.07	55112.89
686.26	54899.90
686.45	55262.39
686.64	54990.01
686.83	55340.21
687.02	55104.70
687.21	55004.34
687.40	55129.27
687.59	54871.23
687.78	55037.11
687.97	54985.91
688.16	55026.87
688.35	54865.08
688.54	54559.94
688.74	54654.14
688.93	54772.92
689.12	54760.64
689.31	55033.02
689.50	54564.03
689.69	54662.33
689.88	54203.59
690.07	54240.45
690.26	54367.43
690.45	54701.25
690.64	54262.98
690.83	54420.67
691.02	54230.21
691.21	54176.97
691.40	54430.91
691.59	54265.03
691.78	54170.82
691.97	54305.99
692.16	54435.01
692.35	54625.47
692.54	54320.32
692.73	54568.13
692.92	54330.56
693.11	54469.82
693.30	54299.84
693.49	54176.97
693.68	54166.73
693.87	54129.86
694.06	53890.25
694.25	53867.72
694.44	54060.23
694.63	54090.95
694.82	53925.07
695.01	54074.57
695.20	54140.10
695.39	54381.76
695.58	53695.69
695.77	53415.12
695.96	53677.26
696.15	53789.90
696.34	53273.81
696.53	53460.18
696.72	54185.16
696.91	53355.73
697.10	53712.08
697.29	53853.39
697.48	53687.50
697.67	53834.95
697.86	53484.75
698.05	53353.68
698.24	53986.50
698.43	53159.12
698.62	54090.95
698.81	53509.33
699.00	53927.11
699.19	52915.42
699.38	53681.36
699.57	53048.53
699.76	53800.14
699.95	53720.27
700.14	53329.11
700.32	53155.03
700.51	53396.69
700.70	53810.38
700.89	53349.59
701.08	53492.94
701.27	53099.73
701.46	53703.88
701.65	52976.86
701.84	52851.93
702.03	53572.81
702.22	53241.04
702.41	53056.73
702.60	53363.92
702.79	53081.30
702.98	52827.35
703.17	53089.49
703.35	52602.08
703.54	52964.57
703.73	53490.90
703.92	53081.30
704.11	52954.33
704.30	53052.63
704.49	52890.84
704.68	52571.36
704.87	52894.94
705.06	52759.77
705.25	52536.54
705.43	52604.13
705.62	53140.69
705.81	52698.33
706.00	52430.05
706.19	52796.63
706.38	52481.25
706.57	52720.86
706.76	52428.00
706.95	52397.28
707.14	52436.19
707.32	52466.91
707.51	52210.92
707.70	52612.32
707.89	52628.70
708.08	52335.84
708.27	52692.19
708.46	52608.22
708.65	52229.35
708.84	52272.35
709.02	52294.88
709.21	52409.57
709.40	52327.65
709.59	52327.65
709.78	52116.71
709.97	52630.75
710.16	52219.11
710.34	52298.98
710.53	52315.36
710.72	51655.92
710.91	52094.18
711.10	52200.68
711.29	52309.22
711.48	52229.35
711.66	51999.97
711.85	52079.85
712.04	52153.57
712.23	51997.93
712.42	51731.69
712.61	51795.18
712.80	51475.69
712.98	51991.78
713.17	51551.47
713.36	51727.59
713.55	51617.00
713.74	51739.88
713.93	51770.60
714.11	51330.29
714.30	51776.75
714.49	51576.04
714.68	51844.33
714.87	51758.31
715.06	51899.62
715.24	51311.86
715.43	51688.68
715.62	50969.85
715.81	51639.53
716.00	51277.04
716.18	50808.06
716.37	51250.42
716.56	51107.06
716.75	51430.64
716.94	51244.27
717.12	50869.50
717.31	51227.89
717.50	51209.46
717.69	50971.89
717.88	51205.36
718.06	51211.51
718.25	51365.10
718.44	50806.01
718.63	50853.11
718.82	50373.89
719.00	50715.90
719.19	50429.18
719.38	50824.44
719.57	50777.34
719.76	50171.14
719.94	50191.62
720.13	50439.42
720.32	50605.31
720.51	50246.91
720.69	50302.21
720.88	50111.75
721.07	50504.96
721.26	50095.36
721.44	50453.76
721.63	50054.40
721.82	49368.33
722.01	49919.24
722.20	49632.52
722.38	49622.28
722.57	49718.54
722.76	49800.46
722.95	49890.57
723.13	49304.85
723.32	49775.88
723.51	49018.13
723.70	49354.00
723.88	49530.12
724.07	49462.54
724.26	49356.05
724.44	48911.64
724.63	49681.67
724.82	49534.22
725.01	49095.95
725.19	49126.67
725.38	48887.06
725.57	49063.19
725.76	48993.56
725.94	48831.77
726.13	49108.24
726.32	48966.93
726.51	49065.24
726.69	49130.77
726.88	48887.06
727.07	49005.84
727.25	49124.63
727.44	49335.57
727.63	49020.18
727.82	48936.21
728.00	48780.57
728.19	48813.34
728.38	49169.68
728.56	48239.90
728.75	48973.08
728.94	48643.35
729.12	48778.52
729.31	48962.84
729.50	48477.47
729.69	48690.46
729.87	48428.32
730.06	48323.87
730.25	48741.66
730.43	48887.06
730.62	48833.81
730.81	48950.55
730.99	48921.88
731.18	48229.66
731.37	48960.79
731.55	48870.68
731.74	48653.59
731.93	48633.11
732.11	48842.01
732.30	49165.59
732.49	48266.53
732.67	48377.12
732.86	48184.61
733.05	48799.00
733.23	48373.02
733.42	48682.27
733.61	48784.66
733.79	48420.13
733.98	48610.59
734.17	48430.36
734.35	48473.37
734.54	48477.47
734.73	48626.97
734.91	48174.37
735.10	48694.55
735.29	48616.73
735.47	48123.17
735.66	48342.30
735.84	48059.68
736.03	48080.16
736.22	48266.53
736.40	47789.35
736.59	48182.56
736.78	47871.27
736.96	47928.61
737.15	48229.66
737.33	48180.51
737.52	47942.95
737.71	47858.98
737.89	48100.64
738.08	47942.95
738.27	47627.56
738.45	47858.98
738.64	47764.78
738.82	47957.28
739.01	47461.68
739.20	48024.87
739.38	47914.28
739.57	48039.20
739.75	47717.67
739.94	47840.55
740.13	47744.30
740.31	47326.51
740.50	47840.55
740.68	47455.53
740.87	47924.52
741.06	47811.88
741.24	47686.95
741.43	47144.24
741.61	47541.55
741.80	46982.45
741.99	47547.69
742.17	47232.30
742.36	47314.22
742.54	47330.61
742.73	46828.85
742.91	47297.84
743.10	47027.51
743.29	47602.99
743.47	47543.59
743.66	47404.33
743.84	47369.52
744.03	47308.08
744.21	47074.61
744.40	47072.56
744.59	46861.62
744.77	46634.30
744.96	46845.24
745.14	46722.36
745.33	46816.57
745.51	46673.21
745.70	46708.02
745.88	46570.81
746.07	46835.00
746.26	46568.76
746.44	46515.51
746.63	46187.84
746.81	46486.84
747.00	45952.32
747.18	46300.48
747.37	46359.87
747.55	46361.92
747.74	46417.21
747.92	46331.20
748.11	45968.71
748.29	46327.10
748.48	45972.80
748.66	46200.13
748.85	46052.67
749.03	46310.72
749.22	45937.99
749.41	46183.74
749.59	46122.30
749.78	45909.32
749.96	45866.31
750.15	45770.05
750.33	45550.92
750.52	45995.33
750.70	45811.01
750.89	45432.14
751.07	45759.81
751.26	45716.81
751.44	45184.33
751.63	45548.87
751.81	45448.52
752.00	45344.08
752.18	45632.84
752.37	45684.04
752.55	45126.99
752.74	45206.86
752.92	45188.43
753.10	45063.50
753.29	45155.66
753.47	44911.95
753.66	44602.71
753.84	45806.92
754.03	45143.38
754.21	45241.68
754.40	45131.09
754.58	44635.48
754.77	44737.88
754.95	44819.80
755.14	44946.77
755.32	44737.88
755.51	44490.07
755.69	44645.72
755.88	44371.29
756.06	44662.10
756.24	44455.26
756.43	44502.36
756.61	44637.53
756.80	44342.62
756.98	44039.52
757.17	44397.91
757.35	44365.15
757.54	44078.43
757.72	44103.01
757.90	43994.46
758.09	43924.83
758.27	44088.67
758.46	44119.39
758.64	44205.41
758.83	44012.90
759.01	43638.12
759.19	44043.62
759.38	43638.12
759.56	43953.51
759.75	43955.55
759.93	43728.23
760.12	43150.70
760.30	43687.27
760.48	43613.54
760.67	43271.53
760.85	43664.74
761.04	44012.90
761.22	43717.99
761.40	43572.58
761.59	43468.14
761.77	43060.59
761.96	43316.59
762.14	43330.92
762.32	43076.97
762.51	42712.44
762.69	43115.89
762.88	43066.73
763.06	42935.66
763.24	43234.67
763.43	43222.38
763.61	42630.52
763.80	42870.13
763.98	42800.50
764.16	42974.58
764.35	42409.34
764.53	42052.99
764.72	42542.45
764.90	42440.06
765.08	42419.58
765.27	42257.79
765.45	42382.71
765.63	41997.70
765.82	42280.31
766.00	42167.68
766.18	42034.56
766.37	42360.19
766.55	42116.48
766.74	42022.27
766.92	41584.01
767.10	41465.22
767.29	41844.10
767.47	41581.96
767.65	41811.33
767.84	41268.62
768.02	41500.04
768.20	41541.00
768.39	41819.52
768.57	41344.39
768.75	41643.40
768.94	41463.18
769.12	41680.26
769.30	41143.69
769.49	41545.09
769.67	41350.54
769.85	40918.42
770.04	41186.70
770.22	40709.52
770.40	40973.71
770.59	40873.36
770.77	40983.95
770.95	40846.74
771.14	40885.65
771.32	40301.98
771.50	40629.65
771.69	40732.05
771.87	40916.37
772.05	40721.81
772.24	40146.33
772.42	40748.43
772.60	40455.57
772.78	40639.89
772.97	40428.95
773.15	40809.87
773.33	40211.87
773.52	40007.07
773.70	40220.06
773.88	40492.44
774.07	40285.59
774.25	40017.31
774.43	40416.66
774.61	40353.18
774.80	40422.81
774.98	40301.98
775.16	40549.78
775.34	40506.77
775.53	40326.55
775.71	40879.50
775.89	40383.90
776.08	40185.24
776.26	40367.51
776.44	40504.73
776.62	40056.22
776.81	40334.74
776.99	40523.16
777.17	40101.28
777.35	40134.04
777.54	40504.73
777.72	40048.03
777.90	40396.18
778.08	40607.12
778.27	40230.30
778.45	40560.02
778.63	40781.20
778.81	40146.33
779.00	40938.90
779.18	40648.08
779.36	40916.37
779.54	40392.09
779.73	40451.48
779.91	40879.50
780.09	40508.82
780.27	40660.37
780.46	40887.70
780.64	41008.53
780.82	40672.66
781.00	40809.87
781.19	40854.93
781.37	40623.51
781.55	41006.48
781.73	41127.31
781.91	40721.81
782.10	40809.87
782.28	41084.30
782.46	40955.28
782.64	41096.59
782.82	40848.78
783.01	41160.08
783.19	40863.12
783.37	40940.94
783.55	40969.61
783.74	40998.29
783.92	40832.40
784.10	41330.06
784.28	41252.23
784.46	40590.74
784.64	41141.64
784.83	41227.66
785.01	41190.80
785.19	41067.92
785.37	41489.80
785.55	40633.75
785.74	40908.18
785.92	40459.67
786.10	41196.94
786.28	40840.59
786.46	40580.50
786.64	40490.39
786.83	40799.63
787.01	40744.34
787.19	40975.76
787.37	40846.74
787.55	40805.78
787.74	40584.60
787.92	40359.32
788.10	40062.36
788.28	40359.32
788.46	40037.79
788.64	40402.33
788.82	40732.05
789.01	40334.74
789.19	40811.92
789.37	39759.27
789.55	40019.36
789.73	39882.14
789.91	39650.72
790.09	40097.18
790.28	39552.42
790.46	39767.46
790.64	40072.60
790.82	40097.18
791.00	39740.83
791.18	39423.40
791.36	39355.82
791.55	39683.49
791.73	39603.62
791.91	38966.70
792.09	39286.18
792.27	39185.83
792.45	39353.77
792.63	39245.23
792.81	39202.22
793.00	38903.21
793.18	38686.13
793.36	38432.18
793.54	38655.41
793.72	38442.42
793.90	38700.47
794.08	38708.66
794.26	38839.73
794.44	38387.13
794.62	38317.50
794.81	38436.28
794.99	37942.72
795.17	37787.07
795.35	37907.90
795.53	38311.35
795.71	38127.03
795.89	37828.03
796.07	37621.19
796.25	37221.83
796.43	37637.57
796.61	37348.81
796.80	37430.72
796.98	37270.98
797.16	37182.92
797.34	37305.80
797.52	37297.61
797.70	37578.18
797.88	37041.61
798.06	36453.84
798.24	36623.83
798.42	36859.34
798.60	36791.76
798.78	36507.09
798.96	36650.45
799.14	36269.53
799.32	36609.49
799.51	36560.34
799.69	36447.70
799.87	36472.28
800.05	36070.87
800.23	36273.62
800.41	36013.53
800.59	35704.29
800.77	35216.87
800.95	35280.36
801.13	35587.55
801.31	35378.66
801.49	35648.99
801.67	35325.41
801.85	35171.82
802.03	35421.67
802.21	35196.39
802.39	35085.80
802.57	35053.03
802.75	35098.09
802.93	35120.62
803.11	34668.02
803.29	35083.75
803.47	34479.60
803.65	34702.83
803.83	34811.37
804.01	35007.98
804.19	34098.68
804.37	34135.54
804.55	34057.72
804.73	34108.92
804.91	34166.26
805.09	33658.37
805.27	33945.08
805.45	34006.52
805.63	33969.66
805.81	33818.11
805.99	34164.21
806.17	33586.69
806.35	33480.19
806.53	33660.41
806.71	33455.62
806.89	33533.44
807.07	33371.65
807.25	33252.87
807.43	33086.98
807.61	33402.37
807.79	33093.13
807.97	32841.23
808.15	33119.75
808.33	32882.19
808.51	32755.21
808.69	33101.32
808.87	32648.72
809.05	32540.18
809.23	32839.18
809.41	32304.66
809.59	32640.53
809.77	32728.59
809.95	32275.99
810.13	32417.30
810.31	32232.98
810.49	32574.99
810.67	31999.51
810.84	32157.21
811.02	31921.69
811.20	31704.60
811.38	31837.72
811.56	31356.45
811.74	31641.12
811.92	31823.39
812.10	31835.67
812.28	31886.87
812.46	31667.74
812.64	31731.23
812.82	31290.91
813.00	31831.58
813.18	31413.79
813.36	31464.99
813.53	30957.10
813.71	31342.11
813.89	30983.72
814.07	31145.51
814.25	31260.20
814.43	30922.28
814.61	30756.39
814.79	30793.26
814.97	30672.43
815.15	31092.26
815.33	30826.03
815.50	30545.45
815.68	30643.76
815.86	30701.10
816.04	30527.02
816.22	30283.31
816.40	30563.89
816.58	30385.71
816.76	30103.09
816.94	30387.76
817.11	30152.24
817.29	30420.53
817.47	29939.26
817.65	29906.49
817.83	30047.80
818.01	29892.15
818.19	29703.74
818.37	30250.55
818.54	29464.13
818.72	29734.46
818.90	30049.85
819.08	29820.47
819.26	29482.56
819.44	29494.85
819.62	29828.66
819.80	29662.78
819.97	29810.23
820.15	29363.78
820.33	29288.00
820.51	29572.67
820.69	29085.25
820.87	29468.22
821.05	29707.83
821.22	29552.19
821.40	29480.51
821.58	29134.40
821.76	28855.88
821.94	29040.20
822.12	28884.55
822.29	29111.88
822.47	28745.29
822.65	29064.77
822.83	28933.70
823.01	28614.22
823.19	28663.37
823.36	28614.22
823.54	28483.15
823.72	28730.95
823.90	28300.88
824.08	28335.70
824.25	28104.28
824.43	28264.02
824.61	28397.13
824.79	28237.39
824.97	28237.39
825.15	28552.78
825.32	28229.20
825.50	27848.28
825.68	27919.96
825.86	28173.91
826.04	28132.95
826.21	28098.13
826.39	28184.15
826.57	27756.12
826.75	28143.19
826.93	27782.74
827.10	27620.95
827.28	28120.66
827.46	27872.85
827.64	27594.33
827.81	27620.95
827.99	28005.97
828.17	27389.53
828.35	27373.15
828.53	27399.77
828.70	27219.55
828.88	27526.75
829.06	27412.06
829.24	27557.47
829.41	27414.11
829.59	27774.55
829.77	27489.88
829.95	27416.16
830.12	27330.14
830.30	27016.80
830.48	27422.30
830.66	27248.22
830.84	27338.33
831.01	27018.85
831.19	27119.20
831.37	27016.80
831.55	26795.62
831.72	27068.00
831.90	26941.03
832.08	26861.16
832.25	26998.37
832.43	26926.69
832.61	26828.39
832.79	26590.83
832.96	26769.00
833.14	26656.36
833.32	26949.22
833.50	27014.76
833.67	26769.00
833.85	26660.46
834.03	26396.27
834.20	26445.42
834.38	26547.82
834.56	26809.96
834.74	26238.58
834.91	26283.63
835.09	26383.98
835.27	26195.57
835.44	26072.69
835.62	25826.93
835.80	26089.07
835.98	26048.11
836.15	25974.39
836.33	25871.99
836.51	25808.50
836.68	25988.72
836.86	26099.31
837.04	25753.21
837.21	25773.69
837.39	25847.41
837.57	25935.48
837.75	25843.32
837.92	25390.72
838.10	25527.93
838.28	25501.31
838.45	25601.66
838.63	25323.13
838.81	25695.86
838.98	25775.73
839.16	25493.12
839.34	25456.25
839.51	25624.18
839.69	25374.33
839.87	25128.58
840.04	25069.19
840.22	25482.88
840.40	25228.93
840.57	24931.97
840.75	25171.58
840.93	24891.01
841.10	25259.65
841.28	25263.74
841.46	25163.39
841.63	25243.26
841.81	25206.40
841.98	25235.07
842.16	25104.00
842.34	25220.74
842.51	24823.43
842.69	25370.24
842.87	24905.35
843.04	25015.94
843.22	24358.54
843.40	24589.96
843.57	24813.19
843.75	24942.21
843.92	24665.74
844.10	24446.60
844.28	24682.12
844.45	24561.29
844.63	24727.17
844.81	24348.30
844.98	24563.34
845.16	24592.01
845.33	24499.85
845.51	24641.16
845.69	24376.97
845.86	24671.88
846.04	24004.24
846.21	24213.13
846.39	23961.23
846.57	24067.73
846.74	24327.82
846.92	23807.64
847.09	24309.39
847.27	24247.95
847.45	23991.95
847.62	24055.44
847.80	23971.47
847.97	23856.79
848.15	23871.12
848.32	23568.02
848.50	23824.02
848.68	23465.63
848.85	23447.19
849.03	23215.77
849.20	23623.32
849.38	23758.49
849.56	23766.68
849.73	23733.91
849.91	23611.03
850.08	23551.64
850.26	23289.50
850.43	23660.18
850.61	23746.20
850.78	23412.38
850.96	23355.04
851.14	23260.83
851.31	23604.89
851.49	23441.05
851.66	23389.85
851.84	23158.43
852.01	23447.19
852.19	23307.93
852.36	23297.69
852.54	22845.09
852.71	22970.02
852.89	23056.03
853.07	23156.38
853.24	22978.21
853.42	22982.31
853.59	22724.26
853.77	22853.28
853.94	22802.08
854.12	22902.43
854.29	22462.12
854.47	22955.68
854.64	22689.45
854.82	22507.18
854.99	22703.78
855.17	22646.44
855.34	22521.51
855.52	22599.34
855.69	22718.12
855.87	22478.50
856.04	22222.51
856.22	22433.45
856.39	22451.88
856.57	22408.87
856.74	22333.10
856.92	22437.55
857.09	22386.35
857.27	22427.31
857.44	22535.85
857.62	22687.40
857.79	22286.00
857.97	21968.56
858.14	22156.97
858.32	22179.50
858.49	22126.25
858.67	22103.73
858.84	22019.76
859.02	22021.81
859.19	21866.16
859.37	21892.79
859.54	21714.61
859.72	22087.34
859.89	21931.70
860.06	21831.35
860.24	21894.83
860.41	21919.41
860.59	21767.86
860.76	21753.52
860.94	21579.45
861.11	21786.29
861.29	21456.57
861.46	21485.24
861.64	21743.28
861.81	21669.56
861.98	21788.34
862.16	21323.45
862.33	21302.97
862.51	21171.90
862.68	21524.15
862.86	21114.56
863.03	21368.51
863.21	21311.16
863.38	21049.02
863.55	21223.10
863.73	21345.98
863.90	21157.57
864.08	21087.93
864.25	21184.19
864.43	21401.27
864.60	21067.45
864.77	21077.69
864.95	20739.78
865.12	20819.65
865.30	20920.00
865.47	20965.06
865.64	20657.86
865.82	21044.93
865.99	20827.84
866.17	20799.17
866.34	20833.99
866.51	20319.95
866.69	20973.25
866.86	20786.88
867.04	20735.68
867.21	20561.61
867.38	20481.74
867.56	20571.85
867.73	20422.34
867.91	20455.11
868.08	20496.07
868.25	20448.97
868.43	20328.14
868.60	20264.65
868.78	20246.22
868.95	20422.34
869.12	20235.98
869.30	20059.85
869.47	20154.06
869.64	20135.63
869.82	20272.84
869.99	19953.36
870.16	20063.95
870.34	20100.81
870.51	19912.40
870.69	19752.66
870.86	19670.74
871.03	19820.24
871.21	19633.88
871.38	19994.32
871.55	19326.68
871.73	19474.13
871.90	19650.26
872.07	19488.47
872.25	19316.44
872.42	19490.52
872.59	19289.82
872.77	19248.86
872.94	19187.42
873.11	19042.01
873.29	19326.68
873.46	18980.57
873.63	19099.36
873.81	19140.32
873.98	18800.35
874.15	18910.94
874.33	18728.67
874.50	18669.28
874.67	18796.26
874.85	18734.82
875.02	18798.31
875.19	18734.82
875.37	18810.59
875.54	18634.47
875.71	18626.28
875.88	18650.85
876.06	18542.31
876.23	18630.37
876.40	18419.43
876.58	18534.12
876.75	18343.66
876.92	18349.80
877.10	18253.55
877.27	18562.79
877.44	18456.29
877.61	18015.98
877.79	18251.50
877.96	18216.68
878.13	18222.83
878.31	17944.30
878.48	18067.18
878.65	18110.19
878.82	17977.07
879.00	18005.74
879.17	18204.39
879.34	17889.01
879.51	17682.16
879.69	17899.25
879.86	17673.97
880.03	17690.35
880.21	17633.01
880.38	17567.48
880.55	17585.91
880.72	17575.67
880.90	17399.54
881.07	17352.44
881.24	17540.85
881.41	17346.30
881.59	17385.21
881.76	17508.08
881.93	17211.13
882.10	17344.25
882.28	17139.45
882.45	17444.60
882.62	17551.09
882.79	17284.86
882.96	17049.34
883.14	17309.43
883.31	17297.14
883.48	17082.11
883.65	17305.34
883.83	17391.35
884.00	17055.48
884.17	16936.70
884.34	16989.95
884.51	16996.09
884.69	17018.62
884.86	16969.47
885.03	16883.45
885.20	16783.10
885.38	16979.71
885.55	16717.57
885.72	16905.98
885.89	16783.10
886.06	16867.07
886.24	16664.32
886.41	16545.54
886.58	17073.92
886.75	16801.54
886.92	16549.64
887.10	16983.80
887.27	16504.58
887.44	16643.84
887.61	16660.23
887.78	16762.62
887.95	16924.41
888.13	16613.12
888.30	16283.40
888.47	16301.83
888.64	16443.14
888.81	16350.98
888.99	16285.45
889.16	16060.17
889.33	16205.58
889.50	16168.71
889.67	16226.06
889.84	16017.16
890.01	16107.27
890.19	16045.84
890.36	16060.17
890.53	15808.27
890.70	16144.14
890.87	15941.39
891.04	15877.90
891.22	16004.88
891.39	15806.22
891.56	15718.16
891.73	15757.07
891.90	15726.35
892.07	15517.46
892.24	15558.42
892.42	15720.21
892.59	15632.15
892.76	15515.41
892.93	15509.27
893.10	15851.28
893.27	15709.97
893.44	15515.41
893.61	15656.72
893.79	15638.29
893.96	15687.44
894.13	15656.72
894.30	15359.77
894.47	15408.92
894.64	15699.73
894.81	15439.64
894.98	15386.39
895.15	15636.24
895.33	15388.44
895.50	15419.16
895.67	15357.72
895.84	15492.88
896.01	15032.09
896.18	15163.16
896.35	15230.74
896.52	15413.01
896.69	15456.02
896.86	15240.98
897.04	15441.68
897.21	15220.50
897.38	15365.91
897.55	15208.22
897.72	15306.52
897.89	15283.99
898.06	15351.57
898.23	15376.15
898.40	15197.98
898.57	15261.46
898.74	15222.55
898.91	15114.01
899.08	15365.91
899.26	15314.71
899.43	15191.83
899.60	15267.61
899.77	15329.05
899.94	15165.21
900.11	15050.52
900.28	15077.15
900.45	15011.61
900.62	15071.00
900.79	15281.94
900.96	15134.49
901.13	15048.47
901.30	15066.91
901.47	14903.07
901.64	15159.06
901.81	15273.75
901.98	14825.25
902.15	15189.78
902.32	15066.91
902.49	15042.33
902.66	15154.97
902.83	15079.19
903.01	15017.75
903.18	15220.50
903.35	14944.03
903.52	15238.94
903.69	15310.61
903.86	15263.51
904.03	15079.19
904.20	15230.74
904.37	15236.89
904.54	14964.51
904.71	15122.20
904.88	15023.90
905.05	15087.39
905.22	14989.08
905.39	15066.91
905.56	15021.85
905.73	14966.56
905.90	15013.66
906.07	15005.47
906.24	14974.75
906.41	15052.57
906.58	15009.56
906.75	15111.96
906.92	14898.97
907.09	14880.54
907.26	15025.95
907.43	14890.78
907.60	14767.90
907.77	15132.44
907.93	14987.04
908.10	15046.43
908.27	15036.19
908.44	14812.96
908.61	14853.92
908.78	14827.29
908.95	14868.25
909.12	14755.61
909.29	14956.32
909.46	14741.28
909.63	14870.30
909.80	14817.05
909.97	14657.31
910.14	14892.83
910.31	14905.12
910.48	14685.98
910.65	14724.90
910.82	14675.74
910.99	14591.78
911.16	14585.63
911.33	14692.13
911.50	14419.75
911.66	14417.70
911.83	14835.49
912.00	14602.02
912.17	14438.18
912.34	14409.51
912.51	14341.93
912.68	14528.29
912.85	14593.83
913.02	14532.39
913.19	14460.71
913.36	14386.98
913.53	14591.78
913.70	14356.26
913.86	14483.24
914.03	14411.56
914.20	14247.72
914.37	14098.22
914.54	14346.02
914.71	14214.95
914.88	14120.74
915.05	14061.35
915.22	14257.96
915.39	14122.79
915.55	14087.98
915.72	13645.62
915.89	13889.32
916.06	13836.08
916.23	13739.82
916.40	13772.59
916.57	13821.74
916.74	13897.52
916.91	13725.49
917.07	13662.00
917.24	13549.36
917.41	13516.59
917.58	13469.49
917.75	13565.74
917.92	13596.46
918.09	13653.81
918.26	13559.60
918.42	13444.91
918.59	13264.69
918.76	13074.23
918.93	13119.29
919.10	13311.80
919.27	13160.25
919.44	13410.10
919.60	13455.15
919.77	13107.00
919.94	12973.88
920.11	13123.38
920.28	13078.33
920.45	12836.67
920.61	12934.97
920.78	12838.72
920.95	13129.53
921.12	12781.37
921.29	12621.63
921.46	12506.95
921.62	12549.95
921.79	12504.90
921.96	12640.06
922.13	12554.05
922.30	12527.42
922.47	12556.10
922.63	12304.20
922.80	12443.46
922.97	12240.71
923.14	12216.13
923.31	12398.40
923.47	11888.46
923.64	12416.83
923.81	11999.05
923.98	12095.30
924.15	11966.28
924.32	12093.26
924.48	12089.16
924.65	12205.89
924.82	11767.63
924.99	11855.69
925.15	11712.33
925.32	11724.62
925.49	11581.26
925.66	11630.41
925.83	11497.30
925.99	11532.11
926.16	11513.68
926.33	11685.71
926.50	11155.29
926.67	11433.81
926.83	11319.12
927.00	11226.96
927.17	11224.92
927.34	11165.53
927.50	11167.57
927.67	11374.42
927.84	11120.47
928.01	10993.50
928.17	10930.01
928.34	10934.11
928.51	10815.32
928.68	10989.40
928.84	10731.36
929.01	10671.97
929.18	10602.33
929.35	10702.68
929.51	10663.77
929.68	10520.42
929.85	10604.38
930.02	10491.74
930.18	10684.25
930.35	10454.88
930.52	10405.73
930.69	10671.97
930.85	10475.36
931.02	10153.83
931.19	10235.75
931.36	10188.64
931.52	10008.42
931.69	10112.87
931.86	10145.64
932.02	10108.77
932.19	9889.64
932.36	10033.00
932.53	9965.42
932.69	9803.63
932.86	9889.64
933.03	9852.78
933.19	9645.93
933.36	9637.74
933.53	9660.27
933.70	9619.31
933.86	9404.27
934.03	9561.97
934.20	9312.11
934.36	9512.81
934.53	9097.08
934.70	9066.36
934.86	9119.60
935.03	9023.35
935.20	9084.79
935.36	8763.26
935.53	8863.61
935.70	8939.38
935.86	8834.94
936.03	8699.77
936.20	8236.93
936.36	8503.17
936.53	8411.01
936.70	8415.10
936.86	8370.05
937.03	8347.52
937.20	8204.16
937.36	8394.62
937.53	8017.80
937.70	7958.41
937.86	7722.89
938.03	7774.09
938.20	7843.72
938.36	7481.23
938.53	7540.62
938.70	7358.35
938.86	7376.78
939.03	7323.54
939.20	7235.47
939.36	7296.91
939.53	7163.79
939.70	7311.25
939.86	6868.89
940.03	6928.28
940.19	6688.67
940.36	6733.72
940.53	6858.65
940.69	6563.74
940.86	6621.08
941.03	6401.95
941.19	6205.35
941.36	6391.71
941.52	6320.03
941.69	6227.87
941.86	6195.11
942.02	6104.99
942.19	6115.23
942.35	5986.21
942.52	5957.54
942.69	5945.25
942.85	5851.05
943.02	5771.18
943.18	5736.36
943.35	5683.11
943.52	5644.20
943.68	5607.34
943.85	5752.74
944.01	5623.72
944.18	5605.29
944.35	5636.01
944.51	5523.37
944.68	5433.26
944.84	5398.45
945.01	5502.89
945.17	5431.21
945.34	5334.96
945.51	5447.60
945.67	5478.32
945.84	5207.98
946.00	5267.38
946.17	5296.05
946.33	5380.01
946.50	5410.73
946.67	5214.13
946.83	5314.48
947.00	5244.85
947.16	5273.52
947.33	5246.90
947.49	5261.23
947.66	5246.90
947.82	5246.90
947.99	5287.86
948.16	5179.31
948.32	5302.19
948.49	5314.48
948.65	5371.82
948.82	5158.83
948.98	5267.38
949.15	5078.96
949.31	5222.32
949.48	5240.75
949.64	5224.37
949.81	5234.61
949.97	5302.19
950.14	5304.24
950.30	5267.38
950.47	5255.09
950.63	5386.16
950.80	5265.33
950.96	5361.58
951.13	5324.72
951.30	5369.77
951.46	5361.58
951.63	5287.86
951.79	5185.46
951.96	5474.22
952.12	5347.25
952.29	5373.87
952.45	5117.87
952.62	5431.21
952.78	5398.45
952.94	5332.91
953.11	5314.48
953.27	5244.85
953.44	5468.08
953.60	5365.68
953.77	5433.26
953.93	5306.29
954.10	5357.49
954.26	5337.01
954.43	5345.20
954.59	5509.04
954.76	5539.76
954.92	5416.88
955.09	5463.98
955.25	5371.82
955.42	5392.30
955.58	5425.07
955.75	5302.19
955.91	5437.36
956.07	5480.36
956.24	5341.10
956.40	5627.82
956.57	5644.20
956.73	5535.66
956.90	5275.57
957.06	5492.65
957.23	5668.78
957.39	5502.89
957.56	5498.80
957.72	5382.06
957.88	5445.55
958.05	5535.66
958.21	5550.00
958.38	5310.38
958.54	5363.63
958.71	5515.18
958.87	5400.49
959.03	5406.64
959.20	5466.03
959.36	5423.02
959.53	5271.47
959.69	5451.69
959.85	5558.19
960.02	5529.52
960.18	5537.71
960.35	5412.78
960.51	5488.56
960.68	5406.64
960.84	5408.69
961.00	5418.93
961.17	5439.40
961.33	5400.49
961.50	5384.11
961.66	5394.35
961.82	5466.03
961.99	5410.73
962.15	5525.42
962.31	5441.45
962.48	5474.22
962.64	5459.88
962.81	5525.42
962.97	5357.49
963.13	5447.60
963.30	5398.45
963.46	5339.05
963.62	5265.33
963.79	5314.48
963.95	5367.73
964.12	5441.45
964.28	5300.14
964.44	5238.70
964.61	5277.62
964.77	5334.96
964.93	5457.84
965.10	5369.77
965.26	5304.24
965.42	5400.49
965.59	5228.46
965.75	5296.05
965.92	5263.28
966.08	5312.43
966.24	5308.34
966.41	5156.79
966.57	5226.42
966.73	5328.81
966.90	5271.47
967.06	5377.97
967.22	5177.26
967.39	5332.91
967.55	5212.08
967.71	5275.57
967.88	5173.17
968.04	5257.14
968.20	5257.14
968.37	5210.03
968.53	5160.88
968.69	5169.07
968.85	5201.84
969.02	5119.92
969.18	5048.24
969.34	5093.30
969.51	5152.69
969.67	5197.74
969.83	4988.85
970.00	5148.59
970.16	5070.77
970.32	5091.25
970.48	5230.51
970.65	5062.58
970.81	4992.95
970.97	5076.91
971.14	5085.11
971.30	5111.73
971.46	4982.71
971.63	4906.93
971.79	5154.74
971.95	4968.37
972.11	4941.75
972.28	5013.43
972.44	5103.54
972.60	4800.44
972.76	4913.08
972.93	4853.69
973.09	4951.99
973.25	4984.76
973.42	4951.99
973.58	5056.43
973.74	4861.88
973.90	4968.37
974.07	4761.53
974.23	4865.97
974.39	4923.32
974.55	4921.27
974.72	4882.36
974.88	4765.62
975.04	5001.14
975.20	4786.10
975.37	4872.12
975.53	4906.93
975.69	4753.34
975.85	4804.53
976.01	4771.77
976.18	4790.20
976.34	4657.08
976.50	4806.58
976.66	4755.38
976.83	4720.57
976.99	4622.27
977.15	4607.93
977.31	4603.83
977.47	4661.18
977.64	4624.31
977.80	4673.46
977.96	4614.07
978.12	4626.36
978.29	4640.70
978.45	4446.14
978.61	4511.68
978.77	4540.35
978.93	4640.70
979.10	4612.03
979.26	4540.35
979.42	4575.16
979.58	4519.87
979.74	4517.82
979.91	4634.55
980.07	4433.85
980.23	4663.22
980.39	4464.57
980.55	4505.53
980.71	4286.40
980.88	4280.25
981.04	4472.76
981.20	4325.31
981.36	4356.03
981.52	4409.28
981.68	4521.92
981.85	4413.37
982.01	4382.65
982.17	4358.08
982.33	4360.13
982.49	4474.81
982.65	4388.80
982.82	4452.28
982.98	4399.04
983.14	4245.44
983.30	4472.76
983.46	4259.78
983.62	4423.61
983.79	4267.97
983.95	4222.91
984.11	4124.61
984.27	4140.99
984.43	4317.12
984.59	4245.44
984.75	4200.38
984.91	4186.05
985.08	4321.21
985.24	4108.23
985.40	4007.87
985.56	4202.43
985.72	4276.16
985.88	4132.80
986.04	3925.96
986.20	4136.90
986.37	4091.84
986.53	4067.27
986.69	4259.78
986.85	4009.92
987.01	4151.23
987.17	4124.61
987.33	3964.87
987.49	3882.95
987.65	4001.73
987.82	4026.31
987.98	3973.06
988.14	4038.59
988.30	4011.97
988.46	3921.86
988.62	3989.44
988.78	3809.22
988.94	3960.77
989.10	3831.75
989.26	3905.48
989.42	3860.42
989.59	3835.85
989.75	3848.13
989.91	3948.48
990.07	3835.85
990.23	3829.70
990.39	3878.85
990.55	3889.09
990.71	3823.56
990.87	3844.04
991.03	3805.13
991.19	3772.36
991.35	3880.90
991.51	3825.61
991.67	3942.34
991.83	3778.50
992.00	3854.28
992.16	3817.41
992.32	3801.03
992.48	3727.30
992.64	3708.87
992.80	3846.09
992.96	3710.92
993.12	3737.54
993.28	3620.81
993.44	3608.52
993.60	3809.22
993.76	3639.24
993.92	3698.63
994.08	3719.11
994.24	3633.10
994.40	3534.79
994.56	3626.95
994.72	3547.08
994.88	3547.08
995.04	3569.61
995.20	3532.75
995.36	3633.10
995.52	3702.73
995.68	3516.36
995.84	3354.57
996.00	3569.61
996.16	3542.99
996.32	3522.51
996.48	3497.93
996.64	3526.60
996.80	3471.31
996.96	3551.18
997.12	3483.59
997.28	3487.69
997.44	3454.92
997.60	3532.75
997.76	3356.62
997.92	3334.09
998.08	3375.05
998.24	3358.67
998.40	3483.59
998.56	3407.82
998.72	3336.14
998.88	3321.81
999.04	3409.87
999.20	3436.49
999.36	3301.33
999.52	3475.40
999.68	3434.44
999.84	3424.20
1000.00	3346.38
1000.16	3342.28
1000.32	3323.85
1000.48	3471.31
1000.64	3284.94
1000.80	3227.60
1000.95	3262.41
1001.11	3278.80
1001.27	3129.30
1001.43	3262.41
1001.59	3172.30
1001.75	3129.30
1001.91	3141.58
1002.07	3133.39
1002.23	3147.73
1002.39	3162.06
1002.55	3186.64
1002.71	3055.57
1002.87	3162.06
1003.03	2977.75
1003.19	3086.29
1003.34	3104.72
1003.50	3143.63
1003.66	3164.11
1003.82	3157.97
1003.98	3160.02
1004.14	3143.63
1004.30	3018.71
1004.46	3074.00
1004.62	3069.91
1004.78	2992.08
1004.94	3141.58
1005.09	3069.91
1005.25	3082.19
1005.41	3039.19
1005.57	2959.31
1005.73	2951.12
1005.89	2926.55
1006.05	3014.61
1006.21	3039.19
1006.37	2975.70
1006.52	2883.54
1006.68	2940.88
1006.84	3018.71
1007.00	2912.21
1007.16	2936.79
1007.32	2901.97
1007.48	3016.66
1007.64	2877.40
1007.79	2863.06
1007.95	2811.86
1008.11	2920.40
1008.27	2838.48
1008.43	2858.96
1008.59	2904.02
1008.75	2944.98
1008.91	2926.55
1009.06	2904.02
1009.22	2838.48
1009.38	2856.92
1009.54	2795.48
1009.70	2850.77
1009.86	2818.00
1010.01	2869.20
1010.17	2756.57
1010.33	2826.20
1010.49	2846.68
1010.65	2897.88
1010.81	2711.51
1010.96	2885.59
1011.12	2688.98
1011.28	2666.46
1011.44	2787.29
1011.60	2703.32
1011.76	2691.03
1011.91	2731.99
1012.07	2701.27
1012.23	2678.74
1012.39	2676.70
1012.55	2740.18
1012.71	2635.74
1012.86	2660.31
1013.02	2678.74
1013.18	2650.07
1013.34	2684.89
1013.50	2709.46
1013.65	2701.27
1013.81	2615.26
1013.97	2588.63
1014.13	2674.65
1014.29	2609.11
1014.44	2729.94
1014.60	2506.71
1014.76	2488.28
1014.92	2557.91
1015.07	2541.53
1015.23	2633.69
1015.39	2555.86
1015.55	2527.19
1015.71	2568.15
1015.86	2574.30
1016.02	2488.28
1016.18	2367.45
1016.34	2623.45
1016.49	2553.82
1016.65	2502.62
1016.81	2426.84
1016.97	2525.15
1017.12	2611.16
1017.28	2480.09
1017.44	2394.08
1017.60	2428.89
1017.75	2418.65
1017.91	2428.89
1018.07	2461.66
1018.23	2445.27
1018.38	2445.27
1018.54	2443.23
1018.70	2529.24
1018.86	2389.98
1019.01	2312.16
1019.17	2392.03
1019.33	2439.13
1019.49	2381.79
1019.64	2435.03
1019.80	2455.51
1019.96	2375.64
1020.12	2398.17
1020.27	2297.82
1020.43	2277.34
1020.59	2387.93
1020.74	2369.50
1020.90	2414.56
1021.06	2336.73
1021.22	2383.84
1021.37	2316.25
1021.53	2232.29
1021.69	2367.45
1021.84	2252.77
1022.00	2398.17
1022.16	2246.62
1022.31	2312.16
1022.47	2392.03
1022.63	2316.25
1022.79	2211.81
1022.94	2246.62
1023.10	2377.69
1023.26	2254.81
1023.41	2248.67
1023.57	2201.57
1023.73	2314.20
1023.88	2275.29
1024.04	2316.25
1024.20	2314.20
1024.35	2275.29
1024.51	2351.07
1024.67	2224.09
1024.82	2277.34
1024.98	2203.61
1025.14	2244.57
1025.29	2160.61
1025.45	2324.44
1025.61	2224.09
1025.76	2195.42
1025.92	2187.23
1026.08	2228.19
1026.23	2226.14
1026.39	2330.59
1026.55	2234.33
1026.70	2205.66
1026.86	2230.24
1027.02	2252.77
1027.17	2176.99
1027.33	2193.37
1027.48	2103.26
1027.64	2205.66
1027.80	2133.98
1027.95	2166.75
1028.11	2068.45
1028.27	2215.90
1028.42	2160.61
1028.58	2086.88
1028.73	2072.54
1028.89	1955.81
1029.05	2279.39
1029.20	2131.94
>>>>>End Processed Spectral Data<<<<<
