SpectraSuite Data File
++++++++++++++++++++++++++++++++++++
Date: Fri Jun 02 14:47:55 CEST 2017
User: INFO_000
Dark Spectrum Present: No
Reference Spectrum Present: No
Number of Sampled Component Spectra: 1
Spectrometers: USB4H00879
Integration Time (usec): 80000 (USB4H00879)
Spectra Averaged: 1 (USB4H00879)
Boxcar Smoothing: 0 (USB4H00879)
Correct for Electrical Dark: No (USB4H00879)
Strobe/Lamp Enabled: No (USB4H00879)
Correct for Detector Non-linearity: No (USB4H00879)
Correct for Stray Light: No (USB4H00879)
Number of Pixels in Processed Spectrum: 3648
>>>>>Begin Processed Spectral Data<<<<<
345.13	1290.22
345.34	1290.22
345.56	1290.22
345.78	1263.60
345.99	1277.93
346.21	1640.42
346.42	1701.86
346.64	1581.03
346.86	1767.40
347.07	1574.89
347.29	1732.58
347.50	1564.65
347.72	1613.80
347.94	1746.92
348.15	1497.07
348.37	1585.13
348.59	1687.53
348.80	1695.72
349.02	1863.65
349.23	1884.13
349.45	1744.87
349.67	1847.27
349.88	1888.23
350.10	1978.34
350.31	1877.99
350.53	1837.03
350.75	1959.91
350.96	1808.36
351.18	1873.89
351.39	1867.75
351.61	1695.72
351.82	1875.94
352.04	1925.09
352.26	1857.51
352.47	1894.37
352.69	1908.71
352.90	1779.68
353.12	1806.31
353.34	1898.47
353.55	1925.09
353.77	1880.04
353.98	1810.40
354.20	1875.94
354.41	1925.09
354.63	1976.29
354.85	1978.34
355.06	1902.56
355.28	1830.88
355.49	1941.47
355.71	1865.70
355.92	1832.93
356.14	1841.12
356.35	1880.04
356.57	1869.80
356.79	1978.34
357.00	1935.33
357.22	1902.56
357.43	1902.56
357.65	1912.80
357.86	1880.04
358.08	1894.37
358.29	1937.38
358.51	2023.39
358.72	2039.78
358.94	1886.18
359.16	1951.71
359.37	1875.94
359.59	2007.01
359.80	1953.76
360.02	1929.19
360.23	1998.82
360.45	1957.86
360.66	1933.28
360.88	1886.18
361.09	1918.95
361.31	1970.15
361.52	1951.71
361.74	2019.30
361.95	2103.26
362.17	1982.43
362.38	2080.74
362.60	2097.12
362.81	1984.48
363.03	1951.71
363.24	2009.06
363.46	2056.16
363.67	2045.92
363.89	2011.11
364.10	1923.04
364.32	1966.05
364.53	1978.34
364.75	1869.80
364.96	2054.11
365.18	2101.22
365.39	2082.78
365.61	1951.71
365.82	2142.18
366.04	2007.01
366.25	1984.48
366.47	2080.74
366.68	2045.92
366.90	1914.85
367.11	2035.68
367.33	2060.26
367.54	2076.64
367.76	1998.82
367.97	2123.74
368.19	2082.78
368.40	2023.39
368.62	1933.28
368.83	2002.91
369.05	2015.20
369.26	1982.43
369.48	1994.72
369.69	1875.94
369.91	2039.78
370.12	2033.63
370.33	2131.94
370.55	1943.52
370.76	1957.86
370.98	2070.50
371.19	2002.91
371.41	1923.04
371.62	2070.50
371.84	1998.82
372.05	2232.29
372.27	1980.39
372.48	2072.54
372.69	2136.03
372.91	2197.47
373.12	2117.60
373.34	2172.89
373.55	2080.74
373.77	2238.43
373.98	2060.26
374.20	2146.27
374.41	2195.42
374.62	2117.60
374.84	2158.56
375.05	2150.37
375.27	2119.65
375.48	2205.66
375.70	2121.70
375.91	2222.05
376.12	2256.86
376.34	2076.64
376.55	2127.84
376.77	2185.18
376.98	2111.46
377.19	2166.75
377.41	2105.31
377.62	2209.76
377.84	2291.68
378.05	2334.68
378.27	2193.37
378.48	2240.48
378.69	2330.59
378.91	2322.40
379.12	2199.52
379.34	2279.39
379.55	2248.67
379.76	2252.77
379.98	2172.89
380.19	2271.20
380.41	2244.57
380.62	2344.92
380.83	2244.57
381.05	2273.25
381.26	2496.47
381.47	2285.53
381.69	2248.67
381.90	2377.69
382.12	2355.16
382.33	2398.17
382.54	2351.07
382.76	2404.32
382.97	2250.72
383.19	2228.19
383.40	2383.84
383.61	2275.29
383.83	2236.38
384.04	2322.40
384.25	2441.18
384.47	2416.60
384.68	2342.88
384.89	2303.96
385.11	2283.49
385.32	2330.59
385.54	2426.84
385.75	2265.05
385.96	2336.73
386.18	2369.50
386.39	2377.69
386.60	2338.78
386.82	2461.66
387.03	2467.80
387.24	2592.73
387.46	2467.80
387.67	2486.23
387.88	2508.76
388.10	2490.33
388.31	2549.72
388.52	2539.48
388.74	2494.43
388.95	2533.34
389.16	2422.75
389.38	2428.89
389.59	2600.92
389.80	2680.79
390.02	2457.56
390.23	2734.04
390.44	2588.63
390.66	2588.63
390.87	2494.43
391.08	2637.78
391.30	2645.98
391.51	2693.08
391.72	2607.06
391.94	2643.93
392.15	2478.04
392.36	2609.11
392.58	2547.67
392.79	2590.68
393.00	2727.89
393.22	2658.26
393.43	2795.48
393.64	2822.10
393.85	2738.13
394.07	2621.40
394.28	2736.09
394.49	2754.52
394.71	2746.33
394.92	2836.44
395.13	2600.92
395.35	2656.22
395.56	2752.47
395.77	2818.00
395.98	2848.72
396.20	2858.96
396.41	2793.43
396.62	2818.00
396.84	2752.47
397.05	2791.38
397.26	2889.68
397.47	2967.51
397.69	2822.10
397.90	3039.19
398.11	2867.16
398.32	2754.52
398.54	2873.30
398.75	2838.48
398.96	2914.26
399.18	3055.57
399.39	2965.46
399.60	3012.56
399.81	2928.60
400.03	2918.36
400.24	3301.33
400.45	2953.17
400.66	2981.84
400.88	2908.12
401.09	3194.83
401.30	3037.14
401.51	3157.97
401.73	3041.23
401.94	3114.96
402.15	3004.37
402.36	3135.44
402.58	3196.88
402.79	3096.53
403.00	3055.57
403.21	3139.54
403.43	3100.62
403.64	3243.98
403.85	3084.24
404.06	3205.07
404.27	3139.54
404.49	3198.93
404.70	3127.25
404.91	3268.56
405.12	3262.41
405.34	3157.97
405.55	3438.54
405.76	3207.12
405.97	3248.08
406.19	3272.65
406.40	3330.00
406.61	3215.31
406.82	3352.52
407.03	3379.15
407.25	3207.12
407.46	3344.33
407.67	3467.21
407.88	3407.82
408.09	3311.57
408.31	3426.25
408.52	3385.29
408.73	3387.34
408.94	3350.48
409.15	3413.96
409.37	3411.92
409.58	3530.70
409.79	3508.17
410.00	3567.56
410.21	3446.73
410.43	3512.27
410.64	3471.31
410.85	3520.46
411.06	3571.66
411.27	3588.04
411.48	3684.30
411.70	3657.67
411.91	3600.33
412.12	3588.04
412.33	3629.00
412.54	3598.28
412.76	3796.93
412.97	3715.02
413.18	3598.28
413.39	3551.18
413.60	3725.26
413.81	3739.59
414.03	3620.81
414.24	3733.45
414.45	3839.94
414.66	3622.86
414.87	3706.82
415.08	3684.30
415.30	3641.29
415.51	3833.80
415.72	3819.46
415.93	3776.45
416.14	3753.93
416.35	3811.27
416.56	3895.24
416.78	3864.52
416.99	3846.09
417.20	3885.00
417.41	3876.80
417.62	3837.89
417.83	3874.76
418.04	3823.56
418.26	4005.83
418.47	3858.37
418.68	3991.49
418.89	4061.12
419.10	4079.55
419.31	3983.30
419.52	3968.96
419.73	3948.48
419.95	4081.60
420.16	4050.88
420.37	3981.25
420.58	4065.22
420.79	3858.37
421.00	3985.35
421.21	4046.79
421.42	4075.46
421.63	4165.57
421.85	4100.03
422.06	4173.76
422.27	4202.43
422.48	4097.99
422.69	4222.91
422.90	4249.54
423.11	4276.16
423.32	4288.45
423.53	4304.83
423.75	4321.21
423.96	4409.28
424.17	4497.34
424.38	4265.92
424.59	4366.27
424.80	4569.02
425.01	4265.92
425.22	4374.46
425.43	4351.93
425.64	4620.22
425.85	4636.60
426.06	4550.59
426.28	4444.09
426.49	4472.76
426.70	4417.47
426.91	4489.15
427.12	4499.39
427.33	4566.97
427.54	4597.69
427.75	4681.66
427.96	4736.95
428.17	4605.88
428.38	4702.14
428.59	4767.67
428.80	4814.77
429.01	4757.43
429.23	4808.63
429.44	4954.04
429.65	4990.90
429.86	4839.35
430.07	4775.86
430.28	4755.38
430.49	4855.73
430.70	4978.61
430.91	5091.25
431.12	4878.26
431.33	5099.44
431.54	5023.67
431.75	5124.02
431.96	5103.54
432.17	4972.47
432.38	5072.82
432.59	5304.24
432.80	5105.59
433.01	5279.66
433.22	5242.80
433.43	5183.41
433.64	5203.89
433.85	5169.07
434.06	5394.35
434.27	5214.13
434.49	5408.69
434.70	5425.07
434.91	5472.17
435.12	5519.28
435.33	5427.12
435.54	5461.93
435.75	5195.70
435.96	5361.58
436.17	5294.00
436.38	5435.31
436.59	5541.80
436.80	5443.50
437.01	5670.83
437.22	5595.05
437.43	5613.48
437.64	5345.20
437.85	5705.64
438.06	5896.10
438.27	5662.63
438.48	5767.08
438.69	5935.01
438.90	5869.48
439.11	5787.56
439.32	5754.79
439.53	5722.02
439.74	5844.90
439.95	6049.70
440.16	5822.38
440.37	5887.91
440.57	5795.75
440.78	6047.65
440.99	6064.04
441.20	5937.06
441.41	5912.49
441.62	6104.99
441.83	5812.14
442.04	6195.11
442.25	5873.57
442.46	6100.90
442.67	6217.63
442.88	6623.13
443.09	6051.75
443.30	6025.12
443.51	6246.30
443.72	6399.90
443.93	6236.06
444.14	6461.34
444.35	6119.33
444.56	6481.82
444.77	6379.42
444.98	6313.89
445.19	6475.68
445.40	6451.10
445.61	6461.34
445.81	6408.09
446.02	6629.27
446.23	6401.95
446.44	6539.16
446.65	6619.04
446.86	6432.67
447.07	6664.09
447.28	6803.35
447.49	6770.58
447.70	6576.03
447.91	6893.46
448.12	6707.10
448.33	6868.89
448.54	6915.99
448.74	6653.85
448.95	6815.64
449.16	6631.32
449.37	7067.54
449.58	6965.14
449.79	6821.78
450.00	6748.06
450.21	6860.70
450.42	6991.77
450.63	7149.46
450.84	7012.24
451.05	6961.05
451.25	7040.92
451.46	6723.48
451.67	7131.03
451.88	7137.17
452.09	7239.57
452.30	6911.89
452.51	7059.35
452.72	7325.58
452.93	7610.25
453.13	7128.98
453.34	7126.93
453.55	7311.25
453.76	7235.47
453.97	7645.07
454.18	7407.50
454.39	7534.48
454.60	7516.05
454.81	7364.50
455.01	7585.68
455.22	7272.34
455.43	7612.30
455.64	7851.91
455.85	7794.57
456.06	7798.66
456.27	7602.06
456.48	7653.26
456.68	7774.09
456.89	7620.49
457.10	7733.13
457.31	7894.92
457.52	7776.14
457.73	7997.32
457.94	8093.57
458.14	7843.72
458.35	8341.38
458.56	8095.62
458.77	7868.30
458.98	8208.26
459.19	8109.96
459.39	8204.16
459.60	8439.68
459.81	8163.20
460.02	8386.43
460.23	8419.20
460.44	8558.46
460.65	8499.07
460.85	8568.70
461.06	8562.56
461.27	8517.50
461.48	8687.48
461.69	8875.90
461.89	8562.56
462.10	8771.45
462.31	8644.48
462.52	8642.43
462.73	8767.35
462.94	8931.19
463.14	8871.80
463.35	8865.66
463.56	9285.49
463.77	9246.58
463.98	9082.74
464.18	9047.93
464.39	9189.24
464.60	9557.87
464.81	9334.64
465.02	9138.04
465.23	9385.84
465.43	9383.79
465.64	9811.82
465.85	9416.56
466.06	9559.92
466.27	9903.98
466.47	9770.86
466.68	9656.17
466.89	9858.92
467.10	10024.81
467.30	9707.37
467.51	10006.38
467.72	10233.70
467.93	9930.60
468.14	10180.45
468.34	10313.57
468.55	10182.50
468.76	10278.76
468.97	10227.56
469.17	10461.02
469.38	10575.71
469.59	10846.04
469.80	10471.26
470.01	10667.87
470.21	10725.21
470.42	11118.42
470.63	11059.03
470.84	10714.97
471.04	11188.05
471.25	11061.08
471.46	11028.31
471.67	11290.45
471.87	11349.84
472.08	11603.79
472.29	11601.74
472.50	11693.90
472.70	11409.23
472.91	11693.90
473.12	11835.21
473.33	11962.19
473.53	12091.21
473.74	11886.41
473.95	11872.07
474.16	12212.04
474.36	12128.07
474.57	12486.47
474.78	12586.82
474.99	12435.27
475.19	12468.03
475.40	12910.40
475.61	12889.92
475.81	12971.83
476.02	13178.68
476.23	13047.61
476.44	13221.69
476.64	13475.63
476.85	13598.51
477.06	13483.83
477.27	13584.18
477.47	13883.18
477.68	13895.47
477.89	13831.98
478.09	13979.43
478.30	14030.63
478.51	14108.46
478.71	14397.22
478.92	14497.57
479.13	14393.12
479.34	14677.79
479.54	14688.03
479.75	14550.82
479.96	14810.91
480.16	14903.07
480.37	15161.11
480.58	15071.00
480.78	15509.27
480.99	15585.04
481.20	15578.90
481.41	15501.08
481.61	15662.86
481.82	15855.37
482.03	15662.86
482.23	15888.14
482.44	16164.62
482.65	16271.11
482.85	16215.82
483.06	16299.78
483.27	16187.14
483.47	16320.26
483.68	16600.83
483.89	16770.82
484.09	16604.93
484.30	16803.58
484.51	16920.32
484.71	17108.73
484.92	17159.93
485.13	17200.89
485.33	17211.13
485.54	17233.66
485.75	17583.86
485.95	17798.90
486.16	17547.00
486.37	17800.94
486.57	17671.92
486.78	17895.15
486.98	17964.78
487.19	18214.63
487.40	18472.68
487.60	18228.97
487.81	18697.95
488.02	18095.85
488.22	18335.46
488.43	18556.64
488.64	18740.96
488.84	18740.96
489.05	18882.27
489.25	18736.87
489.46	18988.77
489.67	18949.85
489.87	19281.63
490.08	19244.76
490.29	19365.59
490.49	19703.51
490.70	19732.18
490.90	19642.07
491.11	19396.31
491.32	19744.47
491.52	19705.56
491.73	19936.98
491.94	19750.61
492.14	19875.54
492.35	20037.33
492.55	20180.68
492.76	20397.77
492.97	20459.21
493.17	20500.17
493.38	20551.37
493.58	20534.98
493.79	20379.34
494.00	20436.68
494.20	21040.83
494.41	20784.83
494.61	20844.23
494.82	20793.03
495.02	21126.85
495.23	21243.58
495.44	21372.60
495.64	21313.21
495.85	21321.40
496.05	21591.73
496.26	21458.62
496.47	21593.78
496.67	21628.60
496.88	21931.70
497.08	21851.83
497.29	21921.46
497.49	21958.32
497.70	21872.31
497.91	22103.73
498.11	21997.23
498.32	22111.92
498.52	22550.18
498.73	22509.22
498.93	22318.76
499.14	22763.17
499.34	22386.35
499.55	22480.55
499.76	22767.27
499.96	22621.86
500.17	22636.20
500.37	22748.84
500.58	22802.08
500.78	22988.45
500.99	22765.22
501.19	23053.98
501.40	23324.32
501.60	23264.92
501.81	23211.68
502.02	23115.42
502.22	23156.38
502.43	23320.22
502.63	23746.20
502.84	23752.34
503.04	23772.82
503.25	23602.84
503.45	23563.93
503.66	23719.57
503.86	24000.15
504.07	23793.30
504.27	23815.83
504.48	24141.46
504.68	23795.35
504.89	24424.08
505.09	24282.77
505.30	24133.26
505.50	24288.91
505.71	24497.80
505.91	24555.15
506.12	24352.40
506.32	24260.24
506.53	24637.06
506.73	24559.24
506.94	24639.11
507.14	24860.29
507.35	24753.80
507.55	24776.33
507.76	25108.10
507.96	24833.67
508.17	24944.26
508.37	24843.91
508.58	25374.33
508.78	25290.37
508.99	25425.53
509.19	25429.63
509.40	25595.51
509.60	25462.40
509.81	25378.43
510.01	25392.76
510.22	25661.05
510.42	25867.89
510.63	25900.66
510.83	25919.09
511.04	25714.30
511.24	25847.41
511.44	25902.71
511.65	25884.28
511.85	25998.96
512.06	26390.13
512.26	26482.28
512.47	26470.00
512.67	26179.18
512.88	26332.78
513.08	26224.24
513.29	26519.15
513.49	26525.29
513.69	26607.21
513.90	27145.83
514.10	26912.36
514.31	26848.87
514.51	26961.51
514.72	27074.15
514.92	27014.76
515.13	27254.37
515.33	27393.63
515.53	27213.41
515.74	27487.84
515.94	27584.09
516.15	27547.23
516.35	27192.93
516.56	27872.85
516.76	27584.09
516.96	27784.79
517.17	27926.10
517.37	27903.57
517.58	27827.80
517.78	28079.70
517.99	27946.58
518.19	28407.37
518.39	28661.32
518.60	28603.98
518.80	28329.55
519.01	28859.98
519.21	28511.82
519.41	28921.41
519.62	28382.80
519.82	28989.00
520.03	29079.11
520.23	28810.82
520.43	28958.28
520.64	29046.34
520.84	29294.14
521.05	29451.84
521.25	29689.40
521.45	29699.64
521.66	29515.33
521.86	29568.57
522.07	29599.29
522.27	30021.17
522.47	29937.21
522.68	30285.36
522.88	30191.16
523.08	30303.79
523.29	30531.12
523.49	30391.86
523.70	30680.62
523.90	30823.98
524.10	30615.08
524.31	30817.83
524.51	30864.94
524.71	31372.83
524.92	31147.56
525.12	31381.03
525.33	31307.30
525.53	31372.83
525.73	31508.00
525.94	31532.57
526.14	31153.70
526.34	31890.97
526.55	31497.76
526.75	31819.29
526.95	32122.39
527.16	31856.15
527.36	32056.85
527.56	32470.54
527.77	32112.15
527.97	32421.39
528.17	32355.86
528.38	32773.64
528.58	32599.57
528.78	32849.42
528.99	32583.18
529.19	32925.19
529.39	32884.23
529.60	33154.57
529.80	33402.37
530.00	33318.40
530.21	33351.17
530.41	33719.81
530.61	33732.09
530.82	33748.48
531.02	33515.01
531.22	33838.59
531.43	34012.66
531.63	33994.23
531.83	34643.44
532.04	34493.94
532.24	34041.34
532.44	34586.10
532.64	34432.50
532.85	34985.45
533.05	34993.64
533.25	34442.74
533.46	34788.85
533.66	34960.87
533.86	34862.57
534.07	35093.99
534.27	35038.70
534.47	35220.97
534.67	35581.41
534.88	35427.81
535.08	35157.48
535.28	35468.77
535.49	35735.01
535.69	36193.75
535.89	36079.07
536.09	35843.55
536.30	36484.56
536.50	36503.00
536.70	36466.13
536.91	36392.40
537.11	36238.81
537.31	36681.17
537.51	36273.62
537.72	37023.18
537.92	37123.53
538.12	37090.76
538.32	36703.70
538.53	37115.34
538.73	37174.73
538.93	36939.21
539.13	37268.94
539.34	37164.49
539.54	37250.50
539.74	37397.96
539.94	37133.77
540.15	36959.69
540.35	37488.07
540.55	37369.29
540.75	37443.01
540.96	37701.06
541.16	37594.56
541.36	37537.22
541.56	37733.82
541.77	37983.68
541.97	37903.81
542.17	38206.90
542.37	38272.44
542.58	37971.39
542.78	38034.88
542.98	37909.95
543.18	37864.89
543.38	38550.96
543.59	38288.82
543.79	38024.64
543.99	38069.69
544.19	38561.20
544.40	38467.00
544.60	38421.94
544.80	38292.92
545.00	38374.84
545.20	38747.57
545.41	38651.31
545.61	38647.22
545.81	38622.64
546.01	38790.58
546.21	38686.13
546.42	38485.43
546.62	39028.14
546.82	38524.34
547.02	38913.45
547.22	39079.34
547.43	39089.58
547.63	39325.10
547.83	39251.37
548.03	39171.50
548.23	38991.28
548.44	39425.45
548.64	38983.09
548.84	39740.83
549.04	39407.01
549.24	39663.01
549.45	39495.08
549.65	39468.45
549.85	39394.73
550.05	39490.98
550.25	39294.38
550.45	40031.65
550.66	39914.91
550.86	39503.27
551.06	39720.35
551.26	39740.83
551.46	39652.77
551.66	39935.39
551.87	40193.43
552.07	40365.46
552.27	40017.31
552.47	40005.02
552.67	40404.38
552.87	40129.95
553.07	40404.38
553.28	40279.45
553.48	40506.77
553.68	39941.53
553.88	40773.01
554.08	40498.58
554.28	40375.70
554.48	40232.35
554.69	40132.00
554.89	40646.04
555.09	40424.86
555.29	40662.42
555.49	40750.48
555.69	40684.95
555.89	40584.60
556.10	40830.35
556.30	40750.48
556.50	40865.17
556.70	40484.25
556.90	40799.63
557.10	41100.68
557.30	40646.04
557.50	41155.98
557.70	41018.77
557.91	41207.18
558.11	41213.32
558.31	41389.45
558.51	40754.58
558.71	41411.98
558.91	41627.01
559.11	41366.92
559.31	41188.75
559.51	41129.36
559.72	41553.29
559.92	41667.97
560.12	41094.54
560.32	41686.40
560.52	41831.81
560.72	41641.35
560.92	41809.28
561.12	41686.40
561.32	42220.92
561.52	41768.32
561.72	42067.33
561.93	41692.55
562.13	41696.64
562.33	41641.35
562.53	42569.08
562.73	42327.42
562.93	42204.54
563.13	42345.85
563.33	41979.26
563.53	42769.78
563.73	41860.48
563.93	42216.83
564.13	42620.28
564.33	42597.75
564.53	42562.93
564.74	42974.58
564.94	42673.52
565.14	42550.65
565.34	42661.24
565.54	42837.36
565.74	42573.17
565.94	43285.87
566.14	43103.60
566.34	42956.14
566.54	43609.45
566.74	43406.70
566.94	43165.04
567.14	43554.15
567.34	43144.56
567.54	43484.52
567.74	43580.78
567.94	43431.27
568.14	43707.75
568.34	43355.50
568.54	43656.55
568.74	43603.30
568.94	43775.33
569.14	43953.51
569.34	43963.75
569.54	44012.90
569.75	43926.88
569.95	44350.81
570.15	44500.31
570.35	44254.56
570.55	44160.35
570.75	44074.34
570.95	44758.36
571.15	44369.24
571.35	44780.88
571.55	44625.24
571.75	44578.14
571.95	44979.54
572.15	44387.67
572.35	45030.74
572.55	44893.52
572.75	44885.33
572.95	44897.62
573.15	45260.11
573.35	45004.11
573.55	45006.16
573.75	45133.14
573.95	45436.23
574.15	45419.85
574.35	45716.81
574.55	45493.58
574.75	45557.06
574.95	45512.01
575.15	45469.00
575.34	45604.17
575.54	45755.72
575.74	46083.39
575.94	45978.95
576.14	45913.41
576.34	46415.16
576.54	46409.02
576.74	46300.48
576.94	46509.37
577.14	46540.09
577.34	46935.35
577.54	46171.46
577.74	47084.85
577.94	46658.87
578.14	46810.42
578.34	46937.40
578.54	46253.37
578.74	47191.34
578.94	47650.09
579.14	46677.30
579.34	46996.79
579.54	46851.38
579.74	47752.49
579.94	47363.37
580.13	47633.71
580.33	47668.52
580.53	47750.44
580.73	48098.59
580.93	47469.87
581.13	47818.02
581.33	47912.23
581.53	48031.01
581.73	47981.86
581.93	48252.19
582.13	48407.84
582.33	48456.99
582.53	47973.67
582.73	48323.87
582.92	48270.62
583.12	48594.20
583.32	48352.54
583.52	48307.49
583.72	48719.13
583.92	48534.81
584.12	49032.47
584.32	48811.29
584.52	48522.52
584.72	49319.18
584.92	49263.89
585.11	49474.83
585.31	48784.66
585.51	49286.42
585.71	49239.31
585.91	49300.75
586.11	49286.42
586.31	49300.75
586.51	49466.64
586.71	49425.68
586.91	49552.65
587.10	49300.75
587.30	49734.92
587.50	49528.08
587.70	49679.63
587.90	49913.09
588.10	50040.07
588.30	49845.51
588.50	50337.02
588.69	50054.40
588.89	49775.88
589.09	49911.05
589.29	50306.30
589.49	50304.26
589.69	49468.69
589.89	50308.35
590.08	50363.65
590.28	50283.78
590.48	50087.17
590.68	49972.49
590.88	50576.64
591.08	50652.41
591.28	50271.49
591.47	50689.27
591.67	50898.17
591.87	50412.80
592.07	50572.54
592.27	50480.38
592.47	50513.15
592.67	50552.06
592.86	50648.32
593.06	50881.78
593.26	50865.40
593.46	50828.54
593.66	50867.45
593.86	50758.91
594.05	50912.50
594.25	51334.38
594.45	50738.43
594.65	51129.59
594.85	50644.22
595.05	51547.37
595.24	51856.62
595.44	51303.67
595.64	51244.27
595.84	51332.34
596.04	51227.89
596.23	51485.93
596.43	51733.74
596.63	51649.77
596.83	51410.16
597.03	51793.13
597.22	51950.82
597.42	52100.32
597.62	51453.17
597.82	51582.19
598.02	51770.60
598.21	51834.09
598.41	51299.57
598.61	51741.93
598.81	51442.93
599.01	51561.71
599.20	52274.40
599.40	51512.56
599.60	52012.26
599.80	52169.96
600.00	52098.28
600.19	52225.25
600.39	51156.21
600.59	52030.69
600.79	52045.03
600.98	52051.17
601.18	52233.44
601.38	52159.72
601.58	52057.32
601.78	52354.27
601.97	52393.18
602.17	52960.47
602.37	52200.68
602.57	52190.44
602.76	52608.22
602.96	52468.96
603.16	52212.96
603.36	52821.21
603.55	52821.21
603.75	52382.94
603.95	52323.55
604.15	52681.95
604.34	52495.58
604.54	53044.44
604.74	52991.19
604.94	52970.71
605.13	53046.49
605.33	52960.47
605.53	52518.11
605.73	52661.47
605.92	52747.48
606.12	53122.26
606.32	52886.74
606.52	52880.60
606.71	52622.56
606.91	53126.36
607.11	52808.92
607.30	53378.26
607.50	52880.60
607.70	53105.88
607.90	52776.15
608.09	52821.21
608.29	53204.18
608.49	53216.47
608.68	52679.90
608.88	52958.42
609.08	53202.13
609.28	53265.62
609.47	53171.41
609.67	53325.01
609.87	53550.29
610.06	53408.98
610.26	53206.23
610.46	53382.35
610.66	53042.39
610.85	53306.58
611.05	53161.17
611.25	53028.05
611.44	53386.45
611.64	52888.79
611.84	52817.11
612.03	53171.41
612.23	53150.93
612.43	52819.16
612.62	53339.35
612.82	53595.34
613.02	53015.77
613.21	53306.58
613.41	52933.85
613.61	53499.09
613.80	52927.70
614.00	53384.40
614.20	52997.34
614.39	52892.89
614.59	53374.16
614.79	53167.32
614.98	53302.48
615.18	53486.80
615.38	53214.42
615.57	53038.29
615.77	53492.94
615.97	53136.60
616.16	53273.81
616.36	52806.87
616.56	53171.41
616.75	53308.63
616.95	52915.42
617.15	53271.76
617.34	53351.63
617.54	53138.65
617.74	53261.52
617.93	53216.47
618.13	52653.28
618.32	53146.84
618.52	53101.78
618.72	52860.12
618.91	53042.39
619.11	52655.32
619.31	53376.21
619.50	52817.11
619.70	53152.98
619.90	53212.37
620.09	52911.32
620.29	53175.51
620.48	52919.51
620.68	53472.46
620.88	52839.64
621.07	52802.78
621.27	52780.25
621.46	52692.19
621.66	53023.96
621.86	53351.63
622.05	52612.32
622.25	52819.16
622.44	52747.48
622.64	53482.70
622.84	53284.05
623.03	52729.05
623.23	52987.10
623.42	53005.53
623.62	53245.14
623.82	53202.13
624.01	53077.21
624.21	52862.17
624.40	53431.50
624.60	53226.71
624.80	53044.44
624.99	53515.47
625.19	52436.19
625.38	53245.14
625.58	53015.77
625.77	52845.79
625.97	53329.11
626.17	52720.86
626.36	53120.21
626.56	53249.24
626.75	52608.22
626.95	53695.69
627.14	52788.44
627.34	53482.70
627.54	53120.21
627.73	53325.01
627.93	53259.48
628.12	53001.43
628.32	52985.05
628.51	53349.59
628.71	53648.59
628.90	53118.17
629.10	53662.93
629.30	53531.86
629.49	53224.66
629.69	52890.84
629.88	53243.09
630.08	53615.82
630.27	54086.85
630.47	53380.31
630.66	53165.27
630.86	53886.15
631.05	53429.46
631.25	53806.28
631.44	53505.23
631.64	53527.76
631.84	53890.25
632.03	54506.69
632.23	53673.16
632.42	54039.75
632.62	53888.20
632.81	53771.47
633.01	53675.21
633.20	54289.60
633.40	54015.18
633.59	54174.92
633.79	53312.72
633.98	54138.05
634.18	54060.23
634.37	54191.30
634.57	53839.05
634.76	54236.36
634.96	54375.62
635.15	54113.48
635.35	53732.56
635.54	53767.37
635.74	54285.51
635.93	53990.60
636.13	54627.52
636.32	54271.17
636.52	54150.34
636.71	54719.68
636.91	54506.69
637.10	54656.19
637.30	54443.20
637.49	54160.58
637.69	54580.42
637.88	54705.34
638.08	54318.28
638.27	54938.81
638.46	54871.23
638.66	54629.57
638.85	54828.22
639.05	55203.00
639.24	55002.30
639.44	55039.16
639.63	55076.02
639.83	54652.09
640.02	54959.29
640.22	54611.13
640.41	54994.10
640.61	54600.89
640.80	54883.51
640.99	54990.01
641.19	55608.50
641.38	54914.23
641.58	55436.47
641.77	55219.38
641.97	55340.21
642.16	55174.33
642.36	55846.06
642.55	55655.60
642.74	55358.64
642.94	55690.41
643.13	55026.87
643.33	55917.74
643.52	55911.59
643.72	55907.50
643.91	55436.47
644.10	56018.09
644.30	56464.55
644.49	55751.85
644.69	56239.27
644.88	55645.36
645.08	56276.13
645.27	56204.45
645.46	55731.37
645.66	56384.68
645.85	56057.00
646.05	56417.44
646.24	56251.56
646.43	56358.05
646.63	56435.87
646.82	56138.92
647.02	56333.48
647.21	56292.52
647.40	56218.79
647.60	56857.76
647.79	56849.56
647.99	56378.53
648.18	56005.80
648.37	57210.01
648.57	56970.39
648.76	56767.65
648.96	56622.24
649.15	56835.23
649.34	57158.81
649.54	56755.36
649.73	56642.72
649.92	56763.55
650.12	57111.70
650.31	56554.66
650.51	56792.22
650.70	57263.25
650.89	56800.41
651.09	57695.38
651.28	57455.76
651.47	57382.04
651.67	57513.11
651.86	57373.84
652.06	56777.89
652.25	57451.67
652.44	57128.09
652.64	57189.53
652.83	57326.74
653.02	57054.36
653.22	57111.70
653.41	57074.84
653.60	57060.51
653.80	57316.50
653.99	57359.51
654.18	57263.25
654.38	57568.40
654.57	57875.60
654.76	57902.22
654.96	57351.32
655.15	57279.64
655.34	57744.53
655.54	57545.87
655.73	57382.04
655.92	57717.90
656.12	57607.31
656.31	57709.71
656.50	57984.14
656.70	57734.29
656.89	57709.71
657.08	57898.12
657.28	57969.80
657.47	57687.18
657.66	57883.79
657.86	57529.49
658.05	57652.37
658.24	57767.05
658.43	57519.25
658.63	57803.92
658.82	57857.17
659.01	58027.15
659.21	58137.74
659.40	57805.97
659.59	57812.11
659.79	58246.28
659.98	57840.78
660.17	58088.59
660.36	57572.50
660.56	57517.20
660.75	58078.35
660.94	57973.90
661.14	57953.42
661.33	57545.87
661.52	57681.04
661.71	58190.98
661.91	57556.11
662.10	57281.69
662.29	58213.51
662.49	58133.64
662.68	57820.30
662.87	57820.30
663.06	57922.70
663.26	57906.32
663.45	58162.31
663.64	58023.05
663.83	58653.82
664.03	57840.78
664.22	58160.26
664.41	57865.36
664.60	57824.40
664.80	57812.11
664.99	57640.08
665.18	57623.70
665.37	57719.95
665.57	58027.15
665.76	57328.79
665.95	57863.31
666.14	57541.78
666.34	57343.12
666.53	57834.64
666.72	57707.66
666.91	57218.20
667.11	57638.03
667.30	57638.03
667.49	57568.40
667.68	57365.65
667.87	57242.77
668.07	57959.56
668.26	57781.39
668.45	57560.21
668.64	57740.43
668.84	58264.71
669.03	57572.50
669.22	58141.83
669.41	57537.68
669.60	57775.25
669.80	57484.43
669.99	58107.02
670.18	57269.40
670.37	57259.16
670.57	57781.39
670.76	57472.15
670.95	57392.28
671.14	57330.84
671.33	56941.72
671.53	57701.52
671.72	57607.31
671.91	57490.58
672.10	56911.00
672.29	57246.87
672.48	57087.13
672.68	57228.44
672.87	56868.00
673.06	57035.93
673.25	56927.39
673.44	56980.63
673.64	57033.88
673.83	57046.17
674.02	57142.42
674.21	56661.15
674.40	57042.07
674.59	57089.18
674.79	56769.69
674.98	56386.72
675.17	57267.35
675.36	56767.65
675.55	57181.34
675.74	56661.15
675.94	56550.56
676.13	56396.96
676.32	56824.99
676.51	57048.22
676.70	56687.78
676.89	56831.13
677.08	56724.64
677.28	56286.37
677.47	57054.36
677.66	56859.80
677.85	56349.86
678.04	56710.30
678.23	56736.93
678.42	56816.80
678.62	56161.45
678.81	56396.96
679.00	56399.01
679.19	56874.14
679.38	56544.42
679.57	56532.13
679.76	56237.22
679.96	56884.38
680.15	56050.86
680.34	56259.75
680.53	55758.00
680.72	56218.79
680.91	56167.59
681.10	55807.15
681.29	56378.53
681.48	55970.99
681.68	55856.30
681.87	55731.37
682.06	55940.27
682.25	55717.04
682.44	55884.97
682.63	55930.03
682.82	55698.61
683.01	55522.48
683.20	55256.24
683.39	55594.16
683.59	55227.57
683.78	55413.94
683.97	55067.83
684.16	55665.84
684.35	55334.07
684.54	55317.68
684.73	55342.26
684.92	55067.83
685.11	55069.88
685.30	54729.92
685.49	55329.97
685.69	54863.03
685.88	55092.41
686.07	54594.75
686.26	54881.47
686.45	55002.30
686.64	55030.97
686.83	54924.47
687.02	54359.23
687.21	54844.60
687.40	54924.47
687.59	54742.20
687.78	54903.99
687.97	55215.29
688.16	54617.28
688.35	54953.15
688.54	54697.15
688.74	54498.50
688.93	54445.25
689.12	54211.78
689.31	54539.46
689.50	54686.91
689.69	54635.71
689.88	54224.07
690.07	54351.04
690.26	54326.47
690.45	54604.99
690.64	53957.83
690.83	54019.27
691.02	53931.21
691.21	54148.29
691.40	54021.32
691.59	54086.85
691.78	53830.86
691.97	53959.88
692.16	54058.18
692.35	53925.07
692.54	54064.33
692.73	53458.13
692.92	53816.52
693.11	53943.50
693.30	53753.04
693.49	53714.12
693.68	53288.15
693.87	53216.47
694.06	53497.04
694.25	53703.88
694.44	53044.44
694.63	53837.00
694.82	53363.92
695.01	53617.87
695.20	53150.93
695.39	53093.59
695.58	53380.31
695.77	53408.98
695.96	52688.09
696.15	53142.74
696.34	52890.84
696.53	53200.08
696.72	53284.05
696.91	52851.93
697.10	52810.97
697.29	52757.72
697.48	52520.16
697.67	52759.77
697.86	52581.60
698.05	52735.20
698.24	52927.70
698.43	52344.03
698.62	52757.72
698.81	52450.53
699.00	52698.33
699.19	52356.32
699.38	52839.64
699.57	51969.26
699.76	52970.71
699.95	52585.69
700.14	52491.49
700.32	52217.06
700.51	52364.51
700.70	52354.27
700.89	52636.89
701.08	52278.50
701.27	52053.22
701.46	52407.52
701.65	51942.63
701.84	52462.82
702.03	51932.39
702.22	52065.51
702.41	51549.42
702.60	52374.75
702.79	52036.84
702.98	51733.74
703.17	51997.93
703.35	51653.87
703.54	51530.99
703.73	51825.90
703.92	51885.29
704.11	52116.71
704.30	52065.51
704.49	51356.91
704.68	51731.69
704.87	51750.12
705.06	51680.49
705.25	51657.96
705.43	51561.71
705.62	51625.20
705.81	52012.26
706.00	51578.09
706.19	51619.05
706.38	51254.51
706.57	51758.31
706.76	51520.75
706.95	51596.52
707.14	51404.02
707.32	51197.17
707.51	51072.24
707.70	51449.07
707.89	50951.41
708.08	50840.82
708.27	51438.83
708.46	51635.44
708.65	51254.51
708.84	51727.59
709.02	51459.31
709.21	51578.09
709.40	51027.19
709.59	51631.34
709.78	50701.56
709.97	51537.13
710.16	51035.38
710.34	51162.36
710.53	50941.17
710.72	50887.93
710.91	51467.50
711.10	51137.78
711.29	50939.13
711.48	51197.17
711.66	50955.51
711.85	50574.59
712.04	51037.43
712.23	51066.10
712.42	50662.65
712.61	50947.32
712.80	50785.53
712.98	50939.13
713.17	50502.91
713.36	50914.55
713.55	51064.05
713.74	50965.75
713.93	50132.23
714.11	50474.24
714.30	50513.15
714.49	50914.55
714.68	50697.47
714.87	50621.69
715.06	50975.99
715.24	50484.48
715.43	50701.56
715.62	50332.93
715.81	50562.30
716.00	50312.45
716.18	50361.60
716.37	50005.25
716.56	50459.90
716.75	49931.53
716.94	50308.35
717.12	50255.11
717.31	50408.70
717.50	50582.78
717.69	50648.32
717.88	50218.24
718.06	50253.06
718.25	50959.61
718.44	49816.84
718.63	50146.56
718.82	50070.79
719.00	49810.70
719.19	49933.57
719.38	50216.19
719.57	49526.03
719.76	49802.50
719.94	49544.46
720.13	49644.81
720.32	49771.78
720.51	49653.00
720.69	49992.97
720.88	49632.52
721.07	49530.12
721.26	49184.02
721.44	49241.36
721.63	49491.21
721.82	49380.62
722.01	49282.32
722.20	49382.67
722.38	49356.05
722.57	49186.07
722.76	49409.29
722.95	49294.61
723.13	48598.30
723.32	48846.10
723.51	48758.04
723.70	48317.73
723.88	48938.26
724.07	48817.43
724.26	49018.13
724.44	48151.84
724.63	48854.29
724.82	49089.81
725.01	48444.70
725.19	48882.97
725.38	48315.68
725.57	48528.67
725.76	48880.92
725.94	48735.51
726.13	48512.28
726.32	48545.05
726.51	48780.57
726.69	49032.47
726.88	48854.29
727.07	48669.98
727.25	48604.44
727.44	48809.24
727.63	48805.14
727.82	49267.98
728.00	48958.74
728.19	48518.43
728.38	48686.36
728.56	48483.61
728.75	49052.95
728.94	48330.01
729.12	49069.33
729.31	48745.75
729.50	48293.15
729.69	48438.56
729.87	48637.21
730.06	48620.83
730.25	48477.47
730.43	48940.31
730.62	48690.46
730.81	48868.63
730.99	48995.60
731.18	48620.83
731.37	48897.30
731.55	48909.59
731.74	49315.09
731.93	48876.82
732.11	48862.49
732.30	48715.03
732.49	48674.07
732.67	48954.64
732.86	48688.41
733.05	48895.25
733.23	48790.81
733.42	48938.26
733.61	48534.81
733.79	48702.74
733.98	48413.98
734.17	49263.89
734.35	48692.50
734.54	49204.50
734.73	49143.06
734.91	48811.29
735.10	48321.82
735.29	48850.20
735.47	48514.33
735.66	48403.74
735.84	48649.50
736.03	48338.21
736.22	49175.83
736.40	48467.23
736.59	48682.27
736.78	48616.73
736.96	48676.12
737.15	48418.08
737.33	48747.80
737.52	48510.24
737.71	48502.04
737.89	48166.18
738.08	48461.08
738.27	48397.60
738.45	48770.33
738.64	48731.42
738.82	48287.01
739.01	48217.38
739.20	47975.72
739.38	48059.68
739.57	48618.78
739.75	48274.72
739.94	48303.39
740.13	48639.26
740.31	48311.58
740.50	47979.81
740.68	48252.19
740.87	48317.73
741.06	48370.97
741.24	48182.56
741.43	48125.22
741.61	48209.18
741.80	47723.82
741.99	48016.68
742.17	47854.89
742.36	48026.92
742.54	48084.26
742.73	48612.63
742.91	48231.71
743.10	48166.18
743.29	47988.00
743.47	48280.86
743.66	48051.49
743.84	48428.32
744.03	48162.08
744.21	47781.16
744.40	47990.05
744.59	47932.71
744.77	47709.48
744.96	47760.68
745.14	47807.78
745.33	47643.94
745.51	48004.39
745.70	48157.99
745.88	47498.54
746.07	47664.42
746.26	47441.20
746.44	47478.06
746.63	47312.17
746.81	47852.84
747.00	47400.24
747.18	47535.40
747.37	47461.68
747.55	47480.11
747.74	48031.01
747.92	47041.84
748.11	47021.36
748.29	47363.37
748.48	47473.96
748.66	47220.02
748.85	47215.92
749.03	47265.07
749.22	47394.09
749.41	47105.33
749.59	47363.37
749.78	47230.26
749.96	46523.71
750.15	46306.62
750.33	47187.25
750.52	46574.91
750.70	47295.79
750.89	46810.42
751.07	46759.22
751.26	46841.14
751.44	46800.18
751.63	46972.21
751.81	46503.23
752.00	46568.76
752.18	46861.62
752.37	46732.60
752.55	46470.46
752.74	46695.74
752.92	46675.26
753.10	45972.80
753.29	46708.02
753.47	46290.24
753.66	46013.76
753.84	46564.67
754.03	46652.73
754.21	46001.47
754.40	46175.55
754.58	46116.16
754.77	46277.95
754.95	45942.08
755.14	46026.05
755.32	45942.08
755.51	45704.52
755.69	45704.52
755.88	45851.97
756.06	46036.29
756.24	45458.76
756.43	45694.28
756.61	46112.06
756.80	45583.69
756.98	45421.90
757.17	45440.33
757.35	45643.08
757.54	45583.69
757.72	45985.09
757.90	45219.15
758.09	45155.66
758.27	45538.63
758.46	45278.54
758.64	45366.60
758.83	45520.20
759.01	45264.21
759.19	45241.68
759.38	45161.81
759.56	45421.90
759.75	44991.83
759.93	45008.21
760.12	44733.78
760.30	44639.57
760.48	44647.77
760.67	44967.25
760.85	44432.73
761.04	44774.74
761.22	44934.48
761.40	44721.49
761.59	44660.05
761.77	44445.02
761.96	44664.15
762.14	44549.46
762.32	44389.72
762.51	44338.52
762.69	44086.62
762.88	44215.65
763.06	44438.87
763.24	44377.43
763.43	44332.38
763.61	44023.14
763.80	44025.18
763.98	43787.62
764.16	43795.81
764.35	43591.01
764.53	43476.33
764.72	43849.06
764.90	43427.18
765.08	43285.87
765.27	43783.52
765.45	43373.93
765.63	42794.36
765.82	43568.49
766.00	42851.70
766.18	43314.54
766.37	43169.13
766.55	42945.90
766.74	42800.50
766.92	43021.68
767.10	43341.16
767.29	42888.56
767.47	42581.37
767.65	42759.54
767.84	42501.50
768.02	42925.42
768.20	42515.83
768.39	42612.09
768.57	42530.17
768.75	42485.11
768.94	42374.52
769.12	42419.58
769.30	42241.40
769.49	42184.06
769.67	42345.85
769.85	41981.31
770.04	42145.15
770.22	42130.81
770.40	42001.79
770.59	42098.05
770.77	42026.37
770.95	41676.16
771.14	41684.36
771.32	41592.20
771.50	41315.72
771.69	41768.32
771.87	41776.51
772.05	41366.92
772.24	41006.48
772.42	41330.06
772.60	41655.68
772.78	41432.46
772.97	41119.12
773.15	41473.42
773.33	40938.90
773.52	41270.67
773.70	41041.29
773.88	41223.56
774.07	40600.98
774.25	40680.85
774.43	41024.91
774.61	41010.57
774.80	41006.48
774.98	40762.77
775.16	40971.66
775.34	41129.36
775.53	40764.82
775.71	41436.55
775.89	41065.87
776.08	40820.11
776.26	40934.80
776.44	40770.96
776.62	40932.75
776.81	40439.19
776.99	40840.59
777.17	40775.06
777.35	40658.32
777.54	41424.26
777.72	40865.17
777.90	40902.03
778.08	41254.28
778.27	41012.62
778.45	41145.74
778.63	41440.65
778.81	40930.70
779.00	41690.50
779.18	40916.37
779.36	40789.39
779.54	41035.15
779.73	41137.55
779.91	41330.06
780.09	41639.30
780.27	41534.85
780.46	41188.75
780.64	41213.32
780.82	41004.43
781.00	41223.56
781.19	41506.18
781.37	41454.98
781.55	41096.59
781.73	41997.70
781.91	41387.40
782.10	41270.67
782.28	41149.84
782.46	41315.72
782.64	41606.53
782.82	40945.04
783.01	41491.85
783.19	41338.25
783.37	41325.96
783.55	41702.79
783.74	41622.92
783.92	41227.66
784.10	41973.12
784.28	41375.11
784.46	41241.99
784.64	41180.56
784.83	41205.13
785.01	41647.49
785.19	41371.02
785.37	41426.31
785.55	40891.79
785.74	40930.70
785.92	41051.53
786.10	41416.07
786.28	40762.77
786.46	41108.88
786.64	40424.86
786.83	40867.22
787.01	41043.34
787.19	41137.55
787.37	40916.37
787.55	40711.57
787.74	40742.29
787.92	40211.87
788.10	40674.71
788.28	40187.29
788.46	40906.13
788.64	39957.92
788.82	40863.12
789.01	40062.36
789.19	40189.34
789.37	39828.90
789.55	40142.24
789.73	39773.60
789.91	39640.48
790.09	39892.38
790.28	39570.85
790.46	39370.15
790.64	39927.20
790.82	39538.08
791.00	39417.25
791.18	39273.90
791.36	39273.90
791.55	39437.73
791.73	39347.62
791.91	38813.10
792.09	38976.94
792.27	39067.05
792.45	39402.92
792.63	39142.83
792.81	38768.05
793.00	38555.06
793.18	38690.23
793.36	38458.81
793.54	38532.53
793.72	38565.30
793.90	38430.13
794.08	38069.69
794.26	38208.95
794.44	37645.76
794.62	37750.21
794.81	37868.99
794.99	37926.33
795.17	37733.82
795.35	37653.95
795.53	37379.53
795.71	37500.36
795.89	37539.27
796.07	37070.28
796.25	36953.55
796.43	37420.48
796.61	37256.65
796.80	37092.81
796.98	36914.64
797.16	36687.31
797.34	36873.68
797.52	36888.01
797.70	36586.96
797.88	36400.60
798.06	36308.44
798.24	36091.35
798.42	36146.65
798.60	35868.12
798.78	36023.77
798.96	36287.96
799.14	35849.69
799.32	36122.07
799.51	35888.60
799.69	36175.32
799.87	36085.21
800.05	35722.72
800.23	35450.34
800.41	35202.53
800.59	35411.43
800.77	34979.31
800.95	34868.72
801.13	35157.48
801.31	34596.34
801.49	35073.51
801.67	34610.67
801.85	34774.51
802.03	34627.06
802.21	34262.52
802.39	34694.64
802.57	34422.26
802.75	34381.30
802.93	34207.22
803.11	33957.37
803.29	34055.67
803.47	33981.95
803.65	34182.65
803.83	33705.47
804.01	34084.34
804.19	33873.40
804.37	33703.42
804.55	33611.26
804.73	33488.38
804.91	33213.96
805.09	33054.22
805.27	33517.06
805.45	33494.53
805.63	33408.51
805.81	33439.23
805.99	33308.16
806.17	33168.90
806.35	33164.81
806.53	32679.44
806.71	32779.79
806.89	32908.81
807.07	32542.22
807.25	32708.11
807.43	32396.82
807.61	32734.73
807.79	32443.92
807.97	32527.89
808.15	32331.28
808.33	32282.13
808.51	32097.81
808.69	31817.24
808.87	32036.38
809.05	31766.04
809.23	31716.89
809.41	31546.91
809.59	31821.34
809.77	31714.84
809.95	31741.47
810.13	31923.74
810.31	31680.03
810.49	31909.40
810.67	31530.53
810.84	31497.76
811.02	31436.32
811.20	31133.22
811.38	31209.00
811.56	30764.59
811.74	30928.42
811.92	30948.90
812.10	30901.80
812.28	31235.62
812.46	30889.51
812.64	30676.52
812.82	30740.01
813.00	30799.40
813.18	30740.01
813.36	30639.66
813.53	30561.84
813.71	30574.13
813.89	30383.66
814.07	30344.75
814.25	30475.82
814.43	30142.00
814.61	30174.77
814.79	30228.02
814.97	30273.07
815.15	30152.24
815.33	29976.12
815.50	30049.85
815.68	30023.22
815.86	30021.17
816.04	29769.27
816.22	29912.63
816.40	29611.58
816.58	29767.23
816.76	29660.73
816.94	29892.15
817.11	29681.21
817.29	29183.55
817.47	29378.11
817.65	29507.13
817.83	29480.51
818.01	28958.28
818.19	29032.00
818.37	29034.05
818.54	28751.43
818.72	28872.26
818.90	28905.03
819.08	29199.94
819.26	29042.24
819.44	28886.60
819.62	28890.70
819.80	28646.99
819.97	28878.41
820.15	28636.75
820.33	28587.60
820.51	28573.26
820.69	28427.85
820.87	28739.15
821.05	28726.86
821.22	28538.44
821.40	28356.18
821.58	28493.39
821.76	28261.97
821.94	28292.69
822.12	28438.09
822.29	28632.65
822.47	28173.91
822.65	28266.06
822.83	28253.78
823.01	28134.99
823.19	27977.30
823.36	27842.14
823.54	27805.27
823.72	27827.80
823.90	28014.16
824.08	27475.55
824.25	27768.41
824.43	27563.61
824.61	27897.43
824.79	28030.55
824.97	27551.32
825.15	27831.90
825.32	28001.88
825.50	27280.99
825.68	27364.96
825.86	27668.06
826.04	27766.36
826.21	27536.99
826.39	27188.83
826.57	27332.19
826.75	26981.99
826.93	27139.68
827.10	26943.08
827.28	27031.14
827.46	27330.14
827.64	27170.40
827.81	27004.52
827.99	27301.47
828.17	27100.77
828.35	26928.74
828.53	26883.69
828.70	26986.08
828.88	26603.11
829.06	26584.68
829.24	26875.49
829.41	26740.33
829.59	26791.53
829.77	26861.16
829.95	26652.27
830.12	26646.12
830.30	26646.12
830.48	26685.03
830.66	26543.72
830.84	26662.51
831.01	26486.38
831.19	26531.44
831.37	26459.76
831.55	26330.73
831.72	26506.86
831.90	26455.66
832.08	26410.60
832.25	26662.51
832.43	26396.27
832.61	26035.83
832.79	26080.88
832.96	26353.26
833.14	26269.30
833.32	26394.22
833.50	26173.04
833.67	26445.42
833.85	26195.57
834.03	26003.06
834.20	26181.23
834.38	25921.14
834.56	26130.03
834.74	25710.20
834.91	26029.68
835.09	25886.32
835.27	25396.86
835.44	25564.79
835.62	25632.38
835.80	25704.06
835.98	25661.05
836.15	25972.34
836.33	25542.27
836.51	25988.72
836.68	25593.47
836.86	25296.51
837.04	25577.08
837.21	25638.52
837.39	25685.62
837.57	25659.00
837.75	25527.93
837.92	25304.70
838.10	25335.42
838.28	24895.11
838.45	25087.62
838.63	24962.69
838.81	25347.71
838.98	25128.58
839.16	25343.61
839.34	25235.07
839.51	25060.99
839.69	24788.61
839.87	24841.86
840.04	24913.54
840.22	25394.81
840.40	25142.91
840.57	24723.08
840.75	25134.72
840.93	24751.75
841.10	25032.32
841.28	25448.06
841.46	24780.42
841.63	24786.57
841.81	24841.86
841.98	24749.70
842.16	24966.79
842.34	24503.95
842.51	24483.47
842.69	25083.52
842.87	24471.18
843.04	24848.00
843.22	24467.08
843.40	24460.94
843.57	24493.71
843.75	24639.11
843.92	24413.84
844.10	24725.13
844.28	24628.87
844.45	24391.31
844.63	24448.65
844.81	24170.13
844.98	24774.28
845.16	24473.23
845.33	24368.78
845.51	24209.04
845.69	23989.91
845.86	24159.89
846.04	24223.37
846.21	23996.05
846.39	24051.34
846.57	24016.53
846.74	23944.85
846.92	23977.62
847.09	24047.25
847.27	24161.94
847.45	23944.85
847.62	23994.00
847.80	24118.93
847.97	23912.08
848.15	23838.36
848.32	23703.19
848.50	23746.20
848.68	23832.21
848.85	23854.74
849.03	23492.25
849.20	23721.62
849.38	23735.96
849.56	23842.45
849.73	23658.14
849.91	23871.12
850.08	23656.09
850.26	23500.44
850.43	23508.63
850.61	23608.98
850.78	23309.98
850.96	23529.11
851.14	23324.32
851.31	23537.30
851.49	23518.87
851.66	23418.52
851.84	23195.29
852.01	23531.16
852.19	23518.87
852.36	23387.80
852.54	23281.31
852.71	23189.15
852.89	22896.29
853.07	23072.42
853.24	23322.27
853.42	23031.46
853.59	22996.64
853.77	22787.75
853.94	23379.61
854.12	23357.08
854.29	22773.41
854.47	22943.39
854.64	22818.47
854.82	22890.15
854.99	23033.50
855.17	22863.52
855.34	22931.11
855.52	22865.57
855.69	22853.28
855.87	22761.12
856.04	22605.48
856.22	22654.63
856.39	22595.24
856.57	22554.28
856.74	22576.81
856.92	22699.69
857.09	22548.14
857.27	22793.89
857.44	22957.73
857.62	22441.64
857.79	22509.22
857.97	22380.20
858.14	22777.51
858.32	22453.93
858.49	22396.59
858.67	22300.33
858.84	22337.20
859.02	22339.24
859.19	22152.88
859.37	22062.77
859.54	22288.04
859.72	22296.24
859.89	22159.02
860.06	22478.50
860.24	22048.43
860.41	22197.93
860.59	22161.07
860.76	22286.00
860.94	21974.70
861.11	21898.93
861.29	21903.03
861.46	22044.34
861.64	21687.99
861.81	22173.36
861.98	21716.66
862.16	21563.06
862.33	21714.61
862.51	21835.44
862.68	21870.26
862.86	21407.42
863.03	21698.23
863.21	21651.13
863.38	21407.42
863.55	21778.10
863.73	21544.63
863.90	21446.33
864.08	21647.03
864.25	21442.23
864.43	21454.52
864.60	21542.58
864.77	21343.93
864.95	21563.06
865.12	21505.72
865.30	21364.41
865.47	21278.40
865.64	20983.49
865.82	21352.12
865.99	21370.55
866.17	21126.85
866.34	21579.45
866.51	20811.46
866.69	21309.11
866.86	21001.92
867.04	21094.08
867.21	20942.53
867.38	20965.06
867.56	20692.68
867.73	21059.26
867.91	20958.91
868.08	20920.00
868.25	20733.64
868.43	20532.93
868.60	20801.22
868.78	20518.60
868.95	20893.38
869.12	20512.46
869.30	20442.82
869.47	20664.00
869.64	20346.57
869.82	20371.15
869.99	20330.19
870.16	20688.58
870.34	20668.10
870.51	20455.11
870.69	20344.52
870.86	20442.82
871.03	20461.26
871.21	20053.71
871.38	20162.25
871.55	19955.41
871.73	20090.57
871.90	20090.57
872.07	20014.80
872.25	19842.77
872.42	20070.09
872.59	19582.68
872.77	19846.87
872.94	19920.59
873.11	19637.97
873.29	19594.96
873.46	19699.41
873.63	19730.13
873.81	19734.23
873.98	19371.74
874.15	19388.12
874.33	19316.44
874.50	19359.45
874.67	19633.88
874.85	19271.39
875.02	19197.66
875.19	19183.32
875.37	19183.32
875.54	19138.27
875.71	19011.29
875.88	19019.49
876.06	19293.91
876.23	19052.25
876.40	19011.29
876.58	19283.67
876.75	18759.39
876.92	18839.26
877.10	19052.25
877.27	18730.72
877.44	18794.21
877.61	18558.69
877.79	18466.53
877.96	18671.33
878.13	18585.32
878.31	18740.96
878.48	18616.04
878.65	18691.81
878.82	18362.09
879.00	18630.37
879.17	18489.06
879.34	18550.50
879.51	18028.27
879.69	18271.98
879.86	18142.96
880.03	18095.85
880.21	18147.05
880.38	18138.86
880.55	18331.37
880.72	18065.13
880.90	18054.89
881.07	17893.10
881.24	18169.58
881.41	18155.24
881.59	17864.43
881.76	17878.77
881.93	17770.22
882.10	17862.38
882.28	17598.20
882.45	17917.68
882.62	17876.72
882.79	17997.55
882.96	17557.24
883.14	17837.81
883.31	17927.92
883.48	17534.71
883.65	17514.23
883.83	17741.55
884.00	17553.14
884.17	17704.69
884.34	17706.74
884.51	17688.31
884.69	17612.53
884.86	17454.84
885.03	17503.99
885.20	17293.05
885.38	17358.58
885.55	17166.07
885.72	17313.53
885.89	17293.05
886.06	17555.19
886.24	17315.58
886.41	17256.18
886.58	17368.82
886.75	17336.06
886.92	16910.08
887.10	17231.61
887.27	16875.26
887.44	17180.41
887.61	17344.25
887.78	17125.11
887.95	16940.80
888.13	16865.02
888.30	16965.37
888.47	16901.89
888.64	16938.75
888.81	16742.14
888.99	16623.36
889.16	16654.08
889.33	16715.52
889.50	16594.69
889.67	16746.24
889.84	16412.42
890.01	16666.37
890.19	16453.38
890.36	16508.68
890.53	16572.16
890.70	16133.90
890.87	16506.63
891.04	16391.94
891.22	16260.87
891.39	16408.33
891.56	16017.16
891.73	16140.04
891.90	16232.20
892.07	16015.12
892.24	16043.79
892.42	15970.06
892.59	16049.93
892.76	15937.29
892.93	16336.65
893.10	15984.40
893.27	15959.82
893.44	16129.80
893.61	15957.77
893.79	16148.23
893.96	16041.74
894.13	16088.84
894.30	15922.96
894.47	15767.31
894.64	16017.16
894.81	16000.78
894.98	16076.55
895.15	15744.78
895.33	15826.70
895.50	15554.32
895.67	15830.80
895.84	16025.36
896.01	15826.70
896.18	15613.71
896.35	16051.98
896.52	15828.75
896.69	15556.37
896.86	15621.91
897.04	15675.15
897.21	15666.96
897.38	15740.69
897.55	15664.91
897.72	15992.59
897.89	15562.51
898.06	15720.21
898.23	15722.26
898.40	15787.79
898.57	15877.90
898.74	15468.31
898.91	15539.99
899.08	15562.51
899.26	15429.40
899.43	15666.96
899.60	15460.12
899.77	15761.17
899.94	15456.02
900.11	15494.93
900.28	15593.23
900.45	15316.76
900.62	15449.88
900.79	15673.10
900.96	15468.31
901.13	15255.32
901.30	15275.80
901.47	15331.09
901.64	15517.46
901.81	15468.31
901.98	15216.41
902.15	15562.51
902.32	15394.58
902.49	15324.95
902.66	15468.31
902.83	15515.41
903.01	15163.16
903.18	15523.60
903.35	15308.57
903.52	15386.39
903.69	15503.12
903.86	15691.54
904.03	15521.56
904.20	15679.25
904.37	15458.07
904.54	15204.12
904.71	15175.45
904.88	15312.66
905.05	15327.00
905.22	15345.43
905.39	15376.15
905.56	15185.69
905.73	15279.89
905.90	15415.06
906.07	15345.43
906.24	15408.92
906.41	15075.10
906.58	15361.81
906.75	15200.02
906.92	15283.99
907.09	15200.02
907.26	15257.37
907.43	15134.49
907.60	15243.03
907.77	15386.39
907.93	15281.94
908.10	15316.76
908.27	15388.44
908.44	15128.35
908.61	15240.98
908.78	14978.84
908.95	15238.94
909.12	14950.17
909.29	15304.47
909.46	14819.10
909.63	15204.12
909.80	14898.97
909.97	15234.84
910.14	15042.33
910.31	14851.87
910.48	14958.36
910.65	14864.16
910.82	14905.12
910.99	14892.83
911.16	14819.10
911.33	14661.41
911.50	14888.73
911.66	14673.70
911.83	14739.23
912.00	14802.72
912.17	14561.06
912.34	14728.99
912.51	14851.87
912.68	14589.73
912.85	14767.90
913.02	14786.33
913.19	14509.86
913.36	14591.78
913.53	14839.58
913.70	14505.76
913.86	14685.98
914.03	14456.61
914.20	14544.67
914.37	14507.81
914.54	14522.15
914.71	14272.29
914.88	14292.77
915.05	14341.93
915.22	14470.95
915.39	14171.94
915.55	14372.64
915.72	14065.45
915.89	13979.43
916.06	13981.48
916.23	14061.35
916.40	13934.38
916.57	13745.97
916.74	13762.35
916.91	13635.38
917.07	13723.44
917.24	13860.65
917.41	13764.40
917.58	13524.79
917.75	13444.91
917.92	13606.70
918.09	13653.81
918.26	13682.48
918.42	13694.77
918.59	13725.49
918.76	13420.34
918.93	13416.24
919.10	13481.78
919.27	13356.85
919.44	13535.03
919.60	13377.33
919.77	13244.21
919.94	13182.77
920.11	13029.18
920.28	13451.06
920.45	13012.79
920.61	12900.16
920.78	12996.41
920.95	12908.35
921.12	12885.82
921.29	12873.53
921.46	12859.20
921.62	12562.24
921.79	12629.82
921.96	12590.91
922.13	12427.07
922.30	12566.34
922.47	12404.55
922.63	12449.60
922.80	12435.27
922.97	12427.07
923.14	12379.97
923.31	12279.62
923.47	12097.35
923.64	12404.55
923.81	12001.10
923.98	12246.85
924.15	12152.65
924.32	11982.67
924.48	12212.04
924.65	12062.54
924.82	11849.55
924.99	11904.84
925.15	11757.39
925.32	11798.35
925.49	11718.48
925.66	11554.64
925.83	11755.34
925.99	11542.35
926.16	11472.72
926.33	11480.91
926.50	11327.32
926.67	11482.96
926.83	11398.99
927.00	11355.99
927.17	11386.71
927.34	11247.44
927.50	11018.07
927.67	11290.45
927.84	11042.65
928.01	11065.18
928.17	10753.88
928.34	10800.99
928.51	10934.11
928.68	10688.35
928.84	10792.80
929.01	10882.91
929.18	10760.03
929.35	10614.62
929.51	10547.04
929.68	10430.30
929.85	10456.93
930.02	10477.41
930.18	10573.66
930.35	10383.20
930.52	10368.87
930.69	10461.02
930.85	10403.68
931.02	10041.19
931.19	10340.19
931.36	10069.86
931.52	10037.09
931.69	10145.64
931.86	9949.03
932.02	9891.69
932.19	9860.97
932.36	9772.91
932.53	10039.14
932.69	9805.67
932.86	9863.02
933.03	9744.24
933.19	9547.63
933.36	9465.71
933.53	9631.60
933.70	9273.20
933.86	9490.29
934.03	9449.33
934.20	9262.96
934.36	9416.56
934.53	9111.41
934.70	8986.49
934.86	9052.02
935.03	9031.54
935.20	8916.86
935.36	8974.20
935.53	8920.95
935.70	8718.20
935.86	8767.35
936.03	8546.17
936.20	8609.66
936.36	8470.40
936.53	8361.86
936.70	8437.63
936.86	8439.68
937.03	8091.52
937.20	8083.33
937.36	8032.13
937.53	7853.96
937.70	7765.90
937.86	7796.62
938.03	7716.75
938.20	7505.81
938.36	7550.86
938.53	7366.54
938.70	7270.29
938.86	7309.20
939.03	7282.58
939.20	7149.46
939.36	7032.72
939.53	6918.04
939.70	7131.03
939.86	6889.37
940.03	6836.12
940.19	6688.67
940.36	6789.02
940.53	6608.80
940.69	6477.73
940.86	6463.39
941.03	6365.09
941.19	6221.73
941.36	6303.65
941.52	6418.33
941.69	6289.31
941.86	6102.95
942.02	5967.78
942.19	5951.40
942.35	5992.36
942.52	5851.05
942.69	5896.10
942.85	5916.58
943.02	5773.22
943.18	5777.32
943.35	5830.57
943.52	5595.05
943.68	5435.31
943.85	5586.86
944.01	5480.36
944.18	5611.43
944.35	5586.86
944.51	5353.39
944.68	5330.86
944.84	5351.34
945.01	5359.53
945.17	5431.21
945.34	5355.44
945.51	5470.12
945.67	5232.56
945.84	5359.53
946.00	5238.70
946.17	5285.81
946.33	5318.57
946.50	5322.67
946.67	5246.90
946.83	5083.06
947.00	5320.62
947.16	5076.91
947.33	5222.32
947.49	5201.84
947.66	5201.84
947.82	5203.89
947.99	5179.31
948.16	5087.15
948.32	5173.17
948.49	5287.86
948.65	5201.84
948.82	5222.32
948.98	5171.12
949.15	5070.77
949.31	5154.74
949.48	5210.03
949.64	5117.87
949.81	5197.74
949.97	5210.03
950.14	5201.84
950.30	5062.58
950.47	5183.41
950.63	5117.87
950.80	5146.55
950.96	5263.28
951.13	5158.83
951.30	5150.64
951.46	5232.56
951.63	5259.18
951.79	5380.01
951.96	5396.40
952.12	5289.90
952.29	5332.91
952.45	5246.90
952.62	5431.21
952.78	5306.29
952.94	5205.94
953.11	5373.87
953.27	5189.55
953.44	5230.51
953.60	5279.66
953.77	5365.68
953.93	5111.73
954.10	5173.17
954.26	5377.97
954.43	5334.96
954.59	5382.06
954.76	5400.49
954.92	5218.22
955.09	5439.40
955.25	5207.98
955.42	5291.95
955.58	5363.63
955.75	5316.53
955.91	5320.62
956.07	5310.38
956.24	5412.78
956.40	5406.64
956.57	5382.06
956.73	5402.54
956.90	5277.62
957.06	5359.53
957.23	5257.14
957.39	5468.08
957.56	5380.01
957.72	5345.20
957.88	5222.32
958.05	5496.75
958.21	5541.80
958.38	5339.05
958.54	5375.92
958.71	5488.56
958.87	5468.08
959.03	5300.14
959.20	5373.87
959.36	5306.29
959.53	5261.23
959.69	5201.84
959.85	5339.05
960.02	5226.42
960.18	5380.01
960.35	5310.38
960.51	5486.51
960.68	5294.00
960.84	5289.90
961.00	5212.08
961.17	5302.19
961.33	5300.14
961.50	5240.75
961.66	5306.29
961.82	5285.81
961.99	5402.54
962.15	5291.95
962.31	5400.49
962.48	5300.14
962.64	5326.77
962.81	5402.54
962.97	5373.87
963.13	5230.51
963.30	5269.42
963.46	5156.79
963.62	5291.95
963.79	5291.95
963.95	5199.79
964.12	5216.18
964.28	5363.63
964.44	5324.72
964.61	5470.12
964.77	5287.86
964.93	5406.64
965.10	5320.62
965.26	5083.06
965.42	5173.17
965.59	5105.59
965.75	5179.31
965.92	5271.47
966.08	5242.80
966.24	5226.42
966.41	5195.70
966.57	5294.00
966.73	5191.60
966.90	5173.17
967.06	5197.74
967.22	5316.53
967.39	5181.36
967.55	5169.07
967.71	5146.55
967.88	4990.90
968.04	4995.00
968.20	4968.37
968.37	5058.48
968.53	5128.11
968.69	5173.17
968.85	5040.05
969.02	5119.92
969.18	5013.43
969.34	5029.81
969.51	4992.95
969.67	5105.59
969.83	4976.56
970.00	5033.91
970.16	5105.59
970.32	4995.00
970.48	5169.07
970.65	5048.24
970.81	4929.46
970.97	4892.60
971.14	4902.84
971.30	5013.43
971.46	4898.74
971.63	4857.78
971.79	4880.31
971.95	5023.67
972.11	4714.42
972.28	4984.76
972.44	5207.98
972.60	4876.21
972.76	4886.45
972.93	4827.06
973.09	4863.93
973.25	4888.50
973.42	4726.71
973.58	4833.21
973.74	4847.54
973.90	4802.49
974.07	4833.21
974.23	4732.86
974.39	4753.34
974.55	4802.49
974.72	4888.50
974.88	4642.75
975.04	4757.43
975.20	4655.03
975.37	4695.99
975.53	4761.53
975.69	4730.81
975.85	4583.35
976.01	4587.45
976.18	4782.01
976.34	4624.31
976.50	4788.15
976.66	4814.77
976.83	4579.26
976.99	4687.80
977.15	4511.68
977.31	4423.61
977.47	4605.88
977.64	4632.51
977.80	4687.80
977.96	4548.54
978.12	4528.06
978.29	4593.59
978.45	4556.73
978.61	4474.81
978.77	4587.45
978.93	4440.00
979.10	4483.00
979.26	4487.10
979.42	4505.53
979.58	4315.07
979.74	4427.71
979.91	4415.42
980.07	4333.50
980.23	4519.87
980.39	4440.00
980.55	4435.90
980.71	4337.60
980.88	4323.26
981.04	4306.88
981.20	4276.16
981.36	4351.93
981.52	4325.31
981.68	4257.73
981.85	4423.61
982.01	4339.65
982.17	4255.68
982.33	4261.82
982.49	4360.13
982.65	4212.67
982.82	4272.06
982.98	4237.25
983.14	4106.18
983.30	4296.64
983.46	4317.12
983.62	4267.97
983.79	4239.30
983.95	4161.47
984.11	4138.94
984.27	4208.58
984.43	4302.78
984.59	4282.30
984.75	4278.21
984.91	4007.87
985.08	4179.90
985.24	4034.50
985.40	4018.11
985.56	4143.04
985.72	4157.38
985.88	4128.70
986.04	4009.92
986.20	4046.79
986.37	3985.35
986.53	3975.11
986.69	4018.11
986.85	3944.39
987.01	3985.35
987.17	3977.16
987.33	4110.27
987.49	3942.34
987.65	4091.84
987.82	4052.93
987.98	3923.91
988.14	3960.77
988.30	3907.52
988.46	3909.57
988.62	3962.82
988.78	3895.24
988.94	3780.55
989.10	3831.75
989.26	3794.89
989.42	3989.44
989.59	3706.82
989.75	3708.87
989.91	3794.89
990.07	3719.11
990.23	3823.56
990.39	3663.82
990.55	3852.23
990.71	3841.99
990.87	3784.65
991.03	3878.85
991.19	3831.75
991.35	3870.66
991.51	3755.97
991.67	3850.18
991.83	3807.17
992.00	3747.78
992.16	3846.09
992.32	3790.79
992.48	3676.10
992.64	3633.10
992.80	3645.38
992.96	3678.15
993.12	3661.77
993.28	3665.86
993.44	3690.44
993.60	3643.34
993.76	3667.91
993.92	3663.82
994.08	3618.76
994.24	3626.95
994.40	3540.94
994.56	3708.87
994.72	3518.41
994.88	3655.62
995.04	3583.95
995.20	3499.98
995.36	3585.99
995.52	3563.47
995.68	3471.31
995.84	3545.03
996.00	3571.66
996.16	3497.93
996.32	3475.40
996.48	3485.64
996.64	3475.40
996.80	3430.35
996.96	3475.40
997.12	3422.16
997.28	3391.44
997.44	3381.20
997.60	3385.29
997.76	3413.96
997.92	3411.92
998.08	3397.58
998.24	3239.89
998.40	3379.15
998.56	3356.62
998.72	3362.76
998.88	3348.43
999.04	3325.90
999.20	3370.96
999.36	3309.52
999.52	3362.76
999.68	3280.85
999.84	3420.11
1000.00	3344.33
1000.16	3373.00
1000.32	3307.47
1000.48	3438.54
1000.64	3211.22
1000.80	3311.57
1000.95	3180.50
1001.11	3243.98
1001.27	3248.08
1001.43	3282.89
1001.59	3188.69
1001.75	3215.31
1001.91	3239.89
1002.07	3100.62
1002.23	3076.05
1002.39	3186.64
1002.55	3176.40
1002.71	3186.64
1002.87	3092.43
1003.03	3071.95
1003.19	3026.90
1003.34	3198.93
1003.50	2926.55
1003.66	3080.14
1003.82	3094.48
1003.98	3000.27
1004.14	3084.24
1004.30	3076.05
1004.46	3014.61
1004.62	3127.25
1004.78	3037.14
1004.94	3071.95
1005.09	3022.80
1005.25	3016.66
1005.41	3014.61
1005.57	2930.64
1005.73	2926.55
1005.89	2918.36
1006.05	3045.33
1006.21	2969.55
1006.37	2906.07
1006.52	2893.78
1006.68	2887.64
1006.84	2971.60
1007.00	2852.82
1007.16	2936.79
1007.32	2809.81
1007.48	2869.20
1007.64	2963.41
1007.79	2891.73
1007.95	2858.96
1008.11	2998.23
1008.27	2869.20
1008.43	2846.68
1008.59	2850.77
1008.75	2906.07
1008.91	2834.39
1009.06	2768.85
1009.22	2852.82
1009.38	2824.15
1009.54	2791.38
1009.70	2746.33
1009.86	2967.51
1010.01	2838.48
1010.17	2858.96
1010.33	2779.09
1010.49	2797.53
1010.65	2844.63
1010.81	2705.37
1010.96	2756.57
1011.12	2682.84
1011.28	2598.87
1011.44	2715.61
1011.60	2672.60
1011.76	2766.81
1011.91	2754.52
1012.07	2576.34
1012.23	2586.58
1012.39	2703.32
1012.55	2715.61
1012.71	2674.65
1012.86	2693.08
1013.02	2744.28
1013.18	2525.15
1013.34	2588.63
1013.50	2672.60
1013.65	2658.26
1013.81	2576.34
1013.97	2691.03
1014.13	2723.80
1014.29	2562.01
1014.44	2770.90
1014.60	2684.89
1014.76	2594.78
1014.92	2453.47
1015.07	2607.06
1015.23	2568.15
1015.39	2492.38
1015.55	2564.06
1015.71	2539.48
1015.86	2564.06
1016.02	2420.70
1016.18	2539.48
1016.34	2514.91
1016.49	2570.20
1016.65	2682.84
1016.81	2465.75
1016.97	2451.42
1017.12	2582.49
1017.28	2492.38
1017.44	2455.51
1017.60	2402.27
1017.75	2437.08
1017.91	2457.56
1018.07	2473.95
1018.23	2512.86
1018.38	2353.12
1018.54	2392.03
1018.70	2443.23
1018.86	2420.70
1019.01	2428.89
1019.17	2514.91
1019.33	2564.06
1019.49	2346.97
1019.64	2428.89
1019.80	2373.60
1019.96	2541.53
1020.12	2504.67
1020.27	2392.03
1020.43	2453.47
1020.59	2441.18
1020.74	2418.65
1020.90	2371.55
1021.06	2404.32
1021.22	2377.69
1021.37	2320.35
1021.53	2246.62
1021.69	2346.97
1021.84	2193.37
1022.00	2332.64
1022.16	2293.72
1022.31	2215.90
1022.47	2351.07
1022.63	2338.78
1022.79	2314.20
1022.94	2328.54
1023.10	2379.74
1023.26	2260.96
1023.41	2361.31
1023.57	2314.20
1023.73	2424.80
1023.88	2312.16
1024.04	2275.29
1024.20	2238.43
1024.35	2283.49
1024.51	2222.05
1024.67	2240.48
1024.82	2263.01
1024.98	2179.04
1025.14	2293.72
1025.29	2213.85
1025.45	2273.25
1025.61	2232.29
1025.76	2240.48
1025.92	2215.90
1026.08	2254.81
1026.23	2256.86
1026.39	2242.53
1026.55	2189.28
1026.70	2187.23
1026.86	2201.57
1027.02	2269.15
1027.17	2148.32
1027.33	2281.44
1027.48	2111.46
1027.64	2203.61
1027.80	2154.46
1027.95	2217.95
1028.11	2146.27
1028.27	2150.37
1028.42	2160.61
1028.58	2074.59
1028.73	2172.89
1028.89	2025.44
1029.05	2138.08
1029.20	2185.18
>>>>>End Processed Spectral Data<<<<<
