SpectraSuite Data File
++++++++++++++++++++++++++++++++++++
Date: Fri Jun 02 14:47:54 CEST 2017
User: INFO_000
Dark Spectrum Present: No
Reference Spectrum Present: No
Number of Sampled Component Spectra: 1
Spectrometers: USB4H00879
Integration Time (usec): 80000 (USB4H00879)
Spectra Averaged: 1 (USB4H00879)
Boxcar Smoothing: 0 (USB4H00879)
Correct for Electrical Dark: No (USB4H00879)
Strobe/Lamp Enabled: No (USB4H00879)
Correct for Detector Non-linearity: No (USB4H00879)
Correct for Stray Light: No (USB4H00879)
Number of Pixels in Processed Spectrum: 3648
>>>>>Begin Processed Spectral Data<<<<<
345.13	1290.22
345.34	1290.22
345.56	1290.22
345.78	1214.45
345.99	1292.27
346.21	1712.10
346.42	1728.49
346.64	1624.04
346.86	1830.88
347.07	1548.26
347.29	1671.14
347.50	1640.42
347.72	1691.62
347.94	1804.26
348.15	1492.97
348.37	1646.57
348.59	1679.33
348.80	1697.77
349.02	1699.81
349.23	1857.51
349.45	1814.50
349.67	1894.37
349.88	1802.21
350.10	1908.71
350.31	1845.22
350.53	1800.16
350.75	1923.04
350.96	1693.67
351.18	1812.45
351.39	1816.55
351.61	1816.55
351.82	1871.84
352.04	1861.60
352.26	1759.21
352.47	1843.17
352.69	1937.38
352.90	1722.34
353.12	1839.08
353.34	1753.06
353.55	1955.81
353.77	1875.94
353.98	1908.71
354.20	1814.50
354.41	1927.14
354.63	1951.71
354.85	1996.77
355.06	1853.41
355.28	1708.01
355.49	1945.57
355.71	1863.65
355.92	1830.88
356.14	1945.57
356.35	1888.23
356.57	1873.89
356.79	1929.19
357.00	1830.88
357.22	1980.39
357.43	1794.02
357.65	1970.15
357.86	1845.22
358.08	1818.60
358.29	1906.66
358.51	1937.38
358.72	1906.66
358.94	1900.52
359.16	2013.15
359.37	1937.38
359.59	1945.57
359.80	1998.82
360.02	1923.04
360.23	1966.05
360.45	1992.67
360.66	1951.71
360.88	1875.94
361.09	1951.71
361.31	1953.76
361.52	1980.39
361.74	1992.67
361.95	2052.06
362.17	1837.03
362.38	1996.77
362.60	1970.15
362.81	1947.62
363.03	1927.14
363.24	1957.86
363.46	2097.12
363.67	2002.91
363.89	1966.05
364.10	2015.20
364.32	1943.52
364.53	2004.96
364.75	1910.75
364.96	1957.86
365.18	1982.43
365.39	1937.38
365.61	1970.15
365.82	2056.16
366.04	2064.35
366.25	1964.00
366.47	2004.96
366.68	2041.82
366.90	2060.26
367.11	2054.11
367.33	2144.22
367.54	2082.78
367.76	2011.11
367.97	2074.59
368.19	2047.97
368.40	2072.54
368.62	2043.87
368.83	1935.33
369.05	2064.35
369.26	2035.68
369.48	2015.20
369.69	1959.91
369.91	2037.73
370.12	2035.68
370.33	2021.35
370.55	1923.04
370.76	2095.07
370.98	2129.89
371.19	2037.73
371.41	1959.91
371.62	2041.82
371.84	1914.85
372.05	2127.84
372.27	2004.96
372.48	2185.18
372.69	2072.54
372.91	2183.13
373.12	2133.98
373.34	2076.64
373.55	2123.74
373.77	2082.78
373.98	2093.02
374.20	2113.50
374.41	2162.66
374.62	2148.32
374.84	2158.56
375.05	2183.13
375.27	2189.28
375.48	2117.60
375.70	2121.70
375.91	2179.04
376.12	2258.91
376.34	2195.42
376.55	2222.05
376.77	2201.57
376.98	2074.59
377.19	2166.75
377.41	2176.99
377.62	2125.79
377.84	2299.87
378.05	2424.80
378.27	2271.20
378.48	2267.10
378.69	2473.95
378.91	2310.11
379.12	2191.33
379.34	2277.34
379.55	2301.92
379.76	2224.09
379.98	2203.61
380.19	2271.20
380.41	2187.23
380.62	2283.49
380.83	2273.25
381.05	2142.18
381.26	2404.32
381.47	2152.42
381.69	2279.39
381.90	2322.40
382.12	2318.30
382.33	2260.96
382.54	2271.20
382.76	2301.92
382.97	2277.34
383.19	2164.70
383.40	2404.32
383.61	2322.40
383.83	2174.94
384.04	2293.72
384.25	2295.77
384.47	2451.42
384.68	2263.01
384.89	2408.41
385.11	2207.71
385.32	2332.64
385.54	2406.36
385.75	2326.49
385.96	2375.64
386.18	2412.51
386.39	2312.16
386.60	2291.68
386.82	2379.74
387.03	2490.33
387.24	2516.95
387.46	2410.46
387.67	2514.91
387.88	2473.95
388.10	2396.12
388.31	2443.23
388.52	2529.24
388.74	2533.34
388.95	2502.62
389.16	2623.45
389.38	2547.67
389.59	2611.16
389.80	2533.34
390.02	2549.72
390.23	2605.02
390.44	2539.48
390.66	2566.10
390.87	2519.00
391.08	2502.62
391.30	2754.52
391.51	2586.58
391.72	2670.55
391.94	2650.07
392.15	2658.26
392.36	2516.95
392.58	2566.10
392.79	2555.86
393.00	2650.07
393.22	2756.57
393.43	2793.43
393.64	2764.76
393.85	2848.72
394.07	2643.93
394.28	2740.18
394.49	2701.27
394.71	2727.89
394.92	2824.15
395.13	2705.37
395.35	2709.46
395.56	2717.65
395.77	2748.37
395.98	2777.05
396.20	2863.06
396.41	2768.85
396.62	2891.73
396.84	2740.18
397.05	2727.89
397.26	2858.96
397.47	3024.85
397.69	2818.00
397.90	3039.19
398.11	2938.84
398.32	2875.35
398.54	2875.35
398.75	2869.20
398.96	2926.55
399.18	3094.48
399.39	3053.52
399.60	2932.69
399.81	2944.98
400.03	2813.91
400.24	3215.31
400.45	2818.00
400.66	3018.71
400.88	2916.31
401.09	3155.92
401.30	3125.20
401.51	3047.38
401.73	3178.45
401.94	3059.67
402.15	3061.71
402.36	3139.54
402.58	3200.98
402.79	3188.69
403.00	3155.92
403.21	3207.12
403.43	3188.69
403.64	3276.75
403.85	3047.38
404.06	3243.98
404.27	2963.41
404.49	3127.25
404.70	3131.34
404.91	3254.22
405.12	3248.08
405.34	3141.58
405.55	3389.39
405.76	3088.34
405.97	3286.99
406.19	3366.86
406.40	3239.89
406.61	3266.51
406.82	3364.81
407.03	3344.33
407.25	3325.90
407.46	3452.88
407.67	3276.75
407.88	3416.01
408.09	3250.13
408.31	3377.10
408.52	3418.06
408.73	3444.68
408.94	3393.48
409.15	3379.15
409.37	3442.64
409.58	3479.50
409.79	3452.88
410.00	3682.25
410.21	3370.96
410.43	3456.97
410.64	3330.00
410.85	3600.33
411.06	3583.95
411.27	3592.14
411.48	3614.66
411.70	3426.25
411.91	3579.85
412.12	3622.86
412.33	3624.90
412.54	3510.22
412.76	3772.36
412.97	3733.45
413.18	3495.88
413.39	3542.99
413.60	3598.28
413.81	3678.15
414.03	3721.16
414.24	3567.56
414.45	3862.47
414.66	3592.14
414.87	3727.30
415.08	3739.59
415.30	3745.73
415.51	3708.87
415.72	3690.44
415.93	3682.25
416.14	3856.33
416.35	3813.32
416.56	3882.95
416.78	3762.12
416.99	3803.08
417.20	3829.70
417.41	3885.00
417.62	3854.28
417.83	3921.86
418.04	3997.64
418.26	3903.43
418.47	3964.87
418.68	4136.90
418.89	3928.00
419.10	4026.31
419.31	4032.45
419.52	4034.50
419.73	3989.44
419.95	4091.84
420.16	4001.73
420.37	4071.36
420.58	4059.07
420.79	3954.63
421.00	4071.36
421.21	4112.32
421.42	4034.50
421.63	4102.08
421.85	4061.12
422.06	4095.94
422.27	4194.24
422.48	4171.71
422.69	4159.42
422.90	4227.01
423.11	4095.94
423.32	4310.97
423.53	4235.20
423.75	4147.14
423.96	4544.44
424.17	4341.69
424.38	4364.22
424.59	4239.30
424.80	4597.69
425.01	4425.66
425.22	4437.95
425.43	4487.10
425.64	4628.41
425.85	4620.22
426.06	4468.67
426.28	4485.05
426.49	4454.33
426.70	4491.20
426.91	4460.48
427.12	4546.49
427.33	4603.83
427.54	4700.09
427.75	4700.09
427.96	4669.37
428.17	4669.37
428.38	4884.41
428.59	4812.73
428.80	4734.90
429.01	4861.88
429.23	4755.38
429.44	4927.41
429.65	4835.25
429.86	4966.32
430.07	4757.43
430.28	4632.51
430.49	5001.14
430.70	5066.67
430.91	5056.43
431.12	4855.73
431.33	5134.26
431.54	5097.39
431.75	5164.98
431.96	5064.63
432.17	5035.96
432.38	5236.66
432.59	5242.80
432.80	5093.30
433.01	5179.31
433.22	5279.66
433.43	5214.13
433.64	5169.07
433.85	5126.07
434.06	5255.09
434.27	5304.24
434.49	5183.41
434.70	5423.02
434.91	5361.58
435.12	5406.64
435.33	5394.35
435.54	5371.82
435.75	5115.83
435.96	5386.16
436.17	5341.10
436.38	5420.97
436.59	5537.71
436.80	5496.75
437.01	5724.07
437.22	5597.10
437.43	5638.06
437.64	5439.40
437.85	5681.07
438.06	5781.42
438.27	5742.50
438.48	5668.78
438.69	5844.90
438.90	5756.84
439.11	5627.82
439.32	5838.76
439.53	5889.96
439.74	5877.67
439.95	6064.04
440.16	5822.38
440.37	5965.73
440.57	6006.69
440.78	5885.86
440.99	6025.12
441.20	5941.16
441.41	5855.14
441.62	5935.01
441.83	5869.48
442.04	6090.66
442.25	6051.75
442.46	6070.18
442.67	6172.58
442.88	6506.40
443.09	5922.73
443.30	6025.12
443.51	6266.78
443.72	6535.07
443.93	6133.67
444.14	6422.43
444.35	6123.43
444.56	6287.26
444.77	6225.82
444.98	6471.58
445.19	6492.06
445.40	6330.27
445.61	6248.35
445.81	6637.47
446.02	6539.16
446.23	6492.06
446.44	6410.14
446.65	6438.81
446.86	6553.50
447.07	6733.72
447.28	6682.52
447.49	6664.09
447.70	6649.75
447.91	6655.90
448.12	6467.49
448.33	6813.59
448.54	6743.96
448.74	6735.77
448.95	6872.98
449.16	6698.91
449.37	7137.17
449.58	6852.50
449.79	7057.30
450.00	6713.24
450.21	6987.67
450.42	7114.64
450.63	6856.60
450.84	6920.09
451.05	6942.61
451.25	6901.65
451.46	7061.40
451.67	7128.98
451.88	7155.60
452.09	7143.32
452.30	7225.23
452.51	6995.86
452.72	7262.10
452.93	7325.58
453.13	7002.01
453.34	7174.03
453.55	7210.90
453.76	7155.60
453.97	7686.03
454.18	7399.31
454.39	7411.60
454.60	7303.06
454.81	7350.16
455.01	7546.76
455.22	7417.74
455.43	7595.92
455.64	7667.60
455.85	7823.24
456.06	7849.86
456.27	7776.14
456.48	7817.10
456.68	7825.29
456.89	7647.12
457.10	7948.17
457.31	7886.73
457.52	7837.58
457.73	7921.54
457.94	8300.42
458.14	7827.34
458.35	8257.41
458.56	8044.42
458.77	8146.82
458.98	8146.82
459.19	8171.40
459.39	8304.51
459.60	8273.79
459.81	8320.90
460.02	8443.78
460.23	8273.79
460.44	8603.52
460.65	8542.08
460.85	8468.35
461.06	8552.32
461.27	8546.17
461.48	8808.31
461.69	8914.81
461.89	8464.25
462.10	8800.12
462.31	8552.32
462.52	8630.14
462.73	8779.64
462.94	8910.71
463.14	9074.55
463.35	8806.27
463.56	9387.89
463.77	9291.63
463.98	8976.25
464.18	9179.00
464.39	9283.44
464.60	9385.84
464.81	9379.70
465.02	9389.94
465.23	9711.47
465.43	9486.19
465.64	9811.82
465.85	9791.34
466.06	9533.29
466.27	9901.93
466.47	9901.93
466.68	9820.01
466.89	10030.95
467.10	10076.01
467.30	9875.31
467.51	10043.24
467.72	10202.98
467.93	9938.79
468.14	10119.01
468.34	10362.72
468.55	10520.42
468.76	10628.96
468.97	10207.08
469.17	10729.31
469.38	10778.46
469.59	10917.72
469.80	10645.34
470.01	10700.64
470.21	10936.15
470.42	11071.32
470.63	11087.70
470.84	11081.56
471.04	11061.08
471.25	11210.58
471.46	11229.01
471.67	11460.43
471.87	11335.51
472.08	11499.34
472.29	11691.85
472.50	11489.10
472.70	11628.37
472.91	11788.11
473.12	11888.46
473.33	11896.65
473.53	12064.58
473.74	11964.23
473.95	12316.48
474.16	12265.28
474.36	12253.00
474.57	12369.73
474.78	12828.48
474.99	12420.93
475.19	12517.18
475.40	12988.22
475.61	13012.79
475.81	13002.55
476.02	13363.00
476.23	13076.28
476.44	13180.73
476.64	13360.95
476.85	13451.06
477.06	13455.15
477.27	13770.54
477.47	13815.60
477.68	13840.17
477.89	14032.68
478.09	13666.10
478.30	13920.04
478.51	13924.14
478.71	14356.26
478.92	14401.32
479.13	14403.36
479.34	14538.53
479.54	14536.48
479.75	14454.56
479.96	14604.07
480.16	14534.43
480.37	14847.77
480.58	15208.22
480.78	15226.65
480.99	14980.89
481.20	15122.20
481.41	15605.52
481.61	15394.58
481.82	15539.99
482.03	15712.02
482.23	15779.60
482.44	15804.17
482.65	16072.46
482.85	15943.44
483.06	15904.53
483.27	15828.75
483.47	16152.33
483.68	16267.02
483.89	16346.89
484.09	16355.08
484.30	16568.07
484.51	16647.94
484.71	16748.29
484.92	16817.92
485.13	16817.92
485.33	16973.56
485.54	16934.65
485.75	17108.73
485.95	17260.28
486.16	17047.29
486.37	17475.32
486.57	17387.25
486.78	17389.30
486.98	17577.72
487.19	17501.94
487.40	17712.88
487.60	17696.50
487.81	18128.62
488.02	17975.02
488.22	18061.04
488.43	18267.88
488.64	18212.59
488.84	18378.47
489.05	18546.40
489.25	18620.13
489.46	18503.40
489.67	18441.96
489.87	18908.90
490.08	19044.06
490.29	18847.46
490.49	19230.43
490.70	19248.86
490.90	19255.00
491.11	18996.96
491.32	19445.46
491.52	19578.58
491.73	19676.88
491.94	19730.13
492.14	19529.43
492.35	19977.94
492.55	19627.73
492.76	19973.84
492.97	20149.96
493.17	20066.00
493.38	20377.29
493.58	20412.10
493.79	20233.93
494.00	20369.10
494.20	20405.96
494.41	20727.49
494.61	20938.43
494.82	20786.88
495.02	20659.91
495.23	20719.30
495.44	21020.35
495.64	21008.06
495.85	21188.28
496.05	21407.42
496.26	21040.83
496.47	21337.79
496.67	21477.05
496.88	21747.38
497.08	21524.15
497.29	21716.66
497.49	21565.11
497.70	22163.12
497.91	21884.59
498.11	22093.49
498.32	22107.82
498.52	22275.76
498.73	22566.57
498.93	22398.63
499.14	22589.10
499.34	22511.27
499.55	22859.43
499.76	22521.51
499.96	22740.64
500.17	22748.84
500.37	22828.71
500.58	22773.41
500.78	23221.92
500.99	23160.48
501.19	23348.89
501.40	23320.22
501.60	23002.78
501.81	23326.36
502.02	23621.27
502.22	23563.93
502.43	23608.98
502.63	23821.97
502.84	23967.38
503.04	23719.57
503.25	24067.73
503.45	23973.52
503.66	24174.22
503.86	23994.00
504.07	24540.81
504.27	24108.69
504.48	24438.41
504.68	24536.71
504.89	24772.23
505.09	24872.58
505.30	24698.50
505.50	25063.04
505.71	24934.02
505.91	24909.44
506.12	25056.90
506.32	25138.82
506.53	25081.47
506.73	25218.69
506.94	25237.12
507.14	25052.80
507.35	25341.57
507.55	25792.12
507.76	25714.30
507.96	25468.54
508.17	25609.85
508.37	25706.10
508.58	25818.74
508.78	25816.69
508.99	26027.63
509.19	26136.18
509.40	26039.92
509.60	25964.15
509.81	25945.72
510.01	26320.49
510.22	26328.69
510.42	26240.62
510.63	26365.55
510.83	26367.60
511.04	26560.11
511.24	26734.18
511.44	26556.01
511.65	26910.31
511.85	27008.61
512.06	26781.29
512.26	26998.37
512.47	26998.37
512.67	27242.08
512.88	27123.30
513.08	27129.44
513.29	27047.52
513.49	26863.21
513.69	27391.58
513.90	27518.56
514.10	27600.47
514.31	27745.88
514.51	27385.44
514.72	27453.02
514.92	27532.89
515.13	27430.49
515.33	27682.39
515.53	27526.75
515.74	27729.50
515.94	27903.57
516.15	28010.07
516.35	28141.14
516.56	28286.54
516.76	27727.45
516.96	28362.32
517.17	28096.08
517.37	28524.11
517.58	28388.94
517.78	28354.13
517.99	28452.43
518.19	28614.22
518.39	28702.28
518.60	28687.95
518.80	28520.01
519.01	28675.66
519.21	28851.78
519.41	28902.98
519.62	29079.11
519.82	28689.99
520.03	29285.95
520.23	29484.61
520.43	28673.61
520.64	29279.81
520.84	29433.41
521.05	29396.54
521.25	29431.36
521.45	29419.07
521.66	29621.82
521.86	29310.53
522.07	29687.36
522.27	29724.22
522.47	29771.32
522.68	29818.42
522.88	29683.26
523.08	30105.14
523.29	30043.70
523.49	30221.87
523.70	30447.15
523.90	30615.08
524.10	30174.77
524.31	30447.15
524.51	29992.50
524.71	30895.66
524.92	30490.16
525.12	31010.34
525.33	30946.86
525.53	30875.18
525.73	30930.47
525.94	30740.01
526.14	30713.39
526.34	30764.59
526.55	31424.03
526.75	30860.84
526.95	31450.66
527.16	31475.23
527.36	31585.82
527.56	31583.77
527.77	31731.23
527.97	31462.94
528.17	31737.37
528.38	31999.51
528.58	31534.62
528.78	31884.83
528.99	32050.71
529.19	32656.91
529.39	32103.96
529.60	32450.06
529.80	32511.50
530.00	32433.68
530.21	32527.89
530.41	33062.41
530.61	32493.07
530.82	32443.92
531.02	32931.34
531.22	32923.15
531.43	32986.63
531.63	32937.48
531.83	32853.51
532.04	33605.12
532.24	33199.62
532.44	33601.02
532.64	33662.46
532.85	33648.13
533.05	33752.57
533.25	33586.69
533.46	33623.55
533.66	33986.04
533.86	33551.87
534.07	33981.95
534.27	34002.43
534.47	34182.65
534.67	34469.36
534.88	33775.10
535.08	34332.15
535.28	34719.21
535.49	34942.44
535.69	34930.16
535.89	34964.97
536.09	34563.57
536.30	35116.52
536.50	34905.58
536.70	35349.99
536.91	35294.69
537.11	35665.38
537.31	35417.57
537.51	35309.03
537.72	35593.70
537.92	35778.01
538.12	36052.44
538.32	35782.11
538.53	36267.48
538.73	35943.90
538.93	35956.19
539.13	36275.67
539.34	36177.37
539.54	36140.50
539.74	36476.37
539.94	36402.64
540.15	36552.15
540.35	36558.29
540.55	36763.09
540.75	36769.23
540.96	36699.60
541.16	36928.97
541.36	36971.98
541.56	36931.02
541.77	36998.60
541.97	37060.04
542.17	37443.01
542.37	37266.89
542.58	37639.62
542.78	37430.72
542.98	37299.65
543.18	37572.03
543.38	38274.49
543.59	38061.50
543.79	37924.29
543.99	37668.29
544.19	38301.11
544.40	38403.51
544.60	38268.34
544.80	38575.54
545.00	38626.74
545.20	38657.46
545.41	38557.11
545.61	38292.92
545.81	38866.35
546.01	39099.82
546.21	38559.16
546.42	38636.98
546.62	39318.95
546.82	38802.86
547.02	39237.03
547.22	39407.01
547.43	39282.09
547.63	39654.82
547.83	39484.84
548.03	39572.90
548.23	39732.64
548.44	39736.74
548.64	40177.05
548.84	39703.97
549.04	39886.24
549.24	40027.55
549.45	40361.37
549.65	40062.36
549.85	39951.77
550.05	40529.30
550.25	39785.89
550.45	40555.93
550.66	40648.08
550.86	40523.16
551.06	40680.85
551.26	40707.47
551.46	40756.63
551.66	40744.34
551.87	40492.44
552.07	41072.01
552.27	40994.19
552.47	41211.28
552.67	41133.45
552.87	41055.63
553.07	41360.78
553.28	41045.39
553.48	41772.42
553.68	41231.75
553.88	41696.64
554.08	41794.95
554.28	41530.76
554.48	40979.85
554.69	41852.29
554.89	41401.74
555.09	41457.03
555.29	41491.85
555.49	41952.64
555.69	41702.79
555.89	41948.54
556.10	42132.86
556.30	41950.59
556.50	42405.24
556.70	42130.81
556.90	42419.58
557.10	42235.26
557.30	41854.34
557.50	42737.01
557.70	42534.26
557.91	42614.13
558.11	42378.62
558.31	42634.61
558.51	42114.43
558.71	42786.16
558.91	42456.44
559.11	42595.70
559.31	42694.00
559.51	42562.93
559.72	42820.98
559.92	43042.16
560.12	42896.75
560.32	43087.21
560.52	43453.80
560.72	43064.69
560.92	43111.79
561.12	43081.07
561.32	43461.99
561.52	42878.32
561.72	43292.01
561.93	43095.41
562.13	43449.70
562.33	43255.15
562.53	43920.74
562.73	43466.09
562.93	43423.08
563.13	43375.98
563.33	43308.40
563.53	43556.20
563.73	43511.14
563.93	43259.24
564.13	43832.68
564.33	43824.48
564.53	43531.62
564.74	43756.90
564.94	43971.94
565.14	44238.17
565.34	43939.17
565.54	43660.65
565.74	43597.16
565.94	43851.11
566.14	44422.49
566.34	43674.98
566.54	44660.05
566.74	43930.98
566.94	43883.87
567.14	44324.19
567.34	43961.70
567.54	44107.10
567.74	43988.32
567.94	43650.41
568.14	44582.23
568.34	44420.44
568.54	44207.45
568.74	44698.97
568.94	44176.73
569.14	44604.76
569.34	44569.94
569.54	44195.17
569.75	44100.96
569.95	44639.57
570.15	44694.87
570.35	44576.09
570.55	44625.24
570.75	44809.56
570.95	44911.95
571.15	45049.17
571.35	44803.41
571.55	45040.98
571.75	45000.02
571.95	45151.57
572.15	44588.38
572.35	45073.74
572.55	44713.30
572.75	44969.30
572.95	45110.61
573.15	45014.35
573.35	44856.66
573.55	45241.68
573.75	45036.88
573.95	45301.07
574.15	45110.61
574.35	45083.98
574.55	45108.56
574.75	45215.05
574.95	45270.35
575.15	44684.63
575.34	45010.26
575.54	45137.23
575.74	45839.68
575.94	45526.35
576.14	45221.20
576.34	45636.94
576.54	45845.83
576.74	45405.52
576.94	45372.75
577.14	45802.82
577.34	45741.38
577.54	45303.12
577.74	45899.08
577.94	46142.78
578.14	45661.51
578.34	46232.89
578.54	45389.13
578.74	45708.61
578.94	46140.74
579.14	45667.66
579.34	45864.26
579.54	46255.42
579.74	46396.73
579.94	45937.99
580.13	46202.18
580.33	45923.65
580.53	45915.46
580.73	46073.15
580.93	46331.20
581.13	46052.67
581.33	46552.38
581.53	46490.94
581.73	46210.37
581.93	46447.93
582.13	46490.94
582.33	46697.78
582.53	46474.55
582.73	46828.85
582.92	46753.08
583.12	47220.02
583.32	46683.45
583.52	46738.74
583.72	47011.12
583.92	47074.61
584.12	47035.70
584.32	47238.45
584.52	47326.51
584.72	47363.37
584.92	47473.96
585.11	47605.03
585.31	47457.58
585.51	47588.65
585.71	47346.99
585.91	47635.75
586.11	47234.35
586.31	47508.78
586.51	47795.49
586.71	47723.82
586.91	48184.61
587.10	48069.92
587.30	47523.11
587.50	48338.21
587.70	48078.11
587.90	48178.46
588.10	48295.20
588.30	48045.35
588.50	48086.31
588.69	48153.89
588.89	48264.48
589.09	48411.93
589.29	48559.39
589.49	48588.06
589.69	48053.54
589.89	48698.65
590.08	48698.65
590.28	48442.65
590.48	48043.30
590.68	48692.50
590.88	48780.57
591.08	48692.50
591.28	48481.56
591.47	49214.74
591.67	48991.51
591.87	49063.19
592.07	49292.56
592.27	48993.56
592.47	49198.35
592.67	49214.74
592.86	49079.57
593.06	49259.79
593.26	49474.83
593.46	49517.84
593.66	49351.95
593.86	49681.67
594.05	49423.63
594.25	49923.33
594.45	49237.26
594.65	49431.82
594.85	49161.49
595.05	49968.39
595.24	50087.17
595.44	49655.05
595.64	50099.46
595.84	49870.09
596.04	50085.12
596.23	50107.65
596.43	50324.74
596.63	50361.60
596.83	50066.69
597.03	50351.36
597.22	50892.02
597.42	50709.75
597.62	50670.84
597.82	50803.96
598.02	50816.25
598.21	50918.65
598.41	50640.12
598.61	50873.59
598.81	51229.94
599.01	51365.10
599.20	51016.95
599.40	50830.58
599.60	51090.68
599.80	51201.27
600.00	51197.17
600.19	52172.00
600.39	51789.03
600.59	51801.32
600.79	51873.00
600.98	51684.59
601.18	51932.39
601.38	51891.43
601.58	51893.48
601.78	51993.83
601.97	52047.08
602.17	52536.54
602.37	52516.06
602.57	52350.18
602.76	52733.15
602.96	51911.91
603.16	52186.34
603.36	52434.14
603.55	52571.36
603.75	52638.94
603.95	53429.46
604.15	53083.35
604.34	52786.39
604.54	52958.42
604.74	53312.72
604.94	53261.52
605.13	53392.59
605.33	53392.59
605.53	53175.51
605.73	53400.79
605.92	53220.56
606.12	53554.38
606.32	53685.45
606.52	53433.55
606.71	53363.92
606.91	53624.01
607.11	53548.24
607.30	53714.12
607.50	53902.54
607.70	54488.26
607.90	53484.75
608.09	54156.49
608.29	53906.63
608.49	53810.38
608.68	54062.28
608.88	53966.02
609.08	54230.21
609.28	54580.42
609.47	53763.28
609.67	54676.67
609.87	54262.98
610.06	54613.18
610.26	54310.08
610.46	54711.49
610.66	54156.49
610.85	54668.48
611.05	54250.69
611.25	54660.29
611.44	53957.83
611.64	55203.00
611.84	54715.58
612.03	54899.90
612.23	54901.95
612.43	54830.27
612.62	54252.74
612.82	54949.05
613.02	54617.28
613.21	54901.95
613.41	54623.42
613.61	54971.58
613.80	54711.49
614.00	54731.96
614.20	54965.43
614.39	54947.00
614.59	55127.22
614.79	54916.28
614.98	54656.19
615.18	55545.01
615.38	54891.71
615.57	55203.00
615.77	55276.72
615.97	54934.71
616.16	54813.88
616.36	55264.44
616.56	55129.27
616.75	54893.75
616.95	54793.40
617.15	54985.91
617.34	54983.86
617.54	54738.11
617.74	55186.61
617.93	55563.44
618.13	54729.92
618.32	55024.82
618.52	55239.86
618.72	54944.95
618.91	55342.26
619.11	55018.68
619.31	54756.54
619.50	54850.75
619.70	54903.99
619.90	54918.33
620.09	55231.67
620.29	55211.19
620.48	55116.98
620.68	55565.49
620.88	54623.42
621.07	54813.88
621.27	54969.53
621.46	54203.59
621.66	54801.60
621.86	54953.15
622.05	54803.64
622.25	55055.54
622.44	54744.25
622.64	54701.25
622.84	54998.20
623.03	54764.73
623.23	54471.87
623.42	54826.17
623.62	54697.15
623.82	54998.20
624.01	54901.95
624.21	54750.40
624.40	54420.67
624.60	54957.24
624.80	54531.26
624.99	54539.46
625.19	54185.16
625.38	54883.51
625.58	54609.09
625.77	54707.39
625.97	54695.10
626.17	54432.96
626.36	54787.26
626.56	54752.44
626.75	54465.73
626.95	54897.85
627.14	54363.33
627.34	54912.19
627.54	54461.63
627.73	54793.40
627.93	54615.23
628.12	54185.16
628.32	54674.62
628.51	54258.88
628.71	54451.39
628.90	54602.94
629.10	54097.09
629.30	54381.76
629.49	54678.72
629.69	54310.08
629.88	54535.36
630.08	54711.49
630.27	54815.93
630.47	54187.21
630.66	54131.91
630.86	54643.90
631.05	54213.83
631.25	54746.30
631.44	54359.23
631.64	54285.51
631.84	54551.74
632.03	54631.61
632.23	54570.18
632.42	54922.43
632.62	54066.38
632.81	53998.79
633.01	54105.29
633.20	54693.05
633.40	54645.95
633.59	54316.23
633.79	53787.85
633.98	54301.89
634.18	54598.85
634.37	54514.88
634.57	54271.17
634.76	54537.41
634.96	54064.33
635.15	54219.97
635.35	53976.26
635.54	54240.45
635.74	54613.18
635.93	54002.89
636.13	54820.03
636.32	54531.26
636.52	53935.30
636.71	54283.46
636.91	54617.28
637.10	54383.81
637.30	54156.49
637.49	54719.68
637.69	54361.28
637.88	54287.56
638.08	53705.93
638.27	54283.46
638.46	54359.23
638.66	54023.37
638.85	54387.91
639.05	54381.76
639.24	54639.81
639.44	54019.27
639.63	54371.52
639.83	54338.75
640.02	54363.33
640.22	53996.74
640.41	54688.96
640.61	54039.75
640.80	54367.43
640.99	54101.19
641.19	54498.50
641.38	54090.95
641.58	54252.74
641.77	54416.58
641.97	53976.26
642.16	54228.16
642.36	54420.67
642.55	54963.39
642.74	53875.91
642.94	54850.75
643.13	54510.78
643.33	54949.05
643.52	54865.08
643.72	54553.79
643.91	54576.32
644.10	54940.86
644.30	54928.57
644.49	54539.46
644.69	54869.18
644.88	54400.19
645.08	54392.00
645.27	54695.10
645.46	54334.66
645.66	54879.42
645.85	54559.94
646.05	54910.14
646.24	54865.08
646.43	54637.76
646.63	54916.28
646.82	54613.18
647.02	54801.60
647.21	54650.05
647.40	54604.99
647.60	55159.99
647.79	54932.67
647.99	54985.91
648.18	54887.61
648.37	55575.73
648.57	55327.92
648.76	54867.13
648.96	54514.88
649.15	55016.63
649.34	54852.80
649.54	55385.27
649.73	54795.45
649.92	55141.56
650.12	54992.06
650.31	54891.71
650.51	55403.70
650.70	55309.49
650.89	54949.05
651.09	56001.71
651.28	55516.34
651.47	55030.97
651.67	55465.14
651.86	55323.83
652.06	55203.00
652.25	55719.09
652.44	55612.59
652.64	55108.79
652.83	55635.12
653.02	55166.13
653.22	55657.65
653.41	55504.05
653.60	54838.46
653.80	55538.86
653.99	55581.87
654.18	55319.73
654.38	55246.00
654.57	55243.96
654.76	55549.10
654.96	55116.98
655.15	55354.55
655.34	55796.91
655.54	55332.02
655.73	55723.18
655.92	55813.29
656.12	55602.35
656.31	55747.76
656.50	55471.28
656.70	55706.80
656.89	55506.10
657.08	55936.17
657.28	55923.88
657.47	55477.43
657.66	55755.95
657.86	55397.55
658.05	55555.25
658.24	55891.12
658.43	55653.55
658.63	56183.97
658.82	56153.26
659.01	56132.78
659.21	56306.85
659.40	55731.37
659.59	55739.57
659.79	56108.20
659.98	56360.10
660.17	56407.20
660.36	55919.79
660.56	56077.48
660.75	55950.51
660.94	56024.23
661.14	55966.89
661.33	56382.63
661.52	55897.26
661.71	56265.89
661.91	55915.69
662.10	56452.26
662.29	56155.30
662.49	56341.67
662.68	56145.06
662.87	56100.01
663.06	56456.35
663.26	56218.79
663.45	56726.69
663.64	56317.09
663.83	56732.83
664.03	56757.41
664.22	56130.73
664.41	56419.49
664.60	56329.38
664.80	56358.05
664.99	56509.60
665.18	56581.28
665.37	56642.72
665.57	56853.66
665.76	56231.08
665.95	56960.15
666.14	56593.57
666.34	56589.47
666.53	56562.85
666.72	56689.82
666.91	56673.44
667.11	56771.74
667.30	56431.78
667.49	56646.82
667.68	56339.62
667.87	56804.51
668.07	56990.87
668.26	56534.18
668.45	56243.37
668.64	56896.67
668.84	57181.34
669.03	56988.83
669.22	56624.29
669.41	56974.49
669.60	57078.94
669.80	56652.96
669.99	56765.60
670.18	56816.80
670.37	57226.39
670.57	57316.50
670.76	56423.59
670.95	57220.25
671.14	56384.68
671.33	56495.27
671.53	57435.28
671.72	56927.39
671.91	56759.45
672.10	56556.70
672.29	56550.56
672.48	56546.47
672.68	57220.25
672.87	56702.11
673.06	56779.93
673.25	56710.30
673.44	56724.64
673.64	56507.55
673.83	56824.99
674.02	56650.91
674.21	57046.17
674.40	57463.96
674.59	56888.48
674.79	56874.14
674.98	56751.26
675.17	57222.29
675.36	56999.07
675.55	57152.66
675.74	57150.62
675.94	56964.25
676.13	57080.98
676.32	57193.62
676.51	57111.70
676.70	57087.13
676.89	57365.65
677.08	57578.64
677.28	56933.53
677.47	57480.34
677.66	56982.68
677.85	56845.47
678.04	57549.97
678.23	57615.50
678.42	57365.65
678.62	56700.06
678.81	57676.94
679.00	56927.39
679.19	57048.22
679.38	57238.68
679.57	56865.95
679.76	56788.13
679.96	57117.85
680.15	56964.25
680.34	56886.43
680.53	56413.35
680.72	56841.37
680.91	56663.20
681.10	56941.72
681.29	57066.65
681.48	56612.00
681.68	57103.51
681.87	56843.42
682.06	57021.59
682.25	56239.27
682.44	56468.64
682.63	56818.84
682.82	56564.90
683.01	56984.73
683.20	56732.83
683.39	56767.65
683.59	56521.89
683.78	56310.95
683.97	56392.87
684.16	56767.65
684.35	56077.48
684.54	56573.09
684.73	56278.18
684.92	56140.97
685.11	56100.01
685.30	56413.35
685.49	56824.99
685.69	56677.54
685.88	56571.04
686.07	56280.23
686.26	56054.95
686.45	56304.80
686.64	56120.49
686.83	55852.20
687.02	55936.17
687.21	56087.72
687.40	56065.19
687.59	56100.01
687.78	56181.93
687.97	56655.01
688.16	55837.87
688.35	55878.83
688.54	55932.07
688.74	56550.56
688.93	55635.12
689.12	55975.08
689.31	55893.16
689.50	55782.57
689.69	55981.23
689.88	55536.82
690.07	55604.40
690.26	55354.55
690.45	55696.56
690.64	55671.98
690.83	55317.68
691.02	55391.41
691.21	55796.91
691.40	55542.96
691.59	56022.19
691.78	55213.24
691.97	55467.19
692.16	55565.49
692.35	55671.98
692.54	55325.88
692.73	55612.59
692.92	55569.58
693.11	55332.02
693.30	55377.08
693.49	55022.78
693.68	54885.56
693.87	55473.33
694.06	55153.85
694.25	54785.21
694.44	54766.78
694.63	54559.94
694.82	54994.10
695.01	54940.86
695.20	55114.94
695.39	54246.60
695.58	54785.21
695.77	54000.84
695.96	54234.31
696.15	54664.38
696.34	54435.01
696.53	54482.11
696.72	54697.15
696.91	54088.90
697.10	54488.26
697.29	54551.74
697.48	54574.27
697.67	54588.61
697.86	54039.75
698.05	53775.56
698.24	54355.14
698.43	53714.12
698.62	54152.39
698.81	53746.89
699.00	54115.53
699.19	53486.80
699.38	54033.61
699.57	53740.75
699.76	53918.92
699.95	53290.19
700.14	53738.70
700.32	53675.21
700.51	53681.36
700.70	54047.94
700.89	53535.95
701.08	53966.02
701.27	53656.78
701.46	53716.17
701.65	53261.52
701.84	53353.68
702.03	53662.93
702.22	52909.27
702.41	53411.02
702.60	53558.48
702.79	53204.18
702.98	52794.59
703.17	52995.29
703.35	52817.11
703.54	53148.88
703.73	53376.21
703.92	53214.42
704.11	52880.60
704.30	52733.15
704.49	52761.82
704.68	52511.97
704.87	53001.43
705.06	52417.76
705.25	52446.43
705.43	52581.60
705.62	52747.48
705.81	52665.56
706.00	52335.84
706.19	52448.48
706.38	52753.63
706.57	52690.14
706.76	52090.09
706.95	52532.45
707.14	51944.68
707.32	51950.82
707.51	52094.18
707.70	52114.66
707.89	52217.06
708.08	52040.93
708.27	52384.99
708.46	52002.02
708.65	51909.86
708.84	52487.39
709.02	52139.24
709.21	52100.32
709.40	51971.30
709.59	52223.20
709.78	51754.22
709.97	52229.35
710.16	51885.29
710.34	51774.70
710.53	51537.13
710.72	51447.02
710.91	51406.06
711.10	51879.14
711.29	51707.12
711.48	51031.29
711.66	51375.34
711.85	51315.95
712.04	51094.77
712.23	51549.42
712.42	51068.15
712.61	51074.29
712.80	51037.43
712.98	51320.05
713.17	50672.89
713.36	50900.22
713.55	51043.57
713.74	51365.10
713.93	51035.38
714.11	51072.24
714.30	50369.79
714.49	50439.42
714.68	50853.11
714.87	51000.57
715.06	50658.56
715.24	50193.67
715.43	50959.61
715.62	50269.44
715.81	50265.34
716.00	50763.00
716.18	50134.28
716.37	50152.71
716.56	50435.33
716.75	50722.04
716.94	50353.41
717.12	49820.94
717.31	50593.02
717.50	50343.17
717.69	50410.75
717.88	49827.08
718.06	50431.23
718.25	50566.40
718.44	49677.58
718.63	50013.44
718.82	49786.12
719.00	49900.81
719.19	49638.67
719.38	49923.33
719.57	49636.62
719.76	49292.56
719.94	49464.59
720.13	49485.07
720.32	49503.50
720.51	49286.42
720.69	49235.22
720.88	49104.15
721.07	49722.63
721.26	48973.08
721.44	49120.53
721.63	48956.69
721.82	48868.63
722.01	48940.31
722.20	49239.31
722.38	48710.94
722.57	48397.60
722.76	48852.25
722.95	48629.02
723.13	48362.78
723.32	48637.21
723.51	48704.79
723.70	48239.90
723.88	48262.43
724.07	48401.69
724.26	48274.72
724.44	47766.82
724.63	48338.21
724.82	47961.38
725.01	47996.20
725.19	47963.43
725.38	48037.16
725.57	47740.20
725.76	48041.25
725.94	47721.77
726.13	47836.45
726.32	47815.97
726.51	47840.55
726.69	48401.69
726.88	47768.87
727.07	48215.33
727.25	48100.64
727.44	47899.94
727.63	47904.04
727.82	47635.75
728.00	47955.24
728.19	47916.32
728.38	48135.46
728.56	47510.83
728.75	48133.41
728.94	47500.59
729.12	47656.23
729.31	47873.32
729.50	47281.45
729.69	48151.84
729.87	47404.33
730.06	47240.50
730.25	47465.77
730.43	47641.90
730.62	47711.53
730.81	47715.62
730.99	47924.52
731.18	47527.21
731.37	47758.63
731.55	47715.62
731.74	48297.25
731.93	48014.63
732.11	47920.42
732.30	47764.78
732.49	47113.52
732.67	47709.48
732.86	47336.75
733.05	47932.71
733.23	47316.27
733.42	47490.35
733.61	47576.36
733.79	47609.13
733.98	47983.91
734.17	47584.55
734.35	47531.31
734.54	47707.43
734.73	47834.41
734.91	47582.51
735.10	47316.27
735.29	47732.01
735.47	47387.95
735.66	47277.36
735.84	47686.95
736.03	47234.35
736.22	47699.24
736.40	47297.84
736.59	47510.83
736.78	47400.24
736.96	47502.64
737.15	47359.28
737.33	47471.92
737.52	47043.89
737.71	47312.17
737.89	47338.80
738.08	47097.14
738.27	47519.02
738.45	47543.59
738.64	47441.20
738.82	47136.05
739.01	46984.50
739.20	47275.31
739.38	47070.51
739.57	47117.62
739.75	47295.79
739.94	47082.80
740.13	47183.15
740.31	46947.64
740.50	47185.20
740.68	47086.90
740.87	47512.88
741.06	47193.39
741.24	46884.15
741.43	46757.17
741.61	46880.05
741.80	46568.76
741.99	46415.16
742.17	46486.84
742.36	46794.04
742.54	46650.68
742.73	46716.22
742.91	47004.98
743.10	47004.98
743.29	47002.93
743.47	47338.80
743.66	46785.85
743.84	47314.22
744.03	47031.60
744.21	46667.06
744.40	47050.03
744.59	46847.29
744.77	46372.16
744.96	46810.42
745.14	46429.50
745.33	46685.50
745.51	46402.88
745.70	46214.46
745.88	46468.41
746.07	46595.38
746.26	46267.71
746.44	46224.70
746.63	46611.77
746.81	46646.58
747.00	46101.82
747.18	46310.72
747.37	46437.69
747.55	46525.75
747.74	46695.74
747.92	46280.00
748.11	46454.08
748.29	46017.86
748.48	46218.56
748.66	45978.95
748.85	46443.84
749.03	46304.57
749.22	46759.22
749.41	46067.01
749.59	46208.32
749.78	46060.87
749.96	45643.08
750.15	46165.31
750.33	45958.47
750.52	46193.98
750.70	46003.52
750.89	45649.22
751.07	46052.67
751.26	45991.23
751.44	45645.13
751.63	45765.96
751.81	45557.06
752.00	45352.27
752.18	45972.80
752.37	45847.88
752.55	45475.15
752.74	45608.26
752.92	45290.83
753.10	45530.44
753.29	45491.53
753.47	45528.39
753.66	45446.47
753.84	45448.52
754.03	45577.54
754.21	45024.59
754.40	45243.73
754.58	45874.50
754.77	45260.11
754.95	45278.54
755.14	44893.52
755.32	45358.41
755.51	44987.73
755.69	44989.78
755.88	45251.92
756.06	45200.72
756.24	45135.18
756.43	45069.65
756.61	45178.19
756.80	44934.48
756.98	44952.91
757.17	44946.77
757.35	44752.21
757.54	44610.90
757.72	44631.38
757.90	44709.21
758.09	44563.80
758.27	45030.74
758.46	44567.90
758.64	44682.58
758.83	44844.37
759.01	45120.85
759.19	44664.15
759.38	44531.03
759.56	44565.85
759.75	44266.84
759.93	44510.55
760.12	44385.63
760.30	44227.93
760.48	44174.69
760.67	44479.83
760.85	44528.98
761.04	44483.93
761.22	44596.57
761.40	44303.71
761.59	43910.50
761.77	43769.19
761.96	44356.96
762.14	43892.07
762.32	43613.54
762.51	44162.40
762.69	43726.18
762.88	43996.51
763.06	44209.50
763.24	44037.47
763.43	44168.54
763.61	43398.51
763.80	44316.00
763.98	43607.40
764.16	43607.40
764.35	43605.35
764.53	43033.97
764.72	43447.66
764.90	43697.51
765.08	43326.83
765.27	43578.73
765.45	43206.00
765.63	42827.12
765.82	43502.95
766.00	42792.31
766.18	42904.95
766.37	43308.40
766.55	43324.78
766.74	42755.44
766.92	42845.55
767.10	42945.90
767.29	42280.31
767.47	42775.92
767.65	42628.47
767.84	42403.19
768.02	42716.53
768.20	42376.57
768.39	42925.42
768.57	42341.75
768.75	42167.68
768.94	42497.40
769.12	42399.10
769.30	42206.59
769.49	42220.92
769.67	42339.71
769.85	41928.06
770.04	42165.63
770.22	41801.09
770.40	42063.23
770.59	41895.30
770.77	42382.71
770.95	42149.24
771.14	41887.10
771.32	41522.57
771.50	41399.69
771.69	41590.15
771.87	41633.16
772.05	41409.93
772.24	41264.52
772.42	41667.97
772.60	41375.11
772.78	41381.26
772.97	41037.20
773.15	41915.78
773.33	41491.85
773.52	40914.32
773.70	41436.55
773.88	41057.68
774.07	41291.15
774.25	41000.33
774.43	41481.61
774.61	40986.00
774.80	41297.29
774.98	41266.57
775.16	41268.62
775.34	41481.61
775.53	41227.66
775.71	41612.68
775.89	41092.49
776.08	41291.15
776.26	41475.46
776.44	41450.89
776.62	41387.40
776.81	41151.88
776.99	41147.79
777.17	41147.79
777.35	41244.04
777.54	41514.37
777.72	41092.49
777.90	41000.33
778.08	41201.04
778.27	41248.14
778.45	41368.97
778.63	41588.10
778.81	41272.71
779.00	41670.02
779.18	41811.33
779.36	41602.44
779.54	41577.86
779.73	41450.89
779.91	41923.97
780.09	41741.70
780.27	42050.94
780.46	41659.78
780.64	42182.01
780.82	41250.19
781.00	41721.22
781.19	41942.40
781.37	41700.74
781.55	41786.75
781.73	41985.41
781.91	41653.64
782.10	41831.81
782.28	41733.51
782.46	41969.02
782.64	41663.88
782.82	41694.60
783.01	41704.84
783.19	42270.08
783.37	41760.13
783.55	41686.40
783.74	42073.47
783.92	41696.64
784.10	42286.46
784.28	41725.32
784.46	41862.53
784.64	41364.87
784.83	42057.09
785.01	42065.28
785.19	41581.96
785.37	41659.78
785.55	41774.47
785.74	41481.61
785.92	41491.85
786.10	41487.75
786.28	41528.71
786.46	41643.40
786.64	41014.67
786.83	41354.63
787.01	41239.95
787.19	41391.50
787.37	41377.16
787.55	41506.18
787.74	41104.78
787.92	40791.44
788.10	40781.20
788.28	40684.95
788.46	41072.01
788.64	40617.36
788.82	41026.96
789.01	41186.70
789.19	41182.60
789.37	40222.11
789.55	40660.37
789.73	40435.10
789.91	39876.00
790.09	40369.56
790.28	40523.16
790.46	40236.44
790.64	40428.95
790.82	40181.15
791.00	40273.31
791.18	40031.65
791.36	40023.45
791.55	39773.60
791.73	39300.52
791.91	39620.00
792.09	39249.32
792.27	39564.71
792.45	39796.13
792.63	39675.30
792.81	39427.49
793.00	39488.93
793.18	39280.04
793.36	38823.34
793.54	39263.66
793.72	39122.35
793.90	38725.04
794.08	38665.65
794.26	38522.29
794.44	38305.21
794.62	38280.63
794.81	38458.81
794.99	38284.73
795.17	37836.22
795.35	38137.27
795.53	38167.99
795.71	38114.75
795.89	37639.62
796.07	37766.59
796.25	37762.50
796.43	37858.75
796.61	37383.62
796.80	37506.50
796.98	37506.50
797.16	36943.31
797.34	37205.45
797.52	36902.35
797.70	37711.30
797.88	37047.75
798.06	36765.14
798.24	37117.39
798.42	36826.57
798.60	36578.77
798.78	36562.39
798.96	36849.10
799.14	36416.98
799.32	36546.00
799.51	35982.81
799.69	36668.88
799.87	36312.53
800.05	35948.00
800.23	36099.55
800.41	35968.48
800.59	35792.35
800.77	35898.84
800.95	35210.73
801.13	35767.77
801.31	35110.38
801.49	35440.10
801.67	35438.05
801.85	35204.58
802.03	35196.39
802.21	34924.01
802.39	34885.10
802.57	34905.58
802.75	34504.18
802.93	34993.64
803.11	34768.37
803.29	34491.89
803.47	34346.48
803.65	34631.15
803.83	34203.13
804.01	34377.20
804.19	34084.34
804.37	34031.10
804.55	33930.75
804.73	33953.27
804.91	34158.07
805.09	33670.65
805.27	34063.86
805.45	33891.83
805.63	33926.65
805.81	33549.82
805.99	33670.65
806.17	33605.12
806.35	33353.22
806.53	33338.88
806.71	33469.95
806.89	33089.03
807.07	33140.23
807.25	33279.49
807.43	33009.16
807.61	33101.32
807.79	33164.81
807.97	32658.96
808.15	32370.19
808.33	32540.18
808.51	32554.51
808.69	33027.59
808.87	32384.53
809.05	32122.39
809.23	32239.12
809.41	32106.01
809.59	31995.42
809.77	32198.16
809.95	31782.43
810.13	32044.57
810.31	31804.95
810.49	32126.49
810.67	31741.47
810.84	31917.59
811.02	32005.66
811.20	31563.29
811.38	31737.37
811.56	31358.50
811.74	31536.67
811.92	31358.50
812.10	31454.75
812.28	31618.59
812.46	31340.07
812.64	31118.89
812.82	31055.40
813.00	31401.50
813.18	30862.89
813.36	30584.37
813.53	30721.58
813.71	30864.94
813.89	30950.95
814.07	30758.44
814.25	30823.98
814.43	30686.76
814.61	30279.22
814.79	30449.20
814.97	30484.01
815.15	30307.89
815.33	30475.82
815.50	30027.32
815.68	30453.30
815.86	30463.54
816.04	29959.73
816.22	29918.78
816.40	29898.30
816.58	29793.85
816.76	29920.82
816.94	29922.87
817.11	29947.45
817.29	29849.14
817.47	29990.45
817.65	29503.04
817.83	29310.53
818.01	29337.15
818.19	29351.49
818.37	29101.64
818.54	28870.22
818.72	28945.99
818.90	29363.78
819.08	29079.11
819.26	28968.52
819.44	28743.24
819.62	29124.16
819.80	29046.34
819.97	29130.31
820.15	28714.57
820.33	28995.14
820.51	28862.02
820.69	28565.07
820.87	28900.94
821.05	28874.31
821.22	28644.94
821.40	28649.03
821.58	28573.26
821.76	28438.09
821.94	28311.12
822.12	28642.89
822.29	28431.95
822.47	28292.69
822.65	28513.87
822.83	28612.17
823.01	28182.10
823.19	27958.87
823.36	28048.98
823.54	27938.39
823.72	28151.38
823.90	28071.51
824.08	27694.68
824.25	27448.93
824.43	27668.06
824.61	27786.84
824.79	27860.57
824.97	27760.22
825.15	28051.03
825.32	27717.21
825.50	27573.85
825.68	27418.21
825.86	27797.08
826.04	27659.87
826.21	27780.70
826.39	27457.12
826.57	27569.76
826.75	27446.88
826.93	27063.91
827.10	27221.60
827.28	27446.88
827.46	27356.77
827.64	27680.35
827.81	27063.91
827.99	27027.04
828.17	26971.75
828.35	27033.19
828.53	27006.56
828.70	27100.77
828.88	26926.69
829.06	27018.85
829.24	27242.08
829.41	26922.60
829.59	27033.19
829.77	26697.32
829.95	26832.49
830.12	27018.85
830.30	26893.93
830.48	26664.55
830.66	26304.11
830.84	26601.07
831.01	26607.21
831.19	26494.57
831.37	26330.73
831.55	26279.54
831.72	26295.92
831.90	26310.25
832.08	26365.55
832.25	26553.96
832.43	26300.01
832.61	26166.90
832.79	26226.29
832.96	26230.38
833.14	26297.97
833.32	25908.85
833.50	26244.72
833.67	26615.40
833.85	26052.21
834.03	25745.02
834.20	26103.41
834.38	26222.19
834.56	25847.41
834.74	25745.02
834.91	25763.45
835.09	25874.04
835.27	25675.38
835.44	25620.09
835.62	25656.95
835.80	25544.31
835.98	25761.40
836.15	25726.58
836.33	25656.95
836.51	25564.79
836.68	25646.71
836.86	25636.47
837.04	25505.40
837.21	25572.99
837.39	25472.64
837.57	25607.80
837.75	25382.52
837.92	25230.98
838.10	25163.39
838.28	24845.96
838.45	25089.67
838.63	25306.75
838.81	25210.50
838.98	24868.48
839.16	25185.92
839.34	24997.51
839.51	24983.17
839.69	24800.90
839.87	24606.34
840.04	24868.48
840.22	24893.06
840.40	24911.49
840.57	24686.22
840.75	24708.74
840.93	24641.16
841.10	24866.44
841.28	24952.45
841.46	24645.26
841.63	24641.16
841.81	24549.00
841.98	24940.16
842.16	24743.56
842.34	24624.78
842.51	24073.87
842.69	24618.63
842.87	24821.38
843.04	24733.32
843.22	24643.21
843.40	24526.47
843.57	24454.79
843.75	24270.48
843.92	24432.27
844.10	24346.25
844.28	24362.64
844.45	24663.69
844.63	24381.07
844.81	24194.70
844.98	24053.39
845.16	23854.74
845.33	24350.35
845.51	24053.39
845.69	24118.93
845.86	23791.25
846.04	24161.94
846.21	23748.25
846.39	24168.08
846.57	24139.41
846.74	23907.99
846.92	23953.04
847.09	23918.23
847.27	23973.52
847.45	24049.30
847.62	23969.43
847.80	23930.51
847.97	23791.25
848.15	23725.72
848.32	23336.60
848.50	23574.17
848.68	23707.29
848.85	23828.12
849.03	23305.88
849.20	23623.32
849.38	23223.97
849.56	23307.93
849.73	23283.36
849.91	23527.06
850.08	23819.92
850.26	23232.16
850.43	23418.52
850.61	23287.45
850.78	23201.44
850.96	23031.46
851.14	23367.32
851.31	23428.76
851.49	23135.90
851.66	23197.34
851.84	23121.57
852.01	22959.78
852.19	23217.82
852.36	22853.28
852.54	22869.67
852.71	22861.48
852.89	23109.28
853.07	22992.55
853.24	22781.60
853.42	22865.57
853.59	22789.80
853.77	22879.91
853.94	23021.22
854.12	23201.44
854.29	22337.20
854.47	23027.36
854.64	22851.24
854.82	22720.17
854.99	22722.21
855.17	22734.50
855.34	22365.87
855.52	22453.93
855.69	22716.07
855.87	22353.58
856.04	22404.78
856.22	22488.74
856.39	22365.87
856.57	22208.17
856.74	22468.27
856.92	22429.35
857.09	22415.02
857.27	22386.35
857.44	22488.74
857.62	22324.91
857.79	22394.54
857.97	22372.01
858.14	22236.84
858.32	22531.75
858.49	22093.49
858.67	21950.13
858.84	22216.36
859.02	22173.36
859.19	21909.17
859.37	22105.77
859.54	22023.86
859.72	22234.80
859.89	22132.40
860.06	22226.60
860.24	22021.81
860.41	22144.69
860.59	21661.37
860.76	21716.66
860.94	21460.66
861.11	21644.98
861.29	21888.69
861.46	21788.34
861.64	21524.15
861.81	21460.66
861.98	21630.65
862.16	21700.28
862.33	21548.73
862.51	21499.58
862.68	21685.94
862.86	21401.27
863.03	21438.14
863.21	21446.33
863.38	21538.49
863.55	21376.70
863.73	21329.59
863.90	21415.61
864.08	21364.41
864.25	21262.01
864.43	21110.46
864.60	21126.85
864.77	21139.13
864.95	21040.83
865.12	20879.04
865.30	20954.82
865.47	20838.08
865.64	21137.09
865.82	21038.78
865.99	21178.04
866.17	20858.56
866.34	20969.15
866.51	20537.03
866.69	20819.65
866.86	20862.66
867.04	20709.06
867.21	20588.23
867.38	20807.36
867.56	20809.41
867.73	20565.70
867.91	20520.65
868.08	20707.01
868.25	20397.77
868.43	20457.16
868.60	20571.85
868.78	20295.37
868.95	20788.93
869.12	20567.75
869.30	20170.44
869.47	20205.26
869.64	20115.15
869.82	20340.43
869.99	20037.33
870.16	20362.95
870.34	20158.16
870.51	20221.64
870.69	19941.07
870.86	20049.61
871.03	20047.57
871.21	19902.16
871.38	20061.90
871.55	19455.70
871.73	19916.50
871.90	19775.19
872.07	19752.66
872.25	19623.64
872.42	19775.19
872.59	19613.40
872.77	19484.37
872.94	19392.22
873.11	19310.30
873.29	19103.45
873.46	19160.80
873.63	19306.20
873.81	19338.97
873.98	19160.80
874.15	19060.45
874.33	19140.32
874.50	19087.07
874.67	19326.68
874.85	19113.69
875.02	19148.51
875.19	19107.55
875.37	19015.39
875.54	18910.94
875.71	19050.21
875.88	18783.97
876.06	18650.85
876.23	18749.15
876.40	18743.01
876.58	18972.38
876.75	18775.78
876.92	18988.77
877.10	18771.68
877.27	18423.53
877.44	18392.81
877.61	18679.52
877.79	18298.60
877.96	18695.91
878.13	18155.24
878.31	18190.06
878.48	18169.58
878.65	18126.57
878.82	18214.63
879.00	18308.84
879.17	18163.43
879.34	18026.22
879.51	18032.36
879.69	17837.81
879.86	18024.17
880.03	17905.39
880.21	17972.97
880.38	17862.38
880.55	17880.82
880.72	17768.18
880.90	17768.18
881.07	17725.17
881.24	17727.22
881.41	17925.87
881.59	17823.47
881.76	17704.69
881.93	17868.53
882.10	17503.99
882.28	17647.35
882.45	17663.73
882.62	17397.49
882.79	17676.02
882.96	17229.56
883.14	17319.67
883.31	17802.99
883.48	17518.32
883.65	17395.45
883.83	17309.43
884.00	17581.81
884.17	17352.44
884.34	17344.25
884.51	17370.87
884.69	17366.78
884.86	17188.60
885.03	17266.42
885.20	17055.48
885.38	17227.51
885.55	16736.00
885.72	17288.95
885.89	17239.80
886.06	17094.40
886.24	16873.21
886.41	17078.01
886.58	17235.70
886.75	17078.01
886.92	16914.17
887.10	17078.01
887.27	16713.47
887.44	17041.15
887.61	16965.37
887.78	16942.85
887.95	17135.35
888.13	16740.10
888.30	16600.83
888.47	16543.49
888.64	16625.41
888.81	16527.11
888.99	16543.49
889.16	16246.54
889.33	16389.89
889.50	16492.29
889.67	16649.99
889.84	16439.05
890.01	16301.83
890.19	16529.16
890.36	16582.40
890.53	16494.34
890.70	16299.78
890.87	16078.60
891.04	15974.16
891.22	16314.12
891.39	16088.84
891.56	15709.97
891.73	15879.95
891.90	16146.19
892.07	15806.22
892.24	16002.83
892.42	15879.95
892.59	15937.29
892.76	15912.72
892.93	15873.81
893.10	16058.12
893.27	15724.30
893.44	15767.31
893.61	15802.13
893.79	15826.70
893.96	15609.62
894.13	15773.46
894.30	15798.03
894.47	15882.00
894.64	15695.63
894.81	15707.92
894.98	15752.98
895.15	15832.85
895.33	15716.11
895.50	15445.78
895.67	15757.07
895.84	15421.20
896.01	15380.25
896.18	15482.64
896.35	15769.36
896.52	15945.48
896.69	15466.26
896.86	15351.57
897.04	15609.62
897.21	15787.79
897.38	15548.18
897.55	15337.24
897.72	15451.92
897.89	15472.40
898.06	15439.64
898.23	15445.78
898.40	15363.86
898.57	15392.53
898.74	15400.72
898.91	15275.80
899.08	15453.97
899.26	15341.33
899.43	15421.20
899.60	15546.13
899.77	15458.07
899.94	15251.22
900.11	15255.32
900.28	15419.16
900.45	15429.40
900.62	15329.05
900.79	15402.77
900.96	15353.62
901.13	15247.13
901.30	15449.88
901.47	15126.30
901.64	15224.60
901.81	15398.68
901.98	15044.38
902.15	15392.53
902.32	15079.19
902.49	15394.58
902.66	15124.25
902.83	15226.65
903.01	15046.43
903.18	15324.95
903.35	15400.72
903.52	15138.58
903.69	15337.24
903.86	15582.99
904.03	15421.20
904.20	15376.15
904.37	15290.13
904.54	15159.06
904.71	15384.34
904.88	15398.68
905.05	15189.78
905.22	15191.83
905.39	15042.33
905.56	15167.26
905.73	15283.99
905.90	15441.68
906.07	15208.22
906.24	15263.51
906.41	15257.37
906.58	15140.63
906.75	14935.84
906.92	14847.77
907.09	15087.39
907.26	15011.61
907.43	15159.06
907.60	15003.42
907.77	15304.47
907.93	15068.95
908.10	15087.39
908.27	15290.13
908.44	15048.47
908.61	15150.87
908.78	14853.92
908.95	14952.22
909.12	15050.52
909.29	15003.42
909.46	14819.10
909.63	15023.90
909.80	15052.57
909.97	14819.10
910.14	14812.96
910.31	14872.35
910.48	14831.39
910.65	14839.58
910.82	14794.53
910.99	14962.46
911.16	14931.74
911.33	14911.26
911.50	14575.39
911.66	14688.03
911.83	14683.94
912.00	14597.92
912.17	14671.65
912.34	14624.54
912.51	14528.29
912.68	14438.18
912.85	14614.30
913.02	14591.78
913.19	14294.82
913.36	14520.10
913.53	14554.91
913.70	14319.40
913.86	14456.61
914.03	14477.09
914.20	14352.16
914.37	14372.64
914.54	14094.12
914.71	14356.26
914.88	14204.71
915.05	14118.70
915.22	14044.97
915.39	14053.16
915.55	14067.50
915.72	14034.73
915.89	13938.48
916.06	13946.67
916.23	13815.60
916.40	13862.70
916.57	14020.39
916.74	13643.57
916.91	13838.12
917.07	13733.68
917.24	13791.02
917.41	13737.77
917.58	13664.05
917.75	13639.47
917.92	13633.33
918.09	13506.35
918.26	13391.67
918.42	13481.78
918.59	13414.20
918.76	13363.00
918.93	13111.10
919.10	13209.40
919.27	13231.93
919.44	13346.61
919.60	13225.78
919.77	13307.70
919.94	13143.86
920.11	13051.70
920.28	13195.06
920.45	12977.98
920.61	12998.46
920.78	12885.82
920.95	12670.78
921.12	12705.60
921.29	12863.29
921.46	12740.41
921.62	12687.17
921.79	12617.54
921.96	12533.57
922.13	12597.06
922.30	12359.49
922.47	12359.49
922.63	12363.59
922.80	12193.61
922.97	12330.82
923.14	11923.27
923.31	12265.28
923.47	12103.50
923.64	12242.76
923.81	12105.54
923.98	12185.41
924.15	12070.73
924.32	12078.92
924.48	12093.26
924.65	12048.20
924.82	11788.11
924.99	11779.92
925.15	11792.20
925.32	11913.03
925.49	11609.93
925.66	11599.70
925.83	11542.35
925.99	11661.13
926.16	11573.07
926.33	11605.84
926.50	11292.50
926.67	11528.02
926.83	11448.15
927.00	11466.58
927.17	11405.14
927.34	11247.44
927.50	11024.22
927.67	11280.21
927.84	11155.29
928.01	11048.79
928.17	11091.80
928.34	10897.24
928.51	10917.72
928.68	10829.66
928.84	10778.46
929.01	10649.44
929.18	10559.33
929.35	10604.38
929.51	10839.90
929.68	10485.60
929.85	10418.02
930.02	10479.46
930.18	10565.47
930.35	10368.87
930.52	10340.19
930.69	10362.72
930.85	10272.61
931.02	10194.79
931.19	10143.59
931.36	10164.07
931.52	10149.73
931.69	10270.56
931.86	10102.63
932.02	9951.08
932.19	9951.08
932.36	10116.97
932.53	9877.35
932.69	9762.67
932.86	9860.97
933.03	9695.08
933.19	9486.19
933.36	9647.98
933.53	9609.07
933.70	9369.46
933.86	9518.96
934.03	9531.25
934.20	9314.16
934.36	9486.19
934.53	9248.63
934.70	8998.77
934.86	9144.18
935.03	8986.49
935.20	8951.67
935.36	8943.48
935.53	8996.73
935.70	8726.39
935.86	8865.66
936.03	8671.10
936.20	8411.01
936.36	8406.91
936.53	8464.25
936.70	8269.70
936.86	8314.75
937.03	8439.68
937.20	8136.58
937.36	8179.59
937.53	7905.16
937.70	8017.80
937.86	7737.23
938.03	7759.75
938.20	7712.65
938.36	7489.42
938.53	7640.97
938.70	7286.67
938.86	7454.61
939.03	7221.14
939.20	7194.51
939.36	7161.75
939.53	7053.20
939.70	7149.46
939.86	6852.50
940.03	6844.31
940.19	6694.81
940.36	6653.85
940.53	6637.47
940.69	6641.56
940.86	6565.79
941.03	6363.04
941.19	6379.42
941.36	6240.16
941.52	6303.65
941.69	6156.19
941.86	6154.15
942.02	5935.01
942.19	5988.26
942.35	6000.55
942.52	6033.32
942.69	5828.52
942.85	5703.59
943.02	5984.16
943.18	5791.66
943.35	5722.02
943.52	5705.64
943.68	5695.40
943.85	5666.73
944.01	5572.52
944.18	5441.45
944.35	5676.97
944.51	5492.65
944.68	5408.69
944.84	5328.81
945.01	5449.64
945.17	5480.36
945.34	5371.82
945.51	5306.29
945.67	5271.47
945.84	5304.24
946.00	5253.04
946.17	5294.00
946.33	5197.74
946.50	5410.73
946.67	5416.88
946.83	5193.65
947.00	5478.32
947.16	5203.89
947.33	5314.48
947.49	5281.71
947.66	5152.69
947.82	5326.77
947.99	5048.24
948.16	5283.76
948.32	5214.13
948.49	5308.34
948.65	5404.59
948.82	5121.97
948.98	5201.84
949.15	5093.30
949.31	5273.52
949.48	5171.12
949.64	5099.44
949.81	5261.23
949.97	5248.94
950.14	5207.98
950.30	5187.50
950.47	5283.76
950.63	5324.72
950.80	5121.97
950.96	5267.38
951.13	5396.40
951.30	5222.32
951.46	5365.68
951.63	5255.09
951.79	5377.97
951.96	5386.16
952.12	5302.19
952.29	5283.76
952.45	5197.74
952.62	5369.77
952.78	5382.06
952.94	5343.15
953.11	5279.66
953.27	5232.56
953.44	5384.11
953.60	5425.07
953.77	5474.22
953.93	5345.20
954.10	5359.53
954.26	5328.81
954.43	5337.01
954.59	5414.83
954.76	5529.52
954.92	5277.62
955.09	5433.26
955.25	5257.14
955.42	5332.91
955.58	5468.08
955.75	5390.25
955.91	5287.86
956.07	5402.54
956.24	5443.50
956.40	5441.45
956.57	5429.17
956.73	5312.43
956.90	5566.38
957.06	5255.09
957.23	5398.45
957.39	5429.17
957.56	5513.13
957.72	5468.08
957.88	5351.34
958.05	5476.27
958.21	5373.87
958.38	5369.77
958.54	5343.15
958.71	5443.50
958.87	5318.57
959.03	5283.76
959.20	5398.45
959.36	5418.93
959.53	5500.84
959.69	5394.35
959.85	5580.71
960.02	5312.43
960.18	5396.40
960.35	5386.16
960.51	5408.69
960.68	5310.38
960.84	5515.18
961.00	5425.07
961.17	5361.58
961.33	5443.50
961.50	5443.50
961.66	5506.99
961.82	5451.69
961.99	5427.12
962.15	5414.83
962.31	5244.85
962.48	5347.25
962.64	5377.97
962.81	5384.11
962.97	5494.70
963.13	5339.05
963.30	5330.86
963.46	5294.00
963.62	5250.99
963.79	5334.96
963.95	5332.91
964.12	5355.44
964.28	5337.01
964.44	5396.40
964.61	5355.44
964.77	5457.84
964.93	5463.98
965.10	5380.01
965.26	5199.79
965.42	5197.74
965.59	5312.43
965.75	5238.70
965.92	5330.86
966.08	5298.10
966.24	5224.37
966.41	5177.26
966.57	5406.64
966.73	5386.16
966.90	5322.67
967.06	5207.98
967.22	5048.24
967.39	5107.63
967.55	5195.70
967.71	5105.59
967.88	5117.87
968.04	5216.18
968.20	5234.61
968.37	5197.74
968.53	5158.83
968.69	5101.49
968.85	5162.93
969.02	5095.35
969.18	5146.55
969.34	5011.38
969.51	5164.98
969.67	5169.07
969.83	5126.07
970.00	5244.85
970.16	5119.92
970.32	5029.81
970.48	5162.93
970.65	5103.54
970.81	4974.52
970.97	5191.60
971.14	4915.12
971.30	5093.30
971.46	4954.04
971.63	5078.96
971.79	5074.87
971.95	4960.18
972.11	4794.29
972.28	4964.28
972.44	4929.46
972.60	4925.36
972.76	4960.18
972.93	4888.50
973.09	4945.84
973.25	4958.13
973.42	4849.59
973.58	4923.32
973.74	4925.36
973.90	4964.28
974.07	4853.69
974.23	4872.12
974.39	4726.71
974.55	4820.92
974.72	4915.12
974.88	4743.10
975.04	4997.04
975.20	4829.11
975.37	4749.24
975.53	4825.01
975.69	4722.62
975.85	4769.72
976.01	4784.06
976.18	4812.73
976.34	4718.52
976.50	4839.35
976.66	4868.02
976.83	4753.34
976.99	4620.22
977.15	4689.85
977.31	4550.59
977.47	4708.28
977.64	4687.80
977.80	4675.51
977.96	4616.12
978.12	4581.31
978.29	4579.26
978.45	4558.78
978.61	4566.97
978.77	4648.89
978.93	4519.87
979.10	4679.61
979.26	4745.14
979.42	4558.78
979.58	4532.15
979.74	4413.37
979.91	4507.58
980.07	4345.79
980.23	4499.39
980.39	4468.67
980.55	4497.34
980.71	4425.66
980.88	4392.89
981.04	4413.37
981.20	4394.94
981.36	4446.14
981.52	4442.04
981.68	4370.37
981.85	4370.37
982.01	4298.69
982.17	4253.63
982.33	4190.14
982.49	4474.81
982.65	4261.82
982.82	4380.61
982.98	4390.84
983.14	4253.63
983.30	4425.66
983.46	4276.16
983.62	4349.89
983.79	4102.08
983.95	4093.89
984.11	4175.81
984.27	4253.63
984.43	4257.73
984.59	4216.77
984.75	4173.76
984.91	4161.47
985.08	4200.38
985.24	4089.79
985.40	4100.03
985.56	4136.90
985.72	4130.75
985.88	4253.63
986.04	4157.38
986.20	4034.50
986.37	4198.34
986.53	4087.75
986.69	4229.06
986.85	4118.47
987.01	3991.49
987.17	4179.90
987.33	4069.31
987.49	3962.82
987.65	4036.55
987.82	4061.12
987.98	3893.19
988.14	4028.35
988.30	3977.16
988.46	3923.91
988.62	3923.91
988.78	3944.39
988.94	3739.59
989.10	3954.63
989.26	3831.75
989.42	3872.71
989.59	3794.89
989.75	3938.24
989.91	3925.96
990.07	3766.21
990.23	3784.65
990.39	3766.21
990.55	3844.04
990.71	3856.33
990.87	3792.84
991.03	3833.80
991.19	3858.37
991.35	3758.02
991.51	3772.36
991.67	3854.28
991.83	3715.02
992.00	3790.79
992.16	3770.31
992.32	3729.35
992.48	3801.03
992.64	3588.04
992.80	3651.53
992.96	3741.64
993.12	3782.60
993.28	3698.63
993.44	3563.47
993.60	3629.00
993.76	3635.14
993.92	3669.96
994.08	3696.58
994.24	3629.00
994.40	3712.97
994.56	3682.25
994.72	3516.36
994.88	3575.75
995.04	3516.36
995.20	3665.86
995.36	3551.18
995.52	3612.62
995.68	3559.37
995.84	3442.64
996.00	3645.38
996.16	3565.51
996.32	3452.88
996.48	3418.06
996.64	3448.78
996.80	3473.36
996.96	3502.03
997.12	3475.40
997.28	3385.29
997.44	3368.91
997.60	3489.74
997.76	3375.05
997.92	3399.63
998.08	3489.74
998.24	3321.81
998.40	3418.06
998.56	3483.59
998.72	3334.09
998.88	3239.89
999.04	3311.57
999.20	3352.52
999.36	3301.33
999.52	3346.38
999.68	3395.53
999.84	3352.52
1000.00	3368.91
1000.16	3309.52
1000.32	3327.95
1000.48	3346.38
1000.64	3180.50
1000.80	3139.54
1000.95	3262.41
1001.11	3207.12
1001.27	3149.78
1001.43	3213.26
1001.59	3049.43
1001.75	3254.22
1001.91	3340.24
1002.07	3153.87
1002.23	3074.00
1002.39	3137.49
1002.55	3104.72
1002.71	3094.48
1002.87	3104.72
1003.03	3106.77
1003.19	3135.44
1003.34	3209.17
1003.50	2961.36
1003.66	3145.68
1003.82	3090.38
1003.98	3090.38
1004.14	3100.62
1004.30	2983.89
1004.46	3090.38
1004.62	3114.96
1004.78	3026.90
1004.94	3086.29
1005.09	3043.28
1005.25	3061.71
1005.41	3076.05
1005.57	3026.90
1005.73	3078.10
1005.89	2879.44
1006.05	2949.08
1006.21	3020.75
1006.37	2910.16
1006.52	2990.03
1006.68	2908.12
1006.84	3006.42
1007.00	2842.58
1007.16	2955.22
1007.32	2944.98
1007.48	2908.12
1007.64	2971.60
1007.79	2932.69
1007.95	2918.36
1008.11	2959.31
1008.27	2879.44
1008.43	2830.29
1008.59	2826.20
1008.75	2891.73
1008.91	2824.15
1009.06	2848.72
1009.22	2840.53
1009.38	2908.12
1009.54	2854.87
1009.70	2822.10
1009.86	2719.70
1010.01	2850.77
1010.17	2760.66
1010.33	2772.95
1010.49	2760.66
1010.65	2832.34
1010.81	2772.95
1010.96	2715.61
1011.12	2723.80
1011.28	2678.74
1011.44	2748.37
1011.60	2721.75
1011.76	2686.94
1011.91	2666.46
1012.07	2719.70
1012.23	2727.89
1012.39	2684.89
1012.55	2758.61
1012.71	2740.18
1012.86	2666.46
1013.02	2701.27
1013.18	2605.02
1013.34	2691.03
1013.50	2736.09
1013.65	2627.54
1013.81	2582.49
1013.97	2543.58
1014.13	2586.58
1014.29	2514.91
1014.44	2725.85
1014.60	2570.20
1014.76	2564.06
1014.92	2629.59
1015.07	2650.07
1015.23	2641.88
1015.39	2596.82
1015.55	2457.56
1015.71	2607.06
1015.86	2441.18
1016.02	2496.47
1016.18	2449.37
1016.34	2529.24
1016.49	2519.00
1016.65	2508.76
1016.81	2482.14
1016.97	2494.43
1017.12	2592.73
1017.28	2445.27
1017.44	2428.89
1017.60	2465.75
1017.75	2443.23
1017.91	2414.56
1018.07	2478.04
1018.23	2473.95
1018.38	2377.69
1018.54	2387.93
1018.70	2351.07
1018.86	2394.08
1019.01	2406.36
1019.17	2396.12
1019.33	2432.99
1019.49	2418.65
1019.64	2435.03
1019.80	2435.03
1019.96	2430.94
1020.12	2447.32
1020.27	2381.79
1020.43	2344.92
1020.59	2381.79
1020.74	2447.32
1020.90	2392.03
1021.06	2326.49
1021.22	2299.87
1021.37	2328.54
1021.53	2285.53
1021.69	2369.50
1021.84	2193.37
1022.00	2328.54
1022.16	2254.81
1022.31	2344.92
1022.47	2256.86
1022.63	2320.35
1022.79	2185.18
1022.94	2246.62
1023.10	2342.88
1023.26	2273.25
1023.41	2181.09
1023.57	2281.44
1023.73	2332.64
1023.88	2365.40
1024.04	2176.99
1024.20	2228.19
1024.35	2340.83
1024.51	2293.72
1024.67	2248.67
1024.82	2369.50
1024.98	2242.53
1025.14	2230.24
1025.29	2248.67
1025.45	2287.58
1025.61	2140.13
1025.76	2176.99
1025.92	2203.61
1026.08	2248.67
1026.23	2172.89
1026.39	2285.53
1026.55	2183.13
1026.70	2183.13
1026.86	2172.89
1027.02	2283.49
1027.17	2174.94
1027.33	2144.22
1027.48	2158.56
1027.64	2166.75
1027.80	2047.97
1027.95	2197.47
1028.11	2111.46
1028.27	2193.37
1028.42	2131.94
1028.58	2107.36
1028.73	2103.26
1028.89	2088.93
1029.05	2242.53
1029.20	2154.46
>>>>>End Processed Spectral Data<<<<<
