SpectraSuite Data File
++++++++++++++++++++++++++++++++++++
Date: Fri Jun 02 14:47:53 CEST 2017
User: INFO_000
Dark Spectrum Present: No
Reference Spectrum Present: No
Number of Sampled Component Spectra: 1
Spectrometers: USB4H00879
Integration Time (usec): 80000 (USB4H00879)
Spectra Averaged: 1 (USB4H00879)
Boxcar Smoothing: 0 (USB4H00879)
Correct for Electrical Dark: No (USB4H00879)
Strobe/Lamp Enabled: No (USB4H00879)
Correct for Detector Non-linearity: No (USB4H00879)
Correct for Stray Light: No (USB4H00879)
Number of Pixels in Processed Spectrum: 3648
>>>>>Begin Processed Spectral Data<<<<<
345.13	1284.08
345.34	1284.08
345.56	1284.08
345.78	1296.36
345.99	1286.12
346.21	1679.33
346.42	1683.43
346.64	1609.70
346.86	1830.88
347.07	1695.72
347.29	1687.53
347.50	1617.90
347.72	1648.61
347.94	1751.01
348.15	1673.19
348.37	1511.40
348.59	1712.10
348.80	1673.19
349.02	1761.25
349.23	1789.92
349.45	1798.12
349.67	1787.88
349.88	1726.44
350.10	1855.46
350.31	1769.44
350.53	1607.66
350.75	1837.03
350.96	1656.81
351.18	1744.87
351.39	1687.53
351.61	1728.49
351.82	1777.64
352.04	1783.78
352.26	1654.76
352.47	1761.25
352.69	1759.21
352.90	1574.89
353.12	1708.01
353.34	1728.49
353.55	1814.50
353.77	1775.59
353.98	1697.77
354.20	1724.39
354.41	1773.54
354.63	1728.49
354.85	1888.23
355.06	1816.55
355.28	1705.96
355.49	1783.78
355.71	1746.92
355.92	1685.48
356.14	1761.25
356.35	1701.86
356.57	1699.81
356.79	1734.63
357.00	1650.66
357.22	1867.75
357.43	1738.73
357.65	1751.01
357.86	1683.43
358.08	1687.53
358.29	1755.11
358.51	1791.97
358.72	1834.98
358.94	1703.91
359.16	1693.67
359.37	1716.20
359.59	1677.29
359.80	1794.02
360.02	1808.36
360.23	1771.49
360.45	1839.08
360.66	1761.25
360.88	1619.94
361.09	1783.78
361.31	1771.49
361.52	1830.88
361.74	1845.22
361.95	1814.50
362.17	1732.58
362.38	1896.42
362.60	1816.55
362.81	1701.86
363.03	1671.14
363.24	1804.26
363.46	1845.22
363.67	1753.06
363.89	1710.05
364.10	1880.04
364.32	1705.96
364.53	1857.51
364.75	1679.33
364.96	1787.88
365.18	1843.17
365.39	1761.25
365.61	1724.39
365.82	1920.99
366.04	1732.58
366.25	1708.01
366.47	1679.33
366.68	1744.87
366.90	1767.40
367.11	1845.22
367.33	1830.88
367.54	1863.65
367.76	1753.06
367.97	1855.46
368.19	1742.82
368.40	1791.97
368.62	1714.15
368.83	1687.53
369.05	1787.88
369.26	1665.00
369.48	1685.48
369.69	1708.01
369.91	1761.25
370.12	1753.06
370.33	1767.40
370.55	1708.01
370.76	1763.30
370.98	1884.13
371.19	1763.30
371.41	1761.25
371.62	1798.12
371.84	1671.14
372.05	1824.74
372.27	1771.49
372.48	1796.07
372.69	1832.93
372.91	1853.41
373.12	1773.54
373.34	1714.15
373.55	1820.64
373.77	1857.51
373.98	1738.73
374.20	1857.51
374.41	1900.52
374.62	1738.73
374.84	1869.80
375.05	1824.74
375.27	1785.83
375.48	1845.22
375.70	1810.40
375.91	1843.17
376.12	1988.58
376.34	1818.60
376.55	1773.54
376.77	1906.66
376.98	1798.12
377.19	1726.44
377.41	1789.92
377.62	1904.61
377.84	1929.19
378.05	2025.44
378.27	1812.45
378.48	1853.41
378.69	1867.75
378.91	2043.87
379.12	1916.90
379.34	1810.40
379.55	1855.46
379.76	1839.08
379.98	1769.44
380.19	1832.93
380.41	1847.27
380.62	1851.36
380.83	1834.98
381.05	1802.21
381.26	1931.23
381.47	1783.78
381.69	1880.04
381.90	1959.91
382.12	1773.54
382.33	1816.55
382.54	1802.21
382.76	1937.38
382.97	1904.61
383.19	1757.16
383.40	1949.67
383.61	1935.33
383.83	1920.99
384.04	1896.42
384.25	1869.80
384.47	1941.47
384.68	1857.51
384.89	1853.41
385.11	1826.79
385.32	1828.84
385.54	1882.08
385.75	1857.51
385.96	1931.23
386.18	1908.71
386.39	1953.76
386.60	1912.80
386.82	1884.13
387.03	1902.56
387.24	1994.72
387.46	1957.86
387.67	1951.71
387.88	2176.99
388.10	1818.60
388.31	1941.47
388.52	2133.98
388.74	2121.70
388.95	2023.39
389.16	1855.46
389.38	1820.64
389.59	2009.06
389.80	2056.16
390.02	2009.06
390.23	2033.63
390.44	1925.09
390.66	1931.23
390.87	1861.60
391.08	1976.29
391.30	2265.05
391.51	2158.56
391.72	2045.92
391.94	2170.85
392.15	2162.66
392.36	1910.75
392.58	1998.82
392.79	2074.59
393.00	2156.51
393.22	2174.94
393.43	2174.94
393.64	2072.54
393.85	2148.32
394.07	2136.03
394.28	2260.96
394.49	2119.65
394.71	2273.25
394.92	2150.37
395.13	2025.44
395.35	2181.09
395.56	2002.91
395.77	2252.77
395.98	2090.98
396.20	2232.29
396.41	2426.84
396.62	2316.25
396.84	2240.48
397.05	2140.13
397.26	2185.18
397.47	2557.91
397.69	2181.09
397.90	2410.46
398.11	2396.12
398.32	2279.39
398.54	2238.43
398.75	2365.40
398.96	2451.42
399.18	2514.91
399.39	2340.83
399.60	2463.71
399.81	2299.87
400.03	2445.27
400.24	2576.34
400.45	2365.40
400.66	2492.38
400.88	2322.40
401.09	2494.43
401.30	2246.62
401.51	2627.54
401.73	2437.08
401.94	2506.71
402.15	2590.68
402.36	2807.77
402.58	2547.67
402.79	2760.66
403.00	2711.51
403.21	2740.18
403.43	2668.50
403.64	2797.53
403.85	2695.13
404.06	2820.05
404.27	2676.70
404.49	2660.31
404.70	2779.09
404.91	2613.21
405.12	2609.11
405.34	2627.54
405.55	2801.62
405.76	2635.74
405.97	2768.85
406.19	3049.43
406.40	2707.41
406.61	2881.49
406.82	2826.20
407.03	2871.25
407.25	2762.71
407.46	3092.43
407.67	2807.77
407.88	3180.50
408.09	2871.25
408.31	2912.21
408.52	2932.69
408.73	2981.84
408.94	2820.05
409.15	2877.40
409.37	3018.71
409.58	3022.80
409.79	3049.43
410.00	3082.19
410.21	2965.46
410.43	3065.81
410.64	2793.43
410.85	2983.89
411.06	3213.26
411.27	3272.65
411.48	3157.97
411.70	3266.51
411.91	3246.03
412.12	3405.77
412.33	3246.03
412.54	3170.26
412.76	3295.18
412.97	3260.37
413.18	3198.93
413.39	3102.67
413.60	3243.98
413.81	3399.63
414.03	3192.78
414.24	3252.17
414.45	3362.76
414.66	3375.05
414.87	3538.89
415.08	3205.07
415.30	3442.64
415.51	3370.96
415.72	3225.55
415.93	3430.35
416.14	3311.57
416.35	3426.25
416.56	3477.45
416.78	3542.99
416.99	3626.95
417.20	3309.52
417.41	3520.46
417.62	3565.51
417.83	3540.94
418.04	3571.66
418.26	3743.69
418.47	3542.99
418.68	3798.98
418.89	3758.02
419.10	3794.89
419.31	3676.10
419.52	3755.97
419.73	3540.94
419.95	3934.15
420.16	3626.95
420.37	3735.50
420.58	3678.15
420.79	3686.34
421.00	3698.63
421.21	3829.70
421.42	3803.08
421.63	3856.33
421.85	3968.96
422.06	3850.18
422.27	3995.59
422.48	3987.40
422.69	4016.07
422.90	3895.24
423.11	3968.96
423.32	3979.20
423.53	4061.12
423.75	4126.66
423.96	4319.17
424.17	4300.73
424.38	4313.02
424.59	4145.09
424.80	4427.71
425.01	4216.77
425.22	4212.67
425.43	4196.29
425.64	4493.24
425.85	4433.85
426.06	4437.95
426.28	4376.51
426.49	4237.25
426.70	4362.17
426.91	4339.65
427.12	4511.68
427.33	4474.81
427.54	4433.85
427.75	4667.32
427.96	4771.77
428.17	4622.27
428.38	4638.65
428.59	4800.44
428.80	4644.79
429.01	4747.19
429.23	4614.07
429.44	4849.59
429.65	4757.43
429.86	4859.83
430.07	4870.07
430.28	4800.44
430.49	4915.12
430.70	4829.11
430.91	5025.72
431.12	4870.07
431.33	5050.29
431.54	5105.59
431.75	5083.06
431.96	5113.78
432.17	4911.03
432.38	5040.05
432.59	5218.22
432.80	5132.21
433.01	5169.07
433.22	5101.49
433.43	5152.69
433.64	5119.92
433.85	5294.00
434.06	5271.47
434.27	5142.45
434.49	5214.13
434.70	5406.64
434.91	5386.16
435.12	5343.15
435.33	5386.16
435.54	5359.53
435.75	5294.00
435.96	5425.07
436.17	5240.75
436.38	5607.34
436.59	5584.81
436.80	5504.94
437.01	5730.22
437.22	5683.11
437.43	5396.40
437.64	5388.21
437.85	5509.04
438.06	5773.22
438.27	5541.80
438.48	5640.11
438.69	5722.02
438.90	5744.55
439.11	5748.65
439.32	5947.30
439.53	5728.17
439.74	5705.64
439.95	5873.57
440.16	5914.53
440.37	5844.90
440.57	5717.93
440.78	5994.40
440.99	5887.91
441.20	5975.97
441.41	5814.18
441.62	5822.38
441.83	5775.27
442.04	6037.41
442.25	6049.70
442.46	6033.32
442.67	6100.90
442.88	6326.18
443.09	5951.40
443.30	6027.17
443.51	5971.88
443.72	6322.08
443.93	6064.04
444.14	6485.92
444.35	6041.51
444.56	6291.36
444.77	6260.64
444.98	6270.88
445.19	6373.28
445.40	6246.30
445.61	6410.14
445.81	6266.78
446.02	6541.21
446.23	6285.22
446.44	6164.39
446.65	6475.68
446.86	6346.66
447.07	6612.89
447.28	6680.47
447.49	6608.80
447.70	6616.99
447.91	6594.46
448.12	6545.31
448.33	6694.81
448.54	6643.61
448.74	6655.90
448.95	6780.82
449.16	6559.64
449.37	6832.02
449.58	6717.34
449.79	6891.41
450.00	6852.50
450.21	6915.99
450.42	6938.52
450.63	7126.93
450.84	6940.57
451.05	7006.10
451.25	6901.65
451.46	6893.46
451.67	7102.36
451.88	7114.64
452.09	7323.54
452.30	7071.64
452.51	6891.41
452.72	7286.67
452.93	7442.32
453.13	7098.26
453.34	7118.74
453.55	7329.68
453.76	7360.40
453.97	7503.76
454.18	7432.08
454.39	7452.56
454.60	7456.65
454.81	7362.45
455.01	7604.11
455.22	7391.12
455.43	7567.24
455.64	7759.75
455.85	7792.52
456.06	7911.30
456.27	7798.66
456.48	7718.79
456.68	7628.68
456.89	7569.29
457.10	7890.82
457.31	7909.26
457.52	8011.65
457.73	8023.94
457.94	8208.26
458.14	7982.98
458.35	8331.14
458.56	8181.64
458.77	8103.81
458.98	8398.72
459.19	8177.54
459.39	8212.35
459.60	8458.11
459.81	8380.29
460.02	8597.37
460.23	8544.13
460.44	8523.65
460.65	8636.28
460.85	8597.37
461.06	8640.38
461.27	8320.90
461.48	8914.81
461.69	8920.95
461.89	8691.58
462.10	8828.79
462.31	8673.15
462.52	8857.46
462.73	8947.58
462.94	9017.21
463.14	8869.75
463.35	8851.32
463.56	9457.52
463.77	9314.16
463.98	9058.17
464.18	9291.63
464.39	9160.56
464.60	9654.12
464.81	9588.59
465.02	9426.80
465.23	9717.61
465.43	9580.40
465.64	9754.48
465.85	9697.13
466.06	9525.10
466.27	10233.70
466.47	9824.11
466.68	9965.42
466.89	9934.70
467.10	10121.06
467.30	9887.59
467.51	10188.64
467.72	10170.21
467.93	10084.20
468.14	10223.46
468.34	10526.56
468.55	10393.44
468.76	10407.78
468.97	10456.93
469.17	10737.50
469.38	10723.16
469.59	10905.43
469.80	10702.68
470.01	10702.68
470.21	10776.41
470.42	10995.54
470.63	11220.82
470.84	11149.14
471.04	11046.74
471.25	11300.69
471.46	11116.37
471.67	11493.20
471.87	11536.21
472.08	11333.46
472.29	11552.59
472.50	11323.22
472.70	11554.64
472.91	11485.01
473.12	11882.31
473.33	11917.13
473.53	12164.93
473.74	12126.02
473.95	12097.35
474.16	12326.72
474.36	12259.14
474.57	12359.49
474.78	12656.45
474.99	12541.76
475.19	12416.83
475.40	12912.44
475.61	12576.58
475.81	12930.87
476.02	13186.87
476.23	12820.28
476.44	13127.48
476.64	13268.79
476.85	13430.58
477.06	13217.59
477.27	13692.72
477.47	13739.82
477.68	13684.53
477.89	13801.26
478.09	13666.10
478.30	13754.16
478.51	13850.41
478.71	14202.66
478.92	14126.89
479.13	14204.71
479.34	14505.76
479.54	14413.60
479.75	14354.21
479.96	14696.22
480.16	14466.85
480.37	14559.01
480.58	14888.73
480.78	15206.17
480.99	15046.43
481.20	15298.33
481.41	15308.57
481.61	15245.08
481.82	15486.74
482.03	15339.29
482.23	15507.22
482.44	15568.66
482.65	15838.99
482.85	15970.06
483.06	15947.53
483.27	16150.28
483.47	15978.25
483.68	16193.29
483.89	16381.70
484.09	16453.38
484.30	16365.32
484.51	16578.31
484.71	16731.90
484.92	16553.73
485.13	16940.80
485.33	16973.56
485.54	16787.20
485.75	17176.31
485.95	17231.61
486.16	17628.92
486.37	17442.55
486.57	17149.69
486.78	17327.86
486.98	17469.17
487.19	17825.52
487.40	17952.49
487.60	17798.90
487.81	17950.45
488.02	18106.09
488.22	17936.11
488.43	18185.96
488.64	18513.64
488.84	18231.02
489.05	18810.59
489.25	18495.21
489.46	18829.02
489.67	18700.00
489.87	19066.59
490.08	19070.68
490.29	19011.29
490.49	19052.25
490.70	19252.95
490.90	19367.64
491.11	19427.03
491.32	19537.62
491.52	19506.90
491.73	19609.30
491.94	19924.69
492.14	19549.91
492.35	19814.10
492.55	19994.32
492.76	19877.58
492.97	20276.94
493.17	20156.11
493.38	20489.93
493.58	20860.61
493.79	20676.29
494.00	20829.89
494.20	20756.16
494.41	20911.81
494.61	20764.36
494.82	21065.41
495.02	21016.26
495.23	20895.43
495.44	21073.60
495.64	21255.87
495.85	21233.34
496.05	21722.80
496.26	21483.19
496.47	21911.22
496.67	21440.18
496.88	22138.54
497.08	21829.30
497.29	22034.10
497.49	21919.41
497.70	21997.23
497.91	22177.45
498.11	22238.89
498.32	22101.68
498.52	22677.16
498.73	22742.69
498.93	22675.11
499.14	22738.60
499.34	22666.92
499.55	23002.78
499.76	22533.80
499.96	23008.93
500.17	22910.63
500.37	23033.50
500.58	23066.27
500.78	23252.64
500.99	23096.99
501.19	23287.45
501.40	23684.76
501.60	23234.21
501.81	23613.08
502.02	23625.37
502.22	23430.81
502.43	23910.04
502.63	23697.05
502.84	23881.36
503.04	23832.21
503.25	23996.05
503.45	24018.58
503.66	24518.28
503.86	24368.78
504.07	24342.16
504.27	24327.82
504.48	24747.65
504.68	24493.71
504.89	24604.30
505.09	24479.37
505.30	24807.05
505.50	24532.62
505.71	25030.27
505.91	25054.85
506.12	24825.48
506.32	25190.02
506.53	25239.17
506.73	25050.75
506.94	25355.90
507.14	25251.45
507.35	25128.58
507.55	25177.73
507.76	25626.23
507.96	25323.13
508.17	25298.56
508.37	25306.75
508.58	25388.67
508.78	25736.82
508.99	25869.94
509.19	25620.09
509.40	26017.40
509.60	25716.34
509.81	25798.26
510.01	25765.49
510.22	25884.28
510.42	26199.66
510.63	26488.43
510.83	25992.82
511.04	26398.32
511.24	26359.41
511.44	26672.74
511.65	26594.92
511.85	26648.17
512.06	26660.46
512.26	26605.16
512.47	26820.20
512.67	26842.73
512.88	26764.90
513.08	26429.04
513.29	26893.93
513.49	27049.57
513.69	26871.40
513.90	27033.19
514.10	26678.89
514.31	27295.33
514.51	27383.39
514.72	27340.38
514.92	27123.30
515.13	27555.42
515.33	27321.95
515.53	27330.14
515.74	27567.71
515.94	27719.26
516.15	27762.26
516.35	27496.03
516.56	28124.75
516.76	27727.45
516.96	27811.42
517.17	28104.28
517.37	28122.71
517.58	27743.83
517.78	28087.89
517.99	28032.60
518.19	28483.15
518.39	28536.40
518.60	28503.63
518.80	28169.81
519.01	28360.27
519.21	28372.56
519.41	28706.38
519.62	28653.13
519.82	28597.84
520.03	28554.83
520.23	28755.53
520.43	28626.51
520.64	29101.64
520.84	29390.40
521.05	29120.07
521.25	29077.06
521.45	29187.65
521.66	29484.61
521.86	29394.50
522.07	29281.86
522.27	29335.10
522.47	29568.57
522.68	29689.40
522.88	29431.36
523.08	29851.19
523.29	29789.75
523.49	30142.00
523.70	29781.56
523.90	30283.31
524.10	30215.73
524.31	30289.46
524.51	30234.16
524.71	30692.91
524.92	30387.76
525.12	30953.00
525.33	30721.58
525.53	30856.75
525.73	30662.19
525.94	30957.10
526.14	30901.80
526.34	31206.95
526.55	31452.70
526.75	31157.80
526.95	31577.63
527.16	31338.02
527.36	31583.77
527.56	31770.14
527.77	31829.53
527.97	31667.74
528.17	31755.80
528.38	31725.08
528.58	31991.32
528.78	31964.70
528.99	32015.90
529.19	32464.40
529.39	31931.93
529.60	32704.01
529.80	32480.78
530.00	32562.70
530.21	32726.54
530.41	32960.01
530.61	32824.84
530.82	33023.50
531.02	32947.72
531.22	33056.26
531.43	33086.98
531.63	33107.46
531.83	33537.54
532.04	33762.81
532.24	33308.16
532.44	34004.47
532.64	33641.98
532.85	33603.07
533.05	34020.86
533.25	33650.17
533.46	33844.73
533.66	34311.67
533.86	34076.15
534.07	34756.08
534.27	34577.90
534.47	34561.52
534.67	34620.91
534.88	34862.57
535.08	34678.25
535.28	34706.93
535.49	34819.56
535.69	35044.84
535.89	35380.71
536.09	35751.39
536.30	35751.39
536.50	35548.64
536.70	35442.15
536.91	35186.15
537.11	35700.19
537.31	35814.88
537.51	35675.62
537.72	36736.46
537.92	36261.33
538.12	36521.43
538.32	35999.19
538.53	36496.85
538.73	36130.26
538.93	36140.50
539.13	36107.74
539.34	36654.54
539.54	36605.39
539.74	36914.64
539.94	36920.78
540.15	36677.07
540.35	36941.26
540.55	36793.81
540.75	37295.56
540.96	37176.78
541.16	36994.51
541.36	37459.40
541.56	37557.70
541.77	37653.95
541.97	37895.61
542.17	37729.73
542.37	37674.43
542.58	37965.24
542.78	38118.84
542.98	37764.54
543.18	38014.40
543.38	38143.42
543.59	38116.79
543.79	38237.62
543.99	38221.24
544.19	38172.09
544.40	38450.61
544.60	38950.32
544.80	38243.77
545.00	38802.86
545.20	38639.03
545.41	38630.83
545.61	38655.41
545.81	39306.66
546.01	38903.21
546.21	38815.15
546.42	39030.19
546.62	39243.18
546.82	39208.36
547.02	39284.14
547.22	39665.06
547.43	39214.51
547.63	39288.23
547.83	39255.46
548.03	39431.59
548.23	39820.70
548.44	39613.86
548.64	39470.50
548.84	39628.20
549.04	39660.96
549.24	39990.69
549.45	39878.05
549.65	40045.98
549.85	39761.31
550.05	40109.47
550.25	40277.40
550.45	40859.02
550.66	40627.60
550.86	39972.25
551.06	40420.76
551.26	40592.79
551.46	40547.73
551.66	40371.61
551.87	40582.55
552.07	40895.89
552.27	40785.30
552.47	40680.85
552.67	40805.78
552.87	41072.01
553.07	41104.78
553.28	41211.28
553.48	41285.00
553.68	41000.33
553.88	40908.18
554.08	41241.99
554.28	41211.28
554.48	41151.88
554.69	40996.24
554.89	41196.94
555.09	41551.24
555.29	41313.67
555.49	41270.67
555.69	41125.26
555.89	41448.84
556.10	41751.94
556.30	41635.20
556.50	41942.40
556.70	41465.22
556.90	41670.02
557.10	41735.56
557.30	41633.16
557.50	42050.94
557.70	42282.36
557.91	42184.06
558.11	41928.06
558.31	42495.35
558.51	41866.63
558.71	41827.71
558.91	42220.92
559.11	42227.07
559.31	42251.64
559.51	42253.69
559.72	42055.04
559.92	42792.31
560.12	42073.47
560.32	42392.95
560.52	42229.12
560.72	42702.20
560.92	42489.21
561.12	42808.69
561.32	42878.32
561.52	42378.62
561.72	43513.19
561.93	42235.26
562.13	42407.29
562.33	42734.96
562.53	43294.06
562.73	42927.47
562.93	43001.20
563.13	42939.76
563.33	42892.66
563.53	43097.45
563.73	43242.86
563.93	43013.49
564.13	43294.06
564.33	43335.02
564.53	43097.45
564.74	43507.05
564.94	43388.27
565.14	43795.81
565.34	43361.64
565.54	43427.18
565.74	43558.25
565.94	43771.24
566.14	43578.73
566.34	43509.10
566.54	43980.13
566.74	43228.52
566.94	43793.76
567.14	43887.97
567.34	43509.10
567.54	43799.91
567.74	43605.35
567.94	43859.30
568.14	44133.73
568.34	44203.36
568.54	43816.29
568.74	43765.09
568.94	43883.87
569.14	44326.24
569.34	44494.17
569.54	44117.34
569.75	43933.03
569.95	44342.62
570.15	44674.39
570.35	44363.10
570.55	44412.25
570.75	44641.62
570.95	44727.64
571.15	44414.30
571.35	44633.43
571.55	44922.19
571.75	44787.03
571.95	44774.74
572.15	44307.80
572.35	44899.67
572.55	44717.40
572.75	44844.37
572.95	45151.57
573.15	44827.99
573.35	45000.02
573.55	45167.95
573.75	44932.43
573.95	45329.74
574.15	45137.23
574.35	45542.73
574.55	45124.94
574.75	45288.78
574.95	45446.47
575.15	45116.75
575.34	45526.35
575.54	45708.61
575.74	45966.66
575.94	45479.24
576.14	45739.33
576.34	45655.37
576.54	46120.26
576.74	45577.54
576.94	45722.95
577.14	45940.04
577.34	45989.19
577.54	45610.31
577.74	46056.77
577.94	46128.45
578.14	45937.99
578.34	46130.50
578.54	45673.80
578.74	46052.67
578.94	46363.96
579.14	46267.71
579.34	45905.22
579.54	46503.23
579.74	47136.05
579.94	46574.91
580.13	46617.91
580.33	46587.19
580.53	46800.18
580.73	46931.25
580.93	47109.43
581.13	46810.42
581.33	47478.06
581.53	47045.94
581.73	46998.83
581.93	47068.47
582.13	47267.12
582.33	47240.50
582.53	47451.44
582.73	46972.21
582.92	47371.57
583.12	47334.70
583.32	47574.31
583.52	47246.64
583.72	47947.04
583.92	47629.61
584.12	47246.64
584.32	47705.38
584.52	47904.04
584.72	47394.09
584.92	47895.85
585.11	48110.88
585.31	48067.87
585.51	47867.17
585.71	48264.48
585.91	48557.34
586.11	47854.89
586.31	47899.94
586.51	48178.46
586.71	48213.28
586.91	48411.93
587.10	48764.18
587.30	48645.40
587.50	48784.66
587.70	48833.81
587.90	48880.92
588.10	49007.89
588.30	48528.67
588.50	48823.58
588.69	49091.86
588.89	48858.39
589.09	49300.75
589.29	48760.09
589.49	49106.19
589.69	48413.98
589.89	49327.38
590.08	48571.67
590.28	49126.67
590.48	49110.29
590.68	48794.90
590.88	49075.48
591.08	49247.50
591.28	49116.43
591.47	49673.48
591.67	49100.05
591.87	49730.83
592.07	49407.25
592.27	50103.56
592.47	49501.45
592.67	49026.32
592.86	49462.54
593.06	49896.71
593.26	49865.99
593.46	50027.78
593.66	49947.91
593.86	50009.35
594.05	49718.54
594.25	50164.99
594.45	49886.47
594.65	50400.51
594.85	49851.66
595.05	50134.28
595.24	50339.07
595.44	50113.80
595.64	50373.89
595.84	50537.72
596.04	49999.11
596.23	50873.59
596.43	50541.82
596.63	50502.91
596.83	50289.92
597.03	50836.73
597.22	50836.73
597.42	50660.60
597.62	51092.72
597.82	50961.65
598.02	50646.27
598.21	50922.74
598.41	50558.20
598.61	51191.03
598.81	51225.84
599.01	51164.40
599.20	51205.36
599.40	50916.60
599.60	51074.29
599.80	51277.04
600.00	51242.23
600.19	51717.35
600.39	51258.61
600.59	51504.37
600.79	51969.26
600.98	51291.38
601.18	51686.64
601.38	52092.13
601.58	52245.73
601.78	51975.40
601.97	52028.65
602.17	52253.92
602.37	52157.67
602.57	52419.81
602.76	52624.60
602.96	52030.69
603.16	52122.85
603.36	52280.55
603.55	52466.91
603.75	52520.16
603.95	52452.58
604.15	52552.93
604.34	52077.80
604.54	53023.96
604.74	52417.76
604.94	53060.82
605.13	52884.70
605.33	52804.83
605.53	52679.90
605.73	52974.81
605.92	52886.74
606.12	53200.08
606.32	52651.23
606.52	53042.39
606.71	53413.07
606.91	53122.26
607.11	52581.60
607.30	53376.21
607.50	52939.99
607.70	53282.00
607.90	53077.21
608.09	53517.52
608.29	53413.07
608.49	53804.24
608.68	53730.51
608.88	53728.46
609.08	53607.63
609.28	53466.32
609.47	53271.76
609.67	54158.53
609.87	53679.31
610.06	53888.20
610.26	53908.68
610.46	53794.00
610.66	53656.78
610.85	54041.80
611.05	53712.08
611.25	53849.29
611.44	53759.18
611.64	53931.21
611.84	53322.96
612.03	53941.45
612.23	54211.78
612.43	54181.06
612.62	53667.02
612.82	54269.12
613.02	54113.48
613.21	54295.75
613.41	53867.72
613.61	54240.45
613.80	53927.11
614.00	54033.61
614.20	54566.08
614.39	54033.61
614.59	54187.21
614.79	53986.50
614.98	54324.42
615.18	54252.74
615.38	53841.10
615.57	53994.70
615.77	54457.54
615.97	54695.10
616.16	54293.70
616.36	54432.96
616.56	54457.54
616.75	54680.77
616.95	54113.48
617.15	54478.02
617.34	54017.22
617.54	54205.64
617.74	54674.62
617.93	54293.70
618.13	54138.05
618.32	54224.07
618.52	53861.58
618.72	54056.14
618.91	54604.99
619.11	53953.74
619.31	54355.14
619.50	54133.96
619.70	53867.72
619.90	54465.73
620.09	54408.39
620.29	54260.93
620.48	54045.90
620.68	54752.44
620.88	53714.12
621.07	54265.03
621.27	54449.35
621.46	54492.35
621.66	54297.80
621.86	54344.90
622.05	53941.45
622.25	54271.17
622.44	54371.52
622.64	54305.99
622.84	54701.25
623.03	54236.36
623.23	54009.03
623.42	54281.41
623.62	54375.62
623.82	54500.54
624.01	54103.24
624.21	54420.67
624.40	54189.25
624.60	54525.12
624.80	54346.95
624.99	54195.40
625.19	54172.87
625.38	54498.50
625.58	54217.92
625.77	54668.48
625.97	54754.49
626.17	54076.61
626.36	53812.43
626.56	54402.24
626.75	54011.08
626.95	54498.50
627.14	54277.32
627.34	54793.40
627.54	54127.81
627.73	54392.00
627.93	54056.14
628.12	54088.90
628.32	54490.30
628.51	54072.52
628.71	53943.50
628.90	54514.88
629.10	54310.08
629.30	54361.28
629.49	54547.65
629.69	54133.96
629.88	54131.91
630.08	54764.73
630.27	54572.22
630.47	54592.70
630.66	53976.26
630.86	54627.52
631.05	53867.72
631.25	54850.75
631.44	54533.31
631.64	54336.71
631.84	54490.30
632.03	55260.34
632.23	54523.07
632.42	54807.74
632.62	54670.53
632.81	54576.32
633.01	54219.97
633.20	54719.68
633.40	55033.02
633.59	54574.27
633.79	54293.70
633.98	54594.75
634.18	55055.54
634.37	54400.19
634.57	54566.08
634.76	55024.82
634.96	54654.14
635.15	54844.60
635.35	54680.77
635.54	54451.39
635.74	55227.57
635.93	54314.18
636.13	54944.95
636.32	54770.88
636.52	54279.36
636.71	54596.80
636.91	54987.96
637.10	54662.33
637.30	54469.82
637.49	54748.35
637.69	54510.78
637.88	55000.25
638.08	54652.09
638.27	55323.83
638.46	54625.47
638.66	55104.70
638.85	54621.37
639.05	54891.71
639.24	55194.81
639.44	54936.76
639.63	55055.54
639.83	55219.38
640.02	54871.23
640.22	54985.91
640.41	55061.69
640.61	54389.95
640.80	55063.74
640.99	55102.65
641.19	55293.11
641.38	54936.76
641.58	54871.23
641.77	54617.28
641.97	54668.48
642.16	54711.49
642.36	54975.67
642.55	55104.70
642.74	55063.74
642.94	55571.63
643.13	54998.20
643.33	55196.85
643.52	55348.40
643.72	55532.72
643.91	55123.13
644.10	55045.30
644.30	55430.32
644.49	55297.20
644.69	55526.58
644.88	55522.48
645.08	55071.93
645.27	55248.05
645.46	54940.86
645.66	55409.84
645.85	55350.45
646.05	55545.01
646.24	55772.33
646.43	55399.60
646.63	55973.03
646.82	55876.78
647.02	55522.48
647.21	55856.30
647.40	55743.66
647.60	55448.75
647.79	55776.43
647.99	55516.34
648.18	54981.82
648.37	55882.92
648.57	55358.64
648.76	55524.53
648.96	55080.12
649.15	56083.62
649.34	55639.22
649.54	55989.42
649.73	55631.02
649.92	55880.88
650.12	55960.75
650.31	56231.08
650.51	55825.58
650.70	55874.73
650.89	55514.29
651.09	56882.33
651.28	55999.66
651.47	56140.97
651.67	56143.02
651.86	56358.05
652.06	56059.05
652.25	56218.79
652.44	56116.39
652.64	55954.60
652.83	55372.98
653.02	55628.98
653.22	55776.43
653.41	55950.51
653.60	55991.47
653.80	55960.75
653.99	56337.57
654.18	55680.17
654.38	55909.55
654.57	56132.78
654.76	56198.31
654.96	55979.18
655.15	55807.15
655.34	56155.30
655.54	55452.85
655.73	55995.56
655.92	56177.83
656.12	56200.36
656.31	55872.68
656.50	56370.34
656.70	55923.88
656.89	55714.99
657.08	55973.03
657.28	56005.80
657.47	56026.28
657.66	56392.87
657.86	56122.54
658.05	56102.06
658.24	56054.95
658.43	56081.58
658.63	56292.52
658.82	56145.06
659.01	56218.79
659.21	55995.56
659.40	56403.11
659.59	56251.56
659.79	56548.51
659.98	56538.27
660.17	56509.60
660.36	56134.82
660.56	56423.59
660.75	56450.21
660.94	56042.66
661.14	56032.42
661.33	56652.96
661.52	55762.09
661.71	56702.11
661.91	56054.95
662.10	56145.06
662.29	56482.98
662.49	56206.50
662.68	56360.10
662.87	56568.99
663.06	56306.85
663.26	56208.55
663.45	56880.28
663.64	56091.82
663.83	57078.94
664.03	57152.66
664.22	56493.22
664.41	56310.95
664.60	56007.85
664.80	56439.97
664.99	56331.43
665.18	56206.50
665.37	56478.88
665.57	56634.53
665.76	56317.09
665.95	56351.91
666.14	55973.03
666.34	56464.55
666.53	56589.47
666.72	56472.74
666.91	56267.94
667.11	56337.57
667.30	56589.47
667.49	56831.13
667.68	56145.06
667.87	56468.64
668.07	56550.56
668.26	56411.30
668.45	56444.07
668.64	56429.73
668.84	57054.36
669.03	56534.18
669.22	56562.85
669.41	56603.81
669.60	56679.58
669.80	56104.10
669.99	56657.06
670.18	56450.21
670.37	56237.22
670.57	56177.83
670.76	56325.28
670.95	56820.89
671.14	56136.87
671.33	56186.02
671.53	56839.32
671.72	56112.30
671.91	56493.22
672.10	56159.40
672.29	56542.37
672.48	56364.20
672.68	56073.38
672.87	56059.05
673.06	56063.14
673.25	55878.83
673.44	56163.50
673.64	56394.92
673.83	55973.03
674.02	56636.58
674.21	55833.77
674.40	56226.98
674.59	56095.91
674.79	56292.52
674.98	55942.31
675.17	56016.04
675.36	55897.26
675.55	56302.76
675.74	56392.87
675.94	56136.87
676.13	56138.92
676.32	56622.24
676.51	56255.65
676.70	56421.54
676.89	56288.42
677.08	56497.31
677.28	56468.64
677.47	55993.51
677.66	56462.50
677.85	56374.44
678.04	56136.87
678.23	56304.80
678.42	56466.59
678.62	55852.20
678.81	56100.01
679.00	56423.59
679.19	56394.92
679.38	55874.73
679.57	56011.95
679.76	56194.21
679.96	56163.50
680.15	55956.65
680.34	56329.38
680.53	56052.90
680.72	56120.49
680.91	56046.76
681.10	56122.54
681.29	56140.97
681.48	55813.29
681.68	56175.78
681.87	55794.86
682.06	56132.78
682.25	55415.99
682.44	55790.76
682.63	56079.53
682.82	55958.70
683.01	55995.56
683.20	55671.98
683.39	55925.93
683.59	55696.56
683.78	55428.27
683.97	55678.13
684.16	55860.40
684.35	55938.22
684.54	55809.20
684.73	55555.25
684.92	55409.84
685.11	55628.98
685.30	55321.78
685.49	55907.50
685.69	56052.90
685.88	55764.14
686.07	55309.49
686.26	55635.12
686.45	55604.40
686.64	55999.66
686.83	55512.24
687.02	55647.41
687.21	55366.84
687.40	55303.35
687.59	55100.60
687.78	55096.50
687.97	55399.60
688.16	55588.02
688.35	55147.70
688.54	54903.99
688.74	55071.93
688.93	55071.93
689.12	55047.35
689.31	55219.38
689.50	55305.40
689.69	55026.87
689.88	54801.60
690.07	55006.39
690.26	55262.39
690.45	55196.85
690.64	54619.33
690.83	54928.57
691.02	54846.65
691.21	54678.72
691.40	54686.91
691.59	54961.34
691.78	54791.36
691.97	55481.52
692.16	55178.42
692.35	55084.22
692.54	54779.07
692.73	55383.22
692.92	55112.89
693.11	54742.20
693.30	54762.68
693.49	54787.26
693.68	54604.99
693.87	54713.53
694.06	54469.82
694.25	54723.77
694.44	54441.15
694.63	54117.57
694.82	54666.43
695.01	54772.92
695.20	54359.23
695.39	54678.72
695.58	54504.64
695.77	54418.63
695.96	53988.55
696.15	53851.34
696.34	54219.97
696.53	54125.77
696.72	54351.04
696.91	53705.93
697.10	54330.56
697.29	54021.32
697.48	54217.92
697.67	53564.62
697.86	53644.49
698.05	54162.63
698.24	54074.57
698.43	53773.52
698.62	53925.07
698.81	53863.63
699.00	54281.41
699.19	53583.05
699.38	53925.07
699.57	53408.98
699.76	53888.20
699.95	53701.84
700.14	53472.46
700.32	53329.11
700.51	53400.79
700.70	53996.74
700.89	53722.32
701.08	53826.76
701.27	53376.21
701.46	53646.54
701.65	53146.84
701.84	53730.51
702.03	53880.01
702.22	53400.79
702.41	53368.02
702.60	53544.14
702.79	53365.97
702.98	53271.76
703.17	53236.95
703.35	52624.60
703.54	53140.69
703.73	53587.15
703.92	53175.51
704.11	53097.69
704.30	52888.79
704.49	52825.31
704.68	52708.57
704.87	53120.21
705.06	53079.25
705.25	52913.37
705.43	52577.50
705.62	52985.05
705.81	53259.48
706.00	53144.79
706.19	52282.59
706.38	52966.62
706.57	52419.81
706.76	52516.06
706.95	52974.81
707.14	52384.99
707.32	52319.46
707.51	52491.49
707.70	52258.02
707.89	52581.60
708.08	52245.73
708.27	52432.10
708.46	52485.34
708.65	52362.46
708.84	52632.80
709.02	52495.58
709.21	52159.72
709.40	52565.21
709.59	52708.57
709.78	51969.26
709.97	52524.25
710.16	52194.53
710.34	52065.51
710.53	52405.47
710.72	51981.54
710.91	52114.66
711.10	52036.84
711.29	52083.94
711.48	52016.36
711.66	52296.93
711.85	51723.50
712.04	51852.52
712.23	52139.24
712.42	51737.83
712.61	51322.10
712.80	51672.30
712.98	51956.97
713.17	51516.65
713.36	51756.27
713.55	51758.31
713.74	51676.40
713.93	51557.61
714.11	51565.81
714.30	51180.79
714.49	51274.99
714.68	51518.70
714.87	51688.68
715.06	51672.30
715.24	51322.10
715.43	51471.60
715.62	51070.20
715.81	50840.82
716.00	51455.21
716.18	51010.81
716.37	51043.57
716.56	50676.99
716.75	51295.47
716.94	51455.21
717.12	50900.22
717.31	51166.45
717.50	50926.84
717.69	50900.22
717.88	51225.84
718.06	50846.97
718.25	51107.06
718.44	50689.27
718.63	50623.74
718.82	50294.02
719.00	50355.46
719.19	50461.95
719.38	50144.51
719.57	50246.91
719.76	49839.37
719.94	49566.99
720.13	50199.81
720.32	50074.88
720.51	50156.80
720.69	50005.25
720.88	50042.12
721.07	49487.12
721.26	49505.55
721.44	49575.18
721.63	49689.87
721.82	49882.37
722.01	49612.04
722.20	49939.72
722.38	49446.16
722.57	49042.71
722.76	49169.68
722.95	49532.17
723.13	49014.04
723.32	49157.39
723.51	48790.81
723.70	48899.35
723.88	48678.17
724.07	48899.35
724.26	49075.48
724.44	48680.22
724.63	49265.94
724.82	48655.64
725.01	49030.42
725.19	49050.90
725.38	48567.58
725.57	48852.25
725.76	48604.44
725.94	48274.72
726.13	48649.50
726.32	48606.49
726.51	48715.03
726.69	48743.70
726.88	48481.56
727.07	48624.92
727.25	48176.42
727.44	48540.96
727.63	48166.18
727.82	48803.10
728.00	48545.05
728.19	48643.35
728.38	48418.08
728.56	48129.31
728.75	48694.55
728.94	48317.73
729.12	48405.79
729.31	48014.63
729.50	48446.75
729.69	48506.14
729.87	47969.57
730.06	48545.05
730.25	48420.13
730.43	48440.60
730.62	47916.32
730.81	48321.82
730.99	48446.75
731.18	48166.18
731.37	48196.90
731.55	48422.17
731.74	48524.57
731.93	48383.26
732.11	48336.16
732.30	48452.89
732.49	48471.32
732.67	47936.80
732.86	48307.49
733.05	48207.14
733.23	48074.02
733.42	48297.25
733.61	48022.82
733.79	48387.36
733.98	48270.62
734.17	48284.96
734.35	47807.78
734.54	48012.58
734.73	48284.96
734.91	47830.31
735.10	47584.55
735.29	48635.16
735.47	47551.79
735.66	47998.24
735.84	47795.49
736.03	47615.27
736.22	48200.99
736.40	47848.74
736.59	47918.37
736.78	47740.20
736.96	47424.81
737.15	47668.52
737.33	47592.75
737.52	47428.91
737.71	47705.38
737.89	47559.98
738.08	47314.22
738.27	47545.64
738.45	47828.26
738.64	47705.38
738.82	47441.20
739.01	47228.21
739.20	47207.73
739.38	47201.58
739.57	47709.48
739.75	47496.49
739.94	47334.70
740.13	47502.64
740.31	47320.37
740.50	47207.73
740.68	47281.45
740.87	48006.44
741.06	47234.35
741.24	46980.40
741.43	46716.22
741.61	47154.48
741.80	46611.77
741.99	46935.35
742.17	46730.55
742.36	46902.58
742.54	46589.24
742.73	46859.57
742.91	47226.16
743.10	47076.66
743.29	47203.63
743.47	47420.72
743.66	46691.64
743.84	46814.52
744.03	46814.52
744.21	46478.65
744.40	47480.11
744.59	46708.02
744.77	46816.57
744.96	46292.29
745.14	46570.81
745.33	46421.31
745.51	46384.44
745.70	46310.72
745.88	46370.11
746.07	46157.12
746.26	46208.32
746.44	46130.50
746.63	46208.32
746.81	46077.25
747.00	46028.10
747.18	46259.52
747.37	45862.21
747.55	46142.78
747.74	46425.40
747.92	45770.05
748.11	45991.23
748.29	46015.81
748.48	45911.36
748.66	45778.25
748.85	46134.59
749.03	45847.88
749.22	45997.38
749.41	45978.95
749.59	46138.69
749.78	45595.98
749.96	45190.48
750.15	45571.40
750.33	45962.56
750.52	45387.08
750.70	45438.28
750.89	45667.66
751.07	45716.81
751.26	45372.75
751.44	45178.19
751.63	45063.50
751.81	44987.73
752.00	45131.09
752.18	45419.85
752.37	45425.99
752.55	44926.29
752.74	45159.76
752.92	44744.02
753.10	44653.91
753.29	45131.09
753.47	44811.60
753.66	44875.09
753.84	45190.48
754.03	44934.48
754.21	45122.90
754.40	44813.65
754.58	44840.28
754.77	44651.86
754.95	44512.60
755.14	44709.21
755.32	44701.01
755.51	44477.79
755.69	44342.62
755.88	44346.72
756.06	44569.94
756.24	44680.53
756.43	43818.34
756.61	44426.59
756.80	44518.74
756.98	44002.66
757.17	44162.40
757.35	44275.04
757.54	44201.31
757.72	44432.73
757.90	44365.15
758.09	43775.33
758.27	44021.09
758.46	43654.50
758.64	44025.18
758.83	44152.16
759.01	43887.97
759.19	43867.49
759.38	43859.30
759.56	44031.33
759.75	43631.97
759.93	43701.61
760.12	43849.06
760.30	43775.33
760.48	43201.90
760.67	43898.21
760.85	43492.71
761.04	43705.70
761.22	43644.26
761.40	43521.38
761.59	43828.58
761.77	43162.99
761.96	43615.59
762.14	43650.41
762.32	43294.06
762.51	42902.90
762.69	43259.24
762.88	43048.30
763.06	43287.92
763.24	43132.27
763.43	43244.91
763.61	43058.54
763.80	42986.86
763.98	42960.24
764.16	43072.88
764.35	43109.74
764.53	42595.70
764.72	42274.17
764.90	42679.67
765.08	42311.03
765.27	42679.67
765.45	42415.48
765.63	42034.56
765.82	42493.30
766.00	41489.80
766.18	42196.35
766.37	42575.22
766.55	41960.83
766.74	42210.68
766.92	41485.70
767.10	42139.00
767.29	42165.63
767.47	41575.81
767.65	41858.43
767.84	41377.16
768.02	42055.04
768.20	41518.47
768.39	41719.17
768.57	41700.74
768.75	41872.77
768.94	41805.19
769.12	41833.86
769.30	41430.41
769.49	41266.57
769.67	41211.28
769.85	41201.04
770.04	41538.95
770.22	41239.95
770.40	41254.28
770.59	41098.64
770.77	40986.00
770.95	41246.09
771.14	40809.87
771.32	40811.92
771.50	40760.72
771.69	40906.13
771.87	41069.97
772.05	41002.38
772.24	40596.88
772.42	40936.85
772.60	40482.20
772.78	40363.42
772.97	40738.19
773.15	40807.83
773.33	40830.35
773.52	40365.46
773.70	40646.04
773.88	40664.47
774.07	40670.61
774.25	40588.69
774.43	40787.35
774.61	40207.77
774.80	40562.07
774.98	40752.53
775.16	40277.40
775.34	40637.84
775.53	40695.19
775.71	40648.08
775.89	40623.51
776.08	40332.70
776.26	40605.08
776.44	40732.05
776.62	40727.95
776.81	40478.10
776.99	40938.90
777.17	40670.61
777.35	40750.48
777.54	41033.10
777.72	40367.51
777.90	40744.34
778.08	40865.17
778.27	40998.29
778.45	41039.25
778.63	40629.65
778.81	40363.42
779.00	41348.49
779.18	41061.77
779.36	41147.79
779.54	40824.21
779.73	41014.67
779.91	41000.33
780.09	41198.99
780.27	41426.31
780.46	41379.21
780.64	41155.98
780.82	41078.16
781.00	41088.40
781.19	41383.30
781.37	41317.77
781.55	41538.95
781.73	41649.54
781.91	41602.44
782.10	41594.25
782.28	41549.19
782.46	41700.74
782.64	41653.64
782.82	41395.59
783.01	41676.16
783.19	41776.51
783.37	41346.44
783.55	41465.22
783.74	41788.80
783.92	41244.04
784.10	42251.64
784.28	41663.88
784.46	41403.78
784.64	41207.18
784.83	41774.47
785.01	41878.91
785.19	41706.88
785.37	41602.44
785.55	41481.61
785.74	41153.93
785.92	41301.39
786.10	41977.22
786.28	41278.86
786.46	40830.35
786.64	41184.65
786.83	41508.23
787.01	41084.30
787.19	41231.75
787.37	41158.03
787.55	40830.35
787.74	40994.19
787.92	40834.45
788.10	40965.52
788.28	40762.77
788.46	40689.04
788.64	40613.27
788.82	41278.86
789.01	40711.57
789.19	41049.49
789.37	40416.66
789.55	40301.98
789.73	40275.35
789.91	40211.87
790.09	40445.33
790.28	40359.32
790.46	40064.41
790.64	40574.36
790.82	40066.46
791.00	40084.89
791.18	39683.49
791.36	39921.05
791.55	39724.45
791.73	39615.91
791.91	39404.97
792.09	39892.38
792.27	39609.76
792.45	39771.55
792.63	39808.42
792.81	39646.63
793.00	39384.49
793.18	39386.54
793.36	39349.67
793.54	39073.20
793.72	38870.45
793.90	38806.96
794.08	38729.14
794.26	39019.95
794.44	38671.79
794.62	38604.21
794.81	38778.29
794.99	38460.85
795.17	38591.92
795.35	38589.88
795.53	39089.58
795.71	38471.09
795.89	38249.91
796.07	38129.08
796.25	37834.17
796.43	38129.08
796.61	37612.99
796.80	37699.01
796.98	37582.27
797.16	37213.64
797.34	37547.46
797.52	37475.78
797.70	37475.78
797.88	37424.58
798.06	37537.22
798.24	37150.15
798.42	37025.23
798.60	37072.33
798.78	37002.70
798.96	37270.98
799.14	36533.71
799.32	36783.57
799.51	36632.02
799.69	37080.52
799.87	36498.90
800.05	35964.38
800.23	36679.12
800.41	36148.70
800.59	36210.14
800.77	36189.66
800.95	35681.76
801.13	35904.99
801.31	35431.91
801.49	35911.13
801.67	35519.97
801.85	35812.83
802.03	35382.76
802.21	35466.72
802.39	35161.58
802.57	35151.34
802.75	35175.91
802.93	34960.87
803.11	34813.42
803.29	34813.42
803.47	34797.04
803.65	35010.03
803.83	34565.62
804.01	34561.52
804.19	34387.44
804.37	34381.30
804.55	34561.52
804.73	34352.63
804.91	34596.34
805.09	34131.45
805.27	34063.86
805.45	34283.00
805.63	34409.97
805.81	34436.59
805.99	34117.11
806.17	33852.92
806.35	34022.90
806.53	33867.26
806.71	33830.40
806.89	33746.43
807.07	33639.93
807.25	33822.20
807.43	33050.12
807.61	33717.76
807.79	33162.76
807.97	33633.79
808.15	32785.93
808.33	33242.63
808.51	33617.41
808.69	33224.20
808.87	32554.51
809.05	33017.35
809.23	32734.73
809.41	32638.48
809.59	32761.36
809.77	32966.15
809.95	32599.57
810.13	32519.70
810.31	32421.39
810.49	32132.63
810.67	32572.94
810.84	32144.92
811.02	32540.18
811.20	32251.41
811.38	32106.01
811.56	31882.78
811.74	32083.48
811.92	31843.87
812.10	31942.17
812.28	31604.25
812.46	31827.48
812.64	31555.10
812.82	31409.70
813.00	31512.10
813.18	31903.26
813.36	31344.16
813.53	31002.15
813.71	31571.49
813.89	31292.96
814.07	31477.28
814.25	31426.08
814.43	30967.34
814.61	30815.79
814.79	31100.45
814.97	30897.70
815.15	30946.86
815.33	30760.49
815.50	30686.76
815.68	30791.21
815.86	30924.33
816.04	30725.68
816.22	30549.55
816.40	30553.65
816.58	30586.41
816.76	30201.40
816.94	30479.92
817.11	30481.97
817.29	30330.42
817.47	30219.83
817.65	30055.99
817.83	30228.02
818.01	30035.51
818.19	29797.95
818.37	29781.56
818.54	29695.55
818.72	29623.87
818.90	29705.79
819.08	29744.70
819.26	29851.19
819.44	29593.15
819.62	29486.65
819.80	29634.11
819.97	29490.75
820.15	29443.65
820.33	29324.86
820.51	29460.03
820.69	29204.03
820.87	29486.65
821.05	29625.92
821.22	29265.47
821.40	29208.13
821.58	29021.77
821.76	29085.25
821.94	29038.15
822.12	28937.80
822.29	28757.58
822.47	28653.13
822.65	28612.17
822.83	28333.65
823.01	28784.20
823.19	28597.84
823.36	28397.13
823.54	28745.29
823.72	28294.74
823.90	28423.76
824.08	28180.05
824.25	28464.72
824.43	28311.12
824.61	28163.67
824.79	28331.60
824.97	28001.88
825.15	28194.39
825.32	27985.49
825.50	27979.35
825.68	28206.67
825.86	28108.37
826.04	27833.94
826.21	27801.18
826.39	27848.28
826.57	27858.52
826.75	27913.81
826.93	27801.18
827.10	27371.10
827.28	27590.24
827.46	27776.60
827.64	27885.14
827.81	27260.51
827.99	27594.33
828.17	27295.33
828.35	27348.57
828.53	27264.61
828.70	27407.97
828.88	27410.01
829.06	27141.73
829.24	27455.07
829.41	27227.74
829.59	27510.36
829.77	27131.49
829.95	27031.14
830.12	27260.51
830.30	27145.83
830.48	27465.31
830.66	26986.08
830.84	26865.25
831.01	26865.25
831.19	26934.88
831.37	26693.22
831.55	26697.32
831.72	26943.08
831.90	26670.70
832.08	26861.16
832.25	26537.58
832.43	26478.19
832.61	26764.90
832.79	26390.13
832.96	26691.18
833.14	26543.72
833.32	26740.33
833.50	26760.81
833.67	26488.43
833.85	26553.96
834.03	25960.05
834.20	26480.24
834.38	26363.50
834.56	26193.52
834.74	25910.90
834.91	26197.62
835.09	25982.58
835.27	25595.51
835.44	25841.27
835.62	25640.57
835.80	25906.80
835.98	25839.22
836.15	25964.15
836.33	25689.72
836.51	26095.22
836.68	25489.02
836.86	25292.41
837.04	25517.69
837.21	25519.74
837.39	25499.26
837.57	25587.32
837.75	25603.71
837.92	25341.57
838.10	25355.90
838.28	25042.56
838.45	25474.68
838.63	24968.84
838.81	25120.38
838.98	25267.84
839.16	25040.51
839.34	24868.48
839.51	24936.07
839.69	25005.70
839.87	25067.14
840.04	24952.45
840.22	25269.89
840.40	25036.42
840.57	25017.99
840.75	24845.96
840.93	24753.80
841.10	24893.06
841.28	24805.00
841.46	24585.86
841.63	24872.58
841.81	24596.10
841.98	24368.78
842.16	24542.86
842.34	24563.34
842.51	24497.80
842.69	24716.93
842.87	24706.70
843.04	24729.22
843.22	24698.50
843.40	24460.94
843.57	24645.26
843.75	24698.50
843.92	24571.53
844.10	24180.37
844.28	24426.12
844.45	24090.26
844.63	24360.59
844.81	24012.43
844.98	23998.10
845.16	23793.30
845.33	23989.91
845.51	24303.25
845.69	23869.08
845.86	24168.08
846.04	24032.91
846.21	24037.01
846.39	23977.62
846.57	23869.08
846.74	23738.01
846.92	23871.12
847.09	23637.66
847.27	23557.78
847.45	23697.05
847.62	23840.40
847.80	23608.98
847.97	23408.28
848.15	23717.53
848.32	23432.86
848.50	23504.54
848.68	23301.79
848.85	23320.22
849.03	23062.18
849.20	23551.64
849.38	23414.43
849.56	23322.27
849.73	23129.76
849.91	23033.50
850.08	23369.37
850.26	23004.83
850.43	23072.42
850.61	23094.94
850.78	23099.04
850.96	23377.56
851.14	23191.20
851.31	23119.52
851.49	23006.88
851.66	23072.42
851.84	22804.13
852.01	23099.04
852.19	22941.35
852.36	22951.59
852.54	22791.84
852.71	22650.53
852.89	22666.92
853.07	22611.62
853.24	22603.43
853.42	22630.05
853.59	22660.77
853.77	22455.98
853.94	23006.88
854.12	22814.37
854.29	22386.35
854.47	22384.30
854.64	22668.97
854.82	22503.08
854.99	22779.56
855.17	22339.24
855.34	22290.09
855.52	22398.63
855.69	22279.85
855.87	22046.38
856.04	22097.58
856.22	22218.41
856.39	22109.87
856.57	22089.39
856.74	22222.51
856.92	22019.76
857.09	21964.46
857.27	22171.31
857.44	22267.56
857.62	21991.09
857.79	22179.50
857.97	21823.16
858.14	21751.48
858.32	21933.75
858.49	21900.98
858.67	21851.83
858.84	21659.32
859.02	21694.13
859.19	21591.73
859.37	21911.22
859.54	21460.66
859.72	21847.73
859.89	21698.23
860.06	21644.98
860.24	21362.36
860.41	21640.89
860.59	21393.08
860.76	21479.10
860.94	21255.87
861.11	21636.79
861.29	21477.05
861.46	21530.30
861.64	21276.35
861.81	21202.62
861.98	21333.69
862.16	21149.37
862.33	21108.41
862.51	21188.28
862.68	21227.20
862.86	20895.43
863.03	21087.93
863.21	20965.06
863.38	21003.97
863.55	21118.65
863.73	20729.54
863.90	20778.69
864.08	20956.86
864.25	20833.99
864.43	21003.97
864.60	20809.41
864.77	20735.68
864.95	20715.20
865.12	20737.73
865.30	20768.45
865.47	20571.85
865.64	20596.42
865.82	20530.89
865.99	20598.47
866.17	20469.45
866.34	20584.13
866.51	20551.37
866.69	20598.47
866.86	20586.18
867.04	20541.13
867.21	20577.99
867.38	20260.55
867.56	20285.13
867.73	20281.03
867.91	20149.96
868.08	20293.32
868.25	20276.94
868.43	20344.52
868.60	20033.23
868.78	19984.08
868.95	20410.06
869.12	20045.52
869.30	19908.30
869.47	20078.29
869.64	19748.56
869.82	19949.26
869.99	19756.75
870.16	19947.22
870.34	19752.66
870.51	19803.86
870.69	19771.09
870.86	19705.56
871.03	19609.30
871.21	19513.05
871.38	19904.21
871.55	19527.38
871.73	19150.56
871.90	19283.67
872.07	19326.68
872.25	19156.70
872.42	19463.90
872.59	19353.30
872.77	19451.61
872.94	19039.97
873.11	19381.98
873.29	18912.99
873.46	19011.29
873.63	19050.21
873.81	19007.20
873.98	18855.65
874.15	18949.85
874.33	18712.29
874.50	18755.30
874.67	18804.45
874.85	18968.29
875.02	18503.40
875.19	18804.45
875.37	18611.94
875.54	18517.73
875.71	18843.36
875.88	18429.67
876.06	18640.61
876.23	18374.38
876.40	18310.89
876.58	18314.98
876.75	18611.94
876.92	18570.98
877.10	18353.90
877.27	18288.36
877.44	18058.99
877.61	17897.20
877.79	18052.84
877.96	18085.61
878.13	18478.82
878.31	18118.38
878.48	17946.35
878.65	17960.69
878.82	17913.58
879.00	18327.27
879.17	17686.26
879.34	17712.88
879.51	17667.83
879.69	17704.69
879.86	17452.79
880.03	17561.33
880.21	17401.59
880.38	17450.74
880.55	17581.81
880.72	17547.00
880.90	17434.36
881.07	17311.48
881.24	17485.56
881.41	17628.92
881.59	17463.03
881.76	17446.65
881.93	17379.06
882.10	17456.89
882.28	17239.80
882.45	17241.85
882.62	17180.41
882.79	17245.94
882.96	17354.49
883.14	17204.99
883.31	17385.21
883.48	17069.82
883.65	17096.44
883.83	17489.65
884.00	17039.10
884.17	16922.37
884.34	17266.42
884.51	17155.83
884.69	17200.89
884.86	16826.11
885.03	17053.44
885.20	16910.08
885.38	16934.65
885.55	16918.27
885.72	16942.85
885.89	16946.94
886.06	16688.90
886.24	16635.65
886.41	17063.68
886.58	17098.49
886.75	16936.70
886.92	16731.90
887.10	16776.96
887.27	16498.44
887.44	16762.62
887.61	16815.87
887.78	16488.20
887.95	16723.71
888.13	16678.66
888.30	16340.74
888.47	16293.64
888.64	16203.53
888.81	16533.25
888.99	16324.36
889.16	16299.78
889.33	16228.10
889.50	16365.32
889.67	16289.54
889.84	15988.49
890.01	16322.31
890.19	16238.34
890.36	16121.61
890.53	16000.78
890.70	16060.17
890.87	15775.50
891.04	16086.79
891.22	15994.64
891.39	15965.96
891.56	15703.82
891.73	15744.78
891.90	15896.33
892.07	15558.42
892.24	15705.87
892.42	15550.23
892.59	15935.24
892.76	15808.27
892.93	15564.56
893.10	15664.91
893.27	15623.95
893.44	15562.51
893.61	15779.60
893.79	15726.35
893.96	15644.43
894.13	15482.64
894.30	15494.93
894.47	15669.01
894.64	15638.29
894.81	15515.41
894.98	15658.77
895.15	15585.04
895.33	15740.69
895.50	15460.12
895.67	15636.24
895.84	15331.09
896.01	15425.30
896.18	15363.86
896.35	15384.34
896.52	15472.40
896.69	15320.85
896.86	15466.26
897.04	15396.63
897.21	15116.06
897.38	15531.80
897.55	15283.99
897.72	15316.76
897.89	15486.74
898.06	15562.51
898.23	15343.38
898.40	15580.95
898.57	15261.46
898.74	15429.40
898.91	15378.20
899.08	15327.00
899.26	15390.49
899.43	15195.93
899.60	15099.67
899.77	15462.16
899.94	15169.30
900.11	15114.01
900.28	15269.66
900.45	14982.94
900.62	15107.87
900.79	15279.89
900.96	15089.43
901.13	14978.84
901.30	15197.98
901.47	15101.72
901.64	15308.57
901.81	14960.41
901.98	15261.46
902.15	15513.36
902.32	15138.58
902.49	15249.18
902.66	15419.16
902.83	15351.57
903.01	15109.91
903.18	15111.96
903.35	15243.03
903.52	15214.36
903.69	15275.80
903.86	15335.19
904.03	15122.20
904.20	15355.67
904.37	15503.12
904.54	15058.71
904.71	15271.70
904.88	15193.88
905.05	15025.95
905.22	15197.98
905.39	14962.46
905.56	14984.99
905.73	15089.43
905.90	15265.56
906.07	15296.28
906.24	15062.81
906.41	15040.28
906.58	15032.09
906.75	14999.32
906.92	15189.78
907.09	15193.88
907.26	15337.24
907.43	14980.89
907.60	15066.91
907.77	15171.35
907.93	15234.84
908.10	15365.91
908.27	15085.34
908.44	15120.15
908.61	15064.86
908.78	15163.16
908.95	14972.70
909.12	15003.42
909.29	15066.91
909.46	15089.43
909.63	15142.68
909.80	15167.26
909.97	15079.19
910.14	15075.10
910.31	14982.94
910.48	14933.79
910.65	14855.97
910.82	14657.31
910.99	14878.49
911.16	14798.62
911.33	14804.77
911.50	14827.29
911.66	14751.52
911.83	14722.85
912.00	14417.70
912.17	14587.68
912.34	14485.28
912.51	14876.44
912.68	14470.95
912.85	14550.82
913.02	14710.56
913.19	14446.37
913.36	14806.81
913.53	14581.54
913.70	14403.36
913.86	14483.24
914.03	14520.10
914.20	14151.46
914.37	14415.65
914.54	14126.89
914.71	14479.14
914.88	14311.21
915.05	14350.12
915.22	14139.18
915.39	14341.93
915.55	14284.58
915.72	14057.26
915.89	13897.52
916.06	13971.24
916.23	14047.02
916.40	13999.91
916.57	14004.01
916.74	13737.77
916.91	14024.49
917.07	13827.88
917.24	13655.86
917.41	13793.07
917.58	14026.54
917.75	13856.56
917.92	13627.18
918.09	13641.52
918.26	13641.52
918.42	13584.18
918.59	13600.56
918.76	13602.61
918.93	13418.29
919.10	13414.20
919.27	13330.23
919.44	13584.18
919.60	13498.16
919.77	13326.13
919.94	13223.73
920.11	13188.92
920.28	13444.91
920.45	13086.52
920.61	12943.16
920.78	13129.53
920.95	12967.74
921.12	12947.26
921.29	12715.84
921.46	12668.73
921.62	12695.36
921.79	12787.52
921.96	12457.79
922.13	12808.00
922.30	12701.50
922.47	12367.68
922.63	12670.78
922.80	12480.32
922.97	12445.51
923.14	12355.40
923.31	12529.47
923.47	12232.52
923.64	12410.69
923.81	12312.39
923.98	12400.45
924.15	12115.78
924.32	12310.34
924.48	12400.45
924.65	12181.32
924.82	12025.67
924.99	11900.75
925.15	11855.69
925.32	12013.38
925.49	11849.55
925.66	11669.33
925.83	11808.59
925.99	11528.02
926.16	11808.59
926.33	11630.41
926.50	11413.33
926.67	11667.28
926.83	11562.83
927.00	11462.48
927.17	11491.15
927.34	11259.73
927.50	11284.31
927.67	11495.25
927.84	11067.22
928.01	11177.81
928.17	11321.17
928.34	11116.37
928.51	10962.78
928.68	10923.87
928.84	10930.01
929.01	10852.19
929.18	10778.46
929.35	10817.37
929.51	10751.84
929.68	10866.52
929.85	10774.36
930.02	10563.42
930.18	10512.22
930.35	10544.99
930.52	10444.64
930.69	10409.83
930.85	10397.54
931.02	10551.14
931.19	10364.77
931.36	10301.28
931.52	10235.75
931.69	10182.50
931.86	10063.72
932.02	9903.98
932.19	10207.08
932.36	10182.50
932.53	10076.01
932.69	9781.10
932.86	9940.84
933.03	9916.26
933.19	9779.05
933.36	9764.72
933.53	9719.66
933.70	9688.94
933.86	9777.00
934.03	9498.48
934.20	9402.22
934.36	9572.21
934.53	9242.48
934.70	9289.59
934.86	9240.44
935.03	8947.58
935.20	9054.07
935.36	9133.94
935.53	8865.66
935.70	8925.05
935.86	8908.66
936.03	8642.43
936.20	8726.39
936.36	8513.41
936.53	8611.71
936.70	8439.68
936.86	8603.52
937.03	8417.15
937.20	8044.42
937.36	8101.76
937.53	8077.19
937.70	7962.50
937.86	7724.94
938.03	7913.35
938.20	7962.50
938.36	7688.07
938.53	7802.76
938.70	7514.00
938.86	7450.51
939.03	7440.27
939.20	7061.40
939.36	7227.28
939.53	7131.03
939.70	7348.11
939.86	6959.00
940.03	6688.67
940.19	6948.76
940.36	6887.32
940.53	6715.29
940.69	6623.13
940.86	6668.19
941.03	6389.66
941.19	6373.28
941.36	6408.09
941.52	6459.29
941.69	6297.50
941.86	6215.59
942.02	6115.23
942.19	6125.47
942.35	6092.71
942.52	6033.32
942.69	6039.46
942.85	5918.63
943.02	5857.19
943.18	5982.12
943.35	5816.23
943.52	5664.68
943.68	5824.42
943.85	5679.02
944.01	5801.90
944.18	5631.91
944.35	5631.91
944.51	5623.72
944.68	5443.50
944.84	5347.25
945.01	5420.97
945.17	5490.60
945.34	5482.41
945.51	5392.30
945.67	5337.01
945.84	5320.62
946.00	5345.20
946.17	5330.86
946.33	5347.25
946.50	5455.79
946.67	5246.90
946.83	5248.94
947.00	5406.64
947.16	5193.65
947.33	5294.00
947.49	5312.43
947.66	5212.08
947.82	5171.12
947.99	5081.01
948.16	5250.99
948.32	5160.88
948.49	5341.10
948.65	5255.09
948.82	5210.03
948.98	5191.60
949.15	5177.26
949.31	5203.89
949.48	5334.96
949.64	5255.09
949.81	5138.35
949.97	5175.22
950.14	5314.48
950.30	5152.69
950.47	5324.72
950.63	5218.22
950.80	5314.48
950.96	5076.91
951.13	5294.00
951.30	5259.18
951.46	5328.81
951.63	5212.08
951.79	5304.24
951.96	5445.55
952.12	5255.09
952.29	5267.38
952.45	5298.10
952.62	5310.38
952.78	5492.65
952.94	5384.11
953.11	5394.35
953.27	5302.19
953.44	5472.17
953.60	5316.53
953.77	5484.46
953.93	5431.21
954.10	5384.11
954.26	5384.11
954.43	5259.18
954.59	5355.44
954.76	5248.94
954.92	5353.39
955.09	5418.93
955.25	5320.62
955.42	5234.61
955.58	5511.08
955.75	5474.22
955.91	5250.99
956.07	5359.53
956.24	5394.35
956.40	5500.84
956.57	5427.12
956.73	5418.93
956.90	5500.84
957.06	5580.71
957.23	5408.69
957.39	5468.08
957.56	5412.78
957.72	5343.15
957.88	5187.50
958.05	5492.65
958.21	5519.28
958.38	5541.80
958.54	5402.54
958.71	5511.08
958.87	5488.56
959.03	5463.98
959.20	5355.44
959.36	5326.77
959.53	5265.33
959.69	5384.11
959.85	5443.50
960.02	5402.54
960.18	5484.46
960.35	5410.73
960.51	5482.41
960.68	5357.49
960.84	5349.29
961.00	5341.10
961.17	5287.86
961.33	5386.16
961.50	5377.97
961.66	5494.70
961.82	5365.68
961.99	5377.97
962.15	5492.65
962.31	5408.69
962.48	5402.54
962.64	5279.66
962.81	5521.32
962.97	5410.73
963.13	5431.21
963.30	5365.68
963.46	5404.59
963.62	5357.49
963.79	5334.96
963.95	5298.10
964.12	5191.60
964.28	5459.88
964.44	5318.57
964.61	5394.35
964.77	5306.29
964.93	5443.50
965.10	5263.28
965.26	5265.33
965.42	5169.07
965.59	5277.62
965.75	5302.19
965.92	5416.88
966.08	5189.55
966.24	5283.76
966.41	5230.51
966.57	5156.79
966.73	5224.37
966.90	5279.66
967.06	5115.83
967.22	5148.59
967.39	5152.69
967.55	5197.74
967.71	5201.84
967.88	5105.59
968.04	5066.67
968.20	5117.87
968.37	5054.39
968.53	5093.30
968.69	5048.24
968.85	5287.86
969.02	5136.31
969.18	5226.42
969.34	4923.32
969.51	5083.06
969.67	5228.46
969.83	4843.45
970.00	5072.82
970.16	5025.72
970.32	5070.77
970.48	5132.21
970.65	4962.23
970.81	4900.79
970.97	4980.66
971.14	4827.06
971.30	4988.85
971.46	4923.32
971.63	4997.04
971.79	4888.50
971.95	4915.12
972.11	4786.10
972.28	4923.32
972.44	5001.14
972.60	4624.31
972.76	4906.93
972.93	4796.34
973.09	4908.98
973.25	4802.49
973.42	4706.23
973.58	4915.12
973.74	4902.84
973.90	4728.76
974.07	4739.00
974.23	4741.05
974.39	4904.89
974.55	4792.25
974.72	4638.65
974.88	4722.62
975.04	4673.46
975.20	4718.52
975.37	4685.75
975.53	4718.52
975.69	4755.38
975.85	4622.27
976.01	4622.27
976.18	4698.04
976.34	4624.31
976.50	4679.61
976.66	4726.71
976.83	4597.69
976.99	4462.52
977.15	4796.34
977.31	4331.45
977.47	4634.55
977.64	4478.91
977.80	4353.98
977.96	4466.62
978.12	4523.96
978.29	4513.72
978.45	4407.23
978.61	4419.52
978.77	4476.86
978.93	4493.24
979.10	4476.86
979.26	4448.19
979.42	4388.80
979.58	4261.82
979.74	4366.27
979.91	4321.21
980.07	4161.47
980.23	4257.73
980.39	4313.02
980.55	4300.73
980.71	4214.72
980.88	4300.73
981.04	4196.29
981.20	4198.34
981.36	4280.25
981.52	4200.38
981.68	4032.45
981.85	4280.25
982.01	4024.26
982.17	4106.18
982.33	4214.72
982.49	4327.36
982.65	4208.58
982.82	4167.62
982.98	3993.54
983.14	4091.84
983.30	4157.38
983.46	4073.41
983.62	4136.90
983.79	3977.16
983.95	3989.44
984.11	3829.70
984.27	4077.51
984.43	3973.06
984.59	4001.73
984.75	4065.22
984.91	3903.43
985.08	3944.39
985.24	3807.17
985.40	3784.65
985.56	3858.37
985.72	4089.79
985.88	3975.11
986.04	3938.24
986.20	3825.61
986.37	3932.10
986.53	3844.04
986.69	3909.57
986.85	3854.28
987.01	3788.74
987.17	3874.76
987.33	3755.97
987.49	3762.12
987.65	3712.97
987.82	3805.13
987.98	3614.66
988.14	3729.35
988.30	3665.86
988.46	3678.15
988.62	3698.63
988.78	3702.73
988.94	3629.00
989.10	3520.46
989.26	3520.46
989.42	3641.29
989.59	3598.28
989.75	3659.72
989.91	3528.65
990.07	3395.53
990.23	3518.41
990.39	3413.96
990.55	3588.04
990.71	3436.49
990.87	3493.83
991.03	3635.14
991.19	3254.22
991.35	3393.48
991.51	3430.35
991.67	3526.60
991.83	3313.61
992.00	3342.28
992.16	3358.67
992.32	3436.49
992.48	3420.11
992.64	3321.81
992.80	3250.13
992.96	3293.13
993.12	3379.15
993.28	3356.62
993.44	3239.89
993.60	3256.27
993.76	3344.33
993.92	3237.84
994.08	3266.51
994.24	3133.39
994.40	3194.83
994.56	3231.69
994.72	3063.76
994.88	3164.11
995.04	3229.65
995.20	3160.02
995.36	3078.10
995.52	3221.45
995.68	3262.41
995.84	3065.81
996.00	3291.09
996.16	2922.45
996.32	3022.80
996.48	3067.86
996.64	3252.17
996.80	3082.19
996.96	3026.90
997.12	3051.47
997.28	2901.97
997.44	2906.07
997.60	3006.42
997.76	2975.70
997.92	3000.27
998.08	3006.42
998.24	2930.64
998.40	2924.50
998.56	2885.59
998.72	2850.77
998.88	2912.21
999.04	2838.48
999.20	2932.69
999.36	2795.48
999.52	2922.45
999.68	2881.49
999.84	2768.85
1000.00	2971.60
1000.16	2842.58
1000.32	2613.21
1000.48	2781.14
1000.64	2627.54
1000.80	2615.26
1000.95	2529.24
1001.11	2869.20
1001.27	2762.71
1001.43	2709.46
1001.59	2713.56
1001.75	2525.15
1001.91	2740.18
1002.07	2688.98
1002.23	2416.60
1002.39	2607.06
1002.55	2451.42
1002.71	2596.82
1002.87	2615.26
1003.03	2519.00
1003.19	2576.34
1003.34	2777.05
1003.50	2467.80
1003.66	2674.65
1003.82	2566.10
1003.98	2523.10
1004.14	2803.67
1004.30	2324.44
1004.46	2471.90
1004.62	2602.97
1004.78	2369.50
1004.94	2437.08
1005.09	2541.53
1005.25	2379.74
1005.41	2629.59
1005.57	2228.19
1005.73	2289.63
1005.89	2306.01
1006.05	2525.15
1006.21	2381.79
1006.37	2263.01
1006.52	2201.57
1006.68	2121.70
1006.84	2381.79
1007.00	2287.58
1007.16	2377.69
1007.32	2187.23
1007.48	2355.16
1007.64	2166.75
1007.79	2174.94
1007.95	2191.33
1008.11	2385.88
1008.27	2371.55
1008.43	2176.99
1008.59	2285.53
1008.75	2240.48
1008.91	2228.19
1009.06	2273.25
1009.22	2195.42
1009.38	2138.08
1009.54	2207.71
1009.70	2095.07
1009.86	2226.14
1010.01	2222.05
1010.17	2170.85
1010.33	2351.07
1010.49	2150.37
1010.65	2381.79
1010.81	2113.50
1010.96	2166.75
1011.12	2043.87
1011.28	2080.74
1011.44	2246.62
1011.60	2082.78
1011.76	2093.02
1011.91	2082.78
1012.07	2035.68
1012.23	1964.00
1012.39	2131.94
1012.55	1980.39
1012.71	2230.24
1012.86	2047.97
1013.02	2052.06
1013.18	1974.24
1013.34	2027.49
1013.50	2115.55
1013.65	2052.06
1013.81	2031.58
1013.97	2017.25
1014.13	1966.05
1014.29	1959.91
1014.44	2070.50
1014.60	1970.15
1014.76	2023.39
1014.92	1857.51
1015.07	1970.15
1015.23	2045.92
1015.39	1961.95
1015.55	1896.42
1015.71	1998.82
1015.86	1906.66
1016.02	1882.08
1016.18	1824.74
1016.34	1945.57
1016.49	1867.75
1016.65	1918.95
1016.81	1912.80
1016.97	1847.27
1017.12	1984.48
1017.28	1802.21
1017.44	1765.35
1017.60	1988.58
1017.75	1908.71
1017.91	1910.75
1018.07	1959.91
1018.23	1949.67
1018.38	1834.98
1018.54	1918.95
1018.70	1972.19
1018.86	1847.27
1019.01	1888.23
1019.17	1908.71
1019.33	2105.31
1019.49	1859.56
1019.64	1789.92
1019.80	1888.23
1019.96	1839.08
1020.12	1871.84
1020.27	1781.73
1020.43	1826.79
1020.59	1773.54
1020.74	1961.95
1020.90	1843.17
1021.06	1757.16
1021.22	1845.22
1021.37	1757.16
1021.53	1882.08
1021.69	1781.73
1021.84	1689.57
1022.00	1834.98
1022.16	1843.17
1022.31	1757.16
1022.47	1810.40
1022.63	1863.65
1022.79	1685.48
1022.94	1714.15
1023.10	1982.43
1023.26	1822.69
1023.41	1746.92
1023.57	1716.20
1023.73	1699.81
1023.88	1828.84
1024.04	1667.05
1024.20	1726.44
1024.35	1771.49
1024.51	1849.32
1024.67	1802.21
1024.82	1785.83
1024.98	1673.19
1025.14	1724.39
1025.29	1742.82
1025.45	1841.12
1025.61	1742.82
1025.76	1771.49
1025.92	1734.63
1026.08	1839.08
1026.23	1787.88
1026.39	1806.31
1026.55	1703.91
1026.70	1679.33
1026.86	1710.05
1027.02	1781.73
1027.17	1785.83
1027.33	1771.49
1027.48	1773.54
1027.64	1765.35
1027.80	1697.77
1027.95	1675.24
1028.11	1675.24
1028.27	1617.90
1028.42	1853.41
1028.58	1736.68
1028.73	1722.34
1028.89	1675.24
1029.05	1820.64
1029.20	1720.29
>>>>>End Processed Spectral Data<<<<<
