SpectraSuite Data File
++++++++++++++++++++++++++++++++++++
Date: Fri Jun 02 14:48:00 CEST 2017
User: INFO_000
Dark Spectrum Present: No
Reference Spectrum Present: No
Number of Sampled Component Spectra: 1
Spectrometers: USB4H00879
Integration Time (usec): 80000 (USB4H00879)
Spectra Averaged: 1 (USB4H00879)
Boxcar Smoothing: 0 (USB4H00879)
Correct for Electrical Dark: No (USB4H00879)
Strobe/Lamp Enabled: No (USB4H00879)
Correct for Detector Non-linearity: No (USB4H00879)
Correct for Stray Light: No (USB4H00879)
Number of Pixels in Processed Spectrum: 3648
>>>>>Begin Processed Spectral Data<<<<<
345.13	1288.17
345.34	1288.17
345.56	1288.17
345.78	1263.60
345.99	1255.40
346.21	1695.72
346.42	1699.81
346.64	1665.00
346.86	1814.50
347.07	1619.94
347.29	1753.06
347.50	1542.12
347.72	1632.23
347.94	1794.02
348.15	1611.75
348.37	1683.43
348.59	1687.53
348.80	1675.24
349.02	1796.07
349.23	1890.28
349.45	1789.92
349.67	1880.04
349.88	1853.41
350.10	1935.33
350.31	1837.03
350.53	1769.44
350.75	1978.34
350.96	1812.45
351.18	1824.74
351.39	1875.94
351.61	1785.83
351.82	1929.19
352.04	1904.61
352.26	1783.78
352.47	1929.19
352.69	1859.56
352.90	1757.16
353.12	1843.17
353.34	1810.40
353.55	1916.90
353.77	1810.40
353.98	1849.32
354.20	1820.64
354.41	1925.09
354.63	1937.38
354.85	2064.35
355.06	1902.56
355.28	1761.25
355.49	1859.56
355.71	1884.13
355.92	1861.60
356.14	1892.32
356.35	1880.04
356.57	1837.03
356.79	1923.04
357.00	1859.56
357.22	1865.70
357.43	1863.65
357.65	2009.06
357.86	1869.80
358.08	1927.14
358.29	1910.75
358.51	1937.38
358.72	1982.43
358.94	1886.18
359.16	1941.47
359.37	1982.43
359.59	1990.63
359.80	1955.81
360.02	1994.72
360.23	1884.13
360.45	1998.82
360.66	1925.09
360.88	1884.13
361.09	2017.25
361.31	1982.43
361.52	2011.11
361.74	2060.26
361.95	2060.26
362.17	1982.43
362.38	2070.50
362.60	1959.91
362.81	1914.85
363.03	1880.04
363.24	1933.28
363.46	2090.98
363.67	2015.20
363.89	1925.09
364.10	2070.50
364.32	2002.91
364.53	2029.54
364.75	1806.31
364.96	1925.09
365.18	1996.77
365.39	1996.77
365.61	1908.71
365.82	2129.89
366.04	1959.91
366.25	1933.28
366.47	2002.91
366.68	2017.25
366.90	2009.06
367.11	2093.02
367.33	2031.58
367.54	2070.50
367.76	1966.05
367.97	2131.94
368.19	1957.86
368.40	2172.89
368.62	2002.91
368.83	1955.81
369.05	2078.69
369.26	1939.43
369.48	2000.87
369.69	1982.43
369.91	2039.78
370.12	2031.58
370.33	2062.30
370.55	2017.25
370.76	2029.54
370.98	2117.60
371.19	2097.12
371.41	2000.87
371.62	2027.49
371.84	2037.73
372.05	2150.37
372.27	2015.20
372.48	2080.74
372.69	2056.16
372.91	2158.56
373.12	2105.31
373.34	2107.36
373.55	2107.36
373.77	2119.65
373.98	2099.17
374.20	2189.28
374.41	2228.19
374.62	2099.17
374.84	2103.26
375.05	2203.61
375.27	2109.41
375.48	2185.18
375.70	2189.28
375.91	2203.61
376.12	2269.15
376.34	2174.94
376.55	2211.81
376.77	2195.42
376.98	2129.89
377.19	2133.98
377.41	2140.13
377.62	2164.70
377.84	2150.37
378.05	2328.54
378.27	2146.27
378.48	2336.73
378.69	2320.35
378.91	2322.40
379.12	2232.29
379.34	2232.29
379.55	2306.01
379.76	2220.00
379.98	2275.29
380.19	2166.75
380.41	2217.95
380.62	2379.74
380.83	2193.37
381.05	2248.67
381.26	2416.60
381.47	2213.85
381.69	2279.39
381.90	2381.79
382.12	2211.81
382.33	2267.10
382.54	2232.29
382.76	2303.96
382.97	2342.88
383.19	2176.99
383.40	2289.63
383.61	2312.16
383.83	2263.01
384.04	2342.88
384.25	2291.68
384.47	2402.27
384.68	2426.84
384.89	2234.33
385.11	2410.46
385.32	2252.77
385.54	2328.54
385.75	2314.20
385.96	2422.75
386.18	2375.64
386.39	2363.36
386.60	2387.93
386.82	2441.18
387.03	2416.60
387.24	2445.27
387.46	2533.34
387.67	2451.42
387.88	2525.15
388.10	2533.34
388.31	2377.69
388.52	2541.53
388.74	2523.10
388.95	2541.53
389.16	2449.37
389.38	2482.14
389.59	2578.39
389.80	2588.63
390.02	2549.72
390.23	2637.78
390.44	2537.43
390.66	2463.71
390.87	2588.63
391.08	2652.12
391.30	2643.93
391.51	2619.35
391.72	2629.59
391.94	2682.84
392.15	2568.15
392.36	2547.67
392.58	2555.86
392.79	2637.78
393.00	2672.60
393.22	2658.26
393.43	2813.91
393.64	2779.09
393.85	2789.33
394.07	2658.26
394.28	2713.56
394.49	2721.75
394.71	2734.04
394.92	2838.48
395.13	2686.94
395.35	2762.71
395.56	2779.09
395.77	2795.48
395.98	2756.57
396.20	2783.19
396.41	2877.40
396.62	2854.87
396.84	2777.05
397.05	2897.88
397.26	2838.48
397.47	2971.60
397.69	2865.11
397.90	3022.80
398.11	2908.12
398.32	2893.78
398.54	2869.20
398.75	2873.30
398.96	2891.73
399.18	3129.30
399.39	2930.64
399.60	3063.76
399.81	2965.46
400.03	2949.08
400.24	3284.94
400.45	2926.55
400.66	3084.24
400.88	3020.75
401.09	3182.54
401.30	3069.91
401.51	3106.77
401.73	3186.64
401.94	3076.05
402.15	3047.38
402.36	3067.86
402.58	3178.45
402.79	3172.30
403.00	3088.34
403.21	3053.52
403.43	3233.74
403.64	3282.89
403.85	3145.68
404.06	3250.13
404.27	3104.72
404.49	3203.02
404.70	3145.68
404.91	3346.38
405.12	3229.65
405.34	3280.85
405.55	3344.33
405.76	3162.06
405.97	3330.00
406.19	3330.00
406.40	3129.30
406.61	3364.81
406.82	3332.05
407.03	3209.17
407.25	3241.93
407.46	3446.73
407.67	3399.63
407.88	3358.67
408.09	3362.76
408.31	3379.15
408.52	3358.67
408.73	3319.76
408.94	3327.95
409.15	3448.78
409.37	3450.83
409.58	3426.25
409.79	3481.55
410.00	3491.79
410.21	3393.48
410.43	3303.37
410.64	3338.19
410.85	3532.75
411.06	3473.36
411.27	3551.18
411.48	3585.99
411.70	3614.66
411.91	3534.79
412.12	3633.10
412.33	3526.60
412.54	3629.00
412.76	3641.29
412.97	3637.19
413.18	3416.01
413.39	3600.33
413.60	3678.15
413.81	3643.34
414.03	3633.10
414.24	3493.83
414.45	3839.94
414.66	3499.98
414.87	3753.93
415.08	3755.97
415.30	3760.07
415.51	3680.20
415.72	3735.50
415.93	3663.82
416.14	3764.17
416.35	3749.83
416.56	3854.28
416.78	3805.13
416.99	3821.51
417.20	3692.49
417.41	3841.99
417.62	3878.85
417.83	3999.68
418.04	3887.04
418.26	3870.66
418.47	3934.15
418.68	4108.23
418.89	3938.24
419.10	4102.08
419.31	3993.54
419.52	4128.70
419.73	3995.59
419.95	3944.39
420.16	3880.90
420.37	3966.92
420.58	4050.88
420.79	3971.01
421.00	4108.23
421.21	4140.99
421.42	4059.07
421.63	4052.93
421.85	4016.07
422.06	4173.76
422.27	4059.07
422.48	4120.51
422.69	4251.58
422.90	4165.57
423.11	4177.86
423.32	4310.97
423.53	4349.89
423.75	4249.54
423.96	4450.24
424.17	4472.76
424.38	4444.09
424.59	4476.86
424.80	4587.45
425.01	4470.72
425.22	4294.59
425.43	4507.58
425.64	4618.17
425.85	4648.89
426.06	4648.89
426.28	4548.54
426.49	4423.61
426.70	4569.02
426.91	4509.63
427.12	4669.37
427.33	4652.98
427.54	4538.30
427.75	4689.85
427.96	4825.01
428.17	4683.70
428.38	4695.99
428.59	4751.29
428.80	4745.14
429.01	4800.44
429.23	4704.18
429.44	5007.28
429.65	4859.83
429.86	5089.20
430.07	4833.21
430.28	4798.39
430.49	4980.66
430.70	5140.40
430.91	4990.90
431.12	4923.32
431.33	5138.35
431.54	5003.19
431.75	4919.22
431.96	5140.40
432.17	5103.54
432.38	5197.74
432.59	5349.29
432.80	5263.28
433.01	5169.07
433.22	5154.74
433.43	5214.13
433.64	5285.81
433.85	5185.46
434.06	5322.67
434.27	5285.81
434.49	5453.74
434.70	5523.37
434.91	5506.99
435.12	5369.77
435.33	5388.21
435.54	5416.88
435.75	5361.58
435.96	5457.84
436.17	5160.88
436.38	5511.08
436.59	5644.20
436.80	5654.44
437.01	5752.74
437.22	5693.35
437.43	5582.76
437.64	5615.53
437.85	5629.87
438.06	5736.36
438.27	5519.28
438.48	5689.26
438.69	5711.78
438.90	5627.82
439.11	5853.09
439.32	5844.90
439.53	5984.16
439.74	5711.78
439.95	5885.86
440.16	5939.11
440.37	5857.19
440.57	5787.56
440.78	5820.33
440.99	5822.38
441.20	5990.31
441.41	5994.40
441.62	6004.64
441.83	5904.29
442.04	6080.42
442.25	5959.59
442.46	6014.88
442.67	6117.28
442.88	6395.81
443.09	6094.76
443.30	6143.91
443.51	6131.62
443.72	6393.76
443.93	6090.66
444.14	6449.05
444.35	6104.99
444.56	6311.84
444.77	6305.70
444.98	6334.37
445.19	6434.72
445.40	6383.52
445.61	6377.37
445.81	6549.40
446.02	6522.78
446.23	6322.08
446.44	6289.31
446.65	6457.25
446.86	6451.10
447.07	6608.80
447.28	6739.87
447.49	6690.71
447.70	6555.55
447.91	6596.51
448.12	6549.40
448.33	6631.32
448.54	6715.29
448.74	6688.67
448.95	6789.02
449.16	6711.19
449.37	7024.53
449.58	6741.91
449.79	7065.49
450.00	6805.40
450.21	6829.98
450.42	7032.72
450.63	7032.72
450.84	6928.28
451.05	6899.61
451.25	6944.66
451.46	6938.52
451.67	7126.93
451.88	7260.05
452.09	7116.69
452.30	7083.92
452.51	6993.81
452.72	7284.62
452.93	7464.85
453.13	7102.36
453.34	7208.85
453.55	7344.02
453.76	7362.45
453.97	7647.12
454.18	7577.48
454.39	7559.05
454.60	7288.72
454.81	7597.96
455.01	7692.17
455.22	7425.93
455.43	7704.46
455.64	7858.06
455.85	7788.43
456.06	7927.69
456.27	7810.95
456.48	7802.76
456.68	7776.14
456.89	7741.32
457.10	7901.06
457.31	7958.41
457.52	7982.98
457.73	7978.89
457.94	8271.75
458.14	8073.09
458.35	8355.71
458.56	8204.16
458.77	8245.12
458.98	8245.12
459.19	8159.11
459.39	8437.63
459.60	8447.87
459.81	8302.47
460.02	8505.21
460.23	8458.11
460.44	8628.09
460.65	8871.80
460.85	8589.18
461.06	8546.17
461.27	8376.19
461.48	8908.66
461.69	8853.37
461.89	8644.48
462.10	8896.38
462.31	8673.15
462.52	8894.33
462.73	8892.28
462.94	8998.77
463.14	9033.59
463.35	8994.68
463.56	9340.79
463.77	9375.60
463.98	9148.28
464.18	9217.91
464.39	9236.34
464.60	9475.95
464.81	9660.27
465.02	9471.86
465.23	9834.35
465.43	9637.74
465.64	9658.22
465.85	9559.92
466.06	9731.95
466.27	9887.59
466.47	10063.72
466.68	10059.62
466.89	9936.74
467.10	9985.90
467.30	9832.30
467.51	10104.68
467.72	10268.52
467.93	10039.14
468.14	10178.40
468.34	10336.10
468.55	10463.07
468.76	10544.99
468.97	10086.25
469.17	10661.73
469.38	10565.47
469.59	10684.25
469.80	10651.49
470.01	10850.14
470.21	10792.80
470.42	11126.61
470.63	11124.57
470.84	10936.15
471.04	11126.61
471.25	11196.25
471.46	11360.08
471.67	11513.68
471.87	11347.79
472.08	11495.25
472.29	11452.24
472.50	11237.20
472.70	11523.92
472.91	11648.85
473.12	11779.92
473.33	12044.10
473.53	11917.13
473.74	11925.32
473.95	12212.04
474.16	12504.90
474.36	12281.67
474.57	12132.17
474.78	12459.84
474.99	12382.02
475.19	12201.80
475.40	12744.51
475.61	12941.11
475.81	13018.94
476.02	12875.58
476.23	12998.46
476.44	13190.97
476.64	13295.41
476.85	13352.76
477.06	13420.34
477.27	13629.23
477.47	13561.65
477.68	13635.38
477.89	13817.65
478.09	13741.87
478.30	13872.94
478.51	13784.88
478.71	14051.11
478.92	14065.45
479.13	14384.93
479.34	14255.91
479.54	14573.35
479.75	14401.32
479.96	14694.18
480.16	14616.35
480.37	14579.49
480.58	14602.02
480.78	15343.38
480.99	15015.71
481.20	15179.54
481.41	15216.41
481.61	15302.42
481.82	15462.16
482.03	15406.87
482.23	15365.91
482.44	15746.83
482.65	15873.81
482.85	15935.24
483.06	15877.90
483.27	16113.42
483.47	15980.30
483.68	16203.53
483.89	16264.97
484.09	16273.16
484.30	16310.02
484.51	16705.28
484.71	16590.59
484.92	16854.78
485.13	16789.25
485.33	16971.52
485.54	16977.66
485.75	17268.47
485.95	17415.93
486.16	17354.49
486.37	17465.08
486.57	17274.62
486.78	17653.49
486.98	17643.25
487.19	17757.94
487.40	17721.07
487.60	17800.94
487.81	18202.35
488.02	18040.56
488.22	18173.67
488.43	18261.74
488.64	18484.97
488.84	18564.84
489.05	18706.15
489.25	18491.11
489.46	18763.49
489.67	18769.63
489.87	18988.77
490.08	18882.27
490.29	19195.61
490.49	19484.37
490.70	19355.35
490.90	19470.04
491.11	19433.18
491.32	19449.56
491.52	19515.09
491.73	19789.52
491.94	19535.57
492.14	19912.40
492.35	19783.38
492.55	20025.04
492.76	20244.17
492.97	20235.98
493.17	20233.93
493.38	20389.58
493.58	20717.25
493.79	20414.15
494.00	20522.69
494.20	20442.82
494.41	20823.75
494.61	20795.07
494.82	20870.85
495.02	20946.62
495.23	21180.09
495.44	21386.94
495.64	21440.18
495.85	21618.36
496.05	21528.25
496.26	21577.40
496.47	22023.86
496.67	21706.42
496.88	21878.45
497.08	21790.39
497.29	21755.57
497.49	21868.21
497.70	22230.70
497.91	22367.91
498.11	22212.27
498.32	22572.71
498.52	22724.26
498.73	22836.90
498.93	22582.95
499.14	22705.83
499.34	22720.17
499.55	22683.30
499.76	22851.24
499.96	23201.44
500.17	22785.70
500.37	23111.33
500.58	23080.61
500.78	23283.36
500.99	23506.59
501.19	23459.48
501.40	23398.04
501.60	23594.65
501.81	23994.00
502.02	23756.44
502.22	23727.77
502.43	24114.83
502.63	23860.88
502.84	24131.22
503.04	24043.15
503.25	24004.24
503.45	24219.28
503.66	24073.87
503.86	24569.48
504.07	24477.32
504.27	24385.16
504.48	24571.53
504.68	24577.67
504.89	24995.46
505.09	24905.35
505.30	24782.47
505.50	25194.11
505.71	25026.18
505.91	25079.43
506.12	24938.12
506.32	24886.92
506.53	25335.42
506.73	25181.82
506.94	25265.79
507.14	25122.43
507.35	25241.21
507.55	25212.54
507.76	25382.52
507.96	25593.47
508.17	25751.16
508.37	25802.36
508.58	25398.91
508.78	25740.92
508.99	26183.28
509.19	25814.65
509.40	25869.94
509.60	25857.65
509.81	26353.26
510.01	26222.19
510.22	25925.24
510.42	26013.30
510.63	26168.94
510.83	26408.56
511.04	26136.18
511.24	26861.16
511.44	26283.63
511.65	26230.38
511.85	26478.19
512.06	26496.62
512.26	26744.42
512.47	26957.41
512.67	26594.92
512.88	26916.45
513.08	26762.86
513.29	27018.85
513.49	26840.68
513.69	26895.97
513.90	26977.89
514.10	27178.59
514.31	27076.19
514.51	27233.89
514.72	26840.68
514.92	27283.04
515.13	27151.97
515.33	27618.91
515.53	27459.16
515.74	27670.11
515.94	27457.12
516.15	27721.30
516.35	27702.87
516.56	27784.79
516.76	27997.78
516.96	27735.64
517.17	28155.47
517.37	27913.81
517.58	27737.69
517.78	28501.58
517.99	28034.64
518.19	28325.46
518.39	28368.46
518.60	28501.58
518.80	28421.71
519.01	28708.43
519.21	28472.91
519.41	28550.73
519.62	28753.48
519.82	28927.56
520.03	29001.29
520.23	28880.46
520.43	28730.95
520.64	28997.19
520.84	29064.77
521.05	28925.51
521.25	29120.07
521.45	29277.76
521.66	29298.24
521.86	29345.34
522.07	29310.53
522.27	29341.25
522.47	29242.95
522.68	29593.15
522.88	29677.12
523.08	30170.68
523.29	29965.88
523.49	29763.13
523.70	29996.60
523.90	30293.55
524.10	30178.87
524.31	30416.43
524.51	29967.93
524.71	30586.41
524.92	30326.32
525.12	30723.63
525.33	30457.39
525.53	30733.87
525.73	31090.21
525.94	30613.04
526.14	30955.05
526.34	30922.28
526.55	30641.71
526.75	31241.76
526.95	31522.34
527.16	31172.13
527.36	31178.28
527.56	31653.40
527.77	31665.69
527.97	31671.84
528.17	31688.22
528.38	31776.28
528.58	31866.39
528.78	31968.79
528.99	32060.95
529.19	32157.21
529.39	31915.54
529.60	32460.30
529.80	32351.76
530.00	32308.76
530.21	32957.96
530.41	32851.47
530.61	32472.59
530.82	32900.62
531.02	33048.07
531.22	32976.39
531.43	32902.67
531.63	33062.41
531.83	33007.11
532.04	33549.82
532.24	33240.58
532.44	33924.60
532.64	33654.27
532.85	34072.06
533.05	33738.24
533.25	33639.93
533.46	33871.36
533.66	34285.04
533.86	34313.72
534.07	34395.64
534.27	34180.60
534.47	34545.14
534.67	34713.07
534.88	34596.34
535.08	34794.99
535.28	35036.65
535.49	35208.68
535.69	35204.58
535.89	35249.64
536.09	34899.44
536.30	35341.80
536.50	35558.88
536.70	35454.44
536.91	35681.76
537.11	35427.81
537.31	35861.98
537.51	35808.73
537.72	36087.26
537.92	36255.19
538.12	36077.02
538.32	36177.37
538.53	36517.33
538.73	36046.30
538.93	36316.63
539.13	36369.88
539.34	36562.39
539.54	36367.83
539.74	36847.05
539.94	36976.08
540.15	36634.06
540.35	37270.98
540.55	37256.65
540.75	37273.03
540.96	37135.82
541.16	37430.72
541.36	37152.20
541.56	37197.26
541.77	37916.09
541.97	37580.23
542.17	38051.26
542.37	37793.22
542.58	37430.72
542.78	37557.70
542.98	37506.50
543.18	38122.94
543.38	38065.60
543.59	38450.61
543.79	38104.51
543.99	37965.24
544.19	38507.96
544.40	38569.40
544.60	38827.44
544.80	38395.32
545.00	38706.61
545.20	38942.13
545.41	38903.21
545.61	38907.31
545.81	38778.29
546.01	39024.04
546.21	38741.42
546.42	38995.37
546.62	39345.58
546.82	38849.97
547.02	39447.97
547.22	39206.31
547.43	39531.94
547.63	39699.87
547.83	39607.72
548.03	39310.76
548.23	39615.91
548.44	39626.15
548.64	39882.14
548.84	39859.62
549.04	39552.42
549.24	40203.67
549.45	40480.15
549.65	40187.29
549.85	40445.33
550.05	40506.77
550.25	39886.24
550.45	40678.80
550.66	40314.26
550.86	40641.94
551.06	40791.44
551.26	40461.72
551.46	40654.23
551.66	40959.38
551.87	40367.51
552.07	40793.49
552.27	40856.98
552.47	41000.33
552.67	41375.11
552.87	41108.88
553.07	41426.31
553.28	41051.53
553.48	41411.98
553.68	41452.94
553.88	41448.84
554.08	41596.29
554.28	41268.62
554.48	41051.53
554.69	41366.92
554.89	41229.71
555.09	41723.27
555.29	41409.93
555.49	41731.46
555.69	42001.79
555.89	41801.09
556.10	41897.34
556.30	41786.75
556.50	41829.76
556.70	41786.75
556.90	42429.82
557.10	41667.97
557.30	41895.30
557.50	41973.12
557.70	42141.05
557.91	42796.40
558.11	41893.25
558.31	42284.41
558.51	42311.03
558.71	42460.54
558.91	42417.53
559.11	42042.75
559.31	42265.98
559.51	42239.36
559.72	43040.11
559.92	42694.00
560.12	42407.29
560.32	42681.72
560.52	42374.52
560.72	42718.58
560.92	42644.85
561.12	42906.99
561.32	42997.10
561.52	42642.81
561.72	43210.09
561.93	43005.30
562.13	42710.39
562.33	42614.13
562.53	43083.12
562.73	42943.86
562.93	43201.90
563.13	43013.49
563.33	42952.05
563.53	43523.43
563.73	43226.48
563.93	43498.86
564.13	43924.83
564.33	43488.62
564.53	43498.86
564.74	44152.16
564.94	43425.13
565.14	43806.05
565.34	43861.35
565.54	43572.58
565.74	43492.71
565.94	44105.06
566.14	43713.89
566.34	43849.06
566.54	44432.73
566.74	43902.31
566.94	44066.14
567.14	44152.16
567.34	43523.43
567.54	44178.78
567.74	43898.21
567.94	43990.37
568.14	44119.39
568.34	44262.75
568.54	44453.21
568.74	44582.23
568.94	43949.41
569.14	44234.08
569.34	44436.83
569.54	44557.66
569.75	43722.08
569.95	44473.69
570.15	44922.19
570.35	44381.53
570.55	44586.33
570.75	44242.27
570.95	44563.80
571.15	44291.42
571.35	44461.40
571.55	44782.93
571.75	44643.67
571.95	44713.30
572.15	44643.67
572.35	45094.22
572.55	44721.49
572.75	44924.24
572.95	45010.26
573.15	45438.28
573.35	45083.98
573.55	44684.63
573.75	44848.47
573.95	45460.81
574.15	45045.07
574.35	45569.35
574.55	45004.11
574.75	45208.91
574.95	45475.15
575.15	44918.10
575.34	45243.73
575.54	45299.02
575.74	45612.36
575.94	45897.03
576.14	45614.41
576.34	45313.36
576.54	45958.47
576.74	45987.14
576.94	45970.75
577.14	45786.44
577.34	46089.54
577.54	45942.08
577.74	46206.27
577.94	46071.10
578.14	45995.33
578.34	46003.52
578.54	45720.90
578.74	46273.85
578.94	46155.07
579.14	46552.38
579.34	45942.08
579.54	46003.52
579.74	46841.14
579.94	46497.08
580.13	46787.89
580.33	46349.63
580.53	46738.74
580.73	46634.30
580.93	46497.08
581.13	46480.70
581.33	46748.98
581.53	47015.22
581.73	47076.66
581.93	47107.38
582.13	47113.52
582.33	46964.02
582.53	46961.97
582.73	47162.67
582.92	46751.03
583.12	47303.98
583.32	47193.39
583.52	46671.16
583.72	47852.84
583.92	47230.26
584.12	47187.25
584.32	48028.96
584.52	47289.65
584.72	47699.24
584.92	47744.30
585.11	48153.89
585.31	47701.29
585.51	47523.11
585.71	47660.33
585.91	48387.36
586.11	47861.03
586.31	47885.61
586.51	48110.88
586.71	48274.72
586.91	48506.14
587.10	48307.49
587.30	48534.81
587.50	48377.12
587.70	48514.33
587.90	48616.73
588.10	48733.46
588.30	48362.78
588.50	48897.30
588.69	48971.03
588.89	48491.80
589.09	48629.02
589.29	48864.53
589.49	48815.38
589.69	48434.46
589.89	48934.17
590.08	49057.04
590.28	48786.71
590.48	49009.94
590.68	48641.31
590.88	48758.04
591.08	48801.05
591.28	48796.95
591.47	48846.10
591.67	49394.96
591.87	49177.87
592.07	49222.93
592.27	49419.53
592.47	49104.15
592.67	48952.60
592.86	49468.69
593.06	49497.36
593.26	49614.09
593.46	49634.57
593.66	49554.70
593.86	49552.65
594.05	49970.44
594.25	49943.81
594.45	49212.69
594.65	49624.33
594.85	49560.84
595.05	49933.57
595.24	50251.01
595.44	50246.91
595.64	50275.58
595.84	49911.05
596.04	49865.99
596.23	50042.12
596.43	50949.37
596.63	50216.19
596.83	50386.18
597.03	50984.18
597.22	50730.23
597.42	50128.13
597.62	50967.80
597.82	50664.70
598.02	50826.49
598.21	51035.38
598.41	50527.48
598.61	50953.46
598.81	50914.55
599.01	50992.37
599.20	51025.14
599.40	50636.03
599.60	51074.29
599.80	51705.07
600.00	51203.31
600.19	51541.23
600.39	51053.81
600.59	51272.95
600.79	51174.64
600.98	51479.79
601.18	51303.67
601.38	51758.31
601.58	51643.63
601.78	51823.85
601.97	51995.88
602.17	52438.24
602.37	52057.32
602.57	52047.08
602.76	52335.84
602.96	52006.12
603.16	51999.97
603.36	52372.70
603.55	52761.82
603.75	52184.29
603.95	52745.44
604.15	52679.90
604.34	52376.80
604.54	52626.65
604.74	52471.01
604.94	52536.54
605.13	52575.45
605.33	53034.20
605.53	52573.41
605.73	53140.69
605.92	52909.27
606.12	53144.79
606.32	52796.63
606.52	53060.82
606.71	53079.25
606.91	53648.59
607.11	53015.77
607.30	53259.48
607.50	53425.36
607.70	53712.08
607.90	53087.45
608.09	53720.27
608.29	53195.99
608.49	53624.01
608.68	53161.17
608.88	53777.61
609.08	53658.83
609.28	53847.24
609.47	53398.74
609.67	53984.46
609.87	53769.42
610.06	54006.98
610.26	54052.04
610.46	53867.72
610.66	53859.53
610.85	53863.63
611.05	53689.55
611.25	53941.45
611.44	53759.18
611.64	54252.74
611.84	53781.71
612.03	54000.84
612.23	54017.22
612.43	54441.15
612.62	53966.02
612.82	53982.41
613.02	54453.44
613.21	54328.52
613.41	54269.12
613.61	54473.92
613.80	53802.19
614.00	54328.52
614.20	54195.40
614.39	54385.86
614.59	54416.58
614.79	54559.94
614.98	54570.18
615.18	54330.56
615.38	54420.67
615.57	54033.61
615.77	54486.21
615.97	54697.15
616.16	54572.22
616.36	54715.58
616.56	54504.64
616.75	54981.82
616.95	54351.04
617.15	54908.09
617.34	54736.06
617.54	54428.87
617.74	54469.82
617.93	54783.16
618.13	54285.51
618.32	54842.56
618.52	54764.73
618.72	54631.61
618.91	54342.85
619.11	54428.87
619.31	54756.54
619.50	54922.43
619.70	54547.65
619.90	54760.64
620.09	54953.15
620.29	54877.37
620.48	54752.44
620.68	55084.22
620.88	54359.23
621.07	55002.30
621.27	54844.60
621.46	54291.65
621.66	54744.25
621.86	54623.42
622.05	54301.89
622.25	55016.63
622.44	54498.50
622.64	54279.36
622.84	54920.38
623.03	54637.76
623.23	54750.40
623.42	54478.02
623.62	54551.74
623.82	55231.67
624.01	54525.12
624.21	54600.89
624.40	54723.77
624.60	54834.36
624.80	54404.29
624.99	54521.02
625.19	54248.64
625.38	54627.52
625.58	54781.12
625.77	54949.05
625.97	55313.59
626.17	54342.85
626.36	54789.31
626.56	54750.40
626.75	54342.85
626.95	55002.30
627.14	54539.46
627.34	55059.64
627.54	54574.27
627.73	54748.35
627.93	54906.04
628.12	54375.62
628.32	54650.05
628.51	54836.41
628.71	54926.52
628.90	54791.36
629.10	54752.44
629.30	54817.98
629.49	54666.43
629.69	54435.01
629.88	54928.57
630.08	54715.58
630.27	54994.10
630.47	55012.54
630.66	55071.93
630.86	55364.79
631.05	54609.09
631.25	55006.39
631.44	55071.93
631.64	54678.72
631.84	54981.82
632.03	55411.89
632.23	55051.45
632.42	55401.65
632.62	55018.68
632.81	54891.71
633.01	54975.67
633.20	55303.35
633.40	55213.24
633.59	55096.50
633.79	54951.10
633.98	55248.05
634.18	55162.04
634.37	55225.53
634.57	55182.52
634.76	55168.18
634.96	55243.96
635.15	54889.66
635.35	54809.79
635.54	55112.89
635.74	55225.53
635.93	54924.47
636.13	55020.73
636.32	55375.03
636.52	54748.35
636.71	55110.84
636.91	55182.52
637.10	55082.17
637.30	55184.57
637.49	55360.69
637.69	54807.74
637.88	55203.00
638.08	55041.21
638.27	55190.71
638.46	54875.32
638.66	54828.22
638.85	54990.01
639.05	55121.08
639.24	55538.86
639.44	55006.39
639.63	55139.51
639.83	55172.28
640.02	55078.07
640.22	55147.70
640.41	54926.52
640.61	54711.49
640.80	55209.14
640.99	55213.24
641.19	55379.12
641.38	54992.06
641.58	54953.15
641.77	54844.60
641.97	54736.06
642.16	55297.20
642.36	55473.33
642.55	55739.57
642.74	54883.51
642.94	55764.14
643.13	55319.73
643.33	55815.34
643.52	55243.96
643.72	55575.73
643.91	55106.74
644.10	55635.12
644.30	55809.20
644.49	55448.75
644.69	55610.54
644.88	55768.24
645.08	55383.22
645.27	55557.30
645.46	55534.77
645.66	55641.26
645.85	55614.64
646.05	55772.33
646.24	55399.60
646.43	55514.29
646.63	55862.44
646.82	55727.28
647.02	55434.42
647.21	55407.79
647.40	55809.20
647.60	55651.50
647.79	55571.63
647.99	55684.27
648.18	55178.42
648.37	56118.44
648.57	55323.83
648.76	55612.59
648.96	55624.88
649.15	55874.73
649.34	55891.12
649.54	55665.84
649.73	55293.11
649.92	55620.78
650.12	55604.40
650.31	55690.41
650.51	55657.65
650.70	55665.84
650.89	55655.60
651.09	56226.98
651.28	55991.47
651.47	55798.96
651.67	55891.12
651.86	56313.00
652.06	55678.13
652.25	55762.09
652.44	55794.86
652.64	55581.87
652.83	55739.57
653.02	55817.39
653.22	56347.81
653.41	55700.65
653.60	55313.59
653.80	55358.64
653.99	55884.97
654.18	55641.26
654.38	55837.87
654.57	55735.47
654.76	55712.94
654.96	55579.82
655.15	55993.51
655.34	55575.73
655.54	55270.58
655.73	55547.06
655.92	55997.61
656.12	55801.00
656.31	55878.83
656.50	55868.59
656.70	55700.65
656.89	55448.75
657.08	55735.47
657.28	55708.85
657.47	55762.09
657.66	55989.42
657.86	56001.71
658.05	55592.11
658.24	56151.21
658.43	55258.29
658.63	56249.51
658.82	56136.87
659.01	55696.56
659.21	55973.03
659.40	55778.48
659.59	55817.39
659.79	56120.49
659.98	56069.29
660.17	55964.84
660.36	56067.24
660.56	56149.16
660.75	56122.54
660.94	55934.12
661.14	55805.10
661.33	55893.16
661.52	55436.47
661.71	56069.29
661.91	55809.20
662.10	55856.30
662.29	55919.79
662.49	56032.42
662.68	55960.75
662.87	56034.47
663.06	56276.13
663.26	56026.28
663.45	56177.83
663.64	55768.24
663.83	56132.78
664.03	56272.04
664.22	55948.46
664.41	55919.79
664.60	55792.81
664.80	56024.23
664.99	55628.98
665.18	56079.53
665.37	55870.64
665.57	55977.13
665.76	55604.40
665.95	56122.54
666.14	56018.09
666.34	55796.91
666.53	55999.66
666.72	55999.66
666.91	56110.25
667.11	55989.42
667.30	55968.94
667.49	55403.70
667.68	55712.94
667.87	55731.37
668.07	55891.12
668.26	55895.21
668.45	56075.43
668.64	55803.05
668.84	56120.49
669.03	55764.14
669.22	55565.49
669.41	55868.59
669.60	55678.13
669.80	55305.40
669.99	56022.19
670.18	55647.41
670.37	55901.36
670.57	56497.31
670.76	55653.55
670.95	56188.07
671.14	56190.12
671.33	55389.36
671.53	56407.20
671.72	56048.81
671.91	55682.22
672.10	55911.59
672.29	55792.81
672.48	55573.68
672.68	56009.90
672.87	55432.37
673.06	56065.19
673.25	55448.75
673.44	55555.25
673.64	55809.20
673.83	56411.30
674.02	56226.98
674.21	55600.30
674.40	56132.78
674.59	55637.17
674.79	55934.12
674.98	55807.15
675.17	55766.19
675.36	55307.44
675.55	55841.96
675.74	55678.13
675.94	56134.82
676.13	55833.77
676.32	55714.99
676.51	55700.65
676.70	55893.16
676.89	56186.02
677.08	55866.54
677.28	55635.12
677.47	56165.54
677.66	55932.07
677.85	55768.24
678.04	56018.09
678.23	55841.96
678.42	55768.24
678.62	56026.28
678.81	55827.63
679.00	55891.12
679.19	55903.40
679.38	55790.76
679.57	55717.04
679.76	55782.57
679.96	55755.95
680.15	55764.14
680.34	55735.47
680.53	55682.22
680.72	55856.30
680.91	55895.21
681.10	55792.81
681.29	55727.28
681.48	55418.03
681.68	55948.46
681.87	55530.67
682.06	55671.98
682.25	55338.16
682.44	55387.31
682.63	55551.15
682.82	55542.96
683.01	55854.25
683.20	55301.30
683.39	55727.28
683.59	55727.28
683.78	55211.19
683.97	55260.34
684.16	55489.71
684.35	55532.72
684.54	55579.82
684.73	55274.68
684.92	55600.30
685.11	55538.86
685.30	55141.56
685.49	56104.10
685.69	55377.08
685.88	55776.43
686.07	55116.98
686.26	55399.60
686.45	55553.20
686.64	55411.89
686.83	55303.35
687.02	55227.57
687.21	55588.02
687.40	55579.82
687.59	55555.25
687.78	55473.33
687.97	55254.20
688.16	55819.44
688.35	54910.14
688.54	55002.30
688.74	55571.63
688.93	55133.37
689.12	54932.67
689.31	55549.10
689.50	55510.19
689.69	54725.82
689.88	54480.06
690.07	55182.52
690.26	54987.96
690.45	55305.40
690.64	55139.51
690.83	55110.84
691.02	54680.77
691.21	54977.72
691.40	55149.75
691.59	55395.51
691.78	55059.64
691.97	54912.19
692.16	55211.19
692.35	55323.83
692.54	54650.05
692.73	54736.06
692.92	54895.80
693.11	55082.17
693.30	54940.86
693.49	55086.26
693.68	54998.20
693.87	54467.78
694.06	54637.76
694.25	54975.67
694.44	54418.63
694.63	54723.77
694.82	54836.41
695.01	54793.40
695.20	54854.84
695.39	54602.94
695.58	54727.87
695.77	54475.97
695.96	54213.83
696.15	54482.11
696.34	54170.82
696.53	54656.19
696.72	54920.38
696.91	54357.19
697.10	54400.19
697.29	54351.04
697.48	54613.18
697.67	54275.27
697.86	54006.98
698.05	53994.70
698.24	54602.94
698.43	53955.78
698.62	54510.78
698.81	54185.16
699.00	54465.73
699.19	54105.29
699.38	54432.96
699.57	53693.64
699.76	54650.05
699.95	54066.38
700.14	53669.07
700.32	53896.39
700.51	53861.58
700.70	54525.12
700.89	53855.43
701.08	54088.90
701.27	53925.07
701.46	54009.03
701.65	53701.84
701.84	54090.95
702.03	54099.14
702.22	53863.63
702.41	53769.42
702.60	53941.45
702.79	53443.79
702.98	53824.71
703.17	53843.15
703.35	53572.81
703.54	53621.97
703.73	53765.32
703.92	53830.86
704.11	54039.75
704.30	53468.37
704.49	53658.83
704.68	53390.55
704.87	53640.40
705.06	53675.21
705.25	53425.36
705.43	53107.93
705.62	53941.45
705.81	53390.55
706.00	53615.82
706.19	53046.49
706.38	53038.29
706.57	53462.22
706.76	53195.99
706.95	53294.29
707.14	53486.80
707.32	52909.27
707.51	52921.56
707.70	52962.52
707.89	52716.76
708.08	53044.44
708.27	52831.45
708.46	53325.01
708.65	52655.32
708.84	53511.38
709.02	52888.79
709.21	52939.99
709.40	53130.45
709.59	53009.62
709.78	52815.07
709.97	52870.36
710.16	52597.98
710.34	52827.35
710.53	52839.64
710.72	52352.23
710.91	52350.18
711.10	53052.63
711.29	52874.46
711.48	52247.78
711.66	52921.56
711.85	52327.65
712.04	53050.58
712.23	52690.14
712.42	52319.46
712.61	52552.93
712.80	52520.16
712.98	52387.04
713.17	52149.48
713.36	52610.27
713.55	52436.19
713.74	52270.31
713.93	52047.08
714.11	52204.77
714.30	51905.77
714.49	51991.78
714.68	51926.25
714.87	52192.48
715.06	52210.92
715.24	52075.75
715.43	51530.99
715.62	51377.39
715.81	51510.51
716.00	51686.64
716.18	51680.49
716.37	51584.24
716.56	51617.00
716.75	51864.81
716.94	51547.37
717.12	51389.68
717.31	51586.28
717.50	51197.17
717.69	51660.01
717.88	51653.87
718.06	51318.00
718.25	51193.07
718.44	51215.60
718.63	51485.93
718.82	51432.69
719.00	51082.48
719.19	51254.51
719.38	50838.78
719.57	50758.91
719.76	50922.74
719.94	50527.48
720.13	50509.05
720.32	50719.99
720.51	50584.83
720.69	50691.32
720.88	50672.89
721.07	50498.81
721.26	50169.09
721.44	50218.24
721.63	50259.20
721.82	50162.95
722.01	50189.57
722.20	50253.06
722.38	49749.26
722.57	49648.91
722.76	50289.92
722.95	49913.09
723.13	49835.27
723.32	49839.37
723.51	49786.12
723.70	49143.06
723.88	49599.76
724.07	49595.66
724.26	49253.65
724.44	49288.46
724.63	49909.00
724.82	49374.48
725.01	49149.20
725.19	49571.08
725.38	49247.50
725.57	49329.42
725.76	49368.33
725.94	48952.60
726.13	48940.31
726.32	49052.95
726.51	48825.62
726.69	48985.36
726.88	49204.50
727.07	49011.99
727.25	49366.29
727.44	48483.61
727.63	48751.90
727.82	48874.77
728.00	48946.45
728.19	48604.44
728.38	48893.21
728.56	48395.55
728.75	49220.88
728.94	48379.17
729.12	49136.91
729.31	48729.37
729.50	48866.58
729.69	48696.60
729.87	48866.58
730.06	48411.93
730.25	48895.25
730.43	48872.73
730.62	48725.27
730.81	48729.37
730.99	48444.70
731.18	48172.32
731.37	48653.59
731.55	48846.10
731.74	48856.34
731.93	48420.13
732.11	48880.92
732.30	48301.34
732.49	48237.86
732.67	48178.46
732.86	48157.99
733.05	48555.29
733.23	48063.78
733.42	48321.82
733.61	48330.01
733.79	48157.99
733.98	48674.07
734.17	48082.21
734.35	48522.52
734.54	48076.07
734.73	48411.93
734.91	48176.42
735.10	47951.14
735.29	48244.00
735.47	47519.02
735.66	48092.45
735.84	48012.58
736.03	47908.13
736.22	48264.48
736.40	47869.22
736.59	47809.83
736.78	48125.22
736.96	48024.87
737.15	48235.81
737.33	47775.02
737.52	47619.37
737.71	47672.62
737.89	47725.86
738.08	47435.05
738.27	47660.33
738.45	47756.58
738.64	47533.35
738.82	47574.31
739.01	47420.72
739.20	47117.62
739.38	47729.96
739.57	47691.05
739.75	47478.06
739.94	47467.82
740.13	47455.53
740.31	47260.97
740.50	47162.67
740.68	47103.28
740.87	47283.50
741.06	47406.38
741.24	47035.70
741.43	47068.47
741.61	46974.26
741.80	46648.63
741.99	46888.24
742.17	46986.55
742.36	46636.34
742.54	46589.24
742.73	46992.69
742.91	46951.73
743.10	46998.83
743.29	46785.85
743.47	47002.93
743.66	46640.44
743.84	46740.79
744.03	47211.82
744.21	46505.27
744.40	47045.94
744.59	46452.03
744.77	46204.22
744.96	46314.81
745.14	46564.67
745.33	46562.62
745.51	45780.29
745.70	46085.44
745.88	45837.64
746.07	45915.46
746.26	45659.46
746.44	46032.19
746.63	45765.96
746.81	46110.02
747.00	45835.59
747.18	46105.92
747.37	45542.73
747.55	45980.99
747.74	46024.00
747.92	45559.11
748.11	45481.29
748.29	45841.73
748.48	45890.88
748.66	45479.24
748.85	45573.45
749.03	45479.24
749.22	45489.48
749.41	45405.52
749.59	45753.67
749.78	45831.49
749.96	45460.81
750.15	45192.53
750.33	45462.86
750.52	45434.19
750.70	45380.94
750.89	45249.87
751.07	45045.07
751.26	44881.24
751.44	45032.78
751.63	44868.95
751.81	44666.20
752.00	44463.45
752.18	45032.78
752.37	45233.49
752.55	44682.58
752.74	44701.01
752.92	44811.60
753.10	44359.00
753.29	45077.84
753.47	44627.29
753.66	44221.79
753.84	44965.20
754.03	44660.05
754.21	44469.59
754.40	44903.76
754.58	44934.48
754.77	44387.67
754.95	43973.98
755.14	44467.55
755.32	44242.27
755.51	43963.75
755.69	44078.43
755.88	44569.94
756.06	44045.66
756.24	44244.32
756.43	44103.01
756.61	43832.68
756.80	43783.52
756.98	43865.44
757.17	43851.11
757.35	44062.05
757.54	43857.25
757.72	43734.37
757.90	43642.21
758.09	43799.91
758.27	43556.20
758.46	43214.19
758.64	43736.42
758.83	43523.43
759.01	43634.02
759.19	43783.52
759.38	43715.94
759.56	43619.69
759.75	43431.27
759.93	43279.72
760.12	43246.96
760.30	43144.56
760.48	43025.78
760.67	43482.47
760.85	43410.79
761.04	43392.36
761.22	43666.79
761.40	42923.38
761.59	43033.97
761.77	43015.54
761.96	42786.16
762.14	42308.99
762.32	42728.82
762.51	42687.86
762.69	42943.86
762.88	42495.35
763.06	42966.38
763.24	42853.75
763.43	42937.71
763.61	42800.50
763.80	42679.67
763.98	42440.06
764.16	42169.72
764.35	42329.47
764.53	41840.00
764.72	42456.44
764.90	42204.54
765.08	42335.61
765.27	42055.04
765.45	42241.40
765.63	41633.16
765.82	41969.02
766.00	41532.81
766.18	41825.67
766.37	41952.64
766.55	41723.27
766.74	41942.40
766.92	41735.56
767.10	41446.79
767.29	41532.81
767.47	41270.67
767.65	41608.58
767.84	41051.53
768.02	41842.05
768.20	41258.38
768.39	41811.33
768.57	41155.98
768.75	41321.87
768.94	41264.52
769.12	40770.96
769.30	41110.92
769.49	41383.30
769.67	40891.79
769.85	40801.68
770.04	40940.94
770.22	40625.56
770.40	40940.94
770.59	40607.12
770.77	41033.10
770.95	40969.61
771.14	40314.26
771.32	40629.65
771.50	40506.77
771.69	40383.90
771.87	40459.67
772.05	40431.00
772.24	40039.84
772.42	40365.46
772.60	40160.67
772.78	40449.43
772.97	40336.79
773.15	40566.16
773.33	40428.95
773.52	40428.95
773.70	40244.63
773.88	40355.22
774.07	39763.36
774.25	40162.72
774.43	40252.83
774.61	40338.84
774.80	40191.39
774.98	39824.80
775.16	40330.65
775.34	40189.34
775.53	40258.97
775.71	40412.57
775.89	40295.83
776.08	40342.94
776.26	40207.77
776.44	40471.96
776.62	39998.88
776.81	39669.15
776.99	40045.98
777.17	40363.42
777.35	40555.93
777.54	40807.83
777.72	39947.68
777.90	40357.27
778.08	40326.55
778.27	40457.62
778.45	40375.70
778.63	40541.59
778.81	40369.56
779.00	41002.38
779.18	40629.65
779.36	41074.06
779.54	40451.48
779.73	40928.66
779.91	41010.57
780.09	40986.00
780.27	40600.98
780.46	40973.71
780.64	40977.81
780.82	40449.43
781.00	40883.60
781.19	40883.60
781.37	41110.92
781.55	41170.32
781.73	41588.10
781.91	40801.68
782.10	40990.09
782.28	40795.54
782.46	41260.43
782.64	41266.57
782.82	41063.82
783.01	41463.18
783.19	41721.22
783.37	41760.13
783.55	41586.05
783.74	41702.79
783.92	41305.48
784.10	41438.60
784.28	41172.36
784.46	40959.38
784.64	41055.63
784.83	41416.07
785.01	41414.02
785.19	40709.52
785.37	41297.29
785.55	41211.28
785.74	40629.65
785.92	41452.94
786.10	41176.46
786.28	41162.12
786.46	40955.28
786.64	41084.30
786.83	41301.39
787.01	40986.00
787.19	41016.72
787.37	41024.91
787.55	41076.11
787.74	40666.52
787.92	40920.46
788.10	40658.32
788.28	40656.28
788.46	40371.61
788.64	40314.26
788.82	41170.32
789.01	40580.50
789.19	39783.84
789.37	40240.54
789.55	40308.12
789.73	40031.65
789.91	40074.65
790.09	40105.37
790.28	40191.39
790.46	39935.39
790.64	40357.27
790.82	39849.38
791.00	39812.51
791.18	39413.16
791.36	39728.55
791.55	39681.44
791.73	39445.93
791.91	39443.88
792.09	39331.24
792.27	39595.43
792.45	39689.63
792.63	39353.77
792.81	39490.98
793.00	39765.41
793.18	38978.99
793.36	39073.20
793.54	38802.86
793.72	39040.43
793.90	38925.74
794.08	38954.41
794.26	38800.82
794.44	38655.41
794.62	38442.42
794.81	38895.02
794.99	38565.30
795.17	38524.34
795.35	38319.54
795.53	38817.20
795.71	38450.61
795.89	38305.21
796.07	37662.15
796.25	37934.53
796.43	37662.15
796.61	37617.09
796.80	37600.71
796.98	37725.63
797.16	37463.49
797.34	37797.31
797.52	37266.89
797.70	37500.36
797.88	37465.54
798.06	37445.06
798.24	37109.19
798.42	37107.15
798.60	37033.42
798.78	36871.63
798.96	36658.64
799.14	36881.87
799.32	36597.20
799.51	36277.72
799.69	36912.59
799.87	36722.13
800.05	36689.36
800.23	36728.27
800.41	36281.81
800.59	36433.36
800.77	36365.78
800.95	35988.95
801.13	36142.55
801.31	35722.72
801.49	35829.21
801.67	35784.16
801.85	35800.54
802.03	35632.61
802.21	35382.76
802.39	35313.13
802.57	35786.21
802.75	35288.55
802.93	35429.86
803.11	35415.52
803.29	35182.06
803.47	34958.83
803.65	35057.13
803.83	34764.27
804.01	35182.06
804.19	34467.31
804.37	34661.87
804.55	34573.81
804.73	34575.86
804.91	34747.89
805.09	34657.78
805.27	34590.19
805.45	34674.16
805.63	34332.15
805.81	34559.47
805.99	34231.80
806.17	34264.57
806.35	34260.47
806.53	33596.93
806.71	33881.60
806.89	33775.10
807.07	33789.44
807.25	33924.60
807.43	33891.83
807.61	34033.14
807.79	33678.85
807.97	33349.12
808.15	33373.70
808.33	33332.74
808.51	33297.92
808.69	33265.16
808.87	32953.87
809.05	33048.07
809.23	32882.19
809.41	32712.20
809.59	32749.07
809.77	32826.89
809.95	32593.42
810.13	32568.85
810.31	32773.64
810.49	32785.93
810.67	32628.24
810.84	32540.18
811.02	32845.32
811.20	32304.66
811.38	32400.91
811.56	32101.91
811.74	32247.32
811.92	32026.14
812.10	32095.77
812.28	32329.23
812.46	32071.19
812.64	31868.44
812.82	31766.04
813.00	31983.13
813.18	31954.46
813.36	31622.69
813.53	31501.86
813.71	31493.66
813.89	31583.77
814.07	31440.42
814.25	31612.45
814.43	31444.51
814.61	31338.02
814.79	31233.57
814.97	31057.45
815.15	31190.56
815.33	30953.00
815.50	31247.91
815.68	31114.79
815.86	31006.25
816.04	31260.20
816.22	30672.43
816.40	30971.43
816.58	30520.88
816.76	30508.59
816.94	30582.32
817.11	30649.90
817.29	30787.11
817.47	30541.36
817.65	30713.39
817.83	30162.48
818.01	30103.09
818.19	30051.89
818.37	29799.99
818.54	29746.75
818.72	29894.20
818.90	30187.06
819.08	29947.45
819.26	30195.25
819.44	29881.91
819.62	30002.74
819.80	30119.48
819.97	30017.08
820.15	29875.77
820.33	29691.45
820.51	29740.60
820.69	29433.41
820.87	29693.50
821.05	29634.11
821.22	29744.70
821.40	29449.79
821.58	29376.06
821.76	29294.14
821.94	29546.05
822.12	28862.02
822.29	29656.64
822.47	29081.16
822.65	29466.17
822.83	29034.05
823.01	29009.48
823.19	29023.81
823.36	28565.07
823.54	28814.92
823.72	28984.90
823.90	28520.01
824.08	28663.37
824.25	28841.54
824.43	28372.56
824.61	28577.36
824.79	28702.28
824.97	28374.61
825.15	28704.33
825.32	28606.03
825.50	28565.07
825.68	28194.39
825.86	28663.37
826.04	28524.11
826.21	28272.21
826.39	28149.33
826.57	28360.27
826.75	28247.63
826.93	28091.99
827.10	28016.21
827.28	28274.26
827.46	28399.18
827.64	27962.97
827.81	27854.42
827.99	28317.26
828.17	28001.88
828.35	27510.36
828.53	27668.06
828.70	27571.80
828.88	27864.66
829.06	27797.08
829.24	28053.08
829.41	27375.20
829.59	27909.72
829.77	27649.63
829.95	27571.80
830.12	27252.32
830.30	27479.64
830.48	27700.83
830.66	27192.93
830.84	27174.50
831.01	27426.40
831.19	27508.32
831.37	27180.64
831.55	27004.52
831.72	26969.70
831.90	27305.57
832.08	27301.47
832.25	27205.22
832.43	27297.38
832.61	27029.09
832.79	26855.01
832.96	27108.96
833.14	26879.59
833.32	26779.24
833.50	27170.40
833.67	26803.82
833.85	26805.86
834.03	26433.13
834.20	26549.87
834.38	26836.58
834.56	26582.63
834.74	26416.75
834.91	26433.13
835.09	26619.50
835.27	26459.76
835.44	26334.83
835.62	25831.03
835.80	26332.78
835.98	26156.66
836.15	26265.20
836.33	26187.38
836.51	26252.91
836.68	25966.20
836.86	25988.72
837.04	25929.33
837.21	26359.41
837.39	26084.98
837.57	26164.85
837.75	25986.68
837.92	25673.34
838.10	25712.25
838.28	25409.15
838.45	26025.59
838.63	25675.38
838.81	25671.29
838.98	25656.95
839.16	25290.37
839.34	25458.30
839.51	25656.95
839.69	25110.14
839.87	25828.98
840.04	25368.19
840.22	25300.61
840.40	25331.33
840.57	25222.78
840.75	25730.68
840.93	25153.15
841.10	25243.26
841.28	25296.51
841.46	25165.44
841.63	25546.36
841.81	25253.50
841.98	25355.90
842.16	25261.69
842.34	25153.15
842.51	25038.47
842.69	25355.90
842.87	25028.23
843.04	24874.63
843.22	24745.61
843.40	24557.19
843.57	24655.50
843.75	25003.65
843.92	24985.22
844.10	24860.29
844.28	24659.59
844.45	24778.37
844.63	24581.77
844.81	24557.19
844.98	24786.57
845.16	24485.51
845.33	24821.38
845.51	24301.20
845.69	24669.83
845.86	24481.42
846.04	24419.98
846.21	24575.62
846.39	24215.18
846.57	23961.23
846.74	24272.53
846.92	24434.32
847.09	24225.42
847.27	23950.99
847.45	24086.16
847.62	24192.65
847.80	23817.88
847.97	23873.17
848.15	23781.01
848.32	23832.21
848.50	24002.19
848.68	23983.76
848.85	23735.96
849.03	23789.20
849.20	23781.01
849.38	23893.65
849.56	23709.33
849.73	23572.12
849.91	23787.16
850.08	23522.97
850.26	23418.52
850.43	23287.45
850.61	23617.18
850.78	23125.66
850.96	23297.69
851.14	23277.21
851.31	23592.60
851.49	23357.08
851.66	23637.66
851.84	23275.16
852.01	23371.42
852.19	23307.93
852.36	23000.74
852.54	23242.40
852.71	23291.55
852.89	22814.37
853.07	23240.35
853.24	22703.78
853.42	22830.76
853.59	22826.66
853.77	22767.27
853.94	22851.24
854.12	22974.11
854.29	22490.79
854.47	22824.61
854.64	22619.81
854.82	22656.68
854.99	22685.35
855.17	22625.96
855.34	22628.01
855.52	22494.89
855.69	22595.24
855.87	22437.55
856.04	22288.04
856.22	22398.63
856.39	22101.68
856.57	22449.83
856.74	22431.40
856.92	22326.96
857.09	22345.39
857.27	22343.34
857.44	22329.00
857.62	22107.82
857.79	22083.25
857.97	22472.36
858.14	21989.04
858.32	22144.69
858.49	22113.97
858.67	21903.03
858.84	21941.94
859.02	21952.18
859.19	21814.96
859.37	21999.28
859.54	21604.02
859.72	21792.44
859.89	21669.56
860.06	21714.61
860.24	21454.52
860.41	21782.20
860.59	21499.58
860.76	21835.44
860.94	21669.56
861.11	21663.41
861.29	21395.13
861.46	21520.06
861.64	21294.78
861.81	21595.83
861.98	21386.94
862.16	21247.68
862.33	21161.66
862.51	21374.65
862.68	21253.82
862.86	21225.15
863.03	21292.73
863.21	21270.20
863.38	20838.08
863.55	21180.09
863.73	20766.40
863.90	21243.58
864.08	20651.72
864.25	20897.47
864.43	20899.52
864.60	20803.27
864.77	20870.85
864.95	21022.40
865.12	20819.65
865.30	20809.41
865.47	20967.10
865.64	20776.64
865.82	20778.69
865.99	20831.94
866.17	20270.79
866.34	20694.72
866.51	20158.16
866.69	20522.69
866.86	20481.74
867.04	20743.88
867.21	20395.72
867.38	20377.29
867.56	20311.75
867.73	20086.48
867.91	20258.51
868.08	20334.28
868.25	20123.34
868.43	19982.03
868.60	20334.28
868.78	20092.62
868.95	20156.11
869.12	20326.09
869.30	20082.38
869.47	20047.57
869.64	19863.25
869.82	20182.73
869.99	19916.50
870.16	19920.59
870.34	19642.07
870.51	20080.33
870.69	19439.32
870.86	19787.47
871.03	19939.02
871.21	19545.81
871.38	19621.59
871.55	19508.95
871.73	19341.02
871.90	19336.92
872.07	19367.64
872.25	19091.16
872.42	19478.23
872.59	19011.29
872.77	19234.52
872.94	19283.67
873.11	19101.40
873.29	19031.77
873.46	18700.00
873.63	18931.42
873.81	18925.28
873.98	18794.21
874.15	19029.73
874.33	18843.36
874.50	18743.01
874.67	18591.46
874.85	18927.33
875.02	18712.29
875.19	18286.31
875.37	18519.78
875.54	18761.44
875.71	18566.88
875.88	18329.32
876.06	18292.46
876.23	18437.86
876.40	18456.29
876.58	18231.02
876.75	18331.37
876.92	18446.05
877.10	18153.20
877.27	18138.86
877.44	18042.60
877.61	18138.86
877.79	17884.91
877.96	18013.93
878.13	18018.03
878.31	17975.02
878.48	18061.04
878.65	17802.99
878.82	17948.40
879.00	17620.72
879.17	17817.33
879.34	17563.38
879.51	17481.46
879.69	17491.70
879.86	17514.23
880.03	17508.08
880.21	17252.09
880.38	17485.56
880.55	17647.35
880.72	17397.49
880.90	17456.89
881.07	17309.43
881.24	17219.32
881.41	17436.41
881.59	17323.77
881.76	17133.31
881.93	17078.01
882.10	16942.85
882.28	17129.21
882.45	17389.30
882.62	17084.16
882.79	17319.67
882.96	16977.66
883.14	17053.44
883.31	17135.35
883.48	16772.86
883.65	17338.10
883.83	17061.63
884.00	17139.45
884.17	16971.52
884.34	17014.52
884.51	17035.00
884.69	16860.93
884.86	16944.89
885.03	17022.72
885.20	16588.55
885.38	16783.10
885.55	16416.52
885.72	16727.81
885.89	16396.04
886.06	16666.37
886.24	16635.65
886.41	16660.23
886.58	16711.42
886.75	16776.96
886.92	16391.94
887.10	16563.97
887.27	16178.95
887.44	16475.91
887.61	16713.47
887.78	16529.16
887.95	16588.55
888.13	16570.12
888.30	16060.17
888.47	16201.48
888.64	16211.72
888.81	16260.87
888.99	16058.12
889.16	16017.16
889.33	15939.34
889.50	15947.53
889.67	15972.11
889.84	15783.70
890.01	16158.47
890.19	15951.63
890.36	15990.54
890.53	15822.61
890.70	15738.64
890.87	15746.83
891.04	15681.30
891.22	15718.16
891.39	15849.23
891.56	15859.47
891.73	15636.24
891.90	15716.11
892.07	15515.41
892.24	15666.96
892.42	15640.34
892.59	15591.19
892.76	15384.34
892.93	15626.00
893.10	15351.57
893.27	15566.61
893.44	15380.25
893.61	15253.27
893.79	15642.39
893.96	15337.24
894.13	15353.62
894.30	15216.41
894.47	15376.15
894.64	15396.63
894.81	15275.80
894.98	15417.11
895.15	15458.07
895.33	15341.33
895.50	14931.74
895.67	15427.35
895.84	15210.26
896.01	15230.74
896.18	14948.12
896.35	15474.45
896.52	15273.75
896.69	15175.45
896.86	15157.02
897.04	15200.02
897.21	15195.93
897.38	15001.37
897.55	15025.95
897.72	15390.49
897.89	15095.58
898.06	15146.78
898.23	15294.23
898.40	14962.46
898.57	15138.58
898.74	15052.57
898.91	14921.50
899.08	15030.04
899.26	14933.79
899.43	15122.20
899.60	15214.36
899.77	15236.89
899.94	14935.84
900.11	15001.37
900.28	14935.84
900.45	14864.16
900.62	14862.11
900.79	15130.39
900.96	15011.61
901.13	15189.78
901.30	15142.68
901.47	14919.45
901.64	15083.29
901.81	14898.97
901.98	14958.36
902.15	15128.35
902.32	14821.15
902.49	15007.52
902.66	14937.88
902.83	15191.83
903.01	14819.10
903.18	15075.10
903.35	14866.21
903.52	14958.36
903.69	14972.70
903.86	14968.60
904.03	14862.11
904.20	14892.83
904.37	15187.74
904.54	15068.95
904.71	15109.91
904.88	14933.79
905.05	14991.13
905.22	15163.16
905.39	14993.18
905.56	14921.50
905.73	14821.15
905.90	15193.88
906.07	14954.27
906.24	15085.34
906.41	14880.54
906.58	15138.58
906.75	14743.33
906.92	14913.31
907.09	14788.38
907.26	14972.70
907.43	14733.09
907.60	14788.38
907.77	14675.74
907.93	14837.53
908.10	14765.85
908.27	14939.93
908.44	14827.29
908.61	14862.11
908.78	14874.40
908.95	14835.49
909.12	14839.58
909.29	14751.52
909.46	14677.79
909.63	14614.30
909.80	14726.94
909.97	14806.81
910.14	14685.98
910.31	14749.47
910.48	14694.18
910.65	14653.22
910.82	14690.08
910.99	14778.14
911.16	14679.84
911.33	14554.91
911.50	14288.68
911.66	14724.90
911.83	14688.03
912.00	14290.73
912.17	14354.21
912.34	14221.10
912.51	14530.34
912.68	14210.86
912.85	14331.69
913.02	14481.19
913.19	14272.29
913.36	14341.93
913.53	14452.52
913.70	14337.83
913.86	14255.91
914.03	14403.36
914.20	14126.89
914.37	14196.52
914.54	13979.43
914.71	14364.45
914.88	13995.82
915.05	14012.20
915.22	13895.47
915.39	13784.88
915.55	14110.50
915.72	14018.35
915.89	13903.66
916.06	13791.02
916.23	13623.09
916.40	13778.73
916.57	13782.83
916.74	13657.90
916.91	13631.28
917.07	13594.42
917.24	13551.41
917.41	13422.39
917.58	13713.20
917.75	13373.24
917.92	13414.20
918.09	13645.62
918.26	13578.03
918.42	13672.24
918.59	13500.21
918.76	13387.57
918.93	13127.48
919.10	13197.11
919.27	13387.57
919.44	13094.71
919.60	13440.82
919.77	13068.09
919.94	12869.44
920.11	13080.38
920.28	13098.81
920.45	12914.49
920.61	12744.51
920.78	13043.51
920.95	12816.19
921.12	12773.18
921.29	12554.05
921.46	12517.18
921.62	12703.55
921.79	12853.05
921.96	12334.92
922.13	12451.65
922.30	12365.64
922.47	12408.64
922.63	12371.78
922.80	12386.12
922.97	12152.65
923.14	12152.65
923.31	12410.69
923.47	12076.87
923.64	12521.28
923.81	11984.71
923.98	12382.02
924.15	11906.89
924.32	12068.68
924.48	12267.33
924.65	12076.87
924.82	11792.20
924.99	11689.81
925.15	11661.13
925.32	11753.29
925.49	11489.10
925.66	11810.64
925.83	11652.94
925.99	11294.55
926.16	11519.82
926.33	11704.14
926.50	11503.44
926.67	11583.31
926.83	11401.04
927.00	11329.36
927.17	11235.16
927.34	11073.37
927.50	11165.53
927.67	11235.16
927.84	11134.81
928.01	11091.80
928.17	11149.14
928.34	11036.50
928.51	10899.29
928.68	10796.89
928.84	10798.94
929.01	10657.63
929.18	10678.11
929.35	10737.50
929.51	10725.21
929.68	10436.45
929.85	10710.88
930.02	10631.01
930.18	10426.21
930.35	10428.26
930.52	10463.07
930.69	10682.20
930.85	10262.37
931.02	10344.29
931.19	10274.66
931.36	10024.81
931.52	10207.08
931.69	10225.51
931.86	10202.98
932.02	10047.33
932.19	10096.49
932.36	10018.66
932.53	10033.00
932.69	9795.43
932.86	9924.46
933.03	9693.04
933.19	9758.57
933.36	9799.53
933.53	9670.51
933.70	9500.53
933.86	9600.88
934.03	9588.59
934.20	9375.60
934.36	9242.48
934.53	9076.60
934.70	9131.89
934.86	9172.85
935.03	9246.58
935.20	9062.26
935.36	9004.92
935.53	8984.44
935.70	8867.70
935.86	8732.54
936.03	8507.26
936.20	8552.32
936.36	8572.80
936.53	8591.23
936.70	8425.34
936.86	8554.37
937.03	8370.05
937.20	8177.54
937.36	8200.07
937.53	7993.22
937.70	7964.55
937.86	7831.43
938.03	7755.66
938.20	7800.71
938.36	7530.38
938.53	7657.36
938.70	7434.13
938.86	7520.14
939.03	7284.62
939.20	7278.48
939.36	7108.50
939.53	7137.17
939.70	7366.54
939.86	7004.05
940.03	7034.77
940.19	6674.33
940.36	6850.46
940.53	6799.26
940.69	6621.08
940.86	6741.91
941.03	6516.64
941.19	6512.54
941.36	6373.28
941.52	6408.09
941.69	6274.98
941.86	6121.38
942.02	6254.50
942.19	6139.81
942.35	6201.25
942.52	5965.73
942.69	6018.98
942.85	5986.21
943.02	5785.51
943.18	5869.48
943.35	5695.40
943.52	5713.83
943.68	5711.78
943.85	5834.66
944.01	5664.68
944.18	5631.91
944.35	5685.16
944.51	5566.38
944.68	5492.65
944.84	5511.08
945.01	5535.66
945.17	5498.80
945.34	5341.10
945.51	5480.36
945.67	5363.63
945.84	5521.32
946.00	5349.29
946.17	5322.67
946.33	5271.47
946.50	5312.43
946.67	5236.66
946.83	5296.05
947.00	5461.93
947.16	5271.47
947.33	5339.05
947.49	5294.00
947.66	5226.42
947.82	5339.05
947.99	5316.53
948.16	5400.49
948.32	5273.52
948.49	5265.33
948.65	5337.01
948.82	5271.47
948.98	5302.19
949.15	5142.45
949.31	5375.92
949.48	5351.34
949.64	5308.34
949.81	5210.03
949.97	5228.46
950.14	5365.68
950.30	5265.33
950.47	5388.21
950.63	5285.81
950.80	5396.40
950.96	5214.13
951.13	5246.90
951.30	5353.39
951.46	5463.98
951.63	5580.71
951.79	5386.16
951.96	5521.32
952.12	5255.09
952.29	5371.82
952.45	5349.29
952.62	5459.88
952.78	5476.27
952.94	5468.08
953.11	5259.18
953.27	5359.53
953.44	5531.56
953.60	5380.01
953.77	5451.69
953.93	5447.60
954.10	5451.69
954.26	5316.53
954.43	5439.40
954.59	5453.74
954.76	5459.88
954.92	5420.97
955.09	5556.14
955.25	5392.30
955.42	5480.36
955.58	5525.42
955.75	5482.41
955.91	5443.50
956.07	5525.42
956.24	5550.00
956.40	5511.08
956.57	5492.65
956.73	5408.69
956.90	5474.22
957.06	5545.90
957.23	5437.36
957.39	5500.84
957.56	5574.57
957.72	5410.73
957.88	5425.07
958.05	5500.84
958.21	5541.80
958.38	5502.89
958.54	5396.40
958.71	5660.59
958.87	5443.50
959.03	5345.20
959.20	5679.02
959.36	5369.77
959.53	5402.54
959.69	5461.93
959.85	5476.27
960.02	5539.76
960.18	5449.64
960.35	5488.56
960.51	5482.41
960.68	5418.93
960.84	5521.32
961.00	5402.54
961.17	5420.97
961.33	5482.41
961.50	5416.88
961.66	5468.08
961.82	5435.31
961.99	5492.65
962.15	5437.36
962.31	5347.25
962.48	5590.95
962.64	5531.56
962.81	5488.56
962.97	5433.26
963.13	5547.95
963.30	5494.70
963.46	5265.33
963.62	5519.28
963.79	5463.98
963.95	5201.84
964.12	5298.10
964.28	5296.05
964.44	5232.56
964.61	5445.55
964.77	5371.82
964.93	5535.66
965.10	5484.46
965.26	5259.18
965.42	5263.28
965.59	5326.77
965.75	5353.39
965.92	5394.35
966.08	5431.21
966.24	5318.57
966.41	5212.08
966.57	5382.06
966.73	5267.38
966.90	5455.79
967.06	5265.33
967.22	5244.85
967.39	5337.01
967.55	5197.74
967.71	5337.01
967.88	5343.15
968.04	5267.38
968.20	5253.04
968.37	5207.98
968.53	5160.88
968.69	5212.08
968.85	5255.09
969.02	5199.79
969.18	5255.09
969.34	5173.17
969.51	5230.51
969.67	5332.91
969.83	5119.92
970.00	5236.66
970.16	5177.26
970.32	5298.10
970.48	5199.79
970.65	5040.05
970.81	5070.77
970.97	5185.46
971.14	5001.14
971.30	5201.84
971.46	4970.42
971.63	5021.62
971.79	5205.94
971.95	5076.91
972.11	4982.71
972.28	5025.72
972.44	5126.07
972.60	4970.42
972.76	5046.20
972.93	5191.60
973.09	5003.19
973.25	5017.52
973.42	4923.32
973.58	5048.24
973.74	4997.04
973.90	5132.21
974.07	4898.74
974.23	4845.49
974.39	4958.13
974.55	4741.05
974.72	4921.27
974.88	4861.88
975.04	4970.42
975.20	4902.84
975.37	4927.41
975.53	4878.26
975.69	4839.35
975.85	4908.98
976.01	4857.78
976.18	4743.10
976.34	4782.01
976.50	4775.86
976.66	4894.65
976.83	4745.14
976.99	4736.95
977.15	4710.33
977.31	4616.12
977.47	4782.01
977.64	4724.66
977.80	4784.06
977.96	4712.38
978.12	4685.75
978.29	4636.60
978.45	4593.59
978.61	4655.03
978.77	4691.90
978.93	4464.57
979.10	4573.11
979.26	4560.83
979.42	4632.51
979.58	4415.42
979.74	4497.34
979.91	4614.07
980.07	4616.12
980.23	4585.40
980.39	4384.70
980.55	4581.31
980.71	4491.20
980.88	4403.13
981.04	4542.39
981.20	4558.78
981.36	4456.38
981.52	4370.37
981.68	4462.52
981.85	4501.44
982.01	4341.69
982.17	4415.42
982.33	4466.62
982.49	4425.66
982.65	4364.22
982.82	4353.98
982.98	4372.41
983.14	4251.58
983.30	4360.13
983.46	4384.70
983.62	4343.74
983.79	4241.34
983.95	4179.90
984.11	4145.09
984.27	4288.45
984.43	4198.34
984.59	4315.07
984.75	4347.84
984.91	4300.73
985.08	4206.53
985.24	4173.76
985.40	4171.71
985.56	4231.10
985.72	4270.01
985.88	4177.86
986.04	4016.07
986.20	4169.66
986.37	4163.52
986.53	4085.70
986.69	4085.70
986.85	4020.16
987.01	4177.86
987.17	4034.50
987.33	4026.31
987.49	4069.31
987.65	4122.56
987.82	4024.26
987.98	4003.78
988.14	4026.31
988.30	4130.75
988.46	3911.62
988.62	4050.88
988.78	3960.77
988.94	3975.11
989.10	3870.66
989.26	3792.84
989.42	3932.10
989.59	3876.80
989.75	3891.14
989.91	3887.04
990.07	3698.63
990.23	3882.95
990.39	3885.00
990.55	3895.24
990.71	3733.45
990.87	3876.80
991.03	3919.81
991.19	3833.80
991.35	3782.60
991.51	3690.44
991.67	3825.61
991.83	3788.74
992.00	3727.30
992.16	3858.37
992.32	3788.74
992.48	3821.51
992.64	3753.93
992.80	3839.94
992.96	3780.55
993.12	3747.78
993.28	3692.49
993.44	3694.54
993.60	3786.69
993.76	3639.24
993.92	3674.06
994.08	3737.54
994.24	3696.58
994.40	3571.66
994.56	3635.14
994.72	3626.95
994.88	3592.14
995.04	3629.00
995.20	3518.41
995.36	3489.74
995.52	3626.95
995.68	3626.95
995.84	3530.70
996.00	3606.47
996.16	3557.32
996.32	3508.17
996.48	3444.68
996.64	3510.22
996.80	3356.62
996.96	3504.07
997.12	3502.03
997.28	3456.97
997.44	3399.63
997.60	3428.30
997.76	3375.05
997.92	3416.01
998.08	3418.06
998.24	3360.72
998.40	3418.06
998.56	3475.40
998.72	3383.24
998.88	3313.61
999.04	3262.41
999.20	3407.82
999.36	3366.86
999.52	3436.49
999.68	3317.71
999.84	3268.56
1000.00	3360.72
1000.16	3465.16
1000.32	3395.53
1000.48	3471.31
1000.64	3256.27
1000.80	3200.98
1000.95	3260.37
1001.11	3315.66
1001.27	3198.93
1001.43	3217.36
1001.59	3194.83
1001.75	3149.78
1001.91	3264.46
1002.07	3112.91
1002.23	3112.91
1002.39	3198.93
1002.55	3174.35
1002.71	3164.11
1002.87	3153.87
1003.03	3205.07
1003.19	3049.43
1003.34	3123.15
1003.50	3100.62
1003.66	3155.92
1003.82	3143.63
1003.98	3088.34
1004.14	3090.38
1004.30	3082.19
1004.46	3047.38
1004.62	3002.32
1004.78	3108.82
1004.94	3108.82
1005.09	3049.43
1005.25	3051.47
1005.41	2922.45
1005.57	2990.03
1005.73	3067.86
1005.89	3035.09
1006.05	3096.53
1006.21	3002.32
1006.37	2985.94
1006.52	2926.55
1006.68	2924.50
1006.84	3084.24
1007.00	2953.17
1007.16	2959.31
1007.32	3033.04
1007.48	2795.48
1007.64	2979.79
1007.79	2940.88
1007.95	2815.96
1008.11	2981.84
1008.27	2799.57
1008.43	2901.97
1008.59	2967.51
1008.75	2879.44
1008.91	2895.83
1009.06	2797.53
1009.22	2897.88
1009.38	2897.88
1009.54	2842.58
1009.70	2824.15
1009.86	2842.58
1010.01	2818.00
1010.17	2672.60
1010.33	2818.00
1010.49	2820.05
1010.65	2867.16
1010.81	2772.95
1010.96	2809.81
1011.12	2725.85
1011.28	2670.55
1011.44	2756.57
1011.60	2734.04
1011.76	2779.09
1011.91	2781.14
1012.07	2637.78
1012.23	2627.54
1012.39	2701.27
1012.55	2686.94
1012.71	2713.56
1012.86	2682.84
1013.02	2658.26
1013.18	2580.44
1013.34	2719.70
1013.50	2711.51
1013.65	2686.94
1013.81	2568.15
1013.97	2629.59
1014.13	2568.15
1014.29	2562.01
1014.44	2682.84
1014.60	2592.73
1014.76	2596.82
1014.92	2570.20
1015.07	2611.16
1015.23	2631.64
1015.39	2631.64
1015.55	2543.58
1015.71	2633.69
1015.86	2447.32
1016.02	2519.00
1016.18	2441.18
1016.34	2648.02
1016.49	2422.75
1016.65	2611.16
1016.81	2525.15
1016.97	2531.29
1017.12	2453.47
1017.28	2416.60
1017.44	2531.29
1017.60	2465.75
1017.75	2443.23
1017.91	2486.23
1018.07	2494.43
1018.23	2461.66
1018.38	2488.28
1018.54	2463.71
1018.70	2449.37
1018.86	2359.26
1019.01	2326.49
1019.17	2400.22
1019.33	2488.28
1019.49	2443.23
1019.64	2473.95
1019.80	2418.65
1019.96	2422.75
1020.12	2361.31
1020.27	2353.12
1020.43	2379.74
1020.59	2377.69
1020.74	2441.18
1020.90	2467.80
1021.06	2299.87
1021.22	2346.97
1021.37	2353.12
1021.53	2344.92
1021.69	2332.64
1021.84	2189.28
1022.00	2418.65
1022.16	2271.20
1022.31	2297.82
1022.47	2404.32
1022.63	2326.49
1022.79	2215.90
1022.94	2277.34
1023.10	2383.84
1023.26	2285.53
1023.41	2283.49
1023.57	2197.47
1023.73	2236.38
1023.88	2377.69
1024.04	2273.25
1024.20	2281.44
1024.35	2230.24
1024.51	2338.78
1024.67	2252.77
1024.82	2328.54
1024.98	2191.33
1025.14	2285.53
1025.29	2211.81
1025.45	2308.06
1025.61	2125.79
1025.76	2203.61
1025.92	2181.09
1026.08	2285.53
1026.23	2187.23
1026.39	2197.47
1026.55	2150.37
1026.70	2170.85
1026.86	2172.89
1027.02	2238.43
1027.17	2224.09
1027.33	2191.33
1027.48	2183.13
1027.64	2174.94
1027.80	2074.59
1027.95	2176.99
1028.11	2156.51
1028.27	2142.18
1028.42	2146.27
1028.58	2064.35
1028.73	2099.17
1028.89	2080.74
1029.05	2211.81
1029.20	2181.09
>>>>>End Processed Spectral Data<<<<<
