SpectraSuite Data File
++++++++++++++++++++++++++++++++++++
Date: Fri Jun 02 14:47:59 CEST 2017
User: INFO_000
Dark Spectrum Present: No
Reference Spectrum Present: No
Number of Sampled Component Spectra: 1
Spectrometers: USB4H00879
Integration Time (usec): 80000 (USB4H00879)
Spectra Averaged: 1 (USB4H00879)
Boxcar Smoothing: 0 (USB4H00879)
Correct for Electrical Dark: No (USB4H00879)
Strobe/Lamp Enabled: No (USB4H00879)
Correct for Detector Non-linearity: No (USB4H00879)
Correct for Stray Light: No (USB4H00879)
Number of Pixels in Processed Spectrum: 3648
>>>>>Begin Processed Spectral Data<<<<<
345.13	1279.98
345.34	1279.98
345.56	1279.98
345.78	1236.97
345.99	1290.22
346.21	1699.81
346.42	1660.90
346.64	1683.43
346.86	1734.63
347.07	1607.66
347.29	1720.29
347.50	1560.55
347.72	1695.72
347.94	1732.58
348.15	1591.27
348.37	1626.09
348.59	1726.44
348.80	1671.14
349.02	1777.64
349.23	1853.41
349.45	1769.44
349.67	1984.48
349.88	1888.23
350.10	1982.43
350.31	1871.84
350.53	1738.73
350.75	1961.95
350.96	1816.55
351.18	1851.36
351.39	1794.02
351.61	1824.74
351.82	1853.41
352.04	1902.56
352.26	1834.98
352.47	1884.13
352.69	1961.95
352.90	1771.49
353.12	1732.58
353.34	1888.23
353.55	1933.28
353.77	1896.42
353.98	1816.55
354.20	1875.94
354.41	1898.47
354.63	1916.90
354.85	2007.01
355.06	1949.67
355.28	1843.17
355.49	1875.94
355.71	1830.88
355.92	1873.89
356.14	1935.33
356.35	1884.13
356.57	1873.89
356.79	1957.86
357.00	1882.08
357.22	1986.53
357.43	1871.84
357.65	1970.15
357.86	1853.41
358.08	1873.89
358.29	1912.80
358.51	1941.47
358.72	1927.14
358.94	1964.00
359.16	2017.25
359.37	1898.47
359.59	1896.42
359.80	1974.24
360.02	1906.66
360.23	1937.38
360.45	2045.92
360.66	1920.99
360.88	1902.56
361.09	2045.92
361.31	1982.43
361.52	1982.43
361.74	2023.39
361.95	2119.65
362.17	2000.87
362.38	2007.01
362.60	2101.22
362.81	1910.75
363.03	1957.86
363.24	2037.73
363.46	2156.51
363.67	2031.58
363.89	1976.29
364.10	2015.20
364.32	1972.19
364.53	2050.02
364.75	1869.80
364.96	2084.83
365.18	2002.91
365.39	1988.58
365.61	2101.22
365.82	2113.50
366.04	1949.67
366.25	2041.82
366.47	1955.81
366.68	1966.05
366.90	1968.10
367.11	2064.35
367.33	2043.87
367.54	2052.06
367.76	1927.14
367.97	2086.88
368.19	2066.40
368.40	2013.15
368.62	1953.76
368.83	1980.39
369.05	2045.92
369.26	2033.63
369.48	2031.58
369.69	2027.49
369.91	2062.30
370.12	2000.87
370.33	2146.27
370.55	2090.98
370.76	2019.30
370.98	2146.27
371.19	1988.58
371.41	2017.25
371.62	2052.06
371.84	2056.16
372.05	2191.33
372.27	2033.63
372.48	2146.27
372.69	2052.06
372.91	2197.47
373.12	2191.33
373.34	2084.83
373.55	2197.47
373.77	2117.60
373.98	2127.84
374.20	2156.51
374.41	2287.58
374.62	2076.64
374.84	2090.98
375.05	2228.19
375.27	2136.03
375.48	2131.94
375.70	2244.57
375.91	2207.71
376.12	2340.83
376.34	2107.36
376.55	2111.46
376.77	2146.27
376.98	2062.30
377.19	2084.83
377.41	2105.31
377.62	2197.47
377.84	2115.55
378.05	2332.64
378.27	2103.26
378.48	2320.35
378.69	2398.17
378.91	2281.44
379.12	2232.29
379.34	2150.37
379.55	2310.11
379.76	2369.50
379.98	2189.28
380.19	2158.56
380.41	2250.72
380.62	2303.96
380.83	2185.18
381.05	2176.99
381.26	2320.35
381.47	2168.80
381.69	2310.11
381.90	2400.22
382.12	2263.01
382.33	2328.54
382.54	2293.72
382.76	2310.11
382.97	2291.68
383.19	2263.01
383.40	2332.64
383.61	2289.63
383.83	2215.90
384.04	2322.40
384.25	2351.07
384.47	2426.84
384.68	2414.56
384.89	2361.31
385.11	2201.57
385.32	2346.97
385.54	2361.31
385.75	2344.92
385.96	2291.68
386.18	2385.88
386.39	2381.79
386.60	2314.20
386.82	2367.45
387.03	2346.97
387.24	2447.32
387.46	2359.26
387.67	2490.33
387.88	2465.75
388.10	2467.80
388.31	2469.85
388.52	2555.86
388.74	2576.34
388.95	2570.20
389.16	2551.77
389.38	2500.57
389.59	2609.11
389.80	2600.92
390.02	2459.61
390.23	2578.39
390.44	2588.63
390.66	2568.15
390.87	2478.04
391.08	2514.91
391.30	2711.51
391.51	2693.08
391.72	2746.33
391.94	2756.57
392.15	2525.15
392.36	2545.63
392.58	2629.59
392.79	2652.12
393.00	2641.88
393.22	2820.05
393.43	2793.43
393.64	2756.57
393.85	2789.33
394.07	2619.35
394.28	2637.78
394.49	2789.33
394.71	2756.57
394.92	2875.35
395.13	2729.94
395.35	2772.95
395.56	2783.19
395.77	2680.79
395.98	2783.19
396.20	2717.65
396.41	2822.10
396.62	2912.21
396.84	2760.66
397.05	2856.92
397.26	2975.70
397.47	2994.13
397.69	2852.82
397.90	3041.23
398.11	2963.41
398.32	2975.70
398.54	2824.15
398.75	2969.55
398.96	2854.87
399.18	3004.37
399.39	3020.75
399.60	3045.33
399.81	2944.98
400.03	2934.74
400.24	3237.84
400.45	2936.79
400.66	3067.86
400.88	2953.17
401.09	3129.30
401.30	3033.04
401.51	3145.68
401.73	3067.86
401.94	3168.21
402.15	3133.39
402.36	3137.49
402.58	3114.96
402.79	3172.30
403.00	3172.30
403.21	3139.54
403.43	3303.37
403.64	3196.88
403.85	3117.01
404.06	3190.74
404.27	3065.81
404.49	3198.93
404.70	3217.36
404.91	3311.57
405.12	3282.89
405.34	3243.98
405.55	3309.52
405.76	3125.20
405.97	3274.70
406.19	3395.53
406.40	3254.22
406.61	3278.80
406.82	3221.45
407.03	3178.45
407.25	3219.41
407.46	3389.39
407.67	3426.25
407.88	3502.03
408.09	3342.28
408.31	3373.00
408.52	3407.82
408.73	3334.09
408.94	3370.96
409.15	3375.05
409.37	3514.31
409.58	3545.03
409.79	3368.91
410.00	3420.11
410.21	3332.05
410.43	3405.77
410.64	3293.13
410.85	3542.99
411.06	3553.23
411.27	3561.42
411.48	3565.51
411.70	3387.34
411.91	3489.74
412.12	3704.78
412.33	3590.09
412.54	3592.14
412.76	3694.54
412.97	3672.01
413.18	3485.64
413.39	3594.19
413.60	3577.80
413.81	3678.15
414.03	3569.61
414.24	3540.94
414.45	3788.74
414.66	3561.42
414.87	3696.58
415.08	3708.87
415.30	3770.31
415.51	3618.76
415.72	3712.97
415.93	3696.58
416.14	3862.47
416.35	3819.46
416.56	3813.32
416.78	3741.64
416.99	3819.46
417.20	3788.74
417.41	3893.19
417.62	3907.52
417.83	3919.81
418.04	3962.82
418.26	4014.02
418.47	3813.32
418.68	3833.80
418.89	3944.39
419.10	4046.79
419.31	3907.52
419.52	4153.28
419.73	4026.31
419.95	4042.69
420.16	3911.62
420.37	3975.11
420.58	4116.42
420.79	3895.24
421.00	3991.49
421.21	4042.69
421.42	3991.49
421.63	4097.99
421.85	4087.75
422.06	4265.92
422.27	4247.49
422.48	4122.56
422.69	4198.34
422.90	4284.35
423.11	4196.29
423.32	4300.73
423.53	4358.08
423.75	4325.31
423.96	4388.80
424.17	4431.80
424.38	4609.98
424.59	4364.22
424.80	4544.44
425.01	4487.10
425.22	4403.13
425.43	4345.79
425.64	4622.27
425.85	4724.66
426.06	4566.97
426.28	4612.03
426.49	4554.68
426.70	4540.35
426.91	4534.20
427.12	4730.81
427.33	4671.42
427.54	4708.28
427.75	4734.90
427.96	4876.21
428.17	4698.04
428.38	4804.53
428.59	4943.80
428.80	4677.56
429.01	4820.92
429.23	4820.92
429.44	4958.13
429.65	4935.60
429.86	4908.98
430.07	4923.32
430.28	4943.80
430.49	5070.77
430.70	5160.88
430.91	5081.01
431.12	5111.73
431.33	5054.39
431.54	5148.59
431.75	5029.81
431.96	5121.97
432.17	5128.11
432.38	5173.17
432.59	5341.10
432.80	5234.61
433.01	5324.72
433.22	5269.42
433.43	5267.38
433.64	5271.47
433.85	5158.83
434.06	5441.45
434.27	5257.14
434.49	5318.57
434.70	5521.32
434.91	5294.00
435.12	5445.55
435.33	5341.10
435.54	5494.70
435.75	5406.64
435.96	5519.28
436.17	5402.54
436.38	5611.43
436.59	5674.92
436.80	5461.93
437.01	5668.78
437.22	5709.74
437.43	5533.61
437.64	5574.57
437.85	5732.26
438.06	5640.11
438.27	5560.24
438.48	5695.40
438.69	5785.51
438.90	5932.97
439.11	5722.02
439.32	5859.24
439.53	5760.94
439.74	5814.18
439.95	5840.81
440.16	5826.47
440.37	5935.01
440.57	5932.97
440.78	6047.65
440.99	5900.20
441.20	5980.07
441.41	5898.15
441.62	6061.99
441.83	5861.29
442.04	5984.16
442.25	6025.12
442.46	6018.98
442.67	6285.22
442.88	6498.20
443.09	6002.60
443.30	5992.36
443.51	6080.42
443.72	6350.75
443.93	6031.27
444.14	6510.49
444.35	6084.52
444.56	6291.36
444.77	6182.82
444.98	6342.56
445.19	6291.36
445.40	6246.30
445.61	6289.31
445.81	6430.62
446.02	6383.52
446.23	6229.92
446.44	6258.59
446.65	6447.01
446.86	6447.01
447.07	6573.98
447.28	6799.26
447.49	6621.08
447.70	6465.44
447.91	6526.88
448.12	6711.19
448.33	6662.04
448.54	6743.96
448.74	6670.23
448.95	6684.57
449.16	6483.87
449.37	7081.88
449.58	6750.10
449.79	7014.29
450.00	6750.10
450.21	6891.41
450.42	6903.70
450.63	6735.77
450.84	6827.93
451.05	6926.23
451.25	7008.15
451.46	6805.40
451.67	7133.08
451.88	7153.55
452.09	6959.00
452.30	6889.37
452.51	7118.74
452.72	7196.56
452.93	7417.74
453.13	7153.55
453.34	7196.56
453.55	7161.75
453.76	7184.27
453.97	7579.53
454.18	7278.48
454.39	7346.06
454.60	7389.07
454.81	7395.22
455.01	7575.44
455.22	7221.14
455.43	7530.38
455.64	7751.56
455.85	7630.73
456.06	7845.77
456.27	7722.89
456.48	7573.39
456.68	7792.52
456.89	7792.52
457.10	7970.69
457.31	7784.33
457.52	7925.64
457.73	7987.08
457.94	8159.11
458.14	7903.11
458.35	8361.86
458.56	8183.68
458.77	8069.00
458.98	8114.05
459.19	8210.31
459.39	8261.51
459.60	8378.24
459.81	8255.36
460.02	8521.60
460.23	8400.77
460.44	8701.82
460.65	8638.33
460.85	8619.90
461.06	8664.96
461.27	8574.85
461.48	8959.86
461.69	9027.45
461.89	8683.39
462.10	9019.25
462.31	8679.29
462.52	8865.66
462.73	8873.85
462.94	9080.69
463.14	9090.93
463.35	9187.19
463.56	9557.87
463.77	9363.31
463.98	9052.02
464.18	9400.18
464.39	9410.42
464.60	9766.76
464.81	9607.02
465.02	9379.70
465.23	9930.60
465.43	9492.34
465.64	9858.92
465.85	9650.03
466.06	9811.82
466.27	9834.35
466.47	9856.87
466.68	9766.76
466.89	9875.31
467.10	10100.58
467.30	10057.57
467.51	10342.24
467.72	10422.11
467.93	10198.88
468.14	10303.33
468.34	10372.96
468.55	10495.84
468.76	10526.56
468.97	10430.30
469.17	10604.38
469.38	10874.71
469.59	10803.04
469.80	10714.97
470.01	10856.28
470.21	10862.43
470.42	11157.33
470.63	11405.14
470.84	11173.72
471.04	11362.13
471.25	11372.37
471.46	11188.05
471.67	11433.81
471.87	11542.35
472.08	11546.45
472.29	11808.59
472.50	11286.36
472.70	11497.30
472.91	11657.04
473.12	11874.12
473.33	12166.98
473.53	12048.20
473.74	12101.45
473.95	12150.60
474.16	12347.20
474.36	12230.47
474.57	12511.04
474.78	12707.65
474.99	12644.16
475.19	12392.26
475.40	12726.08
475.61	12961.59
475.81	12885.82
476.02	13180.73
476.23	12865.34
476.44	13211.45
476.64	13283.13
476.85	13580.08
477.06	13266.74
477.27	13631.28
477.47	13551.41
477.68	13741.87
477.89	13903.66
478.09	13903.66
478.30	13924.14
478.51	13756.21
478.71	14214.95
478.92	14126.89
479.13	14192.42
479.34	14319.40
479.54	14319.40
479.75	14761.76
479.96	14599.97
480.16	14608.16
480.37	14651.17
480.58	14806.81
480.78	15181.59
480.99	15003.42
481.20	15019.80
481.41	15464.21
481.61	15388.44
481.82	15439.64
482.03	15605.52
482.23	15169.30
482.44	15560.47
482.65	15679.25
482.85	15841.04
483.06	15894.29
483.27	16097.03
483.47	15900.43
483.68	15970.06
483.89	16242.44
484.09	16219.91
484.30	16369.41
484.51	16500.48
484.71	16482.05
484.92	16490.24
485.13	16609.03
485.33	16627.46
485.54	16668.42
485.75	17016.57
485.95	17209.08
486.16	17131.26
486.37	17463.03
486.57	17334.01
486.78	17159.93
486.98	17176.31
487.19	17258.23
487.40	17716.98
487.60	17678.07
487.81	18007.79
488.02	17854.19
488.22	17950.45
488.43	18001.65
488.64	18222.83
488.84	18175.72
489.05	18484.97
489.25	18245.35
489.46	18532.07
489.67	18290.41
489.87	18765.54
490.08	18716.39
490.29	18728.67
490.49	19029.73
490.70	19218.14
490.90	19349.21
491.11	19048.16
491.32	19343.06
491.52	19388.12
491.73	19578.58
491.94	19486.42
492.14	19203.80
492.35	19965.65
492.55	19791.57
492.76	19803.86
492.97	19912.40
493.17	19910.35
493.38	20238.03
493.58	20258.51
493.79	20508.36
494.00	20444.87
494.20	20389.58
494.41	20399.82
494.61	20518.60
494.82	20891.33
495.02	20948.67
495.23	20891.33
495.44	21132.99
495.64	21110.46
495.85	21137.09
496.05	21313.21
496.26	21210.81
496.47	21669.56
496.67	21165.76
496.88	21550.78
497.08	21765.81
497.29	22095.53
497.49	21677.75
497.70	22073.01
497.91	22062.77
498.11	22267.56
498.32	21905.07
498.52	22224.56
498.73	22546.09
498.93	22437.55
499.14	22290.09
499.34	22855.33
499.55	22900.39
499.76	22771.36
499.96	22519.46
500.17	22795.94
500.37	22998.69
500.58	23193.25
500.78	23207.58
500.99	23121.57
501.19	23412.38
501.40	23119.52
501.60	23506.59
501.81	23658.14
502.02	23434.91
502.22	23512.73
502.43	23948.95
502.63	24024.72
502.84	23891.60
503.04	23889.56
503.25	23998.10
503.45	23867.03
503.66	24424.08
503.86	24131.22
504.07	24223.37
504.27	24192.65
504.48	24575.62
504.68	24471.18
504.89	24718.98
505.09	24854.15
505.30	24745.61
505.50	24899.20
505.71	25099.90
505.91	25228.93
506.12	25071.23
506.32	24673.93
506.53	24931.97
506.73	25153.15
506.94	25534.07
507.14	25017.99
507.35	25196.16
507.55	25443.96
507.76	25480.83
507.96	25482.88
508.17	25554.55
508.37	25740.92
508.58	25587.32
508.78	25904.76
508.99	25996.92
509.19	25917.04
509.40	26168.94
509.60	25980.53
509.81	26222.19
510.01	26226.29
510.22	26343.02
510.42	26590.83
510.63	26517.10
510.83	26543.72
511.04	26766.95
511.24	26830.44
511.44	26680.94
511.65	26615.40
511.85	26842.73
512.06	26963.56
512.26	27086.43
512.47	26877.54
512.67	26574.44
512.88	26967.65
513.08	26676.84
513.29	27135.59
513.49	27262.56
513.69	27172.45
513.90	27440.73
514.10	27289.18
514.31	27457.12
514.51	27575.90
514.72	27629.15
514.92	27438.69
515.13	27559.52
515.33	27721.30
515.53	27545.18
515.74	27874.90
515.94	27989.59
516.15	27924.05
516.35	27776.60
516.56	28010.07
516.76	27774.55
516.96	28089.94
517.17	28214.87
517.37	28085.84
517.58	27911.77
517.78	28380.75
517.99	28350.03
518.19	28413.52
518.39	28616.27
518.60	28849.74
518.80	28450.38
519.01	28821.06
519.21	28954.18
519.41	28710.47
519.62	28886.60
519.82	28976.71
520.03	29040.20
520.23	29103.68
520.43	28952.13
520.64	29259.33
520.84	29296.19
521.05	29333.06
521.25	29306.43
521.45	29500.99
521.66	29478.46
521.86	29679.16
522.07	29378.11
522.27	29773.37
522.47	29711.93
522.68	29904.44
522.88	29537.85
523.08	30027.32
523.29	30367.28
523.49	30375.47
523.70	30271.03
523.90	30352.94
524.10	30230.07
524.31	30385.71
524.51	30387.76
524.71	30993.96
524.92	30639.66
525.12	30791.21
525.33	30498.35
525.53	30776.87
525.73	30899.75
525.94	31041.06
526.14	31049.25
526.34	31409.70
526.55	31153.70
526.75	31264.29
526.95	31237.67
527.16	31405.60
527.36	31286.82
527.56	31532.57
527.77	31753.76
527.97	31690.27
528.17	31503.90
528.38	32019.99
528.58	31761.95
528.78	32091.67
528.99	32079.38
529.19	32169.49
529.39	32493.07
529.60	32448.02
529.80	32282.13
530.00	32501.26
530.21	32384.53
530.41	32951.82
530.61	32601.61
530.82	32517.65
531.02	32671.25
531.22	33027.59
531.43	32794.12
531.63	33220.10
531.83	33201.67
532.04	33504.77
532.24	33050.12
532.44	33607.17
532.64	33381.89
532.85	33641.98
533.05	33498.62
533.25	33637.89
533.46	33680.89
533.66	34027.00
533.86	33732.09
534.07	34502.13
534.27	33940.99
534.47	34547.18
534.67	34465.27
534.88	34520.56
535.08	34487.79
535.28	34526.71
535.49	34985.45
535.69	34946.54
535.89	34690.54
536.09	35161.58
536.30	35186.15
536.50	35079.66
536.70	35106.28
536.91	35403.24
537.11	35544.55
537.31	35511.78
537.51	35503.59
537.72	35526.11
537.92	35913.18
538.12	36173.27
538.32	35972.57
538.53	35775.97
538.73	35933.66
538.93	35980.76
539.13	36171.22
539.34	36212.18
539.54	36111.83
539.74	36591.06
539.94	36539.86
540.15	36548.05
540.35	36627.92
540.55	36574.67
540.75	36799.95
540.96	36584.91
541.16	36648.40
541.36	36888.01
541.56	37115.34
541.77	37105.10
541.97	37209.54
542.17	37017.04
542.37	37244.36
542.58	37103.05
542.78	37254.60
542.98	37569.99
543.18	37891.52
543.38	37883.33
543.59	37748.16
543.79	37440.96
543.99	37963.20
544.19	37905.85
544.40	37969.34
544.60	38354.36
544.80	38196.67
545.00	38157.75
545.20	38368.69
545.41	38139.32
545.61	38278.58
545.81	38587.83
546.01	38837.68
546.21	38534.58
546.42	38682.03
546.62	38852.02
546.82	38620.59
547.02	39208.36
547.22	39054.76
547.43	39347.62
547.63	38788.53
547.83	39118.25
548.03	39032.24
548.23	39132.59
548.44	39331.24
548.64	39036.33
548.84	39527.84
549.04	39425.45
549.24	40000.93
549.45	39796.13
549.65	39654.82
549.85	39742.88
550.05	39976.35
550.25	39871.90
550.45	40529.30
550.66	39998.88
550.86	40041.88
551.06	40474.01
551.26	40005.02
551.46	40289.69
551.66	40576.40
551.87	40326.55
552.07	40179.10
552.27	40590.74
552.47	40871.31
552.67	40785.30
552.87	40519.06
553.07	40566.16
553.28	40568.21
553.48	40740.24
553.68	40650.13
553.88	41235.85
554.08	40940.94
554.28	40809.87
554.48	40848.78
554.69	41244.04
554.89	41401.74
555.09	41256.33
555.29	41287.05
555.49	41688.45
555.69	41346.44
555.89	41264.52
556.10	41461.13
556.30	41280.91
556.50	41725.32
556.70	41541.00
556.90	41942.40
557.10	42014.08
557.30	41584.01
557.50	42192.25
557.70	41854.34
557.91	42182.01
558.11	42134.91
558.31	42427.77
558.51	41977.22
558.71	42345.85
558.91	42395.00
559.11	42212.73
559.31	42261.88
559.51	42155.39
559.72	42474.87
559.92	42538.36
560.12	42532.22
560.32	42657.14
560.52	42509.69
560.72	42505.59
560.92	42880.37
561.12	42583.41
561.32	42962.29
561.52	42888.56
561.72	43087.21
561.93	43079.02
562.13	42898.80
562.33	42931.57
562.53	43658.60
562.73	42806.64
562.93	43521.38
563.13	43107.69
563.33	43173.23
563.53	43750.76
563.73	43117.93
563.93	43496.81
564.13	43771.24
564.33	43521.38
564.53	43771.24
564.74	44283.23
564.94	43263.34
565.14	43730.28
565.34	43703.65
565.54	43910.50
565.74	43683.17
565.94	44344.67
566.14	44037.47
566.34	44029.28
566.54	44031.33
566.74	43738.47
566.94	43754.85
567.14	44238.17
567.34	43697.51
567.54	44152.16
567.74	44387.67
567.94	44490.07
568.14	44303.71
568.34	44500.31
568.54	44592.47
568.74	44713.30
568.94	44348.76
569.14	44950.87
569.34	44711.25
569.54	44684.63
569.75	44334.43
569.95	44875.09
570.15	45159.76
570.35	44817.75
570.55	44664.15
570.75	44694.87
570.95	45051.22
571.15	45026.64
571.35	44879.19
571.55	45446.47
571.75	44914.00
571.95	45081.94
572.15	45049.17
572.35	45335.88
572.55	45137.23
572.75	45487.43
572.95	45686.09
573.15	45342.03
573.35	45374.80
573.55	45581.64
573.75	45587.78
573.95	45532.49
574.15	45684.04
574.35	45561.16
574.55	45780.29
574.75	45948.23
574.95	45870.40
575.15	45323.60
575.34	45817.16
575.54	46005.57
575.74	46241.09
575.94	45880.64
576.14	45638.98
576.34	45985.09
576.54	46093.63
576.74	46325.05
576.94	46368.06
577.14	46075.20
577.34	46585.15
577.54	46085.44
577.74	46505.27
577.94	46495.03
578.14	46454.08
578.34	46327.10
578.54	45960.51
578.74	46290.24
578.94	46466.36
579.14	46603.58
579.34	46511.42
579.54	46568.76
579.74	46726.46
579.94	46787.89
580.13	46878.00
580.33	47136.05
580.53	47199.54
580.73	46961.97
580.93	47113.52
581.13	46894.39
581.33	47361.33
581.53	46974.26
581.73	46964.02
581.93	47222.06
582.13	47437.10
582.33	47406.38
582.53	47678.76
582.73	47467.82
582.92	47240.50
583.12	47592.75
583.32	47326.51
583.52	47531.31
583.72	48155.94
583.92	47422.76
584.12	47709.48
584.32	47945.00
584.52	47422.76
584.72	47574.31
584.92	48071.97
585.11	48579.87
585.31	47957.28
585.51	48012.58
585.71	48059.68
585.91	48616.73
586.11	48084.26
586.31	48272.67
586.51	48229.66
586.71	48035.11
586.91	48631.07
587.10	48373.02
587.30	48252.19
587.50	48235.81
587.70	48862.49
587.90	48878.87
588.10	48379.17
588.30	48135.46
588.50	48891.16
588.69	48878.87
588.89	48426.27
589.09	48469.28
589.29	48796.95
589.49	49251.60
589.69	48768.28
589.89	49251.60
590.08	48862.49
590.28	48960.79
590.48	48801.05
590.68	49009.94
590.88	49251.60
591.08	48702.74
591.28	48719.13
591.47	49304.85
591.67	49267.98
591.87	49073.43
592.07	49145.11
592.27	48964.88
592.47	49098.00
592.67	49194.26
592.86	49110.29
593.06	49360.14
593.26	49806.60
593.46	49460.49
593.66	49605.90
593.86	49159.44
594.05	49478.92
594.25	49667.34
594.45	49247.50
594.65	49714.44
594.85	49319.18
595.05	50050.31
595.24	49765.64
595.44	49816.84
595.64	49909.00
595.84	49890.57
596.04	49812.74
596.23	49966.34
596.43	50234.63
596.63	50240.77
596.83	49675.53
597.03	50304.26
597.22	50722.04
597.42	50277.63
597.62	50568.44
597.82	50500.86
598.02	50525.44
598.21	50304.26
598.41	50351.36
598.61	50754.81
598.81	50730.23
599.01	50699.51
599.20	50789.62
599.40	50400.51
599.60	51008.76
599.80	50889.98
600.00	50775.29
600.19	51148.02
600.39	50447.61
600.59	50945.27
600.79	51131.64
600.98	50853.11
601.18	51322.10
601.38	51383.54
601.58	51277.04
601.78	51324.14
601.97	51426.54
602.17	51614.96
602.37	51725.55
602.57	51498.22
602.76	51277.04
602.96	51287.28
603.16	51731.69
603.36	51791.08
603.55	52235.49
603.75	51750.12
603.95	51864.81
604.15	51950.82
604.34	51989.73
604.54	52161.76
604.74	52157.67
604.94	52393.18
605.13	52221.16
605.33	52190.44
605.53	52239.59
605.73	52430.05
605.92	52133.09
606.12	52522.21
606.32	52739.29
606.52	52163.81
606.71	51977.45
606.91	52524.25
607.11	52321.51
607.30	52622.56
607.50	52817.11
607.70	53048.53
607.90	52657.37
608.09	52974.81
608.29	52792.54
608.49	52937.94
608.68	52495.58
608.88	53013.72
609.08	53118.17
609.28	53023.96
609.47	52872.41
609.67	53286.10
609.87	53064.92
610.06	53585.10
610.26	53304.53
610.46	53736.65
610.66	53361.87
610.85	53425.36
611.05	53433.55
611.25	53325.01
611.44	53120.21
611.64	53818.57
611.84	53531.86
612.03	52864.22
612.23	53601.49
612.43	53486.80
612.62	53320.91
612.82	54109.38
613.02	53288.15
613.21	53599.44
613.41	53347.54
613.61	53693.64
613.80	53427.41
614.00	53794.00
614.20	53597.39
614.39	53695.69
614.59	54240.45
614.79	53683.40
614.98	53570.77
615.18	53826.76
615.38	53871.82
615.57	53662.93
615.77	54334.66
615.97	54195.40
616.16	54205.64
616.36	53912.78
616.56	54084.81
616.75	53869.77
616.95	53857.48
617.15	53744.84
617.34	53705.93
617.54	53957.83
617.74	54865.08
617.93	53933.26
618.13	53683.40
618.32	53992.65
618.52	54072.52
618.72	53900.49
618.91	54490.30
619.11	53900.49
619.31	54228.16
619.50	53957.83
619.70	53894.35
619.90	54164.68
620.09	54213.83
620.29	54076.61
620.48	54146.25
620.68	54260.93
620.88	54222.02
621.07	54584.51
621.27	54232.26
621.46	53800.14
621.66	54148.29
621.86	53867.72
622.05	53785.80
622.25	54318.28
622.44	54031.56
622.64	54162.63
622.84	54299.84
623.03	54191.30
623.23	53912.78
623.42	54015.18
623.62	54777.02
623.82	54627.52
624.01	54113.48
624.21	54365.38
624.40	54271.17
624.60	54416.58
624.80	54228.16
624.99	54183.11
625.19	53830.86
625.38	54746.30
625.58	54242.50
625.77	54400.19
625.97	54355.14
626.17	54150.34
626.36	54428.87
626.56	54392.00
626.75	54074.57
626.95	54764.73
627.14	54482.11
627.34	54854.84
627.54	54240.45
627.73	54490.30
627.93	54551.74
628.12	54432.96
628.32	54437.06
628.51	54465.73
628.71	54617.28
628.90	54123.72
629.10	54586.56
629.30	54453.44
629.49	54854.84
629.69	54863.03
629.88	54408.39
630.08	55194.81
630.27	54922.43
630.47	54942.91
630.66	54510.78
630.86	55438.51
631.05	54496.45
631.25	55270.58
631.44	55157.94
631.64	54887.61
631.84	54981.82
632.03	55030.97
632.23	54828.22
632.42	55211.19
632.62	55141.56
632.81	54533.31
633.01	54850.75
633.20	55078.07
633.40	55045.30
633.59	54797.50
633.79	54953.15
633.98	54922.43
634.18	55424.18
634.37	55444.66
634.57	54920.38
634.76	55487.67
634.96	55276.72
635.15	54863.03
635.35	54979.77
635.54	55028.92
635.74	55125.17
635.93	54822.08
636.13	55571.63
636.32	55168.18
636.52	54879.42
636.71	55266.48
636.91	55207.09
637.10	55553.20
637.30	54996.15
637.49	55094.46
637.69	55567.54
637.88	55671.98
638.08	55250.10
638.27	55426.23
638.46	55295.16
638.66	55295.16
638.85	55383.22
639.05	55518.38
639.24	55637.17
639.44	55592.11
639.63	55301.30
639.83	55833.77
640.02	55559.34
640.22	55413.94
640.41	55538.86
640.61	55082.17
640.80	55827.63
640.99	55704.75
641.19	55837.87
641.38	55499.95
641.58	55534.77
641.77	55506.10
641.97	55540.91
642.16	55631.02
642.36	55555.25
642.55	55749.81
642.74	55188.66
642.94	56005.80
643.13	55694.51
643.33	55391.41
643.52	55913.64
643.72	55776.43
643.91	55598.26
644.10	56177.83
644.30	55663.79
644.49	55751.85
644.69	56063.14
644.88	55608.50
645.08	55788.72
645.27	56151.21
645.46	55708.85
645.66	55932.07
645.85	55669.93
646.05	55831.72
646.24	56358.05
646.43	56315.04
646.63	56771.74
646.82	56313.00
647.02	55985.32
647.21	56067.24
647.40	55723.18
647.60	56292.52
647.79	56124.58
647.99	56347.81
648.18	55919.79
648.37	56327.33
648.57	56259.75
648.76	56472.74
648.96	55977.13
649.15	56253.61
649.34	56329.38
649.54	56235.17
649.73	56339.62
649.92	56292.52
650.12	56317.09
650.31	56489.12
650.51	56149.16
650.70	56657.06
650.89	55874.73
651.09	56738.97
651.28	56057.00
651.47	56050.86
651.67	56005.80
651.86	57058.46
652.06	56059.05
652.25	56624.29
652.44	56276.13
652.64	56372.39
652.83	55956.65
653.02	55899.31
653.22	56384.68
653.41	56255.65
653.60	56016.04
653.80	55950.51
653.99	56313.00
654.18	56372.39
654.38	56681.63
654.57	56411.30
654.76	56233.13
654.96	56505.51
655.15	56089.77
655.34	56736.93
655.54	56339.62
655.73	56136.87
655.92	56702.11
656.12	56226.98
656.31	56437.92
656.50	56403.11
656.70	56300.71
656.89	56204.45
657.08	56349.86
657.28	55938.22
657.47	55923.88
657.66	56665.25
657.86	56337.57
658.05	56452.26
658.24	56923.29
658.43	55985.32
658.63	56161.45
658.82	56122.54
659.01	56716.45
659.21	56181.93
659.40	56620.19
659.59	56153.26
659.79	56405.16
659.98	56614.05
660.17	56618.14
660.36	56829.08
660.56	56347.81
660.75	56554.66
660.94	56108.20
661.14	55899.31
661.33	56157.35
661.52	55624.88
661.71	56433.83
661.91	56390.82
662.10	55895.21
662.29	56724.64
662.49	56685.73
662.68	55989.42
662.87	56194.21
663.06	56652.96
663.26	56050.86
663.45	56231.08
663.64	56349.86
663.83	56562.85
664.03	56609.95
664.22	56169.64
664.41	56325.28
664.60	56269.99
664.80	56120.49
664.99	56292.52
665.18	56097.96
665.37	56259.75
665.57	56317.09
665.76	55602.35
665.95	55934.12
666.14	56212.65
666.34	56118.44
666.53	56313.00
666.72	56247.46
666.91	56218.79
667.11	55825.58
667.30	55714.99
667.49	55479.47
667.68	56296.61
667.87	55936.17
668.07	56411.30
668.26	56190.12
668.45	56079.53
668.64	56028.33
668.84	56575.14
669.03	56128.68
669.22	55796.91
669.41	55694.51
669.60	55991.47
669.80	56036.52
669.99	55964.84
670.18	56087.72
670.37	55909.55
670.57	56327.33
670.76	55958.70
670.95	56134.82
671.14	55745.71
671.33	55297.20
671.53	56460.45
671.72	55846.06
671.91	55731.37
672.10	55485.62
672.29	55753.90
672.48	55803.05
672.68	56036.52
672.87	55047.35
673.06	55764.14
673.25	55592.11
673.44	55461.04
673.64	55841.96
673.83	55657.65
674.02	55448.75
674.21	55436.47
674.40	56134.82
674.59	55329.97
674.79	55317.68
674.98	55362.74
675.17	55997.61
675.36	55794.86
675.55	55465.14
675.74	55567.54
675.94	55553.20
676.13	55755.95
676.32	56114.34
676.51	55983.27
676.70	55479.47
676.89	55823.53
677.08	55811.24
677.28	55651.50
677.47	55858.35
677.66	55938.22
677.85	55372.98
678.04	55766.19
678.23	55866.54
678.42	55868.59
678.62	55495.86
678.81	56095.91
679.00	55262.39
679.19	56063.14
679.38	55358.64
679.57	55540.91
679.76	55387.31
679.96	55751.85
680.15	55571.63
680.34	55491.76
680.53	55006.39
680.72	55573.68
680.91	54977.72
681.10	55604.40
681.29	55391.41
681.48	55182.52
681.68	55366.84
681.87	55461.04
682.06	55098.55
682.25	54940.86
682.44	55059.64
682.63	55477.43
682.82	54785.21
683.01	55239.86
683.20	54981.82
683.39	55149.75
683.59	55090.36
683.78	55211.19
683.97	54750.40
684.16	54820.03
684.35	54850.75
684.54	55049.40
684.73	55096.50
684.92	55033.02
685.11	54754.49
685.30	54899.90
685.49	55225.53
685.69	55104.70
685.88	54903.99
686.07	54817.98
686.26	55104.70
686.45	54590.66
686.64	55016.63
686.83	54848.70
687.02	54942.91
687.21	54992.06
687.40	54750.40
687.59	54688.96
687.78	55006.39
687.97	55028.92
688.16	54545.60
688.35	54828.22
688.54	54213.83
688.74	55063.74
688.93	54250.69
689.12	54494.40
689.31	54543.55
689.50	54693.05
689.69	54107.33
689.88	53904.59
690.07	54729.92
690.26	54269.12
690.45	54457.54
690.64	54557.89
690.83	54318.28
691.02	54004.94
691.21	54451.39
691.40	54426.82
691.59	54531.26
691.78	54383.81
691.97	54459.58
692.16	54344.90
692.35	54686.91
692.54	54025.42
692.73	54392.00
692.92	54396.10
693.11	54453.44
693.30	54170.82
693.49	54527.17
693.68	54000.84
693.87	54101.19
694.06	54203.59
694.25	54150.34
694.44	53959.88
694.63	54230.21
694.82	54054.09
695.01	53660.88
695.20	53744.84
695.39	53726.41
695.58	54080.71
695.77	53937.35
695.96	53732.56
696.15	53771.47
696.34	53779.66
696.53	53585.10
696.72	54244.55
696.91	53380.31
697.10	54049.99
697.29	53624.01
697.48	53705.93
697.67	53783.76
697.86	53157.08
698.05	53761.23
698.24	53476.56
698.43	53320.91
698.62	54011.08
698.81	53486.80
699.00	53609.68
699.19	53195.99
699.38	53468.37
699.57	52983.00
699.76	53763.28
699.95	53142.74
700.14	53023.96
700.32	53540.05
700.51	53423.31
700.70	53675.21
700.89	53728.46
701.08	53433.55
701.27	53112.02
701.46	53228.76
701.65	52890.84
701.84	53474.51
702.03	53527.76
702.22	53294.29
702.41	53347.54
702.60	53482.70
702.79	53222.61
702.98	52911.32
703.17	53318.87
703.35	52950.23
703.54	52819.16
703.73	53040.34
703.92	53222.61
704.11	53294.29
704.30	52868.31
704.49	52985.05
704.68	53007.58
704.87	52974.81
705.06	53040.34
705.25	52370.66
705.43	52970.71
705.62	53028.05
705.81	53019.86
706.00	52778.20
706.19	52548.83
706.38	52907.22
706.57	53032.15
706.76	52434.14
706.95	52667.61
707.14	52505.82
707.32	52520.16
707.51	52505.82
707.70	52710.62
707.89	52597.98
708.08	52571.36
708.27	52311.27
708.46	52659.42
708.65	52319.46
708.84	52942.04
709.02	52966.62
709.21	52636.89
709.40	52653.28
709.59	52712.67
709.78	52198.63
709.97	52860.12
710.16	52092.13
710.34	52362.46
710.53	52315.36
710.72	52503.77
710.91	52202.72
711.10	52391.14
711.29	52331.75
711.48	52301.03
711.66	52325.60
711.85	52106.47
712.04	52040.93
712.23	51813.61
712.42	52071.65
712.61	52106.47
712.80	52135.14
712.98	52438.24
713.17	51723.50
713.36	51770.60
713.55	51997.93
713.74	52208.87
713.93	51827.95
714.11	51930.34
714.30	51813.61
714.49	51637.48
714.68	51913.96
714.87	51705.07
715.06	52057.32
715.24	51440.88
715.43	51952.87
715.62	51195.12
715.81	51418.35
716.00	51942.63
716.18	51213.55
716.37	51475.69
716.56	51016.95
716.75	51821.80
716.94	51148.02
717.12	50849.02
717.31	51612.91
717.50	51627.24
717.69	51438.83
717.88	51164.40
718.06	51391.73
718.25	51805.42
718.44	51125.49
718.63	50980.09
718.82	50994.42
719.00	50242.82
719.19	50636.03
719.38	51102.96
719.57	50464.00
719.76	50449.66
719.94	50328.83
720.13	50771.19
720.32	51012.85
720.51	50664.70
720.69	50326.78
720.88	50623.74
721.07	50572.54
721.26	49937.67
721.44	50181.38
721.63	50257.15
721.82	50042.12
722.01	50076.93
722.20	49972.49
722.38	49966.34
722.57	49501.45
722.76	50029.83
722.95	49698.06
723.13	49876.23
723.32	49632.52
723.51	49321.23
723.70	49519.88
723.88	49526.03
724.07	49251.60
724.26	49765.64
724.44	48862.49
724.63	49274.13
724.82	49685.77
725.01	49276.18
725.19	49425.68
725.38	49288.46
725.57	48887.06
725.76	49181.97
725.94	49063.19
726.13	48987.41
726.32	49022.23
726.51	48909.59
726.69	49497.36
726.88	49192.21
727.07	49124.63
727.25	48981.27
727.44	49235.22
727.63	49048.85
727.82	49247.50
728.00	48741.66
728.19	49157.39
728.38	49155.35
728.56	48604.44
728.75	49165.59
728.94	48635.16
729.12	49040.66
729.31	49046.80
729.50	48952.60
729.69	49112.34
729.87	48604.44
730.06	48874.77
730.25	48528.67
730.43	49272.08
730.62	48839.96
730.81	48876.82
730.99	48919.83
731.18	48446.75
731.37	48856.34
731.55	48991.51
731.74	49253.65
731.93	49009.94
732.11	49022.23
732.30	48715.03
732.49	48379.17
732.67	48420.13
732.86	48420.13
733.05	48952.60
733.23	48471.32
733.42	48563.48
733.61	48737.56
733.79	48891.16
733.98	48733.46
734.17	48469.28
734.35	48559.39
734.54	48674.07
734.73	48770.33
734.91	48690.46
735.10	48313.63
735.29	48731.42
735.47	48051.49
735.66	48360.73
735.84	48252.19
736.03	48272.67
736.22	48717.08
736.40	48434.46
736.59	48252.19
736.78	48100.64
736.96	48473.37
737.15	48389.41
737.33	47863.08
737.52	48334.11
737.71	48182.56
737.89	48071.97
738.08	47979.81
738.27	48110.88
738.45	48071.97
738.64	48149.79
738.82	47836.45
739.01	47815.97
739.20	47648.04
739.38	47725.86
739.57	48256.29
739.75	47883.56
739.94	47738.15
740.13	47701.29
740.31	48008.48
740.50	47912.23
740.68	47815.97
740.87	47822.12
741.06	47873.32
741.24	47936.80
741.43	47516.97
741.61	47564.07
741.80	47439.15
741.99	47433.00
742.17	47420.72
742.36	47344.94
742.54	47621.42
742.73	47324.46
742.91	47512.88
743.10	47392.04
743.29	47074.61
743.47	47478.06
743.66	47717.67
743.84	47863.08
744.03	47424.81
744.21	46826.81
744.40	47060.27
744.59	46761.27
744.77	46896.44
744.96	47004.98
745.14	47129.90
745.33	46992.69
745.51	46740.79
745.70	46898.48
745.88	46923.06
746.07	46951.73
746.26	46542.14
746.44	46695.74
746.63	46284.09
746.81	46665.02
747.00	46409.02
747.18	46507.32
747.37	46720.31
747.55	46206.27
747.74	46660.92
747.92	46069.06
748.11	46648.63
748.29	46441.79
748.48	46290.24
748.66	45653.32
748.85	45798.73
749.03	46312.77
749.22	46175.55
749.41	45995.33
749.59	46150.98
749.78	45987.14
749.96	45991.23
750.15	46138.69
750.33	45794.63
750.52	45661.51
750.70	46173.50
750.89	45593.93
751.07	45591.88
751.26	45757.77
751.44	45192.53
751.63	45493.58
751.81	44871.00
752.00	45385.04
752.18	46097.73
752.37	45290.83
752.55	45176.14
752.74	45280.59
752.92	44995.92
753.10	44735.83
753.29	45423.95
753.47	45307.21
753.66	44686.68
753.84	45053.26
754.03	45126.99
754.21	45047.12
754.40	45239.63
754.58	45065.55
754.77	44801.36
754.95	44846.42
755.14	44746.07
755.32	44922.19
755.51	45022.54
755.69	44510.55
755.88	44909.91
756.06	44852.56
756.24	44635.48
756.43	44434.78
756.61	44164.45
756.80	44326.24
756.98	44375.39
757.17	44670.29
757.35	44553.56
757.54	44393.82
757.72	44514.65
757.90	44258.65
758.09	43922.79
758.27	44416.35
758.46	43711.84
758.64	44219.74
758.83	43705.70
759.01	44234.08
759.19	44131.68
759.38	43545.96
759.56	44150.11
759.75	43849.06
759.93	43758.95
760.12	43484.52
760.30	43591.01
760.48	43711.84
760.67	43363.69
760.85	43695.46
761.04	43734.37
761.22	43292.01
761.40	43509.10
761.59	43726.18
761.77	43007.34
761.96	43410.79
762.14	43511.14
762.32	43011.44
762.51	42841.46
762.69	42927.47
762.88	42956.14
763.06	43263.34
763.24	43279.72
763.43	42982.77
763.61	42950.00
763.80	42663.28
763.98	42526.07
764.16	42546.55
764.35	42329.47
764.53	42782.07
764.72	42591.61
764.90	42366.33
765.08	42345.85
765.27	42145.15
765.45	42282.36
765.63	41960.83
765.82	42407.29
766.00	42100.09
766.18	42345.85
766.37	42227.07
766.55	41743.75
766.74	42063.23
766.92	41674.12
767.10	41670.02
767.29	41682.31
767.47	41497.99
767.65	41786.75
767.84	41745.80
768.02	42186.11
768.20	41518.47
768.39	41358.73
768.57	41633.16
768.75	41704.84
768.94	41565.57
769.12	41342.35
769.30	41076.11
769.49	40846.74
769.67	40789.39
769.85	41182.60
770.04	41010.57
770.22	40570.26
770.40	41065.87
770.59	40938.90
770.77	40762.77
770.95	41012.62
771.14	40889.74
771.32	40555.93
771.50	40471.96
771.69	40281.50
771.87	40607.12
772.05	40361.37
772.24	40367.51
772.42	40795.54
772.60	40396.18
772.78	40189.34
772.97	40367.51
773.15	40437.14
773.33	40373.66
773.52	40088.99
773.70	39994.78
773.88	40541.59
774.07	40154.52
774.25	40326.55
774.43	40351.13
774.61	40060.32
774.80	40097.18
774.98	40086.94
775.16	39921.05
775.34	40183.19
775.53	40132.00
775.71	40310.17
775.89	40039.84
776.08	39816.61
776.26	40560.02
776.44	40629.65
776.62	39982.49
776.81	40162.72
776.99	40246.68
777.17	40017.31
777.35	40222.11
777.54	40510.87
777.72	40320.41
777.90	40246.68
778.08	40256.92
778.27	40244.63
778.45	40586.64
778.63	40531.35
778.81	40293.79
779.00	40840.59
779.18	40510.87
779.36	40938.90
779.54	40521.11
779.73	40490.39
779.91	40605.08
780.09	40940.94
780.27	40945.04
780.46	40846.74
780.64	40924.56
780.82	40867.22
781.00	40521.11
781.19	41069.97
781.37	40877.46
781.55	40555.93
781.73	41121.16
781.91	40568.21
782.10	41076.11
782.28	40906.13
782.46	40832.40
782.64	40904.08
782.82	40936.85
783.01	41072.01
783.19	41151.88
783.37	40848.78
783.55	41072.01
783.74	41571.72
783.92	40914.32
784.10	41213.32
784.28	40842.64
784.46	40840.59
784.64	40687.00
784.83	40904.08
785.01	41207.18
785.19	40656.28
785.37	41123.21
785.55	41207.18
785.74	40420.76
785.92	40875.41
786.10	41117.07
786.28	41078.16
786.46	40209.82
786.64	40531.35
786.83	40775.06
787.01	40717.71
787.19	40484.25
787.37	40854.93
787.55	40633.75
787.74	40527.25
787.92	40439.19
788.10	40584.60
788.28	40236.44
788.46	40144.28
788.64	39851.42
788.82	40306.07
789.01	40283.55
789.19	40394.14
789.37	39957.92
789.55	40080.80
789.73	39681.44
789.91	39902.62
790.09	39775.65
790.28	39972.25
790.46	39593.38
790.64	39955.87
790.82	39439.78
791.00	39298.47
791.18	39554.47
791.36	39427.49
791.55	39679.39
791.73	39232.94
791.91	39161.26
792.09	39310.76
792.27	39179.69
792.45	39101.87
792.63	39396.77
792.81	39009.71
793.00	39224.75
793.18	38892.97
793.36	39108.01
793.54	38950.32
793.72	38743.47
793.90	38499.76
794.08	38548.92
794.26	38471.09
794.44	38165.95
794.62	38051.26
794.81	38116.79
794.99	38256.06
795.17	37825.98
795.35	37656.00
795.53	38049.21
795.71	37871.04
795.89	37395.91
796.07	37535.17
796.25	37668.29
796.43	37496.26
796.61	37240.26
796.80	37322.18
796.98	37535.17
797.16	37254.60
797.34	37189.06
797.52	37144.01
797.70	37289.42
797.88	36851.15
798.06	36787.66
798.24	36939.21
798.42	36754.90
798.60	36861.39
798.78	36591.06
798.96	36699.60
799.14	36490.71
799.32	36351.45
799.51	36287.96
799.69	36476.37
799.87	36072.92
800.05	35853.79
800.23	35911.13
800.41	35558.88
800.59	35728.86
800.77	35722.72
800.95	35550.69
801.13	35208.68
801.31	35560.93
801.49	35694.05
801.67	35368.42
801.85	35349.99
802.03	35216.87
802.21	35313.13
802.39	35083.75
802.57	34999.79
802.75	34883.05
802.93	34534.90
803.11	34758.13
803.29	34424.31
803.47	34555.38
803.65	34917.87
803.83	34803.18
804.01	34764.27
804.19	33785.34
804.37	34272.76
804.55	34129.40
804.73	34145.78
804.91	34125.30
805.09	34127.35
805.27	33934.84
805.45	34156.02
805.63	34117.11
805.81	34018.81
805.99	33854.97
806.17	33838.59
806.35	33736.19
806.53	33517.06
806.71	33609.22
806.89	33551.87
807.07	33191.43
807.25	33330.69
807.43	33152.52
807.61	33474.05
807.79	33095.18
807.97	32851.47
808.15	32802.32
808.33	32923.15
808.51	33084.94
808.69	32790.03
808.87	32814.60
809.05	32314.90
809.23	32654.86
809.41	32376.34
809.59	32374.29
809.77	32675.34
809.95	32429.59
810.13	32210.45
810.31	32294.42
810.49	32087.57
810.67	32220.69
810.84	32007.70
811.02	31909.40
811.20	32056.85
811.38	31966.74
811.56	31698.46
811.74	31958.55
811.92	31372.83
812.10	31622.69
812.28	31903.26
812.46	31614.49
812.64	31587.87
812.82	31286.82
813.00	31264.29
813.18	31618.59
813.36	31401.50
813.53	30965.29
813.71	31118.89
813.89	30989.86
814.07	31049.25
814.25	31180.32
814.43	30869.03
814.61	30996.01
814.79	30885.42
814.97	31002.15
815.15	30985.77
815.33	30789.16
815.50	30709.29
815.68	30801.45
815.86	30875.18
816.04	30473.78
816.22	30361.14
816.40	30387.76
816.58	30703.15
816.76	29980.21
816.94	30039.61
817.11	30357.04
817.29	30412.34
817.47	30135.86
817.65	29812.28
817.83	30113.33
818.01	29703.74
818.19	29781.56
818.37	29873.72
818.54	29593.15
818.72	29677.12
818.90	29615.68
819.08	29814.33
819.26	29996.60
819.44	29650.49
819.62	29699.64
819.80	29421.12
819.97	29949.50
820.15	29382.21
820.33	29208.13
820.51	29380.16
820.69	29355.58
820.87	29433.41
821.05	29738.55
821.22	29285.95
821.40	29197.89
821.58	29128.26
821.76	29171.27
821.94	28913.22
822.12	28915.27
822.29	28821.06
822.47	28714.57
822.65	29025.86
822.83	29011.53
823.01	28563.02
823.19	28585.55
823.36	28468.81
823.54	28616.27
823.72	28612.17
823.90	28417.61
824.08	28216.91
824.25	28558.92
824.43	28134.99
824.61	28315.22
824.79	28524.11
824.97	28173.91
825.15	28409.42
825.32	28460.62
825.50	28036.69
825.68	27962.97
825.86	28339.79
826.04	28421.71
826.21	28278.35
826.39	28481.10
826.57	27680.35
826.75	27571.80
826.93	27672.15
827.10	27895.38
827.28	27971.16
827.46	27895.38
827.64	27749.98
827.81	27594.33
827.99	27584.09
828.17	27256.42
828.35	27625.05
828.53	27745.88
828.70	27563.61
828.88	27420.25
829.06	27461.21
829.24	27645.53
829.41	27436.64
829.59	27311.71
829.77	27029.09
829.95	27070.05
830.12	27190.88
830.30	27184.74
830.48	27385.44
830.66	27121.25
830.84	27262.56
831.01	27098.72
831.19	27051.62
831.37	26691.18
831.55	26799.72
831.72	26906.21
831.90	27080.29
832.08	26695.27
832.25	26578.54
832.43	26871.40
832.61	26803.82
832.79	26920.55
832.96	26783.34
833.14	26490.48
833.32	26990.18
833.50	26769.00
833.67	26699.37
833.85	26470.00
834.03	26566.25
834.20	26576.49
834.38	26347.12
834.56	26719.85
834.74	26381.93
834.91	26437.23
835.09	26447.47
835.27	25908.85
835.44	25943.67
835.62	25773.69
835.80	26058.35
835.98	25960.05
836.15	26101.36
836.33	26066.55
836.51	26349.17
836.68	25802.36
836.86	25757.30
837.04	26183.28
837.21	25790.07
837.39	25790.07
837.57	25943.67
837.75	25665.14
837.92	25196.16
838.10	25683.58
838.28	25224.83
838.45	25394.81
838.63	25513.59
838.81	25511.55
838.98	25615.99
839.16	25396.86
839.34	25374.33
839.51	25007.75
839.69	25228.93
839.87	25564.79
840.04	25091.71
840.22	25372.28
840.40	25161.34
840.57	24895.11
840.75	25263.74
840.93	24880.77
841.10	25116.29
841.28	25613.95
841.46	25118.34
841.63	24854.15
841.81	25028.23
841.98	25013.89
842.16	25104.00
842.34	25075.33
842.51	24893.06
842.69	25087.62
842.87	24923.78
843.04	25206.40
843.22	24604.30
843.40	24850.05
843.57	24671.88
843.75	24981.12
843.92	24741.51
844.10	24743.56
844.28	24608.39
844.45	24733.32
844.63	24587.91
844.81	24606.34
844.98	24512.14
845.16	24571.53
845.33	24417.93
845.51	24667.78
845.69	24325.77
845.86	24299.15
846.04	24280.72
846.21	24483.47
846.39	24098.45
846.57	24196.75
846.74	24006.29
846.92	24071.82
847.09	23957.14
847.27	23821.97
847.45	23826.07
847.62	24176.27
847.80	24319.63
847.97	24245.90
848.15	23950.99
848.32	23723.67
848.50	24055.44
848.68	23606.94
848.85	23840.40
849.03	23418.52
849.20	23715.48
849.38	23457.43
849.56	23684.76
849.73	23539.35
849.91	23867.03
850.08	23957.14
850.26	23031.46
850.43	23506.59
850.61	23559.83
850.78	23367.32
850.96	23252.64
851.14	23393.95
851.31	23287.45
851.49	23422.62
851.66	23418.52
851.84	23527.06
852.01	23846.55
852.19	23373.47
852.36	23043.74
852.54	23248.54
852.71	23156.38
852.89	22845.09
853.07	23086.75
853.24	22967.97
853.42	22707.88
853.59	22797.99
853.77	22986.40
853.94	23111.33
854.12	23334.56
854.29	22509.22
854.47	22830.76
854.64	22816.42
854.82	22742.69
854.99	22593.19
855.17	22750.88
855.34	22593.19
855.52	22654.63
855.69	22884.00
855.87	22646.44
856.04	22271.66
856.22	22511.27
856.39	22326.96
856.57	22630.05
856.74	22271.66
856.92	22519.46
857.09	22240.94
857.27	22480.55
857.44	22488.74
857.62	22435.50
857.79	22226.60
857.97	22449.83
858.14	22412.97
858.32	22132.40
858.49	21933.75
858.67	22455.98
858.84	22027.95
859.02	21919.41
859.19	21628.60
859.37	21728.95
859.54	22109.87
859.72	21978.80
859.89	21909.17
860.06	21911.22
860.24	21790.39
860.41	21929.65
860.59	21794.48
860.76	21661.37
860.94	21458.62
861.11	21878.45
861.29	21919.41
861.46	21649.08
861.64	21401.27
861.81	21212.86
861.98	21601.97
862.16	21593.78
862.33	21186.24
862.51	21200.57
862.68	21636.79
862.86	20956.86
863.03	21472.95
863.21	21296.83
863.38	21006.02
863.55	21327.55
863.73	20948.67
863.90	21139.13
864.08	20932.29
864.25	20846.27
864.43	21108.41
864.60	21061.31
864.77	20870.85
864.95	20913.86
865.12	20827.84
865.30	20889.28
865.47	20944.58
865.64	20815.55
865.82	20823.75
865.99	20917.95
866.17	20661.96
866.34	20553.41
866.51	20588.23
866.69	20881.09
866.86	20838.08
867.04	20721.35
867.21	20545.22
867.38	20543.17
867.56	20379.34
867.73	20530.89
867.91	20451.02
868.08	20213.45
868.25	20338.38
868.43	20137.68
868.60	20307.66
868.78	20184.78
868.95	20426.44
869.12	20098.77
869.30	20137.68
869.47	20199.12
869.64	19877.58
869.82	20180.68
869.99	20227.79
870.16	20141.77
870.34	19789.52
870.51	20344.52
870.69	19785.43
870.86	19932.88
871.03	19994.32
871.21	19576.53
871.38	19525.33
871.55	19748.56
871.73	19617.49
871.90	19195.61
872.07	19429.08
872.25	19330.78
872.42	19527.38
872.59	19203.80
872.77	19351.26
872.94	19300.06
873.11	19410.65
873.29	19181.28
873.46	19275.48
873.63	19029.73
873.81	19121.88
873.98	18915.04
874.15	19230.43
874.33	19136.22
874.50	18935.52
874.67	18951.90
874.85	19177.18
875.02	18837.22
875.19	18970.33
875.37	18714.34
875.54	18505.45
875.71	18736.87
875.88	18355.94
876.06	18505.45
876.23	18681.57
876.40	18454.25
876.58	18755.30
876.75	18435.81
876.92	18517.73
877.10	18487.01
877.27	18382.57
877.44	18484.97
877.61	18155.24
877.79	18206.44
877.96	18237.16
878.13	18194.15
878.31	17837.81
878.48	18276.07
878.65	17964.78
878.82	17811.18
879.00	18007.79
879.17	17764.08
879.34	18040.56
879.51	17680.11
879.69	17784.56
879.86	17561.33
880.03	17506.04
880.21	17673.97
880.38	17694.45
880.55	17665.78
880.72	17764.08
880.90	17608.44
881.07	17432.31
881.24	17757.94
881.41	17407.73
881.59	17788.66
881.76	17268.47
881.93	17444.60
882.10	17452.79
882.28	17458.93
882.45	17571.57
882.62	17399.54
882.79	17121.02
882.96	16889.60
883.14	17301.24
883.31	17352.44
883.48	17219.32
883.65	17379.06
883.83	17348.34
884.00	17245.94
884.17	17049.34
884.34	17284.86
884.51	16992.00
884.69	16975.61
884.86	16779.01
885.03	16840.45
885.20	16985.85
885.38	17063.68
885.55	16869.12
885.72	16862.97
885.89	16697.09
886.06	16692.99
886.24	16762.62
886.41	16615.17
886.58	16641.79
886.75	16924.41
886.92	16600.83
887.10	16729.86
887.27	16758.53
887.44	16451.33
887.61	16934.65
887.78	16840.45
887.95	16613.12
888.13	16588.55
888.30	16480.00
888.47	16469.76
888.64	16367.37
888.81	16434.95
888.99	16348.93
889.16	16379.65
889.33	16172.81
889.50	16027.40
889.67	16297.74
889.84	15976.20
890.01	16150.28
890.19	16201.48
890.36	16133.90
890.53	16060.17
890.70	15861.52
890.87	15949.58
891.04	16140.04
891.22	15898.38
891.39	15890.19
891.56	15820.56
891.73	15875.85
891.90	16015.12
892.07	15865.61
892.24	15675.15
892.42	15646.48
892.59	15869.71
892.76	15599.38
892.93	15617.81
893.10	15859.47
893.27	16035.60
893.44	15456.02
893.61	15677.20
893.79	15716.11
893.96	15662.86
894.13	15609.62
894.30	15556.37
894.47	15656.72
894.64	15548.18
894.81	15501.08
894.98	15476.50
895.15	15415.06
895.33	15353.62
895.50	15519.51
895.67	15599.38
895.84	15386.39
896.01	15312.66
896.18	15253.27
896.35	15408.92
896.52	15333.14
896.69	15322.90
896.86	15335.19
897.04	15468.31
897.21	15363.86
897.38	15257.37
897.55	15462.16
897.72	15511.32
897.89	15546.13
898.06	15435.54
898.23	15247.13
898.40	15304.47
898.57	15404.82
898.74	15292.18
898.91	15163.16
899.08	15124.25
899.26	15357.72
899.43	15245.08
899.60	15195.93
899.77	15247.13
899.94	15152.92
900.11	15220.50
900.28	15185.69
900.45	15013.66
900.62	15062.81
900.79	15200.02
900.96	15036.19
901.13	14890.78
901.30	15320.85
901.47	15226.65
901.64	15347.48
901.81	15122.20
901.98	14892.83
902.15	14950.17
902.32	15146.78
902.49	14917.40
902.66	14954.27
902.83	15109.91
903.01	15048.47
903.18	15230.74
903.35	15200.02
903.52	15212.31
903.69	15171.35
903.86	15185.69
904.03	15097.63
904.20	15210.26
904.37	15210.26
904.54	15085.34
904.71	15130.39
904.88	15273.75
905.05	15097.63
905.22	15105.82
905.39	14993.18
905.56	15175.45
905.73	14970.65
905.90	15228.70
906.07	14905.12
906.24	15367.96
906.41	14935.84
906.58	15046.43
906.75	14974.75
906.92	14806.81
907.09	14966.56
907.26	15083.29
907.43	14989.08
907.60	14892.83
907.77	15054.62
907.93	15015.71
908.10	14929.69
908.27	15085.34
908.44	14884.64
908.61	14997.28
908.78	15148.82
908.95	14888.73
909.12	15105.82
909.29	14831.39
909.46	15134.49
909.63	14774.05
909.80	14966.56
909.97	15017.75
910.14	14831.39
910.31	15101.72
910.48	14638.88
910.65	14800.67
910.82	14634.78
910.99	14647.07
911.16	14628.64
911.33	14675.74
911.50	14651.17
911.66	14685.98
911.83	14624.54
912.00	14542.63
912.17	14495.52
912.34	14454.56
912.51	14616.35
912.68	14180.14
912.85	14491.43
913.02	14642.98
913.19	14397.22
913.36	14225.19
913.53	14554.91
913.70	14208.81
913.86	14319.40
914.03	14294.82
914.20	14120.74
914.37	14331.69
914.54	14206.76
914.71	14112.55
914.88	14286.63
915.05	14083.88
915.22	13981.48
915.39	14106.41
915.55	13838.12
915.72	13967.15
915.89	13864.75
916.06	14061.35
916.23	13840.17
916.40	13870.89
916.57	13733.68
916.74	13684.53
916.91	13727.53
917.07	13664.05
917.24	13702.96
917.41	13721.39
917.58	13631.28
917.75	13653.81
917.92	13172.54
918.09	13319.99
918.26	13455.15
918.42	13492.02
918.59	13616.94
918.76	13317.94
918.93	13285.17
919.10	13326.13
919.27	13260.60
919.44	13358.90
919.60	13412.15
919.77	13184.82
919.94	13254.45
920.11	13098.81
920.28	13111.10
920.45	13086.52
920.61	12900.16
920.78	12801.85
920.95	12883.77
921.12	12961.59
921.29	12830.52
921.46	12756.80
921.62	12435.27
921.79	12666.69
921.96	12623.68
922.13	12617.54
922.30	12328.77
922.47	12351.30
922.63	12408.64
922.80	12318.53
922.97	12205.89
923.14	12052.30
923.31	12310.34
923.47	12259.14
923.64	12531.52
923.81	11964.23
923.98	12138.31
924.15	12173.13
924.32	12064.58
924.48	12046.15
924.65	12048.20
924.82	11827.02
924.99	11820.88
925.15	11685.71
925.32	11945.80
925.49	11675.47
925.66	11691.85
925.83	11548.50
925.99	11450.19
926.16	11560.78
926.33	11687.76
926.50	11347.79
926.67	11384.66
926.83	11618.13
927.00	11310.93
927.17	11497.30
927.34	11296.60
927.50	11054.94
927.67	11431.76
927.84	11011.93
928.01	11145.05
928.17	11030.36
928.34	10891.10
928.51	10987.35
928.68	10895.19
928.84	10628.96
929.01	10866.52
929.18	10487.65
929.35	10506.08
929.51	10719.07
929.68	10594.14
929.85	10403.68
930.02	10731.36
930.18	10569.57
930.35	10422.11
930.52	10432.35
930.69	10180.45
930.85	10198.88
931.02	10213.22
931.19	10270.56
931.36	10069.86
931.52	10033.00
931.69	10178.40
931.86	10110.82
932.02	9940.84
932.19	9951.08
932.36	10045.29
932.53	9856.87
932.69	9940.84
932.86	9774.95
933.03	9850.73
933.19	9521.01
933.36	9723.76
933.53	9826.15
933.70	9553.77
933.86	9432.94
934.03	9492.34
934.20	9332.59
934.36	9406.32
934.53	9142.13
934.70	9258.87
934.86	9183.09
935.03	9058.17
935.20	8923.00
935.36	8716.16
935.53	8683.39
935.70	8861.56
935.86	8859.51
936.03	8589.18
936.20	8660.86
936.36	8400.77
936.53	8552.32
936.70	8470.40
936.86	8540.03
937.03	8327.04
937.20	8101.76
937.36	8230.79
937.53	7903.11
937.70	7958.41
937.86	7843.72
938.03	7733.13
938.20	7718.79
938.36	7724.94
938.53	7573.39
938.70	7204.75
938.86	7432.08
939.03	7227.28
939.20	7223.19
939.36	7206.80
939.53	7094.16
939.70	7280.53
939.86	6938.52
940.03	6875.03
940.19	6852.50
940.36	6727.58
940.53	6797.21
940.69	6526.88
940.86	6655.90
941.03	6451.10
941.19	6322.08
941.36	6338.46
941.52	6256.54
941.69	6328.22
941.86	6145.95
942.02	6223.78
942.19	6002.60
942.35	6035.36
942.52	5990.31
942.69	6016.93
942.85	5910.44
943.02	5803.94
943.18	5863.33
943.35	5795.75
943.52	5670.83
943.68	5685.16
943.85	5691.31
944.01	5511.08
944.18	5560.24
944.35	5685.16
944.51	5470.12
944.68	5339.05
944.84	5435.31
945.01	5392.30
945.17	5392.30
945.34	5410.73
945.51	5410.73
945.67	5222.32
945.84	5431.21
946.00	5134.26
946.17	5316.53
946.33	5244.85
946.50	5232.56
946.67	5302.19
946.83	5189.55
947.00	5337.01
947.16	5369.77
947.33	5334.96
947.49	5255.09
947.66	5261.23
947.82	5306.29
947.99	5326.77
948.16	5160.88
948.32	5246.90
948.49	5289.90
948.65	5246.90
948.82	5156.79
948.98	5109.68
949.15	5289.90
949.31	5304.24
949.48	5203.89
949.64	5210.03
949.81	5253.04
949.97	5285.81
950.14	5242.80
950.30	5132.21
950.47	5345.20
950.63	5308.34
950.80	5298.10
950.96	5310.38
951.13	5191.60
951.30	5240.75
951.46	5369.77
951.63	5337.01
951.79	5427.12
951.96	5365.68
952.12	5332.91
952.29	5375.92
952.45	5304.24
952.62	5302.19
952.78	5341.10
952.94	5343.15
953.11	5275.57
953.27	5244.85
953.44	5470.12
953.60	5451.69
953.77	5560.24
953.93	5410.73
954.10	5500.84
954.26	5337.01
954.43	5302.19
954.59	5425.07
954.76	5490.60
954.92	5375.92
955.09	5468.08
955.25	5357.49
955.42	5459.88
955.58	5394.35
955.75	5390.25
955.91	5375.92
956.07	5615.53
956.24	5291.95
956.40	5457.84
956.57	5427.12
956.73	5265.33
956.90	5498.80
957.06	5398.45
957.23	5433.26
957.39	5500.84
957.56	5380.01
957.72	5500.84
957.88	5328.81
958.05	5582.76
958.21	5531.56
958.38	5437.36
958.54	5394.35
958.71	5556.14
958.87	5550.00
959.03	5486.51
959.20	5402.54
959.36	5441.45
959.53	5488.56
959.69	5451.69
959.85	5572.52
960.02	5480.36
960.18	5332.91
960.35	5525.42
960.51	5377.97
960.68	5253.04
960.84	5408.69
961.00	5414.83
961.17	5459.88
961.33	5609.39
961.50	5500.84
961.66	5504.94
961.82	5394.35
961.99	5357.49
962.15	5285.81
962.31	5451.69
962.48	5298.10
962.64	5316.53
962.81	5199.79
962.97	5414.83
963.13	5349.29
963.30	5398.45
963.46	5259.18
963.62	5281.71
963.79	5349.29
963.95	5334.96
964.12	5373.87
964.28	5281.71
964.44	5322.67
964.61	5326.77
964.77	5367.73
964.93	5556.14
965.10	5357.49
965.26	5308.34
965.42	5281.71
965.59	5296.05
965.75	5201.84
965.92	5386.16
966.08	5351.34
966.24	5423.02
966.41	5289.90
966.57	5224.37
966.73	5304.24
966.90	5261.23
967.06	5263.28
967.22	5316.53
967.39	5259.18
967.55	5277.62
967.71	5207.98
967.88	5181.36
968.04	5226.42
968.20	5164.98
968.37	5363.63
968.53	5273.52
968.69	5134.26
968.85	5111.73
969.02	5173.17
969.18	5189.55
969.34	5107.63
969.51	5205.94
969.67	5042.10
969.83	5095.35
970.00	5113.78
970.16	5060.53
970.32	5257.14
970.48	5146.55
970.65	4992.95
970.81	5027.76
970.97	4966.32
971.14	4857.78
971.30	5183.41
971.46	5085.11
971.63	4958.13
971.79	5048.24
971.95	5033.91
972.11	4999.09
972.28	4933.56
972.44	4992.95
972.60	4945.84
972.76	4943.80
972.93	5119.92
973.09	5001.14
973.25	4853.69
973.42	4792.25
973.58	4999.09
973.74	4935.60
973.90	4954.04
974.07	4861.88
974.23	4853.69
974.39	4929.46
974.55	4935.60
974.72	4843.45
974.88	4693.94
975.04	4970.42
975.20	4724.66
975.37	4777.91
975.53	4765.62
975.69	4728.76
975.85	4640.70
976.01	4804.53
976.18	4685.75
976.34	4724.66
976.50	4808.63
976.66	4800.44
976.83	4644.79
976.99	4691.90
977.15	4765.62
977.31	4573.11
977.47	4638.65
977.64	4550.59
977.80	4681.66
977.96	4648.89
978.12	4499.39
978.29	4583.35
978.45	4589.50
978.61	4556.73
978.77	4589.50
978.93	4507.58
979.10	4671.42
979.26	4540.35
979.42	4483.00
979.58	4474.81
979.74	4470.72
979.91	4579.26
980.07	4456.38
980.23	4550.59
980.39	4472.76
980.55	4292.54
980.71	4446.14
980.88	4362.17
981.04	4452.28
981.20	4421.56
981.36	4595.64
981.52	4329.41
981.68	4265.92
981.85	4530.11
982.01	4310.97
982.17	4220.86
982.33	4390.84
982.49	4343.74
982.65	4284.35
982.82	4310.97
982.98	4304.83
983.14	4151.23
983.30	4331.45
983.46	4364.22
983.62	4247.49
983.79	4200.38
983.95	4190.14
984.11	4200.38
984.27	4347.84
984.43	4349.89
984.59	4140.99
984.75	4341.69
984.91	4079.55
985.08	4153.28
985.24	4085.70
985.40	4267.97
985.56	4284.35
985.72	4259.78
985.88	4212.67
986.04	4122.56
986.20	4036.55
986.37	4188.10
986.53	4069.31
986.69	4157.38
986.85	4005.83
987.01	4155.33
987.17	3993.54
987.33	4032.45
987.49	4067.27
987.65	4018.11
987.82	3968.96
987.98	3993.54
988.14	4083.65
988.30	3993.54
988.46	3962.82
988.62	4034.50
988.78	3862.47
988.94	4054.98
989.10	3835.85
989.26	3854.28
989.42	3803.08
989.59	3807.17
989.75	3852.23
989.91	3983.30
990.07	3686.34
990.23	3821.51
990.39	3811.27
990.55	3860.42
990.71	3901.38
990.87	3811.27
991.03	3874.76
991.19	3764.17
991.35	3811.27
991.51	3839.94
991.67	3887.04
991.83	3809.22
992.00	3741.64
992.16	3772.36
992.32	3727.30
992.48	3706.82
992.64	3624.90
992.80	3729.35
992.96	3674.06
993.12	3694.54
993.28	3532.75
993.44	3682.25
993.60	3688.39
993.76	3684.30
993.92	3712.97
994.08	3696.58
994.24	3633.10
994.40	3581.90
994.56	3676.10
994.72	3608.52
994.88	3626.95
995.04	3596.23
995.20	3526.60
995.36	3538.89
995.52	3592.14
995.68	3622.86
995.84	3563.47
996.00	3706.82
996.16	3403.72
996.32	3497.93
996.48	3499.98
996.64	3499.98
996.80	3473.36
996.96	3536.84
997.12	3393.48
997.28	3256.27
997.44	3303.37
997.60	3420.11
997.76	3452.88
997.92	3352.52
998.08	3375.05
998.24	3444.68
998.40	3383.24
998.56	3346.38
998.72	3262.41
998.88	3422.16
999.04	3284.94
999.20	3436.49
999.36	3385.29
999.52	3411.92
999.68	3305.42
999.84	3373.00
1000.00	3403.72
1000.16	3356.62
1000.32	3135.44
1000.48	3502.03
1000.64	3237.84
1000.80	3184.59
1000.95	3137.49
1001.11	3237.84
1001.27	3221.45
1001.43	3268.56
1001.59	3211.22
1001.75	3125.20
1001.91	3276.75
1002.07	3164.11
1002.23	3028.95
1002.39	3082.19
1002.55	3123.15
1002.71	3143.63
1002.87	3141.58
1003.03	3002.32
1003.19	3092.43
1003.34	3014.61
1003.50	3078.10
1003.66	3157.97
1003.82	3080.14
1003.98	3078.10
1004.14	3057.62
1004.30	2994.13
1004.46	3053.52
1004.62	3018.71
1004.78	3016.66
1004.94	3112.91
1005.09	3057.62
1005.25	3098.58
1005.41	2985.94
1005.57	3117.01
1005.73	2932.69
1005.89	2936.79
1006.05	3069.91
1006.21	3006.42
1006.37	2985.94
1006.52	2926.55
1006.68	2799.57
1006.84	2953.17
1007.00	2951.12
1007.16	3006.42
1007.32	2928.60
1007.48	2983.89
1007.64	2842.58
1007.79	2910.16
1007.95	2865.11
1008.11	2926.55
1008.27	2899.92
1008.43	2846.68
1008.59	2838.48
1008.75	2828.24
1008.91	2953.17
1009.06	2822.10
1009.22	2908.12
1009.38	2742.23
1009.54	2887.64
1009.70	2912.21
1009.86	2834.39
1010.01	2809.81
1010.17	2803.67
1010.33	2740.18
1010.49	2750.42
1010.65	2846.68
1010.81	2615.26
1010.96	2783.19
1011.12	2719.70
1011.28	2723.80
1011.44	2813.91
1011.60	2668.50
1011.76	2652.12
1011.91	2662.36
1012.07	2629.59
1012.23	2613.21
1012.39	2639.83
1012.55	2830.29
1012.71	2682.84
1012.86	2605.02
1013.02	2707.41
1013.18	2766.81
1013.34	2668.50
1013.50	2725.85
1013.65	2645.98
1013.81	2588.63
1013.97	2519.00
1014.13	2686.94
1014.29	2621.40
1014.44	2609.11
1014.60	2627.54
1014.76	2615.26
1014.92	2494.43
1015.07	2555.86
1015.23	2633.69
1015.39	2533.34
1015.55	2545.63
1015.71	2584.54
1015.86	2486.23
1016.02	2535.39
1016.18	2547.67
1016.34	2576.34
1016.49	2500.57
1016.65	2525.15
1016.81	2525.15
1016.97	2557.91
1017.12	2594.78
1017.28	2461.66
1017.44	2504.67
1017.60	2449.37
1017.75	2422.75
1017.91	2469.85
1018.07	2312.16
1018.23	2420.70
1018.38	2392.03
1018.54	2449.37
1018.70	2426.84
1018.86	2490.33
1019.01	2406.36
1019.17	2482.14
1019.33	2490.33
1019.49	2308.06
1019.64	2426.84
1019.80	2426.84
1019.96	2392.03
1020.12	2379.74
1020.27	2332.64
1020.43	2414.56
1020.59	2396.12
1020.74	2357.21
1020.90	2402.27
1021.06	2295.77
1021.22	2334.68
1021.37	2338.78
1021.53	2236.38
1021.69	2447.32
1021.84	2234.33
1022.00	2263.01
1022.16	2252.77
1022.31	2367.45
1022.47	2324.44
1022.63	2355.16
1022.79	2324.44
1022.94	2240.48
1023.10	2383.84
1023.26	2312.16
1023.41	2389.98
1023.57	2226.14
1023.73	2293.72
1023.88	2314.20
1024.04	2209.76
1024.20	2271.20
1024.35	2318.30
1024.51	2279.39
1024.67	2209.76
1024.82	2379.74
1024.98	2193.37
1025.14	2197.47
1025.29	2263.01
1025.45	2281.44
1025.61	2226.14
1025.76	2125.79
1025.92	2142.18
1026.08	2265.05
1026.23	2193.37
1026.39	2256.86
1026.55	2205.66
1026.70	2156.51
1026.86	2164.70
1027.02	2211.81
1027.17	2152.42
1027.33	2189.28
1027.48	2131.94
1027.64	2119.65
1027.80	2199.52
1027.95	2205.66
1028.11	2090.98
1028.27	2199.52
1028.42	2144.22
1028.58	2105.31
1028.73	2072.54
1028.89	2095.07
1029.05	2138.08
1029.20	2166.75
>>>>>End Processed Spectral Data<<<<<
