SpectraSuite Data File
++++++++++++++++++++++++++++++++++++
Date: Fri Jun 02 14:48:00 CEST 2017
User: INFO_000
Dark Spectrum Present: No
Reference Spectrum Present: No
Number of Sampled Component Spectra: 1
Spectrometers: USB4H00879
Integration Time (usec): 80000 (USB4H00879)
Spectra Averaged: 1 (USB4H00879)
Boxcar Smoothing: 0 (USB4H00879)
Correct for Electrical Dark: No (USB4H00879)
Strobe/Lamp Enabled: No (USB4H00879)
Correct for Detector Non-linearity: No (USB4H00879)
Correct for Stray Light: No (USB4H00879)
Number of Pixels in Processed Spectrum: 3648
>>>>>Begin Processed Spectral Data<<<<<
345.13	1308.65
345.34	1308.65
345.56	1308.65
345.78	1269.74
345.99	1304.56
346.21	1695.72
346.42	1746.92
346.64	1607.66
346.86	1761.25
347.07	1697.77
347.29	1601.51
347.50	1611.75
347.72	1638.38
347.94	1757.16
348.15	1630.18
348.37	1603.56
348.59	1730.53
348.80	1662.95
349.02	1820.64
349.23	1847.27
349.45	1804.26
349.67	1916.90
349.88	1826.79
350.10	1986.53
350.31	1894.37
350.53	1810.40
350.75	2017.25
350.96	1761.25
351.18	1875.94
351.39	1884.13
351.61	1748.97
351.82	1888.23
352.04	1904.61
352.26	1914.85
352.47	1933.28
352.69	1978.34
352.90	1820.64
353.12	1830.88
353.34	1847.27
353.55	1978.34
353.77	1804.26
353.98	1834.98
354.20	1871.84
354.41	1953.76
354.63	1890.28
354.85	2017.25
355.06	1941.47
355.28	1775.59
355.49	1959.91
355.71	1834.98
355.92	1916.90
356.14	1949.67
356.35	1935.33
356.57	1839.08
356.79	1943.52
357.00	1904.61
357.22	2002.91
357.43	1880.04
357.65	1935.33
357.86	1771.49
358.08	1980.39
358.29	1912.80
358.51	1964.00
358.72	1949.67
358.94	1935.33
359.16	1882.08
359.37	1959.91
359.59	1964.00
359.80	1906.66
360.02	1910.75
360.23	2027.49
360.45	2023.39
360.66	1955.81
360.88	1875.94
361.09	1929.19
361.31	1976.29
361.52	1996.77
361.74	2013.15
361.95	2056.16
362.17	1888.23
362.38	2058.21
362.60	2015.20
362.81	2004.96
363.03	1957.86
363.24	1978.34
363.46	2019.30
363.67	2050.02
363.89	2064.35
364.10	1996.77
364.32	1974.24
364.53	2074.59
364.75	2015.20
364.96	1986.53
365.18	1994.72
365.39	2037.73
365.61	1916.90
365.82	2111.46
366.04	2017.25
366.25	1880.04
366.47	2011.11
366.68	1974.24
366.90	1941.47
367.11	2111.46
367.33	2133.98
367.54	2107.36
367.76	2064.35
367.97	2133.98
368.19	1970.15
368.40	2103.26
368.62	1986.53
368.83	2007.01
369.05	2037.73
369.26	2013.15
369.48	1953.76
369.69	2045.92
369.91	2066.40
370.12	2031.58
370.33	2076.64
370.55	2007.01
370.76	1990.63
370.98	2047.97
371.19	2054.11
371.41	2039.78
371.62	2078.69
371.84	2066.40
372.05	2142.18
372.27	1986.53
372.48	2119.65
372.69	2084.83
372.91	2158.56
373.12	2154.46
373.34	2093.02
373.55	2181.09
373.77	2181.09
373.98	2099.17
374.20	2125.79
374.41	2263.01
374.62	2142.18
374.84	2248.67
375.05	2197.47
375.27	2215.90
375.48	2183.13
375.70	2113.50
375.91	2201.57
376.12	2312.16
376.34	2168.80
376.55	2199.52
376.77	2236.38
376.98	2152.42
377.19	2158.56
377.41	2172.89
377.62	2099.17
377.84	2289.63
378.05	2238.43
378.27	2306.01
378.48	2256.86
378.69	2410.46
378.91	2365.40
379.12	2275.29
379.34	2195.42
379.55	2293.72
379.76	2267.10
379.98	2201.57
380.19	2361.31
380.41	2301.92
380.62	2320.35
380.83	2353.12
381.05	2222.05
381.26	2437.08
381.47	2252.77
381.69	2312.16
381.90	2394.08
382.12	2277.34
382.33	2234.33
382.54	2297.82
382.76	2338.78
382.97	2344.92
383.19	2281.44
383.40	2359.26
383.61	2326.49
383.83	2316.25
384.04	2355.16
384.25	2412.51
384.47	2408.41
384.68	2441.18
384.89	2328.54
385.11	2295.77
385.32	2416.60
385.54	2428.89
385.75	2394.08
385.96	2406.36
386.18	2441.18
386.39	2473.95
386.60	2500.57
386.82	2512.86
387.03	2519.00
387.24	2508.76
387.46	2426.84
387.67	2541.53
387.88	2643.93
388.10	2498.52
388.31	2471.90
388.52	2699.22
388.74	2568.15
388.95	2516.95
389.16	2576.34
389.38	2480.09
389.59	2562.01
389.80	2639.83
390.02	2607.06
390.23	2586.58
390.44	2627.54
390.66	2643.93
390.87	2596.82
391.08	2627.54
391.30	2713.56
391.51	2738.13
391.72	2715.61
391.94	2676.70
392.15	2707.41
392.36	2619.35
392.58	2701.27
392.79	2707.41
393.00	2744.28
393.22	2715.61
393.43	2801.62
393.64	2858.96
393.85	2768.85
394.07	2693.08
394.28	2803.67
394.49	2772.95
394.71	2889.68
394.92	2887.64
395.13	2852.82
395.35	2660.31
395.56	2770.90
395.77	2795.48
395.98	2826.20
396.20	2863.06
396.41	2799.57
396.62	2871.25
396.84	2809.81
397.05	2912.21
397.26	2949.08
397.47	2893.78
397.69	2906.07
397.90	3067.86
398.11	2990.03
398.32	2897.88
398.54	2922.45
398.75	3018.71
398.96	3033.04
399.18	3082.19
399.39	3000.27
399.60	3035.09
399.81	3098.58
400.03	3010.51
400.24	3311.57
400.45	3059.67
400.66	3139.54
400.88	2953.17
401.09	3260.37
401.30	3084.24
401.51	3080.14
401.73	3172.30
401.94	3121.10
402.15	3241.93
402.36	3289.04
402.58	3213.26
402.79	3307.47
403.00	3182.54
403.21	3205.07
403.43	3291.09
403.64	3305.42
403.85	3172.30
404.06	3252.17
404.27	3225.55
404.49	3319.76
404.70	3217.36
404.91	3284.94
405.12	3272.65
405.34	3325.90
405.55	3497.93
405.76	3217.36
405.97	3293.13
406.19	3413.96
406.40	3215.31
406.61	3385.29
406.82	3454.92
407.03	3254.22
407.25	3368.91
407.46	3432.40
407.67	3502.03
407.88	3600.33
408.09	3377.10
408.31	3438.54
408.52	3534.79
408.73	3393.48
408.94	3469.26
409.15	3395.53
409.37	3485.64
409.58	3514.31
409.79	3680.20
410.00	3588.04
410.21	3497.93
410.43	3461.07
410.64	3557.32
410.85	3475.40
411.06	3542.99
411.27	3547.08
411.48	3573.71
411.70	3551.18
411.91	3651.53
412.12	3702.73
412.33	3653.58
412.54	3669.96
412.76	3735.50
412.97	3690.44
413.18	3565.51
413.39	3559.37
413.60	3745.73
413.81	3801.03
414.03	3702.73
414.24	3639.24
414.45	3852.23
414.66	3717.06
414.87	3657.67
415.08	3770.31
415.30	3727.30
415.51	3731.40
415.72	3723.21
415.93	3764.17
416.14	3882.95
416.35	3940.29
416.56	3876.80
416.78	3999.68
416.99	3944.39
417.20	3846.09
417.41	4018.11
417.62	3932.10
417.83	4085.70
418.04	3940.29
418.26	4018.11
418.47	3973.06
418.68	4091.84
418.89	4153.28
419.10	4229.06
419.31	4136.90
419.52	4118.47
419.73	4091.84
419.95	4112.32
420.16	3999.68
420.37	4130.75
420.58	4190.14
420.79	3987.40
421.00	4259.78
421.21	4224.96
421.42	4171.71
421.63	4173.76
421.85	4259.78
422.06	4276.16
422.27	4296.64
422.48	4356.03
422.69	4392.89
422.90	4378.56
423.11	4313.02
423.32	4331.45
423.53	4427.71
423.75	4372.41
423.96	4566.97
424.17	4470.72
424.38	4575.16
424.59	4485.05
424.80	4663.22
425.01	4587.45
425.22	4478.91
425.43	4431.80
425.64	4745.14
425.85	4730.81
426.06	4634.55
426.28	4652.98
426.49	4548.54
426.70	4640.70
426.91	4777.91
427.12	4710.33
427.33	4804.53
427.54	4710.33
427.75	4784.06
427.96	4935.60
428.17	4814.77
428.38	4984.76
428.59	4777.91
428.80	4736.95
429.01	4902.84
429.23	4915.12
429.44	5072.82
429.65	5017.52
429.86	5078.96
430.07	5007.28
430.28	4943.80
430.49	5005.24
430.70	5226.42
430.91	5189.55
431.12	5138.35
431.33	5341.10
431.54	5287.86
431.75	5273.52
431.96	5318.57
432.17	5267.38
432.38	5089.20
432.59	5371.82
432.80	5343.15
433.01	5216.18
433.22	5386.16
433.43	5506.99
433.64	5343.15
433.85	5271.47
434.06	5517.23
434.27	5488.56
434.49	5506.99
434.70	5701.54
434.91	5615.53
435.12	5566.38
435.33	5650.35
435.54	5611.43
435.75	5396.40
435.96	5576.62
436.17	5648.30
436.38	5609.39
436.59	5726.12
436.80	5629.87
437.01	5771.18
437.22	5912.49
437.43	5638.06
437.64	5556.14
437.85	5783.46
438.06	5951.40
438.27	5877.67
438.48	5758.89
438.69	5998.50
438.90	5799.85
439.11	5760.94
439.32	5879.72
439.53	5887.91
439.74	6016.93
439.95	5851.05
440.16	6039.46
440.37	5992.36
440.57	5998.50
440.78	6125.47
440.99	6123.43
441.20	6100.90
441.41	6201.25
441.62	6025.12
441.83	6076.32
442.04	6317.98
442.25	6238.11
442.46	6223.78
442.67	6356.90
442.88	6836.12
443.09	6274.98
443.30	6287.26
443.51	6524.83
443.72	6598.56
443.93	6301.60
444.14	6758.30
444.35	6250.40
444.56	6506.40
444.77	6393.76
444.98	6571.93
445.19	6498.20
445.40	6612.89
445.61	6498.20
445.81	6612.89
446.02	6614.94
446.23	6571.93
446.44	6553.50
446.65	6668.19
446.86	6596.51
447.07	6746.01
447.28	6889.37
447.49	6944.66
447.70	6748.06
447.91	6901.65
448.12	6858.65
448.33	7038.87
448.54	6936.47
448.74	6782.87
448.95	6959.00
449.16	6752.15
449.37	7114.64
449.58	6965.14
449.79	7225.23
450.00	6997.91
450.21	7051.16
450.42	7186.32
450.63	7083.92
450.84	7079.83
451.05	7282.58
451.25	7180.18
451.46	7118.74
451.67	7389.07
451.88	7430.03
452.09	7264.15
452.30	7380.88
452.51	7362.45
452.72	7409.55
452.93	7636.88
453.13	7237.52
453.34	7380.88
453.55	7470.99
453.76	7618.44
453.97	7780.23
454.18	7581.58
454.39	7759.75
454.60	7585.68
454.81	7741.32
455.01	7843.72
455.22	7569.29
455.43	7688.07
455.64	8101.76
455.85	8128.39
456.06	8208.26
456.27	7884.68
456.48	7901.06
456.68	8030.09
456.89	8103.81
457.10	8036.23
457.31	8279.94
457.52	8173.44
457.73	8300.42
457.94	8400.77
458.14	8163.20
458.35	8605.56
458.56	8443.78
458.77	8507.26
458.98	8435.58
459.19	8484.73
459.39	8517.50
459.60	8718.20
459.81	8542.08
460.02	8912.76
460.23	8697.72
460.44	8888.18
460.65	9037.69
460.85	9009.01
461.06	8884.09
461.27	8816.51
461.48	9146.23
461.69	9185.14
461.89	8933.24
462.10	9000.82
462.31	8972.15
462.52	8916.86
462.73	9021.30
462.94	9326.45
463.14	9396.08
463.35	9305.97
463.56	9715.56
463.77	9840.49
463.98	9215.86
464.18	9547.63
464.39	9598.83
464.60	9809.77
464.81	9711.47
465.02	9695.08
465.23	10104.68
465.43	9912.17
465.64	10033.00
465.85	10063.72
466.06	9875.31
466.27	10147.69
466.47	10295.14
466.68	10245.99
466.89	10286.95
467.10	10440.54
467.30	10258.28
467.51	10299.23
467.72	10596.19
467.93	10266.47
468.14	10588.00
468.34	10649.44
468.55	10852.19
468.76	10817.37
468.97	10641.25
469.17	10905.43
469.38	11097.94
469.59	11149.14
469.80	11181.91
470.01	11050.84
470.21	11226.96
470.42	11480.91
470.63	11499.34
470.84	11274.07
471.04	11536.21
471.25	11603.79
471.46	11704.14
471.67	11765.58
471.87	11710.29
472.08	11816.78
472.29	12097.35
472.50	11824.97
472.70	11968.33
472.91	12046.15
473.12	12103.50
473.33	12173.13
473.53	12619.58
473.74	12349.25
473.95	12683.07
474.16	12824.38
474.36	12658.49
474.57	12832.57
474.78	13025.08
474.99	12924.73
475.19	13014.84
475.40	13303.60
475.61	13240.12
475.81	13420.34
476.02	13678.38
476.23	13297.46
476.44	13524.79
476.64	13776.69
476.85	13864.75
477.06	13973.29
477.27	13967.15
477.47	14128.94
477.68	14018.35
477.89	14528.29
478.09	14370.60
478.30	14427.94
478.51	14309.16
478.71	14614.30
478.92	14878.49
479.13	14708.51
479.34	14929.69
479.54	14894.88
479.75	14958.36
479.96	15255.32
480.16	15306.52
480.37	15218.46
480.58	15314.71
480.78	15492.88
480.99	15570.71
481.20	15863.57
481.41	15791.89
481.61	15843.09
481.82	16033.55
482.03	15951.63
482.23	16088.84
482.44	16232.20
482.65	16221.96
482.85	16568.07
483.06	16381.70
483.27	16721.66
483.47	16525.06
483.68	16645.89
483.89	16922.37
484.09	16879.36
484.30	17041.15
484.51	17284.86
484.71	17229.56
484.92	17303.29
485.13	17698.55
485.33	17506.04
485.54	17663.73
485.75	17874.67
485.95	17757.94
486.16	18099.95
486.37	18046.70
486.57	18093.80
486.78	18333.42
486.98	18194.15
487.19	18558.69
487.40	18542.31
487.60	18767.59
487.81	18611.94
488.02	18853.60
488.22	18734.82
488.43	18923.23
488.64	19179.23
488.84	19234.52
489.05	19461.85
489.25	19101.40
489.46	19422.94
489.67	19689.17
489.87	19773.14
490.08	19820.24
490.29	19945.17
490.49	20066.00
490.70	19867.34
490.90	20055.76
491.11	19922.64
491.32	20104.91
491.52	20192.97
491.73	20387.53
491.94	20262.60
492.14	20569.80
492.35	20842.18
492.55	20784.83
492.76	21098.17
492.97	20975.30
493.17	21147.33
493.38	21229.24
493.58	21497.53
493.79	21286.59
494.00	21229.24
494.20	21614.26
494.41	21540.54
494.61	21526.20
494.82	21696.18
495.02	21831.35
495.23	21935.79
495.44	22228.65
495.64	22120.11
495.85	22052.53
496.05	22472.36
496.26	22126.25
496.47	22617.77
496.67	22492.84
496.88	22771.36
497.08	22386.35
497.29	22699.69
497.49	22644.39
497.70	22869.67
497.91	23217.82
498.11	22961.83
498.32	23107.23
498.52	23258.78
498.73	23656.09
498.93	23264.92
499.14	23600.79
499.34	23420.57
499.55	23672.47
499.76	23570.07
499.96	23967.38
500.17	23848.60
500.37	23991.95
500.58	24200.85
500.78	24145.55
500.99	24186.51
501.19	24372.88
501.40	24268.43
501.60	24202.89
501.81	24442.51
502.02	24549.00
502.22	24215.18
502.43	24551.05
502.63	25020.03
502.84	24723.08
503.04	24755.85
503.25	25167.49
503.45	25048.71
503.66	25202.30
503.86	25157.25
504.07	25556.60
504.27	25042.56
504.48	25802.36
504.68	25194.11
504.89	25665.14
505.09	25720.44
505.30	25601.66
505.50	25624.18
505.71	25704.06
505.91	26277.49
506.12	26093.17
506.32	25810.55
506.53	25941.62
506.73	25824.89
506.94	25978.48
507.14	26199.66
507.35	26353.26
507.55	26328.69
507.76	26300.01
507.96	26484.33
508.17	26330.73
508.37	26658.41
508.58	26646.12
508.78	27037.28
508.99	26895.97
509.19	26818.15
509.40	26844.77
509.60	27264.61
509.81	26994.28
510.01	26961.51
510.22	26951.27
510.42	27190.88
510.63	27602.52
510.83	27348.57
511.04	27276.90
511.24	27453.02
511.44	27258.46
511.65	27594.33
511.85	27625.05
512.06	27629.15
512.26	27776.60
512.47	27805.27
512.67	28196.43
512.88	27850.33
513.08	27817.56
513.29	27985.49
513.49	27899.48
513.69	28032.60
513.90	28212.82
514.10	28339.79
514.31	27881.05
514.51	28483.15
514.72	28171.86
514.92	28257.87
515.13	28210.77
515.33	28423.76
515.53	28589.64
515.74	28923.46
515.94	28872.26
516.15	28743.24
516.35	28720.71
516.56	28927.56
516.76	28532.30
516.96	28845.64
517.17	28841.54
517.37	28907.08
517.58	28962.37
517.78	29099.59
517.99	29113.92
518.19	29206.08
518.39	29492.80
518.60	29558.33
518.80	29523.52
519.01	29644.35
519.21	29652.54
519.41	29617.72
519.62	29582.91
519.82	29980.21
520.03	29812.28
520.23	30156.34
520.43	29838.90
520.64	30504.49
520.84	30305.84
521.05	30068.28
521.25	30178.87
521.45	30361.14
521.66	30668.33
521.86	30305.84
522.07	30402.10
522.27	30459.44
522.47	30869.03
522.68	30918.18
522.88	30692.91
523.08	31159.84
523.29	31071.78
523.49	31053.35
523.70	31350.31
523.90	31221.28
524.10	31342.11
524.31	31206.95
524.51	31090.21
524.71	31886.87
524.92	31585.82
525.12	31651.36
525.33	31772.19
525.53	31999.51
525.73	32179.73
525.94	32099.86
526.14	32071.19
526.34	32269.84
526.55	32288.28
526.75	32589.33
526.95	32552.46
527.16	32462.35
527.36	32740.88
527.56	32730.64
527.77	33211.91
527.97	32902.67
528.17	32859.66
528.38	33015.30
528.58	33048.07
528.78	33383.94
528.99	33431.04
529.19	33531.39
529.39	33719.81
529.60	33232.39
529.80	33455.62
530.00	33758.72
530.21	34012.66
530.41	33949.18
530.61	34094.58
530.82	33781.24
531.02	34629.10
531.22	34260.47
531.43	34217.46
531.63	34375.16
531.83	34944.49
532.04	35012.07
532.24	34711.02
532.44	35360.23
532.64	35411.43
532.85	35489.25
533.05	35300.84
533.25	35257.83
533.46	34997.74
533.66	35515.87
533.86	35466.72
534.07	35816.93
534.27	35427.81
534.47	36062.68
534.67	36052.44
534.88	36156.89
535.08	36074.97
535.28	36519.38
535.49	36187.61
535.69	36560.34
535.89	36363.73
536.09	36697.55
536.30	36955.60
536.50	36963.79
536.70	36994.51
536.91	36804.05
537.11	37012.94
537.31	36935.12
537.51	37256.65
537.72	37520.84
537.92	37133.77
538.12	37762.50
538.32	37764.54
538.53	38108.60
538.73	37477.83
538.93	37508.55
539.13	37465.54
539.34	38014.40
539.54	38319.54
539.74	38280.63
539.94	38038.97
540.15	38303.16
540.35	38487.48
540.55	38602.16
540.75	38503.86
540.96	38579.64
541.16	38809.01
541.36	38325.69
541.56	38630.83
541.77	38966.70
541.97	39263.66
542.17	39228.84
542.37	38806.96
542.58	39437.73
542.78	39273.90
542.98	39564.71
543.18	39873.95
543.38	39761.31
543.59	39751.07
543.79	39437.73
543.99	39605.67
544.19	39695.78
544.40	39671.20
544.60	40086.94
544.80	39548.32
545.00	40336.79
545.20	40166.81
545.41	40150.43
545.61	40365.46
545.81	40476.05
546.01	40723.86
546.21	40211.87
546.42	40623.51
546.62	40942.99
546.82	40854.93
547.02	40801.68
547.22	40828.30
547.43	40539.54
547.63	40824.21
547.83	40709.52
548.03	40869.26
548.23	41137.55
548.44	41184.65
548.64	41194.89
548.84	41092.49
549.04	41072.01
549.24	41682.31
549.45	41620.87
549.65	41325.96
549.85	41364.87
550.05	42184.06
550.25	41753.99
550.45	42169.72
550.66	41862.53
550.86	41747.84
551.06	42108.29
551.26	41706.88
551.46	42214.78
551.66	41966.98
551.87	41878.91
552.07	42642.81
552.27	42233.21
552.47	42937.71
552.67	42474.87
552.87	42317.18
553.07	42491.26
553.28	42761.59
553.48	42341.75
553.68	42741.11
553.88	42929.52
554.08	42548.60
554.28	42544.50
554.48	42911.09
554.69	42814.83
554.89	42689.91
555.09	42941.81
555.29	43044.21
555.49	43134.32
555.69	43036.02
555.89	43283.82
556.10	43726.18
556.30	43259.24
556.50	43054.45
556.70	43136.37
556.90	43576.68
557.10	43863.39
557.30	42986.86
557.50	43660.65
557.70	44031.33
557.91	43904.35
558.11	43629.93
558.31	43957.60
558.51	43765.09
558.71	43705.70
558.91	43930.98
559.11	43693.41
559.31	43963.75
559.51	43892.07
559.72	43990.37
559.92	44107.10
560.12	44045.66
560.32	44387.67
560.52	43697.51
560.72	44199.26
560.92	44371.29
561.12	44277.08
561.32	44655.96
561.52	44373.34
561.72	44877.14
561.93	44334.43
562.13	44584.28
562.33	44332.38
562.53	44795.22
562.73	44324.19
562.93	44897.62
563.13	44528.98
563.33	44135.77
563.53	44782.93
563.73	44680.53
563.93	44854.61
564.13	45360.46
564.33	44588.38
564.53	44666.20
564.74	45129.04
564.94	45251.92
565.14	44873.04
565.34	44930.39
565.54	45215.05
565.74	44989.78
565.94	45524.30
566.14	45086.03
566.34	44967.25
566.54	45772.10
566.74	45055.31
566.94	45630.79
567.14	45698.37
567.34	45149.52
567.54	45544.78
567.74	45684.04
567.94	45161.81
568.14	45657.42
568.34	46032.19
568.54	45725.00
568.74	45794.63
568.94	45854.02
569.14	46409.02
569.34	45720.90
569.54	45788.49
569.75	45483.34
569.95	45737.29
570.15	46259.52
570.35	46380.35
570.55	46228.80
570.75	45958.47
570.95	46144.83
571.15	46193.98
571.35	46118.21
571.55	46624.06
571.75	46333.24
571.95	46437.69
572.15	46669.11
572.35	46753.08
572.55	46601.53
572.75	46900.53
572.95	46622.01
573.15	46847.29
573.35	46851.38
573.55	46675.26
573.75	46394.68
573.95	46894.39
574.15	47029.55
574.35	47025.46
574.55	46800.18
574.75	46953.78
574.95	47039.79
575.15	46968.12
575.34	46921.01
575.54	47441.20
575.74	47357.23
575.94	47277.36
576.14	47078.71
576.34	47131.95
576.54	47619.37
576.74	47445.29
576.94	47258.93
577.14	47832.36
577.34	47590.70
577.54	47633.71
577.74	47283.50
577.94	47473.96
578.14	48123.17
578.34	47783.21
578.54	47430.96
578.74	47908.13
578.94	48506.14
579.14	48157.99
579.34	47875.37
579.54	47912.23
579.74	48796.95
579.94	48119.07
580.13	48528.67
580.33	48203.04
580.53	48602.39
580.73	48692.50
580.93	48522.52
581.13	48549.15
581.33	48745.75
581.53	48882.97
581.73	48620.83
581.93	48868.63
582.13	49089.81
582.33	48809.24
582.53	48694.55
582.73	49169.68
582.92	49130.77
583.12	49564.94
583.32	49548.56
583.52	48903.45
583.72	49499.40
583.92	49141.01
584.12	49452.30
584.32	49992.97
584.52	49581.32
584.72	49673.48
584.92	49509.64
585.11	49749.26
585.31	49571.08
585.51	49575.18
585.71	49870.09
585.91	50537.72
586.11	49890.57
586.31	49675.53
586.51	49779.98
586.71	50205.95
586.91	50402.56
587.10	50402.56
587.30	50337.02
587.50	50115.84
587.70	50787.58
587.90	50445.57
588.10	50812.15
588.30	50400.51
588.50	50951.41
588.69	50590.97
588.89	50451.71
589.09	50459.90
589.29	50683.13
589.49	50926.84
589.69	50357.50
589.89	51037.43
590.08	50980.09
590.28	51156.21
590.48	50914.55
590.68	50687.23
590.88	50906.36
591.08	50849.02
591.28	50697.47
591.47	51717.35
591.67	50916.60
591.87	51320.05
592.07	50918.65
592.27	51201.27
592.47	51420.40
592.67	51463.41
592.86	51643.63
593.06	51559.66
593.26	51473.65
593.46	51512.56
593.66	51877.10
593.86	51803.37
594.05	51721.45
594.25	52235.49
594.45	51885.29
594.65	51647.72
594.85	51893.48
595.05	52188.39
595.24	52194.53
595.44	52348.13
595.64	52253.92
595.84	52360.42
596.04	52346.08
596.23	52210.92
596.43	52450.53
596.63	52196.58
596.83	52634.84
597.03	52538.59
597.22	52862.17
597.42	52550.88
597.62	53023.96
597.82	52827.35
598.02	52700.38
598.21	53388.50
598.41	52704.48
598.61	53353.68
598.81	52952.28
599.01	53089.49
599.20	53318.87
599.40	52876.51
599.60	53071.06
599.80	52931.80
600.00	53384.40
600.19	53757.13
600.39	53341.39
600.59	53716.17
600.79	53494.99
600.98	53648.59
601.18	53535.95
601.38	53548.24
601.58	53773.52
601.78	53923.02
601.97	53609.68
602.17	54113.48
602.37	53941.45
602.57	53898.44
602.76	54633.66
602.96	54068.42
603.16	54367.43
603.36	54191.30
603.55	54756.54
603.75	54334.66
603.95	54308.04
604.15	54566.08
604.34	54539.46
604.54	54770.88
604.74	54650.05
604.94	54734.01
605.13	54621.37
605.33	55039.16
605.53	54842.56
605.73	54803.64
605.92	54863.03
606.12	55309.49
606.32	55096.50
606.52	54838.46
606.71	55076.02
606.91	55366.84
607.11	55141.56
607.30	54949.05
607.50	55415.99
607.70	55553.20
607.90	55338.16
608.09	55096.50
608.29	55790.76
608.49	55663.79
608.68	55780.52
608.88	55645.36
609.08	55950.51
609.28	55952.55
609.47	55358.64
609.67	56085.67
609.87	55360.69
610.06	55714.99
610.26	55819.44
610.46	55985.32
610.66	55639.22
610.85	55753.90
611.05	55774.38
611.25	55798.96
611.44	55549.10
611.64	56351.91
611.84	55628.98
612.03	55692.46
612.23	55897.26
612.43	56384.68
612.62	55743.66
612.82	56202.41
613.02	56237.22
613.21	56186.02
613.41	56024.23
613.61	56358.05
613.80	55479.47
614.00	56173.73
614.20	55833.77
614.39	56138.92
614.59	56235.17
614.79	56747.17
614.98	56372.39
615.18	56194.21
615.38	55891.12
615.57	55850.16
615.77	56489.12
615.97	56175.78
616.16	56339.62
616.36	56358.05
616.56	56489.12
616.75	56237.22
616.95	56081.58
617.15	56194.21
617.34	56548.51
617.54	56114.34
617.74	56706.21
617.93	56519.84
618.13	55987.37
618.32	56300.71
618.52	55858.35
618.72	56491.17
618.91	55899.31
619.11	56009.90
619.31	56235.17
619.50	56065.19
619.70	55467.19
619.90	56552.61
620.09	56351.91
620.29	56358.05
620.48	56214.69
620.68	56523.94
620.88	55962.79
621.07	56399.01
621.27	56319.14
621.46	55798.96
621.66	56374.44
621.86	56013.99
622.05	56065.19
622.25	56089.77
622.44	56087.72
622.64	56255.65
622.84	56198.31
623.03	56067.24
623.23	56433.83
623.42	56425.64
623.62	56132.78
623.82	56673.44
624.01	56657.06
624.21	56396.96
624.40	56229.03
624.60	55942.31
624.80	56399.01
624.99	55962.79
625.19	55948.46
625.38	56153.26
625.58	56335.52
625.77	56282.28
625.97	55999.66
626.17	55827.63
626.36	56095.91
626.56	56468.64
626.75	56071.34
626.95	56341.67
627.14	56431.78
627.34	56528.03
627.54	56206.50
627.73	56472.74
627.93	56769.69
628.12	55985.32
628.32	56169.64
628.51	56446.11
628.71	56356.00
628.90	56284.33
629.10	56009.90
629.30	56411.30
629.49	56120.49
629.69	56403.11
629.88	55950.51
630.08	56378.53
630.27	56591.52
630.47	55907.50
630.66	56269.99
630.86	56824.99
631.05	56073.38
631.25	56704.16
631.44	56028.33
631.64	56280.23
631.84	56571.04
632.03	56898.72
632.23	56579.23
632.42	56855.71
632.62	57013.40
632.81	56292.52
633.01	56439.97
633.20	56632.48
633.40	56446.11
633.59	56583.33
633.79	56298.66
633.98	56128.68
634.18	56784.03
634.37	56448.16
634.57	56673.44
634.76	57027.74
634.96	56595.62
635.15	56818.84
635.35	56444.07
635.54	56489.12
635.74	56798.37
635.93	56339.62
636.13	56915.10
636.32	56812.70
636.52	56419.49
636.71	56702.11
636.91	56935.58
637.10	56638.62
637.30	56612.00
637.49	56675.49
637.69	56882.33
637.88	57300.12
638.08	56581.28
638.27	57455.76
638.46	56849.56
638.66	57271.45
638.85	57185.43
639.05	57201.82
639.24	57287.83
639.44	56476.83
639.63	57042.07
639.83	57099.42
640.02	57263.25
640.22	57171.10
640.41	57203.86
640.61	56591.52
640.80	57035.93
640.99	56560.80
641.19	57267.35
641.38	56911.00
641.58	57048.22
641.77	56880.28
641.97	56589.47
642.16	56640.67
642.36	57220.25
642.55	57451.67
642.74	56769.69
642.94	57527.44
643.13	56997.02
643.33	57130.14
643.52	57236.63
643.72	57275.54
643.91	56951.96
644.10	57386.13
644.30	57595.03
644.49	57535.63
644.69	57595.03
644.88	57248.92
645.08	57119.90
645.27	57615.50
645.46	56868.00
645.66	57451.67
645.85	57617.55
646.05	57980.04
646.24	57529.49
646.43	57466.00
646.63	57787.53
646.82	57982.09
647.02	57457.81
647.21	57701.52
647.40	57205.91
647.60	57476.24
647.79	57650.32
647.99	57799.82
648.18	57386.13
648.37	58045.58
648.57	57631.89
648.76	57752.72
648.96	57509.01
649.15	57758.86
649.34	58043.53
649.54	57621.65
649.73	57418.90
649.92	57939.08
650.12	57978.00
650.31	57924.75
650.51	57980.04
650.70	58279.05
650.89	57711.76
651.09	58094.73
651.28	57959.56
651.47	58430.60
651.67	58424.45
651.86	58430.60
652.06	57547.92
652.25	58469.51
652.44	58147.98
652.64	57836.69
652.83	58131.59
653.02	57619.60
653.22	57758.86
653.41	57947.28
653.60	57531.54
653.80	57965.71
653.99	58240.14
654.18	58152.07
654.38	58258.57
654.57	58430.60
654.76	58139.78
654.96	58078.35
655.15	57734.29
655.34	57635.98
655.54	57967.76
655.73	58088.59
655.92	57853.07
656.12	57881.74
656.31	58064.01
656.50	58283.14
656.70	58322.05
656.89	57932.94
657.08	58133.64
657.28	58180.74
657.47	58463.36
657.66	58104.97
657.86	58012.81
658.05	58160.26
658.24	58602.63
658.43	57783.44
658.63	58557.57
658.82	58487.94
659.01	58446.98
659.21	58528.90
659.40	58436.74
659.59	58152.07
659.79	58168.46
659.98	58786.94
660.17	58911.87
660.36	58381.45
660.56	57982.09
660.75	58586.24
660.94	58801.28
661.14	58262.66
661.33	58309.77
661.52	58182.79
661.71	58569.86
661.91	57865.36
662.10	58211.46
662.29	58915.96
662.49	58414.21
662.68	58418.31
662.87	58207.37
663.06	58500.23
663.26	58547.33
663.45	58537.09
663.64	58340.49
663.83	58680.45
664.03	58389.64
664.22	58514.56
664.41	58791.04
664.60	58782.85
664.80	58590.34
664.99	57939.08
665.18	58066.06
665.37	58705.02
665.57	58475.65
665.76	58037.39
665.95	58287.24
666.14	58377.35
666.34	58373.25
666.53	58369.16
666.72	58115.21
666.91	58668.16
667.11	58322.05
667.30	58868.86
667.49	58612.87
667.68	58764.42
667.87	58307.72
668.07	58748.03
668.26	58242.18
668.45	58475.65
668.64	58250.38
668.84	58741.89
669.03	58918.01
669.22	58571.91
669.41	58551.43
669.60	58649.73
669.80	58608.77
669.99	58633.35
670.18	58426.50
670.37	57961.61
670.57	58956.92
670.76	58520.71
670.95	58401.92
671.14	58037.39
671.33	58053.77
671.53	58848.38
671.72	58346.63
671.91	58559.62
672.10	58072.20
672.29	58535.04
672.48	58102.92
672.68	58877.05
672.87	58260.62
673.06	58270.85
673.25	58035.34
673.44	58014.86
673.64	58434.69
673.83	57906.32
674.02	58512.52
674.21	57683.09
674.40	58414.21
674.59	57683.09
674.79	58068.11
674.98	57902.22
675.17	58047.63
675.36	58047.63
675.55	58496.13
675.74	58201.22
675.94	58139.78
676.13	58551.43
676.32	58414.21
676.51	58135.69
676.70	58451.08
676.89	58238.09
677.08	58385.54
677.28	58117.26
677.47	58291.33
677.66	58326.15
677.85	57865.36
678.04	58397.83
678.23	58840.19
678.42	58725.50
678.62	58201.22
678.81	58188.94
679.00	57982.09
679.19	58309.77
679.38	57842.83
679.57	57898.12
679.76	58256.52
679.96	57982.09
680.15	58643.59
680.34	58258.57
680.53	57988.24
680.72	58285.19
680.91	58528.90
681.10	58021.00
681.29	58479.75
681.48	57597.07
681.68	58008.71
681.87	57926.80
682.06	57670.80
682.25	57857.17
682.44	57568.40
682.63	57869.45
682.82	57740.43
683.01	57734.29
683.20	57697.42
683.39	57861.26
683.59	58010.76
683.78	57513.11
683.97	57699.47
684.16	58027.15
684.35	58102.92
684.54	57644.18
684.73	57543.83
684.92	57631.89
685.11	57566.35
685.30	57482.39
685.49	57873.55
685.69	57502.87
685.88	57611.41
686.07	57406.61
686.26	57273.49
686.45	57425.04
686.64	57574.55
686.83	57881.74
687.02	57611.41
687.21	57351.32
687.40	57285.78
687.59	57214.10
687.78	57298.07
687.97	57377.94
688.16	57267.35
688.35	57314.45
688.54	57349.27
688.74	57296.02
688.93	57056.41
689.12	57365.65
689.31	56839.32
689.50	57412.76
689.69	56876.19
689.88	56796.32
690.07	57173.14
690.26	57169.05
690.45	57189.53
690.64	56859.80
690.83	56726.69
691.02	56816.80
691.21	56661.15
691.40	56906.91
691.59	57144.47
691.78	56806.56
691.97	57162.90
692.16	56951.96
692.35	56638.62
692.54	56947.87
692.73	56562.85
692.92	56470.69
693.11	56992.92
693.30	56560.80
693.49	57273.49
693.68	56800.41
693.87	56786.08
694.06	56532.13
694.25	56327.33
694.44	56300.71
694.63	56751.26
694.82	56609.95
695.01	56288.42
695.20	56417.44
695.39	56347.81
695.58	56390.82
695.77	56431.78
695.96	56374.44
696.15	56263.85
696.34	55985.32
696.53	56435.87
696.72	56218.79
696.91	56300.71
697.10	56296.61
697.29	55966.89
697.48	56161.45
697.67	56362.15
697.86	56013.99
698.05	55639.22
698.24	56204.45
698.43	55563.44
698.62	56032.42
698.81	55874.73
699.00	55981.23
699.19	55370.93
699.38	55841.96
699.57	55483.57
699.76	55905.45
699.95	55991.47
700.14	55372.98
700.32	55444.66
700.51	55741.61
700.70	55846.06
700.89	55764.14
701.08	55911.59
701.27	55430.32
701.46	55737.52
701.65	55035.06
701.84	54998.20
702.03	55608.50
702.22	55153.85
702.41	55497.91
702.60	55581.87
702.79	55477.43
702.98	55088.31
703.17	55090.36
703.35	55149.75
703.54	54787.26
703.73	55231.67
703.92	55043.26
704.11	55418.03
704.30	54609.09
704.49	55266.48
704.68	54897.85
704.87	54981.82
705.06	54871.23
705.25	54891.71
705.43	55106.74
705.62	55014.58
705.81	55213.24
706.00	55147.70
706.19	54625.47
706.38	54809.79
706.57	54494.40
706.76	54320.32
706.95	54715.58
707.14	54695.10
707.32	54439.11
707.51	54082.76
707.70	54475.97
707.89	54631.61
708.08	54392.00
708.27	54670.53
708.46	54305.99
708.65	54312.13
708.84	54785.21
709.02	54478.02
709.21	54467.78
709.40	54086.85
709.59	54514.88
709.78	54211.78
709.97	54115.53
710.16	53757.13
710.34	54142.15
710.53	54258.88
710.72	54056.14
710.91	54213.83
711.10	54303.94
711.29	53832.91
711.48	54043.85
711.66	54027.46
711.85	53916.87
712.04	53880.01
712.23	53873.87
712.42	53482.70
712.61	53724.36
712.80	53957.83
712.98	53357.78
713.17	53501.14
713.36	53826.76
713.55	53415.12
713.74	53916.87
713.93	53378.26
714.11	53349.59
714.30	53603.53
714.49	53279.96
714.68	53509.33
714.87	53329.11
715.06	53470.42
715.24	52880.60
715.43	53245.14
715.62	52649.18
715.81	52966.62
716.00	53288.15
716.18	52790.49
716.37	52985.05
716.56	52796.63
716.75	53370.07
716.94	52802.78
717.12	52540.64
717.31	53195.99
717.50	53218.52
717.69	52825.31
717.88	52851.93
718.06	52321.51
718.25	52802.78
718.44	52874.46
718.63	52493.54
718.82	52380.90
719.00	52493.54
719.19	52415.71
719.38	52393.18
719.57	51842.28
719.76	51983.59
719.94	51819.75
720.13	52307.17
720.32	52051.17
720.51	52096.23
720.69	52401.38
720.88	51295.47
721.07	51739.88
721.26	51455.21
721.44	51547.37
721.63	51551.47
721.82	51397.87
722.01	51862.76
722.20	51391.73
722.38	51592.43
722.57	51160.31
722.76	51274.99
722.95	51297.52
723.13	51272.95
723.32	51072.24
723.51	51000.57
723.70	50949.37
723.88	50943.22
724.07	50685.18
724.26	51141.88
724.44	50128.13
724.63	50640.12
724.82	50709.75
725.01	50697.47
725.19	50738.43
725.38	50904.31
725.57	50527.48
725.76	50623.74
725.94	50517.25
726.13	50375.94
726.32	50697.47
726.51	50160.90
726.69	50420.99
726.88	50709.75
727.07	50375.94
727.25	50541.82
727.44	50007.30
727.63	50173.19
727.82	50212.10
728.00	50273.54
728.19	50205.95
728.38	50459.90
728.56	49587.47
728.75	50562.30
728.94	49956.10
729.12	50029.83
729.31	50105.60
729.50	50124.04
729.69	50099.46
729.87	50013.44
730.06	49863.94
730.25	50199.81
730.43	50437.37
730.62	49925.38
730.81	50099.46
730.99	50394.37
731.18	49755.40
731.37	50171.14
731.55	50218.24
731.74	50691.32
731.93	50560.25
732.11	49900.81
732.30	50410.75
732.49	50031.88
732.67	49902.85
732.86	49759.50
733.05	49947.91
733.23	49767.69
733.42	50365.70
733.61	49898.76
733.79	49626.38
733.98	49968.39
734.17	49208.59
734.35	50279.68
734.54	49825.03
734.73	50193.67
734.91	49642.76
735.10	49538.32
735.29	49980.68
735.47	49333.52
735.66	49800.46
735.84	49220.88
736.03	49546.51
736.22	50113.80
736.40	49124.63
736.59	49554.70
736.78	49282.32
736.96	49579.28
737.15	49517.84
737.33	49620.23
737.52	49044.76
737.71	49593.61
737.89	49292.56
738.08	49200.40
738.27	48856.34
738.45	49841.42
738.64	49040.66
738.82	49087.76
739.01	49210.64
739.20	49059.09
739.38	49100.05
739.57	49081.62
739.75	49233.17
739.94	49161.49
740.13	49110.29
740.31	49257.74
740.50	49005.84
740.68	48649.50
740.87	49669.39
741.06	48727.32
741.24	48508.19
741.43	48237.86
741.61	49087.76
741.80	48719.13
741.99	48307.49
742.17	48731.42
742.36	48723.22
742.54	48383.26
742.73	48811.29
742.91	48905.49
743.10	48694.55
743.29	48633.11
743.47	48846.10
743.66	48297.25
743.84	48772.38
744.03	48438.56
744.21	48438.56
744.40	48567.58
744.59	48164.13
744.77	47803.69
744.96	48211.23
745.14	48481.56
745.33	48205.09
745.51	48162.08
745.70	48291.10
745.88	47897.89
746.07	48229.66
746.26	47443.24
746.44	48031.01
746.63	47938.85
746.81	48137.51
747.00	47732.01
747.18	47934.76
747.37	48002.34
747.55	47803.69
747.74	47928.61
747.92	47506.73
748.11	47428.91
748.29	47971.62
748.48	47807.78
748.66	47373.61
748.85	47529.26
749.03	47645.99
749.22	47684.90
749.41	47553.83
749.59	47246.64
749.78	47170.86
749.96	46875.96
750.15	47215.92
750.33	47039.79
750.52	47201.58
750.70	47629.61
750.89	47301.93
751.07	47043.89
751.26	46925.11
751.44	47060.27
751.63	46748.98
751.81	47093.04
752.00	46777.65
752.18	47193.39
752.37	46685.50
752.55	46779.70
752.74	46773.56
752.92	46832.95
753.10	46505.27
753.29	46695.74
753.47	46429.50
753.66	46243.13
753.84	46581.05
754.03	46701.88
754.21	46605.62
754.40	46589.24
754.58	46466.36
754.77	46327.10
754.95	46222.65
755.14	46253.37
755.32	46171.46
755.51	46253.37
755.69	46333.24
755.88	46126.40
756.06	46267.71
756.24	45962.56
756.43	45917.51
756.61	46009.67
756.80	45978.95
756.98	45602.12
757.17	45587.78
757.35	45978.95
757.54	45960.51
757.72	46138.69
757.90	45618.50
758.09	45462.86
758.27	45821.25
758.46	45557.06
758.64	45200.72
758.83	45569.35
759.01	45454.67
759.19	45593.93
759.38	45573.45
759.56	45782.34
759.75	45458.76
759.93	45565.26
760.12	45038.93
760.30	45073.74
760.48	45397.32
760.67	45294.92
760.85	45542.73
761.04	45202.77
761.22	45544.78
761.40	45260.11
761.59	45094.22
761.77	44965.20
761.96	45000.02
762.14	45430.09
762.32	44514.65
762.51	44373.34
762.69	44891.48
762.88	44819.80
763.06	44727.64
763.24	44766.55
763.43	45069.65
763.61	44719.45
763.80	44635.48
763.98	44651.86
764.16	44258.65
764.35	44287.32
764.53	44121.44
764.72	43959.65
764.90	44406.11
765.08	44340.57
765.27	44389.72
765.45	43660.65
765.63	43619.69
765.82	44070.24
766.00	43853.15
766.18	43521.38
766.37	44070.24
766.55	43779.43
766.74	43941.22
766.92	43648.36
767.10	43992.42
767.29	43627.88
767.47	43148.65
767.65	43423.08
767.84	43193.71
768.02	43826.53
768.20	43505.00
768.39	43685.22
768.57	43079.02
768.75	43380.07
768.94	43240.81
769.12	43197.80
769.30	42734.96
769.49	43507.05
769.67	43007.34
769.85	43007.34
770.04	43021.68
770.22	42861.94
770.40	42876.27
770.59	42886.51
770.77	42886.51
770.95	42745.20
771.14	42833.27
771.32	42229.12
771.50	42573.17
771.69	42460.54
771.87	42689.91
772.05	42395.00
772.24	41975.17
772.42	42106.24
772.60	42456.44
772.78	42415.48
772.97	42198.40
773.15	42513.78
773.33	42063.23
773.52	41883.01
773.70	41921.92
773.88	42247.55
774.07	41678.21
774.25	42263.93
774.43	42294.65
774.61	42308.99
774.80	42339.71
774.98	42259.84
775.16	42552.69
775.34	42392.95
775.53	42116.48
775.71	42472.82
775.89	42157.44
776.08	42198.40
776.26	42202.49
776.44	42456.44
776.62	41862.53
776.81	42263.93
776.99	41942.40
777.17	42071.42
777.35	41934.21
777.54	42798.45
777.72	42198.40
777.90	42706.29
778.08	42458.49
778.27	41977.22
778.45	42671.48
778.63	42870.13
778.81	42399.10
779.00	43029.87
779.18	42747.25
779.36	42909.04
779.54	42286.46
779.73	42882.42
779.91	42675.57
780.09	42644.85
780.27	43097.45
780.46	42945.90
780.64	43322.73
780.82	43144.56
781.00	42919.28
781.19	42939.76
781.37	42753.40
781.55	43128.17
781.73	43511.14
781.91	42816.88
782.10	42982.77
782.28	42988.91
782.46	43300.20
782.64	43398.51
782.82	43126.13
783.01	43488.62
783.19	43138.41
783.37	43132.27
783.55	42829.17
783.74	43300.20
783.92	42769.78
784.10	43271.53
784.28	43089.26
784.46	42847.60
784.64	42868.08
784.83	43117.93
785.01	43279.72
785.19	43079.02
785.37	42923.38
785.55	42745.20
785.74	42827.12
785.92	42794.36
786.10	43441.51
786.28	43277.68
786.46	42722.68
786.64	42429.82
786.83	42810.74
787.01	42739.06
787.19	42687.86
787.37	42892.66
787.55	42667.38
787.74	42440.06
787.92	42857.84
788.10	42702.20
788.28	42102.14
788.46	42667.38
788.64	41704.84
788.82	42233.21
789.01	42157.44
789.19	42270.08
789.37	42020.22
789.55	42159.48
789.73	41485.70
789.91	42032.51
790.09	41997.70
790.28	41926.02
790.46	41887.10
790.64	41999.74
790.82	41815.43
791.00	41246.09
791.18	41491.85
791.36	41432.46
791.55	41633.16
791.73	41407.88
791.91	41188.75
792.09	41194.89
792.27	41198.99
792.45	41162.12
792.63	41280.91
792.81	40916.37
793.00	40926.61
793.18	40938.90
793.36	41291.15
793.54	40715.67
793.72	40848.78
793.90	40754.58
794.08	40193.43
794.26	40701.33
794.44	39806.37
794.62	39609.76
794.81	40408.47
794.99	39994.78
795.17	40093.08
795.35	39976.35
795.53	40113.56
795.71	39777.70
795.89	39228.84
796.07	39214.51
796.25	39183.79
796.43	39570.85
796.61	39441.83
796.80	38884.78
796.98	39058.86
797.16	38927.79
797.34	39019.95
797.52	39226.79
797.70	38954.41
797.88	39144.87
798.06	38919.60
798.24	38622.64
798.42	38407.61
798.60	38630.83
798.78	38473.14
798.96	38188.47
799.14	37944.76
799.32	38194.62
799.51	37688.77
799.69	38075.84
799.87	38409.65
800.05	37686.72
800.23	37889.47
800.41	37105.10
800.59	37768.64
800.77	37275.08
800.95	37285.32
801.13	37365.19
801.31	37225.93
801.49	37107.15
801.67	36953.55
801.85	36969.93
802.03	36943.31
802.21	36652.50
802.39	36521.43
802.57	36572.63
802.75	36586.96
802.93	36462.04
803.11	36398.55
803.29	36195.80
803.47	36238.81
803.65	36261.33
803.83	35952.09
804.01	36095.45
804.19	35712.48
804.37	35794.40
804.55	35687.90
804.73	35675.62
804.91	35577.31
805.09	35558.88
805.27	35716.58
805.45	35706.34
805.63	35605.98
805.81	35442.15
805.99	35440.10
806.17	35562.98
806.35	35386.85
806.53	34838.00
806.71	34960.87
806.89	35190.25
807.07	34858.48
807.25	34784.75
807.43	34782.70
807.61	34817.52
807.79	34176.50
807.97	34665.97
808.15	34649.58
808.33	34377.20
808.51	34274.80
808.69	34344.44
808.87	34020.86
809.05	34055.67
809.23	33938.94
809.41	33797.63
809.59	33842.68
809.77	33902.07
809.95	33758.72
810.13	33869.31
810.31	33838.59
810.49	33578.50
810.67	33596.93
810.84	33455.62
811.02	33314.31
811.20	32962.06
811.38	33304.07
811.56	33121.80
811.74	33121.80
811.92	32781.84
812.10	32923.15
812.28	33050.12
812.46	32998.92
812.64	32591.37
812.82	32914.95
813.00	33125.89
813.18	32962.06
813.36	32605.71
813.53	32398.87
813.71	32704.01
813.89	32601.61
814.07	32298.52
814.25	32437.78
814.43	32286.23
814.61	32226.84
814.79	31895.07
814.97	31856.15
815.15	32388.63
815.33	31946.26
815.50	31757.85
815.68	31720.99
815.86	32124.44
816.04	31655.45
816.22	31524.38
816.40	31516.19
816.58	31901.21
816.76	31733.28
816.94	31557.15
817.11	31188.52
817.29	31235.62
817.47	31153.70
817.65	31147.56
817.83	31053.35
818.01	31036.97
818.19	30805.55
818.37	30926.38
818.54	30506.54
818.72	30727.72
818.90	30463.54
819.08	30948.90
819.26	30813.74
819.44	30834.22
819.62	30619.18
819.80	30664.24
819.97	30533.17
820.15	30522.93
820.33	30297.65
820.51	30457.39
820.69	30283.31
820.87	30393.90
821.05	30359.09
821.22	30543.41
821.40	29857.34
821.58	30488.11
821.76	30221.87
821.94	29861.43
822.12	29931.06
822.29	30060.09
822.47	29949.50
822.65	29509.18
822.83	29767.23
823.01	29625.92
823.19	29548.09
823.36	29810.23
823.54	29679.16
823.72	29521.47
823.90	29292.10
824.08	29052.48
824.25	29333.06
824.43	28890.70
824.61	29351.49
824.79	29494.85
824.97	28733.00
825.15	29318.72
825.32	29412.93
825.50	29189.70
825.68	29230.66
825.86	29234.75
826.04	28999.24
826.21	28835.40
826.39	29015.62
826.57	28788.30
826.75	28814.92
826.93	28950.09
827.10	28550.73
827.28	28675.66
827.46	28667.47
827.64	28706.38
827.81	28710.47
827.99	28800.58
828.17	28374.61
828.35	28227.15
828.53	28376.66
828.70	28421.71
828.88	28544.59
829.06	28513.87
829.24	28540.49
829.41	28298.83
829.59	28468.81
829.77	28198.48
829.95	28167.76
830.12	27946.58
830.30	27967.06
830.48	27825.75
830.66	28102.23
830.84	28065.36
831.01	27788.89
831.19	27784.79
831.37	27860.57
831.55	27498.08
831.72	27532.89
831.90	27575.90
832.08	28018.26
832.25	27971.16
832.43	27663.96
832.61	27432.54
832.79	27342.43
832.96	27637.34
833.14	27465.31
833.32	27680.35
833.50	27688.54
833.67	27186.79
833.85	27430.49
834.03	26881.64
834.20	27375.20
834.38	27227.74
834.56	27543.13
834.74	26895.97
834.91	27076.19
835.09	26977.89
835.27	26953.32
835.44	26631.79
835.62	26631.79
835.80	26599.02
835.98	26689.13
836.15	26867.30
836.33	26621.55
836.51	27045.48
836.68	26429.04
836.86	26650.22
837.04	26568.30
837.21	26386.03
837.39	26687.08
837.57	26666.60
837.75	26685.03
837.92	26252.91
838.10	26287.73
838.28	26072.69
838.45	26465.90
838.63	26107.51
838.81	26281.58
838.98	26439.28
839.16	26136.18
839.34	26127.99
839.51	26095.22
839.69	25738.87
839.87	25968.24
840.04	25849.46
840.22	26007.16
840.40	25816.69
840.57	25601.66
840.75	25880.18
840.93	25761.40
841.10	25728.63
841.28	26130.03
841.46	25722.49
841.63	25728.63
841.81	25589.37
841.98	25476.73
842.16	25667.19
842.34	25544.31
842.51	25597.56
842.69	25644.66
842.87	25448.06
843.04	25380.48
843.22	25128.58
843.40	25327.23
843.57	25581.18
843.75	25486.97
843.92	25316.99
844.10	25273.98
844.28	25144.96
844.45	25280.13
844.63	25202.30
844.81	24874.63
844.98	25308.80
845.16	25017.99
845.33	24970.88
845.51	25063.04
845.69	25310.85
845.86	24876.68
846.04	24735.37
846.21	24848.00
846.39	24946.31
846.57	24487.56
846.74	24899.20
846.92	24710.79
847.09	24440.46
847.27	24510.09
847.45	24639.11
847.62	24317.58
847.80	24647.30
847.97	24440.46
848.15	24684.17
848.32	24403.60
848.50	24616.58
848.68	24213.13
848.85	24315.53
849.03	24039.06
849.20	24321.68
849.38	24338.06
849.56	24295.05
849.73	24352.40
849.91	24356.49
850.08	24311.44
850.26	23752.34
850.43	24157.84
850.61	23967.38
850.78	23875.22
850.96	24018.58
851.14	23692.95
851.31	23856.79
851.49	24215.18
851.66	23924.37
851.84	23889.56
852.01	23852.69
852.19	24014.48
852.36	23459.48
852.54	23985.81
852.71	23877.27
852.89	23899.80
853.07	23637.66
853.24	23617.18
853.42	23402.14
853.59	23291.55
853.77	23459.48
853.94	23578.26
854.12	23527.06
854.29	23129.76
854.47	23533.21
854.64	23326.36
854.82	23604.89
854.99	23320.22
855.17	23502.49
855.34	23027.36
855.52	23484.06
855.69	23146.14
855.87	23162.53
856.04	22992.55
856.22	23062.18
856.39	22695.59
856.57	23156.38
856.74	22730.41
856.92	23142.05
857.09	22900.39
857.27	22757.03
857.44	22982.31
857.62	22924.96
857.79	22836.90
857.97	22617.77
858.14	22673.06
858.32	22820.52
858.49	22548.14
858.67	22728.36
858.84	22613.67
859.02	22564.52
859.19	22335.15
859.37	22408.87
859.54	22238.89
859.72	22683.30
859.89	22570.66
860.06	22560.42
860.24	22173.36
860.41	22396.59
860.59	22044.34
860.76	22537.90
860.94	22222.51
861.11	22355.63
861.29	22552.23
861.46	22109.87
861.64	22099.63
861.81	22054.58
861.98	22183.60
862.16	22027.95
862.33	21434.04
862.51	21825.20
862.68	22091.44
862.86	21716.66
863.03	21569.21
863.21	21778.10
863.38	21425.85
863.55	21671.61
863.73	21464.76
863.90	21692.08
864.08	21862.07
864.25	21450.42
864.43	21599.93
864.60	21632.69
864.77	21544.63
864.95	21556.92
865.12	21194.43
865.30	21503.67
865.47	21440.18
865.64	21124.80
865.82	21362.36
865.99	21329.59
866.17	21198.52
866.34	21534.39
866.51	20893.38
866.69	21751.48
866.86	21188.28
867.04	21307.07
867.21	21272.25
867.38	20741.83
867.56	21141.18
867.73	21038.78
867.91	21003.97
868.08	21282.49
868.25	20844.23
868.43	20672.20
868.60	21059.26
868.78	20432.58
868.95	20926.14
869.12	20860.61
869.30	20786.88
869.47	20756.16
869.64	20588.23
869.82	20369.10
869.99	20481.74
870.16	20815.55
870.34	20520.65
870.51	20389.58
870.69	20197.07
870.86	20213.45
871.03	20444.87
871.21	20041.42
871.38	20281.03
871.55	20164.30
871.73	19973.84
871.90	20154.06
872.07	20006.61
872.25	19973.84
872.42	19906.26
872.59	19982.03
872.77	20129.48
872.94	19826.39
873.11	19912.40
873.29	19934.93
873.46	19805.91
873.63	19914.45
873.81	19807.95
873.98	19521.24
874.15	19465.94
874.33	19410.65
874.50	19330.78
874.67	19545.81
874.85	19617.49
875.02	19238.62
875.19	19236.57
875.37	19435.22
875.54	19156.70
875.71	19324.63
875.88	19156.70
876.06	19343.06
876.23	19146.46
876.40	18976.48
876.58	18826.98
876.75	19185.37
876.92	18900.70
877.10	19042.01
877.27	18880.22
877.44	18824.93
877.61	18882.27
877.79	18837.22
877.96	18792.16
878.13	18652.90
878.31	18607.84
878.48	18753.25
878.65	18503.40
878.82	18370.28
879.00	18720.48
879.17	18325.22
879.34	18343.66
879.51	18278.12
879.69	18401.00
879.86	18089.71
880.03	18296.55
880.21	18065.13
880.38	18224.87
880.55	18415.34
880.72	18118.38
880.90	18366.18
881.07	18165.48
881.24	18384.62
881.41	18294.50
881.59	17981.17
881.76	18009.84
881.93	17968.88
882.10	17886.96
882.28	17852.14
882.45	17876.72
882.62	17780.46
882.79	17954.54
882.96	17571.57
883.14	18005.74
883.31	17868.53
883.48	17925.87
883.65	17817.33
883.83	17981.17
884.00	17833.71
884.17	17626.87
884.34	17759.98
884.51	17596.15
884.69	17559.28
884.86	17665.78
885.03	17424.12
885.20	17598.20
885.38	17489.65
885.55	17475.32
885.72	17606.39
885.89	17229.56
886.06	17233.66
886.24	17604.34
886.41	17436.41
886.58	17403.64
886.75	17637.11
886.92	17405.69
887.10	17274.62
887.27	17209.08
887.44	16953.09
887.61	17141.50
887.78	17536.76
887.95	17266.42
888.13	17166.07
888.30	16944.89
888.47	16858.88
888.64	16803.58
888.81	16918.27
888.99	16955.13
889.16	16971.52
889.33	16912.13
889.50	16801.54
889.67	16709.38
889.84	16785.15
890.01	16856.83
890.19	16832.26
890.36	16801.54
890.53	16875.26
890.70	16525.06
890.87	16666.37
891.04	16631.55
891.22	16871.17
891.39	16404.23
891.56	16299.78
891.73	16289.54
891.90	16414.47
892.07	16267.02
892.24	16361.22
892.42	16221.96
892.59	16217.86
892.76	16232.20
892.93	16348.93
893.10	16391.94
893.27	16412.42
893.44	16377.61
893.61	15957.77
893.79	16387.85
893.96	16029.45
894.13	16385.80
894.30	15918.86
894.47	15978.25
894.64	16183.05
894.81	16150.28
894.98	16150.28
895.15	15904.53
895.33	16170.76
895.50	15961.87
895.67	16099.08
895.84	15953.68
896.01	15927.05
896.18	15898.38
896.35	16301.83
896.52	16041.74
896.69	15933.20
896.86	16023.31
897.04	15929.10
897.21	16043.79
897.38	15955.72
897.55	15957.77
897.72	15818.51
897.89	15888.14
898.06	16207.62
898.23	15916.81
898.40	15957.77
898.57	16045.84
898.74	16008.97
898.91	16027.40
899.08	15800.08
899.26	15941.39
899.43	16076.55
899.60	15656.72
899.77	15828.75
899.94	15652.63
900.11	15644.43
900.28	16051.98
900.45	15673.10
900.62	15617.81
900.79	15927.05
900.96	15683.34
901.13	15585.04
901.30	15701.78
901.47	15607.57
901.64	15847.18
901.81	15560.47
901.98	15783.70
902.15	15771.41
902.32	15630.10
902.49	15732.50
902.66	15744.78
902.83	15683.34
903.01	15730.45
903.18	15738.64
903.35	15863.57
903.52	15664.91
903.69	15744.78
903.86	15943.44
904.03	16076.55
904.20	15986.44
904.37	15968.01
904.54	15773.46
904.71	15638.29
904.88	15830.80
905.05	15896.33
905.22	15879.95
905.39	15775.50
905.56	15750.93
905.73	15800.08
905.90	15808.27
906.07	15738.64
906.24	15673.10
906.41	15654.67
906.58	16072.46
906.75	15687.44
906.92	15798.03
907.09	15406.87
907.26	15636.24
907.43	15615.76
907.60	15626.00
907.77	15650.58
907.93	15617.81
908.10	15838.99
908.27	15822.61
908.44	15574.80
908.61	15458.07
908.78	15546.13
908.95	15542.03
909.12	15472.40
909.29	15488.79
909.46	15683.34
909.63	15425.30
909.80	15496.98
909.97	15429.40
910.14	15494.93
910.31	15165.21
910.48	15740.69
910.65	15496.98
910.82	15316.76
910.99	15374.10
911.16	15406.87
911.33	15406.87
911.50	15372.05
911.66	15193.88
911.83	15365.91
912.00	15167.26
912.17	15191.83
912.34	15312.66
912.51	15136.54
912.68	14933.79
912.85	15208.22
913.02	15257.37
913.19	15056.67
913.36	14944.03
913.53	15044.38
913.70	14993.18
913.86	15118.11
914.03	14946.08
914.20	14956.32
914.37	15040.28
914.54	15064.86
914.71	14708.51
914.88	14958.36
915.05	14685.98
915.22	14692.13
915.39	14708.51
915.55	14800.67
915.72	14665.50
915.89	14649.12
916.06	14415.65
916.23	14446.37
916.40	14501.67
916.57	14538.53
916.74	14239.53
916.91	14427.94
917.07	14284.58
917.24	14305.06
917.41	14329.64
917.58	14311.21
917.75	14206.76
917.92	14047.02
918.09	14196.52
918.26	14135.08
918.42	14098.22
918.59	14110.50
918.76	13944.62
918.93	13750.06
919.10	13874.99
919.27	14094.12
919.44	14042.92
919.60	13776.69
919.77	13754.16
919.94	13537.07
920.11	13510.45
920.28	13748.01
920.45	13590.32
920.61	13508.40
920.78	13686.58
920.95	13444.91
921.12	13406.00
921.29	13324.08
921.46	13295.41
921.62	13119.29
921.79	13313.84
921.96	13180.73
922.13	13152.06
922.30	12990.27
922.47	13172.54
922.63	13006.65
922.80	12959.55
922.97	12902.20
923.14	12773.18
923.31	12838.72
923.47	12824.38
923.64	12965.69
923.81	12779.32
923.98	12975.93
924.15	12592.96
924.32	12316.48
924.48	12517.18
924.65	12588.86
924.82	12402.50
924.99	12296.00
925.15	12373.83
925.32	12459.84
925.49	12089.16
925.66	12037.96
925.83	11902.79
925.99	12244.81
926.16	11992.90
926.33	12156.74
926.50	11976.52
926.67	12074.82
926.83	11892.55
927.00	11884.36
927.17	11781.96
927.34	11767.63
927.50	11708.24
927.67	11841.36
927.84	11843.40
928.01	11593.55
928.17	11519.82
928.34	11472.72
928.51	11419.47
928.68	11468.62
928.84	11407.19
929.01	11237.20
929.18	11331.41
929.35	11028.31
929.51	11005.78
929.68	10952.54
929.85	11161.43
930.02	10850.14
930.18	11026.26
930.35	10981.21
930.52	10696.54
930.69	10862.43
930.85	10784.60
931.02	10680.16
931.19	10712.92
931.36	10680.16
931.52	10723.16
931.69	10776.41
931.86	10381.15
932.02	10379.11
932.19	10356.58
932.36	10542.94
932.53	10395.49
932.69	10264.42
932.86	10501.98
933.03	10227.56
933.19	10096.49
933.36	10155.88
933.53	10229.60
933.70	9930.60
933.86	10035.05
934.03	9908.07
934.20	9899.88
934.36	9957.22
934.53	9699.18
934.70	9600.88
934.86	9455.47
935.03	9434.99
935.20	9267.06
935.36	9381.74
935.53	9174.90
935.70	9201.52
935.86	9043.83
936.03	8994.68
936.20	8843.13
936.36	8908.66
936.53	8931.19
936.70	8875.90
936.86	8884.09
937.03	8822.65
937.20	8550.27
937.36	8605.56
937.53	8259.46
937.70	8204.16
937.86	8054.66
938.03	8099.72
938.20	8269.70
938.36	7942.02
938.53	7864.20
938.70	7913.35
938.86	7765.90
939.03	7645.07
939.20	7489.42
939.36	7604.11
939.53	7442.32
939.70	7473.04
939.86	7165.84
940.03	7098.26
940.19	7120.79
940.36	6971.29
940.53	7057.30
940.69	6836.12
940.86	6754.20
941.03	6829.98
941.19	6498.20
941.36	6651.80
941.52	6565.79
941.69	6410.14
941.86	6467.49
942.02	6340.51
942.19	6258.59
942.35	6320.03
942.52	6176.67
942.69	6156.19
942.85	5957.54
943.02	5906.34
943.18	6068.13
943.35	5928.87
943.52	5883.81
943.68	5894.05
943.85	5871.53
944.01	5773.22
944.18	5789.61
944.35	5877.67
944.51	5668.78
944.68	5541.80
944.84	5590.95
945.01	5588.91
945.17	5580.71
945.34	5754.79
945.51	5550.00
945.67	5509.04
945.84	5580.71
946.00	5509.04
946.17	5451.69
946.33	5291.95
946.50	5566.38
946.67	5461.93
946.83	5484.46
947.00	5603.24
947.16	5515.18
947.33	5480.36
947.49	5556.14
947.66	5480.36
947.82	5509.04
947.99	5402.54
948.16	5375.92
948.32	5461.93
948.49	5474.22
948.65	5433.26
948.82	5484.46
948.98	5365.68
949.15	5425.07
949.31	5412.78
949.48	5380.01
949.64	5314.48
949.81	5408.69
949.97	5392.30
950.14	5459.88
950.30	5382.06
950.47	5504.94
950.63	5527.47
950.80	5566.38
950.96	5509.04
951.13	5670.83
951.30	5463.98
951.46	5550.00
951.63	5523.37
951.79	5433.26
951.96	5511.08
952.12	5539.76
952.29	5492.65
952.45	5640.11
952.62	5470.12
952.78	5492.65
952.94	5412.78
953.11	5619.63
953.27	5474.22
953.44	5736.36
953.60	5566.38
953.77	5613.48
953.93	5498.80
954.10	5640.11
954.26	5570.48
954.43	5584.81
954.59	5742.50
954.76	5722.02
954.92	5547.95
955.09	5480.36
955.25	5654.44
955.42	5642.15
955.58	5650.35
955.75	5746.60
955.91	5545.90
956.07	5715.88
956.24	5709.74
956.40	5767.08
956.57	5623.72
956.73	5537.71
956.90	5642.15
957.06	5550.00
957.23	5703.59
957.39	5574.57
957.56	5640.11
957.72	5492.65
957.88	5523.37
958.05	5877.67
958.21	5685.16
958.38	5656.49
958.54	5636.01
958.71	5619.63
958.87	5529.52
959.03	5492.65
959.20	5717.93
959.36	5578.67
959.53	5593.00
959.69	5523.37
959.85	5633.96
960.02	5511.08
960.18	5506.99
960.35	5609.39
960.51	5562.28
960.68	5558.19
960.84	5707.69
961.00	5588.91
961.17	5611.43
961.33	5646.25
961.50	5783.46
961.66	5506.99
961.82	5607.34
961.99	5529.52
962.15	5457.84
962.31	5609.39
962.48	5642.15
962.64	5640.11
962.81	5584.81
962.97	5451.69
963.13	5627.82
963.30	5558.19
963.46	5490.60
963.62	5476.27
963.79	5537.71
963.95	5593.00
964.12	5576.62
964.28	5621.67
964.44	5474.22
964.61	5662.63
964.77	5560.24
964.93	5603.24
965.10	5476.27
965.26	5316.53
965.42	5449.64
965.59	5353.39
965.75	5439.40
965.92	5431.21
966.08	5345.20
966.24	5449.64
966.41	5382.06
966.57	5619.63
966.73	5396.40
966.90	5459.88
967.06	5363.63
967.22	5408.69
967.39	5357.49
967.55	5396.40
967.71	5474.22
967.88	5328.81
968.04	5294.00
968.20	5349.29
968.37	5244.85
968.53	5361.58
968.69	5533.61
968.85	5294.00
969.02	5349.29
969.18	5197.74
969.34	5216.18
969.51	5386.16
969.67	5400.49
969.83	5171.12
970.00	5382.06
970.16	5339.05
970.32	5334.96
970.48	5353.39
970.65	5275.57
970.81	5193.65
970.97	5238.70
971.14	5107.63
971.30	5199.79
971.46	5126.07
971.63	5154.74
971.79	5347.25
971.95	5021.62
972.11	5136.31
972.28	5062.58
972.44	5207.98
972.60	4972.47
972.76	5201.84
972.93	5040.05
973.09	5191.60
973.25	5031.86
973.42	5027.76
973.58	5005.24
973.74	5130.16
973.90	4779.96
974.07	4917.17
974.23	5027.76
974.39	5025.72
974.55	4978.61
974.72	4976.56
974.88	4908.98
975.04	5021.62
975.20	4947.89
975.37	4945.84
975.53	4822.97
975.69	4913.08
975.85	4808.63
976.01	4802.49
976.18	4767.67
976.34	4804.53
976.50	4919.22
976.66	4917.17
976.83	4829.11
976.99	4851.64
977.15	4898.74
977.31	4755.38
977.47	4788.15
977.64	4702.14
977.80	4851.64
977.96	4747.19
978.12	4820.92
978.29	4564.92
978.45	4779.96
978.61	4753.34
978.77	4698.04
978.93	4534.20
979.10	4597.69
979.26	4497.34
979.42	4601.79
979.58	4546.49
979.74	4677.56
979.91	4616.12
980.07	4544.44
980.23	4605.88
980.39	4652.98
980.55	4648.89
980.71	4503.48
980.88	4538.30
981.04	4468.67
981.20	4566.97
981.36	4579.26
981.52	4550.59
981.68	4505.53
981.85	4472.76
982.01	4421.56
982.17	4532.15
982.33	4390.84
982.49	4612.03
982.65	4243.39
982.82	4300.73
982.98	4308.93
983.14	4335.55
983.30	4313.02
983.46	4360.13
983.62	4396.99
983.79	4442.04
983.95	4333.50
984.11	4104.13
984.27	4347.84
984.43	4261.82
984.59	4376.51
984.75	4440.00
984.91	4259.78
985.08	4302.78
985.24	4249.54
985.40	4181.95
985.56	4184.00
985.72	4267.97
985.88	4192.19
986.04	4241.34
986.20	4061.12
986.37	4298.69
986.53	4100.03
986.69	4171.71
986.85	4048.83
987.01	4085.70
987.17	4161.47
987.33	4147.14
987.49	3983.30
987.65	4192.19
987.82	3983.30
987.98	4083.65
988.14	4116.42
988.30	4073.41
988.46	3930.05
988.62	4124.61
988.78	4136.90
988.94	3966.92
989.10	3917.76
989.26	3905.48
989.42	4018.11
989.59	4001.73
989.75	3936.20
989.91	3909.57
990.07	3825.61
990.23	3858.37
990.39	3934.15
990.55	4009.92
990.71	3784.65
990.87	3846.09
991.03	3852.23
991.19	3839.94
991.35	3790.79
991.51	3923.91
991.67	3975.11
991.83	3864.52
992.00	3792.84
992.16	3858.37
992.32	3878.85
992.48	3913.67
992.64	3715.02
992.80	3825.61
992.96	3663.82
993.12	3702.73
993.28	3719.11
993.44	3727.30
993.60	3786.69
993.76	3721.16
993.92	3850.18
994.08	3702.73
994.24	3674.06
994.40	3731.40
994.56	3798.98
994.72	3596.23
994.88	3610.57
995.04	3592.14
995.20	3669.96
995.36	3653.58
995.52	3616.71
995.68	3477.45
995.84	3489.74
996.00	3676.10
996.16	3514.31
996.32	3459.02
996.48	3465.16
996.64	3622.86
996.80	3622.86
996.96	3557.32
997.12	3518.41
997.28	3387.34
997.44	3536.84
997.60	3416.01
997.76	3516.36
997.92	3577.80
998.08	3542.99
998.24	3448.78
998.40	3422.16
998.56	3583.95
998.72	3379.15
998.88	3444.68
999.04	3356.62
999.20	3444.68
999.36	3327.95
999.52	3450.83
999.68	3448.78
999.84	3360.72
1000.00	3334.09
1000.16	3459.02
1000.32	3313.61
1000.48	3471.31
1000.64	3280.85
1000.80	3246.03
1000.95	3284.94
1001.11	3340.24
1001.27	3180.50
1001.43	3327.95
1001.59	3227.60
1001.75	3235.79
1001.91	3248.08
1002.07	3117.01
1002.23	3203.02
1002.39	3125.20
1002.55	3166.16
1002.71	3149.78
1002.87	3170.26
1003.03	3112.91
1003.19	3151.82
1003.34	3190.74
1003.50	3221.45
1003.66	3219.41
1003.82	3119.06
1003.98	3180.50
1004.14	3053.52
1004.30	3076.05
1004.46	3129.30
1004.62	3174.35
1004.78	3135.44
1004.94	3092.43
1005.09	3151.82
1005.25	3207.12
1005.41	3002.32
1005.57	3051.47
1005.73	3061.71
1005.89	3016.66
1006.05	2959.31
1006.21	3082.19
1006.37	2934.74
1006.52	3018.71
1006.68	2959.31
1006.84	2985.94
1007.00	2836.44
1007.16	3024.85
1007.32	2959.31
1007.48	2967.51
1007.64	2983.89
1007.79	2932.69
1007.95	2912.21
1008.11	2957.27
1008.27	2895.83
1008.43	2973.65
1008.59	2879.44
1008.75	3024.85
1008.91	2869.20
1009.06	2961.36
1009.22	2916.31
1009.38	2844.63
1009.54	2918.36
1009.70	2848.72
1009.86	2787.29
1010.01	2967.51
1010.17	2693.08
1010.33	2942.93
1010.49	2838.48
1010.65	2930.64
1010.81	2783.19
1010.96	2893.78
1011.12	2758.61
1011.28	2660.31
1011.44	2793.43
1011.60	2742.23
1011.76	2777.05
1011.91	2873.30
1012.07	2680.79
1012.23	2645.98
1012.39	2598.87
1012.55	2719.70
1012.71	2648.02
1012.86	2672.60
1013.02	2713.56
1013.18	2648.02
1013.34	2672.60
1013.50	2670.55
1013.65	2652.12
1013.81	2629.59
1013.97	2637.78
1014.13	2676.70
1014.29	2617.30
1014.44	2795.48
1014.60	2631.64
1014.76	2727.89
1014.92	2484.19
1015.07	2588.63
1015.23	2584.54
1015.39	2609.11
1015.55	2580.44
1015.71	2645.98
1015.86	2596.82
1016.02	2615.26
1016.18	2461.66
1016.34	2551.77
1016.49	2478.04
1016.65	2654.17
1016.81	2478.04
1016.97	2557.91
1017.12	2555.86
1017.28	2484.19
1017.44	2519.00
1017.60	2543.58
1017.75	2465.75
1017.91	2605.02
1018.07	2529.24
1018.23	2545.63
1018.38	2465.75
1018.54	2498.52
1018.70	2478.04
1018.86	2396.12
1019.01	2412.51
1019.17	2445.27
1019.33	2555.86
1019.49	2396.12
1019.64	2609.11
1019.80	2508.76
1019.96	2445.27
1020.12	2424.80
1020.27	2301.92
1020.43	2445.27
1020.59	2523.10
1020.74	2447.32
1020.90	2445.27
1021.06	2344.92
1021.22	2412.51
1021.37	2355.16
1021.53	2250.72
1021.69	2322.40
1021.84	2301.92
1022.00	2324.44
1022.16	2301.92
1022.31	2318.30
1022.47	2332.64
1022.63	2324.44
1022.79	2260.96
1022.94	2312.16
1023.10	2340.83
1023.26	2297.82
1023.41	2224.09
1023.57	2228.19
1023.73	2342.88
1023.88	2330.59
1024.04	2226.14
1024.20	2281.44
1024.35	2283.49
1024.51	2314.20
1024.67	2269.15
1024.82	2174.94
1024.98	2217.95
1025.14	2355.16
1025.29	2242.53
1025.45	2275.29
1025.61	2074.59
1025.76	2185.18
1025.92	2238.43
1026.08	2271.20
1026.23	2279.39
1026.39	2308.06
1026.55	2240.48
1026.70	2224.09
1026.86	2179.04
1027.02	2265.05
1027.17	2240.48
1027.33	2144.22
1027.48	2170.85
1027.64	2101.22
1027.80	2162.66
1027.95	2125.79
1028.11	2052.06
1028.27	2152.42
1028.42	2224.09
1028.58	2109.41
1028.73	2146.27
1028.89	2090.98
1029.05	2220.00
1029.20	2158.56
>>>>>End Processed Spectral Data<<<<<
