SpectraSuite Data File
++++++++++++++++++++++++++++++++++++
Date: Fri Jun 02 14:48:00 CEST 2017
User: INFO_000
Dark Spectrum Present: No
Reference Spectrum Present: No
Number of Sampled Component Spectra: 1
Spectrometers: USB4H00879
Integration Time (usec): 80000 (USB4H00879)
Spectra Averaged: 1 (USB4H00879)
Boxcar Smoothing: 0 (USB4H00879)
Correct for Electrical Dark: No (USB4H00879)
Strobe/Lamp Enabled: No (USB4H00879)
Correct for Detector Non-linearity: No (USB4H00879)
Correct for Stray Light: No (USB4H00879)
Number of Pixels in Processed Spectrum: 3648
>>>>>Begin Processed Spectral Data<<<<<
345.13	1329.13
345.34	1329.13
345.56	1329.13
345.78	1355.76
345.99	1302.51
346.21	1728.49
346.42	1759.21
346.64	1705.96
346.86	1781.73
347.07	1636.33
347.29	1728.49
347.50	1634.28
347.72	1646.57
347.94	1777.64
348.15	1540.07
348.37	1626.09
348.59	1767.40
348.80	1705.96
349.02	1865.70
349.23	1941.47
349.45	1849.32
349.67	1877.99
349.88	1798.12
350.10	1976.29
350.31	1847.27
350.53	1837.03
350.75	1976.29
350.96	1834.98
351.18	1847.27
351.39	1865.70
351.61	1847.27
351.82	1847.27
352.04	1882.08
352.26	1845.22
352.47	1939.43
352.69	1900.52
352.90	1753.06
353.12	1808.36
353.34	1861.60
353.55	1951.71
353.77	1902.56
353.98	1834.98
354.20	1843.17
354.41	1968.10
354.63	1863.65
354.85	2088.93
355.06	1906.66
355.28	1812.45
355.49	1916.90
355.71	1894.37
355.92	1820.64
356.14	2015.20
356.35	1884.13
356.57	1888.23
356.79	1880.04
357.00	1832.93
357.22	1953.76
357.43	1888.23
357.65	1929.19
357.86	1918.95
358.08	1920.99
358.29	1892.32
358.51	1984.48
358.72	2002.91
358.94	1908.71
359.16	1910.75
359.37	1945.57
359.59	1941.47
359.80	2023.39
360.02	1976.29
360.23	1939.43
360.45	1925.09
360.66	1869.80
360.88	1888.23
361.09	1953.76
361.31	1972.19
361.52	1929.19
361.74	1994.72
361.95	2076.64
362.17	1945.57
362.38	2029.54
362.60	2009.06
362.81	1986.53
363.03	1939.43
363.24	1957.86
363.46	1964.00
363.67	2011.11
363.89	2027.49
364.10	2033.63
364.32	2011.11
364.53	2066.40
364.75	1951.71
364.96	1968.10
365.18	2045.92
365.39	2052.06
365.61	1945.57
365.82	2107.36
366.04	2029.54
366.25	1947.62
366.47	2115.55
366.68	1972.19
366.90	1955.81
367.11	1982.43
367.33	2117.60
367.54	2084.83
367.76	2025.44
367.97	2095.07
368.19	2017.25
368.40	2070.50
368.62	2002.91
368.83	1974.24
369.05	2060.26
369.26	2070.50
369.48	2025.44
369.69	2011.11
369.91	2088.93
370.12	2007.01
370.33	2183.13
370.55	1984.48
370.76	2019.30
370.98	2144.22
371.19	2090.98
371.41	2021.35
371.62	2043.87
371.84	2088.93
372.05	2148.32
372.27	1996.77
372.48	2176.99
372.69	2129.89
372.91	2140.13
373.12	2164.70
373.34	2131.94
373.55	2193.37
373.77	2211.81
373.98	2117.60
374.20	2174.94
374.41	2263.01
374.62	2093.02
374.84	2166.75
375.05	2287.58
375.27	2195.42
375.48	2187.23
375.70	2156.51
375.91	2129.89
376.12	2338.78
376.34	2088.93
376.55	2281.44
376.77	2334.68
376.98	2150.37
377.19	2119.65
377.41	2174.94
377.62	2203.61
377.84	2297.82
378.05	2369.50
378.27	2181.09
378.48	2289.63
378.69	2338.78
378.91	2301.92
379.12	2301.92
379.34	2281.44
379.55	2232.29
379.76	2246.62
379.98	2170.85
380.19	2291.68
380.41	2256.86
380.62	2308.06
380.83	2355.16
381.05	2224.09
381.26	2365.40
381.47	2248.67
381.69	2301.92
381.90	2416.60
382.12	2365.40
382.33	2209.76
382.54	2328.54
382.76	2332.64
382.97	2443.23
383.19	2289.63
383.40	2334.68
383.61	2260.96
383.83	2281.44
384.04	2394.08
384.25	2359.26
384.47	2355.16
384.68	2383.84
384.89	2400.22
385.11	2394.08
385.32	2287.58
385.54	2334.68
385.75	2355.16
385.96	2447.32
386.18	2486.23
386.39	2422.75
386.60	2277.34
386.82	2529.24
387.03	2439.13
387.24	2439.13
387.46	2529.24
387.67	2396.12
387.88	2519.00
388.10	2402.27
388.31	2469.85
388.52	2439.13
388.74	2510.81
388.95	2527.19
389.16	2484.19
389.38	2492.38
389.59	2631.64
389.80	2629.59
390.02	2594.78
390.23	2594.78
390.44	2584.54
390.66	2498.52
390.87	2480.09
391.08	2664.41
391.30	2754.52
391.51	2619.35
391.72	2727.89
391.94	2707.41
392.15	2621.40
392.36	2592.73
392.58	2662.36
392.79	2701.27
393.00	2715.61
393.22	2711.51
393.43	2731.99
393.64	2877.40
393.85	2738.13
394.07	2693.08
394.28	2750.42
394.49	2760.66
394.71	2770.90
394.92	2863.06
395.13	2705.37
395.35	2754.52
395.56	2775.00
395.77	2822.10
395.98	2877.40
396.20	2889.68
396.41	2805.72
396.62	2879.44
396.84	2811.86
397.05	2856.92
397.26	2912.21
397.47	2938.84
397.69	2899.92
397.90	2998.23
398.11	2926.55
398.32	2897.88
398.54	2879.44
398.75	2922.45
398.96	2940.88
399.18	3176.40
399.39	3076.05
399.60	3080.14
399.81	2867.16
400.03	3004.37
400.24	3235.79
400.45	2904.02
400.66	3170.26
400.88	2981.84
401.09	3143.63
401.30	3135.44
401.51	3225.55
401.73	3143.63
401.94	3170.26
402.15	3151.82
402.36	3198.93
402.58	3205.07
402.79	3274.70
403.00	3239.89
403.21	3145.68
403.43	3207.12
403.64	3207.12
403.85	3129.30
404.06	3327.95
404.27	3162.06
404.49	3223.50
404.70	3174.35
404.91	3377.10
405.12	3264.46
405.34	3375.05
405.55	3338.19
405.76	3260.37
405.97	3182.54
406.19	3420.11
406.40	3350.48
406.61	3325.90
406.82	3450.83
407.03	3366.86
407.25	3305.42
407.46	3411.92
407.67	3477.45
407.88	3510.22
408.09	3325.90
408.31	3379.15
408.52	3456.97
408.73	3461.07
408.94	3489.74
409.15	3555.27
409.37	3510.22
409.58	3588.04
409.79	3502.03
410.00	3581.90
410.21	3473.36
410.43	3514.31
410.64	3545.03
410.85	3518.41
411.06	3624.90
411.27	3661.77
411.48	3692.49
411.70	3569.61
411.91	3612.62
412.12	3653.58
412.33	3655.62
412.54	3663.82
412.76	3770.31
412.97	3719.11
413.18	3696.58
413.39	3606.47
413.60	3751.88
413.81	3770.31
414.03	3629.00
414.24	3721.16
414.45	3878.85
414.66	3645.38
414.87	3946.44
415.08	3760.07
415.30	3796.93
415.51	3805.13
415.72	3758.02
415.93	3813.32
416.14	3848.13
416.35	3805.13
416.56	3948.48
416.78	3796.93
416.99	3835.85
417.20	3928.00
417.41	3862.47
417.62	3966.92
417.83	3923.91
418.04	3887.04
418.26	3903.43
418.47	4016.07
418.68	4073.41
418.89	3944.39
419.10	4165.57
419.31	4059.07
419.52	4177.86
419.73	4018.11
419.95	4216.77
420.16	4052.93
420.37	4003.78
420.58	4104.13
420.79	4069.31
421.00	4087.75
421.21	4198.34
421.42	4069.31
421.63	4339.65
421.85	4249.54
422.06	4300.73
422.27	4214.72
422.48	4204.48
422.69	4257.73
422.90	4261.82
423.11	4331.45
423.32	4341.69
423.53	4573.11
423.75	4274.11
423.96	4564.92
424.17	4376.51
424.38	4644.79
424.59	4317.12
424.80	4716.47
425.01	4431.80
425.22	4546.49
425.43	4499.39
425.64	4657.08
425.85	4634.55
426.06	4804.53
426.28	4718.52
426.49	4673.46
426.70	4562.87
426.91	4679.61
427.12	4868.02
427.33	4902.84
427.54	4655.03
427.75	4847.54
427.96	4898.74
428.17	4833.21
428.38	4880.31
428.59	4919.22
428.80	4984.76
429.01	4951.99
429.23	4839.35
429.44	5271.47
429.65	5093.30
429.86	5111.73
430.07	4960.18
430.28	4951.99
430.49	5109.68
430.70	5175.22
430.91	5207.98
431.12	5150.64
431.33	5169.07
431.54	5343.15
431.75	5234.61
431.96	5228.46
432.17	5152.69
432.38	5300.14
432.59	5437.36
432.80	5420.97
433.01	5390.25
433.22	5394.35
433.43	5590.95
433.64	5476.27
433.85	5382.06
434.06	5500.84
434.27	5334.96
434.49	5574.57
434.70	5611.43
434.91	5554.09
435.12	5574.57
435.33	5531.56
435.54	5550.00
435.75	5418.93
435.96	5527.47
436.17	5603.24
436.38	5543.85
436.59	5754.79
436.80	5771.18
437.01	5855.14
437.22	5924.77
437.43	5746.60
437.64	5650.35
437.85	5973.92
438.06	5812.14
438.27	5724.07
438.48	5668.78
438.69	5906.34
438.90	5973.92
439.11	5744.55
439.32	6086.56
439.53	6021.03
439.74	6000.55
439.95	5955.49
440.16	6057.89
440.37	6072.23
440.57	5951.40
440.78	6166.43
440.99	6240.16
441.20	6127.52
441.41	6066.08
441.62	6180.77
441.83	6066.08
442.04	6229.92
442.25	6098.85
442.46	6246.30
442.67	6260.64
442.88	6479.77
443.09	6137.76
443.30	6264.74
443.51	6289.31
443.72	6625.18
443.93	6430.62
444.14	6664.09
444.35	6469.53
444.56	6471.58
444.77	6471.58
444.98	6508.44
445.19	6705.05
445.40	6528.92
445.61	6465.44
445.81	6698.91
446.02	6619.04
446.23	6705.05
446.44	6444.96
446.65	6582.17
446.86	6635.42
447.07	6954.90
447.28	7018.39
447.49	7069.59
447.70	6684.57
447.91	6829.98
448.12	6928.28
448.33	6907.80
448.54	6799.26
448.74	6815.64
448.95	7024.53
449.16	6852.50
449.37	7163.79
449.58	6817.69
449.79	7206.80
450.00	7038.87
450.21	7237.52
450.42	7298.96
450.63	7235.47
450.84	7120.79
451.05	7331.73
451.25	7178.13
451.46	7204.75
451.67	7268.24
451.88	7425.93
452.09	7354.26
452.30	7374.74
452.51	7245.71
452.72	7530.38
452.93	7673.74
453.13	7362.45
453.34	7489.42
453.55	7546.76
453.76	7409.55
453.97	7925.64
454.18	7808.90
454.39	7718.79
454.60	7581.58
454.81	7712.65
455.01	7905.16
455.22	7497.61
455.43	7858.06
455.64	7845.77
455.85	8097.67
456.06	8116.10
456.27	8046.47
456.48	7974.79
456.68	8032.13
456.89	8032.13
457.10	8345.47
457.31	8079.24
457.52	8284.03
457.73	8343.42
457.94	8443.78
458.14	8204.16
458.35	8621.95
458.56	8494.97
458.77	8312.71
458.98	8396.67
459.19	8537.98
459.39	8578.94
459.60	8699.77
459.81	8609.66
460.02	8824.70
460.23	8605.56
460.44	9002.87
460.65	8943.48
460.85	8951.67
461.06	8955.77
461.27	8744.83
461.48	9144.18
461.69	9217.91
461.89	8773.50
462.10	9146.23
462.31	9080.69
462.52	9062.26
462.73	9228.15
462.94	9277.30
463.14	9400.18
463.35	9230.20
463.56	9783.15
463.77	9500.53
463.98	9434.99
464.18	9543.53
464.39	9858.92
464.60	9971.56
464.81	9936.74
465.02	9770.86
465.23	9813.87
465.43	9762.67
465.64	10174.31
465.85	10170.21
466.06	10026.86
466.27	10379.11
466.47	10346.34
466.68	10248.04
466.89	10452.83
467.10	10321.76
467.30	10151.78
467.51	10235.75
467.72	10628.96
467.93	10372.96
468.14	10489.70
468.34	10841.95
468.55	10694.49
468.76	10952.54
468.97	10829.66
469.17	11038.55
469.38	11179.86
469.59	11296.60
469.80	10950.49
470.01	11159.38
470.21	11050.84
470.42	11298.64
470.63	11437.91
470.84	11351.89
471.04	11700.05
471.25	11784.01
471.46	11642.70
471.67	12005.19
471.87	11831.12
472.08	11784.01
472.29	12275.52
472.50	11743.05
472.70	11884.36
472.91	11851.60
473.12	12169.03
473.33	12410.69
473.53	12775.23
473.74	12314.44
473.95	12435.27
474.16	12699.45
474.36	12742.46
474.57	12787.52
474.78	12988.22
474.99	12918.59
475.19	12941.11
475.40	13227.83
475.61	13481.78
475.81	13377.33
476.02	13387.57
476.23	13440.82
476.44	13446.96
476.64	13580.08
476.85	13946.67
477.06	13748.01
477.27	14186.28
477.47	14100.26
477.68	14190.38
477.89	14384.93
478.09	14389.03
478.30	14493.47
478.51	14442.28
478.71	14602.02
478.92	14604.07
479.13	14804.77
479.34	15048.47
479.54	14984.99
479.75	15122.20
479.96	14919.45
480.16	15382.29
480.37	15218.46
480.58	15699.73
480.78	15660.82
480.99	15589.14
481.20	15861.52
481.41	15847.18
481.61	15941.39
481.82	16049.93
482.03	16006.92
482.23	16150.28
482.44	16383.75
482.65	16467.72
482.85	16477.96
483.06	16594.69
483.27	16529.16
483.47	16774.91
483.68	16615.17
483.89	16770.82
484.09	16955.13
484.30	17450.74
484.51	17391.35
484.71	17340.15
484.92	17442.55
485.13	17587.96
485.33	17544.95
485.54	17590.00
485.75	17872.62
485.95	17764.08
486.16	17972.97
486.37	18218.73
486.57	18157.29
486.78	18128.62
486.98	18284.26
487.19	18738.91
487.40	18730.72
487.60	18480.87
487.81	18953.95
488.02	18540.26
488.22	18812.64
488.43	19074.78
488.64	19019.49
488.84	19263.19
489.05	19357.40
489.25	19390.17
489.46	19564.25
489.67	19404.50
489.87	19678.93
490.08	19906.26
490.29	19599.06
490.49	20227.79
490.70	20201.16
490.90	20168.40
491.11	20174.54
491.32	20414.15
491.52	20299.47
491.73	20481.74
491.94	20473.54
492.14	20436.68
492.35	20862.66
492.55	20897.47
492.76	21130.94
492.97	21270.20
493.17	21132.99
493.38	21184.19
493.58	21442.23
493.79	21221.05
494.00	21282.49
494.20	21558.97
494.41	21958.32
494.61	21673.65
494.82	21991.09
495.02	21765.81
495.23	21991.09
495.44	22138.54
495.64	22220.46
495.85	22318.76
496.05	22445.74
496.26	22167.21
496.47	22515.37
496.67	22128.30
496.88	22890.15
497.08	22308.52
497.29	22724.26
497.49	22773.41
497.70	23137.95
497.91	23137.95
498.11	23273.12
498.32	23234.21
498.52	23156.38
498.73	23420.57
498.93	23297.69
499.14	23633.56
499.34	23570.07
499.55	24110.74
499.76	23729.81
499.96	23795.35
500.17	23977.62
500.37	24008.34
500.58	24016.53
500.78	24379.02
500.99	24141.46
501.19	24473.23
501.40	24389.26
501.60	24077.97
501.81	24444.56
502.02	24653.45
502.22	24327.82
502.43	24641.16
502.63	24819.33
502.84	24862.34
503.04	24942.21
503.25	25001.60
503.45	24997.51
503.66	25087.62
503.86	24878.72
504.07	25644.66
504.27	25210.50
504.48	25833.08
504.68	25171.58
504.89	25790.07
505.09	25710.20
505.30	25720.44
505.50	25749.11
505.71	25990.77
505.91	25888.37
506.12	25783.93
506.32	25931.38
506.53	26474.09
506.73	26414.70
506.94	26328.69
507.14	26158.70
507.35	26652.27
507.55	26369.65
507.76	26642.03
507.96	26250.86
508.17	26369.65
508.37	26388.08
508.58	26586.73
508.78	26777.19
508.99	27364.96
509.19	27012.71
509.40	26875.49
509.60	27108.96
509.81	27227.74
510.01	26934.88
510.22	26953.32
510.42	27352.67
510.63	27227.74
510.83	27491.93
511.04	27442.78
511.24	27528.80
511.44	27307.62
511.65	27532.89
511.85	27453.02
512.06	27686.49
512.26	27833.94
512.47	27858.52
512.67	27938.39
512.88	27846.23
513.08	27543.13
513.29	28233.30
513.49	28091.99
513.69	28061.27
513.90	28118.61
514.10	28458.57
514.31	28063.32
514.51	28384.85
514.72	28434.00
514.92	28159.57
515.13	28513.87
515.33	28589.64
515.53	28540.49
515.74	28608.08
515.94	28581.45
516.15	28683.85
516.35	28655.18
516.56	29046.34
516.76	29079.11
516.96	28849.74
517.17	29040.20
517.37	29392.45
517.58	29181.51
517.78	29249.09
517.99	29154.88
518.19	29296.19
518.39	29679.16
518.60	29705.79
518.80	29193.79
519.01	29611.58
519.21	29756.99
519.41	29931.06
519.62	29779.51
519.82	30043.70
520.03	29959.73
520.23	30000.69
520.43	30166.58
520.64	29969.97
520.84	30445.10
521.05	30436.91
521.25	30414.38
521.45	30539.31
521.66	30400.05
521.86	30557.74
522.07	30828.07
522.27	31051.30
522.47	31116.84
522.68	30996.01
522.88	30774.83
523.08	31194.66
523.29	31211.04
523.49	31260.20
523.70	31284.77
523.90	31424.03
524.10	31241.76
524.31	31688.22
524.51	31378.98
524.71	31825.43
524.92	31411.74
525.12	32056.85
525.33	31952.41
525.53	31929.88
525.73	32157.21
525.94	32290.32
526.14	32392.72
526.34	32153.11
526.55	32435.73
526.75	32157.21
526.95	32697.87
527.16	32689.68
527.36	32712.20
527.56	32671.25
527.77	33082.89
527.97	33170.95
528.17	32988.68
528.38	33211.91
528.58	33357.32
528.78	33478.15
528.99	33474.05
529.19	33652.22
529.39	33299.97
529.60	33662.46
529.80	33752.57
530.00	33226.24
530.21	34020.86
530.41	34221.56
530.61	34006.52
530.82	34407.92
531.02	34289.14
531.22	34409.97
531.43	34270.71
531.63	34565.62
531.83	34637.30
532.04	35292.65
532.24	34749.93
532.44	35061.22
532.64	35425.76
532.85	35220.97
533.05	35671.52
533.25	35700.19
533.46	35186.15
533.66	35550.69
533.86	35317.22
534.07	35677.66
534.27	35456.48
534.47	36072.92
534.67	36419.03
534.88	35945.95
535.08	35849.69
535.28	36679.12
535.49	36378.07
535.69	36728.27
535.89	36742.61
536.09	36918.73
536.30	36857.29
536.50	37131.72
536.70	36855.25
536.91	37043.66
537.11	36865.49
537.31	37289.42
537.51	37244.36
537.72	37645.76
537.92	37545.41
538.12	37975.48
538.32	37508.55
538.53	37952.96
538.73	37526.98
538.93	37770.69
539.13	37862.85
539.34	38147.51
539.54	37852.61
539.74	38215.10
539.94	38129.08
540.15	38362.55
540.35	38284.73
540.55	38405.56
540.75	38550.96
540.96	38663.60
541.16	38782.38
541.36	38555.06
541.56	38890.93
541.77	38940.08
541.97	39114.16
542.17	39333.29
542.37	39357.86
542.58	39298.47
542.78	39126.44
542.98	39601.57
543.18	39742.88
543.38	40029.60
543.59	40037.79
543.79	39736.74
543.99	39617.96
544.19	40179.10
544.40	39732.64
544.60	40144.28
544.80	40080.80
545.00	39904.67
545.20	40650.13
545.41	40379.80
545.61	39722.40
545.81	40408.47
546.01	40734.10
546.21	40095.13
546.42	40717.71
546.62	40899.98
546.82	40695.19
547.02	40840.59
547.22	40844.69
547.43	40555.93
547.63	40949.14
547.83	41129.36
548.03	40760.72
548.23	41278.86
548.44	41123.21
548.64	41010.57
548.84	41227.66
549.04	41545.09
549.24	41751.94
549.45	41823.62
549.65	41465.22
549.85	41219.47
550.05	41940.35
550.25	41631.11
550.45	42155.39
550.66	42061.18
550.86	41868.67
551.06	42294.65
551.26	42300.79
551.46	42182.01
551.66	41966.98
551.87	42153.34
552.07	42495.35
552.27	42446.20
552.47	42603.89
552.67	42579.32
552.87	42497.40
553.07	42753.40
553.28	42597.75
553.48	42700.15
553.68	42534.26
553.88	42866.03
554.08	42771.83
554.28	42530.17
554.48	42777.97
554.69	43089.26
554.89	42945.90
555.09	42974.58
555.29	43105.65
555.49	43308.40
555.69	43060.59
555.89	43044.21
556.10	43019.63
556.30	42997.10
556.50	43308.40
556.70	43005.30
556.90	43492.71
557.10	43357.55
557.30	43605.35
557.50	43412.84
557.70	43918.69
557.91	43525.48
558.11	43631.97
558.31	44055.90
558.51	43289.96
558.71	43668.84
558.91	44416.35
559.11	43922.79
559.31	44195.17
559.51	43527.53
559.72	44485.98
559.92	44125.53
560.12	43812.20
560.32	44035.42
560.52	44008.80
560.72	44100.96
560.92	44442.97
561.12	44176.73
561.32	44707.16
561.52	44045.66
561.72	44469.59
561.93	44229.98
562.13	44768.60
562.33	44430.68
562.53	44873.04
562.73	44903.76
562.93	44672.34
563.13	44502.36
563.33	44586.33
563.53	44895.57
563.73	44596.57
563.93	44709.21
564.13	45210.96
564.33	45004.11
564.53	45217.10
564.74	44676.44
564.94	44817.75
565.14	45380.94
565.34	45137.23
565.54	44883.28
565.74	45200.72
565.94	45636.94
566.14	45176.14
566.34	45235.53
566.54	45530.44
566.74	45026.64
566.94	45725.00
567.14	45890.88
567.34	45022.54
567.54	45618.50
567.74	45475.15
567.94	45358.41
568.14	45704.52
568.34	45960.51
568.54	45909.32
568.74	45749.57
568.94	45518.15
569.14	46003.52
569.34	46044.48
569.54	45677.90
569.75	45604.17
569.95	45915.46
570.15	46282.05
570.35	46103.87
570.55	46273.85
570.75	45931.84
570.95	46454.08
571.15	46519.61
571.35	46492.99
571.55	46726.46
571.75	46462.27
571.95	46462.27
572.15	46488.89
572.35	46441.79
572.55	46863.67
572.75	46497.08
572.95	46470.46
573.15	46849.33
573.35	47072.56
573.55	46239.04
573.75	46687.54
573.95	46976.31
574.15	46441.79
574.35	47103.28
574.55	46998.83
574.75	46865.72
574.95	47183.15
575.15	47129.90
575.34	46921.01
575.54	47363.37
575.74	47375.66
575.94	47766.82
576.14	47011.12
576.34	47693.10
576.54	47525.16
576.74	47703.34
576.94	47719.72
577.14	47664.42
577.34	48018.72
577.54	47836.45
577.74	47768.87
577.94	47883.56
578.14	47736.10
578.34	48039.20
578.54	47398.19
578.74	47686.95
578.94	48057.63
579.14	47906.08
579.34	48379.17
579.54	48178.46
579.74	48260.38
579.94	48518.43
580.13	48448.80
580.33	48473.37
580.53	48495.90
580.73	48921.88
580.93	48643.35
581.13	48483.61
581.33	48846.10
581.53	49120.53
581.73	48618.78
581.93	49374.48
582.13	49470.73
582.33	49218.83
582.53	49098.00
582.73	49351.95
582.92	49134.87
583.12	49526.03
583.32	49673.48
583.52	49100.05
583.72	49601.80
583.92	49603.85
584.12	49409.29
584.32	50054.40
584.52	49646.86
584.72	49347.86
584.92	49624.33
585.11	50001.16
585.31	49814.79
585.51	50152.71
585.71	49943.81
585.91	50228.48
586.11	49802.50
586.31	49990.92
586.51	50072.84
586.71	50267.39
586.91	50781.43
587.10	50158.85
587.30	50445.57
587.50	50251.01
587.70	50552.06
587.90	50238.72
588.10	50742.52
588.30	50617.60
588.50	50859.26
588.69	50863.35
588.89	50353.41
589.09	50742.52
589.29	51004.66
589.49	51242.23
589.69	50545.92
589.89	51059.96
590.08	50889.98
590.28	50980.09
590.48	51131.64
590.68	50601.21
590.88	51225.84
591.08	51209.46
591.28	50885.88
591.47	51535.09
591.67	51432.69
591.87	51537.13
592.07	51805.42
592.27	51383.54
592.47	51469.55
592.67	51670.25
592.86	51764.46
593.06	51666.16
593.26	51813.61
593.46	52020.45
593.66	51680.49
593.86	51913.96
594.05	51688.68
594.25	52313.31
594.45	52004.07
594.65	52053.22
594.85	51940.58
595.05	52636.89
595.24	52344.03
595.44	52049.13
595.64	52002.02
595.84	52311.27
596.04	52405.47
596.23	52507.87
596.43	52542.69
596.63	52301.03
596.83	52196.58
597.03	52415.71
597.22	52749.53
597.42	52425.95
597.62	52901.08
597.82	53093.59
598.02	52925.66
598.21	52862.17
598.41	52921.56
598.61	52849.88
598.81	52862.17
599.01	53468.37
599.20	53220.56
599.40	52896.98
599.60	53316.82
599.80	53212.37
600.00	52858.07
600.19	53748.94
600.39	53011.67
600.59	54154.44
600.79	53720.27
600.98	53337.30
601.18	53683.40
601.38	53765.32
601.58	53769.42
601.78	54072.52
601.97	54244.55
602.17	54080.71
602.37	54463.68
602.57	54142.15
602.76	53875.91
602.96	53843.15
603.16	54629.57
603.36	54109.38
603.55	54523.07
603.75	53937.35
603.95	54389.95
604.15	54469.82
604.34	54422.72
604.54	54559.94
604.74	55123.13
604.94	55065.78
605.13	54703.29
605.33	54729.92
605.53	54965.43
605.73	55000.25
605.92	54561.98
606.12	54850.75
606.32	54987.96
606.52	54600.89
606.71	55149.75
606.91	55731.37
607.11	55092.41
607.30	55266.48
607.50	55194.81
607.70	55469.23
607.90	55510.19
608.09	55723.18
608.29	55491.76
608.49	55344.31
608.68	55469.23
608.88	55561.39
609.08	55690.41
609.28	55899.31
609.47	55227.57
609.67	56239.27
609.87	55844.01
610.06	55946.41
610.26	55671.98
610.46	56171.69
610.66	55837.87
610.85	55942.31
611.05	55762.09
611.25	56136.87
611.44	55448.75
611.64	55561.39
611.84	55878.83
612.03	55694.51
612.23	56310.95
612.43	56112.30
612.62	55946.41
612.82	56116.39
613.02	56054.95
613.21	56319.14
613.41	56116.39
613.61	56091.82
613.80	55739.57
614.00	56319.14
614.20	56032.42
614.39	55909.55
614.59	56482.98
614.79	55997.61
614.98	55819.44
615.18	56585.38
615.38	56128.68
615.57	55993.51
615.77	56695.97
615.97	56431.78
616.16	55995.56
616.36	56607.90
616.56	56591.52
616.75	56343.72
616.95	56206.50
617.15	56599.71
617.34	56280.23
617.54	56450.21
617.74	56706.21
617.93	56585.38
618.13	56054.95
618.32	56169.64
618.52	56065.19
618.72	56171.69
618.91	56265.89
619.11	56425.64
619.31	56382.63
619.50	56491.17
619.70	56300.71
619.90	56462.50
620.09	56186.02
620.29	56114.34
620.48	56257.70
620.68	56622.24
620.88	55741.61
621.07	56243.37
621.27	56620.19
621.46	55895.21
621.66	56595.62
621.86	56220.84
622.05	56167.59
622.25	56618.14
622.44	56267.94
622.64	56226.98
622.84	56681.63
623.03	56224.93
623.23	56310.95
623.42	56190.12
623.62	56513.70
623.82	56595.62
624.01	56294.56
624.21	56376.48
624.40	56251.56
624.60	56218.79
624.80	56411.30
624.99	56087.72
625.19	56298.66
625.38	56583.33
625.58	56300.71
625.77	56566.94
625.97	56452.26
626.17	56226.98
626.36	56335.52
626.56	56466.59
626.75	55635.12
626.95	56437.92
627.14	56392.87
627.34	57121.94
627.54	56134.82
627.73	56341.67
627.93	56554.66
628.12	56276.13
628.32	56538.27
628.51	56439.97
628.71	56304.80
628.90	56065.19
629.10	56435.87
629.30	56908.96
629.49	56300.71
629.69	55846.06
629.88	56331.43
630.08	56556.70
630.27	56595.62
630.47	56751.26
630.66	56493.22
630.86	56792.22
631.05	56059.05
631.25	56804.51
631.44	56480.93
631.64	56384.68
631.84	56540.32
632.03	57056.41
632.23	56442.02
632.42	56816.80
632.62	56644.77
632.81	56513.70
633.01	56224.93
633.20	56679.58
633.40	56997.02
633.59	56599.71
633.79	56683.68
633.98	56876.19
634.18	56460.45
634.37	56990.87
634.57	55979.18
634.76	57267.35
634.96	56466.59
635.15	56999.07
635.35	56722.59
635.54	56732.83
635.74	56972.44
635.93	56521.89
636.13	56851.61
636.32	57033.88
636.52	56259.75
636.71	56417.44
636.91	56640.67
637.10	57199.77
637.30	56947.87
637.49	57132.18
637.69	56947.87
637.88	57429.14
638.08	56616.10
638.27	57332.89
638.46	56532.13
638.66	56970.39
638.85	57218.20
639.05	57361.56
639.24	56913.05
639.44	56859.80
639.63	56962.20
639.83	56939.68
640.02	56677.54
640.22	56974.49
640.41	57064.60
640.61	56712.35
640.80	57459.86
640.99	57472.15
641.19	57787.53
641.38	56861.85
641.58	56976.54
641.77	56857.76
641.97	56722.59
642.16	57025.69
642.36	56982.68
642.55	57578.64
642.74	57121.94
642.94	57197.72
643.13	57021.59
643.33	57455.76
643.52	57367.70
643.72	57365.65
643.91	57033.88
644.10	57564.31
644.30	57748.62
644.49	57724.05
644.69	57848.97
644.88	57042.07
645.08	57027.74
645.27	57504.91
645.46	57234.58
645.66	57660.56
645.85	57836.69
646.05	57822.35
646.24	57418.90
646.43	57054.36
646.63	58156.17
646.82	57666.70
647.02	57521.30
647.21	57681.04
647.40	57719.95
647.60	57785.49
647.79	57853.07
647.99	57971.85
648.18	57627.79
648.37	57926.80
648.57	57885.84
648.76	57986.19
648.96	57607.31
649.15	58162.31
649.34	58381.45
649.54	57613.46
649.73	57545.87
649.92	58051.72
650.12	57941.13
650.31	58262.66
650.51	58031.24
650.70	58346.63
650.89	57783.44
651.09	58526.85
651.28	58659.97
651.47	58225.80
651.67	58123.40
651.86	58504.32
652.06	57533.59
652.25	58072.20
652.44	58186.89
652.64	57988.24
652.83	57861.26
653.02	57775.25
653.22	58268.81
653.41	57906.32
653.60	57795.73
653.80	58244.23
653.99	58418.31
654.18	58039.43
654.38	57754.77
654.57	58152.07
654.76	58193.03
654.96	58246.28
655.15	58258.57
655.34	58152.07
655.54	58113.16
655.73	58184.84
655.92	57857.17
656.12	58260.62
656.31	58461.32
656.50	58438.79
656.70	58168.46
656.89	58027.15
657.08	58659.97
657.28	58406.02
657.47	58156.17
657.66	58406.02
657.86	58358.92
658.05	58502.28
658.24	58883.20
658.43	57881.74
658.63	58352.77
658.82	58250.38
659.01	58340.49
659.21	58317.96
659.40	58440.84
659.59	58207.37
659.79	58500.23
659.98	58520.71
660.17	58549.38
660.36	58537.09
660.56	58594.43
660.75	58582.15
660.94	58354.82
661.14	58655.87
661.33	58064.01
661.52	58125.45
661.71	58735.74
661.91	58475.65
662.10	58279.05
662.29	59049.08
662.49	58463.36
662.68	58680.45
662.87	58414.21
663.06	58545.28
663.26	58385.54
663.45	58608.77
663.64	58236.04
663.83	58580.10
664.03	58852.48
664.22	58346.63
664.41	59022.46
664.60	58195.08
664.80	58610.82
664.99	58578.05
665.18	58631.30
665.37	58733.70
665.57	58756.22
665.76	58041.48
665.95	58520.71
666.14	58299.53
666.34	58182.79
666.53	58604.67
666.72	58150.02
666.91	58240.14
667.11	58160.26
667.30	58201.22
667.49	58293.38
667.68	58553.47
667.87	58487.94
668.07	58815.61
668.26	58555.52
668.45	58594.43
668.64	58170.50
668.84	58903.68
669.03	58909.82
669.22	58598.53
669.41	58291.33
669.60	58387.59
669.80	58438.79
669.99	58915.96
670.18	58332.29
670.37	58426.50
670.57	58774.66
670.76	58762.37
670.95	58502.28
671.14	58514.56
671.33	58270.85
671.53	58549.38
671.72	58743.94
671.91	58246.28
672.10	58170.50
672.29	58662.02
672.48	58029.19
672.68	58848.38
672.87	58553.47
673.06	58061.96
673.25	58156.17
673.44	58277.00
673.64	58270.85
673.83	58242.18
674.02	58463.36
674.21	57926.80
674.40	58692.74
674.59	57779.34
674.79	58107.02
674.98	58266.76
675.17	58678.40
675.36	58537.09
675.55	58291.33
675.74	57918.60
675.94	58365.06
676.13	58064.01
676.32	58557.57
676.51	58360.97
676.70	58477.70
676.89	58172.55
677.08	58475.65
677.28	57969.80
677.47	58768.51
677.66	58541.19
677.85	58193.03
678.04	58295.43
678.23	58682.50
678.42	58233.99
678.62	58223.75
678.81	58666.11
679.00	58131.59
679.19	58604.67
679.38	58397.83
679.57	58072.20
679.76	57963.66
679.96	58430.60
680.15	58004.62
680.34	57953.42
680.53	58045.58
680.72	58594.43
680.91	58356.87
681.10	57891.98
681.29	58563.71
681.48	57930.89
681.68	57959.56
681.87	58045.58
682.06	57816.21
682.25	57767.05
682.44	57924.75
682.63	58061.96
682.82	57926.80
683.01	58004.62
683.20	57668.75
683.39	58311.81
683.59	57896.08
683.78	57775.25
683.97	57449.62
684.16	57947.28
684.35	57564.31
684.54	57932.94
684.73	57564.31
684.92	57525.39
685.11	57365.65
685.30	57529.49
685.49	57785.49
685.69	57640.08
685.88	57554.07
686.07	57461.91
686.26	57771.15
686.45	57533.59
686.64	57595.03
686.83	57599.12
687.02	57423.00
687.21	57834.64
687.40	57267.35
687.59	57445.52
687.78	57216.15
687.97	57775.25
688.16	57906.32
688.35	57367.70
688.54	57392.28
688.74	57578.64
688.93	57250.97
689.12	57576.59
689.31	57226.39
689.50	57406.61
689.69	56925.34
689.88	56511.65
690.07	57130.14
690.26	56874.14
690.45	57328.79
690.64	56956.06
690.83	57408.66
691.02	57074.84
691.21	56777.89
691.40	56812.70
691.59	57117.85
691.78	56827.04
691.97	56794.27
692.16	57099.42
692.35	57171.10
692.54	57398.42
692.73	56734.88
692.92	56738.97
693.11	57031.83
693.30	56988.83
693.49	57115.80
693.68	57107.61
693.87	56861.85
694.06	56425.64
694.25	56884.38
694.44	56362.15
694.63	56399.01
694.82	56642.72
695.01	56251.56
695.20	56317.09
695.39	56480.93
695.58	56474.79
695.77	56140.97
695.96	55934.12
696.15	56609.95
696.34	56489.12
696.53	56384.68
696.72	56693.92
696.91	55813.29
697.10	56761.50
697.29	55872.68
697.48	56951.96
697.67	56089.77
697.86	55954.60
698.05	56325.28
698.24	56018.09
698.43	55702.70
698.62	55846.06
698.81	55522.48
699.00	56745.12
699.19	55624.88
699.38	55790.76
699.57	55342.26
699.76	56243.37
699.95	55547.06
700.14	55479.47
700.32	55516.34
700.51	55186.61
700.70	55760.05
700.89	55774.38
701.08	55489.71
701.27	55239.86
701.46	55684.27
701.65	55461.04
701.84	55415.99
702.03	56130.73
702.22	55526.58
702.41	55489.71
702.60	55624.88
702.79	55542.96
702.98	55342.26
703.17	55366.84
703.35	54932.67
703.54	55026.87
703.73	55639.22
703.92	55432.37
704.11	55448.75
704.30	55145.65
704.49	54990.01
704.68	55010.49
704.87	55588.02
705.06	54922.43
705.25	55092.41
705.43	55317.68
705.62	55354.55
705.81	54656.19
706.00	55069.88
706.19	55002.30
706.38	54990.01
706.57	55139.51
706.76	54656.19
706.95	54813.88
707.14	54656.19
707.32	54607.04
707.51	54475.97
707.70	54330.56
707.89	54414.53
708.08	54244.55
708.27	54693.05
708.46	54820.03
708.65	54602.94
708.84	54949.05
709.02	54469.82
709.21	54277.32
709.40	54236.36
709.59	54224.07
709.78	53861.58
709.97	54549.70
710.16	54172.87
710.34	54711.49
710.53	54258.88
710.72	53822.67
710.91	54521.02
711.10	54289.60
711.29	53814.47
711.48	54484.16
711.66	54211.78
711.85	54041.80
712.04	53767.37
712.23	53847.24
712.42	53828.81
712.61	53863.63
712.80	53566.67
712.98	53724.36
713.17	53533.90
713.36	54246.60
713.55	53638.35
713.74	53322.96
713.93	53845.19
714.11	53351.63
714.30	53490.90
714.49	53521.62
714.68	53423.31
714.87	53679.31
715.06	53730.51
715.24	53036.25
715.43	53226.71
715.62	53126.36
715.81	52989.14
716.00	53064.92
716.18	52968.66
716.37	52612.32
716.56	53015.77
716.75	53482.70
716.94	53103.83
717.12	52622.56
717.31	53255.38
717.50	53554.38
717.69	52550.88
717.88	52784.35
718.06	52669.66
718.25	52950.23
718.44	52399.33
718.63	52223.20
718.82	52323.55
719.00	52401.38
719.19	52481.25
719.38	52174.05
719.57	52270.31
719.76	52102.37
719.94	51899.62
720.13	51817.71
720.32	51776.75
720.51	52192.48
720.69	51956.97
720.88	51815.66
721.07	51875.05
721.26	51105.01
721.44	51676.40
721.63	51401.97
721.82	51406.06
722.01	51490.03
722.20	51623.15
722.38	51268.85
722.57	50787.58
722.76	51426.54
722.95	51553.52
723.13	51016.95
723.32	50838.78
723.51	51131.64
723.70	50808.06
723.88	50738.43
724.07	50881.78
724.26	51158.26
724.44	50361.60
724.63	50967.80
724.82	50910.46
725.01	50607.36
725.19	50593.02
725.38	50588.92
725.57	50294.02
725.76	50189.57
725.94	50023.68
726.13	50291.97
726.32	50279.68
726.51	50128.13
726.69	51045.62
726.88	50527.48
727.07	50621.69
727.25	50128.13
727.44	50103.56
727.63	50658.56
727.82	50191.62
728.00	50517.25
728.19	50158.85
728.38	50400.51
728.56	49505.55
728.75	50824.44
728.94	50146.56
729.12	50015.49
729.31	50230.53
729.50	49755.40
729.69	50324.74
729.87	50314.50
730.06	50337.02
730.25	49943.81
730.43	50531.58
730.62	50162.95
730.81	50459.90
730.99	50189.57
731.18	49773.83
731.37	50132.23
731.55	50300.16
731.74	50291.97
731.93	50203.91
732.11	50150.66
732.30	50492.67
732.49	49960.20
732.67	49958.15
732.86	49653.00
733.05	50060.55
733.23	49321.23
733.42	49894.66
733.61	49825.03
733.79	49698.06
733.98	50015.49
734.17	50091.27
734.35	49628.43
734.54	50191.62
734.73	50017.54
734.91	49503.50
735.10	49378.57
735.29	49566.99
735.47	49394.96
735.66	49814.79
735.84	49100.05
736.03	49124.63
736.22	49913.09
736.40	49573.13
736.59	49556.75
736.78	49511.69
736.96	49360.14
737.15	49593.61
737.33	49452.30
737.52	49440.01
737.71	49460.49
737.89	49511.69
738.08	48925.97
738.27	49464.59
738.45	49538.32
738.64	49517.84
738.82	49526.03
739.01	49276.18
739.20	48909.59
739.38	49044.76
739.57	48842.01
739.75	49331.47
739.94	48739.61
740.13	49349.90
740.31	48762.14
740.50	48913.69
740.68	49186.07
740.87	49331.47
741.06	49276.18
741.24	48555.29
741.43	48518.43
741.61	48629.02
741.80	48923.93
741.99	48291.10
742.17	49067.28
742.36	48803.10
742.54	48704.79
742.73	48567.58
742.91	48637.21
743.10	48381.21
743.29	48889.11
743.47	48702.74
743.66	48669.98
743.84	48741.66
744.03	48948.50
744.21	48250.14
744.40	48850.20
744.59	48237.86
744.77	48157.99
744.96	48106.79
745.14	48223.52
745.33	48145.70
745.51	48348.45
745.70	48020.77
745.88	47906.08
746.07	48358.69
746.26	48065.83
746.44	47955.24
746.63	47901.99
746.81	48125.22
747.00	47844.65
747.18	47633.71
747.37	47844.65
747.55	47904.04
747.74	47945.00
747.92	47289.65
748.11	47447.34
748.29	47658.28
748.48	47586.60
748.66	47592.75
748.85	47637.80
749.03	48123.17
749.22	47795.49
749.41	47293.74
749.59	47562.03
749.78	47353.13
749.96	46757.17
750.15	47306.03
750.33	47205.68
750.52	47545.64
750.70	47213.87
750.89	47453.48
751.07	47349.04
751.26	47260.97
751.44	47027.51
751.63	47189.30
751.81	46966.07
752.00	46781.75
752.18	47240.50
752.37	46826.81
752.55	46789.94
752.74	46601.53
752.92	46761.27
753.10	46583.10
753.29	46794.04
753.47	46685.50
753.66	46624.06
753.84	46765.37
754.03	46814.52
754.21	46327.10
754.40	46476.60
754.58	46540.09
754.77	46521.66
754.95	46277.95
755.14	46212.41
755.32	46165.31
755.51	46374.20
755.69	46165.31
755.88	46216.51
756.06	46691.64
756.24	46097.73
756.43	46142.78
756.61	46202.18
756.80	45913.41
756.98	45942.08
757.17	45897.03
757.35	45694.28
757.54	45776.20
757.72	45966.66
757.90	46036.29
758.09	45557.06
758.27	45993.28
758.46	45591.88
758.64	45661.51
758.83	46265.66
759.01	45712.71
759.19	45532.49
759.38	45675.85
759.56	45667.66
759.75	45950.27
759.93	45337.93
760.12	45397.32
760.30	45380.94
760.48	45460.81
760.67	45098.32
760.85	45579.59
761.04	45282.64
761.22	45755.72
761.40	45161.81
761.59	45251.92
761.77	45159.76
761.96	45266.25
762.14	45258.06
762.32	44766.55
762.51	44914.00
762.69	44615.00
762.88	45045.07
763.06	44873.04
763.24	44666.20
763.43	44834.13
763.61	44995.92
763.80	44426.59
763.98	44813.65
764.16	44379.48
764.35	44463.45
764.53	44123.49
764.72	44270.94
764.90	44586.33
765.08	44199.26
765.27	44246.36
765.45	44307.80
765.63	43619.69
765.82	44098.91
766.00	44227.93
766.18	44182.88
766.37	44127.58
766.55	43552.10
766.74	43926.88
766.92	43877.73
767.10	43748.71
767.29	43752.80
767.47	43261.29
767.65	43367.79
767.84	43244.91
768.02	43859.30
768.20	43126.13
768.39	43459.94
768.57	43169.13
768.75	43447.66
768.94	43545.96
769.12	43103.60
769.30	43040.11
769.49	43111.79
769.67	42882.42
769.85	42915.19
770.04	42763.64
770.22	42636.66
770.40	42571.13
770.59	42775.92
770.77	43101.55
770.95	42988.91
771.14	42446.20
771.32	42286.46
771.50	42726.77
771.69	42562.93
771.87	42990.96
772.05	42728.82
772.24	42202.49
772.42	42538.36
772.60	42413.43
772.78	42483.06
772.97	42495.35
773.15	42612.09
773.33	42233.21
773.52	42198.40
773.70	42096.00
773.88	42497.40
774.07	42409.34
774.25	41911.68
774.43	42327.42
774.61	42505.59
774.80	42263.93
774.98	42038.65
775.16	42188.16
775.34	42012.03
775.53	41858.43
775.71	42294.65
775.89	42319.23
776.08	42048.89
776.26	42429.82
776.44	42456.44
776.62	41991.55
776.81	42343.80
776.99	42407.29
777.17	42036.61
777.35	42280.31
777.54	42638.71
777.72	42581.37
777.90	41934.21
778.08	42485.11
778.27	42341.75
778.45	42567.03
778.63	42589.56
778.81	42296.70
779.00	43330.92
779.18	42276.22
779.36	42782.07
779.54	42505.59
779.73	42671.48
779.91	42759.54
780.09	42794.36
780.27	43230.57
780.46	42835.31
780.64	42825.07
780.82	42605.94
781.00	42816.88
781.19	42921.33
781.37	43343.21
781.55	42913.14
781.73	43212.14
781.91	43257.20
782.10	42933.62
782.28	43099.50
782.46	42970.48
782.64	43015.54
782.82	43001.20
783.01	43541.86
783.19	42941.81
783.37	43148.65
783.55	43208.04
783.74	42939.76
783.92	42857.84
784.10	43382.12
784.28	43138.41
784.46	42874.23
784.64	43277.68
784.83	43429.23
785.01	43427.18
785.19	43265.39
785.37	43386.22
785.55	42804.59
785.74	42646.90
785.92	42941.81
786.10	43025.78
786.28	42974.58
786.46	42497.40
786.64	42675.57
786.83	42775.92
787.01	43165.04
787.19	42958.19
787.37	42892.66
787.55	43079.02
787.74	42556.79
787.92	42956.14
788.10	42513.78
788.28	42380.67
788.46	42405.24
788.64	42276.22
788.82	42845.55
789.01	42255.74
789.19	42755.44
789.37	42378.62
789.55	42190.20
789.73	41694.60
789.91	41543.05
790.09	41946.50
790.28	41932.16
790.46	41610.63
790.64	41999.74
790.82	41803.14
791.00	41391.50
791.18	41227.66
791.36	41500.04
791.55	41526.66
791.73	41383.30
791.91	41104.78
792.09	41170.32
792.27	41184.65
792.45	40789.39
792.63	41221.52
792.81	41172.36
793.00	41211.28
793.18	40899.98
793.36	40871.31
793.54	40820.11
793.72	40385.94
793.90	40736.15
794.08	40654.23
794.26	40500.63
794.44	40568.21
794.62	40119.71
794.81	40240.54
794.99	40289.69
795.17	39888.29
795.35	39708.07
795.53	39824.80
795.71	40066.46
795.89	39722.40
796.07	39214.51
796.25	39474.60
796.43	39542.18
796.61	39310.76
796.80	39331.24
796.98	39443.88
797.16	38995.37
797.34	38989.23
797.52	38999.47
797.70	39019.95
797.88	39151.02
798.06	38483.38
798.24	38784.43
798.42	38667.70
798.60	38456.76
798.78	38571.44
798.96	39015.85
799.14	37748.16
799.32	38149.56
799.51	37524.93
799.69	38444.47
799.87	38219.19
800.05	37825.98
800.23	37725.63
800.41	37901.76
800.59	37664.19
800.77	37483.97
800.95	37121.48
801.13	37584.32
801.31	37375.43
801.49	37230.02
801.67	37008.84
801.85	37139.91
802.03	36658.64
802.21	36732.37
802.39	36709.84
802.57	36478.42
802.75	36500.95
802.93	36789.71
803.11	36132.31
803.29	36330.97
803.47	36195.80
803.65	36130.26
803.83	36148.70
804.01	36001.24
804.19	35773.92
804.37	36091.35
804.55	35591.65
804.73	35821.02
804.91	35864.03
805.09	35958.24
805.27	35683.81
805.45	35554.79
805.63	35712.48
805.81	35855.84
805.99	35380.71
806.17	35306.98
806.35	35182.06
806.53	34960.87
806.71	35182.06
806.89	35425.76
807.07	34393.59
807.25	34979.31
807.43	34670.06
807.61	34772.46
807.79	34627.06
807.97	34424.31
808.15	34541.04
808.33	34397.68
808.51	34475.51
808.69	34647.54
808.87	34233.85
809.05	34248.18
809.23	33795.58
809.41	33678.85
809.59	34317.81
809.77	33830.40
809.95	33807.87
810.13	33619.46
810.31	33682.94
810.49	33936.89
810.67	33433.09
810.84	33607.17
811.02	33627.65
811.20	33175.05
811.38	33596.93
811.56	32984.58
811.74	33154.57
811.92	32912.91
812.10	33259.01
812.28	33340.93
812.46	32937.48
812.64	33046.02
812.82	32896.52
813.00	33052.17
813.18	33101.32
813.36	32689.68
813.53	32396.82
813.71	32622.09
813.89	32405.01
814.07	32374.29
814.25	32427.54
814.43	32364.05
814.61	32130.58
814.79	32296.47
814.97	32163.35
815.15	32296.47
815.33	32048.66
815.50	31663.64
815.68	31956.50
815.86	32079.38
816.04	31850.01
816.22	31772.19
816.40	31264.29
816.58	31673.88
816.76	31428.13
816.94	31669.79
817.11	31569.44
817.29	31700.51
817.47	31268.39
817.65	31344.16
817.83	31254.05
818.01	30961.19
818.19	31305.25
818.37	31088.17
818.54	30549.55
818.72	30916.14
818.90	30848.55
819.08	30639.66
819.26	30920.23
819.44	30932.52
819.62	30721.58
819.80	30860.84
819.97	30729.77
820.15	30580.27
820.33	30604.84
820.51	30494.25
820.69	30621.23
820.87	30146.10
821.05	30586.41
821.22	30101.04
821.40	30471.73
821.58	30053.94
821.76	30025.27
821.94	29861.43
822.12	30084.66
822.29	29756.99
822.47	29625.92
822.65	29769.27
822.83	30150.20
823.01	29556.28
823.19	29576.76
823.36	29300.29
823.54	29603.39
823.72	29445.69
823.90	29376.06
824.08	29371.97
824.25	29472.32
824.43	29146.69
824.61	29269.57
824.79	29197.89
824.97	28868.17
825.15	28937.80
825.32	29197.89
825.50	29019.72
825.68	28886.60
825.86	29419.07
826.04	28960.33
826.21	29003.33
826.39	29183.55
826.57	28948.04
826.75	28853.83
826.93	28737.10
827.10	28601.93
827.28	29017.67
827.46	29242.95
827.64	28563.02
827.81	28587.60
827.99	28651.08
828.17	28483.15
828.35	28212.82
828.53	28622.41
828.70	28278.35
828.88	28202.58
829.06	28683.85
829.24	28563.02
829.41	28335.70
829.59	28288.59
829.77	28266.06
829.95	28192.34
830.12	27993.68
830.30	27897.43
830.48	27946.58
830.66	28098.13
830.84	28083.80
831.01	27741.78
831.19	27770.46
831.37	27631.19
831.55	27919.96
831.72	27838.04
831.90	27850.33
832.08	27850.33
832.25	27979.35
832.43	27631.19
832.61	27772.50
832.79	27651.67
832.96	27586.14
833.14	27367.01
833.32	27887.19
833.50	27332.19
833.67	27350.62
833.85	27309.66
834.03	27145.83
834.20	27309.66
834.38	27301.47
834.56	27135.59
834.74	26910.31
834.91	27184.74
835.09	27244.13
835.27	26703.46
835.44	26648.17
835.62	26537.58
835.80	26773.10
835.98	26977.89
836.15	26900.07
836.33	27088.48
836.51	27100.77
836.68	26562.15
836.86	26629.74
837.04	26523.24
837.21	26629.74
837.39	26721.90
837.57	26588.78
837.75	26900.07
837.92	26091.12
838.10	26467.95
838.28	26322.54
838.45	26361.45
838.63	26365.55
838.81	25857.65
838.98	25894.52
839.16	26300.01
839.34	26111.60
839.51	26181.23
839.69	25810.55
839.87	25751.16
840.04	26396.27
840.22	26318.45
840.40	25783.93
840.57	25523.83
840.75	25826.93
840.93	25468.54
841.10	25792.12
841.28	26222.19
841.46	25726.58
841.63	25816.69
841.81	25949.81
841.98	25747.06
842.16	25718.39
842.34	25620.09
842.51	25421.44
842.69	25726.58
842.87	25716.34
843.04	25525.88
843.22	25261.69
843.40	25499.26
843.57	25351.81
843.75	25290.37
843.92	25523.83
844.10	25185.92
844.28	25263.74
844.45	25048.71
844.63	25437.82
844.81	25159.30
844.98	25366.14
845.16	24942.21
845.33	24774.28
845.51	25206.40
845.69	24843.91
845.86	24901.25
846.04	24960.64
846.21	25028.23
846.39	24759.94
846.57	24460.94
846.74	24704.65
846.92	24860.29
847.09	24727.17
847.27	24952.45
847.45	24743.56
847.62	24526.47
847.80	24747.65
847.97	24536.71
848.15	24465.03
848.32	24372.88
848.50	24499.85
848.68	24387.21
848.85	24630.92
849.03	24127.12
849.20	24350.35
849.38	24264.33
849.56	24239.76
849.73	24313.48
849.91	24424.08
850.08	24495.75
850.26	23783.06
850.43	24329.87
850.61	23920.28
850.78	23664.28
850.96	23975.57
851.14	23707.29
851.31	23924.37
851.49	23733.91
851.66	23969.43
851.84	23797.40
852.01	23785.11
852.19	23719.57
852.36	23668.37
852.54	23307.93
852.71	23629.46
852.89	23633.56
853.07	23387.80
853.24	23738.01
853.42	23615.13
853.59	23594.65
853.77	23758.49
853.94	23799.44
854.12	23635.61
854.29	23352.99
854.47	23348.89
854.64	23363.23
854.82	23158.43
854.99	23168.67
855.17	23301.79
855.34	23527.06
855.52	23373.47
855.69	23563.93
855.87	23066.27
856.04	23076.51
856.22	22996.64
856.39	22841.00
856.57	23140.00
856.74	22589.10
856.92	23078.56
857.09	22699.69
857.27	23121.57
857.44	22886.05
857.62	23119.52
857.79	23103.14
857.97	22904.48
858.14	22795.94
858.32	22689.45
858.49	22916.77
858.67	22671.01
858.84	22351.53
859.02	22482.60
859.19	22623.91
859.37	22359.72
859.54	22412.97
859.72	22660.77
859.89	22470.31
860.06	22853.28
860.24	22081.20
860.41	22335.15
860.59	22220.46
860.76	22359.72
860.94	22193.84
861.11	22312.62
861.29	22132.40
861.46	22136.49
861.64	22034.10
861.81	22146.73
861.98	22423.21
862.16	21999.28
862.33	22218.41
862.51	21716.66
862.68	22097.58
862.86	22062.77
863.03	21823.16
863.21	22009.52
863.38	21501.62
863.55	21575.35
863.73	21706.42
863.90	21731.00
864.08	21620.41
864.25	21630.65
864.43	21481.14
864.60	21345.98
864.77	21579.45
864.95	21706.42
865.12	21370.55
865.30	21407.42
865.47	21405.37
865.64	21894.83
865.82	21509.82
865.99	21376.70
866.17	21221.05
866.34	21288.64
866.51	20653.76
866.69	21507.77
866.86	21280.44
867.04	21204.67
867.21	21321.40
867.38	20739.78
867.56	21442.23
867.73	21157.57
867.91	21345.98
868.08	21165.76
868.25	20842.18
868.43	21038.78
868.60	20811.46
868.78	20944.58
868.95	20995.78
869.12	21178.04
869.30	20776.64
869.47	20836.03
869.64	20571.85
869.82	20608.71
869.99	20393.67
870.16	20502.22
870.34	20430.54
870.51	20448.97
870.69	20217.55
870.86	20315.85
871.03	20559.56
871.21	20149.96
871.38	20420.30
871.55	20199.12
871.73	20133.58
871.90	20168.40
872.07	20176.59
872.25	19777.23
872.42	20111.05
872.59	20084.43
872.77	20055.76
872.94	19951.31
873.11	20010.70
873.29	19756.75
873.46	19744.47
873.63	19343.06
873.81	19685.08
873.98	19754.71
874.15	19687.12
874.33	19379.93
874.50	19429.08
874.67	19599.06
874.85	19424.98
875.02	19441.37
875.19	19500.76
875.37	19486.42
875.54	19439.32
875.71	19365.59
875.88	19271.39
876.06	19377.88
876.23	19166.94
876.40	19257.05
876.58	19326.68
876.75	19132.12
876.92	18931.42
877.10	19072.73
877.27	18822.88
877.44	18726.63
877.61	18646.76
877.79	19089.12
877.96	18575.08
878.13	18855.65
878.31	18564.84
878.48	18654.95
878.65	18702.05
878.82	18253.55
879.00	18521.83
879.17	18560.74
879.34	18446.05
879.51	18167.53
879.69	18323.18
879.86	18325.22
880.03	18353.90
880.21	17983.21
880.38	18163.43
880.55	18423.53
880.72	18331.37
880.90	18255.59
881.07	18061.04
881.24	18355.94
881.41	17893.10
881.59	18011.89
881.76	18079.47
881.93	17893.10
882.10	17944.30
882.28	17997.55
882.45	18075.37
882.62	17893.10
882.79	17671.92
882.96	17602.29
883.14	18007.79
883.31	17917.68
883.48	17802.99
883.65	17630.96
883.83	17727.22
884.00	17721.07
884.17	17516.28
884.34	17655.54
884.51	17815.28
884.69	17813.23
884.86	17651.44
885.03	17438.45
885.20	17215.23
885.38	17913.58
885.55	17352.44
885.72	17567.48
885.89	17436.41
886.06	17557.24
886.24	17340.15
886.41	17434.36
886.58	17587.96
886.75	17684.21
886.92	17272.57
887.10	17360.63
887.27	17284.86
887.44	17200.89
887.61	17493.75
887.78	17209.08
887.95	17274.62
888.13	17096.44
888.30	16969.47
888.47	17032.96
888.64	16994.04
888.81	17067.77
888.99	17012.48
889.16	16959.23
889.33	16664.32
889.50	16797.44
889.67	16961.28
889.84	16846.59
890.01	16652.03
890.19	16858.88
890.36	16842.50
890.53	16725.76
890.70	16424.71
890.87	16508.68
891.04	16545.54
891.22	16723.71
891.39	16504.58
891.56	16365.32
891.73	16393.99
891.90	16383.75
892.07	16402.18
892.24	16441.09
892.42	16400.13
892.59	16320.26
892.76	16430.85
892.93	16195.34
893.10	16371.46
893.27	16287.50
893.44	16201.48
893.61	16002.83
893.79	16342.79
893.96	16150.28
894.13	16109.32
894.30	16088.84
894.47	16115.47
894.64	15992.59
894.81	16125.71
894.98	16156.43
895.15	16305.93
895.33	15990.54
895.50	16062.22
895.67	16142.09
895.84	15902.48
896.01	16056.08
896.18	16113.42
896.35	16271.11
896.52	16185.10
896.69	15800.08
896.86	15976.20
897.04	16021.26
897.21	16224.01
897.38	15990.54
897.55	15810.32
897.72	16154.38
897.89	16107.27
898.06	15896.33
898.23	15742.74
898.40	15890.19
898.57	15994.64
898.74	15607.57
898.91	15873.81
899.08	15728.40
899.26	15898.38
899.43	15908.62
899.60	15955.72
899.77	15937.29
899.94	15933.20
900.11	15763.22
900.28	15785.74
900.45	15675.15
900.62	15843.09
900.79	15879.95
900.96	16056.08
901.13	15951.63
901.30	15605.52
901.47	15789.84
901.64	15593.23
901.81	15488.79
901.98	15660.82
902.15	15578.90
902.32	15640.34
902.49	15941.39
902.66	15730.45
902.83	15836.94
903.01	15765.26
903.18	15785.74
903.35	15685.39
903.52	15795.98
903.69	15722.26
903.86	15832.85
904.03	15752.98
904.20	15861.52
904.37	15900.43
904.54	15752.98
904.71	15656.72
904.88	15906.57
905.05	15826.70
905.22	15855.37
905.39	15687.44
905.56	15791.89
905.73	15601.43
905.90	15890.19
906.07	15638.29
906.24	15642.39
906.41	15810.32
906.58	15763.22
906.75	15863.57
906.92	15611.67
907.09	15472.40
907.26	15591.19
907.43	15566.61
907.60	15458.07
907.77	15812.37
907.93	15621.91
908.10	15435.54
908.27	15691.54
908.44	15607.57
908.61	15361.81
908.78	15675.15
908.95	15720.21
909.12	15458.07
909.29	15544.08
909.46	15617.81
909.63	15537.94
909.80	15423.25
909.97	15568.66
910.14	15697.68
910.31	15476.50
910.48	15462.16
910.65	15466.26
910.82	15306.52
910.99	15413.01
911.16	15462.16
911.33	15310.61
911.50	15316.76
911.66	15294.23
911.83	15449.88
912.00	15050.52
912.17	15310.61
912.34	15134.49
912.51	15257.37
912.68	15220.50
912.85	15085.34
913.02	15132.44
913.19	15114.01
913.36	15138.58
913.53	15214.36
913.70	15005.47
913.86	15243.03
914.03	14974.75
914.20	14733.09
914.37	15077.15
914.54	14853.92
914.71	14931.74
914.88	14831.39
915.05	14712.61
915.22	14772.00
915.39	14882.59
915.55	14475.04
915.72	14468.90
915.89	14645.02
916.06	14587.68
916.23	14507.81
916.40	14169.90
916.57	14491.43
916.74	14376.74
916.91	14493.47
917.07	14409.51
917.24	14497.57
917.41	14376.74
917.58	14397.22
917.75	14059.31
917.92	14098.22
918.09	13889.32
918.26	14399.27
918.42	14114.60
918.59	14245.67
918.76	13946.67
918.93	13948.72
919.10	13879.08
919.27	14085.93
919.44	14079.79
919.60	13866.80
919.77	13872.94
919.94	13799.21
920.11	13442.87
920.28	13858.60
920.45	13647.66
920.61	13535.03
920.78	13584.18
920.95	13545.27
921.12	13633.33
921.29	13340.47
921.46	13524.79
921.62	13381.43
921.79	13250.36
921.96	13379.38
922.13	13201.21
922.30	13117.24
922.47	13063.99
922.63	13156.15
922.80	13045.56
922.97	13047.61
923.14	12728.13
923.31	12910.40
923.47	12738.37
923.64	12994.36
923.81	12906.30
923.98	12916.54
924.15	12558.14
924.32	12619.58
924.48	12502.85
924.65	12535.62
924.82	12425.03
924.99	12347.20
925.15	12218.18
925.32	12416.83
925.49	12093.26
925.66	12062.54
925.83	12021.58
925.99	12031.82
926.16	11962.19
926.33	12083.02
926.50	11804.49
926.67	12138.31
926.83	11849.55
927.00	11757.39
927.17	11816.78
927.34	11790.16
927.50	11636.56
927.67	11812.68
927.84	11822.92
928.01	11657.04
928.17	11614.03
928.34	11620.17
928.51	11302.74
928.68	11364.18
928.84	11460.43
929.01	11108.18
929.18	11239.25
929.35	11276.12
929.51	10987.35
929.68	10987.35
929.85	11106.13
930.02	10909.53
930.18	10936.15
930.35	11046.74
930.52	10862.43
930.69	10940.25
930.85	11024.22
931.02	10770.27
931.19	10839.90
931.36	10792.80
931.52	10757.98
931.69	10610.53
931.86	10569.57
932.02	10403.68
932.19	10596.19
932.36	10319.71
932.53	10426.21
932.69	10188.64
932.86	10368.87
933.03	10295.14
933.19	10043.24
933.36	10153.83
933.53	10248.04
933.70	9985.90
933.86	9889.64
934.03	9977.70
934.20	9879.40
934.36	9955.18
934.53	9521.01
934.70	9619.31
934.86	9645.93
935.03	9295.73
935.20	9217.91
935.36	9332.59
935.53	9187.19
935.70	9158.52
935.86	9273.20
936.03	9156.47
936.20	8986.49
936.36	8986.49
936.53	8892.28
936.70	8830.84
936.86	8914.81
937.03	8767.35
937.20	8511.36
937.36	8800.12
937.53	8368.00
937.70	8318.85
937.86	7980.93
938.03	8052.61
938.20	8122.24
938.36	7767.95
938.53	8036.23
938.70	7673.74
938.86	7677.83
939.03	7620.49
939.20	7501.71
939.36	7491.47
939.53	7227.28
939.70	7491.47
939.86	7012.24
940.03	7106.45
940.19	7069.59
940.36	6946.71
940.53	7114.64
940.69	6780.82
940.86	7051.16
941.03	6715.29
941.19	6623.13
941.36	6551.45
941.52	6707.10
941.69	6619.04
941.86	6616.99
942.02	6348.70
942.19	6283.17
942.35	6379.42
942.52	6338.46
942.69	6188.96
942.85	5943.21
943.02	5943.21
943.18	6064.04
943.35	6031.27
943.52	5998.50
943.68	5836.71
943.85	5717.93
944.01	5691.31
944.18	5752.74
944.35	5924.77
944.51	5648.30
944.68	5566.38
944.84	5676.97
945.01	5672.87
945.17	5541.80
945.34	5554.09
945.51	5599.15
945.67	5590.95
945.84	5588.91
946.00	5590.95
946.17	5584.81
946.33	5363.63
946.50	5496.75
946.67	5476.27
946.83	5437.36
947.00	5517.23
947.16	5377.97
947.33	5382.06
947.49	5535.66
947.66	5400.49
947.82	5468.08
947.99	5443.50
948.16	5478.32
948.32	5492.65
948.49	5513.13
948.65	5627.82
948.82	5490.60
948.98	5418.93
949.15	5441.45
949.31	5461.93
949.48	5472.17
949.64	5418.93
949.81	5406.64
949.97	5539.76
950.14	5539.76
950.30	5201.84
950.47	5398.45
950.63	5472.17
950.80	5396.40
950.96	5504.94
951.13	5408.69
951.30	5423.02
951.46	5525.42
951.63	5580.71
951.79	5423.02
951.96	5615.53
952.12	5531.56
952.29	5492.65
952.45	5386.16
952.62	5572.52
952.78	5457.84
952.94	5482.41
953.11	5427.12
953.27	5492.65
953.44	5652.39
953.60	5441.45
953.77	5701.54
953.93	5597.10
954.10	5468.08
954.26	5556.14
954.43	5504.94
954.59	5701.54
954.76	5762.98
954.92	5519.28
955.09	5674.92
955.25	5611.43
955.42	5640.11
955.58	5693.35
955.75	5580.71
955.91	5636.01
956.07	5642.15
956.24	5650.35
956.40	5777.32
956.57	5646.25
956.73	5629.87
956.90	5699.50
957.06	5676.97
957.23	5605.29
957.39	5697.45
957.56	5683.11
957.72	5713.83
957.88	5502.89
958.05	5681.07
958.21	5683.11
958.38	5545.90
958.54	5623.72
958.71	5803.94
958.87	5535.66
959.03	5588.91
959.20	5615.53
959.36	5617.58
959.53	5580.71
959.69	5552.04
959.85	5695.40
960.02	5619.63
960.18	5738.41
960.35	5588.91
960.51	5742.50
960.68	5527.47
960.84	5638.06
961.00	5500.84
961.17	5631.91
961.33	5722.02
961.50	5623.72
961.66	5730.22
961.82	5728.17
961.99	5590.95
962.15	5609.39
962.31	5515.18
962.48	5515.18
962.64	5619.63
962.81	5566.38
962.97	5674.92
963.13	5644.20
963.30	5590.95
963.46	5517.23
963.62	5492.65
963.79	5416.88
963.95	5552.04
964.12	5519.28
964.28	5646.25
964.44	5373.87
964.61	5420.97
964.77	5552.04
964.93	5709.74
965.10	5423.02
965.26	5466.03
965.42	5525.42
965.59	5244.85
965.75	5451.69
965.92	5445.55
966.08	5484.46
966.24	5451.69
966.41	5535.66
966.57	5373.87
966.73	5312.43
966.90	5425.07
967.06	5279.66
967.22	5519.28
967.39	5447.60
967.55	5332.91
967.71	5337.01
967.88	5404.59
968.04	5373.87
968.20	5390.25
968.37	5369.77
968.53	5339.05
968.69	5304.24
968.85	5345.20
969.02	5230.51
969.18	5357.49
969.34	5226.42
969.51	5334.96
969.67	5439.40
969.83	5255.09
970.00	5322.67
970.16	5238.70
970.32	5115.83
970.48	5375.92
970.65	5169.07
970.81	5240.75
970.97	5234.61
971.14	5107.63
971.30	5330.86
971.46	5203.89
971.63	5115.83
971.79	5296.05
971.95	5148.59
972.11	5087.15
972.28	5109.68
972.44	5171.12
972.60	5138.35
972.76	4999.09
972.93	4970.42
973.09	5156.79
973.25	5087.15
973.42	5007.28
973.58	5003.19
973.74	5035.96
973.90	5050.29
974.07	4925.36
974.23	4921.27
974.39	5001.14
974.55	4863.93
974.72	4835.25
974.88	4911.03
975.04	5042.10
975.20	4870.07
975.37	4956.08
975.53	4997.04
975.69	4898.74
975.85	4861.88
976.01	4837.30
976.18	4837.30
976.34	4935.60
976.50	4876.21
976.66	4999.09
976.83	4771.77
976.99	4855.73
977.15	4833.21
977.31	4722.62
977.47	4779.96
977.64	4765.62
977.80	4751.29
977.96	4751.29
978.12	4792.25
978.29	4720.57
978.45	4671.42
978.61	4695.99
978.77	4743.10
978.93	4710.33
979.10	4591.55
979.26	4558.78
979.42	4612.03
979.58	4609.98
979.74	4644.79
979.91	4609.98
980.07	4671.42
980.23	4577.21
980.39	4444.09
980.55	4589.50
980.71	4540.35
980.88	4489.15
981.04	4601.79
981.20	4650.94
981.36	4452.28
981.52	4540.35
981.68	4425.66
981.85	4483.00
982.01	4528.06
982.17	4466.62
982.33	4452.28
982.49	4528.06
982.65	4351.93
982.82	4446.14
982.98	4319.17
983.14	4194.24
983.30	4435.90
983.46	4345.79
983.62	4450.24
983.79	4231.10
983.95	4304.83
984.11	4224.96
984.27	4188.10
984.43	4323.26
984.59	4386.75
984.75	4229.06
984.91	4362.17
985.08	4255.68
985.24	4208.58
985.40	4169.66
985.56	4274.11
985.72	4270.01
985.88	4288.45
986.04	4130.75
986.20	4104.13
986.37	4255.68
986.53	4220.86
986.69	4198.34
986.85	4112.32
987.01	4116.42
987.17	4282.30
987.33	4108.23
987.49	4157.38
987.65	4124.61
987.82	4089.79
987.98	4104.13
988.14	4081.60
988.30	4186.05
988.46	3983.30
988.62	4057.03
988.78	4046.79
988.94	3928.00
989.10	3889.09
989.26	3964.87
989.42	3907.52
989.59	3893.19
989.75	3868.61
989.91	4038.59
990.07	3692.49
990.23	3936.20
990.39	3952.58
990.55	3897.28
990.71	3837.89
990.87	3901.38
991.03	3891.14
991.19	3739.59
991.35	3786.69
991.51	3925.96
991.67	3887.04
991.83	3821.51
992.00	3919.81
992.16	3755.97
992.32	3874.76
992.48	3780.55
992.64	3745.73
992.80	3796.93
992.96	3796.93
993.12	3807.17
993.28	3760.07
993.44	3710.92
993.60	3723.21
993.76	3725.26
993.92	3778.50
994.08	3676.10
994.24	3766.21
994.40	3557.32
994.56	3717.06
994.72	3655.62
994.88	3704.78
995.04	3645.38
995.20	3655.62
995.36	3555.27
995.52	3680.20
995.68	3534.79
995.84	3575.75
996.00	3657.67
996.16	3502.03
996.32	3456.97
996.48	3491.79
996.64	3682.25
996.80	3553.23
996.96	3510.22
997.12	3426.25
997.28	3518.41
997.44	3387.34
997.60	3416.01
997.76	3489.74
997.92	3516.36
998.08	3516.36
998.24	3532.75
998.40	3489.74
998.56	3454.92
998.72	3405.77
998.88	3338.19
999.04	3395.53
999.20	3493.83
999.36	3295.18
999.52	3422.16
999.68	3311.57
999.84	3426.25
1000.00	3280.85
1000.16	3403.72
1000.32	3252.17
1000.48	3473.36
1000.64	3301.33
1000.80	3295.18
1000.95	3194.83
1001.11	3209.17
1001.27	3250.13
1001.43	3370.96
1001.59	3205.07
1001.75	3260.37
1001.91	3260.37
1002.07	3227.60
1002.23	3092.43
1002.39	3155.92
1002.55	3270.61
1002.71	3149.78
1002.87	3227.60
1003.03	3164.11
1003.19	3180.50
1003.34	3200.98
1003.50	3256.27
1003.66	3264.46
1003.82	3176.40
1003.98	3178.45
1004.14	3164.11
1004.30	3057.62
1004.46	3100.62
1004.62	3026.90
1004.78	3051.47
1004.94	3045.33
1005.09	3074.00
1005.25	3084.24
1005.41	3061.71
1005.57	2977.75
1005.73	3020.75
1005.89	2936.79
1006.05	3090.38
1006.21	3045.33
1006.37	2920.40
1006.52	2887.64
1006.68	2922.45
1006.84	3108.82
1007.00	2867.16
1007.16	3084.24
1007.32	2832.34
1007.48	2959.31
1007.64	2969.55
1007.79	2981.84
1007.95	2840.53
1008.11	3004.37
1008.27	2920.40
1008.43	2934.74
1008.59	2844.63
1008.75	2912.21
1008.91	2799.57
1009.06	2834.39
1009.22	2994.13
1009.38	2969.55
1009.54	2918.36
1009.70	2748.37
1009.86	2807.77
1010.01	2844.63
1010.17	2760.66
1010.33	2863.06
1010.49	2783.19
1010.65	2963.41
1010.81	2805.72
1010.96	2842.58
1011.12	2752.47
1011.28	2717.65
1011.44	2723.80
1011.60	2660.31
1011.76	2770.90
1011.91	2877.40
1012.07	2682.84
1012.23	2645.98
1012.39	2740.18
1012.55	2725.85
1012.71	2729.94
1012.86	2617.30
1013.02	2713.56
1013.18	2672.60
1013.34	2668.50
1013.50	2738.13
1013.65	2693.08
1013.81	2721.75
1013.97	2500.57
1014.13	2668.50
1014.29	2574.30
1014.44	2719.70
1014.60	2588.63
1014.76	2670.55
1014.92	2596.82
1015.07	2668.50
1015.23	2617.30
1015.39	2617.30
1015.55	2555.86
1015.71	2586.58
1015.86	2545.63
1016.02	2506.71
1016.18	2469.85
1016.34	2535.39
1016.49	2600.92
1016.65	2547.67
1016.81	2605.02
1016.97	2523.10
1017.12	2545.63
1017.28	2461.66
1017.44	2449.37
1017.60	2455.51
1017.75	2502.62
1017.91	2412.51
1018.07	2473.95
1018.23	2525.15
1018.38	2410.46
1018.54	2432.99
1018.70	2412.51
1018.86	2445.27
1019.01	2383.84
1019.17	2461.66
1019.33	2508.76
1019.49	2502.62
1019.64	2344.92
1019.80	2449.37
1019.96	2486.23
1020.12	2406.36
1020.27	2322.40
1020.43	2359.26
1020.59	2461.66
1020.74	2367.45
1020.90	2447.32
1021.06	2301.92
1021.22	2389.98
1021.37	2361.31
1021.53	2332.64
1021.69	2351.07
1021.84	2234.33
1022.00	2369.50
1022.16	2363.36
1022.31	2342.88
1022.47	2383.84
1022.63	2299.87
1022.79	2265.05
1022.94	2281.44
1023.10	2361.31
1023.26	2398.17
1023.41	2256.86
1023.57	2287.58
1023.73	2338.78
1023.88	2252.77
1024.04	2250.72
1024.20	2217.95
1024.35	2297.82
1024.51	2318.30
1024.67	2287.58
1024.82	2363.36
1024.98	2187.23
1025.14	2252.77
1025.29	2170.85
1025.45	2246.62
1025.61	2176.99
1025.76	2172.89
1025.92	2263.01
1026.08	2254.81
1026.23	2174.94
1026.39	2236.38
1026.55	2191.33
1026.70	2170.85
1026.86	2138.08
1027.02	2277.34
1027.17	2195.42
1027.33	2228.19
1027.48	2170.85
1027.64	2170.85
1027.80	2076.64
1027.95	2195.42
1028.11	2052.06
1028.27	2179.04
1028.42	2148.32
1028.58	2140.13
1028.73	2156.51
1028.89	2101.22
1029.05	2281.44
1029.20	2189.28
>>>>>End Processed Spectral Data<<<<<
