SpectraSuite Data File
++++++++++++++++++++++++++++++++++++
Date: Fri Jun 02 14:47:53 CEST 2017
User: INFO_000
Dark Spectrum Present: No
Reference Spectrum Present: No
Number of Sampled Component Spectra: 1
Spectrometers: USB4H00879
Integration Time (usec): 80000 (USB4H00879)
Spectra Averaged: 1 (USB4H00879)
Boxcar Smoothing: 0 (USB4H00879)
Correct for Electrical Dark: No (USB4H00879)
Strobe/Lamp Enabled: No (USB4H00879)
Correct for Detector Non-linearity: No (USB4H00879)
Correct for Stray Light: No (USB4H00879)
Number of Pixels in Processed Spectrum: 3648
>>>>>Begin Processed Spectral Data<<<<<
345.13	1314.80
345.34	1314.80
345.56	1314.80
345.78	1271.79
345.99	1314.80
346.21	1732.58
346.42	1738.73
346.64	1558.50
346.86	1798.12
347.07	1742.82
347.29	1679.33
347.50	1583.08
347.72	1621.99
347.94	1820.64
348.15	1605.61
348.37	1593.32
348.59	1679.33
348.80	1658.85
349.02	1732.58
349.23	1724.39
349.45	1736.68
349.67	1746.92
349.88	1658.85
350.10	1953.76
350.31	1720.29
350.53	1648.61
350.75	1830.88
350.96	1662.95
351.18	1673.19
351.39	1757.16
351.61	1667.05
351.82	1834.98
352.04	1746.92
352.26	1681.38
352.47	1783.78
352.69	1789.92
352.90	1593.32
353.12	1665.00
353.34	1687.53
353.55	1779.68
353.77	1738.73
353.98	1693.67
354.20	1646.57
354.41	1798.12
354.63	1757.16
354.85	1888.23
355.06	1748.97
355.28	1624.04
355.49	1824.74
355.71	1603.56
355.92	1650.66
356.14	1812.45
356.35	1751.01
356.57	1755.11
356.79	1761.25
357.00	1636.33
357.22	1681.38
357.43	1611.75
357.65	1761.25
357.86	1669.09
358.08	1665.00
358.29	1748.97
358.51	1824.74
358.72	1746.92
358.94	1718.25
359.16	1720.29
359.37	1705.96
359.59	1722.34
359.80	1753.06
360.02	1652.71
360.23	1712.10
360.45	1757.16
360.66	1662.95
360.88	1617.90
361.09	1705.96
361.31	1708.01
361.52	1712.10
361.74	1732.58
361.95	1855.46
362.17	1703.91
362.38	1785.83
362.60	1781.73
362.81	1724.39
363.03	1699.81
363.24	1581.03
363.46	1804.26
363.67	1740.77
363.89	1718.25
364.10	1730.53
364.32	1716.20
364.53	1705.96
364.75	1626.09
364.96	1742.82
365.18	1718.25
365.39	1712.10
365.61	1644.52
365.82	1849.32
366.04	1718.25
366.25	1662.95
366.47	1746.92
366.68	1791.97
366.90	1640.42
367.11	1658.85
367.33	1757.16
367.54	1734.63
367.76	1683.43
367.97	1802.21
368.19	1757.16
368.40	1744.87
368.62	1697.77
368.83	1603.56
369.05	1771.49
369.26	1726.44
369.48	1556.46
369.69	1677.29
369.91	1685.48
370.12	1724.39
370.33	1761.25
370.55	1634.28
370.76	1613.80
370.98	1648.61
371.19	1662.95
371.41	1712.10
371.62	1708.01
371.84	1587.18
372.05	1691.62
372.27	1726.44
372.48	1720.29
372.69	1710.05
372.91	1765.35
373.12	1761.25
373.34	1744.87
373.55	1748.97
373.77	1648.61
373.98	1652.71
374.20	1818.60
374.41	1796.07
374.62	1646.57
374.84	1705.96
375.05	1701.86
375.27	1732.58
375.48	1751.01
375.70	1650.66
375.91	1791.97
376.12	1871.84
376.34	1667.05
376.55	1728.49
376.77	1722.34
376.98	1681.38
377.19	1687.53
377.41	1693.67
377.62	1695.72
377.84	1687.53
378.05	1845.22
378.27	1718.25
378.48	1820.64
378.69	1824.74
378.91	1759.21
379.12	1763.30
379.34	1708.01
379.55	1746.92
379.76	1716.20
379.98	1740.77
380.19	1798.12
380.41	1785.83
380.62	1701.86
380.83	1701.86
381.05	1703.91
381.26	1837.03
381.47	1650.66
381.69	1730.53
381.90	1796.07
382.12	1671.14
382.33	1720.29
382.54	1734.63
382.76	1667.05
382.97	1689.57
383.19	1650.66
383.40	1720.29
383.61	1695.72
383.83	1689.57
384.04	1689.57
384.25	1761.25
384.47	1816.55
384.68	1673.19
384.89	1652.71
385.11	1658.85
385.32	1708.01
385.54	1693.67
385.75	1699.81
385.96	1673.19
386.18	1722.34
386.39	1740.77
386.60	1675.24
386.82	1724.39
387.03	1667.05
387.24	1837.03
387.46	1665.00
387.67	1740.77
387.88	1775.59
388.10	1732.58
388.31	1640.42
388.52	1837.03
388.74	1789.92
388.95	1773.54
389.16	1746.92
389.38	1619.94
389.59	1732.58
389.80	1777.64
390.02	1765.35
390.23	1734.63
390.44	1705.96
390.66	1652.71
390.87	1613.80
391.08	1714.15
391.30	1794.02
391.51	1759.21
391.72	1798.12
391.94	1787.88
392.15	1781.73
392.36	1746.92
392.58	1685.48
392.79	1667.05
393.00	1787.88
393.22	1746.92
393.43	1814.50
393.64	1744.87
393.85	1849.32
394.07	1669.09
394.28	1673.19
394.49	1753.06
394.71	1867.75
394.92	1904.61
395.13	1640.42
395.35	1677.29
395.56	1710.05
395.77	1738.73
395.98	1730.53
396.20	1748.97
396.41	1732.58
396.62	1783.78
396.84	1691.62
397.05	1617.90
397.26	1759.21
397.47	1740.77
397.69	1587.18
397.90	1880.04
398.11	1849.32
398.32	1771.49
398.54	1679.33
398.75	1681.38
398.96	1765.35
399.18	1865.70
399.39	1687.53
399.60	1783.78
399.81	1708.01
400.03	1759.21
400.24	1961.95
400.45	1781.73
400.66	1759.21
400.88	1673.19
401.09	1877.99
401.30	1642.47
401.51	1787.88
401.73	1812.45
401.94	1816.55
402.15	1734.63
402.36	1822.69
402.58	1794.02
402.79	1796.07
403.00	1720.29
403.21	1789.92
403.43	1800.16
403.64	1859.56
403.85	1675.24
404.06	1757.16
404.27	1640.42
404.49	1740.77
404.70	1708.01
404.91	1761.25
405.12	1730.53
405.34	1794.02
405.55	1855.46
405.76	1642.47
405.97	1722.34
406.19	1906.66
406.40	1701.86
406.61	1820.64
406.82	1759.21
407.03	1716.20
407.25	1701.86
407.46	1877.99
407.67	1744.87
407.88	1839.08
408.09	1730.53
408.31	1708.01
408.52	1783.78
408.73	1632.23
408.94	1720.29
409.15	1751.01
409.37	1800.16
409.58	1726.44
409.79	1744.87
410.00	1865.70
410.21	1800.16
410.43	1740.77
410.64	1708.01
410.85	1806.31
411.06	1712.10
411.27	1759.21
411.48	1765.35
411.70	1755.11
411.91	1726.44
412.12	1851.36
412.33	1873.89
412.54	1761.25
412.76	1847.27
412.97	1849.32
413.18	1656.81
413.39	1785.83
413.60	1787.88
413.81	1773.54
414.03	1761.25
414.24	1712.10
414.45	1914.85
414.66	1681.38
414.87	1810.40
415.08	1720.29
415.30	1800.16
415.51	1834.98
415.72	1796.07
415.93	1867.75
416.14	1806.31
416.35	1748.97
416.56	1843.17
416.78	1718.25
416.99	1779.68
417.20	1738.73
417.41	1904.61
417.62	1759.21
417.83	1824.74
418.04	1781.73
418.26	1892.32
418.47	1759.21
418.68	1773.54
418.89	1828.84
419.10	2011.11
419.31	1877.99
419.52	1834.98
419.73	1773.54
419.95	1898.47
420.16	1732.58
420.37	1673.19
420.58	1775.59
420.79	1673.19
421.00	1642.47
421.21	1773.54
421.42	1859.56
421.63	1810.40
421.85	1773.54
422.06	1728.49
422.27	1769.44
422.48	1806.31
422.69	1775.59
422.90	1806.31
423.11	1791.97
423.32	1843.17
423.53	1935.33
423.75	1794.02
423.96	1875.94
424.17	1855.46
424.38	2004.96
424.59	1820.64
424.80	1769.44
425.01	1880.04
425.22	1740.77
425.43	1900.52
425.64	1920.99
425.85	2050.02
426.06	1994.72
426.28	1902.56
426.49	1728.49
426.70	1763.30
426.91	1810.40
427.12	1773.54
427.33	1908.71
427.54	1902.56
427.75	1943.52
427.96	1964.00
428.17	1974.24
428.38	1781.73
428.59	1910.75
428.80	1824.74
429.01	1822.69
429.23	1767.40
429.44	1826.79
429.65	1867.75
429.86	1880.04
430.07	1974.24
430.28	1880.04
430.49	2007.01
430.70	1861.60
430.91	2002.91
431.12	1877.99
431.33	1830.88
431.54	2041.82
431.75	1937.38
431.96	1951.71
432.17	1916.90
432.38	2002.91
432.59	1992.67
432.80	2115.55
433.01	1955.81
433.22	1925.09
433.43	1937.38
433.64	2037.73
433.85	1966.05
434.06	1957.86
434.27	1839.08
434.49	1920.99
434.70	2017.25
434.91	1939.43
435.12	2082.78
435.33	1892.32
435.54	1886.18
435.75	1744.87
435.96	1896.42
436.17	1918.95
436.38	1978.34
436.59	1992.67
436.80	1822.69
437.01	2043.87
437.22	2027.49
437.43	1916.90
437.64	1880.04
437.85	1939.43
438.06	2154.46
438.27	1822.69
438.48	1972.19
438.69	1951.71
438.90	2080.74
439.11	2031.58
439.32	2312.16
439.53	1914.85
439.74	1998.82
439.95	2037.73
440.16	1937.38
440.37	2060.26
440.57	1945.57
440.78	2125.79
440.99	2179.04
441.20	1992.67
441.41	2025.44
441.62	1972.19
441.83	1980.39
442.04	2002.91
442.25	2019.30
442.46	2039.78
442.67	1929.19
442.88	2158.56
443.09	2027.49
443.30	1873.89
443.51	2047.97
443.72	2099.17
443.93	2074.59
444.14	2220.00
444.35	1884.13
444.56	1966.05
444.77	1937.38
444.98	2209.76
445.19	2326.49
445.40	2113.50
445.61	2088.93
445.81	1978.34
446.02	2166.75
446.23	2123.74
446.44	2039.78
446.65	2164.70
446.86	2398.17
447.07	2555.86
447.28	2084.83
447.49	2093.02
447.70	2310.11
447.91	2392.03
448.12	2133.98
448.33	2346.97
448.54	2207.71
448.74	2117.60
448.95	2267.10
449.16	2093.02
449.37	2310.11
449.58	2277.34
449.79	2217.95
450.00	2168.80
450.21	2283.49
450.42	2279.39
450.63	2369.50
450.84	2133.98
451.05	2265.05
451.25	2164.70
451.46	2238.43
451.67	2383.84
451.88	2416.60
452.09	2217.95
452.30	2115.55
452.51	2215.90
452.72	2234.33
452.93	2625.50
453.13	1984.48
453.34	2199.52
453.55	2523.10
453.76	2346.97
453.97	2529.24
454.18	1998.82
454.39	2232.29
454.60	2273.25
454.81	2453.47
455.01	2402.27
455.22	2031.58
455.43	2342.88
455.64	2574.30
455.85	2297.82
456.06	2611.16
456.27	2435.03
456.48	2392.03
456.68	2549.72
456.89	2625.50
457.10	2484.19
457.31	2326.49
457.52	2199.52
457.73	2469.85
457.94	2508.76
458.14	2441.18
458.35	2715.61
458.56	2303.96
458.77	2504.67
458.98	2527.19
459.19	2715.61
459.39	2643.93
459.60	2854.87
459.81	2590.68
460.02	2734.04
460.23	2721.75
460.44	2668.50
460.65	2555.86
460.85	2523.10
461.06	2498.52
461.27	2598.87
461.48	2586.58
461.69	2736.09
461.89	2480.09
462.10	2574.30
462.31	2449.37
462.52	2856.92
462.73	2832.34
462.94	2873.30
463.14	2920.40
463.35	2830.29
463.56	3108.82
463.77	2844.63
463.98	2781.14
464.18	2576.34
464.39	3297.23
464.60	3211.22
464.81	2834.39
465.02	3053.52
465.23	3080.14
465.43	3254.22
465.64	3076.05
465.85	2768.85
466.06	3096.53
466.27	3377.10
466.47	3409.87
466.68	3258.32
466.89	3045.33
467.10	3137.49
467.30	2838.48
467.51	3663.82
467.72	3246.03
467.93	3039.19
468.14	3178.45
468.34	3727.30
468.55	3424.20
468.76	3485.64
468.97	3125.20
469.17	3780.55
469.38	3305.42
469.59	3583.95
469.80	3067.86
470.01	3866.56
470.21	3207.12
470.42	3694.54
470.63	3733.45
470.84	3862.47
471.04	3551.18
471.25	4145.09
471.46	3555.27
471.67	4280.25
471.87	3907.52
472.08	3866.56
472.29	3708.87
472.50	3678.15
472.70	4026.31
472.91	3651.53
473.12	3829.70
473.33	3739.59
473.53	4052.93
473.74	3928.00
473.95	4190.14
474.16	4143.04
474.36	3782.60
474.57	4341.69
474.78	4214.72
474.99	4564.92
475.19	4007.87
475.40	4597.69
475.61	4765.62
475.81	3942.34
476.02	4468.67
476.23	4466.62
476.44	4341.69
476.64	4458.43
476.85	4642.75
477.06	4519.87
477.27	4990.90
477.47	4800.44
477.68	4825.01
477.89	4485.05
478.09	4691.90
478.30	4485.05
478.51	4589.50
478.71	4753.34
478.92	4833.21
479.13	5054.39
479.34	5052.34
479.54	5271.47
479.75	4865.97
479.96	5502.89
480.16	4743.10
480.37	5070.77
480.58	5183.41
480.78	5580.71
480.99	5070.77
481.20	5437.36
481.41	4941.75
481.61	5377.97
481.82	5732.26
482.03	5472.17
482.23	5083.06
482.44	5590.95
482.65	6033.32
482.85	5791.66
483.06	5726.12
483.27	5746.60
483.47	5738.41
483.68	5554.09
483.89	5590.95
484.09	6207.39
484.30	5982.12
484.51	5838.76
484.71	5926.82
484.92	6154.15
485.13	6082.47
485.33	6240.16
485.54	5922.73
485.75	5965.73
485.95	6260.64
486.16	6188.96
486.37	6303.65
486.57	6406.05
486.78	6309.79
486.98	6520.73
487.19	6162.34
487.40	6449.05
487.60	6303.65
487.81	6385.57
488.02	6354.85
488.22	6553.50
488.43	6662.04
488.64	6563.74
488.84	6557.60
489.05	6971.29
489.25	6619.04
489.46	6313.89
489.67	6977.43
489.87	7327.63
490.08	6950.81
490.29	7147.41
490.49	6850.46
490.70	7200.66
490.90	6746.01
491.11	6842.26
491.32	7296.91
491.52	6999.96
491.73	7350.16
491.94	7128.98
492.14	7331.73
492.35	7143.32
492.55	7241.62
492.76	7253.91
492.97	7589.77
493.17	7331.73
493.38	7450.51
493.58	7937.93
493.79	7759.75
494.00	7802.76
494.20	7573.39
494.41	7993.22
494.61	8193.92
494.82	8138.63
495.02	7501.71
495.23	8294.27
495.44	7747.47
495.64	8099.72
495.85	7972.74
496.05	8261.51
496.26	8361.86
496.47	8216.45
496.67	7950.21
496.88	8906.62
497.08	7923.59
497.29	8312.71
497.49	8456.06
497.70	8212.35
497.91	8384.38
498.11	8660.86
498.32	8621.95
498.52	8497.02
498.73	8187.78
498.93	8963.96
499.14	8879.99
499.34	8671.10
499.55	8894.33
499.76	8226.69
499.96	8941.43
500.17	8460.16
500.37	8681.34
500.58	8879.99
500.78	8759.16
500.99	8669.05
501.19	9101.17
501.40	9234.29
501.60	8585.08
501.81	9187.19
502.02	9418.61
502.22	9097.08
502.43	9119.60
502.63	8941.43
502.84	9580.40
503.04	9060.21
503.25	9521.01
503.45	9254.77
503.66	9021.30
503.86	9035.64
504.07	8961.91
504.27	8884.09
504.48	9428.85
504.68	9572.21
504.89	9463.66
505.09	9232.24
505.30	9267.06
505.50	9539.44
505.71	9404.27
505.91	10381.15
506.12	9729.90
506.32	9283.44
506.53	9623.41
506.73	9598.83
506.94	9910.12
507.14	9596.78
507.35	9713.52
507.55	9557.87
507.76	9832.30
507.96	9838.44
508.17	9774.95
508.37	9621.36
508.58	10139.49
508.78	9799.53
508.99	10594.14
509.19	9850.73
509.40	9973.61
509.60	10284.90
509.81	10202.98
510.01	10157.92
510.22	10012.52
510.42	10082.15
510.63	10270.56
510.83	9858.92
511.04	9971.56
511.24	10518.37
511.44	10145.64
511.65	10653.53
511.85	10299.23
512.06	10250.08
512.26	10317.67
512.47	10567.52
512.67	10604.38
512.88	10309.47
513.08	10565.47
513.29	10473.31
513.49	10213.22
513.69	10350.43
513.90	10794.84
514.10	10764.12
514.31	10688.35
514.51	10487.65
514.72	11059.03
514.92	10790.75
515.13	10555.23
515.33	10544.99
515.53	10702.68
515.74	11214.68
515.94	10405.73
516.15	10874.71
516.35	10487.65
516.56	10674.01
516.76	10764.12
516.96	11183.96
517.17	11231.06
517.37	10432.35
517.58	11112.28
517.78	11059.03
517.99	11157.33
518.19	11183.96
518.39	10954.58
518.60	12037.96
518.80	11102.04
519.01	11849.55
519.21	11331.41
519.41	11642.70
519.62	11050.84
519.82	11476.82
520.03	11493.20
520.23	11589.46
520.43	11186.01
520.64	12291.91
520.84	11427.67
521.05	11384.66
521.25	11118.42
521.45	11685.71
521.66	11558.74
521.86	11530.06
522.07	11927.37
522.27	11497.30
522.47	11366.23
522.68	11962.19
522.88	11532.11
523.08	12171.08
523.29	11433.81
523.49	11853.64
523.70	11874.12
523.90	11990.86
524.10	11997.00
524.31	11876.17
524.51	11953.99
524.71	12222.28
524.92	12220.23
525.12	11992.90
525.33	12156.74
525.53	12144.45
525.73	12554.05
525.94	12140.36
526.14	12279.62
526.34	12091.21
526.55	12367.68
526.75	12715.84
526.95	12654.40
527.16	12808.00
527.36	12640.06
527.56	12592.96
527.77	12709.69
527.97	12805.95
528.17	12627.78
528.38	12883.77
528.58	12648.26
528.78	12638.02
528.99	12660.54
529.19	13000.51
529.39	12701.50
529.60	12629.82
529.80	12992.31
530.00	12953.40
530.21	13166.39
530.41	13371.19
530.61	13711.15
530.82	13193.01
531.02	13012.79
531.22	13264.69
531.43	13248.31
531.63	13684.53
531.83	13248.31
532.04	13524.79
532.24	13385.52
532.44	13107.00
532.64	13537.07
532.85	13913.90
533.05	14067.50
533.25	13496.11
533.46	13610.80
533.66	13909.80
533.86	13524.79
534.07	14233.38
534.27	13774.64
534.47	14303.01
534.67	14223.14
534.88	13612.85
535.08	14270.25
535.28	14407.46
535.49	14024.49
535.69	14509.86
535.89	14587.68
536.09	14495.52
536.30	14178.09
536.50	14040.87
536.70	14612.26
536.91	14280.49
537.11	14788.38
537.31	14819.10
537.51	14784.29
537.72	14843.68
537.92	14751.52
538.12	14888.73
538.32	14751.52
538.53	15034.14
538.73	14821.15
538.93	14548.77
539.13	14821.15
539.34	14980.89
539.54	14855.97
539.74	15079.19
539.94	15101.72
540.15	15058.71
540.35	15130.39
540.55	15302.42
540.75	15255.32
540.96	15079.19
541.16	15453.97
541.36	14995.23
541.56	15687.44
541.77	15658.77
541.97	15077.15
542.17	15193.88
542.37	16049.93
542.58	15052.57
542.78	15826.70
542.98	15439.64
543.18	15550.23
543.38	15959.82
543.59	15697.68
543.79	15552.27
543.99	15709.97
544.19	15494.93
544.40	15712.02
544.60	15898.38
544.80	15838.99
545.00	15904.53
545.20	15888.14
545.41	15976.20
545.61	15728.40
545.81	15695.63
546.01	16115.47
546.21	16013.07
546.42	16156.43
546.62	16518.92
546.82	16289.54
547.02	16348.93
547.22	16654.08
547.43	16443.14
547.63	16330.50
547.83	16445.19
548.03	15841.04
548.23	16103.18
548.44	16307.98
548.64	16459.52
548.84	16453.38
549.04	16117.51
549.24	16377.61
549.45	17057.53
549.65	16461.57
549.85	16690.95
550.05	16822.02
550.25	16459.52
550.45	17106.68
550.66	16584.45
550.86	16535.30
551.06	16725.76
551.26	16725.76
551.46	16733.95
551.66	17084.16
551.87	16695.04
552.07	16641.79
552.27	16717.57
552.47	16785.15
552.67	16891.65
552.87	17180.41
553.07	17172.22
553.28	16930.56
553.48	17252.09
553.68	16772.86
553.88	17319.67
554.08	16936.70
554.28	17518.32
554.48	16856.83
554.69	17049.34
554.89	17147.64
555.09	17114.87
555.29	17049.34
555.49	17272.57
555.69	17133.31
555.89	17346.30
556.10	16901.89
556.30	17112.83
556.50	17446.65
556.70	17131.26
556.90	17104.64
557.10	17628.92
557.30	17362.68
557.50	17659.63
557.70	17420.02
557.91	17491.70
558.11	17307.38
558.31	17725.17
558.51	17671.92
558.71	17608.44
558.91	17637.11
559.11	17608.44
559.31	17411.83
559.51	17479.41
559.72	17886.96
559.92	17481.46
560.12	17608.44
560.32	18056.94
560.52	17770.22
560.72	17770.22
560.92	18020.08
561.12	17704.69
561.32	18118.38
561.52	17821.42
561.72	18179.82
561.93	17936.11
562.13	17913.58
562.33	17676.02
562.53	18243.31
562.73	17983.21
562.93	17932.01
563.13	18151.15
563.33	17667.83
563.53	18357.99
563.73	17762.03
563.93	18228.97
564.13	18335.46
564.33	18085.61
564.53	18022.12
564.74	18269.93
564.94	18106.09
565.14	18204.39
565.34	18237.16
565.54	18247.40
565.74	17960.69
565.94	18415.34
566.14	18325.22
566.34	18048.75
566.54	18507.49
566.74	18312.94
566.94	18800.35
567.14	18355.94
567.34	18312.94
567.54	18431.72
567.74	18431.72
567.94	18396.90
568.14	18159.34
568.34	18906.85
568.54	18693.86
568.74	18161.39
568.94	18362.09
569.14	18919.14
569.34	18968.29
569.54	18802.40
569.75	18075.37
569.95	18591.46
570.15	18880.22
570.35	18878.18
570.55	18394.86
570.75	18796.26
570.95	18947.81
571.15	18489.06
571.35	19046.11
571.55	18855.65
571.75	18771.68
571.95	19125.98
572.15	18745.06
572.35	18728.67
572.55	18859.74
572.75	19095.26
572.95	18519.78
573.15	19046.11
573.35	19117.79
573.55	18724.58
573.75	18646.76
573.95	19119.84
574.15	19187.42
574.35	19359.45
574.55	18794.21
574.75	18886.37
574.95	19459.80
575.15	18687.71
575.34	19001.05
575.54	19218.14
575.74	19363.54
575.94	19261.15
576.14	19121.88
576.34	19111.64
576.54	19265.24
576.74	19558.10
576.94	19488.47
577.14	19255.00
577.34	19619.54
577.54	19134.17
577.74	19451.61
577.94	19789.52
578.14	19568.34
578.34	19760.85
578.54	19082.97
578.74	19867.34
578.94	19687.12
579.14	19869.39
579.34	18958.05
579.54	19756.75
579.74	19771.09
579.94	19781.33
580.13	19801.81
580.33	19171.04
580.53	19480.28
580.73	19654.36
580.93	19961.55
581.13	19652.31
581.33	19668.69
581.53	20420.30
581.73	19926.74
581.93	19803.86
582.13	20289.23
582.33	19869.39
582.53	20049.61
582.73	20319.95
582.92	20102.86
583.12	20332.23
583.32	19666.64
583.52	20047.57
583.72	20311.75
583.92	20156.11
584.12	20031.18
584.32	20098.77
584.52	19887.82
584.72	20182.73
584.92	20305.61
585.11	20559.56
585.31	20729.54
585.51	20526.79
585.71	20342.47
585.91	20590.28
586.11	20797.12
586.31	20661.96
586.51	20457.16
586.71	20559.56
586.91	20416.20
587.10	20725.44
587.30	21063.36
587.50	20799.17
587.70	20530.89
587.90	20674.24
588.10	20833.99
588.30	21112.51
588.50	20725.44
588.69	20577.99
588.89	20713.16
589.09	20928.19
589.29	21059.26
589.49	21206.72
589.69	20537.03
589.89	21221.05
590.08	20938.43
590.28	20950.72
590.48	21089.98
590.68	20981.44
590.88	21382.84
591.08	21112.51
591.28	20938.43
591.47	21503.67
591.67	20821.70
591.87	21147.33
592.07	21087.93
592.27	21044.93
592.47	20842.18
592.67	20926.14
592.86	21294.78
593.06	21294.78
593.26	21153.47
593.46	21319.35
593.66	21145.28
593.86	21382.84
594.05	21601.97
594.25	21647.03
594.45	21313.21
594.65	21462.71
594.85	20881.09
595.05	21411.51
595.24	21634.74
595.44	21251.77
595.64	21477.05
595.84	21960.37
596.04	21524.15
596.23	21370.55
596.43	21962.42
596.63	21665.46
596.83	21638.84
597.03	22126.25
597.22	21935.79
597.42	22134.45
597.62	22007.47
597.82	21880.50
598.02	21989.04
598.21	21984.94
598.41	21950.13
598.61	21921.46
598.81	21558.97
599.01	22167.21
599.20	22288.04
599.40	21972.66
599.60	22580.90
599.80	21831.35
600.00	22372.01
600.19	22294.19
600.39	21624.50
600.59	22275.76
600.79	22103.73
600.98	22275.76
601.18	22363.82
601.38	22365.87
601.58	22185.65
601.78	22412.97
601.97	22728.36
602.17	22810.28
602.37	22693.54
602.57	22488.74
602.76	22496.94
602.96	22513.32
603.16	22419.11
603.36	22863.52
603.55	22838.95
603.75	22462.12
603.95	22711.97
604.15	23090.85
604.34	22806.18
604.54	22619.81
604.74	22970.02
604.94	22972.07
605.13	22884.00
605.33	23375.52
605.53	22812.32
605.73	23127.71
605.92	22927.01
606.12	23140.00
606.32	23027.36
606.52	23060.13
606.71	23023.26
606.91	22982.31
607.11	22777.51
607.30	23389.85
607.50	23002.78
607.70	23301.79
607.90	23316.12
608.09	23070.37
608.29	23320.22
608.49	23518.87
608.68	23078.56
608.88	23142.05
609.08	23125.66
609.28	23719.57
609.47	23338.65
609.67	23494.30
609.87	23412.38
610.06	23303.84
610.26	23543.45
610.46	23551.64
610.66	22914.72
610.85	22957.73
611.05	23537.30
611.25	23371.42
611.44	23168.67
611.64	23213.73
611.84	23496.35
612.03	23269.02
612.23	23324.32
612.43	23586.46
612.62	23375.52
612.82	23498.39
613.02	23625.37
613.21	23312.03
613.41	23545.50
613.61	23565.98
613.80	23496.35
614.00	23629.46
614.20	23490.20
614.39	23631.51
614.59	23781.01
614.79	23670.42
614.98	23858.84
615.18	23269.02
615.38	23662.23
615.57	23557.78
615.77	24268.43
615.97	23625.37
616.16	23860.88
616.36	23688.85
616.56	23746.20
616.75	23555.74
616.95	23385.76
617.15	24153.74
617.34	23348.89
617.54	23946.90
617.74	23979.67
617.93	23838.36
618.13	23578.26
618.32	23813.78
618.52	23795.35
618.72	23873.17
618.91	24204.94
619.11	23656.09
619.31	23651.99
619.50	23258.78
619.70	23631.51
619.90	23312.03
620.09	23735.96
620.29	23670.42
620.48	24100.50
620.68	23979.67
620.88	23596.70
621.07	23602.84
621.27	23836.31
621.46	23705.24
621.66	23883.41
621.86	23500.44
622.05	23600.79
622.25	24116.88
622.44	23738.01
622.64	23832.21
622.84	23903.89
623.03	23721.62
623.23	23678.61
623.42	23735.96
623.62	23907.99
623.82	24047.25
624.01	23991.95
624.21	24059.54
624.40	23996.05
624.60	23733.91
624.80	24147.60
624.99	23406.23
625.19	23629.46
625.38	23912.08
625.58	23760.53
625.77	23533.21
625.97	23873.17
626.17	23477.91
626.36	24043.15
626.56	24106.64
626.75	23451.29
626.95	23795.35
627.14	23344.80
627.34	24168.08
627.54	23576.22
627.73	23965.33
627.93	23781.01
628.12	23613.08
628.32	23942.80
628.51	23783.06
628.71	24458.89
628.90	23613.08
629.10	23869.08
629.30	23801.49
629.49	24094.35
629.69	23932.56
629.88	23772.82
630.08	24376.97
630.27	24161.94
630.47	23989.91
630.66	23889.56
630.86	24039.06
631.05	23815.83
631.25	24030.87
631.44	23713.43
631.64	23950.99
631.84	23510.68
632.03	24172.18
632.23	23983.76
632.42	24024.72
632.62	24032.91
632.81	23950.99
633.01	23965.33
633.20	24522.38
633.40	24415.88
633.59	24094.35
633.79	23791.25
633.98	23828.12
634.18	23873.17
634.37	24360.59
634.57	24057.49
634.76	23815.83
634.96	24108.69
635.15	24391.31
635.35	23940.75
635.54	24137.36
635.74	24034.96
635.93	23914.13
636.13	24024.72
636.32	24176.27
636.52	24088.21
636.71	24286.86
636.91	24448.65
637.10	24022.67
637.30	23701.14
637.49	24026.77
637.69	24235.66
637.88	24239.76
638.08	24315.53
638.27	24407.69
638.46	24045.20
638.66	24024.72
638.85	24317.58
639.05	24219.28
639.24	24067.73
639.44	24071.82
639.63	24878.72
639.83	23977.62
640.02	24274.57
640.22	24014.48
640.41	24290.96
640.61	24346.25
640.80	24254.09
640.99	23807.64
641.19	24577.67
641.38	24311.44
641.58	24297.10
641.77	23944.85
641.97	24125.07
642.16	24172.18
642.36	24452.75
642.55	24362.64
642.74	24059.54
642.94	24510.09
643.13	24114.83
643.33	24524.43
643.52	24190.61
643.72	24432.27
643.91	24303.25
644.10	24465.03
644.30	24450.70
644.49	24444.56
644.69	24290.96
644.88	24270.48
645.08	24452.75
645.27	24473.23
645.46	24233.61
645.66	24647.30
645.85	24096.40
646.05	24239.76
646.24	24225.42
646.43	24004.24
646.63	24692.36
646.82	24102.54
647.02	24774.28
647.21	24516.23
647.40	24225.42
647.60	24467.08
647.79	24387.21
647.99	24661.64
648.18	24659.59
648.37	25052.80
648.57	24665.74
648.76	24495.75
648.96	24845.96
649.15	24354.44
649.34	24833.67
649.54	24802.95
649.73	24571.53
649.92	24778.37
650.12	24542.86
650.31	24686.22
650.51	25181.82
650.70	24616.58
650.89	24575.62
651.09	25302.65
651.28	25077.38
651.47	24878.72
651.67	25308.80
651.86	24755.85
652.06	24450.70
652.25	25005.70
652.44	24415.88
652.64	24592.01
652.83	24612.49
653.02	24635.02
653.22	24557.19
653.41	24704.65
653.60	24649.35
653.80	24612.49
653.99	24811.14
654.18	24733.32
654.38	24604.30
654.57	24907.40
654.76	25071.23
654.96	25130.62
655.15	24632.97
655.34	24931.97
655.54	24518.28
655.73	24776.33
655.92	24743.56
656.12	24669.83
656.31	24884.87
656.50	25321.09
656.70	24819.33
656.89	24854.15
657.08	25040.51
657.28	24897.16
657.47	24700.55
657.66	25167.49
657.86	24784.52
658.05	25101.95
658.24	24673.93
658.43	25007.75
658.63	24934.02
658.82	24921.73
659.01	24839.81
659.21	25280.13
659.40	24954.50
659.59	24919.68
659.79	25323.13
659.98	25515.64
660.17	25241.21
660.36	25503.35
660.56	25216.64
660.75	25104.00
660.94	25411.20
661.14	24946.31
661.33	25015.94
661.52	24917.64
661.71	25204.35
661.91	25095.81
662.10	25042.56
662.29	25079.43
662.49	25230.98
662.68	24944.26
662.87	25261.69
663.06	25425.53
663.26	24923.78
663.45	25581.18
663.64	24606.34
663.83	24966.79
664.03	25519.74
664.22	25149.06
664.41	25431.68
664.60	25437.82
664.80	25200.26
664.99	25153.15
665.18	25042.56
665.37	25118.34
665.57	25308.80
665.76	25222.78
665.95	25153.15
666.14	25007.75
666.34	25210.50
666.53	25380.48
666.72	24694.41
666.91	24700.55
667.11	25355.90
667.30	25026.18
667.49	25243.26
667.68	25638.52
667.87	25370.24
668.07	25065.09
668.26	25196.16
668.45	25169.54
668.64	24956.55
668.84	25396.86
669.03	25050.75
669.22	25288.32
669.41	24997.51
669.60	24888.96
669.80	25230.98
669.99	25321.09
670.18	25183.87
670.37	25585.27
670.57	25499.26
670.76	25495.16
670.95	25226.88
671.14	25341.57
671.33	24985.22
671.53	25380.48
671.72	25095.81
671.91	25196.16
672.10	24997.51
672.29	25261.69
672.48	24901.25
672.68	25278.08
672.87	25319.04
673.06	25568.89
673.25	25159.30
673.44	24667.78
673.64	24956.55
673.83	25060.99
674.02	24602.25
674.21	25443.96
674.40	24891.01
674.59	24745.61
674.79	24923.78
674.98	25190.02
675.17	25380.48
675.36	24845.96
675.55	25345.66
675.74	24659.59
675.94	25054.85
676.13	25536.12
676.32	25271.93
676.51	25134.72
676.70	25089.67
676.89	24985.22
677.08	24970.88
677.28	25013.89
677.47	24897.16
677.66	25566.84
677.85	24843.91
678.04	25212.54
678.23	25235.07
678.42	24964.74
678.62	25235.07
678.81	25386.62
679.00	24766.09
679.19	25370.24
679.38	24581.77
679.57	24940.16
679.76	24694.41
679.96	24759.94
680.15	25022.08
680.34	24839.81
680.53	25026.18
680.72	25298.56
680.91	24540.81
681.10	25321.09
681.29	25058.95
681.48	24708.74
681.68	24778.37
681.87	24745.61
682.06	24835.72
682.25	25007.75
682.44	24837.76
682.63	25409.15
682.82	24352.40
683.01	24565.39
683.20	24790.66
683.39	25036.42
683.59	24692.36
683.78	24467.08
683.97	24272.53
684.16	24784.52
684.35	24757.89
684.54	24800.90
684.73	25138.82
684.92	24303.25
685.11	25003.65
685.30	24678.02
685.49	24647.30
685.69	24880.77
685.88	24936.07
686.07	24235.66
686.26	24635.02
686.45	24653.45
686.64	25192.06
686.83	24774.28
687.02	24946.31
687.21	24813.19
687.40	24714.89
687.59	25022.08
687.78	24819.33
687.97	24874.63
688.16	24600.20
688.35	24256.14
688.54	24559.24
688.74	24522.38
688.93	24540.81
689.12	24399.50
689.31	24702.60
689.50	24612.49
689.69	24364.68
689.88	24929.92
690.07	24458.89
690.26	24522.38
690.45	24477.32
690.64	24227.47
690.83	24407.69
691.02	24209.04
691.21	24452.75
691.40	24092.30
691.59	24637.06
691.78	24798.85
691.97	24780.42
692.16	24587.91
692.35	24393.36
692.54	24514.19
692.73	24405.64
692.92	24501.90
693.11	24718.98
693.30	24499.85
693.49	23975.57
693.68	24409.74
693.87	24438.41
694.06	24161.94
694.25	24321.68
694.44	24487.56
694.63	24243.85
694.82	24161.94
695.01	24358.54
695.20	24280.72
695.39	24444.56
695.58	24022.67
695.77	24051.34
695.96	23899.80
696.15	24419.98
696.34	23856.79
696.53	24649.35
696.72	24284.81
696.91	23977.62
697.10	23959.19
697.29	23717.53
697.48	24675.98
697.67	24481.42
697.86	23840.40
698.05	24161.94
698.24	24508.04
698.43	24110.74
698.62	23893.65
698.81	23873.17
699.00	24209.04
699.19	23756.44
699.38	24106.64
699.57	24002.19
699.76	24065.68
699.95	23860.88
700.14	23815.83
700.32	23801.49
700.51	23897.75
700.70	23883.41
700.89	24118.93
701.08	24161.94
701.27	23596.70
701.46	24100.50
701.65	23228.06
701.84	24127.12
702.03	23918.23
702.22	23805.59
702.41	23744.15
702.60	24016.53
702.79	23422.62
702.98	23858.84
703.17	23842.45
703.35	23758.49
703.54	23690.90
703.73	24053.39
703.92	23660.18
704.11	23684.76
704.30	23428.76
704.49	23656.09
704.68	23512.73
704.87	23604.89
705.06	23420.57
705.25	23127.71
705.43	23817.88
705.62	23326.36
705.81	23746.20
706.00	23547.54
706.19	23588.50
706.38	23596.70
706.57	23447.19
706.76	23385.76
706.95	23391.90
707.14	23604.89
707.32	23158.43
707.51	23199.39
707.70	23113.38
707.89	23137.95
708.08	23439.00
708.27	23170.72
708.46	23226.01
708.65	22984.35
708.84	23703.19
709.02	23461.53
709.21	23670.42
709.40	23318.17
709.59	23348.89
709.78	23156.38
709.97	22951.59
710.16	23488.15
710.34	23228.06
710.53	23189.15
710.72	23502.49
710.91	23211.68
711.10	23137.95
711.29	22630.05
711.48	23283.36
711.66	22939.30
711.85	22959.78
712.04	23146.14
712.23	23299.74
712.42	23049.89
712.61	22726.31
712.80	22927.01
712.98	22668.97
713.17	22843.04
713.36	23109.28
713.55	23086.75
713.74	22671.01
713.93	22736.55
714.11	22875.81
714.30	22902.43
714.49	22996.64
714.68	23000.74
714.87	22429.35
715.06	23504.54
715.24	22902.43
715.43	22757.03
715.62	22640.29
715.81	22761.12
716.00	22754.98
716.18	22861.48
716.37	22322.86
716.56	22308.52
716.75	22699.69
716.94	22623.91
717.12	22711.97
717.31	22861.48
717.50	21839.54
717.69	22337.20
717.88	22449.83
718.06	22611.62
718.25	22632.10
718.44	22050.48
718.63	22736.55
718.82	22236.84
719.00	22415.02
719.19	22677.16
719.38	22249.13
719.57	22288.04
719.76	22134.45
719.94	21860.02
720.13	22124.21
720.32	22316.72
720.51	21661.37
720.69	22199.98
720.88	22070.96
721.07	22087.34
721.26	22130.35
721.44	21716.66
721.63	22142.64
721.82	21657.27
722.01	22351.53
722.20	22070.96
722.38	21460.66
722.57	21442.23
722.76	22124.21
722.95	21868.21
723.13	21431.99
723.32	21378.75
723.51	21712.56
723.70	21728.95
723.88	21855.92
724.07	21585.59
724.26	22036.14
724.44	21317.31
724.63	21655.22
724.82	21776.05
725.01	21251.77
725.19	21397.18
725.38	21716.66
725.57	21431.99
725.76	21325.50
725.94	21616.31
726.13	21419.71
726.32	21149.37
726.51	21214.91
726.69	21798.58
726.88	21610.17
727.07	21780.15
727.25	21143.23
727.44	21223.10
727.63	21425.85
727.82	21305.02
728.00	21456.57
728.19	21452.47
728.38	21577.40
728.56	21219.00
728.75	21290.68
728.94	21452.47
729.12	21591.73
729.31	21427.90
729.50	21421.75
729.69	21694.13
729.87	21513.91
730.06	21214.91
730.25	21239.48
730.43	22095.53
730.62	21104.32
730.81	21227.20
730.99	21368.51
731.18	20911.81
731.37	21538.49
731.55	21274.30
731.74	21477.05
731.93	21253.82
732.11	21270.20
732.30	21571.25
732.49	21270.20
732.67	21106.37
732.86	20885.19
733.05	20776.64
733.23	21372.60
733.42	21081.79
733.61	21057.21
733.79	21419.71
733.98	21288.64
734.17	20909.76
734.35	20956.86
734.54	21610.17
734.73	21511.86
734.91	20860.61
735.10	21184.19
735.29	21014.21
735.47	21237.44
735.66	20989.63
735.84	21475.00
736.03	20743.88
736.22	21165.76
736.40	21012.16
736.59	21098.17
736.78	20993.73
736.96	21378.75
737.15	21120.70
737.33	20985.54
737.52	20750.02
737.71	20842.18
737.89	21075.65
738.08	20561.61
738.27	20698.82
738.45	21235.39
738.64	20913.86
738.82	20975.30
739.01	20600.52
739.20	20790.98
739.38	21061.31
739.57	21026.50
739.75	20903.62
739.94	20307.66
740.13	21085.89
740.31	20780.74
740.50	21053.12
740.68	20827.84
740.87	21085.89
741.06	20876.99
741.24	20879.04
741.43	20831.94
741.61	20504.26
741.80	20758.21
741.99	20778.69
742.17	20690.63
742.36	20557.51
742.54	20459.21
742.73	20741.83
742.91	20518.60
743.10	20483.78
743.29	20483.78
743.47	20422.34
743.66	20063.95
743.84	20575.94
744.03	20766.40
744.21	20477.64
744.40	20463.30
744.59	20186.83
744.77	20014.80
744.96	20285.13
745.14	20664.00
745.33	20553.41
745.51	20414.15
745.70	20436.68
745.88	20369.10
746.07	20283.08
746.26	20338.38
746.44	20412.10
746.63	20281.03
746.81	20727.49
747.00	20139.72
747.18	20375.24
747.37	19898.06
747.55	20371.15
747.74	20821.70
747.92	19979.98
748.11	20315.85
748.29	20305.61
748.48	20143.82
748.66	20313.80
748.85	20047.57
749.03	20127.44
749.22	19926.74
749.41	20307.66
749.59	20170.44
749.78	20074.19
749.96	19556.05
750.15	19836.63
750.33	20033.23
750.52	19887.82
750.70	20033.23
750.89	20016.85
751.07	19580.63
751.26	20092.62
751.44	19578.58
751.63	19889.87
751.81	19693.27
752.00	19603.16
752.18	19783.38
752.37	19871.44
752.55	19650.26
752.74	19828.43
752.92	19619.54
753.10	19627.73
753.29	19918.54
753.47	19615.44
753.66	19537.62
753.84	19822.29
754.03	19525.33
754.21	19283.67
754.40	19623.64
754.58	19863.25
754.77	19818.19
754.95	19781.33
755.14	19449.56
755.32	19623.64
755.51	19019.49
755.69	19617.49
755.88	19171.04
756.06	20041.42
756.24	19443.42
756.43	19533.53
756.61	19394.26
756.80	19345.11
756.98	19478.23
757.17	19459.80
757.35	19119.84
757.54	19635.92
757.72	19222.23
757.90	19011.29
758.09	19003.10
758.27	19173.08
758.46	19349.21
758.64	18953.95
758.83	19396.31
759.01	19341.02
759.19	19062.49
759.38	19179.23
759.56	19361.50
759.75	19162.84
759.93	19117.79
760.12	18925.28
760.30	19263.19
760.48	18900.70
760.67	19035.87
760.85	18956.00
761.04	19029.73
761.22	19205.85
761.40	18867.94
761.59	18908.90
761.77	18714.34
761.96	19068.64
762.14	19146.46
762.32	19205.85
762.51	19246.81
762.69	18845.41
762.88	19056.35
763.06	18820.83
763.24	19109.60
763.43	19295.96
763.61	18786.02
763.80	18550.50
763.98	18804.45
764.16	18677.48
764.35	18441.96
764.53	18243.31
764.72	18439.91
764.90	18687.71
765.08	18556.64
765.27	18597.60
765.45	18200.30
765.63	18652.90
765.82	18278.12
766.00	18435.81
766.18	18142.96
766.37	18519.78
766.55	18683.62
766.74	18212.59
766.92	18509.54
767.10	18177.77
767.29	18325.22
767.47	18345.70
767.65	18321.13
767.84	18613.99
768.02	18448.10
768.20	17862.38
768.39	18226.92
768.57	18421.48
768.75	17821.42
768.94	18314.98
769.12	17688.31
769.30	17784.56
769.49	18427.62
769.67	17929.97
769.85	17948.40
770.04	17815.28
770.22	17899.25
770.40	18079.47
770.59	17823.47
770.77	18108.14
770.95	17913.58
771.14	18020.08
771.32	17514.23
771.50	17430.26
771.69	17796.85
771.87	17712.88
772.05	17594.10
772.24	17706.74
772.42	17526.52
772.60	17547.00
772.78	18073.32
772.97	17508.08
773.15	17579.76
773.33	17659.63
773.52	17393.40
773.70	17479.41
773.88	17452.79
774.07	17313.53
774.25	17782.51
774.43	17762.03
774.61	17686.26
774.80	17377.01
774.98	17305.34
775.16	17626.87
775.34	17489.65
775.53	17520.37
775.71	17604.34
775.89	18024.17
776.08	17309.43
776.26	17616.63
776.44	17477.37
776.62	17405.69
776.81	17321.72
776.99	17749.75
777.17	17936.11
777.35	17657.59
777.54	17936.11
777.72	17725.17
777.90	17557.24
778.08	18073.32
778.27	17649.39
778.45	17725.17
778.63	17829.62
778.81	17549.04
779.00	17817.33
779.18	18061.04
779.36	18022.12
779.54	17954.54
779.73	17897.20
779.91	17878.77
780.09	17551.09
780.27	17755.89
780.46	17968.88
780.64	17852.14
780.82	17721.07
781.00	17649.39
781.19	17796.85
781.37	17753.84
781.55	18280.17
781.73	18241.26
781.91	17604.34
782.10	17895.15
782.28	18140.91
782.46	17966.83
782.64	18329.32
782.82	17913.58
783.01	18165.48
783.19	18284.26
783.37	18188.01
783.55	17952.49
783.74	18106.09
783.92	17536.76
784.10	18222.83
784.28	18173.67
784.46	17784.56
784.64	17639.15
784.83	17985.26
785.01	18046.70
785.19	18288.36
785.37	18538.21
785.55	18122.48
785.74	18220.78
785.92	17729.27
786.10	18173.67
786.28	17600.24
786.46	17913.58
786.64	17680.11
786.83	17747.70
787.01	17835.76
787.19	18034.41
787.37	18130.67
787.55	18118.38
787.74	17987.31
787.92	17751.79
788.10	17624.82
788.28	17770.22
788.46	17616.63
788.64	17534.71
788.82	18050.80
789.01	17839.86
789.19	17878.77
789.37	17575.67
789.55	17573.62
789.73	17557.24
789.91	17479.41
790.09	17448.69
790.28	17182.46
790.46	17407.73
790.64	17596.15
790.82	17073.92
791.00	17532.66
791.18	17075.96
791.36	17565.43
791.55	17383.16
791.73	17139.45
791.91	17268.47
792.09	16789.25
792.27	16809.73
792.45	17422.07
792.63	17669.87
792.81	16955.13
793.00	17227.51
793.18	17274.62
793.36	16875.26
793.54	16901.89
793.72	16875.26
793.90	16525.06
794.08	16842.50
794.26	17340.15
794.44	16439.05
794.62	16486.15
794.81	16965.37
794.99	16717.57
795.17	16692.99
795.35	16586.50
795.53	16514.82
795.71	16637.70
795.89	16400.13
796.07	16039.69
796.25	16365.32
796.43	16447.24
796.61	16224.01
796.80	15669.01
796.98	16590.59
797.16	16082.70
797.34	16115.47
797.52	15838.99
797.70	16017.16
797.88	16025.36
798.06	15902.48
798.24	16000.78
798.42	15820.56
798.60	16043.79
798.78	15691.54
798.96	15787.79
799.14	15859.47
799.32	16021.26
799.51	15585.04
799.69	15757.07
799.87	15531.80
800.05	15550.23
800.23	15519.51
800.41	15476.50
800.59	15423.25
800.77	15402.77
800.95	15273.75
801.13	15406.87
801.31	15273.75
801.49	15437.59
801.67	14935.84
801.85	15240.98
802.03	14950.17
802.21	14792.48
802.39	14964.51
802.57	15054.62
802.75	14976.80
802.93	15058.71
803.11	14749.47
803.29	14700.32
803.47	14935.84
803.65	15021.85
803.83	14704.42
804.01	14952.22
804.19	14622.50
804.37	14786.33
804.55	14788.38
804.73	14915.36
804.91	14589.73
805.09	15068.95
805.27	14509.86
805.45	14853.92
805.63	14661.41
805.81	14241.57
805.99	14446.37
806.17	14350.12
806.35	14380.84
806.53	13866.80
806.71	14481.19
806.89	14069.55
807.07	14161.70
807.25	14208.81
807.43	14288.68
807.61	14710.56
807.79	14456.61
807.97	14032.68
808.15	14202.66
808.33	14077.74
808.51	14348.07
808.69	14370.60
808.87	13795.12
809.05	14180.14
809.23	13655.86
809.41	13702.96
809.59	13397.81
809.77	13987.63
809.95	13893.42
810.13	13901.61
810.31	13715.25
810.49	13451.06
810.67	13483.83
810.84	13784.88
811.02	13666.10
811.20	13283.13
811.38	13754.16
811.56	12922.68
811.74	13526.83
811.92	13471.54
812.10	13363.00
812.28	13274.93
812.46	13160.25
812.64	13489.97
812.82	13045.56
813.00	12969.79
813.18	13008.70
813.36	13309.75
813.53	13315.89
813.71	13561.65
813.89	13195.06
814.07	13082.42
814.25	13395.76
814.43	12814.14
814.61	12789.56
814.79	12803.90
814.97	13117.24
815.15	13293.37
815.33	12638.02
815.50	12812.09
815.68	13029.18
815.86	13150.01
816.04	12803.90
816.22	12607.30
816.40	12816.19
816.58	12984.12
816.76	12703.55
816.94	12572.48
817.11	12615.49
817.29	12824.38
817.47	12703.55
817.65	12570.43
817.83	12861.24
818.01	12547.90
818.19	12347.20
818.37	12476.23
818.54	12396.35
818.72	12496.71
818.90	12574.53
819.08	12429.12
819.26	12533.57
819.44	12578.62
819.62	12513.09
819.80	12207.94
819.97	12185.41
820.15	11931.47
820.33	12017.48
820.51	12156.74
820.69	12218.18
820.87	12169.03
821.05	12136.26
821.22	12060.49
821.40	12191.56
821.58	12390.21
821.76	12062.54
821.94	11939.66
822.12	12068.68
822.29	11872.07
822.47	12101.45
822.65	12205.89
822.83	12080.97
823.01	11882.31
823.19	11734.86
823.36	11679.57
823.54	12205.89
823.72	12078.92
823.90	12134.21
824.08	11878.22
824.25	11706.19
824.43	11640.65
824.61	11712.33
824.79	11650.89
824.97	11435.86
825.15	11568.98
825.32	11738.96
825.50	11630.41
825.68	11489.10
825.86	11648.85
826.04	11667.28
826.21	11710.29
826.39	11827.02
826.57	11585.36
826.75	11720.53
826.93	11140.95
827.10	11487.06
827.28	11810.64
827.46	11841.36
827.64	11269.97
827.81	11751.24
827.99	11628.37
828.17	11081.56
828.35	11425.62
828.53	11237.20
828.70	11728.72
828.88	11181.91
829.06	11269.97
829.24	11362.13
829.41	11304.79
829.59	11401.04
829.77	11464.53
829.95	11349.84
830.12	10936.15
830.30	11175.77
830.48	11091.80
830.66	11028.31
830.84	11427.67
831.01	11296.60
831.19	10841.95
831.37	11247.44
831.55	10837.85
831.72	10858.33
831.90	11083.61
832.08	10921.82
832.25	10997.59
832.43	11034.46
832.61	11020.12
832.79	10872.67
832.96	10618.72
833.14	10989.40
833.32	11315.03
833.50	10938.20
833.67	10717.02
833.85	10946.39
834.03	10755.93
834.20	10940.25
834.38	11161.43
834.56	11030.36
834.74	10614.62
834.91	10895.19
835.09	10714.97
835.27	10596.19
835.44	10895.19
835.62	10065.77
835.80	10319.71
835.98	10092.39
836.15	10676.06
836.33	10561.37
836.51	10399.59
836.68	10782.56
836.86	10667.87
837.04	10676.06
837.21	10760.03
837.39	10434.40
837.57	10671.97
837.75	10325.86
837.92	10557.28
838.10	10424.16
838.28	10131.30
838.45	10381.15
838.63	10465.12
838.81	10327.91
838.98	10559.33
839.16	9985.90
839.34	10338.15
839.51	10465.12
839.69	10438.50
839.87	10174.31
840.04	10114.92
840.22	11630.41
840.40	10307.43
840.57	9979.75
840.75	10350.43
840.93	9955.18
841.10	10069.86
841.28	10088.29
841.46	10055.53
841.63	10323.81
841.81	10202.98
841.98	9987.94
842.16	10219.36
842.34	10059.62
842.51	9912.17
842.69	9682.80
842.87	10159.97
843.04	9914.22
843.22	9826.15
843.40	9617.26
843.57	9703.28
843.75	9842.54
843.92	9922.41
844.10	9895.78
844.28	9848.68
844.45	9768.81
844.63	9850.73
844.81	9883.50
844.98	9932.65
845.16	9975.66
845.33	10198.88
845.51	9963.37
845.69	9768.81
845.86	9934.70
846.04	9482.10
846.21	9496.43
846.39	9834.35
846.57	9561.97
846.74	9391.98
846.92	9953.13
847.09	9250.67
847.27	9463.66
847.45	9533.29
847.62	9572.21
847.80	9617.26
847.97	9725.80
848.15	9402.22
848.32	9826.15
848.50	9209.72
848.68	9596.78
848.85	9375.60
849.03	9523.05
849.20	9502.58
849.38	9326.45
849.56	9471.86
849.73	9295.73
849.91	9148.28
850.08	9611.12
850.26	9461.62
850.43	9357.17
850.61	9418.61
850.78	8892.28
850.96	9385.84
851.14	9138.04
851.31	9566.06
851.49	9426.80
851.66	9451.38
851.84	9072.50
852.01	9443.18
852.19	9189.24
852.36	9627.50
852.54	9062.26
852.71	9066.36
852.89	9275.25
853.07	9158.52
853.24	8974.20
853.42	9193.33
853.59	9475.95
853.77	9301.87
853.94	9623.41
854.12	9705.32
854.29	9070.45
854.47	8988.53
854.64	9195.38
854.82	8808.31
854.99	9248.63
855.17	9105.27
855.34	8859.51
855.52	9197.43
855.69	9211.76
855.87	9160.56
856.04	8673.15
856.22	9185.14
856.39	8578.94
856.57	9193.33
856.74	9103.22
856.92	9170.80
857.09	8933.24
857.27	8914.81
857.44	9033.59
857.62	8742.78
857.79	8888.18
857.97	8957.82
858.14	8869.75
858.32	8529.79
858.49	8759.16
858.67	9076.60
858.84	8693.63
859.02	9002.87
859.19	8580.99
859.37	8671.10
859.54	8413.06
859.72	8779.64
859.89	8617.85
860.06	8691.58
860.24	8834.94
860.41	8460.16
860.59	8400.77
860.76	8509.31
860.94	8296.32
861.11	8249.22
861.29	8798.07
861.46	8404.86
861.64	8460.16
861.81	8619.90
861.98	8318.85
862.16	8288.13
862.33	8075.14
862.51	8132.48
862.68	8531.84
862.86	8349.57
863.03	8394.62
863.21	8144.77
863.38	8548.22
863.55	8738.68
863.73	8445.82
863.90	8193.92
864.08	8413.06
864.25	8535.93
864.43	8292.23
864.60	8142.72
864.77	8437.63
864.95	8265.60
865.12	8134.53
865.30	8712.06
865.47	8531.84
865.64	8181.64
865.82	8249.22
865.99	8152.96
866.17	8310.66
866.34	8245.12
866.51	7919.50
866.69	8015.75
866.86	8712.06
867.04	8150.92
867.21	8234.88
867.38	7810.95
867.56	7659.40
867.73	8228.74
867.91	8019.85
868.08	8069.00
868.25	8085.38
868.43	8146.82
868.60	7841.67
868.78	7626.64
868.95	7763.85
869.12	8017.80
869.30	8021.89
869.47	8103.81
869.64	8019.85
869.82	7858.06
869.99	8038.28
870.16	7942.02
870.34	8060.80
870.51	8339.33
870.69	7649.16
870.86	7792.52
871.03	7970.69
871.21	7921.54
871.38	7966.60
871.55	7780.23
871.73	7702.41
871.90	7516.05
872.07	7626.64
872.25	7210.90
872.42	7446.41
872.59	7589.77
872.77	7335.82
872.94	7534.48
873.11	7602.06
873.29	7675.79
873.46	7663.50
873.63	7481.23
873.81	7290.77
873.98	7966.60
874.15	7364.50
874.33	7235.47
874.50	7208.85
874.67	7571.34
874.85	7397.26
875.02	7497.61
875.19	7364.50
875.37	7280.53
875.54	7262.10
875.71	7477.13
875.88	6934.42
876.06	7122.84
876.23	6975.38
876.40	7274.38
876.58	7376.78
876.75	7368.59
876.92	7077.78
877.10	7253.91
877.27	6979.48
877.44	6803.35
877.61	6889.37
877.79	7038.87
877.96	7032.72
878.13	7350.16
878.31	6870.94
878.48	7204.75
878.65	7116.69
878.82	7059.35
879.00	6844.31
879.17	6901.65
879.34	6854.55
879.51	6662.04
879.69	6440.86
879.86	6762.39
880.03	6612.89
880.21	6750.10
880.38	7204.75
880.55	6793.11
880.72	6868.89
880.90	6868.89
881.07	6766.49
881.24	7049.11
881.41	6774.68
881.59	7126.93
881.76	7018.39
881.93	6766.49
882.10	6639.51
882.28	6651.80
882.45	6707.10
882.62	6739.87
882.79	6922.13
882.96	6473.63
883.14	6823.83
883.31	6475.68
883.48	6559.64
883.65	6442.91
883.83	6758.30
884.00	6602.65
884.17	6776.73
884.34	7014.29
884.51	6590.36
884.69	6619.04
884.86	6471.58
885.03	6571.93
885.20	6182.82
885.38	7008.15
885.55	6221.73
885.72	6879.13
885.89	6500.25
886.06	6250.40
886.24	6471.58
886.41	6344.61
886.58	6739.87
886.75	6612.89
886.92	6444.96
887.10	6309.79
887.27	6326.18
887.44	6993.81
887.61	6545.31
887.78	6365.09
887.95	6317.98
888.13	6111.14
888.30	6025.12
888.47	6315.94
888.64	6072.23
888.81	6752.15
888.99	6006.69
889.16	6178.72
889.33	6180.77
889.50	6420.38
889.67	5939.11
889.84	6139.81
890.01	6113.19
890.19	6606.75
890.36	6242.21
890.53	6234.02
890.70	6021.03
890.87	6268.83
891.04	6256.54
891.22	6272.93
891.39	5805.99
891.56	5898.15
891.73	6215.59
891.90	5732.26
892.07	5492.65
892.24	6059.94
892.42	5896.10
892.59	5791.66
892.76	6344.61
892.93	5726.12
893.10	5932.97
893.27	5959.59
893.44	5943.21
893.61	5994.40
893.79	6240.16
893.96	5719.98
894.13	5939.11
894.30	5816.23
894.47	6016.93
894.64	6199.20
894.81	5697.45
894.98	6078.37
895.15	6195.11
895.33	6141.86
895.50	6137.76
895.67	5975.97
895.84	5875.62
896.01	5932.97
896.18	5345.20
896.35	6127.52
896.52	5941.16
896.69	5623.72
896.86	5785.51
897.04	6172.58
897.21	5871.53
897.38	5834.66
897.55	5875.62
897.72	5715.88
897.89	5826.47
898.06	6297.50
898.23	5881.77
898.40	5787.56
898.57	5588.91
898.74	5658.54
898.91	5865.38
899.08	5859.24
899.26	6072.23
899.43	6074.28
899.60	5486.51
899.77	6121.38
899.94	5742.50
900.11	5552.04
900.28	5631.91
900.45	6049.70
900.62	5642.15
900.79	5722.02
900.96	5885.86
901.13	5984.16
901.30	5289.90
901.47	5423.02
901.64	5586.86
901.81	5728.17
901.98	5443.50
902.15	5967.78
902.32	5574.57
902.49	5701.54
902.66	5777.32
902.83	5892.01
903.01	5830.57
903.18	5562.28
903.35	5320.62
903.52	5615.53
903.69	5568.43
903.86	5810.09
904.03	5752.74
904.20	5924.77
904.37	5593.00
904.54	5550.00
904.71	5691.31
904.88	5687.21
905.05	5271.47
905.22	5836.71
905.39	5605.29
905.56	5697.45
905.73	5681.07
905.90	5822.38
906.07	5570.48
906.24	5523.37
906.41	5730.22
906.58	6039.46
906.75	5681.07
906.92	5910.44
907.09	5511.08
907.26	5889.96
907.43	5709.74
907.60	5595.05
907.77	5842.85
907.93	5439.40
908.10	5623.72
908.27	5666.73
908.44	5687.21
908.61	5474.22
908.78	5593.00
908.95	6047.65
909.12	5613.48
909.29	5672.87
909.46	5357.49
909.63	5885.86
909.80	5871.53
909.97	5590.95
910.14	5879.72
910.31	5554.09
910.48	5593.00
910.65	5498.80
910.82	5715.88
910.99	5601.19
911.16	5971.88
911.33	5820.33
911.50	5443.50
911.66	5267.38
911.83	5509.04
912.00	5560.24
912.17	5423.02
912.34	5232.56
912.51	5445.55
912.68	5062.58
912.85	5984.16
913.02	5705.64
913.19	5275.57
913.36	5416.88
913.53	5531.56
913.70	4962.23
913.86	5853.09
914.03	5334.96
914.20	5486.51
914.37	5521.32
914.54	5492.65
914.71	5250.99
914.88	5502.89
915.05	5255.09
915.22	5224.37
915.39	5468.08
915.55	5365.68
915.72	5390.25
915.89	5033.91
916.06	5418.93
916.23	5363.63
916.40	5294.00
916.57	4997.04
916.74	5152.69
916.91	5144.50
917.07	4698.04
917.24	5011.38
917.41	5214.13
917.58	5228.46
917.75	4822.97
917.92	4911.03
918.09	5134.26
918.26	5148.59
918.42	5130.16
918.59	5185.46
918.76	4988.85
918.93	4616.12
919.10	4870.07
919.27	4956.08
919.44	5226.42
919.60	5101.49
919.77	4800.44
919.94	4739.00
920.11	5146.55
920.28	5046.20
920.45	5005.24
920.61	4773.82
920.78	4663.22
920.95	5066.67
921.12	4771.77
921.29	4759.48
921.46	4476.86
921.62	4407.23
921.79	4546.49
921.96	4669.37
922.13	4736.95
922.30	4440.00
922.47	4509.63
922.63	4401.08
922.80	4415.42
922.97	4345.79
923.14	4136.90
923.31	4200.38
923.47	4419.52
923.64	4767.67
923.81	4687.80
923.98	4054.98
924.15	4571.07
924.32	4263.87
924.48	4288.45
924.65	4661.18
924.82	4057.03
924.99	4116.42
925.15	3850.18
925.32	4464.57
925.49	4224.96
925.66	4779.96
925.83	4054.98
925.99	4030.40
926.16	4507.58
926.33	4169.66
926.50	3606.47
926.67	3919.81
926.83	3932.10
927.00	4220.86
927.17	4040.64
927.34	3753.93
927.50	3866.56
927.67	4054.98
927.84	4083.65
928.01	4188.10
928.17	3770.31
928.34	3778.50
928.51	3876.80
928.68	3870.66
928.84	3803.08
929.01	3696.58
929.18	3659.72
929.35	3553.23
929.51	3686.34
929.68	3454.92
929.85	3571.66
930.02	3698.63
930.18	3747.78
930.35	3682.25
930.52	3581.90
930.69	3538.89
930.85	3680.20
931.02	3524.55
931.19	3559.37
931.36	3608.52
931.52	3403.72
931.69	3766.21
931.86	3829.70
932.02	3477.45
932.19	3143.63
932.36	3708.87
932.53	3436.49
932.69	3321.81
932.86	3344.33
933.03	3557.32
933.19	3241.93
933.36	3200.98
933.53	3151.82
933.70	3641.29
933.86	3198.93
934.03	3248.08
934.20	2985.94
934.36	3340.24
934.53	2815.96
934.70	2899.92
934.86	3229.65
935.03	2959.31
935.20	3243.98
935.36	3188.69
935.53	2947.03
935.70	2848.72
935.86	2949.08
936.03	2717.65
936.20	2555.86
936.36	2592.73
936.53	2762.71
936.70	2899.92
936.86	3014.61
937.03	2914.26
937.20	2705.37
937.36	2998.23
937.53	2256.86
937.70	2598.87
937.86	2467.80
938.03	2486.23
938.20	3131.34
938.36	2584.54
938.53	2519.00
938.70	2267.10
938.86	2539.48
939.03	2285.53
939.20	2310.11
939.36	2224.09
939.53	2299.87
939.70	2432.99
939.86	2340.83
940.03	2328.54
940.19	2273.25
940.36	2371.55
940.53	2344.92
940.69	1996.77
940.86	2277.34
941.03	2238.43
941.19	2084.83
941.36	2097.12
941.52	2105.31
941.69	2029.54
941.86	2330.59
942.02	2381.79
942.19	2060.26
942.35	1943.52
942.52	2101.22
942.69	2109.41
942.85	1875.94
943.02	2023.39
943.18	2017.25
943.35	2072.54
943.52	1937.38
943.68	1945.57
943.85	2009.06
944.01	2174.94
944.18	1908.71
944.35	2123.74
944.51	1937.38
944.68	1918.95
944.84	1839.08
945.01	1968.10
945.17	2068.45
945.34	2117.60
945.51	2002.91
945.67	2031.58
945.84	1857.51
946.00	1781.73
946.17	1978.34
946.33	1873.89
946.50	1984.48
946.67	1943.52
946.83	1849.32
947.00	2029.54
947.16	1908.71
947.33	1832.93
947.49	1937.38
947.66	1787.88
947.82	1861.60
947.99	1689.57
948.16	2095.07
948.32	1925.09
948.49	1933.28
948.65	2113.50
948.82	1890.28
948.98	1851.36
949.15	1763.30
949.31	1798.12
949.48	1916.90
949.64	1834.98
949.81	1908.71
949.97	1863.65
950.14	1992.67
950.30	1841.12
950.47	2043.87
950.63	1791.97
950.80	1820.64
950.96	1900.52
951.13	1972.19
951.30	1953.76
951.46	1832.93
951.63	1970.15
951.79	1933.28
951.96	2138.08
952.12	1955.81
952.29	2056.16
952.45	1744.87
952.62	1910.75
952.78	1900.52
952.94	1900.52
953.11	1882.08
953.27	1755.11
953.44	2052.06
953.60	2009.06
953.77	2054.11
953.93	1908.71
954.10	1884.13
954.26	1871.84
954.43	1822.69
954.59	2107.36
954.76	2097.12
954.92	1953.76
955.09	1968.10
955.25	1871.84
955.42	1961.95
955.58	2189.28
955.75	1980.39
955.91	1757.16
956.07	1910.75
956.24	2045.92
956.40	1929.19
956.57	1984.48
956.73	1886.18
956.90	1974.24
957.06	1955.81
957.23	1845.22
957.39	1828.84
957.56	2002.91
957.72	1904.61
957.88	1798.12
958.05	1943.52
958.21	2017.25
958.38	1978.34
958.54	1873.89
958.71	2052.06
958.87	1843.17
959.03	1806.31
959.20	1882.08
959.36	1748.97
959.53	1933.28
959.69	1867.75
959.85	2076.64
960.02	1929.19
960.18	1822.69
960.35	1929.19
960.51	1972.19
960.68	1931.23
960.84	1959.91
961.00	1923.04
961.17	1906.66
961.33	1841.12
961.50	1941.47
961.66	1941.47
961.82	1863.65
961.99	1884.13
962.15	1890.28
962.31	1896.42
962.48	1902.56
962.64	1959.91
962.81	1929.19
962.97	1812.45
963.13	2041.82
963.30	1908.71
963.46	1888.23
963.62	1681.38
963.79	1816.55
963.95	1820.64
964.12	1898.47
964.28	2023.39
964.44	1806.31
964.61	2017.25
964.77	1914.85
964.93	2072.54
965.10	1802.21
965.26	1902.56
965.42	1791.97
965.59	1771.49
965.75	1904.61
965.92	1925.09
966.08	1941.47
966.24	1947.62
966.41	1947.62
966.57	1896.42
966.73	1974.24
966.90	1912.80
967.06	2017.25
967.22	1853.41
967.39	1822.69
967.55	1867.75
967.71	1820.64
967.88	1847.27
968.04	1918.95
968.20	1806.31
968.37	1959.91
968.53	1785.83
968.69	1841.12
968.85	2027.49
969.02	1865.70
969.18	1945.57
969.34	1812.45
969.51	1951.71
969.67	1910.75
969.83	1675.24
970.00	2107.36
970.16	1929.19
970.32	1949.67
970.48	2109.41
970.65	1834.98
970.81	1826.79
970.97	1961.95
971.14	1699.81
971.30	1955.81
971.46	1757.16
971.63	2027.49
971.79	1959.91
971.95	1959.91
972.11	1724.39
972.28	1910.75
972.44	1929.19
972.60	1765.35
972.76	1771.49
972.93	1814.50
973.09	1970.15
973.25	1839.08
973.42	1789.92
973.58	2062.30
973.74	1918.95
973.90	1904.61
974.07	1796.07
974.23	1929.19
974.39	1869.80
974.55	1830.88
974.72	1830.88
974.88	1679.33
975.04	1875.94
975.20	1900.52
975.37	1859.56
975.53	1853.41
975.69	1972.19
975.85	1810.40
976.01	1796.07
976.18	1806.31
976.34	1751.01
976.50	1894.37
976.66	1943.52
976.83	1849.32
976.99	1775.59
977.15	1851.36
977.31	1712.10
977.47	1859.56
977.64	1843.17
977.80	1871.84
977.96	1798.12
978.12	1802.21
978.29	1785.83
978.45	1789.92
978.61	1824.74
978.77	1781.73
978.93	1804.26
979.10	1781.73
979.26	1761.25
979.42	1898.47
979.58	1656.81
979.74	1806.31
979.91	1765.35
980.07	1771.49
980.23	1703.91
980.39	1665.00
980.55	1712.10
980.71	1769.44
980.88	1761.25
981.04	1777.64
981.20	1781.73
981.36	1810.40
981.52	1789.92
981.68	1632.23
981.85	2011.11
982.01	1667.05
982.17	1687.53
982.33	1667.05
982.49	1857.51
982.65	1798.12
982.82	1767.40
982.98	1798.12
983.14	1681.38
983.30	1794.02
983.46	1779.68
983.62	1814.50
983.79	1716.20
983.95	1640.42
984.11	1687.53
984.27	1783.78
984.43	1691.62
984.59	1820.64
984.75	1814.50
984.91	1783.78
985.08	1826.79
985.24	1656.81
985.40	1634.28
985.56	1744.87
985.72	1841.12
985.88	1812.45
986.04	1740.77
986.20	1683.43
986.37	1789.92
986.53	1615.85
986.69	1783.78
986.85	1761.25
987.01	1701.86
987.17	1755.11
987.33	1654.76
987.49	1667.05
987.65	1683.43
987.82	1771.49
987.98	1740.77
988.14	1830.88
988.30	1753.06
988.46	1679.33
988.62	1699.81
988.78	1656.81
988.94	1773.54
989.10	1736.68
989.26	1615.85
989.42	1626.09
989.59	1710.05
989.75	1734.63
989.91	1789.92
990.07	1677.29
990.23	1757.16
990.39	1761.25
990.55	1763.30
990.71	1662.95
990.87	1789.92
991.03	1789.92
991.19	1640.42
991.35	1746.92
991.51	1769.44
991.67	1796.07
991.83	1722.34
992.00	1667.05
992.16	1712.10
992.32	1716.20
992.48	1773.54
992.64	1615.85
992.80	1718.25
992.96	1662.95
993.12	1708.01
993.28	1728.49
993.44	1652.71
993.60	1638.38
993.76	1638.38
993.92	1705.96
994.08	1732.58
994.24	1685.48
994.40	1689.57
994.56	1789.92
994.72	1638.38
994.88	1687.53
995.04	1718.25
995.20	1714.15
995.36	1624.04
995.52	1781.73
995.68	1701.86
995.84	1603.56
996.00	1777.64
996.16	1624.04
996.32	1636.33
996.48	1642.47
996.64	1789.92
996.80	1617.90
996.96	1679.33
997.12	1652.71
997.28	1621.99
997.44	1605.61
997.60	1675.24
997.76	1636.33
997.92	1703.91
998.08	1732.58
998.24	1632.23
998.40	1581.03
998.56	1730.53
998.72	1613.80
998.88	1695.72
999.04	1654.76
999.20	1798.12
999.36	1638.38
999.52	1810.40
999.68	1757.16
999.84	1648.61
1000.00	1679.33
1000.16	1806.31
1000.32	1644.52
1000.48	1808.36
1000.64	1591.27
1000.80	1540.07
1000.95	1568.74
1001.11	1683.43
1001.27	1691.62
1001.43	1671.14
1001.59	1562.60
1001.75	1531.88
1001.91	1693.67
1002.07	1624.04
1002.23	1607.66
1002.39	1560.55
1002.55	1644.52
1002.71	1636.33
1002.87	1667.05
1003.03	1615.85
1003.19	1607.66
1003.34	1705.96
1003.50	1640.42
1003.66	1781.73
1003.82	1581.03
1003.98	1724.39
1004.14	1757.16
1004.30	1640.42
1004.46	1648.61
1004.62	1660.90
1004.78	1560.55
1004.94	1628.14
1005.09	1744.87
1005.25	1755.11
1005.41	1699.81
1005.57	1581.03
1005.73	1652.71
1005.89	1589.22
1006.05	1648.61
1006.21	1660.90
1006.37	1632.23
1006.52	1615.85
1006.68	1581.03
1006.84	1753.06
1007.00	1621.99
1007.16	1683.43
1007.32	1630.18
1007.48	1613.80
1007.64	1642.47
1007.79	1640.42
1007.95	1589.22
1008.11	1609.70
1008.27	1665.00
1008.43	1675.24
1008.59	1652.71
1008.75	1671.14
1008.91	1607.66
1009.06	1689.57
1009.22	1679.33
1009.38	1597.42
1009.54	1738.73
1009.70	1544.17
1009.86	1710.05
1010.01	1671.14
1010.17	1630.18
1010.33	1685.48
1010.49	1568.74
1010.65	1720.29
1010.81	1654.76
1010.96	1665.00
1011.12	1591.27
1011.28	1613.80
1011.44	1693.67
1011.60	1640.42
1011.76	1632.23
1011.91	1712.10
1012.07	1630.18
1012.23	1585.13
1012.39	1544.17
1012.55	1634.28
1012.71	1662.95
1012.86	1675.24
1013.02	1601.51
1013.18	1675.24
1013.34	1669.09
1013.50	1722.34
1013.65	1667.05
1013.81	1568.74
1013.97	1568.74
1014.13	1626.09
1014.29	1591.27
1014.44	1665.00
1014.60	1570.79
1014.76	1591.27
1014.92	1617.90
1015.07	1617.90
1015.23	1703.91
1015.39	1634.28
1015.55	1626.09
1015.71	1593.32
1015.86	1568.74
1016.02	1626.09
1016.18	1593.32
1016.34	1642.47
1016.49	1621.99
1016.65	1650.66
1016.81	1665.00
1016.97	1589.22
1017.12	1681.38
1017.28	1626.09
1017.44	1566.70
1017.60	1615.85
1017.75	1675.24
1017.91	1683.43
1018.07	1595.37
1018.23	1615.85
1018.38	1542.12
1018.54	1669.09
1018.70	1691.62
1018.86	1638.38
1019.01	1597.42
1019.17	1630.18
1019.33	1761.25
1019.49	1675.24
1019.64	1636.33
1019.80	1679.33
1019.96	1691.62
1020.12	1640.42
1020.27	1568.74
1020.43	1605.61
1020.59	1638.38
1020.74	1638.38
1020.90	1701.86
1021.06	1587.18
1021.22	1542.12
1021.37	1654.76
1021.53	1503.21
1021.69	1669.09
1021.84	1605.61
1022.00	1626.09
1022.16	1652.71
1022.31	1597.42
1022.47	1640.42
1022.63	1689.57
1022.79	1529.83
1022.94	1597.42
1023.10	1746.92
1023.26	1583.08
1023.41	1624.04
1023.57	1652.71
1023.73	1660.90
1023.88	1576.94
1024.04	1531.88
1024.20	1593.32
1024.35	1673.19
1024.51	1669.09
1024.67	1607.66
1024.82	1667.05
1024.98	1621.99
1025.14	1642.47
1025.29	1578.98
1025.45	1699.81
1025.61	1650.66
1025.76	1673.19
1025.92	1558.50
1026.08	1671.14
1026.23	1640.42
1026.39	1658.85
1026.55	1632.23
1026.70	1601.51
1026.86	1617.90
1027.02	1714.15
1027.17	1656.81
1027.33	1621.99
1027.48	1556.46
1027.64	1611.75
1027.80	1576.94
1027.95	1800.16
1028.11	1554.41
1028.27	1568.74
1028.42	1693.67
1028.58	1683.43
1028.73	1644.52
1028.89	1544.17
1029.05	1703.91
1029.20	1673.19
>>>>>End Processed Spectral Data<<<<<
