SpectraSuite Data File
++++++++++++++++++++++++++++++++++++
Date: Fri Jun 02 14:47:53 CEST 2017
User: INFO_000
Dark Spectrum Present: No
Reference Spectrum Present: No
Number of Sampled Component Spectra: 1
Spectrometers: USB4H00879
Integration Time (usec): 80000 (USB4H00879)
Spectra Averaged: 1 (USB4H00879)
Boxcar Smoothing: 0 (USB4H00879)
Correct for Electrical Dark: No (USB4H00879)
Strobe/Lamp Enabled: No (USB4H00879)
Correct for Detector Non-linearity: No (USB4H00879)
Correct for Stray Light: No (USB4H00879)
Number of Pixels in Processed Spectrum: 3648
>>>>>Begin Processed Spectral Data<<<<<
345.13	1243.12
345.34	1243.12
345.56	1243.12
345.78	1241.07
345.99	1239.02
346.21	1648.61
346.42	1691.62
346.64	1583.08
346.86	1775.59
347.07	1710.05
347.29	1771.49
347.50	1626.09
347.72	1626.09
347.94	1695.72
348.15	1560.55
348.37	1613.80
348.59	1697.77
348.80	1675.24
349.02	1591.27
349.23	1744.87
349.45	1683.43
349.67	1763.30
349.88	1718.25
350.10	1865.70
350.31	1746.92
350.53	1761.25
350.75	1847.27
350.96	1697.77
351.18	1830.88
351.39	1728.49
351.61	1628.14
351.82	1769.44
352.04	1822.69
352.26	1708.01
352.47	1806.31
352.69	1738.73
352.90	1658.85
353.12	1667.05
353.34	1796.07
353.55	1773.54
353.77	1751.01
353.98	1748.97
354.20	1681.38
354.41	1720.29
354.63	1857.51
354.85	1855.46
355.06	1759.21
355.28	1611.75
355.49	1726.44
355.71	1800.16
355.92	1748.97
356.14	1869.80
356.35	1710.05
356.57	1675.24
356.79	1863.65
357.00	1761.25
357.22	1896.42
357.43	1703.91
357.65	1794.02
357.86	1708.01
358.08	1732.58
358.29	1791.97
358.51	1810.40
358.72	1798.12
358.94	1769.44
359.16	1685.48
359.37	1761.25
359.59	1824.74
359.80	1832.93
360.02	1736.68
360.23	1859.56
360.45	1923.04
360.66	1806.31
360.88	1626.09
361.09	1710.05
361.31	1781.73
361.52	1753.06
361.74	1871.84
361.95	1851.36
362.17	1738.73
362.38	1847.27
362.60	1880.04
362.81	1775.59
363.03	1738.73
363.24	1777.64
363.46	1826.79
363.67	1830.88
363.89	1757.16
364.10	1802.21
364.32	1740.77
364.53	1769.44
364.75	1710.05
364.96	1873.89
365.18	1906.66
365.39	1820.64
365.61	1730.53
365.82	1894.37
366.04	1800.16
366.25	1693.67
366.47	1853.41
366.68	1777.64
366.90	1796.07
367.11	1806.31
367.33	1847.27
367.54	1888.23
367.76	1734.63
367.97	1964.00
368.19	1771.49
368.40	1839.08
368.62	1818.60
368.83	1742.82
369.05	1810.40
369.26	1775.59
369.48	1802.21
369.69	1753.06
369.91	1843.17
370.12	1812.45
370.33	1957.86
370.55	1777.64
370.76	1759.21
370.98	1916.90
371.19	1804.26
371.41	1806.31
371.62	1859.56
371.84	1732.58
372.05	1961.95
372.27	1771.49
372.48	1863.65
372.69	1810.40
372.91	1945.57
373.12	1855.46
373.34	1736.68
373.55	1845.22
373.77	1826.79
373.98	1828.84
374.20	2029.54
374.41	2011.11
374.62	1863.65
374.84	1900.52
375.05	1880.04
375.27	1920.99
375.48	1845.22
375.70	1904.61
375.91	1863.65
376.12	2072.54
376.34	1888.23
376.55	1781.73
376.77	1941.47
376.98	1777.64
377.19	1808.36
377.41	1814.50
377.62	2004.96
377.84	2029.54
378.05	2105.31
378.27	1968.10
378.48	1976.29
378.69	2035.68
378.91	2021.35
379.12	1957.86
379.34	1964.00
379.55	1978.34
379.76	1970.15
379.98	1882.08
380.19	1990.63
380.41	2082.78
380.62	1976.29
380.83	1902.56
381.05	1945.57
381.26	2119.65
381.47	1916.90
381.69	1994.72
381.90	2152.42
382.12	1943.52
382.33	1925.09
382.54	2009.06
382.76	1964.00
382.97	2080.74
383.19	1880.04
383.40	2152.42
383.61	2002.91
383.83	2017.25
384.04	2086.88
384.25	2002.91
384.47	2129.89
384.68	1923.04
384.89	1943.52
385.11	2125.79
385.32	1996.77
385.54	2103.26
385.75	2068.45
385.96	2152.42
386.18	2074.59
386.39	2060.26
386.60	2097.12
386.82	2117.60
387.03	2099.17
387.24	2191.33
387.46	2101.22
387.67	2172.89
387.88	2303.96
388.10	2099.17
388.31	2185.18
388.52	2314.20
388.74	2228.19
388.95	2248.67
389.16	2131.94
389.38	2152.42
389.59	2170.85
389.80	2297.82
390.02	2263.01
390.23	2400.22
390.44	2164.70
390.66	2203.61
390.87	2115.55
391.08	2361.31
391.30	2443.23
391.51	2428.89
391.72	2439.13
391.94	2418.65
392.15	2379.74
392.36	2310.11
392.58	2375.64
392.79	2461.66
393.00	2469.85
393.22	2400.22
393.43	2557.91
393.64	2514.91
393.85	2478.04
394.07	2394.08
394.28	2490.33
394.49	2467.80
394.71	2559.96
394.92	2658.26
395.13	2387.93
395.35	2404.32
395.56	2349.02
395.77	2559.96
395.98	2566.10
396.20	2600.92
396.41	2619.35
396.62	2785.24
396.84	2566.10
397.05	2461.66
397.26	2598.87
397.47	2770.90
397.69	2592.73
397.90	2719.70
398.11	2789.33
398.32	2729.94
398.54	2656.22
398.75	2674.65
398.96	2861.01
399.18	2793.43
399.39	2815.96
399.60	2899.92
399.81	2709.46
400.03	2824.15
400.24	3123.15
400.45	2850.77
400.66	2879.44
400.88	2775.00
401.09	2975.70
401.30	2799.57
401.51	2912.21
401.73	2889.68
401.94	2971.60
402.15	2963.41
402.36	2979.79
402.58	2985.94
402.79	3030.99
403.00	3104.72
403.21	2994.13
403.43	3108.82
403.64	3219.41
403.85	3016.66
404.06	3209.17
404.27	2959.31
404.49	3190.74
404.70	3006.42
404.91	3223.50
405.12	3180.50
405.34	3135.44
405.55	3203.02
405.76	2998.23
405.97	3205.07
406.19	3336.14
406.40	3049.43
406.61	3266.51
406.82	3174.35
407.03	3217.36
407.25	3194.83
407.46	3393.48
407.67	3342.28
407.88	3375.05
408.09	3303.37
408.31	3317.71
408.52	3393.48
408.73	3325.90
408.94	3227.60
409.15	3276.75
409.37	3379.15
409.58	3391.44
409.79	3485.64
410.00	3440.59
410.21	3323.85
410.43	3360.72
410.64	3235.79
410.85	3373.00
411.06	3389.39
411.27	3387.34
411.48	3508.17
411.70	3485.64
411.91	3436.49
412.12	3547.08
412.33	3571.66
412.54	3481.55
412.76	3674.06
412.97	3598.28
413.18	3446.73
413.39	3538.89
413.60	3641.29
413.81	3624.90
414.03	3635.14
414.24	3518.41
414.45	3815.37
414.66	3491.79
414.87	3643.34
415.08	3600.33
415.30	3710.92
415.51	3592.14
415.72	3655.62
415.93	3629.00
416.14	3571.66
416.35	3753.93
416.56	3844.04
416.78	3784.65
416.99	3755.97
417.20	3903.43
417.41	3897.28
417.62	3841.99
417.83	3860.42
418.04	3708.87
418.26	3925.96
418.47	3809.22
418.68	3997.64
418.89	3905.48
419.10	4014.02
419.31	3919.81
419.52	4036.55
419.73	3917.76
419.95	4067.27
420.16	3928.00
420.37	3989.44
420.58	3987.40
420.79	3827.65
421.00	4024.26
421.21	4116.42
421.42	3973.06
421.63	4087.75
421.85	4026.31
422.06	4259.78
422.27	4222.91
422.48	4179.90
422.69	4034.50
422.90	4245.44
423.11	4302.78
423.32	4300.73
423.53	4442.04
423.75	4149.18
423.96	4433.85
424.17	4288.45
424.38	4394.94
424.59	4358.08
424.80	4515.77
425.01	4399.04
425.22	4396.99
425.43	4308.93
425.64	4624.31
425.85	4562.87
426.06	4538.30
426.28	4573.11
426.49	4458.43
426.70	4483.00
426.91	4468.67
427.12	4636.60
427.33	4644.79
427.54	4624.31
427.75	4816.82
427.96	4845.49
428.17	4691.90
428.38	4812.73
428.59	4827.06
428.80	4720.57
429.01	4732.86
429.23	4665.27
429.44	4919.22
429.65	5001.14
429.86	4911.03
430.07	4806.58
430.28	4845.49
430.49	4921.27
430.70	5085.11
430.91	5050.29
431.12	4990.90
431.33	5130.16
431.54	4968.37
431.75	5154.74
431.96	5142.45
432.17	5136.31
432.38	5001.14
432.59	5386.16
432.80	5214.13
433.01	5353.39
433.22	5261.23
433.43	5207.98
433.64	5236.66
433.85	5181.36
434.06	5365.68
434.27	5214.13
434.49	5308.34
434.70	5470.12
434.91	5390.25
435.12	5472.17
435.33	5394.35
435.54	5455.79
435.75	5330.86
435.96	5410.73
436.17	5275.57
436.38	5435.31
436.59	5519.28
436.80	5648.30
437.01	5717.93
437.22	5722.02
437.43	5578.67
437.64	5418.93
437.85	5736.36
438.06	5654.44
438.27	5582.76
438.48	5683.11
438.69	5851.05
438.90	5646.25
439.11	5773.22
439.32	5849.00
439.53	5715.88
439.74	5892.01
439.95	5783.46
440.16	5894.05
440.37	5828.52
440.57	5773.22
440.78	6018.98
440.99	6000.55
441.20	5988.26
441.41	5853.09
441.62	5959.59
441.83	5945.25
442.04	6064.04
442.25	6080.42
442.46	5941.16
442.67	6195.11
442.88	6399.90
443.09	6141.86
443.30	6129.57
443.51	6201.25
443.72	6426.53
443.93	6021.03
444.14	6442.91
444.35	6121.38
444.56	6283.17
444.77	6348.70
444.98	6240.16
445.19	6477.73
445.40	6350.75
445.61	6287.26
445.81	6453.15
446.02	6524.83
446.23	6463.39
446.44	6221.73
446.65	6461.34
446.86	6406.05
447.07	6705.05
447.28	6629.27
447.49	6762.39
447.70	6440.86
447.91	6508.44
448.12	6541.21
448.33	6881.18
448.54	6610.84
448.74	6678.43
448.95	6598.56
449.16	6647.71
449.37	6950.81
449.58	6705.05
449.79	6987.67
450.00	6680.47
450.21	6817.69
450.42	7085.97
450.63	6905.75
450.84	6944.66
451.05	7077.78
451.25	7042.96
451.46	6891.41
451.67	7141.27
451.88	7221.14
452.09	7018.39
452.30	7040.92
452.51	7079.83
452.72	7266.19
452.93	7417.74
453.13	7126.93
453.34	7120.79
453.55	7339.92
453.76	7178.13
453.97	7514.00
454.18	7395.22
454.39	7589.77
454.60	7507.85
454.81	7415.69
455.01	7636.88
455.22	7432.08
455.43	7610.25
455.64	7706.51
455.85	7542.67
456.06	7884.68
456.27	7679.88
456.48	7819.14
456.68	7794.57
456.89	7804.81
457.10	7858.06
457.31	7913.35
457.52	7987.08
457.73	8097.67
457.94	8234.88
458.14	7911.30
458.35	8355.71
458.56	8286.08
458.77	8140.68
458.98	8177.54
459.19	8152.96
459.39	8298.37
459.60	8277.89
459.81	8288.13
460.02	8437.63
460.23	8566.65
460.44	8632.19
460.65	8662.91
460.85	8564.61
461.06	8671.10
461.27	8437.63
461.48	8859.51
461.69	8853.37
461.89	8636.28
462.10	8943.48
462.31	8640.38
462.52	8863.61
462.73	9002.87
462.94	9099.13
463.14	8947.58
463.35	9013.11
463.56	9617.26
463.77	9293.68
463.98	9150.32
464.18	9230.20
464.39	9506.67
464.60	9355.12
464.81	9570.16
465.02	9467.76
465.23	9738.09
465.43	9568.11
465.64	9979.75
465.85	9672.56
466.06	9574.25
466.27	9838.44
466.47	9951.08
466.68	9936.74
466.89	9924.46
467.10	10151.78
467.30	9908.07
467.51	10102.63
467.72	10317.67
467.93	10061.67
468.14	10088.29
468.34	10401.63
468.55	10366.82
468.76	10456.93
468.97	10325.86
469.17	10686.30
469.38	10733.40
469.59	10786.65
469.80	10757.98
470.01	10637.15
470.21	10710.88
470.42	11044.70
470.63	10932.06
470.84	10833.75
471.04	11202.39
471.25	11106.13
471.46	11304.79
471.67	11628.37
471.87	11319.12
472.08	11507.54
472.29	11591.50
472.50	11339.60
472.70	11528.02
472.91	11581.26
473.12	11794.25
473.33	11861.84
473.53	11992.90
473.74	11714.38
473.95	12189.51
474.16	12222.28
474.36	12179.27
474.57	12451.65
474.78	12332.87
474.99	12486.47
475.19	12472.13
475.40	12748.61
475.61	12879.68
475.81	13086.52
476.02	12924.73
476.23	12826.43
476.44	13113.14
476.64	13387.57
476.85	13317.94
477.06	13496.11
477.27	13578.03
477.47	13715.25
477.68	13625.14
477.89	13700.91
478.09	13918.00
478.30	13991.72
478.51	13883.18
478.71	14126.89
478.92	14333.73
479.13	14149.42
479.34	14616.35
479.54	14602.02
479.75	14475.04
479.96	14819.10
480.16	14720.80
480.37	14495.52
480.58	14980.89
480.78	15054.62
480.99	14868.25
481.20	15281.94
481.41	15220.50
481.61	15306.52
481.82	15662.86
482.03	15296.28
482.23	15601.43
482.44	15626.00
482.65	15847.18
482.85	16158.47
483.06	15777.55
483.27	15925.00
483.47	16070.41
483.68	16207.62
483.89	16252.68
484.09	16129.80
484.30	16355.08
484.51	16715.52
484.71	16846.59
484.92	16504.58
485.13	16944.89
485.33	16971.52
485.54	16785.15
485.75	17018.62
485.95	17346.30
486.16	17194.75
486.37	17602.29
486.57	17573.62
486.78	17565.43
486.98	17667.83
487.19	17663.73
487.40	17970.93
487.60	17942.25
487.81	18200.30
488.02	17864.43
488.22	18042.60
488.43	18343.66
488.64	18202.35
488.84	18448.10
489.05	18652.90
489.25	18618.08
489.46	18628.32
489.67	18751.20
489.87	18806.50
490.08	18939.62
490.29	18976.48
490.49	19281.63
490.70	19457.75
490.90	19248.86
491.11	19234.52
491.32	19523.29
491.52	19654.36
491.73	19666.64
491.94	19678.93
492.14	19570.39
492.35	20076.24
492.55	20106.96
492.76	20106.96
492.97	20166.35
493.17	20135.63
493.38	20399.82
493.58	20614.85
493.79	20780.74
494.00	21012.16
494.20	20801.22
494.41	21028.54
494.61	20821.70
494.82	21014.21
495.02	21010.11
495.23	21116.61
495.44	20987.58
495.64	21255.87
495.85	21540.54
496.05	21583.54
496.26	21509.82
496.47	21696.18
496.67	21696.18
496.88	22001.33
497.08	21597.88
497.29	21855.92
497.49	21661.37
497.70	22081.20
497.91	22286.00
498.11	21993.14
498.32	22361.77
498.52	22519.46
498.73	22599.34
498.93	22589.10
499.14	22703.78
499.34	22417.07
499.55	22957.73
499.76	22707.88
499.96	22892.19
500.17	22986.40
500.37	23068.32
500.58	22914.72
500.78	22910.63
500.99	23027.36
501.19	23422.62
501.40	23527.06
501.60	23398.04
501.81	23418.52
502.02	23740.05
502.22	23322.27
502.43	23721.62
502.63	23809.68
502.84	23836.31
503.04	23781.01
503.25	24024.72
503.45	24168.08
503.66	23936.66
503.86	24120.98
504.07	24510.09
504.27	24174.22
504.48	24589.96
504.68	24671.88
504.89	24704.65
505.09	24553.10
505.30	24596.10
505.50	24704.65
505.71	24698.50
505.91	25073.28
506.12	24948.36
506.32	24823.43
506.53	24985.22
506.73	25368.19
506.94	25206.40
507.14	25370.24
507.35	25339.52
507.55	25230.98
507.76	25310.85
507.96	25198.21
508.17	25378.43
508.37	25443.96
508.58	25620.09
508.78	25667.19
508.99	25831.03
509.19	25986.68
509.40	25896.56
509.60	25886.32
509.81	26142.32
510.01	25912.95
510.22	26093.17
510.42	26144.37
510.63	26029.68
510.83	26472.04
511.04	26078.83
511.24	26326.64
511.44	26244.72
511.65	26332.78
511.85	26631.79
512.06	27174.50
512.26	26703.46
512.47	27027.04
512.67	26594.92
512.88	26875.49
513.08	26881.64
513.29	26914.41
513.49	26949.22
513.69	26840.68
513.90	26842.73
514.10	27274.85
514.31	27108.96
514.51	27475.55
514.72	27166.31
514.92	26979.94
515.13	27321.95
515.33	27618.91
515.53	27258.46
515.74	27690.59
515.94	27706.97
516.15	27930.20
516.35	27594.33
516.56	27817.56
516.76	27727.45
516.96	27879.00
517.17	28026.45
517.37	28108.37
517.58	27913.81
517.78	28167.76
517.99	28141.14
518.19	28423.76
518.39	28446.29
518.60	28579.40
518.80	28388.94
519.01	28218.96
519.21	28431.95
519.41	28530.25
519.62	28554.83
519.82	28728.91
520.03	28909.13
520.23	28763.72
520.43	28714.57
520.64	29128.26
520.84	29288.00
521.05	29046.34
521.25	29392.45
521.45	29210.18
521.66	29208.13
521.86	29249.09
522.07	29038.15
522.27	29529.66
522.47	29777.47
522.68	29775.42
522.88	29695.55
523.08	30086.71
523.29	29810.23
523.49	29976.12
523.70	30135.86
523.90	30199.35
524.10	30033.46
524.31	30281.27
524.51	30037.56
524.71	30823.98
524.92	30320.18
525.12	30856.75
525.33	30807.59
525.53	30903.85
525.73	30789.16
525.94	31022.63
526.14	30750.25
526.34	30981.67
526.55	31272.48
526.75	31141.41
526.95	31557.15
527.16	31311.39
527.36	31311.39
527.56	31815.19
527.77	31944.22
527.97	31675.93
528.17	31809.05
528.38	32257.56
528.58	31794.71
528.78	32214.55
528.99	31671.84
529.19	32366.10
529.39	31872.54
529.60	32593.42
529.80	32392.72
530.00	31956.50
530.21	32593.42
530.41	32929.29
530.61	32982.54
530.82	32939.53
531.02	32644.62
531.22	33013.26
531.43	33302.02
531.63	33228.29
531.83	33439.23
532.04	33766.91
532.24	33510.91
532.44	33615.36
532.64	33633.79
532.85	33682.94
533.05	33971.71
533.25	34037.24
533.46	33940.99
533.66	34416.11
533.86	34434.55
534.07	34457.07
534.27	34223.61
534.47	34616.82
534.67	34768.37
534.88	34471.41
535.08	34524.66
535.28	34813.42
535.49	34938.35
535.69	35456.48
535.89	35093.99
536.09	34979.31
536.30	35456.48
536.50	35538.40
536.70	35759.58
536.91	35440.10
537.11	35761.63
537.31	35753.44
537.51	35474.91
537.72	36013.53
537.92	36234.71
538.12	36527.57
538.32	36382.16
538.53	36365.78
538.73	36201.94
538.93	36185.56
539.13	36203.99
539.34	36548.05
539.54	36447.70
539.74	36879.82
539.94	36550.10
540.15	36599.25
540.35	37221.83
540.55	36908.49
540.75	36994.51
540.96	37359.05
541.16	37498.31
541.36	37383.62
541.56	37250.50
541.77	37606.85
541.97	37612.99
542.17	37729.73
542.37	37633.47
542.58	37559.75
542.78	38067.64
542.98	37799.36
543.18	38331.83
543.38	38172.09
543.59	38215.10
543.79	38100.41
543.99	38256.06
544.19	38327.74
544.40	38249.91
544.60	38868.40
544.80	38665.65
545.00	38413.75
545.20	38985.13
545.41	38720.95
545.61	38725.04
545.81	38827.44
546.01	39069.10
546.21	38874.54
546.42	38882.73
546.62	39384.49
546.82	38868.40
547.02	39232.94
547.22	39462.31
547.43	39177.64
547.63	39392.68
547.83	39716.26
548.03	39460.26
548.23	39617.96
548.44	39927.20
548.64	39669.15
548.84	39904.67
549.04	40041.88
549.24	40064.41
549.45	40324.50
549.65	40148.38
549.85	39923.10
550.05	40258.97
550.25	40254.87
550.45	40416.66
550.66	40211.87
550.86	40232.35
551.06	40390.04
551.26	40809.87
551.46	40306.07
551.66	41100.68
551.87	40508.82
552.07	40711.57
552.27	40725.91
552.47	40859.02
552.67	41182.60
552.87	41082.25
553.07	40797.59
553.28	41043.34
553.48	41340.30
553.68	40727.95
553.88	41158.03
554.08	41563.53
554.28	41020.81
554.48	41176.46
554.69	41061.77
554.89	41776.51
555.09	41387.40
555.29	41203.08
555.49	41588.10
555.69	41868.67
555.89	41401.74
556.10	41500.04
556.30	41409.93
556.50	41702.79
556.70	41338.25
556.90	41731.46
557.10	42098.05
557.30	41854.34
557.50	42067.33
557.70	42018.17
557.91	42194.30
558.11	41819.52
558.31	42087.81
558.51	42091.90
558.71	42268.03
558.91	42382.71
559.11	42067.33
559.31	42007.94
559.51	42179.96
559.72	42610.04
559.92	42530.17
560.12	42069.37
560.32	42524.02
560.52	42739.06
560.72	42702.20
560.92	42726.77
561.12	42714.48
561.32	43072.88
561.52	42376.57
561.72	42644.85
561.93	42661.24
562.13	42870.13
562.33	42636.66
562.53	43079.02
562.73	42790.26
562.93	43072.88
563.13	42573.17
563.33	42829.17
563.53	43445.61
563.73	43103.60
563.93	43169.13
564.13	43279.72
564.33	43033.97
564.53	43459.94
564.74	43380.07
564.94	43421.03
565.14	43392.36
565.34	42976.62
565.54	43664.74
565.74	43498.86
565.94	43838.82
566.14	43208.04
566.34	43552.10
566.54	43654.50
566.74	43576.68
566.94	43791.72
567.14	43425.13
567.34	43595.11
567.54	44117.34
567.74	43556.20
567.94	43865.44
568.14	44008.80
568.34	44039.52
568.54	43963.75
568.74	44137.82
568.94	43820.39
569.14	44141.92
569.34	44258.65
569.54	44191.07
569.75	43949.41
569.95	44166.49
570.15	44889.43
570.35	44342.62
570.55	44406.11
570.75	44189.02
570.95	44488.03
571.15	44406.11
571.35	44641.62
571.55	45356.36
571.75	44832.08
571.95	44643.67
572.15	44541.27
572.35	44256.60
572.55	44469.59
572.75	44985.68
572.95	44746.07
573.15	44649.81
573.35	44944.72
573.55	44739.93
573.75	44889.43
573.95	45176.14
574.15	45049.17
574.35	45339.98
574.55	45253.97
574.75	45204.81
574.95	45567.30
575.15	45223.25
575.34	44938.58
575.54	45309.26
575.74	45704.52
575.94	45442.38
576.14	45425.99
576.34	46093.63
576.54	45962.56
576.74	45671.75
576.94	45454.67
577.14	45987.14
577.34	46247.23
577.54	45825.35
577.74	46304.57
577.94	46484.79
578.14	46300.48
578.34	46382.40
578.54	45851.97
578.74	46064.96
578.94	46701.88
579.14	46648.63
579.34	46177.60
579.54	46535.99
579.74	46619.96
579.94	46613.82
580.13	47140.14
580.33	46593.34
580.53	46480.70
580.73	46871.86
580.93	47109.43
581.13	46585.15
581.33	47134.00
581.53	47121.71
581.73	47177.01
581.93	47113.52
582.13	47465.77
582.33	47359.28
582.53	47301.93
582.73	47013.17
582.92	47267.12
583.12	47521.07
583.32	47406.38
583.52	47215.92
583.72	47543.59
583.92	47232.30
584.12	47674.66
584.32	48065.83
584.52	47342.89
584.72	47967.52
584.92	47791.40
585.11	48373.02
585.31	48203.04
585.51	47887.65
585.71	48082.21
585.91	48452.89
586.11	48477.47
586.31	48039.20
586.51	48133.41
586.71	48272.67
586.91	48903.45
587.10	48477.47
587.30	49034.52
587.50	48678.17
587.70	48676.12
587.90	48878.87
588.10	48557.34
588.30	48317.73
588.50	48657.69
588.69	48825.62
588.89	48708.89
589.09	49161.49
589.29	48938.26
589.49	49128.72
589.69	48379.17
589.89	49425.68
590.08	49050.90
590.28	48919.83
590.48	49202.45
590.68	49120.53
590.88	49147.15
591.08	49366.29
591.28	49050.90
591.47	50025.73
591.67	49425.68
591.87	49882.37
592.07	49325.33
592.27	49321.23
592.47	49579.28
592.67	49327.38
592.86	49779.98
593.06	49833.22
593.26	50367.74
593.46	49569.04
593.66	49943.81
593.86	49868.04
594.05	49743.11
594.25	50361.60
594.45	50115.84
594.65	49759.50
594.85	49724.68
595.05	50291.97
595.24	50449.66
595.44	50259.20
595.64	49923.33
595.84	50623.74
596.04	50310.40
596.23	50748.67
596.43	50918.65
596.63	50355.46
596.83	50316.54
597.03	50883.83
597.22	51031.29
597.42	50812.15
597.62	50980.09
597.82	50885.88
598.02	50908.41
598.21	51008.76
598.41	50709.75
598.61	50910.46
598.81	51184.88
599.01	50957.56
599.20	51129.59
599.40	50922.74
599.60	51547.37
599.80	50973.94
600.00	51283.19
600.19	51756.27
600.39	51160.31
600.59	51500.27
600.79	51717.35
600.98	51555.57
601.18	51623.15
601.38	51983.59
601.58	51891.43
601.78	51860.71
601.97	51668.20
602.17	52081.89
602.37	52253.92
602.57	51875.05
602.76	52180.20
602.96	51459.31
603.16	52452.58
603.36	52346.08
603.55	52526.30
603.75	52253.92
603.95	52348.13
604.15	52638.94
604.34	52413.66
604.54	52747.48
604.74	52729.05
604.94	52640.99
605.13	52892.89
605.33	52786.39
605.53	52571.36
605.73	52868.31
605.92	52919.51
606.12	52829.40
606.32	53073.11
606.52	52745.44
606.71	53146.84
606.91	53148.88
607.11	53318.87
607.30	53191.89
607.50	53359.83
607.70	53148.88
607.90	53173.46
608.09	53277.91
608.29	53310.67
608.49	53064.92
608.68	53593.29
608.88	53822.67
609.08	53689.55
609.28	53462.22
609.47	53028.05
609.67	53730.51
609.87	53726.41
610.06	54072.52
610.26	53916.87
610.46	53839.05
610.66	53607.63
610.85	53787.85
611.05	53411.02
611.25	54000.84
611.44	53966.02
611.64	53345.49
611.84	53734.60
612.03	53603.53
612.23	53920.97
612.43	54027.46
612.62	53769.42
612.82	54183.11
613.02	53634.25
613.21	54119.62
613.41	53916.87
613.61	54176.97
613.80	53611.73
614.00	54529.22
614.20	54076.61
614.39	53976.26
614.59	54373.57
614.79	54338.75
614.98	54006.98
615.18	54287.56
615.38	54310.08
615.57	53839.05
615.77	54602.94
615.97	54052.04
616.16	54396.10
616.36	54201.54
616.56	54271.17
616.75	53843.15
616.95	54162.63
617.15	54238.40
617.34	54531.26
617.54	54277.32
617.74	54547.65
617.93	54707.39
618.13	54385.86
618.32	54392.00
618.52	54039.75
618.72	54199.49
618.91	54392.00
619.11	54033.61
619.31	54637.76
619.50	53957.83
619.70	54086.85
619.90	54111.43
620.09	54756.54
620.29	54322.37
620.48	54195.40
620.68	54478.02
620.88	53916.87
621.07	54260.93
621.27	54437.06
621.46	53894.35
621.66	54506.69
621.86	54516.93
622.05	54209.73
622.25	54330.56
622.44	54047.94
622.64	54058.18
622.84	54566.08
623.03	54045.90
623.23	54623.42
623.42	54148.29
623.62	54588.61
623.82	54879.42
624.01	54506.69
624.21	54598.85
624.40	54133.96
624.60	53927.11
624.80	53785.80
624.99	54566.08
625.19	53603.53
625.38	54332.61
625.58	54799.55
625.77	54359.23
625.97	54693.05
626.17	54510.78
626.36	54478.02
626.56	54070.47
626.75	53810.38
626.95	54744.25
627.14	54283.46
627.34	54691.01
627.54	54428.87
627.73	54320.32
627.93	54541.50
628.12	54521.02
628.32	54701.25
628.51	54803.64
628.71	54480.06
628.90	54291.65
629.10	54248.64
629.30	54379.71
629.49	54394.05
629.69	54410.43
629.88	54604.99
630.08	54764.73
630.27	54658.24
630.47	55114.94
630.66	54285.51
630.86	54828.22
631.05	54133.96
631.25	54844.60
631.44	54582.46
631.64	54600.89
631.84	54236.36
632.03	55129.27
632.23	54701.25
632.42	55246.00
632.62	54719.68
632.81	54635.71
633.01	54635.71
633.20	55274.68
633.40	54559.94
633.59	54453.44
633.79	54312.13
633.98	54453.44
634.18	54760.64
634.37	54844.60
634.57	55028.92
634.76	55092.41
634.96	54609.09
635.15	54471.87
635.35	54615.23
635.54	54416.58
635.74	55149.75
635.93	54834.36
636.13	55450.80
636.32	54879.42
636.52	54678.72
636.71	54858.94
636.91	54598.85
637.10	54809.79
637.30	54543.55
637.49	54572.22
637.69	54672.57
637.88	55178.42
638.08	54744.25
638.27	54973.63
638.46	54760.64
638.66	54865.08
638.85	55004.34
639.05	55104.70
639.24	55108.79
639.44	55049.40
639.63	54834.36
639.83	55153.85
640.02	55170.23
640.22	54328.52
640.41	54738.11
640.61	54660.29
640.80	55119.03
640.99	54600.89
641.19	55366.84
641.38	54787.26
641.58	54875.32
641.77	54772.92
641.97	54492.35
642.16	55055.54
642.36	55119.03
642.55	55653.55
642.74	55289.01
642.94	55391.41
643.13	54983.86
643.33	55784.62
643.52	55307.44
643.72	55231.67
643.91	55127.22
644.10	54985.91
644.30	55121.08
644.49	55256.24
644.69	55211.19
644.88	55030.97
645.08	54973.63
645.27	55444.66
645.46	55440.56
645.66	55846.06
645.85	55227.57
646.05	55573.68
646.24	55682.22
646.43	55350.45
646.63	55561.39
646.82	55780.52
647.02	55368.88
647.21	55456.95
647.40	55278.77
647.60	55514.29
647.79	55063.74
647.99	55717.04
648.18	55254.20
648.37	56134.82
648.57	55604.40
648.76	55690.41
648.96	55434.42
649.15	55602.35
649.34	55839.92
649.54	55547.06
649.73	55248.05
649.92	55571.63
650.12	55518.38
650.31	55588.02
650.51	55772.33
650.70	55561.39
650.89	55454.90
651.09	56505.51
651.28	55889.07
651.47	55631.02
651.67	56466.59
651.86	56059.05
652.06	55321.78
652.25	55792.81
652.44	55878.83
652.64	55915.69
652.83	55499.95
653.02	55506.10
653.22	55688.37
653.41	56005.80
653.60	55430.32
653.80	55626.93
653.99	56083.62
654.18	55467.19
654.38	55643.31
654.57	55987.37
654.76	55739.57
654.96	56013.99
655.15	55682.22
655.34	56104.10
655.54	55655.60
655.73	55833.77
655.92	56173.73
656.12	55811.24
656.31	55862.44
656.50	56218.79
656.70	56419.49
656.89	56161.45
657.08	55932.07
657.28	56249.51
657.47	56317.09
657.66	56396.96
657.86	56161.45
658.05	56310.95
658.24	56190.12
658.43	55938.22
658.63	55995.56
658.82	56224.93
659.01	56652.96
659.21	56456.35
659.40	56175.78
659.59	56206.50
659.79	56431.78
659.98	56296.61
660.17	56110.25
660.36	56120.49
660.56	56239.27
660.75	56358.05
660.94	56413.35
661.14	56267.94
661.33	56038.57
661.52	55682.22
661.71	56532.13
661.91	55854.25
662.10	56042.66
662.29	56652.96
662.49	56343.72
662.68	56085.67
662.87	56732.83
663.06	56308.90
663.26	56390.82
663.45	57062.55
663.64	56487.07
663.83	56704.16
664.03	56272.04
664.22	56110.25
664.41	56640.67
664.60	56208.55
664.80	56325.28
664.99	56251.56
665.18	56321.19
665.37	56485.03
665.57	56525.99
665.76	55934.12
665.95	56468.64
666.14	56423.59
666.34	56243.37
666.53	56452.26
666.72	56501.41
666.91	56376.48
667.11	56300.71
667.30	56562.85
667.49	55991.47
667.68	56530.08
667.87	56095.91
668.07	56517.79
668.26	56448.16
668.45	56648.86
668.64	55944.36
668.84	57175.19
669.03	56368.29
669.22	56454.31
669.41	56693.92
669.60	56650.91
669.80	56243.37
669.99	56532.13
670.18	56429.73
670.37	56294.56
670.57	56607.90
670.76	56620.19
670.95	56849.56
671.14	56487.07
671.33	56345.76
671.53	56714.40
671.72	56276.13
671.91	56669.34
672.10	56384.68
672.29	56222.89
672.48	56380.58
672.68	56657.06
672.87	56351.91
673.06	56224.93
673.25	56325.28
673.44	56020.14
673.64	56122.54
673.83	56308.90
674.02	56743.07
674.21	56362.15
674.40	56767.65
674.59	56140.97
674.79	55997.61
674.98	56071.34
675.17	56628.38
675.36	56186.02
675.55	56519.84
675.74	56052.90
675.94	56290.47
676.13	56509.60
676.32	56427.68
676.51	56966.30
676.70	56399.01
676.89	56059.05
677.08	56349.86
677.28	56114.34
677.47	56319.14
677.66	56571.04
677.85	56431.78
678.04	56595.62
678.23	56761.50
678.42	56710.30
678.62	56171.69
678.81	56530.08
679.00	55678.13
679.19	57087.13
679.38	56145.06
679.57	56378.53
679.76	56396.96
679.96	56896.67
680.15	56130.73
680.34	56059.05
680.53	56247.46
680.72	56284.33
680.91	56364.20
681.10	56161.45
681.29	56157.35
681.48	56294.56
681.68	56341.67
681.87	56308.90
682.06	55866.54
682.25	55837.87
682.44	55917.74
682.63	56069.29
682.82	55665.84
683.01	55960.75
683.20	55776.43
683.39	56042.66
683.59	56034.47
683.78	55596.21
683.97	56124.58
684.16	55821.48
684.35	55463.09
684.54	55864.49
684.73	55909.55
684.92	55542.96
685.11	55594.16
685.30	55547.06
685.49	56243.37
685.69	55422.13
685.88	55932.07
686.07	55618.74
686.26	55297.20
686.45	55248.05
686.64	55786.67
686.83	55168.18
687.02	55542.96
687.21	55442.61
687.40	55336.12
687.59	54906.04
687.78	55444.66
687.97	55473.33
688.16	55471.28
688.35	55411.89
688.54	55542.96
688.74	55354.55
688.93	54920.38
689.12	55342.26
689.31	55430.32
689.50	55671.98
689.69	54992.06
689.88	54461.63
690.07	55188.66
690.26	54975.67
690.45	55485.62
690.64	54707.39
690.83	54932.67
691.02	54574.27
691.21	54561.98
691.40	54973.63
691.59	55063.74
691.78	54801.60
691.97	54699.20
692.16	55051.45
692.35	54881.47
692.54	54719.68
692.73	55458.99
692.92	54660.29
693.11	54791.36
693.30	54502.59
693.49	55430.32
693.68	55008.44
693.87	54965.43
694.06	54459.58
694.25	54465.73
694.44	54213.83
694.63	54813.88
694.82	54594.75
695.01	54277.32
695.20	54260.93
695.39	54312.13
695.58	54369.47
695.77	54244.55
695.96	54279.36
696.15	54318.28
696.34	54049.99
696.53	54211.78
696.72	54369.47
696.91	53867.72
697.10	54031.56
697.29	53650.64
697.48	54146.25
697.67	53859.53
697.86	53853.39
698.05	53433.55
698.24	54101.19
698.43	53451.98
698.62	54197.44
698.81	53599.44
699.00	54482.11
699.19	53910.73
699.38	54047.94
699.57	53028.05
699.76	53873.87
699.95	53470.42
700.14	53042.39
700.32	53325.01
700.51	53503.18
700.70	53611.73
700.89	53343.44
701.08	53474.51
701.27	53800.14
701.46	53484.75
701.65	53050.58
701.84	53155.03
702.03	53662.93
702.22	53083.35
702.41	53200.08
702.60	53415.12
702.79	53023.96
702.98	52575.45
703.17	53116.12
703.35	52868.31
703.54	53064.92
703.73	52991.19
703.92	53052.63
704.11	53239.00
704.30	52679.90
704.49	52835.55
704.68	52901.08
704.87	52876.51
705.06	53181.65
705.25	52757.72
705.43	52667.61
705.62	53167.32
705.81	52761.82
706.00	52597.98
706.19	52473.06
706.38	52270.31
706.57	52536.54
706.76	52626.65
706.95	52729.05
707.14	52460.77
707.32	52253.92
707.51	52452.58
707.70	52552.93
707.89	51870.95
708.08	52382.94
708.27	52286.69
708.46	52688.09
708.65	52352.23
708.84	52550.88
709.02	52393.18
709.21	52442.34
709.40	52503.77
709.59	52204.77
709.78	51899.62
709.97	52235.49
710.16	52122.85
710.34	52284.64
710.53	51940.58
710.72	51889.38
710.91	51991.78
711.10	51762.41
711.29	52403.42
711.48	51645.68
711.66	51889.38
711.85	51565.81
712.04	51414.26
712.23	51668.20
712.42	51690.73
712.61	51819.75
712.80	51516.65
712.98	51975.40
713.17	51485.93
713.36	51737.83
713.55	51533.04
713.74	51842.28
713.93	51399.92
714.11	51537.13
714.30	51617.00
714.49	51244.27
714.68	51621.10
714.87	51129.59
715.06	51619.05
715.24	51019.00
715.43	51238.13
715.62	50830.58
715.81	50763.00
716.00	51303.67
716.18	50750.71
716.37	51086.58
716.56	51119.35
716.75	51404.02
716.94	51016.95
717.12	51008.76
717.31	51107.06
717.50	50865.40
717.69	50644.22
717.88	50912.50
718.06	50902.26
718.25	51164.40
718.44	50531.58
718.63	50834.68
718.82	50380.03
719.00	50560.25
719.19	50326.78
719.38	50427.13
719.57	50427.13
719.76	49980.68
719.94	50027.78
720.13	50203.91
720.32	50334.98
720.51	50261.25
720.69	50128.13
720.88	49855.75
721.07	49767.69
721.26	49630.47
721.44	49718.54
721.63	49689.87
721.82	49577.23
722.01	49257.74
722.20	49554.70
722.38	49902.85
722.57	49181.97
722.76	49446.16
722.95	49288.46
723.13	49083.67
723.32	49134.87
723.51	49003.80
723.70	49073.43
723.88	49089.81
724.07	48954.64
724.26	48960.79
724.44	48844.05
724.63	49280.27
724.82	49083.67
725.01	48880.92
725.19	48608.54
725.38	49018.13
725.57	48620.83
725.76	48790.81
725.94	48559.39
726.13	48514.33
726.32	48631.07
726.51	48727.32
726.69	49007.89
726.88	48715.03
727.07	48737.56
727.25	48999.70
727.44	48829.72
727.63	48475.42
727.82	48434.46
728.00	48602.39
728.19	48780.57
728.38	48536.86
728.56	48002.34
728.75	48676.12
728.94	48330.01
729.12	48516.38
729.31	48297.25
729.50	48579.87
729.69	48850.20
729.87	48373.02
730.06	48442.65
730.25	48287.01
730.43	48979.22
730.62	48440.60
730.81	48717.08
730.99	48172.32
731.18	48246.05
731.37	48448.80
731.55	48293.15
731.74	48362.78
731.93	48563.48
732.11	48323.87
732.30	48477.47
732.49	48117.03
732.67	48389.41
732.86	48219.42
733.05	48338.21
733.23	48106.79
733.42	48313.63
733.61	48203.04
733.79	48164.13
733.98	48629.02
734.17	48297.25
734.35	48510.24
734.54	48192.80
734.73	48170.27
734.91	48131.36
735.10	48076.07
735.29	48002.34
735.47	47568.17
735.66	48098.59
735.84	47842.60
736.03	47469.87
736.22	48225.57
736.40	47875.37
736.59	48280.86
736.78	47975.72
736.96	47844.65
737.15	48225.57
737.33	47746.34
737.52	47566.12
737.71	48141.60
737.89	48076.07
738.08	47443.24
738.27	47406.38
738.45	47998.24
738.64	47453.48
738.82	47674.66
739.01	47875.37
739.20	47138.10
739.38	47664.42
739.57	47764.78
739.75	47424.81
739.94	47607.08
740.13	47295.79
740.31	47402.28
740.50	47465.77
740.68	47467.82
740.87	47633.71
741.06	47641.90
741.24	47437.10
741.43	46925.11
741.61	46882.10
741.80	47072.56
741.99	46787.89
742.17	46988.60
742.36	46935.35
742.54	47072.56
742.73	47211.82
742.91	46957.88
743.10	46820.66
743.29	47205.68
743.47	47017.27
743.66	47117.62
743.84	47174.96
744.03	46951.73
744.21	46878.00
744.40	47146.29
744.59	46290.24
744.77	46441.79
744.96	46710.07
745.14	46650.68
745.33	46683.45
745.51	46546.23
745.70	46402.88
745.88	46413.12
746.07	46454.08
746.26	45956.42
746.44	46177.60
746.63	46273.85
746.81	46234.94
747.00	46183.74
747.18	45954.37
747.37	46378.30
747.55	45935.94
747.74	46185.79
747.92	45657.42
748.11	46044.48
748.29	46398.78
748.48	46095.68
748.66	45921.60
748.85	46284.09
749.03	45987.14
749.22	45827.40
749.41	45595.98
749.59	45888.84
749.78	45962.56
749.96	45022.54
750.15	45569.35
750.33	45569.35
750.52	45759.81
750.70	45751.62
750.89	45491.53
751.07	45200.72
751.26	45679.94
751.44	45167.95
751.63	45524.30
751.81	44823.89
752.00	45561.16
752.18	45421.90
752.37	45036.88
752.55	44950.87
752.74	44885.33
752.92	44821.84
753.10	45126.99
753.29	44823.89
753.47	45055.31
753.66	44344.67
753.84	45352.27
754.03	45104.46
754.21	44541.27
754.40	45274.45
754.58	45163.85
754.77	44709.21
754.95	44348.76
755.14	44430.68
755.32	44832.08
755.51	44316.00
755.69	44471.64
755.88	44467.55
756.06	44817.75
756.24	44025.18
756.43	44275.04
756.61	44477.79
756.80	43933.03
756.98	44242.27
757.17	44215.65
757.35	44246.36
757.54	43717.99
757.72	44234.08
757.90	43980.13
758.09	43834.72
758.27	44066.14
758.46	43799.91
758.64	44080.48
758.83	43939.17
759.01	43629.93
759.19	43601.25
759.38	43701.61
759.56	43654.50
759.75	43709.80
759.93	43312.49
760.12	43357.55
760.30	43265.39
760.48	43054.45
760.67	43402.60
760.85	43617.64
761.04	43183.47
761.22	43642.21
761.40	43388.27
761.59	43427.18
761.77	43122.03
761.96	43459.94
762.14	43345.26
762.32	43171.18
762.51	43107.69
762.69	42857.84
762.88	43150.70
763.06	43216.24
763.24	43162.99
763.43	42794.36
763.61	42450.30
763.80	42749.30
763.98	42689.91
764.16	42640.76
764.35	42329.47
764.53	42225.02
764.72	42446.20
764.90	42374.52
765.08	42493.30
765.27	42474.87
765.45	42313.08
765.63	41762.18
765.82	42227.07
766.00	42126.72
766.18	42311.03
766.37	42050.94
766.55	42069.37
766.74	42024.32
766.92	41739.65
767.10	41893.25
767.29	41575.81
767.47	42081.66
767.65	42333.56
767.84	41600.39
768.02	41596.29
768.20	41311.63
768.39	41725.32
768.57	41276.81
768.75	41612.68
768.94	41713.03
769.12	41735.56
769.30	41293.19
769.49	41381.26
769.67	41219.47
769.85	41049.49
770.04	40932.75
770.22	40926.61
770.40	41057.68
770.59	41223.56
770.77	41237.90
770.95	41047.44
771.14	40711.57
771.32	40551.83
771.50	40490.39
771.69	40830.35
771.87	41018.77
772.05	40867.22
772.24	40672.66
772.42	40344.98
772.60	40650.13
772.78	40596.88
772.97	40666.52
773.15	41160.08
773.33	40678.80
773.52	40474.01
773.70	40330.65
773.88	40465.81
774.07	40461.72
774.25	40752.53
774.43	40682.90
774.61	40514.97
774.80	40506.77
774.98	40269.21
775.16	40392.09
775.34	40506.77
775.53	40205.72
775.71	40451.48
775.89	40869.26
776.08	40859.02
776.26	40961.42
776.44	40441.24
776.62	40471.96
776.81	40699.28
776.99	40367.51
777.17	40793.49
777.35	40418.71
777.54	41219.47
777.72	40529.30
777.90	40383.90
778.08	41184.65
778.27	40824.21
778.45	41035.15
778.63	41158.03
778.81	40242.59
779.00	41424.26
779.18	40613.27
779.36	41149.84
779.54	41010.57
779.73	41104.78
779.91	41211.28
780.09	41051.53
780.27	41383.30
780.46	40916.37
780.64	41362.82
780.82	41121.16
781.00	41448.84
781.19	41385.35
781.37	41696.64
781.55	41264.52
781.73	41770.37
781.91	41608.58
782.10	41371.02
782.28	41639.30
782.46	41727.36
782.64	41835.91
782.82	41629.06
783.01	41686.40
783.19	41590.15
783.37	41452.94
783.55	41463.18
783.74	41944.45
783.92	41229.71
784.10	41987.46
784.28	41465.22
784.46	41371.02
784.64	41280.91
784.83	41489.80
785.01	41780.61
785.19	41739.65
785.37	41512.33
785.55	41543.05
785.74	41225.61
785.92	41235.85
786.10	41624.96
786.28	41661.83
786.46	41049.49
786.64	40920.46
786.83	40990.09
787.01	41254.28
787.19	41170.32
787.37	41094.54
787.55	41244.04
787.74	41016.72
787.92	41145.74
788.10	41043.34
788.28	40818.07
788.46	40807.83
788.64	40508.82
788.82	41303.43
789.01	40680.85
789.19	40916.37
789.37	40693.14
789.55	40596.88
789.73	40351.13
789.91	40109.47
790.09	40652.18
790.28	40523.16
790.46	40412.57
790.64	40363.42
790.82	40611.22
791.00	40428.95
791.18	39933.34
791.36	40172.96
791.55	40449.43
791.73	40066.46
791.91	39810.46
792.09	39835.04
792.27	40029.60
792.45	40177.05
792.63	39724.45
792.81	39703.97
793.00	39869.86
793.18	39427.49
793.36	39720.35
793.54	39355.82
793.72	39105.96
793.90	39316.90
794.08	39040.43
794.26	39767.46
794.44	38888.88
794.62	38778.29
794.81	38999.47
794.99	38837.68
795.17	38725.04
795.35	38987.18
795.53	38897.07
795.71	38630.83
795.89	38188.47
796.07	38225.34
796.25	38196.67
796.43	38157.75
796.61	37985.72
796.80	38104.51
796.98	38008.25
797.16	37866.94
797.34	37735.87
797.52	37764.54
797.70	37903.81
797.88	37512.64
798.06	37311.94
798.24	37518.79
798.42	37400.01
798.60	37354.95
798.78	37037.51
798.96	37219.78
799.14	36474.32
799.32	37115.34
799.51	36720.08
799.69	37309.89
799.87	36718.03
800.05	36582.87
800.23	37168.58
800.41	36197.85
800.59	36650.45
800.77	36273.62
800.95	36142.55
801.13	36222.42
801.31	35945.95
801.49	36054.49
801.67	35757.53
801.85	35642.85
802.03	35397.09
802.21	35814.88
802.39	35700.19
802.57	35784.16
802.75	35427.81
802.93	35444.20
803.11	35290.60
803.29	35300.84
803.47	34815.47
803.65	34921.96
803.83	34844.14
804.01	34821.61
804.19	34846.19
804.37	35276.26
804.55	34395.64
804.73	34452.98
804.91	34739.69
805.09	34303.48
805.27	34483.70
805.45	34754.03
805.63	34092.54
805.81	34164.21
805.99	34059.77
806.17	34409.97
806.35	34219.51
806.53	33928.70
806.71	34035.19
806.89	33801.72
807.07	33973.75
807.25	33807.87
807.43	33697.28
807.61	33648.13
807.79	33318.40
807.97	33625.60
808.15	33295.88
808.33	33521.15
808.51	33476.10
808.69	33445.38
808.87	32929.29
809.05	32939.53
809.23	32853.51
809.41	33056.26
809.59	32859.66
809.77	32951.82
809.95	32599.57
810.13	33060.36
810.31	32753.16
810.49	32574.99
810.67	32505.36
810.84	32632.33
811.02	32402.96
811.20	32163.35
811.38	32128.53
811.56	32173.59
811.74	32161.30
811.92	31897.11
812.10	31700.51
812.28	32177.68
812.46	32089.62
812.64	31743.52
812.82	31475.23
813.00	31594.01
813.18	31741.47
813.36	31630.88
813.53	31188.52
813.71	31481.38
813.89	31309.35
814.07	31362.59
814.25	31571.49
814.43	31004.20
814.61	30950.95
814.79	31143.46
814.97	31204.90
815.15	30729.77
815.33	30393.90
815.50	30332.47
815.68	30819.88
815.86	30989.86
816.04	30615.08
816.22	30344.75
816.40	30598.70
816.58	30533.17
816.76	30166.58
816.94	30279.22
817.11	30332.47
817.29	30291.51
817.47	29982.26
817.65	30158.39
817.83	30236.21
818.01	29683.26
818.19	29824.57
818.37	29881.91
818.54	29343.30
818.72	29740.60
818.90	29728.31
819.08	29566.52
819.26	30039.61
819.44	29392.45
819.62	29724.22
819.80	29496.89
819.97	29662.78
820.15	29771.32
820.33	29433.41
820.51	29404.74
820.69	29224.51
820.87	29529.66
821.05	29333.06
821.22	29216.32
821.40	29249.09
821.58	28902.98
821.76	28948.04
821.94	28905.03
822.12	28970.57
822.29	29040.20
822.47	28606.03
822.65	28857.93
822.83	28620.36
823.01	28606.03
823.19	28403.28
823.36	28339.79
823.54	28393.04
823.72	28257.87
823.90	28286.54
824.08	28108.37
824.25	28075.60
824.43	27922.01
824.61	27924.05
824.79	28184.15
824.97	28042.84
825.15	28278.35
825.32	28020.31
825.50	27739.74
825.68	27797.08
825.86	27807.32
826.04	27973.21
826.21	27938.39
826.39	27629.15
826.57	27729.50
826.75	27653.72
826.93	27835.99
827.10	27795.03
827.28	27551.32
827.46	27788.89
827.64	27639.39
827.81	27373.15
827.99	27678.30
828.17	27270.75
828.35	27176.55
828.53	27309.66
828.70	27070.05
828.88	27174.50
829.06	27078.24
829.24	27448.93
829.41	26812.01
829.59	27489.88
829.77	27106.91
829.95	27139.68
830.12	26967.65
830.30	26789.48
830.48	26689.13
830.66	26791.53
830.84	26840.68
831.01	26769.00
831.19	26719.85
831.37	26388.08
831.55	26504.81
831.72	26465.90
831.90	26549.87
832.08	26492.52
832.25	26170.99
832.43	26492.52
832.61	26615.40
832.79	26191.47
832.96	26793.58
833.14	26093.17
833.32	26605.16
833.50	26386.03
833.67	26461.80
833.85	26175.09
834.03	25835.13
834.20	26297.97
834.38	26095.22
834.56	26115.70
834.74	25867.89
834.91	26095.22
835.09	25738.87
835.27	25661.05
835.44	25628.28
835.62	25398.91
835.80	25656.95
835.98	25699.96
836.15	25794.17
836.33	25421.44
836.51	25777.78
836.68	25171.58
836.86	25534.07
837.04	25384.57
837.21	25478.78
837.39	25405.05
837.57	25677.43
837.75	25581.18
837.92	25403.00
838.10	25405.05
838.28	24888.96
838.45	25089.67
838.63	25116.29
838.81	25054.85
838.98	25001.60
839.16	24954.50
839.34	24960.64
839.51	24872.58
839.69	25048.71
839.87	24909.44
840.04	24868.48
840.22	25013.89
840.40	24546.95
840.57	24684.17
840.75	24561.29
840.93	24458.89
841.10	24555.15
841.28	24866.44
841.46	24536.71
841.63	24827.53
841.81	24540.81
841.98	24546.95
842.16	24798.85
842.34	24200.85
842.51	24313.48
842.69	24483.47
842.87	24432.27
843.04	24688.26
843.22	24090.26
843.40	24360.59
843.57	24237.71
843.75	24329.87
843.92	24350.35
844.10	24143.50
844.28	24309.39
844.45	24346.25
844.63	24163.98
844.81	23944.85
844.98	24366.73
845.16	23914.13
845.33	24034.96
845.51	24168.08
845.69	23760.53
845.86	23643.80
846.04	23641.75
846.21	23754.39
846.39	23828.12
846.57	23670.42
846.74	23660.18
846.92	23830.16
847.09	23637.66
847.27	23537.30
847.45	23533.21
847.62	23631.51
847.80	23854.74
847.97	23441.05
848.15	23654.04
848.32	23273.12
848.50	23850.64
848.68	23193.25
848.85	23144.09
849.03	22869.67
849.20	23613.08
849.38	23299.74
849.56	23365.28
849.73	23105.18
849.91	23176.86
850.08	23629.46
850.26	22861.48
850.43	23068.32
850.61	23129.76
850.78	22707.88
850.96	22953.63
851.14	22789.80
851.31	22961.83
851.49	23006.88
851.66	23010.98
851.84	22873.76
852.01	22871.72
852.19	22978.21
852.36	22824.61
852.54	22781.60
852.71	22806.18
852.89	22650.53
853.07	22836.90
853.24	22630.05
853.42	22505.13
853.59	22484.65
853.77	22619.81
853.94	22673.06
854.12	22664.87
854.29	22519.46
854.47	22501.03
854.64	22394.54
854.82	22523.56
854.99	22380.20
855.17	22519.46
855.34	22326.96
855.52	22290.09
855.69	22482.60
855.87	22122.16
856.04	22140.59
856.22	22101.68
856.39	22220.46
856.57	22343.34
856.74	22021.81
856.92	22118.06
857.09	21788.34
857.27	22191.79
857.44	22056.62
857.62	22179.50
857.79	22017.71
857.97	22025.90
858.14	22109.87
858.32	21960.37
858.49	21913.27
858.67	21782.20
858.84	21827.25
859.02	21704.37
859.19	21526.20
859.37	21630.65
859.54	21749.43
859.72	21581.49
859.89	21823.16
860.06	21630.65
860.24	21501.62
860.41	21561.02
860.59	21145.28
860.76	21563.06
860.94	21710.52
861.11	21366.46
861.29	21642.93
861.46	21464.76
861.64	21186.24
861.81	21399.23
861.98	21274.30
862.16	21194.43
862.33	21157.57
862.51	21063.36
862.68	21282.49
862.86	21274.30
863.03	21282.49
863.21	20911.81
863.38	21380.79
863.55	21096.13
863.73	20952.77
863.90	21096.13
864.08	20960.96
864.25	21006.02
864.43	21024.45
864.60	20707.01
864.77	20881.09
864.95	20899.52
865.12	20821.70
865.30	20725.44
865.47	20805.31
865.64	20874.95
865.82	20731.59
865.99	20764.36
866.17	20639.43
866.34	20604.61
866.51	20383.43
866.69	20741.83
866.86	20451.02
867.04	20432.58
867.21	20457.16
867.38	20534.98
867.56	20377.29
867.73	20291.27
867.91	20072.14
868.08	20362.95
868.25	20057.81
868.43	19977.94
868.60	20100.81
868.78	19963.60
868.95	20139.72
869.12	19977.94
869.30	20010.70
869.47	20006.61
869.64	19953.36
869.82	20047.57
869.99	20260.55
870.16	20158.16
870.34	19812.05
870.51	19955.41
870.69	19621.59
870.86	19977.94
871.03	19721.94
871.21	19480.28
871.38	19807.95
871.55	19388.12
871.73	19570.39
871.90	19531.48
872.07	19449.56
872.25	19324.63
872.42	19381.98
872.59	19576.53
872.77	19457.75
872.94	19449.56
873.11	19302.11
873.29	19584.73
873.46	19199.71
873.63	19072.73
873.81	19402.46
873.98	18984.67
874.15	18966.24
874.33	18884.32
874.50	18616.04
874.67	18994.91
874.85	18759.39
875.02	18917.09
875.19	18566.88
875.37	18855.65
875.54	18847.46
875.71	18978.53
875.88	18773.73
876.06	18618.08
876.23	18902.75
876.40	18599.65
876.58	18403.05
876.75	18525.93
876.92	18482.92
877.10	18593.51
877.27	18319.08
877.44	18411.24
877.61	17751.79
877.79	18405.10
877.96	18118.38
878.13	18114.28
878.31	18130.67
878.48	18214.63
878.65	18231.02
878.82	17927.92
879.00	17960.69
879.17	18099.95
879.34	17825.52
879.51	18038.51
879.69	17768.18
879.86	17696.50
880.03	17684.21
880.21	17731.31
880.38	17788.66
880.55	17719.03
880.72	17618.68
880.90	17759.98
881.07	17587.96
881.24	17639.15
881.41	17659.63
881.59	17645.30
881.76	17626.87
881.93	17428.21
882.10	17262.33
882.28	17362.68
882.45	17678.07
882.62	17710.83
882.79	17497.84
882.96	17315.58
883.14	17286.90
883.31	17387.25
883.48	17182.46
883.65	17215.23
883.83	17155.83
884.00	17374.97
884.17	17211.13
884.34	17295.10
884.51	17161.98
884.69	17073.92
884.86	17235.70
885.03	17141.50
885.20	17061.63
885.38	17143.55
885.55	17329.91
885.72	16996.09
885.89	16752.38
886.06	17051.39
886.24	16883.45
886.41	16838.40
886.58	16869.12
886.75	17080.06
886.92	16723.71
887.10	16967.42
887.27	16713.47
887.44	16731.90
887.61	16926.46
887.78	17047.29
887.95	16715.52
888.13	16520.96
888.30	16629.51
888.47	16355.08
888.64	16518.92
888.81	16418.57
888.99	16398.09
889.16	16273.16
889.33	16412.42
889.50	16365.32
889.67	16367.37
889.84	16348.93
890.01	16264.97
890.19	16563.97
890.36	16299.78
890.53	16203.53
890.70	16172.81
890.87	16054.03
891.04	16021.26
891.22	16113.42
891.39	15976.20
891.56	15900.43
891.73	15929.10
891.90	16119.56
892.07	15791.89
892.24	16205.58
892.42	15943.44
892.59	15695.63
892.76	15605.52
892.93	15814.41
893.10	16045.84
893.27	15824.65
893.44	15818.51
893.61	15738.64
893.79	15714.06
893.96	15501.08
894.13	15550.23
894.30	15808.27
894.47	15464.21
894.64	15714.06
894.81	15607.57
894.98	15707.92
895.15	15650.58
895.33	15443.73
895.50	15507.22
895.67	15697.68
895.84	15539.99
896.01	15570.71
896.18	15427.35
896.35	15671.06
896.52	15488.79
896.69	15320.85
896.86	15421.20
897.04	15763.22
897.21	15421.20
897.38	15400.72
897.55	15406.87
897.72	15582.99
897.89	15355.67
898.06	15634.19
898.23	15582.99
898.40	15611.67
898.57	15310.61
898.74	15396.63
898.91	15159.06
899.08	15357.72
899.26	15486.74
899.43	15468.31
899.60	15263.51
899.77	15152.92
899.94	15288.09
900.11	15056.67
900.28	15378.20
900.45	15249.18
900.62	14995.23
900.79	15425.30
900.96	15269.66
901.13	15296.28
901.30	15042.33
901.47	15148.82
901.64	15505.17
901.81	15064.86
901.98	15171.35
902.15	15372.05
902.32	15359.77
902.49	15327.00
902.66	15443.73
902.83	15046.43
903.01	15197.98
903.18	15245.08
903.35	15343.38
903.52	15320.85
903.69	15183.64
903.86	15392.53
904.03	15318.81
904.20	15443.73
904.37	15365.91
904.54	15195.93
904.71	15204.12
904.88	15089.43
905.05	14919.45
905.22	15097.63
905.39	15114.01
905.56	15097.63
905.73	15027.99
905.90	15048.47
906.07	15058.71
906.24	15376.15
906.41	15286.04
906.58	15122.20
906.75	15222.55
906.92	14909.21
907.09	15122.20
907.26	15238.94
907.43	15027.99
907.60	15056.67
907.77	15249.18
907.93	15210.26
908.10	14999.32
908.27	15261.46
908.44	15089.43
908.61	15097.63
908.78	15058.71
908.95	14962.46
909.12	14905.12
909.29	15283.99
909.46	15040.28
909.63	15034.14
909.80	15099.67
909.97	15042.33
910.14	14927.64
910.31	14757.66
910.48	14825.25
910.65	14905.12
910.82	14645.02
910.99	14960.41
911.16	14915.36
911.33	14694.18
911.50	14749.47
911.66	14602.02
911.83	14802.72
912.00	14681.89
912.17	14464.80
912.34	14595.87
912.51	14589.73
912.68	14427.94
912.85	14356.26
913.02	14526.24
913.19	14563.11
913.36	14720.80
913.53	14559.01
913.70	14364.45
913.86	14432.04
914.03	14595.87
914.20	14473.00
914.37	14315.30
914.54	14182.18
914.71	14397.22
914.88	14223.14
915.05	14346.02
915.22	13952.81
915.39	14014.25
915.55	14278.44
915.72	13920.04
915.89	13985.58
916.06	13852.46
916.23	13958.96
916.40	13774.64
916.57	13889.32
916.74	13885.23
916.91	13879.08
917.07	13608.75
917.24	13659.95
917.41	13770.54
917.58	13645.62
917.75	13899.56
917.92	13387.57
918.09	13489.97
918.26	13713.20
918.42	13713.20
918.59	13549.36
918.76	13520.69
918.93	13299.51
919.10	13354.80
919.27	13520.69
919.44	13471.54
919.60	13442.87
919.77	13305.65
919.94	13250.36
920.11	13119.29
920.28	13137.72
920.45	12857.15
920.61	13070.14
920.78	13061.94
920.95	12724.03
921.12	12771.13
921.29	12810.04
921.46	12764.99
921.62	12500.80
921.79	12934.97
921.96	12697.41
922.13	12490.56
922.30	12672.83
922.47	12597.06
922.63	12162.89
922.80	12326.72
922.97	12322.63
923.14	12234.57
923.31	12179.27
923.47	12109.64
923.64	12437.31
923.81	12212.04
923.98	12189.51
924.15	12183.37
924.32	12142.41
924.48	12148.55
924.65	12166.98
924.82	11827.02
924.99	11929.42
925.15	11738.96
925.32	11980.62
925.49	11620.17
925.66	11636.56
925.83	11622.22
925.99	11579.22
926.16	11718.48
926.33	11538.26
926.50	11394.90
926.67	11573.07
926.83	11339.60
927.00	11382.61
927.17	11321.17
927.34	11229.01
927.50	11325.27
927.67	11638.61
927.84	11321.17
928.01	11095.89
928.17	11163.48
928.34	10880.86
928.51	10919.77
928.68	10999.64
928.84	10786.65
929.01	10868.57
929.18	10817.37
929.35	10647.39
929.51	10809.18
929.68	10612.57
929.85	10594.14
930.02	10606.43
930.18	10243.94
930.35	10452.83
930.52	10276.71
930.69	10481.50
930.85	10555.23
931.02	10192.74
931.19	10262.37
931.36	10033.00
931.52	10313.57
931.69	10366.82
931.86	10082.15
932.02	10020.71
932.19	9949.03
932.36	9850.73
932.53	9957.22
932.69	9944.94
932.86	9912.17
933.03	9742.19
933.19	9832.30
933.36	9834.35
933.53	9738.09
933.70	9637.74
933.86	9670.51
934.03	9574.25
934.20	9375.60
934.36	9613.17
934.53	9326.45
934.70	9254.77
934.86	9410.42
935.03	8925.05
935.20	8935.29
935.36	9207.67
935.53	8963.96
935.70	8757.11
935.86	8900.47
936.03	8544.13
936.20	8630.14
936.36	8464.25
936.53	8589.18
936.70	8503.17
936.86	8384.38
937.03	8316.80
937.20	8247.17
937.36	8216.45
937.53	7954.31
937.70	8038.28
937.86	7759.75
938.03	7853.96
938.20	7925.64
938.36	7686.03
938.53	7737.23
938.70	7389.07
938.86	7554.96
939.03	7352.21
939.20	7387.02
939.36	7346.06
939.53	7219.09
939.70	7319.44
939.86	6897.56
940.03	6842.26
940.19	6780.82
940.36	6877.08
940.53	6864.79
940.69	6684.57
940.86	6426.53
941.03	6528.92
941.19	6516.64
941.36	6369.18
941.52	6449.05
941.69	6197.15
941.86	6180.77
942.02	6172.58
942.19	6070.18
942.35	6203.30
942.52	6029.22
942.69	5988.26
942.85	5918.63
943.02	5957.54
943.18	5904.29
943.35	5762.98
943.52	5695.40
943.68	5607.34
943.85	5584.81
944.01	5582.76
944.18	5660.59
944.35	5519.28
944.51	5572.52
944.68	5351.34
944.84	5447.60
945.01	5357.49
945.17	5431.21
945.34	5320.62
945.51	5547.95
945.67	5394.35
945.84	5474.22
946.00	5271.47
946.17	5328.81
946.33	5228.46
946.50	5296.05
946.67	5267.38
946.83	5361.58
947.00	5320.62
947.16	5322.67
947.33	5283.76
947.49	5244.85
947.66	5326.77
947.82	5334.96
947.99	5261.23
948.16	5302.19
948.32	5363.63
948.49	5404.59
948.65	5369.77
948.82	5306.29
948.98	5353.39
949.15	5214.13
949.31	5187.50
949.48	5357.49
949.64	5201.84
949.81	5236.66
949.97	5236.66
950.14	5285.81
950.30	5244.85
950.47	5359.53
950.63	5271.47
950.80	5285.81
950.96	5291.95
951.13	5314.48
951.30	5343.15
951.46	5244.85
951.63	5539.76
951.79	5431.21
951.96	5341.10
952.12	5351.34
952.29	5289.90
952.45	5326.77
952.62	5361.58
952.78	5377.97
952.94	5445.55
953.11	5472.17
953.27	5142.45
953.44	5453.74
953.60	5418.93
953.77	5490.60
953.93	5423.02
954.10	5478.32
954.26	5369.77
954.43	5275.57
954.59	5547.95
954.76	5541.80
954.92	5404.59
955.09	5353.39
955.25	5480.36
955.42	5509.04
955.58	5595.05
955.75	5451.69
955.91	5294.00
956.07	5439.40
956.24	5345.20
956.40	5480.36
956.57	5466.03
956.73	5580.71
956.90	5547.95
957.06	5480.36
957.23	5476.27
957.39	5296.05
957.56	5277.62
957.72	5480.36
957.88	5566.38
958.05	5590.95
958.21	5609.39
958.38	5488.56
958.54	5431.21
958.71	5605.29
958.87	5461.93
959.03	5400.49
959.20	5382.06
959.36	5496.75
959.53	5359.53
959.69	5531.56
959.85	5543.85
960.02	5472.17
960.18	5482.41
960.35	5502.89
960.51	5423.02
960.68	5582.76
960.84	5521.32
961.00	5582.76
961.17	5425.07
961.33	5490.60
961.50	5509.04
961.66	5488.56
961.82	5382.06
961.99	5427.12
962.15	5441.45
962.31	5449.64
962.48	5400.49
962.64	5574.57
962.81	5449.64
962.97	5337.01
963.13	5466.03
963.30	5550.00
963.46	5285.81
963.62	5345.20
963.79	5316.53
963.95	5300.14
964.12	5431.21
964.28	5320.62
964.44	5238.70
964.61	5363.63
964.77	5328.81
964.93	5408.69
965.10	5392.30
965.26	5400.49
965.42	5490.60
965.59	5414.83
965.75	5425.07
965.92	5300.14
966.08	5377.97
966.24	5320.62
966.41	5334.96
966.57	5341.10
966.73	5214.13
966.90	5369.77
967.06	5185.46
967.22	5341.10
967.39	5240.75
967.55	5304.24
967.71	5271.47
967.88	5150.64
968.04	5089.20
968.20	5218.22
968.37	5246.90
968.53	5210.03
968.69	5250.99
968.85	5312.43
969.02	5183.41
969.18	5136.31
969.34	5117.87
969.51	5218.22
969.67	5158.83
969.83	5019.57
970.00	5248.94
970.16	5156.79
970.32	5099.44
970.48	5281.71
970.65	5136.31
970.81	5099.44
970.97	5103.54
971.14	4947.89
971.30	5027.76
971.46	5015.48
971.63	5029.81
971.79	5271.47
971.95	5085.11
972.11	4951.99
972.28	4865.97
972.44	4974.52
972.60	4937.65
972.76	5070.77
972.93	4945.84
973.09	5103.54
973.25	4941.75
973.42	4956.08
973.58	5029.81
973.74	5062.58
973.90	4913.08
974.07	4839.35
974.23	4863.93
974.39	4898.74
974.55	4882.36
974.72	4874.17
974.88	4990.90
975.04	4931.51
975.20	4784.06
975.37	4886.45
975.53	4808.63
975.69	4906.93
975.85	4779.96
976.01	4669.37
976.18	4788.15
976.34	4665.27
976.50	4741.05
976.66	4902.84
976.83	4732.86
976.99	4704.18
977.15	4769.72
977.31	4704.18
977.47	4861.88
977.64	4718.52
977.80	4706.23
977.96	4747.19
978.12	4726.71
978.29	4640.70
978.45	4530.11
978.61	4558.78
978.77	4669.37
978.93	4507.58
979.10	4605.88
979.26	4630.46
979.42	4648.89
979.58	4394.94
979.74	4452.28
979.91	4612.03
980.07	4437.95
980.23	4501.44
980.39	4513.72
980.55	4452.28
980.71	4478.91
980.88	4394.94
981.04	4392.89
981.20	4347.84
981.36	4433.85
981.52	4370.37
981.68	4323.26
981.85	4505.53
982.01	4464.57
982.17	4331.45
982.33	4337.60
982.49	4415.42
982.65	4331.45
982.82	4317.12
982.98	4255.68
983.14	4181.95
983.30	4515.77
983.46	4280.25
983.62	4151.23
983.79	4347.84
983.95	4198.34
984.11	4140.99
984.27	4280.25
984.43	4161.47
984.59	4175.81
984.75	4267.97
984.91	4229.06
985.08	4198.34
985.24	4001.73
985.40	4063.17
985.56	4106.18
985.72	4108.23
985.88	4202.43
986.04	4079.55
986.20	4050.88
986.37	4071.36
986.53	3827.65
986.69	4134.85
986.85	4024.26
987.01	4075.46
987.17	4128.70
987.33	3950.53
987.49	3993.54
987.65	4063.17
987.82	4009.92
987.98	4001.73
988.14	3907.52
988.30	4028.35
988.46	3925.96
988.62	4032.45
988.78	3858.37
988.94	3798.98
989.10	3856.33
989.26	3760.07
989.42	3829.70
989.59	3805.13
989.75	3669.96
989.91	3909.57
990.07	3731.40
990.23	3876.80
990.39	3792.84
990.55	3827.65
990.71	3794.89
990.87	3706.82
991.03	3841.99
991.19	3686.34
991.35	3661.77
991.51	3764.17
991.67	3907.52
991.83	3747.78
992.00	3809.22
992.16	3712.97
992.32	3682.25
992.48	3784.65
992.64	3678.15
992.80	3792.84
992.96	3702.73
993.12	3770.31
993.28	3780.55
993.44	3565.51
993.60	3661.77
993.76	3663.82
993.92	3706.82
994.08	3534.79
994.24	3540.94
994.40	3647.43
994.56	3629.00
994.72	3569.61
994.88	3487.69
995.04	3489.74
995.20	3506.12
995.36	3315.66
995.52	3532.75
995.68	3536.84
995.84	3479.50
996.00	3510.22
996.16	3346.38
996.32	3373.00
996.48	3358.67
996.64	3540.94
996.80	3454.92
996.96	3383.24
997.12	3452.88
997.28	3403.72
997.44	3397.58
997.60	3395.53
997.76	3313.61
997.92	3354.57
998.08	3411.92
998.24	3301.33
998.40	3416.01
998.56	3295.18
998.72	3186.64
998.88	3264.46
999.04	3264.46
999.20	3405.77
999.36	3215.31
999.52	3284.94
999.68	3366.86
999.84	3311.57
1000.00	3305.42
1000.16	3360.72
1000.32	3186.64
1000.48	3219.41
1000.64	3061.71
1000.80	3059.67
1000.95	2973.65
1001.11	3188.69
1001.27	3168.21
1001.43	3196.88
1001.59	3129.30
1001.75	3045.33
1001.91	3004.37
1002.07	3012.56
1002.23	2940.88
1002.39	3057.62
1002.55	2924.50
1002.71	3030.99
1002.87	2977.75
1003.03	3059.67
1003.19	3002.32
1003.34	3022.80
1003.50	3018.71
1003.66	2975.70
1003.82	2846.68
1003.98	2850.77
1004.14	2953.17
1004.30	2748.37
1004.46	2811.86
1004.62	2961.36
1004.78	2895.83
1004.94	2854.87
1005.09	2994.13
1005.25	2793.43
1005.41	2875.35
1005.57	2707.41
1005.73	2715.61
1005.89	2717.65
1006.05	2826.20
1006.21	2922.45
1006.37	2568.15
1006.52	2691.03
1006.68	2568.15
1006.84	2762.71
1007.00	2705.37
1007.16	2832.34
1007.32	2695.13
1007.48	2791.38
1007.64	2674.65
1007.79	2662.36
1007.95	2629.59
1008.11	2748.37
1008.27	2684.89
1008.43	2562.01
1008.59	2699.22
1008.75	2678.74
1008.91	2629.59
1009.06	2555.86
1009.22	2637.78
1009.38	2592.73
1009.54	2600.92
1009.70	2437.08
1009.86	2559.96
1010.01	2527.19
1010.17	2492.38
1010.33	2650.07
1010.49	2615.26
1010.65	2764.76
1010.81	2445.27
1010.96	2521.05
1011.12	2351.07
1011.28	2379.74
1011.44	2488.28
1011.60	2500.57
1011.76	2443.23
1011.91	2373.60
1012.07	2367.45
1012.23	2326.49
1012.39	2406.36
1012.55	2361.31
1012.71	2502.62
1012.86	2301.92
1013.02	2353.12
1013.18	2340.83
1013.34	2453.47
1013.50	2435.03
1013.65	2328.54
1013.81	2340.83
1013.97	2381.79
1014.13	2353.12
1014.29	2256.86
1014.44	2322.40
1014.60	2328.54
1014.76	2258.91
1014.92	2131.94
1015.07	2183.13
1015.23	2459.61
1015.39	2269.15
1015.55	2299.87
1015.71	2287.58
1015.86	2260.96
1016.02	2148.32
1016.18	2076.64
1016.34	2181.09
1016.49	2138.08
1016.65	2232.29
1016.81	2162.66
1016.97	2125.79
1017.12	2269.15
1017.28	2142.18
1017.44	2033.63
1017.60	2258.91
1017.75	2164.70
1017.91	2099.17
1018.07	2160.61
1018.23	2109.41
1018.38	2060.26
1018.54	2076.64
1018.70	2240.48
1018.86	2115.55
1019.01	2093.02
1019.17	2238.43
1019.33	2199.52
1019.49	1923.04
1019.64	2050.02
1019.80	2060.26
1019.96	2027.49
1020.12	2084.83
1020.27	1986.53
1020.43	1961.95
1020.59	2072.54
1020.74	2150.37
1020.90	2000.87
1021.06	1937.38
1021.22	2068.45
1021.37	1886.18
1021.53	2064.35
1021.69	2023.39
1021.84	1847.27
1022.00	2037.73
1022.16	2023.39
1022.31	1951.71
1022.47	2025.44
1022.63	1929.19
1022.79	1888.23
1022.94	1923.04
1023.10	2187.23
1023.26	1882.08
1023.41	1875.94
1023.57	1771.49
1023.73	1961.95
1023.88	1982.43
1024.04	1908.71
1024.20	1855.46
1024.35	1931.23
1024.51	2033.63
1024.67	1974.24
1024.82	2007.01
1024.98	1863.65
1025.14	1804.26
1025.29	1820.64
1025.45	1859.56
1025.61	1816.55
1025.76	1810.40
1025.92	1804.26
1026.08	1888.23
1026.23	1918.95
1026.39	1929.19
1026.55	1884.13
1026.70	1888.23
1026.86	1910.75
1027.02	1959.91
1027.17	1871.84
1027.33	1871.84
1027.48	1814.50
1027.64	1845.22
1027.80	1851.36
1027.95	1865.70
1028.11	1646.57
1028.27	1828.84
1028.42	1863.65
1028.58	1822.69
1028.73	1748.97
1028.89	1691.62
1029.05	1937.38
1029.20	1785.83
>>>>>End Processed Spectral Data<<<<<
