SpectraSuite Data File
++++++++++++++++++++++++++++++++++++
Date: Fri Jun 02 14:53:29 CEST 2017
User: INFO_000
Dark Spectrum Present: No
Reference Spectrum Present: No
Number of Sampled Component Spectra: 1
Spectrometers: USB4H00879
Integration Time (usec): 80000 (USB4H00879)
Spectra Averaged: 1 (USB4H00879)
Boxcar Smoothing: 0 (USB4H00879)
Correct for Electrical Dark: No (USB4H00879)
Strobe/Lamp Enabled: No (USB4H00879)
Correct for Detector Non-linearity: No (USB4H00879)
Correct for Stray Light: No (USB4H00879)
Number of Pixels in Processed Spectrum: 3648
>>>>>Begin Processed Spectral Data<<<<<
345.13	1261.55
345.34	1261.55
345.56	1261.55
345.78	1269.74
345.99	1263.60
346.21	1689.57
346.42	1705.96
346.64	1677.29
346.86	1826.79
347.07	1634.28
347.29	1642.47
347.50	1527.78
347.72	1662.95
347.94	1728.49
348.15	1603.56
348.37	1603.56
348.59	1724.39
348.80	1689.57
349.02	1783.78
349.23	1808.36
349.45	1841.12
349.67	1918.95
349.88	1730.53
350.10	1920.99
350.31	1808.36
350.53	1796.07
350.75	1972.19
350.96	1798.12
351.18	1855.46
351.39	1828.84
351.61	1828.84
351.82	1863.65
352.04	1880.04
352.26	1837.03
352.47	1908.71
352.69	1853.41
352.90	1757.16
353.12	1847.27
353.34	1822.69
353.55	1937.38
353.77	1910.75
353.98	1802.21
354.20	1820.64
354.41	1902.56
354.63	1945.57
354.85	1941.47
355.06	1839.08
355.28	1697.77
355.49	1890.28
355.71	1902.56
355.92	1884.13
356.14	1894.37
356.35	1855.46
356.57	1847.27
356.79	1953.76
357.00	1875.94
357.22	1951.71
357.43	1851.36
357.65	1910.75
357.86	1806.31
358.08	1896.42
358.29	1886.18
358.51	1957.86
358.72	1972.19
358.94	1869.80
359.16	1898.47
359.37	1941.47
359.59	1951.71
359.80	2064.35
360.02	1867.75
360.23	2004.96
360.45	1978.34
360.66	1857.51
360.88	1867.75
361.09	1867.75
361.31	1978.34
361.52	1910.75
361.74	2050.02
361.95	2107.36
362.17	1951.71
362.38	2043.87
362.60	2068.45
362.81	2035.68
363.03	2052.06
363.24	1996.77
363.46	2023.39
363.67	1986.53
363.89	1984.48
364.10	1929.19
364.32	1951.71
364.53	2103.26
364.75	1904.61
364.96	1957.86
365.18	2045.92
365.39	1873.89
365.61	2047.97
365.82	2115.55
366.04	1984.48
366.25	1949.67
366.47	2078.69
366.68	2000.87
366.90	2011.11
367.11	2152.42
367.33	2103.26
367.54	2109.41
367.76	2062.30
367.97	2176.99
368.19	2011.11
368.40	2084.83
368.62	2047.97
368.83	2013.15
369.05	2039.78
369.26	2000.87
369.48	2017.25
369.69	1943.52
369.91	2123.74
370.12	2002.91
370.33	2093.02
370.55	2015.20
370.76	2035.68
370.98	2086.88
371.19	2133.98
371.41	2066.40
371.62	2050.02
371.84	2037.73
372.05	2258.91
372.27	2088.93
372.48	2164.70
372.69	2074.59
372.91	2183.13
373.12	2093.02
373.34	2082.78
373.55	2230.24
373.77	2138.08
373.98	2179.04
374.20	2213.85
374.41	2222.05
374.62	2123.74
374.84	2168.80
375.05	2154.46
375.27	2174.94
375.48	2263.01
375.70	2133.98
375.91	2211.81
376.12	2353.12
376.34	2181.09
376.55	2199.52
376.77	2246.62
376.98	2142.18
377.19	2189.28
377.41	2138.08
377.62	2254.81
377.84	2289.63
378.05	2371.55
378.27	2271.20
378.48	2283.49
378.69	2326.49
378.91	2297.82
379.12	2277.34
379.34	2248.67
379.55	2316.25
379.76	2316.25
379.98	2260.96
380.19	2295.77
380.41	2258.91
380.62	2328.54
380.83	2287.58
381.05	2170.85
381.26	2465.75
381.47	2250.72
381.69	2349.02
381.90	2445.27
382.12	2293.72
382.33	2244.57
382.54	2334.68
382.76	2283.49
382.97	2342.88
383.19	2326.49
383.40	2306.01
383.61	2349.02
383.83	2293.72
384.04	2394.08
384.25	2445.27
384.47	2396.12
384.68	2392.03
384.89	2306.01
385.11	2312.16
385.32	2398.17
385.54	2303.96
385.75	2295.77
385.96	2514.91
386.18	2424.80
386.39	2543.58
386.60	2396.12
386.82	2488.28
387.03	2369.50
387.24	2506.71
387.46	2527.19
387.67	2504.67
387.88	2482.14
388.10	2469.85
388.31	2461.66
388.52	2488.28
388.74	2461.66
388.95	2494.43
389.16	2549.72
389.38	2473.95
389.59	2562.01
389.80	2664.41
390.02	2488.28
390.23	2650.07
390.44	2500.57
390.66	2555.86
390.87	2504.67
391.08	2654.17
391.30	2752.47
391.51	2705.37
391.72	2752.47
391.94	2641.88
392.15	2625.50
392.36	2617.30
392.58	2605.02
392.79	2600.92
393.00	2668.50
393.22	2760.66
393.43	2756.57
393.64	2789.33
393.85	2799.57
394.07	2691.03
394.28	2693.08
394.49	2793.43
394.71	2748.37
394.92	2830.29
395.13	2721.75
395.35	2717.65
395.56	2815.96
395.77	2805.72
395.98	2820.05
396.20	2879.44
396.41	2791.38
396.62	2875.35
396.84	2834.39
397.05	2811.86
397.26	2854.87
397.47	2992.08
397.69	2838.48
397.90	3037.14
398.11	2975.70
398.32	2858.96
398.54	2955.22
398.75	2985.94
398.96	2899.92
399.18	3133.39
399.39	2940.88
399.60	3055.57
399.81	2987.99
400.03	2983.89
400.24	3358.67
400.45	3024.85
400.66	3076.05
400.88	3012.56
401.09	3319.76
401.30	2969.55
401.51	3151.82
401.73	3176.40
401.94	3088.34
402.15	3110.86
402.36	3117.01
402.58	3063.76
402.79	3327.95
403.00	3213.26
403.21	3168.21
403.43	3209.17
403.64	3284.94
403.85	3114.96
404.06	3360.72
404.27	3129.30
404.49	3231.69
404.70	3139.54
404.91	3248.08
405.12	3252.17
405.34	3274.70
405.55	3368.91
405.76	3108.82
405.97	3313.61
406.19	3358.67
406.40	3211.22
406.61	3463.12
406.82	3364.81
407.03	3286.99
407.25	3342.28
407.46	3510.22
407.67	3407.82
407.88	3559.37
408.09	3311.57
408.31	3362.76
408.52	3448.78
408.73	3436.49
408.94	3418.06
409.15	3399.63
409.37	3444.68
409.58	3573.71
409.79	3338.19
410.00	3571.66
410.21	3465.16
410.43	3473.36
410.64	3434.44
410.85	3510.22
411.06	3510.22
411.27	3545.03
411.48	3635.14
411.70	3479.50
411.91	3563.47
412.12	3655.62
412.33	3612.62
412.54	3579.85
412.76	3674.06
412.97	3778.50
413.18	3596.23
413.39	3710.92
413.60	3688.39
413.81	3696.58
414.03	3624.90
414.24	3735.50
414.45	3874.76
414.66	3583.95
414.87	3702.73
415.08	3813.32
415.30	3712.97
415.51	3813.32
415.72	3872.71
415.93	3772.36
416.14	3821.51
416.35	3684.30
416.56	3925.96
416.78	3973.06
416.99	3893.19
417.20	3829.70
417.41	3766.21
417.62	3934.15
417.83	3909.57
418.04	3891.14
418.26	3893.19
418.47	4011.97
418.68	3944.39
418.89	4054.98
419.10	4118.47
419.31	3946.44
419.52	4001.73
419.73	4112.32
419.95	4106.18
420.16	3973.06
420.37	4085.70
420.58	4157.38
420.79	3889.09
421.00	4143.04
421.21	4272.06
421.42	4044.74
421.63	4155.33
421.85	4173.76
422.06	4253.63
422.27	4188.10
422.48	4247.49
422.69	4302.78
422.90	4308.93
423.11	4224.96
423.32	4519.87
423.53	4452.28
423.75	4364.22
423.96	4607.93
424.17	4425.66
424.38	4587.45
424.59	4495.29
424.80	4724.66
425.01	4585.40
425.22	4427.71
425.43	4349.89
425.64	4650.94
425.85	4757.43
426.06	4673.46
426.28	4632.51
426.49	4509.63
426.70	4616.12
426.91	4579.26
427.12	4868.02
427.33	4700.09
427.54	4603.83
427.75	4751.29
427.96	4962.23
428.17	4837.30
428.38	4964.28
428.59	4870.07
428.80	4800.44
429.01	4925.36
429.23	5031.86
429.44	4992.95
429.65	4917.17
429.86	4941.75
430.07	4929.46
430.28	4853.69
430.49	5066.67
430.70	5089.20
430.91	5232.56
431.12	5083.06
431.33	5277.62
431.54	5119.92
431.75	5175.22
431.96	5109.68
432.17	5144.50
432.38	5238.70
432.59	5543.85
432.80	5343.15
433.01	5339.05
433.22	5494.70
433.43	5296.05
433.64	5343.15
433.85	5066.67
434.06	5384.11
434.27	5197.74
434.49	5392.30
434.70	5566.38
434.91	5414.83
435.12	5496.75
435.33	5402.54
435.54	5506.99
435.75	5318.57
435.96	5511.08
436.17	5459.88
436.38	5687.21
436.59	5787.56
436.80	5529.52
437.01	5820.33
437.22	5840.81
437.43	5679.02
437.64	5492.65
437.85	5728.17
438.06	5859.24
438.27	5687.21
438.48	5660.59
438.69	5805.99
438.90	5771.18
439.11	5863.33
439.32	5920.68
439.53	5818.28
439.74	6043.56
439.95	5820.33
440.16	5957.54
440.37	5998.50
440.57	5791.66
440.78	5865.38
440.99	5998.50
441.20	5918.63
441.41	5926.82
441.62	6029.22
441.83	5998.50
442.04	6211.49
442.25	6164.39
442.46	5988.26
442.67	6049.70
442.88	6524.83
443.09	6010.79
443.30	6168.48
443.51	6213.54
443.72	6422.43
443.93	6281.12
444.14	6549.40
444.35	6014.88
444.56	6326.18
444.77	6365.09
444.98	6397.85
445.19	6537.12
445.40	6412.19
445.61	6418.33
445.81	6524.83
446.02	6358.94
446.23	6506.40
446.44	6256.54
446.65	6543.26
446.86	6561.69
447.07	6569.88
447.28	6674.33
447.49	6778.78
447.70	6555.55
447.91	6827.93
448.12	6688.67
448.33	6868.89
448.54	6696.86
448.74	6619.04
448.95	6801.30
449.16	6760.34
449.37	6870.94
449.58	6801.30
449.79	7110.55
450.00	6635.42
450.21	7004.05
450.42	7026.58
450.63	7012.24
450.84	7004.05
451.05	7200.66
451.25	7212.95
451.46	6909.85
451.67	7085.97
451.88	7464.85
452.09	7335.82
452.30	7045.01
452.51	7065.49
452.72	7255.95
452.93	7624.59
453.13	7147.41
453.34	7475.09
453.55	7466.89
453.76	7417.74
453.97	7817.10
454.18	7413.65
454.39	7606.16
454.60	7602.06
454.81	7409.55
455.01	7769.99
455.22	7440.27
455.43	7714.70
455.64	8005.51
455.85	7845.77
456.06	8003.46
456.27	7884.68
456.48	7909.26
456.68	8042.37
456.89	7884.68
457.10	8107.91
457.31	7993.22
457.52	8163.20
457.73	8155.01
457.94	8331.14
458.14	8030.09
458.35	8365.95
458.56	8413.06
458.77	8202.11
458.98	8472.45
459.19	8331.14
459.39	8470.40
459.60	8566.65
459.81	8513.41
460.02	8705.92
460.23	8580.99
460.44	8793.98
460.65	8830.84
460.85	8875.90
461.06	8939.38
461.27	8632.19
461.48	9041.78
461.69	9207.67
461.89	8783.74
462.10	9076.60
462.31	8867.70
462.52	9176.95
462.73	9064.31
462.94	9365.36
463.14	9357.17
463.35	9146.23
463.56	9697.13
463.77	9482.10
463.98	9367.41
464.18	9367.41
464.39	9662.32
464.60	9830.25
464.81	9901.93
465.02	9672.56
465.23	9906.02
465.43	9908.07
465.64	10000.23
465.85	9867.11
466.06	9697.13
466.27	10401.63
466.47	10166.12
466.68	10184.55
466.89	10225.51
467.10	10407.78
467.30	10069.86
467.51	10501.98
467.72	10659.68
467.93	10129.25
468.14	10534.75
468.34	10571.61
468.55	10776.41
468.76	10760.03
468.97	10757.98
469.17	10790.75
469.38	11093.85
469.59	11181.91
469.80	10891.10
470.01	10915.67
470.21	10966.87
470.42	11325.27
470.63	11372.37
470.84	11226.96
471.04	11456.34
471.25	11419.47
471.46	11362.13
471.67	11562.83
471.87	11530.06
472.08	11659.09
472.29	11972.43
472.50	11724.62
472.70	11849.55
472.91	11853.64
473.12	12152.65
473.33	12023.62
473.53	12318.53
473.74	12046.15
473.95	12379.97
474.16	12408.64
474.36	12549.95
474.57	12537.66
474.78	12695.36
474.99	12599.10
475.19	12601.15
475.40	13078.33
475.61	13057.85
475.81	13102.90
476.02	13479.73
476.23	13158.20
476.44	13303.60
476.64	13522.74
476.85	13692.72
477.06	13504.31
477.27	13662.00
477.47	13621.04
477.68	13780.78
477.89	13946.67
478.09	13883.18
478.30	13963.05
478.51	13897.52
478.71	14315.30
478.92	14196.52
479.13	14458.66
479.34	14485.28
479.54	14663.46
479.75	14354.21
479.96	14733.09
480.16	14733.09
480.37	15001.37
480.58	15124.25
480.78	15152.92
480.99	15288.09
481.20	15468.31
481.41	15464.21
481.61	15359.77
481.82	15752.98
482.03	15640.34
482.23	15744.78
482.44	15894.29
482.65	15968.01
482.85	15867.66
483.06	16148.23
483.27	16172.81
483.47	16389.89
483.68	16482.05
483.89	16574.21
484.09	16451.33
484.30	16570.12
484.51	16551.68
484.71	16774.91
484.92	16684.80
485.13	17010.43
485.33	17155.83
485.54	16932.61
485.75	17334.01
485.95	17536.76
486.16	17657.59
486.37	17266.42
486.57	17536.76
486.78	17590.00
486.98	17764.08
487.19	17755.89
487.40	17827.57
487.60	18095.85
487.81	18405.10
488.02	18216.68
488.22	18083.56
488.43	18579.17
488.64	18452.20
488.84	18437.86
489.05	18437.86
489.25	18671.33
489.46	18824.93
489.67	18769.63
489.87	18884.32
490.08	19070.68
490.29	19140.32
490.49	19556.05
490.70	19115.74
490.90	19535.57
491.11	19775.19
491.32	19705.56
491.52	19648.21
491.73	19832.53
491.94	19961.55
492.14	19885.78
492.35	20285.13
492.55	20172.49
492.76	20336.33
492.97	20704.96
493.17	20530.89
493.38	20319.95
493.58	20895.43
493.79	20772.55
494.00	20967.10
494.20	21012.16
494.41	21112.51
494.61	21167.80
494.82	21413.56
495.02	21042.88
495.23	21368.51
495.44	21417.66
495.64	21784.24
495.85	21624.50
496.05	21900.98
496.26	21792.44
496.47	21745.33
496.67	21847.73
496.88	22075.06
497.08	21812.92
497.29	22265.52
497.49	22005.42
497.70	22294.19
497.91	22439.59
498.11	22754.98
498.32	22830.76
498.52	22589.10
498.73	23086.75
498.93	22996.64
499.14	22949.54
499.34	23111.33
499.55	23191.20
499.76	23283.36
499.96	23508.63
500.17	23406.23
500.37	23498.39
500.58	23439.00
500.78	23346.84
500.99	23723.67
501.19	23795.35
501.40	23969.43
501.60	23979.67
501.81	24094.35
502.02	24006.29
502.22	23830.16
502.43	24286.86
502.63	24485.51
502.84	24710.79
503.04	24530.57
503.25	24534.67
503.45	24845.96
503.66	24764.04
503.86	24620.68
504.07	25187.97
504.27	24694.41
504.48	25130.62
504.68	25130.62
504.89	25374.33
505.09	25636.47
505.30	25194.11
505.50	25257.60
505.71	25470.59
505.91	25478.78
506.12	25693.82
506.32	25577.08
506.53	25538.17
506.73	25824.89
506.94	25720.44
507.14	25847.41
507.35	25982.58
507.55	25939.57
507.76	26220.14
507.96	25921.14
508.17	26074.74
508.37	26541.68
508.58	26336.88
508.78	26406.51
508.99	26775.14
509.19	26721.90
509.40	26494.57
509.60	26474.09
509.81	26756.71
510.01	26900.07
510.22	26908.26
510.42	26828.39
510.63	27016.80
510.83	27106.91
511.04	27051.62
511.24	27088.48
511.44	27336.29
511.65	26928.74
511.85	27184.74
512.06	27139.68
512.26	27438.69
512.47	27676.25
512.67	27743.83
512.88	27565.66
513.08	27309.66
513.29	27934.29
513.49	27942.49
513.69	27739.74
513.90	27743.83
514.10	27831.90
514.31	27954.77
514.51	27936.34
514.72	27895.38
514.92	28264.02
515.13	28417.61
515.33	28364.37
515.53	28337.74
515.74	28358.22
515.94	28364.37
516.15	28474.96
516.35	28333.65
516.56	28515.92
516.76	28212.82
516.96	28868.17
517.17	28679.75
517.37	28714.57
517.58	28689.99
517.78	28943.94
517.99	28761.67
518.19	28956.23
518.39	29144.64
518.60	29195.84
518.80	29097.54
519.01	28915.27
519.21	29298.24
519.41	29396.54
519.62	29378.11
519.82	29675.07
520.03	29496.89
520.23	29507.13
520.43	29509.18
520.64	29679.16
520.84	30015.03
521.05	29613.63
521.25	29869.62
521.45	29918.78
521.66	30158.39
521.86	30228.02
522.07	29918.78
522.27	30240.31
522.47	29914.68
522.68	30244.40
522.88	30174.77
523.08	30668.33
523.29	30553.65
523.49	30737.96
523.70	30703.15
523.90	30852.65
524.10	31120.93
524.31	30723.63
524.51	30602.80
524.71	31243.81
524.92	31131.17
525.12	31165.99
525.33	30987.82
525.53	31237.67
525.73	31260.20
525.94	31518.24
526.14	31792.67
526.34	31565.34
526.55	31839.77
526.75	31481.38
526.95	31755.80
527.16	31247.91
527.36	31766.04
527.56	32316.95
527.77	32665.10
527.97	32275.99
528.17	31917.59
528.38	32118.29
528.58	32390.67
528.78	32611.85
528.99	32402.96
529.19	32773.64
529.39	32806.41
529.60	32824.84
529.80	33019.40
530.00	32765.45
530.21	32749.07
530.41	33164.81
530.61	33183.24
530.82	33181.19
531.02	33308.16
531.22	33193.48
531.43	33185.29
531.63	33711.61
531.83	33641.98
532.04	34350.58
532.24	33807.87
532.44	33904.12
532.64	34027.00
532.85	34280.95
533.05	34233.85
533.25	34369.01
533.46	34090.49
533.66	34833.90
533.86	34495.99
534.07	34754.03
534.27	34543.09
534.47	34930.16
534.67	35106.28
534.88	34745.84
535.08	35212.77
535.28	35030.51
535.49	35114.47
535.69	35206.63
535.89	35577.31
536.09	35550.69
536.30	35479.01
536.50	35896.80
536.70	35675.62
536.91	36095.45
537.11	35610.08
537.31	36091.35
537.51	35855.84
537.72	36115.93
537.92	36302.29
538.12	36705.74
538.32	36015.58
538.53	36488.66
538.73	36376.02
538.93	36738.51
539.13	36525.52
539.34	36326.87
539.54	36568.53
539.74	37402.05
539.94	36769.23
540.15	37074.38
540.35	37094.86
540.55	37344.71
540.75	37139.91
540.96	36947.40
541.16	37205.45
541.36	37410.25
541.56	37668.29
541.77	37967.29
541.97	37379.53
542.17	37795.26
542.37	37625.28
542.58	37918.14
542.78	38075.84
542.98	37793.22
543.18	37969.34
543.38	38034.88
543.59	38428.09
543.79	38024.64
543.99	38376.89
544.19	38579.64
544.40	38155.71
544.60	38962.61
544.80	38827.44
545.00	38411.70
545.20	38823.34
545.41	38405.56
545.61	38868.40
545.81	39212.46
546.01	39361.96
546.21	38749.62
546.42	39194.03
546.62	39134.63
546.82	39411.11
547.02	39245.23
547.22	39404.97
547.43	39626.15
547.63	39779.74
547.83	39703.97
548.03	39652.77
548.23	39947.68
548.44	39476.65
548.64	39642.53
548.84	39734.69
549.04	40056.22
549.24	40340.89
549.45	40680.85
549.65	40072.60
549.85	40078.75
550.05	40428.95
550.25	40111.52
550.45	40566.16
550.66	40832.40
550.86	40377.75
551.06	40660.37
551.26	40797.59
551.46	40842.64
551.66	40668.56
551.87	41246.09
552.07	40934.80
552.27	40936.85
552.47	41334.15
552.67	41573.77
552.87	41469.32
553.07	41463.18
553.28	41485.70
553.48	41637.25
553.68	41596.29
553.88	41584.01
554.08	41891.20
554.28	41776.51
554.48	41612.68
554.69	41792.90
554.89	41940.35
555.09	41887.10
555.29	41571.72
555.49	42628.47
555.69	41860.48
555.89	41962.88
556.10	42382.71
556.30	42040.70
556.50	42370.43
556.70	42497.40
556.90	42726.77
557.10	42409.34
557.30	41928.06
557.50	42583.41
557.70	42503.54
557.91	42483.06
558.11	42696.05
558.31	42833.27
558.51	42651.00
558.71	42972.53
558.91	43230.57
559.11	42917.23
559.31	43060.59
559.51	43074.93
559.72	43095.41
559.92	43158.89
560.12	42990.96
560.32	43416.94
560.52	43003.25
560.72	43468.14
560.92	43576.68
561.12	43521.38
561.32	43756.90
561.52	43648.36
561.72	43705.70
561.93	43537.77
562.13	43621.73
562.33	43453.80
562.53	44209.50
562.73	43550.06
562.93	43701.61
563.13	44283.23
563.33	43939.17
563.53	44268.89
563.73	43949.41
563.93	44217.69
564.13	44615.00
564.33	44014.94
564.53	44250.46
564.74	44674.39
564.94	43904.35
565.14	44516.70
565.34	44371.29
565.54	44658.01
565.74	44541.27
565.94	45004.11
566.14	44272.99
566.34	44397.91
566.54	45006.16
566.74	44713.30
566.94	44557.66
567.14	44963.15
567.34	44807.51
567.54	45282.64
567.74	45090.13
567.94	44520.79
568.14	45448.52
568.34	45315.40
568.54	45387.08
568.74	45389.13
568.94	45245.77
569.14	45356.36
569.34	45471.05
569.54	45307.21
569.75	44981.59
569.95	45589.83
570.15	45733.19
570.35	45978.95
570.55	45606.22
570.75	45602.12
570.95	45765.96
571.15	45860.16
571.35	45946.18
571.55	45796.68
571.75	45901.12
571.95	45954.37
572.15	45821.25
572.35	46200.13
572.55	45798.73
572.75	46183.74
572.95	46126.40
573.15	46558.52
573.35	46247.23
573.55	46298.43
573.75	45878.60
573.95	46394.68
574.15	46114.11
574.35	46570.81
574.55	46189.89
574.75	46134.59
574.95	46923.06
575.15	46622.01
575.34	46660.92
575.54	47174.96
575.74	47099.19
575.94	46974.26
576.14	46849.33
576.34	47240.50
576.54	47181.10
576.74	47482.16
576.94	47125.81
577.14	47072.56
577.34	47668.52
577.54	46927.16
577.74	47201.58
577.94	47183.15
578.14	47185.20
578.34	47666.47
578.54	47406.38
578.74	47072.56
578.94	47979.81
579.14	47162.67
579.34	47512.88
579.54	47482.16
579.74	47895.85
579.94	47762.73
580.13	47611.18
580.33	47912.23
580.53	47951.14
580.73	47826.21
580.93	47861.03
581.13	48104.74
581.33	48262.43
581.53	48209.18
581.73	48106.79
581.93	48588.06
582.13	48452.89
582.33	48325.92
582.53	48102.69
582.73	48723.22
582.92	48784.66
583.12	48522.52
583.32	48543.00
583.52	48479.52
583.72	48608.54
583.92	48514.33
584.12	48911.64
584.32	48989.46
584.52	48794.90
584.72	48946.45
584.92	49255.70
585.11	49280.27
585.31	48764.18
585.51	49585.42
585.71	48966.93
585.91	49292.56
586.11	49257.74
586.31	48846.10
586.51	48901.40
586.71	49286.42
586.91	49792.26
587.10	49374.48
587.30	49614.09
587.50	49519.88
587.70	49595.66
587.90	49628.43
588.10	49173.78
588.30	49761.54
588.50	49569.04
588.69	49872.14
588.89	49032.47
589.09	49704.20
589.29	49513.74
589.49	50017.54
589.69	49499.40
589.89	50087.17
590.08	49894.66
590.28	50021.64
590.48	49278.22
590.68	49835.27
590.88	49687.82
591.08	49878.28
591.28	50156.80
591.47	50210.05
591.67	49767.69
591.87	50025.73
592.07	49784.07
592.27	49943.81
592.47	50111.75
592.67	50113.80
592.86	50208.00
593.06	50382.08
593.26	50437.37
593.46	50709.75
593.66	50437.37
593.86	50306.30
594.05	50418.94
594.25	50734.33
594.45	50431.23
594.65	50730.23
594.85	50244.87
595.05	50380.03
595.24	50623.74
595.44	50433.28
595.64	50562.30
595.84	50541.82
596.04	50234.63
596.23	50806.01
596.43	50922.74
596.63	50724.09
596.83	50949.37
597.03	50971.89
597.22	51016.95
597.42	50552.06
597.62	51254.51
597.82	50945.27
598.02	51557.61
598.21	51522.80
598.41	51143.92
598.61	51389.68
598.81	51150.07
599.01	51647.72
599.20	50980.09
599.40	51365.10
599.60	51131.64
599.80	51551.47
600.00	51610.86
600.19	51877.10
600.39	51516.65
600.59	51686.64
600.79	52022.50
600.98	51713.26
601.18	52229.35
601.38	52032.74
601.58	51991.78
601.78	51836.14
601.97	51739.88
602.17	52419.81
602.37	52364.51
602.57	52339.94
602.76	52341.99
602.96	52053.22
603.16	52444.38
603.36	52272.35
603.55	52729.05
603.75	52163.81
603.95	52880.60
604.15	52356.32
604.34	52278.50
604.54	52577.50
604.74	52600.03
604.94	52524.25
605.13	52774.11
605.33	52645.08
605.53	52446.43
605.73	52985.05
605.92	52837.59
606.12	52942.04
606.32	52692.19
606.52	52518.11
606.71	52896.98
606.91	53279.96
607.11	53077.21
607.30	53171.41
607.50	53359.83
607.70	53361.87
607.90	53292.24
608.09	53152.98
608.29	53525.71
608.49	53443.79
608.68	52845.79
608.88	53327.06
609.08	53494.99
609.28	53540.05
609.47	53214.42
609.67	53699.79
609.87	53595.34
610.06	53468.37
610.26	53574.86
610.46	53804.24
610.66	53662.93
610.85	53941.45
611.05	53503.18
611.25	53970.12
611.44	53494.99
611.64	53830.86
611.84	53591.25
612.03	54027.46
612.23	53867.72
612.43	53976.26
612.62	53595.34
612.82	54222.02
613.02	53855.43
613.21	54195.40
613.41	53845.19
613.61	53953.74
613.80	53853.39
614.00	53451.98
614.20	53998.79
614.39	53994.70
614.59	54191.30
614.79	54123.72
614.98	54037.70
615.18	54068.42
615.38	54355.14
615.57	53949.64
615.77	54559.94
615.97	54402.24
616.16	54291.65
616.36	54023.37
616.56	54144.20
616.75	53818.57
616.95	53775.56
617.15	54045.90
617.34	54179.01
617.54	54240.45
617.74	54400.19
617.93	54498.50
618.13	54146.25
618.32	54062.28
618.52	54428.87
618.72	54723.77
618.91	54435.01
619.11	53806.28
619.31	54639.81
619.50	54416.58
619.70	53941.45
619.90	54138.05
620.09	54392.00
620.29	54408.39
620.48	54443.20
620.68	55082.17
620.88	54224.07
621.07	54377.67
621.27	54824.12
621.46	54367.43
621.66	54551.74
621.86	54480.06
622.05	54279.36
622.25	54961.34
622.44	54465.73
622.64	54516.93
622.84	54564.03
623.03	54471.87
623.23	54740.16
623.42	54682.81
623.62	54899.90
623.82	54985.91
624.01	54803.64
624.21	54723.77
624.40	54490.30
624.60	54785.21
624.80	54478.02
624.99	54738.11
625.19	54240.45
625.38	54744.25
625.58	54756.54
625.77	54854.84
625.97	54883.51
626.17	54791.36
626.36	54996.15
626.56	54979.77
626.75	54406.34
626.95	55327.92
627.14	54404.29
627.34	55250.10
627.54	54195.40
627.73	54598.85
627.93	54940.86
628.12	55028.92
628.32	54738.11
628.51	54772.92
628.71	54936.76
628.90	55415.99
629.10	54838.46
629.30	54836.41
629.49	55039.16
629.69	54842.56
629.88	55194.81
630.08	55532.72
630.27	55348.40
630.47	55139.51
630.66	55141.56
630.86	55444.66
631.05	55012.54
631.25	55188.66
631.44	55235.77
631.64	55219.38
631.84	55553.20
632.03	55463.09
632.23	54981.82
632.42	55645.36
632.62	55370.93
632.81	55399.60
633.01	55448.75
633.20	55588.02
633.40	55719.09
633.59	55581.87
633.79	55145.65
633.98	55471.28
634.18	55403.70
634.37	55522.48
634.57	55506.10
634.76	55604.40
634.96	55563.44
635.15	55721.13
635.35	55762.09
635.54	55112.89
635.74	55694.51
635.93	55665.84
636.13	55989.42
636.32	55868.59
636.52	55563.44
636.71	55694.51
636.91	56063.14
637.10	55764.14
637.30	55661.74
637.49	55846.06
637.69	55499.95
637.88	56599.71
638.08	55485.62
638.27	56235.17
638.46	56054.95
638.66	56206.50
638.85	56016.04
639.05	56054.95
639.24	56194.21
639.44	56034.47
639.63	56140.97
639.83	56173.73
640.02	56657.06
640.22	56308.90
640.41	56226.98
640.61	55555.25
640.80	56114.34
640.99	56333.48
641.19	57050.27
641.38	56374.44
641.58	56208.55
641.77	56362.15
641.97	56147.11
642.16	56861.85
642.36	56507.55
642.55	57037.98
642.74	56259.75
642.94	56919.20
643.13	56013.99
643.33	56851.61
643.52	56831.13
643.72	56968.35
643.91	56360.10
644.10	56886.43
644.30	57140.38
644.49	56741.02
644.69	56890.52
644.88	56728.73
645.08	56882.33
645.27	56530.08
645.46	56614.05
645.66	57083.03
645.85	56843.42
646.05	56505.51
646.24	56898.72
646.43	57091.22
646.63	56988.83
646.82	57539.73
647.02	57345.17
647.21	57220.25
647.40	56988.83
647.60	57210.01
647.79	57676.94
647.99	57207.96
648.18	57263.25
648.37	57672.85
648.57	57250.97
648.76	57222.29
648.96	57177.24
649.15	57513.11
649.34	57650.32
649.54	57365.65
649.73	57603.22
649.92	57402.52
650.12	57357.46
650.31	57500.82
650.51	57738.38
650.70	57666.70
650.89	57558.16
651.09	57967.76
651.28	57662.61
651.47	57302.17
651.67	57758.86
651.86	57891.98
652.06	57466.00
652.25	57934.99
652.44	57771.15
652.64	57285.78
652.83	57873.55
653.02	57427.09
653.22	57629.84
653.41	57463.96
653.60	57343.12
653.80	57529.49
653.99	57894.03
654.18	57930.89
654.38	57574.55
654.57	57965.71
654.76	58086.54
654.96	57738.38
655.15	57750.67
655.34	57500.82
655.54	57484.43
655.73	57793.68
655.92	57775.25
656.12	57695.38
656.31	57668.75
656.50	57957.52
656.70	58078.35
656.89	57476.24
657.08	57742.48
657.28	57572.50
657.47	57468.05
657.66	57572.50
657.86	58041.48
658.05	57957.52
658.24	58381.45
658.43	57779.34
658.63	58229.90
658.82	58016.91
659.01	57586.83
659.21	58217.61
659.40	57756.81
659.59	57769.10
659.79	58193.03
659.98	58025.10
660.17	58498.18
660.36	58080.39
660.56	58080.39
660.75	57703.57
660.94	57826.45
661.14	57738.38
661.33	57676.94
661.52	57482.39
661.71	58528.90
661.91	57965.71
662.10	57939.08
662.29	58733.70
662.49	57967.76
662.68	58150.02
662.87	58006.67
663.06	58055.82
663.26	57549.97
663.45	57871.50
663.64	57803.92
663.83	57973.90
664.03	58260.62
664.22	57844.88
664.41	57986.19
664.60	57267.35
664.80	58135.69
664.99	57474.20
665.18	58053.77
665.37	58006.67
665.57	57971.85
665.76	57760.91
665.95	57896.08
666.14	57287.83
666.34	57801.87
666.53	57410.71
666.72	57857.17
666.91	57670.80
667.11	57425.04
667.30	57447.57
667.49	57572.50
667.68	57580.69
667.87	57123.99
668.07	57570.45
668.26	57918.60
668.45	57515.15
668.64	57367.70
668.84	58102.92
669.03	57879.69
669.22	57359.51
669.41	57793.68
669.60	57498.77
669.80	57113.75
669.99	57423.00
670.18	57539.73
670.37	57095.32
670.57	57885.84
670.76	57767.05
670.95	57775.25
671.14	57425.04
671.33	57302.17
671.53	57453.72
671.72	57533.59
671.91	57545.87
672.10	57134.23
672.29	57357.46
672.48	57375.89
672.68	57478.29
672.87	57048.22
673.06	57605.26
673.25	57320.60
673.44	56853.66
673.64	56978.59
673.83	57066.65
674.02	56691.87
674.21	56751.26
674.40	57152.66
674.59	56661.15
674.79	56652.96
674.98	56673.44
675.17	56925.34
675.36	56857.76
675.55	56716.45
675.74	57031.83
675.94	56568.99
676.13	57156.76
676.32	56644.77
676.51	57621.65
676.70	56945.82
676.89	56652.96
677.08	56931.48
677.28	56566.94
677.47	57142.42
677.66	56679.58
677.85	56632.48
678.04	57281.69
678.23	57398.42
678.42	56581.28
678.62	56702.11
678.81	56814.75
679.00	56829.08
679.19	57128.09
679.38	56530.08
679.57	56949.92
679.76	56419.49
679.96	56511.65
680.15	56507.55
680.34	56439.97
680.53	56497.31
680.72	56657.06
680.91	57015.45
681.10	56265.89
681.29	56325.28
681.48	56423.59
681.68	56382.63
681.87	56177.83
682.06	56390.82
682.25	55991.47
682.44	55694.51
682.63	56145.06
682.82	56130.73
683.01	56177.83
683.20	55991.47
683.39	55907.50
683.59	55975.08
683.78	55803.05
683.97	55542.96
684.16	55944.36
684.35	55301.30
684.54	55606.45
684.73	55588.02
684.92	55483.57
685.11	55717.04
685.30	55211.19
685.49	55573.68
685.69	55747.76
685.88	55737.52
686.07	55131.32
686.26	55307.44
686.45	55717.04
686.64	55571.63
686.83	55293.11
687.02	55422.13
687.21	55981.23
687.40	55524.53
687.59	55323.83
687.78	55889.07
687.97	55674.03
688.16	55415.99
688.35	55301.30
688.54	55051.45
688.74	54691.01
688.93	55424.18
689.12	55092.41
689.31	55155.89
689.50	55051.45
689.69	54531.26
689.88	54424.77
690.07	54834.36
690.26	54828.22
690.45	55383.22
690.64	55018.68
690.83	54498.50
691.02	54506.69
691.21	55033.02
691.40	54412.48
691.59	54746.30
691.78	54473.92
691.97	54641.85
692.16	54725.82
692.35	54908.09
692.54	54781.12
692.73	54770.88
692.92	54510.78
693.11	54179.01
693.30	54332.61
693.49	54604.99
693.68	54467.78
693.87	54351.04
694.06	54138.05
694.25	54209.73
694.44	54066.38
694.63	54308.04
694.82	54392.00
695.01	54179.01
695.20	54262.98
695.39	54023.37
695.58	53662.93
695.77	54119.62
695.96	53970.12
696.15	54287.56
696.34	53769.42
696.53	53867.72
696.72	54162.63
696.91	54295.75
697.10	53763.28
697.29	53865.67
697.48	53927.11
697.67	53867.72
697.86	53624.01
698.05	54004.94
698.24	53828.81
698.43	53585.10
698.62	53599.44
698.81	53218.52
699.00	53966.02
699.19	53507.28
699.38	53419.22
699.57	53083.35
699.76	53896.39
699.95	53365.97
700.14	53542.10
700.32	53583.05
700.51	53294.29
700.70	53673.16
700.89	53650.64
701.08	53707.98
701.27	53556.43
701.46	53386.45
701.65	52942.04
701.84	52700.38
702.03	52995.29
702.22	53081.30
702.41	53081.30
702.60	53343.44
702.79	53044.44
702.98	53042.39
703.17	52681.95
703.35	52571.36
703.54	52733.15
703.73	52765.91
703.92	52663.52
704.11	52724.96
704.30	52305.12
704.49	52323.55
704.68	52663.52
704.87	52569.31
705.06	52647.13
705.25	52710.62
705.43	52524.25
705.62	52483.30
705.81	52434.14
706.00	52389.09
706.19	52290.79
706.38	52174.05
706.57	51985.64
706.76	52073.70
706.95	52653.28
707.14	52122.85
707.32	52159.72
707.51	52204.77
707.70	52110.56
707.89	52540.64
708.08	52114.66
708.27	52374.75
708.46	52651.23
708.65	52198.63
708.84	52335.84
709.02	52065.51
709.21	52098.28
709.40	52108.52
709.59	52356.32
709.78	51838.18
709.97	52313.31
710.16	51606.76
710.34	51860.71
710.53	52311.27
710.72	51729.64
710.91	51811.56
711.10	51893.48
711.29	52077.80
711.48	51922.15
711.66	51748.07
711.85	51690.73
712.04	51068.15
712.23	51717.35
712.42	51762.41
712.61	52122.85
712.80	51350.77
712.98	51672.30
713.17	51600.62
713.36	51516.65
713.55	51385.58
713.74	51614.96
713.93	51758.31
714.11	51627.24
714.30	51455.21
714.49	51567.85
714.68	51244.27
714.87	51426.54
715.06	51543.28
715.24	51238.13
715.43	51776.75
715.62	50834.68
715.81	51041.53
716.00	51182.84
716.18	50570.49
716.37	50865.40
716.56	50722.04
716.75	51191.03
716.94	51002.61
717.12	50826.49
717.31	51246.32
717.50	50877.69
717.69	51135.73
717.88	50920.70
718.06	51242.23
718.25	51010.81
718.44	50869.50
718.63	50756.86
718.82	50197.76
719.00	50664.70
719.19	50459.90
719.38	50480.38
719.57	50111.75
719.76	50267.39
719.94	50216.19
720.13	50052.36
720.32	50218.24
720.51	49962.25
720.69	49616.14
720.88	50320.64
721.07	50160.90
721.26	50009.35
721.44	50007.30
721.63	49837.32
721.82	49278.22
722.01	50177.28
722.20	49724.68
722.38	49734.92
722.57	49261.84
722.76	49749.26
722.95	49632.52
723.13	49364.24
723.32	49360.14
723.51	49227.02
723.70	49415.44
723.88	49278.22
724.07	48913.69
724.26	49102.10
724.44	48780.57
724.63	49450.25
724.82	49200.40
725.01	49364.24
725.19	49210.64
725.38	49095.95
725.57	48551.20
725.76	49227.02
725.94	48598.30
726.13	49091.86
726.32	49132.82
726.51	49061.14
726.69	49421.58
726.88	49155.35
727.07	48928.02
727.25	48659.74
727.44	48735.51
727.63	49067.28
727.82	48690.46
728.00	48653.59
728.19	48768.28
728.38	48977.17
728.56	48309.53
728.75	49077.52
728.94	48889.11
729.12	48893.21
729.31	49046.80
729.50	49057.04
729.69	48788.76
729.87	49052.95
730.06	48665.88
730.25	48925.97
730.43	48968.98
730.62	48760.09
730.81	49366.29
730.99	49427.73
731.18	48885.01
731.37	48921.88
731.55	48960.79
731.74	49272.08
731.93	49091.86
732.11	48680.22
732.30	49122.58
732.49	48696.60
732.67	49136.91
732.86	48801.05
733.05	48719.13
733.23	48889.11
733.42	48889.11
733.61	48721.18
733.79	48923.93
733.98	49681.67
734.17	49038.61
734.35	48952.60
734.54	49186.07
734.73	49618.19
734.91	48903.45
735.10	48561.44
735.29	49173.78
735.47	48717.08
735.66	48856.34
735.84	49081.62
736.03	48340.25
736.22	49255.70
736.40	48280.86
736.59	48807.19
736.78	48772.38
736.96	48440.60
737.15	48649.50
737.33	48479.52
737.52	48571.67
737.71	48602.39
737.89	48594.20
738.08	48125.22
738.27	48207.14
738.45	48565.53
738.64	48641.31
738.82	48186.66
739.01	48467.23
739.20	48389.41
739.38	48461.08
739.57	48995.60
739.75	48186.66
739.94	48280.86
740.13	48409.89
740.31	48424.22
740.50	48362.78
740.68	48436.51
740.87	48022.82
741.06	48342.30
741.24	48231.71
741.43	48379.17
741.61	48391.45
741.80	48153.89
741.99	47904.04
742.17	47869.22
742.36	48330.01
742.54	48018.72
742.73	48317.73
742.91	48674.07
743.10	48332.06
743.29	48426.27
743.47	48340.25
743.66	48074.02
743.84	48102.69
744.03	47940.90
744.21	47957.28
744.40	47932.71
744.59	47858.98
744.77	47150.38
744.96	47949.09
745.14	47912.23
745.33	48375.07
745.51	48076.07
745.70	48112.93
745.88	47693.10
746.07	47775.02
746.26	47914.28
746.44	47756.58
746.63	47615.27
746.81	48018.72
747.00	47656.23
747.18	47957.28
747.37	47787.30
747.55	47594.79
747.74	47746.34
747.92	47402.28
748.11	47619.37
748.29	47519.02
748.48	47676.71
748.66	47162.67
748.85	47523.11
749.03	47248.69
749.22	47273.26
749.41	47263.02
749.59	47897.89
749.78	46976.31
749.96	46652.73
750.15	47127.86
750.33	47228.21
750.52	47000.88
750.70	46609.72
750.89	46832.95
751.07	46716.22
751.26	46720.31
751.44	46642.49
751.63	46959.92
751.81	46794.04
752.00	46789.94
752.18	46783.80
752.37	46728.50
752.55	46640.44
752.74	46236.99
752.92	46757.17
753.10	46300.48
753.29	46521.66
753.47	46050.63
753.66	46165.31
753.84	46736.69
754.03	46765.37
754.21	45997.38
754.40	46005.57
754.58	46138.69
754.77	45798.73
754.95	46024.00
755.14	46028.10
755.32	46134.59
755.51	46003.52
755.69	45792.58
755.88	46003.52
756.06	45940.04
756.24	45573.45
756.43	45942.08
756.61	45714.76
756.80	45759.81
756.98	45768.01
757.17	45514.06
757.35	45811.01
757.54	45622.60
757.72	46271.81
757.90	45491.53
758.09	45137.23
758.27	45550.92
758.46	45245.77
758.64	45401.42
758.83	45821.25
759.01	45399.37
759.19	45147.47
759.38	45421.90
759.56	46060.87
759.75	45438.28
759.93	45466.95
760.12	45278.54
760.30	45073.74
760.48	45319.50
760.67	44764.50
760.85	45333.84
761.04	45356.36
761.22	44926.29
761.40	44922.19
761.59	44819.80
761.77	44594.52
761.96	44758.36
762.14	44799.32
762.32	44463.45
762.51	44582.23
762.69	44479.83
762.88	44866.90
763.06	44852.56
763.24	44905.81
763.43	44678.49
763.61	43795.81
763.80	44445.02
763.98	44240.22
764.16	44164.45
764.35	43904.35
764.53	43392.36
764.72	44178.78
764.90	44252.51
765.08	43971.94
765.27	44318.04
765.45	43445.61
765.63	43619.69
765.82	44316.00
766.00	43824.48
766.18	43670.89
766.37	44041.57
766.55	43763.04
766.74	43844.96
766.92	43617.64
767.10	43443.56
767.29	43531.62
767.47	43201.90
767.65	43513.19
767.84	43279.72
768.02	43332.97
768.20	43298.16
768.39	43160.94
768.57	43410.79
768.75	43240.81
768.94	43371.88
769.12	42906.99
769.30	42921.33
769.49	42732.92
769.67	42878.32
769.85	42290.55
770.04	42839.41
770.22	42601.85
770.40	42300.79
770.59	42198.40
770.77	42644.85
770.95	42581.37
771.14	42179.96
771.32	41997.70
771.50	41764.23
771.69	42122.62
771.87	42345.85
772.05	42294.65
772.24	41586.05
772.42	41864.58
772.60	41852.29
772.78	41493.89
772.97	41897.34
773.15	41848.19
773.33	41680.26
773.52	41780.61
773.70	41559.43
773.88	41954.69
774.07	41581.96
774.25	42261.88
774.43	42100.09
774.61	41633.16
774.80	42098.05
774.98	41710.98
775.16	41643.40
775.34	41772.42
775.53	41651.59
775.71	41813.38
775.89	41473.42
776.08	41739.65
776.26	41997.70
776.44	41659.78
776.62	41340.30
776.81	41516.42
776.99	42026.37
777.17	41713.03
777.35	42122.62
777.54	42448.25
777.72	41866.63
777.90	41760.13
778.08	42124.67
778.27	42038.65
778.45	42139.00
778.63	42067.33
778.81	41559.43
779.00	42360.19
779.18	42073.47
779.36	41948.54
779.54	42177.92
779.73	41835.91
779.91	42214.78
780.09	42263.93
780.27	42161.53
780.46	42118.53
780.64	42030.46
780.82	42024.32
781.00	42151.29
781.19	42245.50
781.37	42550.65
781.55	42517.88
781.73	42642.81
781.91	42024.32
782.10	42182.01
782.28	42548.60
782.46	42036.61
782.64	42583.41
782.82	42235.26
783.01	42411.38
783.19	42249.60
783.37	42575.22
783.55	42499.45
783.74	42579.32
783.92	42292.60
784.10	42681.72
784.28	42417.53
784.46	42190.20
784.64	42407.29
784.83	41997.70
785.01	42614.13
785.19	41952.64
785.37	42632.57
785.55	42300.79
785.74	41856.39
785.92	41944.45
786.10	42040.70
786.28	42308.99
786.46	41682.31
786.64	41809.28
786.83	41655.68
787.01	41809.28
787.19	41993.60
787.37	41807.23
787.55	41694.60
787.74	41790.85
787.92	41866.63
788.10	41477.51
788.28	41139.60
788.46	41342.35
788.64	41383.30
788.82	41502.09
789.01	41606.53
789.19	41526.66
789.37	41061.77
789.55	41266.57
789.73	40742.29
789.91	40963.47
790.09	41102.73
790.28	41072.01
790.46	40521.11
790.64	41440.65
790.82	40850.83
791.00	40371.61
791.18	40553.88
791.36	40338.84
791.55	40525.21
791.73	40463.77
791.91	40062.36
792.09	40265.11
792.27	40478.10
792.45	40045.98
792.63	40379.80
792.81	39925.15
793.00	39882.14
793.18	39413.16
793.36	39470.50
793.54	39572.90
793.72	39118.25
793.90	39433.64
794.08	39331.24
794.26	39310.76
794.44	38817.20
794.62	38706.61
794.81	38600.12
794.99	38970.80
795.17	38999.47
795.35	38501.81
795.53	38733.23
795.71	38852.02
795.89	38401.46
796.07	38309.30
796.25	38022.59
796.43	38159.80
796.61	37717.44
796.80	37811.65
796.98	38077.88
797.16	37766.59
797.34	37858.75
797.52	37723.58
797.70	37871.04
797.88	37281.22
798.06	37264.84
798.24	37535.17
798.42	37205.45
798.60	37397.96
798.78	37148.11
798.96	37191.11
799.14	37045.71
799.32	37062.09
799.51	36550.10
799.69	36935.12
799.87	36386.26
800.05	36478.42
800.23	36648.40
800.41	36281.81
800.59	36232.66
800.77	36136.41
800.95	35933.66
801.13	36300.25
801.31	35941.85
801.49	35714.53
801.67	35517.92
801.85	35669.47
802.03	35081.70
802.21	35390.95
802.39	35118.57
802.57	35345.89
802.75	35223.01
802.93	35173.86
803.11	35091.94
803.29	34991.59
803.47	34635.25
803.65	34641.39
803.83	34645.49
804.01	34942.44
804.19	34592.24
804.37	34299.38
804.55	34516.47
804.73	34254.33
804.91	34190.84
805.09	34160.12
805.27	34090.49
805.45	33953.27
805.63	33969.66
805.81	33854.97
805.99	34000.38
806.17	34215.41
806.35	33994.23
806.53	33961.47
806.71	33805.82
806.89	33576.45
807.07	33762.81
807.25	33639.93
807.43	32955.91
807.61	33455.62
807.79	33617.41
807.97	32945.67
808.15	32904.71
808.33	32634.38
808.51	32894.47
808.69	33009.16
808.87	32677.39
809.05	32468.50
809.23	32495.12
809.41	32497.17
809.59	32654.86
809.77	32536.08
809.95	32134.68
810.13	32507.41
810.31	32189.97
810.49	32300.56
810.67	32388.63
810.84	32138.77
811.02	32052.76
811.20	31962.65
811.38	31782.43
811.56	31602.21
811.74	31311.39
811.92	31450.66
812.10	31376.93
812.28	31991.32
812.46	31684.12
812.64	31577.63
812.82	31602.21
813.00	31323.68
813.18	31178.28
813.36	31274.53
813.53	30606.89
813.71	31063.59
813.89	31006.25
814.07	31026.73
814.25	30950.95
814.43	30942.76
814.61	30565.93
814.79	30699.05
814.97	30668.33
815.15	30553.65
815.33	30656.04
815.50	30180.92
815.68	30277.17
815.86	30393.90
816.04	30336.56
816.22	30375.47
816.40	30250.55
816.58	29941.30
816.76	29972.02
816.94	30182.96
817.11	30223.92
817.29	29949.50
817.47	29939.26
817.65	30012.98
817.83	29830.71
818.01	29546.05
818.19	29630.01
818.37	29427.26
818.54	29357.63
818.72	29050.44
818.90	29881.91
819.08	29410.88
819.26	29390.40
819.44	29062.72
819.62	29419.07
819.80	29251.14
819.97	29341.25
820.15	29138.50
820.33	29062.72
820.51	28943.94
820.69	28782.15
820.87	29384.26
821.05	29236.80
821.22	28753.48
821.40	28624.46
821.58	28675.66
821.76	28712.52
821.94	28567.12
822.12	28679.75
822.29	28552.78
822.47	28511.82
822.65	28892.74
822.83	28620.36
823.01	28479.05
823.19	28536.40
823.36	27940.44
823.54	28081.75
823.72	28120.66
823.90	27975.25
824.08	27997.78
824.25	28005.97
824.43	28024.40
824.61	27858.52
824.79	27950.68
824.97	27819.61
825.15	27608.67
825.32	28016.21
825.50	27580.00
825.68	27547.23
825.86	27672.15
826.04	27876.95
826.21	27594.33
826.39	27407.97
826.57	27477.60
826.75	27184.74
826.93	27096.67
827.10	27342.43
827.28	27618.91
827.46	27377.25
827.64	27483.74
827.81	27410.01
827.99	27057.76
828.17	27117.15
828.35	26947.17
828.53	26639.98
828.70	26832.49
828.88	27068.00
829.06	26639.98
829.24	27168.35
829.41	27031.14
829.59	27076.19
829.77	26717.80
829.95	26906.21
830.12	26594.92
830.30	26601.07
830.48	26508.91
830.66	26541.68
830.84	26787.43
831.01	26265.20
831.19	26637.93
831.37	26502.76
831.55	26437.23
831.72	26420.84
831.90	26359.41
832.08	26447.47
832.25	26214.00
832.43	26326.64
832.61	26424.94
832.79	26082.93
832.96	26099.31
833.14	26193.52
833.32	26246.77
833.50	26246.77
833.67	26189.42
833.85	26324.59
834.03	25663.10
834.20	26302.06
834.38	26084.98
834.56	25902.71
834.74	25794.17
834.91	25759.35
835.09	25761.40
835.27	25548.41
835.44	25673.34
835.62	25222.78
835.80	25394.81
835.98	25579.13
836.15	25644.66
836.33	25718.39
836.51	25630.33
836.68	25663.10
836.86	25450.11
837.04	25491.07
837.21	25585.27
837.39	25382.52
837.57	25560.70
837.75	25306.75
837.92	25122.43
838.10	25169.54
838.28	24800.90
838.45	24868.48
838.63	25093.76
838.81	25259.65
838.98	24909.44
839.16	24796.81
839.34	24620.68
839.51	24761.99
839.69	24772.23
839.87	24694.41
840.04	24624.78
840.22	24878.72
840.40	24725.13
840.57	24460.94
840.75	24721.03
840.93	24725.13
841.10	24424.08
841.28	24970.88
841.46	24620.68
841.63	24743.56
841.81	24415.88
841.98	24442.51
842.16	24440.46
842.34	24422.03
842.51	24096.40
842.69	24583.82
842.87	24342.16
843.04	24485.51
843.22	24211.09
843.40	24286.86
843.57	24194.70
843.75	24503.95
843.92	24514.19
844.10	24215.18
844.28	24454.79
844.45	24460.94
844.63	24108.69
844.81	23936.66
844.98	24479.37
845.16	24217.23
845.33	23821.97
845.51	23926.42
845.69	23948.95
845.86	24153.74
846.04	23971.47
846.21	23948.95
846.39	23684.76
846.57	23508.63
846.74	23662.23
846.92	23586.46
847.09	23467.67
847.27	23592.60
847.45	23518.87
847.62	23815.83
847.80	23815.83
847.97	23598.74
848.15	23500.44
848.32	23359.13
848.50	23432.86
848.68	23307.93
848.85	23242.40
849.03	22859.43
849.20	23393.95
849.38	23127.71
849.56	23434.91
849.73	23203.49
849.91	23150.24
850.08	23303.84
850.26	23197.34
850.43	23074.46
850.61	23131.81
850.78	22986.40
850.96	23144.09
851.14	22720.17
851.31	23105.18
851.49	23279.26
851.66	23426.71
851.84	23010.98
852.01	22851.24
852.19	23305.88
852.36	22818.47
852.54	23006.88
852.71	22791.84
852.89	22548.14
853.07	22918.82
853.24	22927.01
853.42	23029.41
853.59	22732.45
853.77	22935.20
853.94	22617.77
854.12	22918.82
854.29	22470.31
854.47	22673.06
854.64	22605.48
854.82	22630.05
854.99	22535.85
855.17	22525.61
855.34	22455.98
855.52	22400.68
855.69	22630.05
855.87	22202.03
856.04	22259.37
856.22	22482.60
856.39	22167.21
856.57	22277.80
856.74	22320.81
856.92	22136.49
857.09	22150.83
857.27	22111.92
857.44	22286.00
857.62	22224.56
857.79	22191.79
857.97	22275.76
858.14	22042.29
858.32	21976.75
858.49	22005.42
858.67	22175.41
858.84	21835.44
859.02	21898.93
859.19	21808.82
859.37	21733.04
859.54	22056.62
859.72	21698.23
859.89	22019.76
860.06	21898.93
860.24	21739.19
860.41	21847.73
860.59	21456.57
860.76	21892.79
860.94	21483.19
861.11	21700.28
861.29	21503.67
861.46	21464.76
861.64	21720.76
861.81	21536.44
861.98	21673.65
862.16	21520.06
862.33	21198.52
862.51	21249.72
862.68	21313.21
862.86	21038.78
863.03	21049.02
863.21	21178.04
863.38	21319.35
863.55	21216.96
863.73	21431.99
863.90	21165.76
864.08	21006.02
864.25	20989.63
864.43	21173.95
864.60	21008.06
864.77	20901.57
864.95	20987.58
865.12	20842.18
865.30	20967.10
865.47	20602.57
865.64	20907.71
865.82	20739.78
865.99	20842.18
866.17	20868.80
866.34	20995.78
866.51	20639.43
866.69	20684.48
866.86	20813.51
867.04	20506.31
867.21	20815.55
867.38	20545.22
867.56	20424.39
867.73	20821.70
867.91	20293.32
868.08	20459.21
868.25	20420.30
868.43	20434.63
868.60	20330.19
868.78	20291.27
868.95	20283.08
869.12	20207.31
869.30	20074.19
869.47	20420.30
869.64	20053.71
869.82	20174.54
869.99	20092.62
870.16	20278.99
870.34	20133.58
870.51	20291.27
870.69	20137.68
870.86	20041.42
871.03	20162.25
871.21	19672.79
871.38	19930.83
871.55	20074.19
871.73	19887.82
871.90	19699.41
872.07	19629.78
872.25	19500.76
872.42	19683.03
872.59	19789.52
872.77	19617.49
872.94	19529.43
873.11	19668.69
873.29	19439.32
873.46	19551.96
873.63	19554.01
873.81	19300.06
873.98	19271.39
874.15	19384.02
874.33	19064.54
874.50	19050.21
874.67	19515.09
874.85	19138.27
875.02	19234.52
875.19	18984.67
875.37	18996.96
875.54	18958.05
875.71	19037.92
875.88	18415.34
876.06	18886.37
876.23	18861.79
876.40	18620.13
876.58	18609.89
876.75	18773.73
876.92	18671.33
877.10	18874.08
877.27	18802.40
877.44	18726.63
877.61	18626.28
877.79	18593.51
877.96	18435.81
878.13	18570.98
878.31	18368.23
878.48	18398.95
878.65	18446.05
878.82	18345.70
879.00	18376.42
879.17	18290.41
879.34	18349.80
879.51	18052.84
879.69	18235.11
879.86	18130.67
880.03	18046.70
880.21	18331.37
880.38	18046.70
880.55	18407.14
880.72	17825.52
880.90	17905.39
881.07	18140.91
881.24	18063.08
881.41	18097.90
881.59	17759.98
881.76	18108.14
881.93	17553.14
882.10	17731.31
882.28	17633.01
882.45	17747.70
882.62	17788.66
882.79	17889.01
882.96	17499.89
883.14	17635.06
883.31	17540.85
883.48	17741.55
883.65	17706.74
883.83	17753.84
884.00	17637.11
884.17	17518.32
884.34	17493.75
884.51	17469.17
884.69	17356.54
884.86	17258.23
885.03	17430.26
885.20	17393.40
885.38	17370.87
885.55	17413.88
885.72	17403.64
885.89	17260.28
886.06	17192.70
886.24	17223.42
886.41	17286.90
886.58	17450.74
886.75	17448.69
886.92	17131.26
887.10	17258.23
887.27	17166.07
887.44	17057.53
887.61	17280.76
887.78	17166.07
887.95	17000.19
888.13	16926.46
888.30	16881.41
888.47	16920.32
888.64	17002.24
888.81	16992.00
888.99	16703.23
889.16	16711.42
889.33	16750.34
889.50	16869.12
889.67	16668.42
889.84	16742.14
890.01	16523.01
890.19	16625.41
890.36	16963.33
890.53	16633.60
890.70	16576.26
890.87	16531.20
891.04	16350.98
891.22	16336.65
891.39	16547.59
891.56	16537.35
891.73	16420.61
891.90	16213.77
892.07	16228.10
892.24	16430.85
892.42	16328.45
892.59	16267.02
892.76	16244.49
892.93	16148.23
893.10	16271.11
893.27	16193.29
893.44	15718.16
893.61	16262.92
893.79	16273.16
893.96	16133.90
894.13	16344.84
894.30	16434.95
894.47	16137.99
894.64	16176.91
894.81	16008.97
894.98	16023.31
895.15	16140.04
895.33	16131.85
895.50	15988.49
895.67	16244.49
895.84	16062.22
896.01	15869.71
896.18	16111.37
896.35	16062.22
896.52	15795.98
896.69	15789.84
896.86	16041.74
897.04	15988.49
897.21	15996.68
897.38	15857.42
897.55	15871.76
897.72	15996.68
897.89	15892.24
898.06	16027.40
898.23	15888.14
898.40	16035.60
898.57	15832.85
898.74	15994.64
898.91	16113.42
899.08	15992.59
899.26	15722.26
899.43	16004.88
899.60	15748.88
899.77	15961.87
899.94	15697.68
900.11	15580.95
900.28	15789.84
900.45	15806.22
900.62	15666.96
900.79	16111.37
900.96	15699.73
901.13	16045.84
901.30	15632.15
901.47	15642.39
901.64	15628.05
901.81	15927.05
901.98	15484.69
902.15	15914.77
902.32	15474.45
902.49	15820.56
902.66	15748.88
902.83	15681.30
903.01	15556.37
903.18	15689.49
903.35	15853.33
903.52	15595.28
903.69	15935.24
903.86	15961.87
904.03	15828.75
904.20	15847.18
904.37	15789.84
904.54	15869.71
904.71	15732.50
904.88	15644.43
905.05	15681.30
905.22	15914.77
905.39	15752.98
905.56	15687.44
905.73	15714.06
905.90	15929.10
906.07	15761.17
906.24	15472.40
906.41	15564.56
906.58	15562.51
906.75	15759.12
906.92	15726.35
907.09	15464.21
907.26	15648.53
907.43	15529.75
907.60	15628.05
907.77	15726.35
907.93	15951.63
908.10	15519.51
908.27	15425.30
908.44	15355.67
908.61	15451.92
908.78	15449.88
908.95	15560.47
909.12	15507.22
909.29	15605.52
909.46	15740.69
909.63	15447.83
909.80	15806.22
909.97	15529.75
910.14	15513.36
910.31	15505.17
910.48	15240.98
910.65	15609.62
910.82	15531.80
910.99	15466.26
911.16	15511.32
911.33	15380.25
911.50	15322.90
911.66	15251.22
911.83	15425.30
912.00	15216.41
912.17	15038.23
912.34	15218.46
912.51	15122.20
912.68	14819.10
912.85	15329.05
913.02	15220.50
913.19	15097.63
913.36	15165.21
913.53	15066.91
913.70	14812.96
913.86	14968.60
914.03	14911.26
914.20	15027.99
914.37	15011.61
914.54	14792.48
914.71	14946.08
914.88	14982.94
915.05	14999.32
915.22	14731.04
915.39	14958.36
915.55	14972.70
915.72	14714.66
915.89	14745.38
916.06	14450.47
916.23	14442.28
916.40	14630.69
916.57	14491.43
916.74	14196.52
916.91	14282.53
917.07	14182.18
917.24	14366.50
917.41	14307.11
917.58	14419.75
917.75	14231.33
917.92	14057.26
918.09	14208.81
918.26	14137.13
918.42	13840.17
918.59	13938.48
918.76	13762.35
918.93	13721.39
919.10	13987.63
919.27	13803.31
919.44	13887.28
919.60	13979.43
919.77	13823.79
919.94	13784.88
920.11	13807.41
920.28	13702.96
920.45	13557.55
920.61	13506.35
920.78	13475.63
920.95	13598.51
921.12	13668.14
921.29	13385.52
921.46	13309.75
921.62	13129.53
921.79	13319.99
921.96	13123.38
922.13	13004.60
922.30	12949.31
922.47	13092.66
922.63	12883.77
922.80	12937.02
922.97	12920.63
923.14	12631.87
923.31	12808.00
923.47	12779.32
923.64	12785.47
923.81	12570.43
923.98	12762.94
924.15	12556.10
924.32	12488.51
924.48	12576.58
924.65	12670.78
924.82	12267.33
924.99	12386.12
925.15	12109.64
925.32	12263.24
925.49	12040.01
925.66	12046.15
925.83	12072.78
925.99	12103.50
926.16	11900.75
926.33	11980.62
926.50	11808.59
926.67	11915.08
926.83	11972.43
927.00	11870.03
927.17	11685.71
927.34	11687.76
927.50	11458.39
927.67	11736.91
927.84	11689.81
928.01	11609.93
928.17	11425.62
928.34	11364.18
928.51	11579.22
928.68	11243.35
928.84	11198.29
929.01	11149.14
929.18	11161.43
929.35	11067.22
929.51	11198.29
929.68	10975.06
929.85	11048.79
930.02	10915.67
930.18	10835.80
930.35	10809.18
930.52	10901.34
930.69	10790.75
930.85	10682.20
931.02	10690.40
931.19	10678.11
931.36	10489.70
931.52	10663.77
931.69	10674.01
931.86	10547.04
932.02	10280.80
932.19	10526.56
932.36	10245.99
932.53	10211.17
932.69	10202.98
932.86	10196.84
933.03	10293.09
933.19	9863.02
933.36	9926.50
933.53	9887.59
933.70	9838.44
933.86	9656.17
934.03	9727.85
934.20	9703.28
934.36	9830.25
934.53	9492.34
934.70	9326.45
934.86	9539.44
935.03	9277.30
935.20	9324.40
935.36	9252.72
935.53	9058.17
935.70	9103.22
935.86	9217.91
936.03	8884.09
936.20	8867.70
936.36	8609.66
936.53	8488.83
936.70	8935.29
936.86	8775.55
937.03	8646.52
937.20	8507.26
937.36	8456.06
937.53	8236.93
937.70	8161.16
937.86	8042.37
938.03	7970.69
938.20	8066.95
938.36	7929.74
938.53	7880.58
938.70	7622.54
938.86	7688.07
939.03	7440.27
939.20	7450.51
939.36	7456.65
939.53	7483.28
939.70	7376.78
939.86	7139.22
940.03	7040.92
940.19	7022.48
940.36	6918.04
940.53	6846.36
940.69	6758.30
940.86	6649.75
941.03	6686.62
941.19	6508.44
941.36	6342.56
941.52	6506.40
941.69	6369.18
941.86	6358.94
942.02	6229.92
942.19	6299.55
942.35	6205.35
942.52	6242.21
942.69	6025.12
942.85	5865.38
943.02	5912.49
943.18	6129.57
943.35	5930.92
943.52	5935.01
943.68	5898.15
943.85	5816.23
944.01	5679.02
944.18	5631.91
944.35	5812.14
944.51	5558.19
944.68	5590.95
944.84	5500.84
945.01	5476.27
945.17	5605.29
945.34	5468.08
945.51	5509.04
945.67	5388.21
945.84	5629.87
946.00	5363.63
946.17	5377.97
946.33	5365.68
946.50	5509.04
946.67	5406.64
946.83	5326.77
947.00	5484.46
947.16	5353.39
947.33	5353.39
947.49	5277.62
947.66	5326.77
947.82	5439.40
947.99	5394.35
948.16	5371.82
948.32	5334.96
948.49	5300.14
948.65	5400.49
948.82	5244.85
948.98	5451.69
949.15	5248.94
949.31	5408.69
949.48	5273.52
949.64	5334.96
949.81	5377.97
949.97	5294.00
950.14	5517.23
950.30	5296.05
950.47	5388.21
950.63	5308.34
950.80	5480.36
950.96	5402.54
951.13	5361.58
951.30	5357.49
951.46	5377.97
951.63	5474.22
951.79	5398.45
951.96	5402.54
952.12	5468.08
952.29	5449.64
952.45	5291.95
952.62	5476.27
952.78	5435.31
952.94	5480.36
953.11	5574.57
953.27	5402.54
953.44	5588.91
953.60	5498.80
953.77	5386.16
953.93	5466.03
954.10	5482.41
954.26	5521.32
954.43	5285.81
954.59	5502.89
954.76	5578.67
954.92	5400.49
955.09	5607.34
955.25	5412.78
955.42	5382.06
955.58	5535.66
955.75	5449.64
955.91	5484.46
956.07	5476.27
956.24	5478.32
956.40	5685.16
956.57	5468.08
956.73	5447.60
956.90	5447.60
957.06	5537.71
957.23	5521.32
957.39	5472.17
957.56	5615.53
957.72	5392.30
957.88	5402.54
958.05	5455.79
958.21	5588.91
958.38	5492.65
958.54	5484.46
958.71	5646.25
958.87	5423.02
959.03	5367.73
959.20	5476.27
959.36	5345.20
959.53	5332.91
959.69	5367.73
959.85	5384.11
960.02	5463.98
960.18	5412.78
960.35	5437.36
960.51	5588.91
960.68	5472.17
960.84	5615.53
961.00	5515.18
961.17	5398.45
961.33	5377.97
961.50	5429.17
961.66	5480.36
961.82	5425.07
961.99	5550.00
962.15	5371.82
962.31	5386.16
962.48	5443.50
962.64	5480.36
962.81	5502.89
962.97	5423.02
963.13	5484.46
963.30	5373.87
963.46	5328.81
963.62	5427.12
963.79	5437.36
963.95	5343.15
964.12	5341.10
964.28	5345.20
964.44	5355.44
964.61	5427.12
964.77	5359.53
964.93	5627.82
965.10	5394.35
965.26	5353.39
965.42	5224.37
965.59	5324.72
965.75	5423.02
965.92	5394.35
966.08	5296.05
966.24	5207.98
966.41	5300.14
966.57	5304.24
966.73	5302.19
966.90	5330.86
967.06	5279.66
967.22	5255.09
967.39	5337.01
967.55	5064.63
967.71	5162.93
967.88	5148.59
968.04	5253.04
968.20	5212.08
968.37	5132.21
968.53	5111.73
968.69	5142.45
968.85	5099.44
969.02	5138.35
969.18	5171.12
969.34	5203.89
969.51	5275.57
969.67	5048.24
969.83	4997.04
970.00	5154.74
970.16	5023.67
970.32	4941.75
970.48	5281.71
970.65	5060.53
970.81	4974.52
970.97	5119.92
971.14	4937.65
971.30	5099.44
971.46	5021.62
971.63	4935.60
971.79	5089.20
971.95	5005.24
972.11	4982.71
972.28	4939.70
972.44	5021.62
972.60	4906.93
972.76	4829.11
972.93	4829.11
973.09	4958.13
973.25	4915.12
973.42	4851.64
973.58	4843.45
973.74	4947.89
973.90	4878.26
974.07	4849.59
974.23	4845.49
974.39	4915.12
974.55	4765.62
974.72	4804.53
974.88	4591.55
975.04	4806.58
975.20	4771.77
975.37	4890.55
975.53	4716.47
975.69	4747.19
975.85	4743.10
976.01	4706.23
976.18	4747.19
976.34	4698.04
976.50	4728.76
976.66	4642.75
976.83	4599.74
976.99	4784.06
977.15	4503.48
977.31	4616.12
977.47	4788.15
977.64	4644.79
977.80	4587.45
977.96	4603.83
978.12	4564.92
978.29	4587.45
978.45	4534.20
978.61	4526.01
978.77	4593.59
978.93	4573.11
979.10	4464.57
979.26	4538.30
979.42	4501.44
979.58	4405.18
979.74	4372.41
979.91	4433.85
980.07	4329.41
980.23	4411.32
980.39	4480.96
980.55	4456.38
980.71	4353.98
980.88	4206.53
981.04	4341.69
981.20	4310.97
981.36	4343.74
981.52	4302.78
981.68	4263.87
981.85	4261.82
982.01	4282.30
982.17	4245.44
982.33	4284.35
982.49	4429.76
982.65	4249.54
982.82	4231.10
982.98	4181.95
983.14	4140.99
983.30	4292.54
983.46	4278.21
983.62	4257.73
983.79	4220.86
983.95	4167.62
984.11	4073.41
984.27	4216.77
984.43	4235.20
984.59	4147.14
984.75	4210.62
984.91	4235.20
985.08	4184.00
985.24	4046.79
985.40	4120.51
985.56	4173.76
985.72	4136.90
985.88	4155.33
986.04	4069.31
986.20	3960.77
986.37	3966.92
986.53	3964.87
986.69	4044.74
986.85	4007.87
987.01	3989.44
987.17	3968.96
987.33	4100.03
987.49	3891.14
987.65	3956.68
987.82	4022.21
987.98	3921.86
988.14	4009.92
988.30	3909.57
988.46	4005.83
988.62	3936.20
988.78	3862.47
988.94	3829.70
989.10	3737.54
989.26	3776.45
989.42	3825.61
989.59	3760.07
989.75	3833.80
989.91	3790.79
990.07	3719.11
990.23	3704.78
990.39	3854.28
990.55	3821.51
990.71	3786.69
990.87	3688.39
991.03	3653.58
991.19	3672.01
991.35	3706.82
991.51	3733.45
991.67	3774.41
991.83	3731.40
992.00	3786.69
992.16	3733.45
992.32	3770.31
992.48	3663.82
992.64	3704.78
992.80	3624.90
992.96	3588.04
993.12	3624.90
993.28	3598.28
993.44	3659.72
993.60	3719.11
993.76	3659.72
993.92	3614.66
994.08	3686.34
994.24	3559.37
994.40	3614.66
994.56	3669.96
994.72	3502.03
994.88	3506.12
995.04	3452.88
995.20	3520.46
995.36	3477.45
995.52	3573.71
995.68	3522.51
995.84	3440.59
996.00	3579.85
996.16	3463.12
996.32	3456.97
996.48	3379.15
996.64	3475.40
996.80	3467.21
996.96	3420.11
997.12	3514.31
997.28	3399.63
997.44	3342.28
997.60	3397.58
997.76	3379.15
997.92	3385.29
998.08	3246.03
998.24	3293.13
998.40	3336.14
998.56	3338.19
998.72	3221.45
998.88	3254.22
999.04	3258.32
999.20	3252.17
999.36	3237.84
999.52	3313.61
999.68	3332.05
999.84	3260.37
1000.00	3497.93
1000.16	3317.71
1000.32	3200.98
1000.48	3370.96
1000.64	3086.29
1000.80	3143.63
1000.95	3151.82
1001.11	3225.55
1001.27	3106.77
1001.43	3160.02
1001.59	3129.30
1001.75	3149.78
1001.91	3131.34
1002.07	3117.01
1002.23	3026.90
1002.39	3094.48
1002.55	3160.02
1002.71	3141.58
1002.87	3061.71
1003.03	3059.67
1003.19	3053.52
1003.34	3057.62
1003.50	3049.43
1003.66	3043.28
1003.82	3069.91
1003.98	3022.80
1004.14	3067.86
1004.30	3010.51
1004.46	3004.37
1004.62	2975.70
1004.78	2996.18
1004.94	3018.71
1005.09	2953.17
1005.25	3090.38
1005.41	2901.97
1005.57	3024.85
1005.73	2901.97
1005.89	2899.92
1006.05	3002.32
1006.21	2981.84
1006.37	2873.30
1006.52	2901.97
1006.68	2906.07
1006.84	3047.38
1007.00	2830.29
1007.16	2906.07
1007.32	2846.68
1007.48	2912.21
1007.64	2869.20
1007.79	2881.49
1007.95	2818.00
1008.11	2924.50
1008.27	2844.63
1008.43	2826.20
1008.59	2799.57
1008.75	2881.49
1008.91	2865.11
1009.06	2731.99
1009.22	2932.69
1009.38	2797.53
1009.54	2742.23
1009.70	2775.00
1009.86	2744.28
1010.01	2840.53
1010.17	2740.18
1010.33	2754.52
1010.49	2723.80
1010.65	2848.72
1010.81	2715.61
1010.96	2762.71
1011.12	2652.12
1011.28	2711.51
1011.44	2707.41
1011.60	2705.37
1011.76	2658.26
1011.91	2783.19
1012.07	2633.69
1012.23	2602.97
1012.39	2625.50
1012.55	2811.86
1012.71	2682.84
1012.86	2547.67
1013.02	2682.84
1013.18	2750.42
1013.34	2629.59
1013.50	2699.22
1013.65	2557.91
1013.81	2572.25
1013.97	2559.96
1014.13	2684.89
1014.29	2627.54
1014.44	2713.56
1014.60	2496.47
1014.76	2559.96
1014.92	2527.19
1015.07	2625.50
1015.23	2555.86
1015.39	2549.72
1015.55	2512.86
1015.71	2473.95
1015.86	2547.67
1016.02	2392.03
1016.18	2490.33
1016.34	2559.96
1016.49	2576.34
1016.65	2596.82
1016.81	2469.85
1016.97	2562.01
1017.12	2510.81
1017.28	2389.98
1017.44	2445.27
1017.60	2430.94
1017.75	2447.32
1017.91	2443.23
1018.07	2457.56
1018.23	2412.51
1018.38	2306.01
1018.54	2430.94
1018.70	2437.08
1018.86	2392.03
1019.01	2426.84
1019.17	2338.78
1019.33	2516.95
1019.49	2369.50
1019.64	2480.09
1019.80	2459.61
1019.96	2394.08
1020.12	2426.84
1020.27	2375.64
1020.43	2392.03
1020.59	2400.22
1020.74	2320.35
1020.90	2383.84
1021.06	2355.16
1021.22	2426.84
1021.37	2318.30
1021.53	2211.81
1021.69	2428.89
1021.84	2273.25
1022.00	2256.86
1022.16	2338.78
1022.31	2279.39
1022.47	2351.07
1022.63	2346.97
1022.79	2271.20
1022.94	2265.05
1023.10	2355.16
1023.26	2277.34
1023.41	2297.82
1023.57	2215.90
1023.73	2254.81
1023.88	2252.77
1024.04	2226.14
1024.20	2195.42
1024.35	2322.40
1024.51	2361.31
1024.67	2254.81
1024.82	2338.78
1024.98	2164.70
1025.14	2224.09
1025.29	2154.46
1025.45	2265.05
1025.61	2203.61
1025.76	2121.70
1025.92	2215.90
1026.08	2263.01
1026.23	2228.19
1026.39	2176.99
1026.55	2211.81
1026.70	2205.66
1026.86	2263.01
1027.02	2230.24
1027.17	2080.74
1027.33	2256.86
1027.48	2191.33
1027.64	2146.27
1027.80	2179.04
1027.95	2213.85
1028.11	2076.64
1028.27	2164.70
1028.42	2121.70
1028.58	2033.63
1028.73	2101.22
1028.89	2009.06
1029.05	2146.27
1029.20	2181.09
>>>>>End Processed Spectral Data<<<<<
