SpectraSuite Data File
++++++++++++++++++++++++++++++++++++
Date: Fri Jun 02 14:53:34 CEST 2017
User: INFO_000
Dark Spectrum Present: No
Reference Spectrum Present: No
Number of Sampled Component Spectra: 1
Spectrometers: USB4H00879
Integration Time (usec): 80000 (USB4H00879)
Spectra Averaged: 1 (USB4H00879)
Boxcar Smoothing: 0 (USB4H00879)
Correct for Electrical Dark: No (USB4H00879)
Strobe/Lamp Enabled: No (USB4H00879)
Correct for Detector Non-linearity: No (USB4H00879)
Correct for Stray Light: No (USB4H00879)
Number of Pixels in Processed Spectrum: 3648
>>>>>Begin Processed Spectral Data<<<<<
345.13	1292.27
345.34	1292.27
345.56	1292.27
345.78	1298.41
345.99	1337.32
346.21	1724.39
346.42	1708.01
346.64	1669.09
346.86	1857.51
347.07	1611.75
347.29	1689.57
347.50	1624.04
347.72	1689.57
347.94	1724.39
348.15	1603.56
348.37	1658.85
348.59	1656.81
348.80	1681.38
349.02	1800.16
349.23	1900.52
349.45	1839.08
349.67	1910.75
349.88	1843.17
350.10	1970.15
350.31	1814.50
350.53	1806.31
350.75	1986.53
350.96	1789.92
351.18	1888.23
351.39	1855.46
351.61	1849.32
351.82	1824.74
352.04	1978.34
352.26	1877.99
352.47	1951.71
352.69	1912.80
352.90	1816.55
353.12	1851.36
353.34	1841.12
353.55	1978.34
353.77	1857.51
353.98	1906.66
354.20	1902.56
354.41	1984.48
354.63	1873.89
354.85	2013.15
355.06	1951.71
355.28	1871.84
355.49	1783.78
355.71	1843.17
355.92	1900.52
356.14	1912.80
356.35	1892.32
356.57	1853.41
356.79	1898.47
357.00	1863.65
357.22	1929.19
357.43	1861.60
357.65	2004.96
357.86	1904.61
358.08	1912.80
358.29	1964.00
358.51	1964.00
358.72	1953.76
358.94	1896.42
359.16	2029.54
359.37	1937.38
359.59	1966.05
359.80	1961.95
360.02	1998.82
360.23	1955.81
360.45	2058.21
360.66	1953.76
360.88	1912.80
361.09	1890.28
361.31	1998.82
361.52	2009.06
361.74	2043.87
361.95	2019.30
362.17	1873.89
362.38	2099.17
362.60	2084.83
362.81	2011.11
363.03	1906.66
363.24	1986.53
363.46	2043.87
363.67	1980.39
363.89	1943.52
364.10	2017.25
364.32	1955.81
364.53	2093.02
364.75	1929.19
364.96	2035.68
365.18	2007.01
365.39	2047.97
365.61	1863.65
365.82	2129.89
366.04	2000.87
366.25	1986.53
366.47	2082.78
366.68	2093.02
366.90	1998.82
367.11	2060.26
367.33	2101.22
367.54	2058.21
367.76	2103.26
367.97	2060.26
368.19	2052.06
368.40	2121.70
368.62	1966.05
368.83	1966.05
369.05	2072.54
369.26	2011.11
369.48	1986.53
369.69	2074.59
369.91	1992.67
370.12	2093.02
370.33	2117.60
370.55	2002.91
370.76	2074.59
370.98	2099.17
371.19	2064.35
371.41	2007.01
371.62	2068.45
371.84	2015.20
372.05	2156.51
372.27	1974.24
372.48	2021.35
372.69	2103.26
372.91	2174.94
373.12	2133.98
373.34	2109.41
373.55	2160.61
373.77	2203.61
373.98	2101.22
374.20	2142.18
374.41	2295.77
374.62	2146.27
374.84	2142.18
375.05	2230.24
375.27	2099.17
375.48	2191.33
375.70	2215.90
375.91	2267.10
376.12	2291.68
376.34	2224.09
376.55	2183.13
376.77	2285.53
376.98	2199.52
377.19	2164.70
377.41	2136.03
377.62	2230.24
377.84	2293.72
378.05	2265.05
378.27	2291.68
378.48	2244.57
378.69	2469.85
378.91	2265.05
379.12	2367.45
379.34	2162.66
379.55	2314.20
379.76	2295.77
379.98	2254.81
380.19	2240.48
380.41	2318.30
380.62	2330.59
380.83	2275.29
381.05	2293.72
381.26	2459.61
381.47	2332.64
381.69	2310.11
381.90	2379.74
382.12	2291.68
382.33	2392.03
382.54	2240.48
382.76	2359.26
382.97	2326.49
383.19	2271.20
383.40	2475.99
383.61	2369.50
383.83	2303.96
384.04	2351.07
384.25	2412.51
384.47	2365.40
384.68	2312.16
384.89	2320.35
385.11	2283.49
385.32	2344.92
385.54	2398.17
385.75	2324.44
385.96	2449.37
386.18	2447.32
386.39	2404.32
386.60	2328.54
386.82	2424.80
387.03	2316.25
387.24	2478.04
387.46	2430.94
387.67	2494.43
387.88	2519.00
388.10	2502.62
388.31	2471.90
388.52	2551.77
388.74	2449.37
388.95	2498.52
389.16	2525.15
389.38	2486.23
389.59	2549.72
389.80	2660.31
390.02	2617.30
390.23	2654.17
390.44	2512.86
390.66	2619.35
390.87	2531.29
391.08	2619.35
391.30	2656.22
391.51	2660.31
391.72	2723.80
391.94	2580.44
392.15	2660.31
392.36	2645.98
392.58	2602.97
392.79	2676.70
393.00	2719.70
393.22	2680.79
393.43	2746.33
393.64	2754.52
393.85	2846.68
394.07	2676.70
394.28	2719.70
394.49	2854.87
394.71	2785.24
394.92	2830.29
395.13	2691.03
395.35	2777.05
395.56	2818.00
395.77	2748.37
395.98	2787.29
396.20	2895.83
396.41	2822.10
396.62	2875.35
396.84	2824.15
397.05	2850.77
397.26	2861.01
397.47	3022.80
397.69	2867.16
397.90	3033.04
398.11	3061.71
398.32	2822.10
398.54	2910.16
398.75	2885.59
398.96	2959.31
399.18	3065.81
399.39	2998.23
399.60	3049.43
399.81	2928.60
400.03	2967.51
400.24	3336.14
400.45	2940.88
400.66	2977.75
400.88	2987.99
401.09	3256.27
401.30	3047.38
401.51	3127.25
401.73	3215.31
401.94	3221.45
402.15	3221.45
402.36	3135.44
402.58	3223.50
402.79	3223.50
403.00	3074.00
403.21	3239.89
403.43	3309.52
403.64	3276.75
403.85	3186.64
404.06	3262.41
404.27	3217.36
404.49	3172.30
404.70	3076.05
404.91	3264.46
405.12	3235.79
405.34	3330.00
405.55	3377.10
405.76	3094.48
405.97	3246.03
406.19	3301.33
406.40	3366.86
406.61	3334.09
406.82	3297.23
407.03	3237.84
407.25	3282.89
407.46	3327.95
407.67	3459.02
407.88	3469.26
408.09	3426.25
408.31	3295.18
408.52	3391.44
408.73	3403.72
408.94	3407.82
409.15	3456.97
409.37	3485.64
409.58	3516.36
409.79	3579.85
410.00	3573.71
410.21	3553.23
410.43	3549.13
410.64	3344.33
410.85	3493.83
411.06	3540.94
411.27	3604.42
411.48	3643.34
411.70	3540.94
411.91	3665.86
412.12	3629.00
412.33	3592.14
412.54	3532.75
412.76	3612.62
412.97	3651.53
413.18	3497.93
413.39	3608.52
413.60	3635.14
413.81	3731.40
414.03	3549.13
414.24	3647.43
414.45	3776.45
414.66	3624.90
414.87	3745.73
415.08	3792.84
415.30	3723.21
415.51	3819.46
415.72	3647.43
415.93	3762.12
416.14	3762.12
416.35	3772.36
416.56	3790.79
416.78	3813.32
416.99	3846.09
417.20	3778.50
417.41	3925.96
417.62	3909.57
417.83	3844.04
418.04	3991.49
418.26	3858.37
418.47	3878.85
418.68	4042.69
418.89	4038.59
419.10	4032.45
419.31	3907.52
419.52	4079.55
419.73	4063.17
419.95	4171.71
420.16	3993.54
420.37	4018.11
420.58	4173.76
420.79	3975.11
421.00	4079.55
421.21	4071.36
421.42	4007.87
421.63	4188.10
421.85	4108.23
422.06	4175.81
422.27	4214.72
422.48	4202.43
422.69	4261.82
422.90	4270.01
423.11	4239.30
423.32	4415.42
423.53	4534.20
423.75	4329.41
423.96	4663.22
424.17	4444.09
424.38	4652.98
424.59	4378.56
424.80	4669.37
425.01	4392.89
425.22	4364.22
425.43	4380.61
425.64	4679.61
425.85	4640.70
426.06	4560.83
426.28	4517.82
426.49	4536.25
426.70	4609.98
426.91	4747.19
427.12	4677.56
427.33	4573.11
427.54	4876.21
427.75	4755.38
427.96	4884.41
428.17	4822.97
428.38	4732.86
428.59	4951.99
428.80	4874.17
429.01	4833.21
429.23	4951.99
429.44	5005.24
429.65	4884.41
429.86	5066.67
430.07	4929.46
430.28	4872.12
430.49	5089.20
430.70	5257.14
430.91	5199.79
431.12	5076.91
431.33	5277.62
431.54	5056.43
431.75	5257.14
431.96	5093.30
432.17	5183.41
432.38	5187.50
432.59	5490.60
432.80	5228.46
433.01	5322.67
433.22	5431.21
433.43	5294.00
433.64	5365.68
433.85	5328.81
434.06	5431.21
434.27	5377.97
434.49	5488.56
434.70	5636.01
434.91	5562.28
435.12	5588.91
435.33	5539.76
435.54	5599.15
435.75	5406.64
435.96	5595.05
436.17	5599.15
436.38	5709.74
436.59	5805.99
436.80	5656.49
437.01	5836.71
437.22	5844.90
437.43	5732.26
437.64	5502.89
437.85	5863.33
438.06	5818.28
438.27	5664.68
438.48	5736.36
438.69	5969.83
438.90	5785.51
439.11	5910.44
439.32	5978.02
439.53	5932.97
439.74	5935.01
439.95	5920.68
440.16	6014.88
440.37	6047.65
440.57	5713.83
440.78	6029.22
440.99	6070.18
441.20	6014.88
441.41	5967.78
441.62	6119.33
441.83	5943.21
442.04	6238.11
442.25	6074.28
442.46	6270.88
442.67	6256.54
442.88	6625.18
443.09	6008.74
443.30	6123.43
443.51	6229.92
443.72	6473.63
443.93	6080.42
444.14	6500.25
444.35	6117.28
444.56	6401.95
444.77	6248.35
444.98	6459.29
445.19	6514.59
445.40	6395.81
445.61	6266.78
445.81	6528.92
446.02	6424.48
446.23	6451.10
446.44	6225.82
446.65	6641.56
446.86	6586.27
447.07	6643.61
447.28	6768.54
447.49	6739.87
447.70	6664.09
447.91	6662.04
448.12	6651.80
448.33	6649.75
448.54	6770.58
448.74	6778.78
448.95	6819.74
449.16	6703.00
449.37	7122.84
449.58	6901.65
449.79	7155.60
450.00	6770.58
450.21	6922.13
450.42	7090.07
450.63	6954.90
450.84	6942.61
451.05	7112.60
451.25	7020.44
451.46	6895.51
451.67	7190.42
451.88	7116.69
452.09	7311.25
452.30	7067.54
452.51	7022.48
452.72	7188.37
452.93	7427.98
453.13	7124.88
453.34	7100.31
453.55	7315.34
453.76	7112.60
453.97	7577.48
454.18	7464.85
454.39	7473.04
454.60	7432.08
454.81	7468.94
455.01	7548.81
455.22	7452.56
455.43	7579.53
455.64	7622.54
455.85	7739.27
456.06	7925.64
456.27	7694.22
456.48	7669.64
456.68	7819.14
456.89	7810.95
457.10	7798.66
457.31	7835.53
457.52	7892.87
457.73	7964.55
457.94	8099.72
458.14	7894.92
458.35	8423.30
458.56	8224.64
458.77	8071.04
458.98	8253.31
459.19	8292.23
459.39	8484.73
459.60	8253.31
459.81	8333.18
460.02	8462.21
460.23	8617.85
460.44	8503.17
460.65	8632.19
460.85	8771.45
461.06	8705.92
461.27	8499.07
461.48	8863.61
461.69	8847.22
461.89	8683.39
462.10	9043.83
462.31	8638.33
462.52	8568.70
462.73	8785.79
462.94	9049.97
463.14	9121.65
463.35	8982.39
463.56	9416.56
463.77	9371.50
463.98	9090.93
464.18	9185.14
464.39	9584.49
464.60	9643.88
464.81	9500.53
465.02	9555.82
465.23	9633.64
465.43	9404.27
465.64	9852.78
465.85	9637.74
466.06	9873.26
466.27	9996.14
466.47	9897.83
466.68	10047.33
466.89	9787.24
467.10	10170.21
467.30	9918.31
467.51	10295.14
467.72	10446.69
467.93	10033.00
468.14	10358.63
468.34	10493.79
468.55	10536.80
468.76	10458.98
468.97	10489.70
469.17	10680.16
469.38	10549.09
469.59	10909.53
469.80	10835.80
470.01	10819.42
470.21	10891.10
470.42	11212.63
470.63	11210.58
470.84	11118.42
471.04	11386.71
471.25	11255.64
471.46	11349.84
471.67	11427.67
471.87	11493.20
472.08	11695.95
472.29	11818.83
472.50	11503.44
472.70	11626.32
472.91	11747.15
473.12	12013.38
473.33	12121.93
473.53	12138.31
473.74	12242.76
473.95	12453.70
474.16	12670.78
474.36	12496.71
474.57	12564.29
474.78	12828.48
474.99	12584.77
475.19	12488.51
475.40	13035.32
475.61	13233.97
475.81	13215.54
476.02	13406.00
476.23	13051.70
476.44	13209.40
476.64	13399.86
476.85	13784.88
477.06	13610.80
477.27	13846.32
477.47	13958.96
477.68	14022.44
477.89	14079.79
478.09	13893.42
478.30	14118.70
478.51	14264.10
478.71	14243.62
478.92	14614.30
479.13	14602.02
479.34	14757.66
479.54	14733.09
479.75	15001.37
479.96	14870.30
480.16	15077.15
480.37	15103.77
480.58	15171.35
480.78	15519.51
480.99	15542.03
481.20	15478.55
481.41	15431.44
481.61	15910.67
481.82	15957.77
482.03	15707.92
482.23	15838.99
482.44	16197.38
482.65	16373.51
482.85	16471.81
483.06	16408.33
483.27	16430.85
483.47	16615.17
483.68	16617.22
483.89	16791.30
484.09	16727.81
484.30	17049.34
484.51	17247.99
484.71	17274.62
484.92	17460.98
485.13	17383.16
485.33	17553.14
485.54	17532.66
485.75	17710.83
485.95	17874.67
486.16	17749.75
486.37	18036.46
486.57	17843.95
486.78	18228.97
486.98	18132.72
487.19	18222.83
487.40	18398.95
487.60	18409.19
487.81	18781.92
488.02	18564.84
488.22	18630.37
488.43	18835.17
488.64	18968.29
488.84	18999.01
489.05	19056.35
489.25	19298.01
489.46	19363.54
489.67	19168.99
489.87	19545.81
490.08	19685.08
490.29	19719.89
490.49	19979.98
490.70	19975.89
490.90	20111.05
491.11	20039.37
491.32	20090.57
491.52	20281.03
491.73	20266.70
491.94	20379.34
492.14	20070.09
492.35	20694.72
492.55	20729.54
492.76	20668.10
492.97	20958.91
493.17	20823.75
493.38	21255.87
493.58	21247.68
493.79	21104.32
494.00	21087.93
494.20	20997.82
494.41	21223.10
494.61	21583.54
494.82	21487.29
495.02	21241.53
495.23	21472.95
495.44	21898.93
495.64	21931.70
495.85	21898.93
496.05	22044.34
496.26	22042.29
496.47	22562.47
496.67	22271.66
496.88	22621.86
497.08	22144.69
497.29	22691.49
497.49	22546.09
497.70	22685.35
497.91	22480.55
498.11	22779.56
498.32	22773.41
498.52	22902.43
498.73	23248.54
498.93	22787.75
499.14	23037.60
499.34	23211.68
499.55	23334.56
499.76	23393.95
499.96	23387.80
500.17	23383.71
500.37	23381.66
500.58	23522.97
500.78	23733.91
500.99	23699.09
501.19	23959.19
501.40	23864.98
501.60	23637.66
501.81	23713.43
502.02	23844.50
502.22	24143.50
502.43	24280.72
502.63	24309.39
502.84	24186.51
503.04	24544.91
503.25	24485.51
503.45	24233.61
503.66	24479.37
503.86	24614.54
504.07	24536.71
504.27	24553.10
504.48	24571.53
504.68	24993.41
504.89	24927.88
505.09	25153.15
505.30	24624.78
505.50	24913.54
505.71	25157.25
505.91	24909.44
506.12	25312.89
506.32	25216.64
506.53	25149.06
506.73	25405.05
506.94	25228.93
507.14	25226.88
507.35	25501.31
507.55	25656.95
507.76	25570.94
507.96	25497.21
508.17	25542.27
508.37	25615.99
508.58	25554.55
508.78	25833.08
508.99	26283.63
509.19	25679.48
509.40	26087.03
509.60	25974.39
509.81	26037.87
510.01	26105.46
510.22	25898.61
510.42	26130.03
510.63	26371.69
510.83	26197.62
511.04	26234.48
511.24	26492.52
511.44	26439.28
511.65	26582.63
511.85	26371.69
512.06	26877.54
512.26	26564.20
512.47	26875.49
512.67	26936.93
512.88	26920.55
513.08	26459.76
513.29	26834.53
513.49	26748.52
513.69	26889.83
513.90	27162.21
514.10	27022.95
514.31	27293.28
514.51	27010.66
514.72	27133.54
514.92	27188.83
515.13	27256.42
515.33	27332.19
515.53	27457.12
515.74	27514.46
515.94	27424.35
516.15	27633.24
516.35	27399.77
516.56	27674.20
516.76	27446.88
516.96	27838.04
517.17	27809.37
517.37	27686.49
517.58	28116.56
517.78	28112.47
517.99	27911.77
518.19	28503.63
518.39	28212.82
518.60	28286.54
518.80	28218.96
519.01	28200.53
519.21	28282.45
519.41	28450.38
519.62	28251.73
519.82	28683.85
520.03	28671.56
520.23	28747.34
520.43	28847.69
520.64	29017.67
520.84	29349.44
521.05	28958.28
521.25	29111.88
521.45	29236.80
521.66	29427.26
521.86	29349.44
522.07	29183.55
522.27	29390.40
522.47	29292.10
522.68	29982.26
522.88	29161.03
523.08	29627.96
523.29	29664.83
523.49	30250.55
523.70	29597.24
523.90	30225.97
524.10	30189.11
524.31	30246.45
524.51	30033.46
524.71	30463.54
524.92	30410.29
525.12	30604.84
525.33	30436.91
525.53	30944.81
525.73	30709.29
525.94	31346.21
526.14	31149.60
526.34	30813.74
526.55	30897.70
526.75	31122.98
526.95	31368.74
527.16	31487.52
527.36	31368.74
527.56	31632.93
527.77	32005.66
527.97	31467.04
528.17	31708.70
528.38	32095.77
528.58	31989.27
528.78	32165.40
528.99	31837.72
529.19	32574.99
529.39	32071.19
529.60	32544.27
529.80	32650.77
530.00	32288.28
530.21	32673.29
530.41	32828.94
530.61	32681.49
530.82	33136.13
531.02	33072.65
531.22	33254.92
531.43	33439.23
531.63	33152.52
531.83	33388.03
532.04	33689.09
532.24	33793.53
532.44	34008.57
532.64	34147.83
532.85	34145.78
533.05	33953.27
533.25	34268.66
533.46	33930.75
533.66	34469.36
533.86	34285.04
534.07	34838.00
534.27	34631.15
534.47	34932.20
534.67	34932.20
534.88	34600.43
535.08	35304.93
535.28	35354.08
535.49	35554.79
535.69	35845.60
535.89	35458.53
536.09	35784.16
536.30	35698.14
536.50	35687.90
536.70	35757.53
536.91	35878.36
537.11	35919.32
537.31	36521.43
537.51	36072.92
537.72	36298.20
537.92	36976.08
538.12	37150.15
538.32	36648.40
538.53	36861.39
538.73	36640.21
538.93	36879.82
539.13	36740.56
539.34	36908.49
539.54	37019.08
539.74	37533.12
539.94	37072.33
540.15	37404.10
540.35	37647.81
540.55	37742.02
540.75	37518.79
540.96	37840.32
541.16	38022.59
541.36	37901.76
541.56	37940.67
541.77	38423.99
541.97	37780.93
542.17	38194.62
542.37	38557.11
542.58	38565.30
542.78	38266.30
542.98	38411.70
543.18	38909.36
543.38	39232.94
543.59	38927.79
543.79	39138.73
543.99	39218.60
544.19	39372.20
544.40	39163.31
544.60	39515.56
544.80	39179.69
545.00	39454.12
545.20	39785.89
545.41	39159.21
545.61	39720.35
545.81	40195.48
546.01	40422.81
546.21	39777.70
546.42	39724.45
546.62	39986.59
546.82	40306.07
547.02	39994.78
547.22	40324.50
547.43	40238.49
547.63	40414.62
547.83	40535.45
548.03	40103.32
548.23	40387.99
548.44	40639.89
548.64	40551.83
548.84	40797.59
549.04	40926.61
549.24	41299.34
549.45	41151.88
549.65	40791.44
549.85	41029.01
550.05	41708.93
550.25	41031.05
550.45	41743.75
550.66	41534.85
550.86	41151.88
551.06	41776.51
551.26	41702.79
551.46	41557.38
551.66	41901.44
551.87	41799.04
552.07	42057.09
552.27	41969.02
552.47	42098.05
552.67	42562.93
552.87	41989.50
553.07	42278.27
553.28	42360.19
553.48	42085.76
553.68	42646.90
553.88	42542.45
554.08	42571.13
554.28	41975.17
554.48	42259.84
554.69	42233.21
554.89	42507.64
555.09	42636.66
555.29	41991.55
555.49	42800.50
555.69	42800.50
555.89	42200.44
556.10	42964.34
556.30	42816.88
556.50	43242.86
556.70	42777.97
556.90	43087.21
557.10	42947.95
557.30	43218.28
557.50	43275.63
557.70	43591.01
557.91	43591.01
558.11	43427.18
558.31	43773.28
558.51	43298.16
558.71	43197.80
558.91	43816.29
559.11	43664.74
559.31	43431.27
559.51	43435.37
559.72	43558.25
559.92	43545.96
560.12	43378.03
560.32	44006.75
560.52	43509.10
560.72	43750.76
560.92	43885.92
561.12	44338.52
561.32	43949.41
561.52	43904.35
561.72	44479.83
561.93	43844.96
562.13	44092.77
562.33	43939.17
562.53	44795.22
562.73	43808.10
562.93	44209.50
563.13	44275.04
563.33	44135.77
563.53	44236.12
563.73	44021.09
563.93	44350.81
564.13	44916.05
564.33	43982.18
564.53	44402.01
564.74	44954.96
564.94	44272.99
565.14	44868.95
565.34	44311.90
565.54	44580.18
565.74	44553.56
565.94	44883.28
566.14	44604.76
566.34	44774.74
566.54	44766.55
566.74	44608.86
566.94	44936.53
567.14	44860.76
567.34	44766.55
567.54	45104.46
567.74	45391.18
567.94	44885.33
568.14	45364.56
568.34	45520.20
568.54	44936.53
568.74	45290.83
568.94	45145.42
569.14	45665.61
569.34	45227.34
569.54	45530.44
569.75	45028.69
569.95	45196.62
570.15	45542.73
570.35	45329.74
570.55	45251.92
570.75	45735.24
570.95	45241.68
571.15	45776.20
571.35	45196.62
571.55	45520.20
571.75	45636.94
571.95	45671.75
572.15	45081.94
572.35	45620.55
572.55	45692.23
572.75	45757.77
572.95	45544.78
573.15	46126.40
573.35	45778.25
573.55	45868.36
573.75	45954.37
573.95	45978.95
574.15	45837.64
574.35	45966.66
574.55	46167.36
574.75	45962.56
574.95	45972.80
575.15	46196.03
575.34	46464.32
575.54	46015.81
575.74	46636.34
575.94	46361.92
576.14	46308.67
576.34	46546.23
576.54	46634.30
576.74	46556.47
576.94	46513.47
577.14	46499.13
577.34	46335.29
577.54	46441.79
577.74	47060.27
577.94	46341.44
578.14	47052.08
578.34	47017.27
578.54	46241.09
578.74	46751.03
578.94	46835.00
579.14	46527.80
579.34	47258.93
579.54	46990.64
579.74	47322.41
579.94	46775.61
580.13	47080.75
580.33	47306.03
580.53	47318.32
580.73	47363.37
580.93	46718.26
581.13	47445.29
581.33	47455.53
581.53	47656.23
581.73	47408.43
581.93	47449.39
582.13	47637.80
582.33	47547.69
582.53	47484.20
582.73	47936.80
582.92	47420.72
583.12	48192.80
583.32	47201.58
583.52	47590.70
583.72	47602.99
583.92	47629.61
584.12	47877.41
584.32	48293.15
584.52	48084.26
584.72	48051.49
584.92	48192.80
585.11	48669.98
585.31	48153.89
585.51	48545.05
585.71	48246.05
585.91	48397.60
586.11	48346.40
586.31	48149.79
586.51	48354.59
586.71	48618.78
586.91	48520.48
587.10	48743.70
587.30	48596.25
587.50	48620.83
587.70	48213.28
587.90	48821.53
588.10	49009.94
588.30	48420.13
588.50	49218.83
588.69	48837.91
588.89	48629.02
589.09	48747.80
589.29	49108.24
589.49	49091.86
589.69	49132.82
589.89	49009.94
590.08	49136.91
590.28	48737.56
590.48	49034.52
590.68	48858.39
590.88	49220.88
591.08	49036.56
591.28	49022.23
591.47	49642.76
591.67	49239.31
591.87	49163.54
592.07	49323.28
592.27	49513.74
592.47	49249.55
592.67	49732.87
592.86	49499.40
593.06	49585.42
593.26	49698.06
593.46	49675.53
593.66	49554.70
593.86	49782.02
594.05	49986.82
594.25	50164.99
594.45	49650.95
594.65	49868.04
594.85	49544.46
595.05	50234.63
595.24	49968.39
595.44	49976.58
595.64	50001.16
595.84	50132.23
596.04	49986.82
596.23	50013.44
596.43	50304.26
596.63	49988.87
596.83	50287.87
597.03	50418.94
597.22	50461.95
597.42	50371.84
597.62	50818.30
597.82	50402.56
598.02	50416.89
598.21	51131.64
598.41	50470.14
598.61	50767.10
598.81	50695.42
599.01	51115.25
599.20	50924.79
599.40	50771.19
599.60	51000.57
599.80	51027.19
600.00	51246.32
600.19	51649.77
600.39	51074.29
600.59	51305.71
600.79	51313.90
600.98	50951.41
601.18	51418.35
601.38	51596.52
601.58	51528.94
601.78	51832.04
601.97	51440.88
602.17	52004.07
602.37	51967.21
602.57	51207.41
602.76	52286.69
602.96	51739.88
603.16	51918.06
603.36	52303.07
603.55	52110.56
603.75	51700.97
603.95	52129.00
604.15	51883.24
604.34	51969.26
604.54	52499.68
604.74	52059.37
604.94	52473.06
605.13	52397.28
605.33	52509.92
605.53	51991.78
605.73	52741.34
605.92	52444.38
606.12	53093.59
606.32	53312.72
606.52	52841.69
606.71	52817.11
606.91	53255.38
607.11	52565.21
607.30	52944.09
607.50	53081.30
607.70	53204.18
607.90	52710.62
608.09	53032.15
608.29	53404.88
608.49	53042.39
608.68	53118.17
608.88	53540.05
609.08	53609.68
609.28	53550.29
609.47	53249.24
609.67	53744.84
609.87	53163.22
610.06	53701.84
610.26	53654.73
610.46	53613.77
610.66	53200.08
610.85	53880.01
611.05	53566.67
611.25	53497.04
611.44	53914.83
611.64	54033.61
611.84	53521.62
612.03	53548.24
612.23	53720.27
612.43	53847.24
612.62	53560.53
612.82	54435.01
613.02	54011.08
613.21	54039.75
613.41	53705.93
613.61	54271.17
613.80	53832.91
614.00	53916.87
614.20	54344.90
614.39	54238.40
614.59	54011.08
614.79	54097.09
614.98	54121.67
615.18	54099.14
615.38	54506.69
615.57	54228.16
615.77	54191.30
615.97	54330.56
616.16	54568.13
616.36	54052.04
616.56	54265.03
616.75	54281.41
616.95	54037.70
617.15	54383.81
617.34	54660.29
617.54	54301.89
617.74	54609.09
617.93	54525.12
618.13	54357.19
618.32	54281.41
618.52	54154.44
618.72	54310.08
618.91	54416.58
619.11	54273.22
619.31	54820.03
619.50	54656.19
619.70	53900.49
619.90	54336.71
620.09	54355.14
620.29	54176.97
620.48	54199.49
620.68	55114.94
620.88	54150.34
621.07	54551.74
621.27	54531.26
621.46	54346.95
621.66	54764.73
621.86	54754.49
622.05	54486.21
622.25	55137.46
622.44	54547.65
622.64	54582.46
622.84	54920.38
623.03	54406.34
623.23	54738.11
623.42	54602.94
623.62	55108.79
623.82	54924.47
624.01	54539.46
624.21	54854.84
624.40	54449.35
624.60	54926.52
624.80	54508.74
624.99	54525.12
625.19	54408.39
625.38	55190.71
625.58	55284.92
625.77	55035.06
625.97	54639.81
626.17	54541.50
626.36	54740.16
626.56	54994.10
626.75	54715.58
626.95	55153.85
627.14	55014.58
627.34	55737.52
627.54	54693.05
627.73	55135.41
627.93	54824.12
628.12	54817.98
628.32	54852.80
628.51	55123.13
628.71	54752.44
628.90	54977.72
629.10	55254.20
629.30	54695.10
629.49	54936.76
629.69	54787.26
629.88	54850.75
630.08	55508.14
630.27	55057.59
630.47	55272.63
630.66	54910.14
630.86	55332.02
631.05	54510.78
631.25	55606.45
631.44	55329.97
631.64	55026.87
631.84	55321.78
632.03	55375.03
632.23	55278.77
632.42	55686.32
632.62	55200.95
632.81	55391.41
633.01	55059.64
633.20	55620.78
633.40	55852.20
633.59	55456.95
633.79	55436.47
633.98	55702.70
634.18	55661.74
634.37	55608.50
634.57	55420.08
634.76	56122.54
634.96	55551.15
635.15	56212.65
635.35	55811.24
635.54	55336.12
635.74	55596.21
635.93	55698.61
636.13	55839.92
636.32	56276.13
636.52	55641.26
636.71	55927.98
636.91	56196.26
637.10	55940.27
637.30	55923.88
637.49	55485.62
637.69	55590.06
637.88	55993.51
638.08	55456.95
638.27	56179.88
638.46	55925.93
638.66	55563.44
638.85	55733.42
639.05	55858.35
639.24	56183.97
639.44	55637.17
639.63	55977.13
639.83	56360.10
640.02	55973.03
640.22	55694.51
640.41	56175.78
640.61	55473.33
640.80	56390.82
640.99	56018.09
641.19	56562.85
641.38	56091.82
641.58	56151.21
641.77	56005.80
641.97	55948.46
642.16	56468.64
642.36	56313.00
642.55	56603.81
642.74	56247.46
642.94	56818.84
643.13	56263.85
643.33	56419.49
643.52	56859.80
643.72	56509.60
643.91	56751.26
644.10	56773.79
644.30	56841.37
644.49	56251.56
644.69	56599.71
644.88	56931.48
645.08	56210.60
645.27	56523.94
645.46	56224.93
645.66	56577.18
645.85	56421.54
646.05	56728.73
646.24	56736.93
646.43	56843.42
646.63	57013.40
646.82	57306.26
647.02	56702.11
647.21	57162.90
647.40	57087.13
647.60	57048.22
647.79	57097.37
647.99	56784.03
648.18	57072.79
648.37	57396.37
648.57	57531.54
648.76	56857.76
648.96	56851.61
649.15	57445.52
649.34	56863.90
649.54	57138.33
649.73	57095.32
649.92	57156.76
650.12	56886.43
650.31	57218.20
650.51	57261.21
650.70	57666.70
650.89	56951.96
651.09	57676.94
651.28	57437.33
651.47	57369.75
651.67	57306.26
651.86	57599.12
652.06	57033.88
652.25	57515.15
652.44	57271.45
652.64	56763.55
652.83	57195.67
653.02	56726.69
653.22	57230.49
653.41	56673.44
653.60	57175.19
653.80	56917.15
653.99	57220.25
654.18	57238.68
654.38	57035.93
654.57	57789.58
654.76	57382.04
654.96	57431.19
655.15	57128.09
655.34	57586.83
655.54	56655.01
655.73	57189.53
655.92	57697.42
656.12	57398.42
656.31	57240.73
656.50	57177.24
656.70	57803.92
656.89	57572.50
657.08	57519.25
657.28	57896.08
657.47	57515.15
657.66	57767.05
657.86	56917.15
658.05	57441.43
658.24	57556.11
658.43	57429.14
658.63	57357.46
658.82	57742.48
659.01	57584.79
659.21	57857.17
659.40	57500.82
659.59	57261.21
659.79	57851.02
659.98	57914.51
660.17	57877.64
660.36	57879.69
660.56	57595.03
660.75	57789.58
660.94	57978.00
661.14	57769.10
661.33	57406.61
661.52	57345.17
661.71	57218.20
661.91	57130.14
662.10	57595.03
662.29	57986.19
662.49	57588.88
662.68	57746.57
662.87	57883.79
663.06	58223.75
663.26	57353.36
663.45	58035.34
663.64	57521.30
663.83	57760.91
664.03	57848.97
664.22	57734.29
664.41	57752.72
664.60	57142.42
664.80	58014.86
664.99	57722.00
665.18	57480.34
665.37	57574.55
665.57	57746.57
665.76	57588.88
665.95	57930.89
666.14	57662.61
666.34	57463.96
666.53	57650.32
666.72	57726.10
666.91	57367.70
667.11	57253.01
667.30	57668.75
667.49	57379.99
667.68	57420.95
667.87	57384.08
668.07	57969.80
668.26	57648.27
668.45	57644.18
668.64	57236.63
668.84	57975.95
669.03	57840.78
669.22	57459.86
669.41	57506.96
669.60	57506.96
669.80	57013.40
669.99	57930.89
670.18	57232.53
670.37	57785.49
670.57	57832.59
670.76	57406.61
670.95	57582.74
671.14	57105.56
671.33	57296.02
671.53	57621.65
671.72	57541.78
671.91	57609.36
672.10	57472.15
672.29	57193.62
672.48	57136.28
672.68	57750.67
672.87	57506.96
673.06	57474.20
673.25	57240.73
673.44	57242.77
673.64	56927.39
673.83	57189.53
674.02	57160.86
674.21	57160.86
674.40	57402.52
674.59	56919.20
674.79	56724.64
674.98	56800.41
675.17	57136.28
675.36	56691.87
675.55	57275.54
675.74	56685.73
675.94	57093.27
676.13	56964.25
676.32	57253.01
676.51	57498.77
676.70	57236.63
676.89	57277.59
677.08	57382.04
677.28	56558.75
677.47	56917.15
677.66	57203.86
677.85	56622.24
678.04	57195.67
678.23	57404.56
678.42	57087.13
678.62	56951.96
678.81	57281.69
679.00	56560.80
679.19	57222.29
679.38	56956.06
679.57	56767.65
679.76	56984.73
679.96	56800.41
680.15	56804.51
680.34	56378.53
680.53	56718.49
680.72	57115.80
680.91	57058.46
681.10	56423.59
681.29	56493.22
681.48	56974.49
681.68	56089.77
681.87	56366.24
682.06	56599.71
682.25	56194.21
682.44	56317.09
682.63	56399.01
682.82	55932.07
683.01	56370.34
683.20	56134.82
683.39	56392.87
683.59	56161.45
683.78	56177.83
683.97	56151.21
684.16	56198.31
684.35	55817.39
684.54	55911.59
684.73	55786.67
684.92	56167.59
685.11	56024.23
685.30	56022.19
685.49	56433.83
685.69	55792.81
685.88	56009.90
686.07	55921.83
686.26	55909.55
686.45	55911.59
686.64	55751.85
686.83	55815.34
687.02	55712.94
687.21	56247.46
687.40	55973.03
687.59	55813.29
687.78	55592.11
687.97	56206.50
688.16	55878.83
688.35	55764.14
688.54	55663.79
688.74	55964.84
688.93	55637.17
689.12	55671.98
689.31	55680.17
689.50	55534.77
689.69	55440.56
689.88	55065.78
690.07	55520.43
690.26	55405.75
690.45	55870.64
690.64	54969.53
690.83	55342.26
691.02	55329.97
691.21	54736.06
691.40	55119.03
691.59	55076.02
691.78	55182.52
691.97	55127.22
692.16	54934.71
692.35	55035.06
692.54	55008.44
692.73	54842.56
692.92	54965.43
693.11	55039.16
693.30	55004.34
693.49	55096.50
693.68	54492.35
693.87	54928.57
694.06	54439.11
694.25	54621.37
694.44	54342.85
694.63	55059.64
694.82	55137.46
695.01	54844.60
695.20	54631.61
695.39	54688.96
695.58	54428.87
695.77	54246.60
695.96	54301.89
696.15	54463.68
696.34	54406.34
696.53	54486.21
696.72	54627.52
696.91	53796.04
697.10	54645.95
697.29	53982.41
697.48	54242.50
697.67	54330.56
697.86	54351.04
698.05	53976.26
698.24	54189.25
698.43	53497.04
698.62	54189.25
698.81	53353.68
699.00	54455.49
699.19	53689.55
699.38	54170.82
699.57	53740.75
699.76	54398.15
699.95	53861.58
700.14	53785.80
700.32	53834.95
700.51	53681.36
700.70	54193.35
700.89	53814.47
701.08	53935.30
701.27	53722.32
701.46	54023.37
701.65	53097.69
701.84	53617.87
702.03	53779.66
702.22	53480.66
702.41	53046.49
702.60	53556.43
702.79	53320.91
702.98	52894.94
703.17	52909.27
703.35	52913.37
703.54	52950.23
703.73	53753.04
703.92	52960.47
704.11	52829.40
704.30	52755.68
704.49	52884.70
704.68	53239.00
704.87	53097.69
705.06	53052.63
705.25	52755.68
705.43	52716.76
705.62	52876.51
705.81	52565.21
706.00	52790.49
706.19	52565.21
706.38	52622.56
706.57	52778.20
706.76	52589.79
706.95	52710.62
707.14	52720.86
707.32	52352.23
707.51	52143.33
707.70	52438.24
707.89	52315.36
708.08	52950.23
708.27	52628.70
708.46	52751.58
708.65	51856.62
708.84	52432.10
709.02	52358.37
709.21	52499.68
709.40	52245.73
709.59	52550.88
709.78	51918.06
709.97	52169.96
710.16	51739.88
710.34	52229.35
710.53	51778.79
710.72	51770.60
710.91	52223.20
711.10	52518.11
711.29	52176.10
711.48	52114.66
711.66	51954.92
711.85	51934.44
712.04	51979.49
712.23	52126.95
712.42	51741.93
712.61	51690.73
712.80	51565.81
712.98	51619.05
713.17	51946.73
713.36	51578.09
713.55	51776.75
713.74	51651.82
713.93	51479.79
714.11	51381.49
714.30	51201.27
714.49	51586.28
714.68	51569.90
714.87	51315.95
715.06	52071.65
715.24	50975.99
715.43	51356.91
715.62	51164.40
715.81	50836.73
716.00	51057.91
716.18	50978.04
716.37	51072.24
716.56	50810.10
716.75	51102.96
716.94	50855.16
717.12	50754.81
717.31	50889.98
717.50	50973.94
717.69	50605.31
717.88	51137.78
718.06	50975.99
718.25	50828.54
718.44	50488.57
718.63	50312.45
718.82	50453.76
719.00	50492.67
719.19	50244.87
719.38	49982.73
719.57	50031.88
719.76	49962.25
719.94	50029.83
720.13	50208.00
720.32	49806.60
720.51	49829.13
720.69	49982.73
720.88	49718.54
721.07	49997.06
721.26	49442.06
721.44	49812.74
721.63	49755.40
721.82	49128.72
722.01	49233.17
722.20	49892.61
722.38	49276.18
722.57	48825.62
722.76	49257.74
722.95	49290.51
723.13	49184.02
723.32	49409.29
723.51	48923.93
723.70	48694.55
723.88	49378.57
724.07	48729.37
724.26	49065.24
724.44	48516.38
724.63	49005.84
724.82	48461.08
725.01	48784.66
725.19	48823.58
725.38	48661.79
725.57	48264.48
725.76	48854.29
725.94	48233.76
726.13	48706.84
726.32	48569.63
726.51	48315.68
726.69	48618.78
726.88	48221.47
727.07	48309.53
727.25	48432.41
727.44	48348.45
727.63	47985.96
727.82	48110.88
728.00	48084.26
728.19	48153.89
728.38	48586.01
728.56	48260.38
728.75	48538.91
728.94	48280.86
729.12	47797.54
729.31	48497.95
729.50	48448.80
729.69	48262.43
729.87	48213.28
730.06	48086.31
730.25	48641.31
730.43	48960.79
730.62	47983.91
730.81	48313.63
730.99	48659.74
731.18	48248.10
731.37	48571.67
731.55	48321.82
731.74	48483.61
731.93	48141.60
732.11	48233.76
732.30	48033.06
732.49	47971.62
732.67	47801.64
732.86	47693.10
733.05	48256.29
733.23	47955.24
733.42	48012.58
733.61	47963.43
733.79	48086.31
733.98	48538.91
734.17	48039.20
734.35	48145.70
734.54	47973.67
734.73	47945.00
734.91	47783.21
735.10	47373.61
735.29	48059.68
735.47	47428.91
735.66	48014.63
735.84	47893.80
736.03	48031.01
736.22	48129.31
736.40	48180.51
736.59	48059.68
736.78	47715.62
736.96	47744.30
737.15	47686.95
737.33	47949.09
737.52	47586.60
737.71	47433.00
737.89	47283.50
738.08	47293.74
738.27	47400.24
738.45	47834.41
738.64	47738.15
738.82	47793.45
739.01	47467.82
739.20	47631.66
739.38	47357.23
739.57	47797.54
739.75	47461.68
739.94	47277.36
740.13	47476.01
740.31	47238.45
740.50	47332.65
740.68	47056.18
740.87	47498.54
741.06	47379.76
741.24	47314.22
741.43	47009.07
741.61	47316.27
741.80	47027.51
741.99	47254.83
742.17	46972.21
742.36	47109.43
742.54	47093.04
742.73	47043.89
742.91	47199.54
743.10	46914.87
743.29	47330.61
743.47	47146.29
743.66	46687.54
743.84	47105.33
744.03	47213.87
744.21	46753.08
744.40	47320.37
744.59	46777.65
744.77	46720.31
744.96	46644.54
745.14	47170.86
745.33	47144.24
745.51	47056.18
745.70	46726.46
745.88	47052.08
746.07	46550.33
746.26	46488.89
746.44	46466.36
746.63	46738.74
746.81	46720.31
747.00	46454.08
747.18	46345.53
747.37	46323.01
747.55	46460.22
747.74	46576.95
747.92	46290.24
748.11	46675.26
748.29	46193.98
748.48	46525.75
748.66	46660.92
748.85	46431.55
749.03	46038.34
749.22	45880.64
749.41	46030.15
749.59	46257.47
749.78	46069.06
749.96	45438.28
750.15	45595.98
750.33	46007.62
750.52	45561.16
750.70	45851.97
750.89	45669.70
751.07	45442.38
751.26	45915.46
751.44	45792.58
751.63	45643.08
751.81	46144.83
752.00	45860.16
752.18	45720.90
752.37	45471.05
752.55	45796.68
752.74	45204.81
752.92	45192.53
753.10	45116.75
753.29	45495.63
753.47	45178.19
753.66	45319.50
753.84	45557.06
754.03	45217.10
754.21	45286.73
754.40	45235.53
754.58	45036.88
754.77	45475.15
754.95	45014.35
755.14	45004.11
755.32	45356.36
755.51	44985.68
755.69	44766.55
755.88	44905.81
756.06	45098.32
756.24	44780.88
756.43	44852.56
756.61	44832.08
756.80	44959.06
756.98	44721.49
757.17	44696.92
757.35	44901.71
757.54	44674.39
757.72	44672.34
757.90	44057.95
758.09	44154.21
758.27	44490.07
758.46	44025.18
758.64	44543.32
758.83	44485.98
759.01	44203.36
759.19	44242.27
759.38	44748.12
759.56	44692.82
759.75	44586.33
759.93	44064.10
760.12	44160.35
760.30	44318.04
760.48	44383.58
760.67	43951.46
760.85	44520.79
761.04	43980.13
761.22	43961.70
761.40	44107.10
761.59	43988.32
761.77	43732.32
761.96	43746.66
762.14	43717.99
762.32	43609.45
762.51	43656.55
762.69	43752.80
762.88	43652.45
763.06	43683.17
763.24	43443.56
763.43	43861.35
763.61	43642.21
763.80	43582.82
763.98	43402.60
764.16	43128.17
764.35	43560.30
764.53	43070.83
764.72	43332.97
764.90	43263.34
765.08	43189.61
765.27	43578.73
765.45	43402.60
765.63	42722.68
765.82	43257.20
766.00	42745.20
766.18	42769.78
766.37	43351.40
766.55	42990.96
766.74	43087.21
766.92	42638.71
767.10	42761.59
767.29	42737.01
767.47	42433.91
767.65	42589.56
767.84	41887.10
768.02	42632.57
768.20	42472.82
768.39	42792.31
768.57	42241.40
768.75	42390.91
768.94	42192.25
769.12	42548.60
769.30	42122.62
769.49	42255.74
769.67	42417.53
769.85	41571.72
770.04	41776.51
770.22	42096.00
770.40	41784.71
770.59	41735.56
770.77	42081.66
770.95	42163.58
771.14	41538.95
771.32	41598.34
771.50	41194.89
771.69	41581.96
771.87	41729.41
772.05	41330.06
772.24	41366.92
772.42	41719.17
772.60	41223.56
772.78	41303.43
772.97	40983.95
773.15	41516.42
773.33	41112.97
773.52	41129.36
773.70	41426.31
773.88	41330.06
774.07	41295.24
774.25	41137.55
774.43	41035.15
774.61	41266.57
774.80	40721.81
774.98	41731.46
775.16	41330.06
775.34	41168.27
775.53	41301.39
775.71	41241.99
775.89	41667.97
776.08	41196.94
776.26	41479.56
776.44	41117.07
776.62	41354.63
776.81	40953.23
776.99	41377.16
777.17	41176.46
777.35	41317.77
777.54	41557.38
777.72	41330.06
777.90	41733.51
778.08	41753.99
778.27	41491.85
778.45	41969.02
778.63	41606.53
778.81	41401.74
779.00	42534.26
779.18	41907.58
779.36	42112.38
779.54	41710.98
779.73	41721.22
779.91	41731.46
780.09	42091.90
780.27	41932.16
780.46	41792.90
780.64	41807.23
780.82	41954.69
781.00	42014.08
781.19	42347.90
781.37	42409.34
781.55	41977.22
781.73	42411.38
781.91	42036.61
782.10	42206.59
782.28	42268.03
782.46	42081.66
782.64	42538.36
782.82	42052.99
783.01	42562.93
783.19	42327.42
783.37	42521.98
783.55	42315.13
783.74	42618.23
783.92	41942.40
784.10	42747.25
784.28	42149.24
784.46	42116.48
784.64	42128.77
784.83	42155.39
785.01	42589.56
785.19	42272.12
785.37	42237.31
785.55	42268.03
785.74	41354.63
785.92	41858.43
786.10	41973.12
786.28	42116.48
786.46	41770.37
786.64	41958.78
786.83	42136.96
787.01	42276.22
787.19	42007.94
787.37	41833.86
787.55	41864.58
787.74	42044.80
787.92	41803.14
788.10	41643.40
788.28	41629.06
788.46	42147.20
788.64	41702.79
788.82	41831.81
789.01	41481.61
789.19	41629.06
789.37	41528.71
789.55	41137.55
789.73	41098.64
789.91	41352.58
790.09	41289.10
790.28	41244.04
790.46	41194.89
790.64	41180.56
790.82	41239.95
791.00	40711.57
791.18	40904.08
791.36	40801.68
791.55	40889.74
791.73	40441.24
791.91	40385.94
792.09	40539.54
792.27	40109.47
792.45	40447.38
792.63	40207.77
792.81	40023.45
793.00	40207.77
793.18	39863.71
793.36	39935.39
793.54	40013.21
793.72	39800.22
793.90	39841.18
794.08	40097.18
794.26	39611.81
794.44	39265.70
794.62	38995.37
794.81	39056.81
794.99	38899.12
795.17	39523.75
795.35	39138.73
795.53	38929.84
795.71	39146.92
795.89	38868.40
796.07	38800.82
796.25	38215.10
796.43	38735.28
796.61	38012.35
796.80	38507.96
796.98	38395.32
797.16	38137.27
797.34	38340.02
797.52	38063.55
797.70	38479.28
797.88	38364.60
798.06	37993.92
798.24	38073.79
798.42	37840.32
798.60	37895.61
798.78	37320.13
798.96	37739.97
799.14	37490.12
799.32	37215.69
799.51	37205.45
799.69	37156.30
799.87	36933.07
800.05	36740.56
800.23	36908.49
800.41	37000.65
800.59	36728.27
800.77	36730.32
800.95	36513.23
801.13	36687.31
801.31	36050.39
801.49	36820.43
801.67	36070.87
801.85	36326.87
802.03	35775.97
802.21	35945.95
802.39	36044.25
802.57	36144.60
802.75	35843.55
802.93	35962.33
803.11	35716.58
803.29	35550.69
803.47	35263.97
803.65	35155.43
803.83	35231.21
804.01	35266.02
804.19	35139.05
804.37	35048.94
804.55	35384.80
804.73	35360.23
804.91	34702.83
805.09	34997.74
805.27	34592.24
805.45	34739.69
805.63	35059.18
805.81	34618.86
805.99	34735.60
806.17	34330.10
806.35	34715.12
806.53	34287.09
806.71	34612.72
806.89	34295.28
807.07	34272.76
807.25	33936.89
807.43	34209.27
807.61	34283.00
807.79	33893.88
807.97	33691.13
808.15	33547.78
808.33	33369.60
808.51	33472.00
808.69	33443.33
808.87	33232.39
809.05	33510.91
809.23	33093.13
809.41	33369.60
809.59	33060.36
809.77	33000.97
809.95	32816.65
810.13	32931.34
810.31	32611.85
810.49	32835.08
810.67	32826.89
810.84	32816.65
811.02	32597.52
811.20	32255.51
811.38	32466.45
811.56	32343.57
811.74	32296.47
811.92	32138.77
812.10	32419.35
812.28	32546.32
812.46	32005.66
812.64	31880.73
812.82	32204.31
813.00	31995.42
813.18	31735.32
813.36	31825.43
813.53	31559.20
813.71	31878.68
813.89	31825.43
814.07	31501.86
814.25	31923.74
814.43	31338.02
814.61	31458.85
814.79	31338.02
814.97	31385.12
815.15	31362.59
815.33	30926.38
815.50	30856.75
815.68	31028.77
815.86	31313.44
816.04	30918.18
816.22	31200.80
816.40	31129.12
816.58	30553.65
816.76	30744.11
816.94	30709.29
817.11	30580.27
817.29	31061.54
817.47	30463.54
817.65	30314.03
817.83	30314.03
818.01	30547.50
818.19	30295.60
818.37	30365.23
818.54	29957.69
818.72	29890.10
818.90	30273.07
819.08	29791.80
819.26	29789.75
819.44	29908.54
819.62	29802.04
819.80	29812.28
819.97	30129.72
820.15	29769.27
820.33	29519.42
820.51	29505.09
820.69	29222.47
820.87	29630.01
821.05	29738.55
821.22	29267.52
821.40	29748.79
821.58	29208.13
821.76	29077.06
821.94	29498.94
822.12	29441.60
822.29	29472.32
822.47	29064.77
822.65	29632.06
822.83	29283.91
823.01	28898.89
823.19	29101.64
823.36	28737.10
823.54	28769.86
823.72	28823.11
823.90	28782.15
824.08	28591.69
824.25	28825.16
824.43	28470.86
824.61	28536.40
824.79	28685.90
824.97	28067.41
825.15	28624.46
825.32	28579.40
825.50	28069.46
825.68	28264.02
825.86	28608.08
826.04	28456.53
826.21	28307.02
826.39	28397.13
826.57	28126.80
826.75	27909.72
826.93	27899.48
827.10	28051.03
827.28	27815.51
827.46	28053.08
827.64	27747.93
827.81	27721.30
827.99	27981.40
828.17	27610.71
828.35	27547.23
828.53	27756.12
828.70	27637.34
828.88	27524.70
829.06	27889.24
829.24	27879.00
829.41	27434.59
829.59	27516.51
829.77	27520.60
829.95	27299.42
830.12	27301.47
830.30	27260.51
830.48	27231.84
830.66	27045.48
830.84	27250.27
831.01	27235.94
831.19	27199.07
831.37	26789.48
831.55	26900.07
831.72	26902.12
831.90	26543.72
832.08	26592.87
832.25	26959.46
832.43	26756.71
832.61	26699.37
832.79	26582.63
832.96	26740.33
833.14	26345.07
833.32	26666.60
833.50	26525.29
833.67	26695.27
833.85	26695.27
834.03	26322.54
834.20	26437.23
834.38	26517.10
834.56	26861.16
834.74	26203.76
834.91	26416.75
835.09	26377.84
835.27	25826.93
835.44	26109.55
835.62	25820.79
835.80	25843.32
835.98	26123.89
836.15	26009.20
836.33	25726.58
836.51	26009.20
836.68	25822.84
836.86	25931.38
837.04	26175.09
837.21	25710.20
837.39	25890.42
837.57	25949.81
837.75	25806.45
837.92	25450.11
838.10	25697.91
838.28	25435.77
838.45	25579.13
838.63	25572.99
838.81	25869.94
838.98	25511.55
839.16	25423.48
839.34	25147.01
839.51	25421.44
839.69	25128.58
839.87	25097.86
840.04	25308.80
840.22	25640.57
840.40	25157.25
840.57	24733.32
840.75	25226.88
840.93	24774.28
841.10	25261.69
841.28	25095.81
841.46	25149.06
841.63	25030.27
841.81	24927.88
841.98	25116.29
842.16	24985.22
842.34	25028.23
842.51	24354.44
842.69	24602.25
842.87	24788.61
843.04	24643.21
843.22	24665.74
843.40	24479.37
843.57	24561.29
843.75	24696.46
843.92	24747.65
844.10	24749.70
844.28	24620.68
844.45	24639.11
844.63	24456.84
844.81	24432.27
844.98	24436.36
845.16	24147.60
845.33	24139.41
845.51	24360.59
845.69	24385.16
845.86	24272.53
846.04	24178.32
846.21	24108.69
846.39	24088.21
846.57	23760.53
846.74	24235.66
846.92	23692.95
847.09	23500.44
847.27	23750.29
847.45	23711.38
847.62	23770.77
847.80	23977.62
847.97	23897.75
848.15	23795.35
848.32	23516.83
848.50	23817.88
848.68	23535.26
848.85	23678.61
849.03	23391.90
849.20	23563.93
849.38	23328.41
849.56	23535.26
849.73	23355.04
849.91	23510.68
850.08	23778.97
850.26	23123.62
850.43	23246.49
850.61	23389.85
850.78	23264.92
850.96	23398.04
851.14	22804.13
851.31	23572.12
851.49	22978.21
851.66	23047.84
851.84	23072.42
852.01	23037.60
852.19	23035.55
852.36	23013.02
852.54	23101.09
852.71	22703.78
852.89	22990.50
853.07	23146.14
853.24	23105.18
853.42	23045.79
853.59	22685.35
853.77	22877.86
853.94	23004.83
854.12	22986.40
854.29	22451.88
854.47	22615.72
854.64	22812.32
854.82	22705.83
854.99	22791.84
855.17	22460.07
855.34	22347.44
855.52	22580.90
855.69	22578.86
855.87	22623.91
856.04	22425.26
856.22	22490.79
856.39	21917.36
856.57	22408.87
856.74	22269.61
856.92	22333.10
857.09	22193.84
857.27	22277.80
857.44	22541.99
857.62	22281.90
857.79	22286.00
857.97	21946.03
858.14	22177.45
858.32	21763.76
858.49	21911.22
858.67	22159.02
858.84	21767.86
859.02	22111.92
859.19	21642.93
859.37	21728.95
859.54	21548.73
859.72	22122.16
859.89	21800.63
860.06	22070.96
860.24	21591.73
860.41	21765.81
860.59	21317.31
860.76	21663.41
860.94	21644.98
861.11	21501.62
861.29	21358.27
861.46	21223.10
861.64	21472.95
861.81	21147.33
861.98	21434.04
862.16	21438.14
862.33	21102.27
862.51	21079.74
862.68	21180.09
862.86	21214.91
863.03	21159.61
863.21	21083.84
863.38	21198.52
863.55	20772.55
863.73	21176.00
863.90	21255.87
864.08	20827.84
864.25	20788.93
864.43	21034.69
864.60	21006.02
864.77	20676.29
864.95	20932.29
865.12	20729.54
865.30	20756.16
865.47	20948.67
865.64	20690.63
865.82	20954.82
865.99	20729.54
866.17	20614.85
866.34	20612.81
866.51	20410.06
866.69	20473.54
866.86	20707.01
867.04	20526.79
867.21	20375.24
867.38	20235.98
867.56	20348.62
867.73	20348.62
867.91	20240.08
868.08	20375.24
868.25	20256.46
868.43	20100.81
868.60	20182.73
868.78	20037.33
868.95	20330.19
869.12	20055.76
869.30	19959.50
869.47	20088.53
869.64	19633.88
869.82	20018.89
869.99	19869.39
870.16	19951.31
870.34	20082.38
870.51	20219.60
870.69	19840.72
870.86	19853.01
871.03	20008.65
871.21	19513.05
871.38	19977.94
871.55	19511.00
871.73	19642.07
871.90	19605.20
872.07	19162.84
872.25	19289.82
872.42	19300.06
872.59	19334.87
872.77	19287.77
872.94	19293.91
873.11	19328.73
873.29	19396.31
873.46	19562.20
873.63	19302.11
873.81	19295.96
873.98	18865.89
874.15	18872.03
874.33	18599.65
874.50	18904.80
874.67	19072.73
874.85	18902.75
875.02	18585.32
875.19	18462.44
875.37	18759.39
875.54	18734.82
875.71	18792.16
875.88	18581.22
876.06	18310.89
876.23	18470.63
876.40	18345.70
876.58	18319.08
876.75	18421.48
876.92	18147.05
877.10	18396.90
877.27	18423.53
877.44	18128.62
877.61	18267.88
877.79	18382.57
877.96	18038.51
878.13	18384.62
878.31	17770.22
878.48	17938.16
878.65	17934.06
878.82	17970.93
879.00	18149.10
879.17	17860.34
879.34	17868.53
879.51	17944.30
879.69	17864.43
879.86	17551.09
880.03	17864.43
880.21	17837.81
880.38	18042.60
880.55	17911.53
880.72	17612.53
880.90	17518.32
881.07	17350.39
881.24	17491.70
881.41	17602.29
881.59	17397.49
881.76	17594.10
881.93	17299.19
882.10	17329.91
882.28	17329.91
882.45	17676.02
882.62	17448.69
882.79	17366.78
882.96	17121.02
883.14	17192.70
883.31	17123.07
883.48	17334.01
883.65	17204.99
883.83	17309.43
884.00	17342.20
884.17	17043.20
884.34	17288.95
884.51	16998.14
884.69	17336.06
884.86	16838.40
885.03	16928.51
885.20	16858.88
885.38	17004.28
885.55	16799.49
885.72	17028.86
885.89	16791.30
886.06	16660.23
886.24	16838.40
886.41	16662.27
886.58	17071.87
886.75	16875.26
886.92	16815.87
887.10	16742.14
887.27	16611.07
887.44	16772.86
887.61	16629.51
887.78	16641.79
887.95	16426.76
888.13	16844.54
888.30	16557.83
888.47	16596.74
888.64	16621.31
888.81	16473.86
888.99	16428.81
889.16	16320.26
889.33	16467.72
889.50	16162.57
889.67	16361.22
889.84	16260.87
890.01	16131.85
890.19	16295.69
890.36	16244.49
890.53	16209.67
890.70	15996.68
890.87	16307.98
891.04	16123.66
891.22	16135.95
891.39	16285.45
891.56	15912.72
891.73	16090.89
891.90	15814.41
892.07	15992.59
892.24	16123.66
892.42	15685.39
892.59	15847.18
892.76	15908.62
892.93	15765.26
893.10	15896.33
893.27	15681.30
893.44	15656.72
893.61	15765.26
893.79	15841.04
893.96	15582.99
894.13	15615.76
894.30	15755.02
894.47	15863.57
894.64	15658.77
894.81	15834.89
894.98	15720.21
895.15	15527.70
895.33	15523.60
895.50	15453.97
895.67	15560.47
895.84	15505.17
896.01	15634.19
896.18	15615.76
896.35	15562.51
896.52	15746.83
896.69	15568.66
896.86	15744.78
897.04	15648.53
897.21	15494.93
897.38	15572.75
897.55	15529.75
897.72	15476.50
897.89	15302.42
898.06	15660.82
898.23	15644.43
898.40	15423.25
898.57	15429.40
898.74	15503.12
898.91	15417.11
899.08	15531.80
899.26	15365.91
899.43	15546.13
899.60	15404.82
899.77	15292.18
899.94	15359.77
900.11	15435.54
900.28	15374.10
900.45	15488.79
900.62	15138.58
900.79	15660.82
900.96	15378.20
901.13	15410.96
901.30	15208.22
901.47	15230.74
901.64	15560.47
901.81	15286.04
901.98	15480.60
902.15	15464.21
902.32	15279.89
902.49	15257.37
902.66	15427.35
902.83	15392.53
903.01	15349.53
903.18	15568.66
903.35	15322.90
903.52	15408.92
903.69	15490.84
903.86	15490.84
904.03	15071.00
904.20	15539.99
904.37	15507.22
904.54	15386.39
904.71	15310.61
904.88	15376.15
905.05	15183.64
905.22	15271.70
905.39	15249.18
905.56	15249.18
905.73	15019.80
905.90	15378.20
906.07	15146.78
906.24	15568.66
906.41	15466.26
906.58	15191.83
906.75	15120.15
906.92	15142.68
907.09	15150.87
907.26	15120.15
907.43	15273.75
907.60	15224.60
907.77	15224.60
907.93	15224.60
908.10	15384.34
908.27	15415.06
908.44	15048.47
908.61	15320.85
908.78	15077.15
908.95	15157.02
909.12	15126.30
909.29	15265.56
909.46	15101.72
909.63	15120.15
909.80	15109.91
909.97	15085.34
910.14	15048.47
910.31	14935.84
910.48	14958.36
910.65	15079.19
910.82	14948.12
910.99	15052.57
911.16	14919.45
911.33	15073.05
911.50	15144.73
911.66	14720.80
911.83	15052.57
912.00	14876.44
912.17	14554.91
912.34	14872.35
912.51	14882.59
912.68	14694.18
912.85	14761.76
913.02	14823.20
913.19	14667.55
913.36	14700.32
913.53	14825.25
913.70	14524.19
913.86	14935.84
914.03	14747.42
914.20	14554.91
914.37	14524.19
914.54	14591.78
914.71	14694.18
914.88	14499.62
915.05	14352.16
915.22	14352.16
915.39	14257.96
915.55	14405.41
915.72	14257.96
915.89	14346.02
916.06	14262.05
916.23	14167.85
916.40	14237.48
916.57	14151.46
916.74	14141.22
916.91	14024.49
917.07	14008.11
917.24	14051.11
917.41	13983.53
917.58	13969.19
917.75	13897.52
917.92	13836.08
918.09	13831.98
918.26	13586.22
918.42	13745.97
918.59	13702.96
918.76	13754.16
918.93	13651.76
919.10	13520.69
919.27	13559.60
919.44	13461.30
919.60	13463.35
919.77	13481.78
919.94	13262.65
920.11	13422.39
920.28	13440.82
920.45	13252.41
920.61	13262.65
920.78	12930.87
920.95	13119.29
921.12	12949.31
921.29	13033.27
921.46	13018.94
921.62	12855.10
921.79	12873.53
921.96	12906.30
922.13	13051.70
922.30	12816.19
922.47	12703.55
922.63	12701.50
922.80	12683.07
922.97	12242.76
923.14	12420.93
923.31	12586.82
923.47	12355.40
923.64	12570.43
923.81	12160.84
923.98	12296.00
924.15	12398.40
924.32	12525.38
924.48	12488.51
924.65	12447.55
924.82	12076.87
924.99	11951.95
925.15	11929.42
925.32	11974.47
925.49	11876.17
925.66	11714.38
925.83	11816.78
925.99	11743.05
926.16	11761.48
926.33	11689.81
926.50	11548.50
926.67	11771.72
926.83	11652.94
927.00	11659.09
927.17	11495.25
927.34	11491.15
927.50	11339.60
927.67	11603.79
927.84	11454.29
928.01	11222.87
928.17	11247.44
928.34	11075.42
928.51	11075.42
928.68	11134.81
928.84	11132.76
929.01	11054.94
929.18	10852.19
929.35	10903.39
929.51	10936.15
929.68	10792.80
929.85	10686.30
930.02	10878.81
930.18	10776.41
930.35	10796.89
930.52	10626.91
930.69	10588.00
930.85	10755.93
931.02	10364.77
931.19	10518.37
931.36	10348.39
931.52	10442.59
931.69	10497.89
931.86	10293.09
932.02	10196.84
932.19	10137.45
932.36	10215.27
932.53	10159.97
932.69	9934.70
932.86	10186.60
933.03	10008.42
933.19	9803.63
933.36	9877.35
933.53	9883.50
933.70	9854.83
933.86	9666.41
934.03	9471.86
934.20	9385.84
934.36	9654.12
934.53	9416.56
934.70	9383.79
934.86	9305.97
935.03	9088.89
935.20	9226.10
935.36	9301.87
935.53	8947.58
935.70	9088.89
935.86	9105.27
936.03	8777.59
936.20	8644.48
936.36	8601.47
936.53	8605.56
936.70	8677.24
936.86	8517.50
937.03	8574.85
937.20	8368.00
937.36	8322.94
937.53	8015.75
937.70	8044.42
937.86	7991.17
938.03	8015.75
938.20	7913.35
938.36	7729.03
938.53	7935.88
938.70	7458.70
938.86	7679.88
939.03	7395.22
939.20	7260.05
939.36	7387.02
939.53	7251.86
939.70	7487.37
939.86	7153.55
940.03	6983.57
940.19	6856.60
940.36	6879.13
940.53	6860.70
940.69	6664.09
940.86	6703.00
941.03	6705.05
941.19	6541.21
941.36	6436.77
941.52	6590.36
941.69	6293.41
941.86	6176.67
942.02	6320.03
942.19	6223.78
942.35	6209.44
942.52	6111.14
942.69	5973.92
942.85	5935.01
943.02	5943.21
943.18	5885.86
943.35	5883.81
943.52	5916.58
943.68	5820.33
943.85	5908.39
944.01	5742.50
944.18	5615.53
944.35	5689.26
944.51	5531.56
944.68	5441.45
944.84	5525.42
945.01	5564.33
945.17	5717.93
945.34	5588.91
945.51	5509.04
945.67	5468.08
945.84	5564.33
946.00	5410.73
946.17	5367.73
946.33	5500.84
946.50	5492.65
946.67	5332.91
946.83	5427.12
947.00	5449.64
947.16	5318.57
947.33	5289.90
947.49	5326.77
947.66	5236.66
947.82	5412.78
947.99	5369.77
948.16	5427.12
948.32	5240.75
948.49	5357.49
948.65	5412.78
948.82	5408.69
948.98	5294.00
949.15	5160.88
949.31	5337.01
949.48	5347.25
949.64	5205.94
949.81	5373.87
949.97	5451.69
950.14	5361.58
950.30	5220.27
950.47	5523.37
950.63	5222.32
950.80	5400.49
950.96	5353.39
951.13	5296.05
951.30	5234.61
951.46	5431.21
951.63	5443.50
951.79	5455.79
951.96	5511.08
952.12	5402.54
952.29	5394.35
952.45	5255.09
952.62	5345.20
952.78	5394.35
952.94	5390.25
953.11	5377.97
953.27	5277.62
953.44	5640.11
953.60	5414.83
953.77	5517.23
953.93	5396.40
954.10	5556.14
954.26	5478.32
954.43	5525.42
954.59	5498.80
954.76	5466.03
954.92	5562.28
955.09	5541.80
955.25	5568.43
955.42	5527.47
955.58	5662.63
955.75	5484.46
955.91	5506.99
956.07	5517.23
956.24	5621.67
956.40	5420.97
956.57	5670.83
956.73	5482.41
956.90	5425.07
957.06	5459.88
957.23	5486.51
957.39	5552.04
957.56	5681.07
957.72	5371.82
957.88	5339.05
958.05	5390.25
958.21	5566.38
958.38	5451.69
958.54	5451.69
958.71	5629.87
958.87	5437.36
959.03	5531.56
959.20	5472.17
959.36	5429.17
959.53	5447.60
959.69	5498.80
959.85	5478.32
960.02	5646.25
960.18	5617.58
960.35	5322.67
960.51	5506.99
960.68	5545.90
960.84	5513.13
961.00	5500.84
961.17	5488.56
961.33	5457.84
961.50	5502.89
961.66	5527.47
961.82	5384.11
961.99	5586.86
962.15	5425.07
962.31	5439.40
962.48	5605.29
962.64	5431.21
962.81	5552.04
962.97	5427.12
963.13	5445.55
963.30	5474.22
963.46	5472.17
963.62	5459.88
963.79	5461.93
963.95	5351.34
964.12	5431.21
964.28	5547.95
964.44	5451.69
964.61	5365.68
964.77	5402.54
964.93	5468.08
965.10	5371.82
965.26	5425.07
965.42	5388.21
965.59	5347.25
965.75	5320.62
965.92	5326.77
966.08	5240.75
966.24	5414.83
966.41	5312.43
966.57	5337.01
966.73	5441.45
966.90	5316.53
967.06	5361.58
967.22	5388.21
967.39	5439.40
967.55	5054.39
967.71	5320.62
967.88	5271.47
968.04	5171.12
968.20	5083.06
968.37	5179.31
968.53	5181.36
968.69	5265.33
968.85	5296.05
969.02	5207.98
969.18	5081.01
969.34	5160.88
969.51	5162.93
969.67	5257.14
969.83	5191.60
970.00	5312.43
970.16	5275.57
970.32	5150.64
970.48	5089.20
970.65	5052.34
970.81	4919.22
970.97	5052.34
971.14	4929.46
971.30	5173.17
971.46	5025.72
971.63	5093.30
971.79	5167.03
971.95	5050.29
972.11	4849.59
972.28	4900.79
972.44	4992.95
972.60	4980.66
972.76	5040.05
972.93	4870.07
973.09	5052.34
973.25	5025.72
973.42	4849.59
973.58	4892.60
973.74	4915.12
973.90	4949.94
974.07	4976.56
974.23	4841.40
974.39	4908.98
974.55	5035.96
974.72	4884.41
974.88	4753.34
975.04	4865.97
975.20	4827.06
975.37	5038.00
975.53	4843.45
975.69	4906.93
975.85	4839.35
976.01	4818.87
976.18	4906.93
976.34	4710.33
976.50	4800.44
976.66	4808.63
976.83	4677.56
976.99	4706.23
977.15	4743.10
977.31	4607.93
977.47	4763.58
977.64	4739.00
977.80	4665.27
977.96	4732.86
978.12	4698.04
978.29	4644.79
978.45	4646.84
978.61	4562.87
978.77	4577.21
978.93	4517.82
979.10	4663.22
979.26	4616.12
979.42	4421.56
979.58	4437.95
979.74	4407.23
979.91	4579.26
980.07	4341.69
980.23	4368.32
980.39	4396.99
980.55	4411.32
980.71	4382.65
980.88	4616.12
981.04	4364.22
981.20	4440.00
981.36	4407.23
981.52	4417.47
981.68	4366.27
981.85	4388.80
982.01	4335.55
982.17	4315.07
982.33	4308.93
982.49	4450.24
982.65	4300.73
982.82	4431.80
982.98	4358.08
983.14	4302.78
983.30	4429.76
983.46	4440.00
983.62	4304.83
983.79	4302.78
983.95	4227.01
984.11	4200.38
984.27	4276.16
984.43	4282.30
984.59	4169.66
984.75	4114.37
984.91	4114.37
985.08	4310.97
985.24	4181.95
985.40	4063.17
985.56	4163.52
985.72	4179.90
985.88	4247.49
986.04	4097.99
986.20	4169.66
986.37	4134.85
986.53	4042.69
986.69	4106.18
986.85	3987.40
987.01	4077.51
987.17	4112.32
987.33	4020.16
987.49	3940.29
987.65	4132.80
987.82	4016.07
987.98	3989.44
988.14	3985.35
988.30	4046.79
988.46	3966.92
988.62	4026.31
988.78	3905.48
988.94	3958.72
989.10	3915.72
989.26	3813.32
989.42	3856.33
989.59	3872.71
989.75	3811.27
989.91	3901.38
990.07	3647.43
990.23	3841.99
990.39	3794.89
990.55	3798.98
990.71	3809.22
990.87	3758.02
991.03	3784.65
991.19	3702.73
991.35	3841.99
991.51	3762.12
991.67	3729.35
991.83	3665.86
992.00	3747.78
992.16	3792.84
992.32	3674.06
992.48	3766.21
992.64	3669.96
992.80	3676.10
992.96	3663.82
993.12	3672.01
993.28	3678.15
993.44	3678.15
993.60	3629.00
993.76	3653.58
993.92	3674.06
994.08	3704.78
994.24	3577.80
994.40	3626.95
994.56	3680.20
994.72	3542.99
994.88	3573.71
995.04	3596.23
995.20	3590.09
995.36	3463.12
995.52	3629.00
995.68	3481.55
995.84	3594.19
996.00	3676.10
996.16	3444.68
996.32	3579.85
996.48	3456.97
996.64	3600.33
996.80	3368.91
996.96	3436.49
997.12	3473.36
997.28	3461.07
997.44	3452.88
997.60	3358.67
997.76	3413.96
997.92	3469.26
998.08	3452.88
998.24	3319.76
998.40	3317.71
998.56	3338.19
998.72	3194.83
998.88	3348.43
999.04	3295.18
999.20	3364.81
999.36	3342.28
999.52	3346.38
999.68	3305.42
999.84	3434.44
1000.00	3373.00
1000.16	3354.57
1000.32	3215.31
1000.48	3319.76
1000.64	3133.39
1000.80	3094.48
1000.95	3141.58
1001.11	3286.99
1001.27	3112.91
1001.43	3303.37
1001.59	3141.58
1001.75	3174.35
1001.91	3143.63
1002.07	3182.54
1002.23	3108.82
1002.39	3084.24
1002.55	3192.78
1002.71	3012.56
1002.87	3090.38
1003.03	3119.06
1003.19	3076.05
1003.34	3153.87
1003.50	3172.30
1003.66	3162.06
1003.82	3041.23
1003.98	3121.10
1004.14	3059.67
1004.30	3080.14
1004.46	3035.09
1004.62	2961.36
1004.78	3041.23
1004.94	2934.74
1005.09	3018.71
1005.25	3020.75
1005.41	3108.82
1005.57	3018.71
1005.73	2967.51
1005.89	2987.99
1006.05	3039.19
1006.21	3127.25
1006.37	2895.83
1006.52	2959.31
1006.68	2883.54
1006.84	2965.46
1007.00	2813.91
1007.16	2930.64
1007.32	2852.82
1007.48	2936.79
1007.64	2926.55
1007.79	2895.83
1007.95	2858.96
1008.11	2936.79
1008.27	2891.73
1008.43	2818.00
1008.59	2830.29
1008.75	2881.49
1008.91	2852.82
1009.06	2869.20
1009.22	2916.31
1009.38	2865.11
1009.54	2793.43
1009.70	2797.53
1009.86	2799.57
1010.01	2801.62
1010.17	2818.00
1010.33	2744.28
1010.49	2791.38
1010.65	2818.00
1010.81	2641.88
1010.96	2785.24
1011.12	2717.65
1011.28	2791.38
1011.44	2721.75
1011.60	2723.80
1011.76	2648.02
1011.91	2746.33
1012.07	2645.98
1012.23	2643.93
1012.39	2666.46
1012.55	2686.94
1012.71	2625.50
1012.86	2682.84
1013.02	2613.21
1013.18	2613.21
1013.34	2547.67
1013.50	2697.17
1013.65	2643.93
1013.81	2592.73
1013.97	2613.21
1014.13	2605.02
1014.29	2572.25
1014.44	2721.75
1014.60	2648.02
1014.76	2525.15
1014.92	2572.25
1015.07	2584.54
1015.23	2693.08
1015.39	2516.95
1015.55	2510.81
1015.71	2570.20
1015.86	2512.86
1016.02	2424.80
1016.18	2557.91
1016.34	2578.39
1016.49	2531.29
1016.65	2605.02
1016.81	2469.85
1016.97	2557.91
1017.12	2461.66
1017.28	2410.46
1017.44	2574.30
1017.60	2451.42
1017.75	2443.23
1017.91	2408.41
1018.07	2465.75
1018.23	2478.04
1018.38	2349.02
1018.54	2508.76
1018.70	2447.32
1018.86	2398.17
1019.01	2480.09
1019.17	2459.61
1019.33	2486.23
1019.49	2363.36
1019.64	2465.75
1019.80	2527.19
1019.96	2443.23
1020.12	2412.51
1020.27	2316.25
1020.43	2363.36
1020.59	2361.31
1020.74	2375.64
1020.90	2457.56
1021.06	2263.01
1021.22	2293.72
1021.37	2359.26
1021.53	2203.61
1021.69	2338.78
1021.84	2238.43
1022.00	2303.96
1022.16	2224.09
1022.31	2303.96
1022.47	2312.16
1022.63	2336.73
1022.79	2236.38
1022.94	2344.92
1023.10	2334.68
1023.26	2236.38
1023.41	2346.97
1023.57	2215.90
1023.73	2295.77
1023.88	2342.88
1024.04	2179.04
1024.20	2211.81
1024.35	2297.82
1024.51	2279.39
1024.67	2238.43
1024.82	2344.92
1024.98	2133.98
1025.14	2308.06
1025.29	2220.00
1025.45	2279.39
1025.61	2152.42
1025.76	2115.55
1025.92	2164.70
1026.08	2242.53
1026.23	2230.24
1026.39	2326.49
1026.55	2199.52
1026.70	2158.56
1026.86	2133.98
1027.02	2242.53
1027.17	2152.42
1027.33	2246.62
1027.48	2158.56
1027.64	2140.13
1027.80	2142.18
1027.95	2250.72
1028.11	2123.74
1028.27	2148.32
1028.42	2138.08
1028.58	2037.73
1028.73	2150.37
1028.89	2004.96
1029.05	2183.13
1029.20	2101.22
>>>>>End Processed Spectral Data<<<<<
