SpectraSuite Data File
++++++++++++++++++++++++++++++++++++
Date: Fri Jun 02 14:53:31 CEST 2017
User: INFO_000
Dark Spectrum Present: No
Reference Spectrum Present: No
Number of Sampled Component Spectra: 1
Spectrometers: USB4H00879
Integration Time (usec): 80000 (USB4H00879)
Spectra Averaged: 1 (USB4H00879)
Boxcar Smoothing: 0 (USB4H00879)
Correct for Electrical Dark: No (USB4H00879)
Strobe/Lamp Enabled: No (USB4H00879)
Correct for Detector Non-linearity: No (USB4H00879)
Correct for Stray Light: No (USB4H00879)
Number of Pixels in Processed Spectrum: 3648
>>>>>Begin Processed Spectral Data<<<<<
345.13	1239.02
345.34	1239.02
345.56	1239.02
345.78	1306.60
345.99	1257.45
346.21	1748.97
346.42	1685.48
346.64	1624.04
346.86	1820.64
347.07	1634.28
347.29	1677.29
347.50	1671.14
347.72	1640.42
347.94	1679.33
348.15	1630.18
348.37	1667.05
348.59	1677.29
348.80	1671.14
349.02	1697.77
349.23	1818.60
349.45	1873.89
349.67	1845.22
349.88	1830.88
350.10	1918.95
350.31	1812.45
350.53	1779.68
350.75	1871.84
350.96	1748.97
351.18	1873.89
351.39	1824.74
351.61	1853.41
351.82	1941.47
352.04	1900.52
352.26	1796.07
352.47	1867.75
352.69	1939.43
352.90	1777.64
353.12	1855.46
353.34	1865.70
353.55	1966.05
353.77	1888.23
353.98	1894.37
354.20	1959.91
354.41	1929.19
354.63	1904.61
354.85	2031.58
355.06	1925.09
355.28	1810.40
355.49	1914.85
355.71	1853.41
355.92	1843.17
356.14	1968.10
356.35	1837.03
356.57	1880.04
356.79	1910.75
357.00	1855.46
357.22	1990.63
357.43	1806.31
357.65	1959.91
357.86	1908.71
358.08	1894.37
358.29	1994.72
358.51	2015.20
358.72	1998.82
358.94	1951.71
359.16	2035.68
359.37	1908.71
359.59	1943.52
359.80	2011.11
360.02	1964.00
360.23	1994.72
360.45	1972.19
360.66	1929.19
360.88	1910.75
361.09	1931.23
361.31	1943.52
361.52	1920.99
361.74	2019.30
361.95	2033.63
362.17	1951.71
362.38	2047.97
362.60	2045.92
362.81	2007.01
363.03	1994.72
363.24	1978.34
363.46	1970.15
363.67	2062.30
363.89	1996.77
364.10	1978.34
364.32	1966.05
364.53	2107.36
364.75	1904.61
364.96	1974.24
365.18	2068.45
365.39	1925.09
365.61	2039.78
365.82	2074.59
366.04	2047.97
366.25	2025.44
366.47	1994.72
366.68	2019.30
366.90	2027.49
367.11	2050.02
367.33	2050.02
367.54	2050.02
367.76	2011.11
367.97	2119.65
368.19	2002.91
368.40	2068.45
368.62	1994.72
368.83	2019.30
369.05	1998.82
369.26	2043.87
369.48	2037.73
369.69	2009.06
369.91	2129.89
370.12	2088.93
370.33	2146.27
370.55	2000.87
370.76	2062.30
370.98	2181.09
371.19	2080.74
371.41	2041.82
371.62	2076.64
371.84	2017.25
372.05	2187.23
372.27	2080.74
372.48	2047.97
372.69	2119.65
372.91	2174.94
373.12	2205.66
373.34	2086.88
373.55	2115.55
373.77	2074.59
373.98	2121.70
374.20	2236.38
374.41	2213.85
374.62	2109.41
374.84	2207.71
375.05	2287.58
375.27	2121.70
375.48	2183.13
375.70	2191.33
375.91	2154.46
376.12	2342.88
376.34	2197.47
376.55	2197.47
376.77	2191.33
376.98	2156.51
377.19	2234.33
377.41	2197.47
377.62	2246.62
377.84	2256.86
378.05	2336.73
378.27	2271.20
378.48	2283.49
378.69	2355.16
378.91	2326.49
379.12	2273.25
379.34	2228.19
379.55	2351.07
379.76	2367.45
379.98	2271.20
380.19	2269.15
380.41	2215.90
380.62	2344.92
380.83	2267.10
381.05	2267.10
381.26	2420.70
381.47	2279.39
381.69	2232.29
381.90	2387.93
382.12	2275.29
382.33	2260.96
382.54	2334.68
382.76	2287.58
382.97	2342.88
383.19	2254.81
383.40	2498.52
383.61	2306.01
383.83	2314.20
384.04	2326.49
384.25	2414.56
384.47	2408.41
384.68	2398.17
384.89	2263.01
385.11	2289.63
385.32	2389.98
385.54	2412.51
385.75	2338.78
385.96	2406.36
386.18	2279.39
386.39	2443.23
386.60	2439.13
386.82	2363.36
387.03	2428.89
387.24	2439.13
387.46	2437.08
387.67	2502.62
387.88	2500.57
388.10	2529.24
388.31	2498.52
388.52	2519.00
388.74	2469.85
388.95	2463.71
389.16	2394.08
389.38	2467.80
389.59	2598.87
389.80	2617.30
390.02	2480.09
390.23	2574.30
390.44	2564.06
390.66	2500.57
390.87	2516.95
391.08	2594.78
391.30	2813.91
391.51	2609.11
391.72	2641.88
391.94	2719.70
392.15	2623.45
392.36	2668.50
392.58	2549.72
392.79	2670.55
393.00	2713.56
393.22	2736.09
393.43	2748.37
393.64	2797.53
393.85	2758.61
394.07	2650.07
394.28	2693.08
394.49	2858.96
394.71	2781.14
394.92	2803.67
395.13	2701.27
395.35	2672.60
395.56	2721.75
395.77	2680.79
395.98	2807.77
396.20	2869.20
396.41	2901.97
396.62	2867.16
396.84	2842.58
397.05	2836.44
397.26	2891.73
397.47	2936.79
397.69	2803.67
397.90	3039.19
398.11	2940.88
398.32	2893.78
398.54	2828.24
398.75	2852.82
398.96	2871.25
399.18	2992.08
399.39	3035.09
399.60	2985.94
399.81	2920.40
400.03	2936.79
400.24	3246.03
400.45	3033.04
400.66	3166.16
400.88	2994.13
401.09	3135.44
401.30	3074.00
401.51	3114.96
401.73	3176.40
401.94	3157.97
402.15	3117.01
402.36	3123.15
402.58	3246.03
402.79	3231.69
403.00	3190.74
403.21	3155.92
403.43	3241.93
403.64	3227.60
403.85	3141.58
404.06	3342.28
404.27	3065.81
404.49	3223.50
404.70	3186.64
404.91	3327.95
405.12	3321.81
405.34	3342.28
405.55	3524.55
405.76	3106.77
405.97	3274.70
406.19	3399.63
406.40	3276.75
406.61	3366.86
406.82	3315.66
407.03	3395.53
407.25	3358.67
407.46	3434.44
407.67	3401.68
407.88	3538.89
408.09	3381.20
408.31	3344.33
408.52	3518.41
408.73	3452.88
408.94	3344.33
409.15	3432.40
409.37	3540.94
409.58	3522.51
409.79	3569.61
410.00	3553.23
410.21	3469.26
410.43	3557.32
410.64	3495.88
410.85	3657.67
411.06	3565.51
411.27	3567.56
411.48	3731.40
411.70	3540.94
411.91	3575.75
412.12	3835.85
412.33	3801.03
412.54	3600.33
412.76	3819.46
412.97	3708.87
413.18	3567.56
413.39	3669.96
413.60	3661.77
413.81	3809.22
414.03	3672.01
414.24	3653.58
414.45	3860.42
414.66	3667.91
414.87	3811.27
415.08	3696.58
415.30	3882.95
415.51	3948.48
415.72	3866.56
415.93	3801.03
416.14	3876.80
416.35	3966.92
416.56	3991.49
416.78	4011.97
416.99	3940.29
417.20	3821.51
417.41	3901.38
417.62	3966.92
417.83	4065.22
418.04	3950.53
418.26	3942.34
418.47	3950.53
418.68	4081.60
418.89	4073.41
419.10	4177.86
419.31	4073.41
419.52	4198.34
419.73	4046.79
419.95	4270.01
420.16	4128.70
420.37	4038.59
420.58	4181.95
420.79	3958.72
421.00	4075.46
421.21	4280.25
421.42	4151.23
421.63	4130.75
421.85	4104.13
422.06	4298.69
422.27	4304.83
422.48	4333.50
422.69	4188.10
422.90	4360.13
423.11	4370.37
423.32	4386.75
423.53	4523.96
423.75	4485.05
423.96	4577.21
424.17	4321.21
424.38	4747.19
424.59	4509.63
424.80	4579.26
425.01	4388.80
425.22	4485.05
425.43	4382.65
425.64	4757.43
425.85	4790.20
426.06	4607.93
426.28	4577.21
426.49	4542.39
426.70	4659.13
426.91	4628.41
427.12	4628.41
427.33	4657.08
427.54	4585.40
427.75	4782.01
427.96	4837.30
428.17	4812.73
428.38	4835.25
428.59	4931.51
428.80	4874.17
429.01	4718.52
429.23	4720.57
429.44	5081.01
429.65	4988.85
429.86	4931.51
430.07	4761.53
430.28	4925.36
430.49	4925.36
430.70	5162.93
430.91	5271.47
431.12	5081.01
431.33	5257.14
431.54	5162.93
431.75	5136.31
431.96	5058.48
432.17	5121.97
432.38	5236.66
432.59	5281.71
432.80	5265.33
433.01	5205.94
433.22	5273.52
433.43	5420.97
433.64	5187.50
433.85	5152.69
434.06	5414.83
434.27	5322.67
434.49	5224.37
434.70	5353.39
434.91	5369.77
435.12	5414.83
435.33	5402.54
435.54	5406.64
435.75	5189.55
435.96	5412.78
436.17	5322.67
436.38	5539.76
436.59	5461.93
436.80	5375.92
437.01	5713.83
437.22	5762.98
437.43	5531.56
437.64	5330.86
437.85	5679.02
438.06	5842.85
438.27	5717.93
438.48	5791.66
438.69	5779.37
438.90	5707.69
439.11	5640.11
439.32	6055.84
439.53	5744.55
439.74	5867.43
439.95	5842.85
440.16	5822.38
440.37	5787.56
440.57	5818.28
440.78	5869.48
440.99	6102.95
441.20	6023.08
441.41	5732.26
441.62	5887.91
441.83	5679.02
442.04	6090.66
442.25	5994.40
442.46	5982.12
442.67	6240.16
442.88	6420.38
443.09	6119.33
443.30	6006.69
443.51	6141.86
443.72	6338.46
443.93	6057.89
444.14	6406.05
444.35	6137.76
444.56	6418.33
444.77	6295.46
444.98	6213.54
445.19	6395.81
445.40	6242.21
445.61	6313.89
445.81	6442.91
446.02	6573.98
446.23	6533.02
446.44	6285.22
446.65	6426.53
446.86	6506.40
447.07	6502.30
447.28	6766.49
447.49	6631.32
447.70	6543.26
447.91	6645.66
448.12	6659.99
448.33	6764.44
448.54	6778.78
448.74	6705.05
448.95	6801.30
449.16	6604.70
449.37	6932.37
449.58	6727.58
449.79	7002.01
450.00	6715.29
450.21	6821.78
450.42	7266.19
450.63	6944.66
450.84	6999.96
451.05	7098.26
451.25	7143.32
451.46	6856.60
451.67	7151.51
451.88	7073.68
452.09	7094.16
452.30	7118.74
452.51	7178.13
452.72	7329.68
452.93	7729.03
453.13	7061.40
453.34	7178.13
453.55	7391.12
453.76	7403.41
453.97	7733.13
454.18	7389.07
454.39	7520.14
454.60	7587.72
454.81	7550.86
455.01	7667.60
455.22	7417.74
455.43	7714.70
455.64	7993.22
455.85	7899.02
456.06	8116.10
456.27	7989.13
456.48	7886.73
456.68	8054.66
456.89	7987.08
457.10	8103.81
457.31	7843.72
457.52	7980.93
457.73	8030.09
457.94	8374.14
458.14	7991.17
458.35	8603.52
458.56	8249.22
458.77	8222.59
458.98	8456.06
459.19	8474.49
459.39	8509.31
459.60	8613.76
459.81	8433.54
460.02	8703.87
460.23	8595.32
460.44	8945.53
460.65	8929.14
460.85	8931.19
461.06	8949.62
461.27	8767.35
461.48	9183.09
461.69	9193.33
461.89	8918.90
462.10	8986.49
462.31	9029.49
462.52	9113.46
462.73	9228.15
462.94	9389.94
463.14	9250.67
463.35	9359.22
463.56	9842.54
463.77	9664.36
463.98	9359.22
464.18	9758.57
464.39	9805.67
464.60	9938.79
464.81	9848.68
465.02	9596.78
465.23	9963.37
465.43	9928.55
465.64	10129.25
465.85	10090.34
466.06	9813.87
466.27	10379.11
466.47	10334.05
466.68	10352.48
466.89	10317.67
467.10	10602.33
467.30	10342.24
467.51	10647.39
467.72	10774.36
467.93	10424.16
468.14	10585.95
468.34	10874.71
468.55	10936.15
468.76	11075.42
468.97	10800.99
469.17	11169.62
469.38	11214.68
469.59	11110.23
469.80	11165.53
470.01	11169.62
470.21	11333.46
470.42	11476.82
470.63	11663.18
470.84	11595.60
471.04	11607.89
471.25	11822.92
471.46	11663.18
471.67	11853.64
471.87	11917.13
472.08	11841.36
472.29	12226.37
472.50	11984.71
472.70	12201.80
472.91	12162.89
473.12	12361.54
473.33	12363.59
473.53	12705.60
473.74	12226.37
473.95	12590.91
474.16	12810.04
474.36	12568.38
474.57	13027.13
474.78	13066.04
474.99	12820.28
475.19	12851.00
475.40	13301.56
475.61	13328.18
475.81	13391.67
476.02	13786.93
476.23	13623.09
476.44	13524.79
476.64	13659.95
476.85	13999.91
477.06	13913.90
477.27	14057.26
477.47	13997.87
477.68	14038.83
477.89	14348.07
478.09	14262.05
478.30	14282.53
478.51	14489.38
478.71	14460.71
478.92	14917.40
479.13	14919.45
479.34	14735.14
479.54	14853.92
479.75	15116.06
479.96	14898.97
480.16	15175.45
480.37	15509.27
480.58	15210.26
480.78	15804.17
480.99	15562.51
481.20	15597.33
481.41	15517.46
481.61	15810.32
481.82	15963.92
482.03	15773.46
482.23	15830.80
482.44	16236.30
482.65	16385.80
482.85	16340.74
483.06	16365.32
483.27	16596.74
483.47	16758.53
483.68	16709.38
483.89	16758.53
484.09	16635.65
484.30	17022.72
484.51	16908.03
484.71	17118.97
484.92	17313.53
485.13	17420.02
485.33	17331.96
485.54	17159.93
485.75	17620.72
485.95	17602.29
486.16	17688.31
486.37	18157.29
486.57	17753.84
486.78	18005.74
486.98	17872.62
487.19	18046.70
487.40	18333.42
487.60	17942.25
487.81	18452.20
488.02	18325.22
488.22	18519.78
488.43	18431.72
488.64	18773.73
488.84	18700.00
489.05	18849.50
489.25	18751.20
489.46	19257.05
489.67	18910.94
489.87	19449.56
490.08	19273.43
490.29	19185.37
490.49	19498.71
490.70	19654.36
490.90	19838.67
491.11	19506.90
491.32	19775.19
491.52	19640.02
491.73	19910.35
491.94	20055.76
492.14	19726.04
492.35	20332.23
492.55	20102.86
492.76	20358.86
492.97	20369.10
493.17	20190.92
493.38	20405.96
493.58	20772.55
493.79	20637.38
494.00	20614.85
494.20	20725.44
494.41	20790.98
494.61	21171.90
494.82	21014.21
495.02	20715.20
495.23	21444.28
495.44	21077.69
495.64	21458.62
495.85	21356.22
496.05	21841.59
496.26	21288.64
496.47	21759.67
496.67	21364.41
496.88	22025.90
497.08	21708.47
497.29	21964.46
497.49	21651.13
497.70	21941.94
497.91	22099.63
498.11	22228.65
498.32	22286.00
498.52	22455.98
498.73	22558.38
498.93	22449.83
499.14	22429.35
499.34	22634.15
499.55	22609.58
499.76	22404.78
499.96	22795.94
500.17	22857.38
500.37	23000.74
500.58	23053.98
500.78	23123.62
500.99	23242.40
501.19	23201.44
501.40	22984.35
501.60	23271.07
501.81	23318.17
502.02	23412.38
502.22	23226.01
502.43	23498.39
502.63	23742.10
502.84	23807.64
503.04	23914.13
503.25	23778.97
503.45	23946.90
503.66	24112.78
503.86	23975.57
504.07	24006.29
504.27	23936.66
504.48	24485.51
504.68	24133.26
504.89	24841.86
505.09	24555.15
505.30	24354.44
505.50	24684.17
505.71	24622.73
505.91	25003.65
506.12	25087.62
506.32	24759.94
506.53	24753.80
506.73	25112.19
506.94	25079.43
507.14	25011.84
507.35	25177.73
507.55	25130.62
507.76	25255.55
507.96	25136.77
508.17	25290.37
508.37	25628.28
508.58	25599.61
508.78	25702.01
508.99	25763.45
509.19	25423.48
509.40	25728.63
509.60	25581.18
509.81	25806.45
510.01	25974.39
510.22	25742.97
510.42	26029.68
510.63	26175.09
510.83	26162.80
511.04	26435.18
511.24	26107.51
511.44	26044.02
511.65	26642.03
511.85	26248.82
512.06	26496.62
512.26	26619.50
512.47	26932.84
512.67	26586.73
512.88	26658.41
513.08	26625.64
513.29	26975.84
513.49	27041.38
513.69	26799.72
513.90	27174.50
514.10	27502.17
514.31	27041.38
514.51	27264.61
514.72	27172.45
514.92	27231.84
515.13	27344.48
515.33	27477.60
515.53	27702.87
515.74	27670.11
515.94	27526.75
516.15	27661.91
516.35	27424.35
516.56	28071.51
516.76	27559.52
516.96	27706.97
517.17	27860.57
517.37	28311.12
517.58	28333.65
517.78	28284.50
517.99	28247.63
518.19	28567.12
518.39	28745.29
518.60	28663.37
518.80	28569.16
519.01	28788.30
519.21	28868.17
519.41	28917.32
519.62	29130.31
519.82	28964.42
520.03	28896.84
520.23	28905.03
520.43	28919.37
520.64	29181.51
520.84	29435.45
521.05	29562.43
521.25	29732.41
521.45	29570.62
521.66	29728.31
521.86	29904.44
522.07	30066.23
522.27	29650.49
522.47	29935.16
522.68	30373.42
522.88	30041.65
523.08	30414.38
523.29	30619.18
523.49	30520.88
523.70	30520.88
523.90	30748.20
524.10	30606.89
524.31	30838.31
524.51	30639.66
524.71	31233.57
524.92	30909.99
525.12	31176.23
525.33	31477.28
525.53	31753.76
525.73	31442.46
525.94	31792.67
526.14	31788.57
526.34	31589.92
526.55	31942.17
526.75	32044.57
526.95	31997.46
527.16	32138.77
527.36	32288.28
527.56	32329.23
527.77	32503.31
527.97	32718.35
528.17	32730.64
528.38	32882.19
528.58	32730.64
528.78	33168.90
528.99	32767.50
529.19	33490.43
529.39	33195.53
529.60	33275.40
529.80	33068.55
530.00	33422.85
530.21	33705.47
530.41	33859.07
530.61	33658.37
530.82	34149.88
531.02	34027.00
531.22	34201.08
531.43	34133.50
531.63	34534.90
531.83	34821.61
532.04	34674.16
532.24	34317.81
532.44	34975.21
532.64	34969.07
532.85	35057.13
533.05	35153.38
533.25	35050.99
533.46	35026.41
533.66	35700.19
533.86	35352.04
534.07	36101.59
534.27	35956.19
534.47	36079.07
534.67	35730.91
534.88	35997.15
535.08	36040.15
535.28	36183.51
535.49	36464.08
535.69	36595.15
535.89	36619.73
536.09	36615.63
536.30	36658.64
536.50	36675.02
536.70	36978.12
536.91	36963.79
537.11	37510.60
537.31	37361.09
537.51	37090.76
537.72	37377.48
537.92	37309.89
538.12	37483.97
538.32	37852.61
538.53	37531.08
538.73	37680.58
538.93	37668.29
539.13	38421.94
539.34	38163.90
539.54	38028.73
539.74	38372.79
539.94	38811.06
540.15	38290.87
540.35	38798.77
540.55	38802.86
540.75	38780.34
540.96	38712.75
541.16	38659.51
541.36	38667.70
541.56	39288.23
541.77	38868.40
541.97	39441.83
542.17	39495.08
542.37	39368.10
542.58	39511.46
542.78	39533.99
542.98	39071.15
543.18	39425.45
543.38	40265.11
543.59	39857.57
543.79	40019.36
543.99	39949.73
544.19	40179.10
544.40	40441.24
544.60	40359.32
544.80	40293.79
545.00	40701.33
545.20	40727.95
545.41	40236.44
545.61	40375.70
545.81	41006.48
546.01	40637.84
546.21	40775.06
546.42	40754.58
546.62	41051.53
546.82	40670.61
547.02	41180.56
547.22	40959.38
547.43	41059.73
547.63	41446.79
547.83	41287.05
548.03	41332.11
548.23	41354.63
548.44	41059.73
548.64	41557.38
548.84	41371.02
549.04	41506.18
549.24	41639.30
549.45	42022.27
549.65	41303.43
549.85	41655.68
550.05	42251.64
550.25	41891.20
550.45	42485.11
550.66	41993.60
550.86	42050.94
551.06	42167.68
551.26	42284.41
551.46	42345.85
551.66	42247.55
551.87	42118.53
552.07	42687.86
552.27	42280.31
552.47	42663.28
552.67	42775.92
552.87	42345.85
553.07	42892.66
553.28	42896.75
553.48	43119.98
553.68	42454.39
553.88	43064.69
554.08	42718.58
554.28	42892.66
554.48	42704.24
554.69	42575.22
554.89	42808.69
555.09	43191.66
555.29	42874.23
555.49	43339.11
555.69	42947.95
555.89	43359.59
556.10	43408.75
556.30	42988.91
556.50	43269.48
556.70	43283.82
556.90	43466.09
557.10	43214.19
557.30	42614.13
557.50	43375.98
557.70	43169.13
557.91	43513.19
558.11	43177.33
558.31	43455.85
558.51	43279.72
558.71	43500.90
558.91	43492.71
559.11	43201.90
559.31	43537.77
559.51	43312.49
559.72	43449.70
559.92	44004.70
560.12	43453.80
560.32	43619.69
560.52	43693.41
560.72	43822.44
560.92	43720.04
561.12	43492.71
561.32	44244.32
561.52	43664.74
561.72	44326.24
561.93	43890.02
562.13	43656.55
562.33	43398.51
562.53	44170.59
562.73	43763.04
562.93	44072.29
563.13	44379.48
563.33	43711.84
563.53	44729.69
563.73	43994.46
563.93	44322.14
564.13	44545.37
564.33	44008.80
564.53	44442.97
564.74	44490.07
564.94	43613.54
565.14	44064.10
565.34	44090.72
565.54	44598.62
565.74	44569.94
565.94	44545.37
566.14	44395.87
566.34	44381.53
566.54	45284.68
566.74	44047.71
566.94	44154.21
567.14	44717.40
567.34	44289.37
567.54	44846.42
567.74	44381.53
567.94	44668.25
568.14	44954.96
568.34	44838.23
568.54	44741.97
568.74	44428.63
568.94	44592.47
569.14	44903.76
569.34	44709.21
569.54	44838.23
569.75	44442.97
569.95	44610.90
570.15	45264.21
570.35	44946.77
570.55	44770.64
570.75	45200.72
570.95	44971.35
571.15	45389.13
571.35	45112.66
571.55	45430.09
571.75	45260.11
571.95	45180.24
572.15	44770.64
572.35	45004.11
572.55	44977.49
572.75	44856.66
572.95	45380.94
573.15	45460.81
573.35	45520.20
573.55	45020.50
573.75	45346.12
573.95	45202.77
574.15	45237.58
574.35	45466.95
574.55	45094.22
574.75	45352.27
574.95	45401.42
575.15	45174.09
575.34	45479.24
575.54	45686.09
575.74	45759.81
575.94	45423.95
576.14	45368.65
576.34	45929.80
576.54	45624.65
576.74	46257.47
576.94	45725.00
577.14	45892.93
577.34	46228.80
577.54	45770.05
577.74	46368.06
577.94	46138.69
578.14	45829.44
578.34	46423.36
578.54	45696.33
578.74	45903.17
578.94	46499.13
579.14	45929.80
579.34	46001.47
579.54	46503.23
579.74	46546.23
579.94	46191.94
580.13	46609.72
580.33	46046.53
580.53	46220.61
580.73	46374.20
580.93	46583.10
581.13	46193.98
581.33	46722.36
581.53	46789.94
581.73	47224.11
581.93	47023.41
582.13	46923.06
582.33	46830.90
582.53	47109.43
582.73	46824.76
582.92	47265.07
583.12	46980.40
583.32	46900.53
583.52	46726.46
583.72	47385.90
583.92	46900.53
584.12	47174.96
584.32	47668.52
584.52	47158.58
584.72	47103.28
584.92	47377.71
585.11	48061.73
585.31	47639.85
585.51	47729.96
585.71	47713.58
585.91	47854.89
586.11	47502.64
586.31	47502.64
586.51	47754.54
586.71	47836.45
586.91	48123.17
587.10	47983.91
587.30	47584.55
587.50	48174.37
587.70	48065.83
587.90	48174.37
588.10	48397.60
588.30	47858.98
588.50	48012.58
588.69	48108.83
588.89	47945.00
589.09	48198.94
589.29	47942.95
589.49	48616.73
589.69	48125.22
589.89	48481.56
590.08	48471.32
590.28	48567.58
590.48	48459.04
590.68	48622.87
590.88	48547.10
591.08	48137.51
591.28	48229.66
591.47	49001.75
591.67	48504.09
591.87	48719.13
592.07	48997.65
592.27	48782.62
592.47	48866.58
592.67	49184.02
592.86	48930.07
593.06	48895.25
593.26	49098.00
593.46	48983.32
593.66	49673.48
593.86	49591.56
594.05	49048.85
594.25	49992.97
594.45	49214.74
594.65	49249.55
594.85	49169.68
595.05	49841.42
595.24	49362.19
595.44	49284.37
595.64	49374.48
595.84	49728.78
596.04	50015.49
596.23	49704.20
596.43	49876.23
596.63	49749.26
596.83	49863.94
597.03	50152.71
597.22	50148.61
597.42	49818.89
597.62	50281.73
597.82	50375.94
598.02	50398.46
598.21	50447.61
598.41	50224.39
598.61	50396.42
598.81	50199.81
599.01	50703.61
599.20	50300.16
599.40	50681.08
599.60	50975.99
599.80	50584.83
600.00	50621.69
600.19	50871.54
600.39	50855.16
600.59	51131.64
600.79	51057.91
600.98	50631.93
601.18	51188.98
601.38	51301.62
601.58	51426.54
601.78	51633.39
601.97	51287.28
602.17	51868.90
602.37	51741.93
602.57	51623.15
602.76	52016.36
602.96	51866.86
603.16	52221.16
603.36	51481.84
603.55	52090.09
603.75	51705.07
603.95	52194.53
604.15	51983.59
604.34	52040.93
604.54	52671.71
604.74	52174.05
604.94	52430.05
605.13	52399.33
605.33	52643.04
605.53	52520.16
605.73	52700.38
605.92	52315.36
606.12	52634.84
606.32	52681.95
606.52	52612.32
606.71	52638.94
606.91	53132.50
607.11	52776.15
607.30	53279.96
607.50	52847.83
607.70	53023.96
607.90	53136.60
608.09	53165.27
608.29	53175.51
608.49	53570.77
608.68	53239.00
608.88	53462.22
609.08	53624.01
609.28	53714.12
609.47	53443.79
609.67	53744.84
609.87	53007.58
610.06	53890.25
610.26	53906.63
610.46	53642.45
610.66	53873.87
610.85	53896.39
611.05	53945.54
611.25	54072.52
611.44	54076.61
611.64	54416.58
611.84	54353.09
612.03	54021.32
612.23	54408.39
612.43	54009.03
612.62	53980.36
612.82	54277.32
613.02	54529.22
613.21	54293.70
613.41	54109.38
613.61	54394.05
613.80	54230.21
614.00	54289.60
614.20	54146.25
614.39	54631.61
614.59	54938.81
614.79	54144.20
614.98	54514.88
615.18	54375.62
615.38	54392.00
615.57	54543.55
615.77	54875.32
615.97	55039.16
616.16	54711.49
616.36	54633.66
616.56	55192.76
616.75	55149.75
616.95	54793.40
617.15	55063.74
617.34	54881.47
617.54	55166.13
617.74	55172.28
617.93	55340.21
618.13	54361.28
618.32	54873.27
618.52	54813.88
618.72	55174.33
618.91	54877.37
619.11	54441.15
619.31	55039.16
619.50	54760.64
619.70	55096.50
619.90	54822.08
620.09	55254.20
620.29	55006.39
620.48	54996.15
620.68	55307.44
620.88	54594.75
621.07	54940.86
621.27	55571.63
621.46	54746.30
621.66	55368.88
621.86	55153.85
622.05	55016.63
622.25	55282.87
622.44	55317.68
622.64	55211.19
622.84	55481.52
623.03	55159.99
623.23	55456.95
623.42	55334.07
623.62	55516.34
623.82	56124.58
624.01	55184.57
624.21	55477.43
624.40	55735.47
624.60	55080.12
624.80	55538.86
624.99	55565.49
625.19	55028.92
625.38	55661.74
625.58	55569.58
625.77	55641.26
625.97	55669.93
626.17	55604.40
626.36	55762.09
626.56	55731.37
626.75	55098.55
626.95	55854.25
627.14	55078.07
627.34	56065.19
627.54	55319.73
627.73	55661.74
627.93	55846.06
628.12	55512.24
628.32	56196.26
628.51	55809.20
628.71	55938.22
628.90	56050.86
629.10	55657.65
629.30	56292.52
629.49	55870.64
629.69	55678.13
629.88	56143.02
630.08	56163.50
630.27	56130.73
630.47	56046.76
630.66	55895.21
630.86	56122.54
631.05	55577.78
631.25	56743.07
631.44	56124.58
631.64	55997.61
631.84	55837.87
632.03	56841.37
632.23	55911.59
632.42	57152.66
632.62	56145.06
632.81	56331.43
633.01	56382.63
633.20	56669.34
633.40	56423.59
633.59	56571.04
633.79	56431.78
633.98	56013.99
634.18	56747.17
634.37	56507.55
634.57	56464.55
634.76	56943.77
634.96	56734.88
635.15	56972.44
635.35	56405.16
635.54	56556.70
635.74	56800.41
635.93	56605.86
636.13	56773.79
636.32	56949.92
636.52	56794.27
636.71	56990.87
636.91	57113.75
637.10	56607.90
637.30	56652.96
637.49	56536.23
637.69	56777.89
637.88	57089.18
638.08	56681.63
638.27	57154.71
638.46	56724.64
638.66	56738.97
638.85	56970.39
639.05	57078.94
639.24	57232.53
639.44	56960.15
639.63	56956.06
639.83	57132.18
640.02	56931.48
640.22	57160.86
640.41	57730.19
640.61	57072.79
640.80	57437.33
640.99	57111.70
641.19	57320.60
641.38	57361.56
641.58	57009.31
641.77	56927.39
641.97	56827.04
642.16	57177.24
642.36	57666.70
642.55	57398.42
642.74	57287.83
642.94	58277.00
643.13	57156.76
643.33	57562.26
643.52	57947.28
643.72	57668.75
643.91	57480.34
644.10	57181.34
644.30	57629.84
644.49	57623.70
644.69	57410.71
644.88	57799.82
645.08	57404.56
645.27	58029.19
645.46	57115.80
645.66	58121.35
645.85	57439.38
646.05	57908.36
646.24	57652.37
646.43	58395.78
646.63	58152.07
646.82	58002.57
647.02	58244.23
647.21	58143.88
647.40	57873.55
647.60	57709.71
647.79	58064.01
647.99	58190.98
648.18	57883.79
648.37	58262.66
648.57	58025.10
648.76	58256.52
648.96	57560.21
649.15	58432.64
649.34	58320.01
649.54	58094.73
649.73	57715.86
649.92	58629.25
650.12	57955.47
650.31	57902.22
650.51	58231.94
650.70	58721.41
650.89	57908.36
651.09	59165.82
651.28	58365.06
651.47	58406.02
651.67	58238.09
651.86	58999.93
652.06	57734.29
652.25	58553.47
652.44	58436.74
652.64	58080.39
652.83	58070.15
653.02	58211.46
653.22	58231.94
653.41	58082.44
653.60	58139.78
653.80	58217.61
653.99	58510.47
654.18	58025.10
654.38	58244.23
654.57	58418.31
654.76	58510.47
654.96	58852.48
655.15	58129.54
655.34	58092.68
655.54	58246.28
655.73	58311.81
655.92	58297.48
656.12	58545.28
656.31	58193.03
656.50	58961.02
656.70	58406.02
656.89	58725.50
657.08	58696.83
657.28	58373.25
657.47	58360.97
657.66	58643.59
657.86	58074.25
658.05	58463.36
658.24	58510.47
658.43	58260.62
658.63	58594.43
658.82	58422.40
659.01	58487.94
659.21	58741.89
659.40	58809.47
659.59	58627.20
659.79	58455.17
659.98	58379.40
660.17	58496.13
660.36	58827.90
660.56	58864.77
660.75	58766.46
660.94	58745.98
661.14	58451.08
661.33	58213.51
661.52	57939.08
661.71	58326.15
661.91	58631.30
662.10	58379.40
662.29	58811.52
662.49	58389.64
662.68	58561.67
662.87	58690.69
663.06	58881.15
663.26	58086.54
663.45	58819.71
663.64	58227.85
663.83	58569.86
664.03	58860.67
664.22	58498.18
664.41	58788.99
664.60	58219.66
664.80	58496.13
664.99	57939.08
665.18	58414.21
665.37	58188.94
665.57	58326.15
665.76	58127.50
665.95	58537.09
666.14	58553.47
666.34	58246.28
666.53	58260.62
666.72	58322.05
666.91	58190.98
667.11	58123.40
667.30	58414.21
667.49	58365.06
667.68	58147.98
667.87	58154.12
668.07	58301.57
668.26	58438.79
668.45	57885.84
668.64	58109.07
668.84	58766.46
669.03	58340.49
669.22	58184.84
669.41	58111.11
669.60	57867.40
669.80	58264.71
669.99	57754.77
670.18	58098.83
670.37	58193.03
670.57	58446.98
670.76	58238.09
670.95	58080.39
671.14	58016.91
671.33	57863.31
671.53	57947.28
671.72	58227.85
671.91	57787.53
672.10	57668.75
672.29	58412.16
672.48	57824.40
672.68	58520.71
672.87	58193.03
673.06	57519.25
673.25	58098.83
673.44	57595.03
673.64	57584.79
673.83	57562.26
674.02	57545.87
674.21	57396.37
674.40	57799.82
674.59	57554.07
674.79	57298.07
674.98	56896.67
675.17	57525.39
675.36	57029.79
675.55	57748.62
675.74	57177.24
675.94	57101.46
676.13	57478.29
676.32	57527.44
676.51	57857.17
676.70	57369.75
676.89	57476.24
677.08	57492.63
677.28	57255.06
677.47	57621.65
677.66	57742.48
677.85	57570.45
678.04	57433.24
678.23	57390.23
678.42	57173.14
678.62	57234.58
678.81	57140.38
679.00	57238.68
679.19	57603.22
679.38	57087.13
679.57	57191.58
679.76	57414.80
679.96	57676.94
680.15	57083.03
680.34	57101.46
680.53	56906.91
680.72	57359.51
680.91	56816.80
681.10	56915.10
681.29	56618.14
681.48	56808.61
681.68	56767.65
681.87	56413.35
682.06	56763.55
682.25	56216.74
682.44	56667.30
682.63	56530.08
682.82	56880.28
683.01	56106.15
683.20	56337.57
683.39	56362.15
683.59	55932.07
683.78	56466.59
683.97	55964.84
684.16	56521.89
684.35	56313.00
684.54	56376.48
684.73	55891.12
684.92	56079.53
685.11	55844.01
685.30	56032.42
685.49	56558.75
685.69	55878.83
685.88	55983.27
686.07	56089.77
686.26	55932.07
686.45	55942.31
686.64	55952.55
686.83	55583.92
687.02	56048.81
687.21	56001.71
687.40	56069.29
687.59	56054.95
687.78	55661.74
687.97	56263.85
688.16	55807.15
688.35	55739.57
688.54	55295.16
688.74	55551.15
688.93	55540.91
689.12	55080.12
689.31	55278.77
689.50	55538.86
689.69	55174.33
689.88	54695.10
690.07	55157.94
690.26	55084.22
690.45	55692.46
690.64	55162.04
690.83	55516.34
691.02	54887.61
691.21	54877.37
691.40	55063.74
691.59	55358.64
691.78	54848.70
691.97	55096.50
692.16	54854.84
692.35	55078.07
692.54	54844.60
692.73	55063.74
692.92	54752.44
693.11	54918.33
693.30	54525.12
693.49	54895.80
693.68	54774.97
693.87	54621.37
694.06	54308.04
694.25	54551.74
694.44	54531.26
694.63	54512.83
694.82	54764.73
695.01	54162.63
695.20	54041.80
695.39	54435.01
695.58	54295.75
695.77	54105.29
695.96	53415.12
696.15	54197.44
696.34	53802.19
696.53	54168.77
696.72	54222.02
696.91	54152.39
697.10	54537.41
697.29	53998.79
697.48	54217.92
697.67	53769.42
697.86	53558.48
698.05	53828.81
698.24	53851.34
698.43	53417.17
698.62	53662.93
698.81	53609.68
699.00	54006.98
699.19	53570.77
699.38	53650.64
699.57	53548.24
699.76	54074.57
699.95	53277.91
700.14	53187.80
700.32	53476.56
700.51	53128.41
700.70	53703.88
700.89	53257.43
701.08	53482.70
701.27	53017.82
701.46	53902.54
701.65	52853.98
701.84	53540.05
702.03	53173.46
702.22	52917.46
702.41	52946.14
702.60	53109.97
702.79	53107.93
702.98	52684.00
703.17	52978.90
703.35	52524.25
703.54	52487.39
703.73	52387.04
703.92	52753.63
704.11	52595.93
704.30	52479.20
704.49	52204.77
704.68	52034.79
704.87	52423.90
705.06	52364.51
705.25	51850.47
705.43	52305.12
705.62	52182.24
705.81	52204.77
706.00	52059.37
706.19	51907.82
706.38	52315.36
706.57	52104.42
706.76	51770.60
706.95	51881.19
707.14	51442.93
707.32	51668.20
707.51	51551.47
707.70	51887.34
707.89	51873.00
708.08	51795.18
708.27	51557.61
708.46	52172.00
708.65	51545.33
708.84	52094.18
709.02	52262.11
709.21	51903.72
709.40	51819.75
709.59	51594.48
709.78	51340.53
709.97	51803.37
710.16	51647.72
710.34	51666.16
710.53	51508.46
710.72	51315.95
710.91	51377.39
711.10	51537.13
711.29	51743.98
711.48	51320.05
711.66	50732.28
711.85	50949.37
712.04	51379.44
712.23	51346.67
712.42	51115.25
712.61	50975.99
712.80	51156.21
712.98	50941.17
713.17	50748.67
713.36	50494.72
713.55	50945.27
713.74	50517.25
713.93	51086.58
714.11	50719.99
714.30	50777.34
714.49	50742.52
714.68	50529.53
714.87	50648.32
715.06	50836.73
715.24	50672.89
715.43	50457.85
715.62	49851.66
715.81	50289.92
716.00	50468.09
716.18	50029.83
716.37	50265.34
716.56	49915.14
716.75	50425.09
716.94	49855.75
717.12	49921.29
717.31	50328.83
717.50	50283.78
717.69	49796.36
717.88	50363.65
718.06	49913.09
718.25	50339.07
718.44	49390.86
718.63	50015.49
718.82	49796.36
719.00	49812.74
719.19	49048.85
719.38	49562.89
719.57	49372.43
719.76	49038.61
719.94	48925.97
720.13	49120.53
720.32	49110.29
720.51	49390.86
720.69	49196.31
720.88	49235.22
721.07	49300.75
721.26	48645.40
721.44	48598.30
721.63	48983.32
721.82	48727.32
722.01	48409.89
722.20	48837.91
722.38	48192.80
722.57	47881.51
722.76	48583.96
722.95	48680.22
723.13	47871.27
723.32	48624.92
723.51	48014.63
723.70	48010.53
723.88	48205.09
724.07	48401.69
724.26	48170.27
724.44	47799.59
724.63	48133.41
724.82	48383.26
725.01	47785.25
725.19	48067.87
725.38	48203.04
725.57	47846.69
725.76	47695.14
725.94	47916.32
726.13	47752.49
726.32	47361.33
726.51	47580.46
726.69	47637.80
726.88	47549.74
727.07	47566.12
727.25	47846.69
727.44	47512.88
727.63	47451.44
727.82	47871.27
728.00	47781.16
728.19	47375.66
728.38	47701.29
728.56	47103.28
728.75	47781.16
728.94	47140.14
729.12	47549.74
729.31	47893.80
729.50	47484.20
729.69	47322.41
729.87	47762.73
730.06	47584.55
730.25	47353.13
730.43	47838.50
730.62	47312.17
730.81	48131.36
730.99	47658.28
731.18	47449.39
731.37	47508.78
731.55	47609.13
731.74	47912.23
731.93	47815.97
732.11	47725.86
732.30	47514.92
732.49	47377.71
732.67	47512.88
732.86	47467.82
733.05	47248.69
733.23	47361.33
733.42	47420.72
733.61	47574.31
733.79	47344.94
733.98	47322.41
734.17	47514.92
734.35	47670.57
734.54	47324.46
734.73	47590.70
734.91	47144.24
735.10	47029.55
735.29	47650.09
735.47	47043.89
735.66	47273.26
735.84	47473.96
736.03	47568.17
736.22	46996.79
736.40	47211.82
736.59	47711.53
736.78	46986.55
736.96	46931.25
737.15	47070.51
737.33	46986.55
737.52	47287.60
737.71	46892.34
737.89	46988.60
738.08	46691.64
738.27	46650.68
738.45	47232.30
738.64	47156.53
738.82	46841.14
739.01	46859.57
739.20	46947.64
739.38	46892.34
739.57	47168.82
739.75	46972.21
739.94	46761.27
740.13	46511.42
740.31	46669.11
740.50	46810.42
740.68	46783.80
740.87	46849.33
741.06	46525.75
741.24	46771.51
741.43	46064.96
741.61	46890.29
741.80	46593.34
741.99	46538.04
742.17	46511.42
742.36	46560.57
742.54	46304.57
742.73	46191.94
742.91	46531.90
743.10	46251.33
743.29	46601.53
743.47	46665.02
743.66	46413.12
743.84	46200.13
744.03	46759.22
744.21	46478.65
744.40	46341.44
744.59	46243.13
744.77	46396.73
744.96	46662.97
745.14	46488.89
745.33	46699.83
745.51	46570.81
745.70	46660.92
745.88	46177.60
746.07	46105.92
746.26	46226.75
746.44	46265.66
746.63	46054.72
746.81	46351.68
747.00	45851.97
747.18	46110.02
747.37	46026.05
747.55	45962.56
747.74	46243.13
747.92	45798.73
748.11	45952.32
748.29	45901.12
748.48	46312.77
748.66	45700.42
748.85	45552.97
749.03	46040.39
749.22	46484.79
749.41	45487.43
749.59	45755.72
749.78	45137.23
749.96	45532.49
750.15	45395.28
750.33	45675.85
750.52	45505.87
750.70	45520.20
750.89	45282.64
751.07	45610.31
751.26	45589.83
751.44	45299.02
751.63	45452.62
751.81	45299.02
752.00	45536.59
752.18	45421.90
752.37	45186.38
752.55	45020.50
752.74	45034.83
752.92	45260.11
753.10	45284.68
753.29	45124.94
753.47	45077.84
753.66	44731.73
753.84	45182.29
754.03	45299.02
754.21	45024.59
754.40	45034.83
754.58	45135.18
754.77	44651.86
754.95	44741.97
755.14	44963.15
755.32	44438.87
755.51	44680.53
755.69	44729.69
755.88	44690.77
756.06	44748.12
756.24	44766.55
756.43	44356.96
756.61	44604.76
756.80	44668.25
756.98	44574.04
757.17	44465.50
757.35	44512.60
757.54	44461.40
757.72	44653.91
757.90	44297.56
758.09	44049.76
758.27	44551.51
758.46	44023.14
758.64	44324.19
758.83	44602.71
759.01	44438.87
759.19	44438.87
759.38	44094.82
759.56	44623.19
759.75	44510.55
759.93	44520.79
760.12	44127.58
760.30	44221.79
760.48	44242.27
760.67	44123.49
760.85	44328.28
761.04	43976.03
761.22	44287.32
761.40	44293.47
761.59	43797.86
761.77	43625.83
761.96	44137.82
762.14	43783.52
762.32	44057.95
762.51	43447.66
762.69	43873.63
762.88	43427.18
763.06	43904.35
763.24	43619.69
763.43	43324.78
763.61	43382.12
763.80	43316.59
763.98	43670.89
764.16	43597.16
764.35	43724.13
764.53	43062.64
764.72	43457.90
764.90	43566.44
765.08	43488.62
765.27	43386.22
765.45	42947.95
765.63	42794.36
765.82	43431.27
766.00	42937.71
766.18	43298.16
766.37	43527.53
766.55	42808.69
766.74	43019.63
766.92	43054.45
767.10	43201.90
767.29	43246.96
767.47	42296.70
767.65	42950.00
767.84	42593.65
768.02	43056.50
768.20	42505.59
768.39	42790.26
768.57	42790.26
768.75	42710.39
768.94	42546.55
769.12	42505.59
769.30	42526.07
769.49	42558.84
769.67	42642.81
769.85	42130.81
770.04	42489.21
770.22	42151.29
770.40	41999.74
770.59	42272.12
770.77	42134.91
770.95	42179.96
771.14	41813.38
771.32	41612.68
771.50	41334.15
771.69	41760.13
771.87	41887.10
772.05	42016.13
772.24	41620.87
772.42	41799.04
772.60	41819.52
772.78	41663.88
772.97	41272.71
773.15	41997.70
773.33	41379.21
773.52	41727.36
773.70	41919.87
773.88	42024.32
774.07	41303.43
774.25	41850.24
774.43	41880.96
774.61	42059.13
774.80	41833.86
774.98	41770.37
775.16	42007.94
775.34	42169.72
775.53	41203.08
775.71	41936.26
775.89	41782.66
776.08	41786.75
776.26	41682.31
776.44	41850.24
776.62	41862.53
776.81	41686.40
776.99	41729.41
777.17	41768.32
777.35	42114.43
777.54	42395.00
777.72	41719.17
777.90	42036.61
778.08	41780.61
778.27	42222.97
778.45	42450.30
778.63	42511.74
778.81	41964.93
779.00	42857.84
779.18	42276.22
779.36	42503.54
779.54	42403.19
779.73	42173.82
779.91	42597.75
780.09	42751.35
780.27	42818.93
780.46	42384.76
780.64	42818.93
780.82	42601.85
781.00	42884.47
781.19	42960.24
781.37	43046.26
781.55	42577.27
781.73	43345.26
781.91	42870.13
782.10	42823.03
782.28	42943.86
782.46	43414.89
782.64	42898.80
782.82	42653.05
783.01	42956.14
783.19	43326.83
783.37	43193.71
783.55	43021.68
783.74	43001.20
783.92	42808.69
784.10	43662.69
784.28	43406.70
784.46	43160.94
784.64	42812.79
784.83	43015.54
785.01	43470.18
785.19	43048.30
785.37	43249.00
785.55	43240.81
785.74	42952.05
785.92	42734.96
786.10	42816.88
786.28	42800.50
786.46	42640.76
786.64	42423.67
786.83	42456.44
787.01	42997.10
787.19	42624.37
787.37	43251.05
787.55	42702.20
787.74	42900.85
787.92	42222.97
788.10	42388.86
788.28	42311.03
788.46	42552.69
788.64	42345.85
788.82	42644.85
789.01	42642.81
789.19	42780.02
789.37	42184.06
789.55	42392.95
789.73	42098.05
789.91	41936.26
790.09	42200.44
790.28	41942.40
790.46	41809.28
790.64	42108.29
790.82	41907.58
791.00	41850.24
791.18	41706.88
791.36	41936.26
791.55	41723.27
791.73	41567.62
791.91	41397.64
792.09	41565.57
792.27	41131.40
792.45	41301.39
792.63	41145.74
792.81	40856.98
793.00	40967.57
793.18	41299.34
793.36	40930.70
793.54	40777.11
793.72	40576.40
793.90	40734.10
794.08	40340.89
794.26	40895.89
794.44	40441.24
794.62	40416.66
794.81	40531.35
794.99	40199.58
795.17	40334.74
795.35	40179.10
795.53	40545.69
795.71	40027.55
795.89	39853.47
796.07	39628.20
796.25	39927.20
796.43	39749.03
796.61	39165.35
796.80	39425.45
796.98	39577.00
797.16	39073.20
797.34	39124.40
797.52	39040.43
797.70	39513.51
797.88	39048.62
798.06	38540.72
798.24	38962.61
798.42	38899.12
798.60	38614.45
798.78	38688.18
798.96	38376.89
799.14	38385.08
799.32	38776.24
799.51	38249.91
799.69	38364.60
799.87	38284.73
800.05	37928.38
800.23	37758.40
800.41	38135.23
800.59	37881.28
800.77	37586.37
800.95	37205.45
801.13	37590.47
801.31	37174.73
801.49	37809.60
801.67	37012.94
801.85	37504.45
802.03	37039.56
802.21	37354.95
802.39	36900.30
802.57	37045.71
802.75	36976.08
802.93	36834.77
803.11	36722.13
803.29	36519.38
803.47	36310.49
803.65	36627.92
803.83	36685.26
804.01	36148.70
804.19	35919.32
804.37	36292.05
804.55	35917.28
804.73	35763.68
804.91	35913.18
805.09	36304.34
805.27	35603.94
805.45	35790.30
805.63	36124.12
805.81	35562.98
805.99	35685.86
806.17	35722.72
806.35	35648.99
806.53	35372.52
806.71	35321.32
806.89	35093.99
807.07	35284.45
807.25	35161.58
807.43	34993.64
807.61	35128.81
807.79	34901.48
807.97	34768.37
808.15	34680.30
808.33	34672.11
808.51	34588.14
808.69	34999.79
808.87	34508.27
809.05	34448.88
809.23	34205.17
809.41	33897.98
809.59	34151.93
809.77	34139.64
809.95	34031.10
810.13	34190.84
810.31	34043.38
810.49	33623.55
810.67	33656.32
810.84	34133.50
811.02	33900.03
811.20	33359.36
811.38	33629.69
811.56	33205.77
811.74	33070.60
811.92	33230.34
812.10	33465.86
812.28	33265.16
812.46	33484.29
812.64	33162.76
812.82	33107.46
813.00	33009.16
813.18	33003.02
813.36	32806.41
813.53	32364.05
813.71	32861.71
813.89	32675.34
814.07	32613.90
814.25	32255.51
814.43	32226.84
814.61	32314.90
814.79	32564.75
814.97	32558.61
815.15	32163.35
815.33	31858.20
815.50	31761.95
815.68	32421.39
815.86	32284.18
816.04	32022.04
816.22	31669.79
816.40	32206.36
816.58	31620.64
816.76	31794.71
816.94	31743.52
817.11	31444.51
817.29	31508.00
817.47	31491.62
817.65	31192.61
817.83	31469.09
818.01	31243.81
818.19	31391.26
818.37	31170.08
818.54	31004.20
818.72	31221.28
818.90	31233.57
819.08	30973.48
819.26	31200.80
819.44	30873.13
819.62	30938.66
819.80	30897.70
819.97	30891.56
820.15	30809.64
820.33	30549.55
820.51	30737.96
820.69	30289.46
820.87	30410.29
821.05	31002.15
821.22	30453.30
821.40	30494.25
821.58	30213.68
821.76	30373.42
821.94	30035.51
822.12	30455.34
822.29	30105.14
822.47	29994.55
822.65	30320.18
822.83	30084.66
823.01	29756.99
823.19	29990.45
823.36	30115.38
823.54	29685.31
823.72	29544.00
823.90	29892.15
824.08	29756.99
824.25	29625.92
824.43	29376.06
824.61	29304.38
824.79	29544.00
824.97	29380.16
825.15	29414.98
825.32	29300.29
825.50	29144.64
825.68	28898.89
825.86	29199.94
826.04	29361.73
826.21	29087.30
826.39	28923.46
826.57	29152.84
826.75	28687.95
826.93	28640.84
827.10	28993.09
827.28	28743.24
827.46	28874.31
827.64	28743.24
827.81	28786.25
827.99	28796.49
828.17	28374.61
828.35	28563.02
828.53	28563.02
828.70	28397.13
828.88	28141.14
829.06	28702.28
829.24	28472.91
829.41	28499.53
829.59	28214.87
829.77	28122.71
829.95	28255.82
830.12	27823.70
830.30	27922.01
830.48	28417.61
830.66	27874.90
830.84	28108.37
831.01	27825.75
831.19	27944.53
831.37	27879.00
831.55	27682.39
831.72	27866.71
831.90	27706.97
832.08	28071.51
832.25	27395.68
832.43	27872.85
832.61	27635.29
832.79	27149.92
832.96	27428.45
833.14	27641.43
833.32	27428.45
833.50	27373.15
833.67	27391.58
833.85	26959.46
834.03	26873.45
834.20	27453.02
834.38	27332.19
834.56	27291.23
834.74	27061.86
834.91	27450.97
835.09	27188.83
835.27	26752.62
835.44	26316.40
835.62	26328.69
835.80	26447.47
835.98	26803.82
836.15	26748.52
836.33	26703.46
836.51	26766.95
836.68	26443.37
836.86	26855.01
837.04	26484.33
837.21	26570.35
837.39	26449.52
837.57	26615.40
837.75	26637.93
837.92	26275.44
838.10	26340.97
838.28	26138.23
838.45	25876.09
838.63	26191.47
838.81	26250.86
838.98	26082.93
839.16	25841.27
839.34	25560.70
839.51	25847.41
839.69	25722.49
839.87	25663.10
840.04	25785.97
840.22	25953.91
840.40	25552.51
840.57	25419.39
840.75	25704.06
840.93	25532.03
841.10	25859.70
841.28	25757.30
841.46	25357.95
841.63	25214.59
841.81	25771.64
841.98	25534.07
842.16	25388.67
842.34	25362.04
842.51	25056.90
842.69	25294.46
842.87	25335.42
843.04	25439.87
843.22	25058.95
843.40	24981.12
843.57	25099.90
843.75	25212.54
843.92	25161.34
844.10	25138.82
844.28	24751.75
844.45	25116.29
844.63	25034.37
844.81	24829.57
844.98	24872.58
845.16	24635.02
845.33	24768.13
845.51	24626.82
845.69	24563.34
845.86	24592.01
846.04	24635.02
846.21	24446.60
846.39	24487.56
846.57	24276.62
846.74	24600.20
846.92	24196.75
847.09	24180.37
847.27	24331.92
847.45	24161.94
847.62	24741.51
847.80	24366.73
847.97	24342.16
848.15	24219.28
848.32	23787.16
848.50	24141.46
848.68	24032.91
848.85	24206.99
849.03	23555.74
849.20	23895.70
849.38	23983.76
849.56	24077.97
849.73	23748.25
849.91	23873.17
850.08	23772.82
850.26	23541.40
850.43	23520.92
850.61	23684.76
850.78	23400.09
850.96	23447.19
851.14	23449.24
851.31	23578.26
851.49	23514.78
851.66	23436.95
851.84	23375.52
852.01	23459.48
852.19	23412.38
852.36	23371.42
852.54	23201.44
852.71	23447.19
852.89	23230.11
853.07	23275.16
853.24	23234.21
853.42	22982.31
853.59	23129.76
853.77	23443.10
853.94	22914.72
854.12	23385.76
854.29	23031.46
854.47	22912.67
854.64	22630.05
854.82	22832.80
854.99	22916.77
855.17	22775.46
855.34	22654.63
855.52	22462.12
855.69	22812.32
855.87	22437.55
856.04	22496.94
856.22	22789.80
856.39	22460.07
856.57	22488.74
856.74	22464.17
856.92	22541.99
857.09	22275.76
857.27	22265.52
857.44	22488.74
857.62	22460.07
857.79	22279.85
857.97	22537.90
858.14	22179.50
858.32	22120.11
858.49	22226.60
858.67	22120.11
858.84	21991.09
859.02	22181.55
859.19	21921.46
859.37	22070.96
859.54	21767.86
859.72	22003.38
859.89	22103.73
860.06	22040.24
860.24	21796.53
860.41	22173.36
860.59	21548.73
860.76	21831.35
860.94	21657.27
861.11	21870.26
861.29	21798.58
861.46	21857.97
861.64	21388.99
861.81	21348.03
861.98	21169.85
862.16	21345.98
862.33	21184.19
862.51	21493.43
862.68	21337.79
862.86	21089.98
863.03	21182.14
863.21	21438.14
863.38	21092.03
863.55	21169.85
863.73	21321.40
863.90	21110.46
864.08	21079.74
864.25	20827.84
864.43	20952.77
864.60	20985.54
864.77	20727.49
864.95	20981.44
865.12	20647.62
865.30	20704.96
865.47	20592.33
865.64	20856.51
865.82	20930.24
865.99	20739.78
866.17	20551.37
866.34	20688.58
866.51	20428.49
866.69	20633.29
866.86	20985.54
867.04	20606.66
867.21	20692.68
867.38	20512.46
867.56	20328.14
867.73	20201.16
867.91	20393.67
868.08	20457.16
868.25	20287.18
868.43	20405.96
868.60	20018.89
868.78	20274.89
868.95	20420.30
869.12	19754.71
869.30	19975.89
869.47	20037.33
869.64	19924.69
869.82	20039.37
869.99	19594.96
870.16	20043.47
870.34	19869.39
870.51	19949.26
870.69	19605.20
870.86	20020.94
871.03	19990.22
871.21	19853.01
871.38	19713.75
871.55	19392.22
871.73	19443.42
871.90	19463.90
872.07	19603.16
872.25	19427.03
872.42	19576.53
872.59	19087.07
872.77	19392.22
872.94	19334.87
873.11	19355.35
873.29	19381.98
873.46	19150.56
873.63	19265.24
873.81	18960.09
873.98	18861.79
874.15	18771.68
874.33	18970.33
874.50	18839.26
874.67	19105.50
874.85	18669.28
875.02	18687.71
875.19	18616.04
875.37	18554.60
875.54	18489.06
875.71	18841.31
875.88	18454.25
876.06	18368.23
876.23	18446.05
876.40	18509.54
876.58	18454.25
876.75	18192.11
876.92	18222.83
877.10	18298.60
877.27	18155.24
877.44	18241.26
877.61	17897.20
877.79	18267.88
877.96	17938.16
878.13	18112.24
878.31	17694.45
878.48	17837.81
878.65	17719.03
878.82	17809.14
879.00	17905.39
879.17	17628.92
879.34	17731.31
879.51	17647.35
879.69	17633.01
879.86	17641.20
880.03	17536.76
880.21	17379.06
880.38	17583.86
880.55	17442.55
880.72	17137.40
880.90	17590.00
881.07	17309.43
881.24	17467.13
881.41	17342.20
881.59	17317.62
881.76	17284.86
881.93	17282.81
882.10	16971.52
882.28	16930.56
882.45	17256.18
882.62	17338.10
882.79	16959.23
882.96	16948.99
883.14	17266.42
883.31	17035.00
883.48	16891.65
883.65	16895.74
883.83	17055.48
884.00	16979.71
884.17	16916.22
884.34	16996.09
884.51	16881.41
884.69	16871.17
884.86	16779.01
885.03	16750.34
885.20	16609.03
885.38	16580.36
885.55	16543.49
885.72	16754.43
885.89	16461.57
886.06	16525.06
886.24	16498.44
886.41	16453.38
886.58	16645.89
886.75	16862.97
886.92	16447.24
887.10	16527.11
887.27	16205.58
887.44	16254.73
887.61	16584.45
887.78	16451.33
887.95	16529.16
888.13	16303.88
888.30	16035.60
888.47	16361.22
888.64	16176.91
888.81	16389.89
888.99	16187.14
889.16	15877.90
889.33	15793.94
889.50	16078.60
889.67	16195.34
889.84	15933.20
890.01	16109.32
890.19	16058.12
890.36	16152.33
890.53	15828.75
890.70	15775.50
890.87	15896.33
891.04	15849.23
891.22	15861.52
891.39	15886.09
891.56	15746.83
891.73	15597.33
891.90	15392.53
892.07	15451.92
892.24	15789.84
892.42	15662.86
892.59	15574.80
892.76	15437.59
892.93	15310.61
893.10	15339.29
893.27	15406.87
893.44	15175.45
893.61	15451.92
893.79	15505.17
893.96	15490.84
894.13	15392.53
894.30	15447.83
894.47	15435.54
894.64	15490.84
894.81	15324.95
894.98	15408.92
895.15	15492.88
895.33	15234.84
895.50	15243.03
895.67	15339.29
895.84	15234.84
896.01	15605.52
896.18	14937.88
896.35	15552.27
896.52	14905.12
896.69	15075.10
896.86	15114.01
897.04	15218.46
897.21	15228.70
897.38	15302.42
897.55	15189.78
897.72	15064.86
897.89	15167.26
898.06	15290.13
898.23	15052.57
898.40	15238.94
898.57	15191.83
898.74	15064.86
898.91	15243.03
899.08	15200.02
899.26	15083.29
899.43	15109.91
899.60	14829.34
899.77	15210.26
899.94	14997.28
900.11	15046.43
900.28	15023.90
900.45	15216.41
900.62	14880.54
900.79	15146.78
900.96	15103.77
901.13	14929.69
901.30	15048.47
901.47	14667.55
901.64	14968.60
901.81	15105.82
901.98	15003.42
902.15	15001.37
902.32	14909.21
902.49	14913.31
902.66	15279.89
902.83	14982.94
903.01	15140.63
903.18	14950.17
903.35	15034.14
903.52	15044.38
903.69	14862.11
903.86	15050.52
904.03	14901.02
904.20	14933.79
904.37	15177.50
904.54	14960.41
904.71	14933.79
904.88	14808.86
905.05	14825.25
905.22	15068.95
905.39	14642.98
905.56	14710.56
905.73	14774.05
905.90	15034.14
906.07	14933.79
906.24	14999.32
906.41	14845.73
906.58	14839.58
906.75	14878.49
906.92	14636.83
907.09	14731.04
907.26	15042.33
907.43	14593.83
907.60	14755.61
907.77	15140.63
907.93	14855.97
908.10	14739.23
908.27	14907.16
908.44	14815.01
908.61	14716.70
908.78	14690.08
908.95	14712.61
909.12	14649.12
909.29	14817.05
909.46	14880.54
909.63	14970.65
909.80	14716.70
909.97	14718.75
910.14	14591.78
910.31	14868.25
910.48	14751.52
910.65	14690.08
910.82	14612.26
910.99	14626.59
911.16	14628.64
911.33	14610.21
911.50	14759.71
911.66	14458.66
911.83	14767.90
912.00	14546.72
912.17	14376.74
912.34	14063.40
912.51	14454.56
912.68	14188.33
912.85	14397.22
913.02	14380.84
913.19	14161.70
913.36	14507.81
913.53	14257.96
913.70	14212.90
913.86	14272.29
914.03	14233.38
914.20	14102.31
914.37	14335.78
914.54	14083.88
914.71	14081.83
914.88	14018.35
915.05	14030.63
915.22	13866.80
915.39	14081.83
915.55	14053.16
915.72	14057.26
915.89	13750.06
916.06	13692.72
916.23	13786.93
916.40	13737.77
916.57	13688.62
916.74	13811.50
916.91	13524.79
917.07	13567.79
917.24	13520.69
917.41	13721.39
917.58	13774.64
917.75	13471.54
917.92	13307.70
918.09	13492.02
918.26	13174.58
918.42	13487.92
918.59	13395.76
918.76	13375.28
918.93	13223.73
919.10	13006.65
919.27	12918.59
919.44	13092.66
919.60	13057.85
919.77	12996.41
919.94	12824.38
920.11	13014.84
920.28	13100.86
920.45	12906.30
920.61	12951.35
920.78	12973.88
920.95	12861.24
921.12	12785.47
921.29	12414.79
921.46	12797.76
921.62	12465.99
921.79	12521.28
921.96	12537.66
922.13	12588.86
922.30	12543.81
922.47	12365.64
922.63	12019.53
922.80	12345.16
922.97	12240.71
923.14	12236.61
923.31	12144.45
923.47	12078.92
923.64	12248.90
923.81	11908.94
923.98	12027.72
924.15	11822.92
924.32	11976.52
924.48	11882.31
924.65	11925.32
924.82	11759.44
924.99	11716.43
925.15	11564.88
925.32	11847.50
925.49	11595.60
925.66	11566.93
925.83	11435.86
925.99	11368.27
926.16	11474.77
926.33	11427.67
926.50	11280.21
926.67	11538.26
926.83	11200.34
927.00	11239.25
927.17	11112.28
927.34	10891.10
927.50	11028.31
927.67	11106.13
927.84	10979.16
928.01	10809.18
928.17	10876.76
928.34	10936.15
928.51	10954.58
928.68	10843.99
928.84	10755.93
929.01	10696.54
929.18	10622.81
929.35	10669.92
929.51	10473.31
929.68	10334.05
929.85	10422.11
930.02	10276.71
930.18	10592.09
930.35	10233.70
930.52	10289.00
930.69	10153.83
930.85	10135.40
931.02	10170.21
931.19	10094.44
931.36	10372.96
931.52	10176.36
931.69	10100.58
931.86	10022.76
932.02	9998.18
932.19	9932.65
932.36	9869.16
932.53	9799.53
932.69	9686.89
932.86	9836.39
933.03	9695.08
933.19	9457.52
933.36	9582.45
933.53	9762.67
933.70	9463.66
933.86	9598.83
934.03	9527.15
934.20	9316.21
934.36	9506.67
934.53	9176.95
934.70	9070.45
934.86	8933.24
935.03	8925.05
935.20	8814.46
935.36	8834.94
935.53	8812.41
935.70	8669.05
935.86	8836.99
936.03	8669.05
936.20	8427.39
936.36	8394.62
936.53	8521.60
936.70	8357.76
936.86	8339.33
937.03	8191.88
937.20	8212.35
937.36	8124.29
937.53	7845.77
937.70	7921.54
937.86	7853.96
938.03	7597.96
938.20	7790.47
938.36	7548.81
938.53	7559.05
938.70	7378.83
938.86	7460.75
939.03	7253.91
939.20	7206.80
939.36	7096.21
939.53	7133.08
939.70	7147.41
939.86	6864.79
940.03	6772.63
940.19	6768.54
940.36	6668.19
940.53	6700.95
940.69	6627.23
940.86	6522.78
941.03	6412.19
941.19	6332.32
941.36	6188.96
941.52	6256.54
941.69	6213.54
941.86	6072.23
942.02	6033.32
942.19	6059.94
942.35	5980.07
942.52	5894.05
942.69	6023.08
942.85	5803.94
943.02	5781.42
943.18	5855.14
943.35	5640.11
943.52	5758.89
943.68	5726.12
943.85	5566.38
944.01	5609.39
944.18	5451.69
944.35	5484.46
944.51	5541.80
944.68	5320.62
944.84	5459.88
945.01	5392.30
945.17	5511.08
945.34	5468.08
945.51	5400.49
945.67	5332.91
945.84	5468.08
946.00	5332.91
946.17	5550.00
946.33	5177.26
946.50	5300.14
946.67	5392.30
946.83	5246.90
947.00	5222.32
947.16	5238.70
947.33	5187.50
947.49	5230.51
947.66	5171.12
947.82	5244.85
947.99	5081.01
948.16	5281.71
948.32	5191.60
948.49	5177.26
948.65	5255.09
948.82	5271.47
948.98	5128.11
949.15	5091.25
949.31	5310.38
949.48	5302.19
949.64	5167.03
949.81	5316.53
949.97	5263.28
950.14	5173.17
950.30	5212.08
950.47	5326.77
950.63	5377.97
950.80	5154.74
950.96	5302.19
951.13	5308.34
951.30	5238.70
951.46	5281.71
951.63	5357.49
951.79	5353.39
951.96	5281.71
952.12	5218.22
952.29	5334.96
952.45	5224.37
952.62	5218.22
952.78	5361.58
952.94	5353.39
953.11	5283.76
953.27	5296.05
953.44	5369.77
953.60	5330.86
953.77	5437.36
953.93	5291.95
954.10	5318.57
954.26	5304.24
954.43	5361.58
954.59	5472.17
954.76	5482.41
954.92	5443.50
955.09	5296.05
955.25	5285.81
955.42	5431.21
955.58	5621.67
955.75	5396.40
955.91	5406.64
956.07	5418.93
956.24	5318.57
956.40	5263.28
956.57	5277.62
956.73	5330.86
956.90	5472.17
957.06	5496.75
957.23	5461.93
957.39	5312.43
957.56	5564.33
957.72	5320.62
957.88	5298.10
958.05	5328.81
958.21	5474.22
958.38	5420.97
958.54	5332.91
958.71	5523.37
958.87	5431.21
959.03	5429.17
959.20	5349.29
959.36	5246.90
959.53	5459.88
959.69	5390.25
959.85	5394.35
960.02	5398.45
960.18	5418.93
960.35	5449.64
960.51	5408.69
960.68	5380.01
960.84	5451.69
961.00	5451.69
961.17	5320.62
961.33	5355.44
961.50	5361.58
961.66	5398.45
961.82	5576.62
961.99	5480.36
962.15	5337.01
962.31	5457.84
962.48	5380.01
962.64	5418.93
962.81	5402.54
962.97	5212.08
963.13	5386.16
963.30	5492.65
963.46	5222.32
963.62	5275.57
963.79	5384.11
963.95	5238.70
964.12	5365.68
964.28	5320.62
964.44	5322.67
964.61	5427.12
964.77	5320.62
964.93	5447.60
965.10	5416.88
965.26	5156.79
965.42	5314.48
965.59	5238.70
965.75	5291.95
965.92	5232.56
966.08	5312.43
966.24	5253.04
966.41	5179.31
966.57	5382.06
966.73	5318.57
966.90	5289.90
967.06	5427.12
967.22	5083.06
967.39	5228.46
967.55	5085.11
967.71	5158.83
967.88	5291.95
968.04	5101.49
968.20	5095.35
968.37	5115.83
968.53	5132.21
968.69	5181.36
968.85	5242.80
969.02	5382.06
969.18	5007.28
969.34	5267.38
969.51	5136.31
969.67	5207.98
969.83	4923.32
970.00	5207.98
970.16	4878.26
970.32	5083.06
970.48	5081.01
970.65	4997.04
970.81	5044.15
970.97	5199.79
971.14	4849.59
971.30	5009.33
971.46	4941.75
971.63	4999.09
971.79	5052.34
971.95	4949.94
972.11	4872.12
972.28	4921.27
972.44	4958.13
972.60	4939.70
972.76	4779.96
972.93	5013.43
973.09	4937.65
973.25	4972.47
973.42	4861.88
973.58	4882.36
973.74	4841.40
973.90	4863.93
974.07	4886.45
974.23	4843.45
974.39	4857.78
974.55	4833.21
974.72	4786.10
974.88	4700.09
975.04	4728.76
975.20	4757.43
975.37	4716.47
975.53	4657.08
975.69	4894.65
975.85	4673.46
976.01	4716.47
976.18	4628.41
976.34	4665.27
976.50	4870.07
976.66	4747.19
976.83	4618.17
976.99	4566.97
977.15	4532.15
977.31	4435.90
977.47	4726.71
977.64	4671.42
977.80	4663.22
977.96	4593.59
978.12	4577.21
978.29	4560.83
978.45	4384.70
978.61	4507.58
978.77	4675.51
978.93	4499.39
979.10	4433.85
979.26	4546.49
979.42	4546.49
979.58	4415.42
979.74	4476.86
979.91	4491.20
980.07	4325.31
980.23	4444.09
980.39	4366.27
980.55	4394.94
980.71	4390.84
980.88	4437.95
981.04	4460.48
981.20	4403.13
981.36	4288.45
981.52	4448.19
981.68	4292.54
981.85	4489.15
982.01	4372.41
982.17	4239.30
982.33	4239.30
982.49	4388.80
982.65	4276.16
982.82	4452.28
982.98	4429.76
983.14	4245.44
983.30	4390.84
983.46	4294.59
983.62	4222.91
983.79	4186.05
983.95	4206.53
984.11	4128.70
984.27	4173.76
984.43	4265.92
984.59	4327.36
984.75	4267.97
984.91	4161.47
985.08	4050.88
985.24	4069.31
985.40	4091.84
985.56	4128.70
985.72	4280.25
985.88	4218.82
986.04	4149.18
986.20	4016.07
986.37	4034.50
986.53	4011.97
986.69	4003.78
986.85	4073.41
987.01	4001.73
987.17	4124.61
987.33	3911.62
987.49	3950.53
987.65	3960.77
987.82	4106.18
987.98	3829.70
988.14	3946.44
988.30	4020.16
988.46	3915.72
988.62	3946.44
988.78	3901.38
988.94	3930.05
989.10	3841.99
989.26	3938.24
989.42	3925.96
989.59	3798.98
989.75	3782.60
989.91	3985.35
990.07	3801.03
990.23	3764.17
990.39	3882.95
990.55	3864.52
990.71	3798.98
990.87	3811.27
991.03	3788.74
991.19	3680.20
991.35	3829.70
991.51	3786.69
991.67	3846.09
991.83	3768.26
992.00	3809.22
992.16	3852.23
992.32	3827.65
992.48	3659.72
992.64	3489.74
992.80	3782.60
992.96	3649.48
993.12	3833.80
993.28	3655.62
993.44	3737.54
993.60	3663.82
993.76	3723.21
993.92	3624.90
994.08	3796.93
994.24	3641.29
994.40	3600.33
994.56	3772.36
994.72	3553.23
994.88	3512.27
995.04	3645.38
995.20	3585.99
995.36	3461.07
995.52	3454.92
995.68	3620.81
995.84	3370.96
996.00	3624.90
996.16	3530.70
996.32	3358.67
996.48	3434.44
996.64	3528.65
996.80	3489.74
996.96	3491.79
997.12	3452.88
997.28	3428.30
997.44	3469.26
997.60	3391.44
997.76	3454.92
997.92	3459.02
998.08	3393.48
998.24	3368.91
998.40	3403.72
998.56	3338.19
998.72	3418.06
998.88	3405.77
999.04	3354.57
999.20	3381.20
999.36	3375.05
999.52	3456.97
999.68	3301.33
999.84	3393.48
1000.00	3344.33
1000.16	3284.94
1000.32	3180.50
1000.48	3313.61
1000.64	3272.65
1000.80	3268.56
1000.95	3153.87
1001.11	3309.52
1001.27	3145.68
1001.43	3227.60
1001.59	3049.43
1001.75	3227.60
1001.91	3211.22
1002.07	3155.92
1002.23	3164.11
1002.39	3174.35
1002.55	3157.97
1002.71	3084.24
1002.87	3104.72
1003.03	3088.34
1003.19	3178.45
1003.34	3221.45
1003.50	3143.63
1003.66	3243.98
1003.82	3305.42
1003.98	2938.84
1004.14	3143.63
1004.30	2979.79
1004.46	3022.80
1004.62	2992.08
1004.78	3026.90
1004.94	3106.77
1005.09	2969.55
1005.25	2990.03
1005.41	2910.16
1005.57	2944.98
1005.73	2990.03
1005.89	2934.74
1006.05	3053.52
1006.21	3010.51
1006.37	2959.31
1006.52	2920.40
1006.68	2840.53
1006.84	3033.04
1007.00	3010.51
1007.16	2992.08
1007.32	2805.72
1007.48	2930.64
1007.64	2977.75
1007.79	2951.12
1007.95	2951.12
1008.11	3084.24
1008.27	2818.00
1008.43	2846.68
1008.59	2899.92
1008.75	2822.10
1008.91	2818.00
1009.06	2873.30
1009.22	2861.01
1009.38	2854.87
1009.54	2803.67
1009.70	2793.43
1009.86	2795.48
1010.01	2830.29
1010.17	2797.53
1010.33	2842.58
1010.49	2820.05
1010.65	2871.25
1010.81	2723.80
1010.96	2781.14
1011.12	2703.32
1011.28	2588.63
1011.44	2793.43
1011.60	2750.42
1011.76	2748.37
1011.91	2723.80
1012.07	2645.98
1012.23	2553.82
1012.39	2617.30
1012.55	2699.22
1012.71	2748.37
1012.86	2703.32
1013.02	2641.88
1013.18	2666.46
1013.34	2607.06
1013.50	2779.09
1013.65	2674.65
1013.81	2576.34
1013.97	2557.91
1014.13	2645.98
1014.29	2588.63
1014.44	2617.30
1014.60	2557.91
1014.76	2654.17
1014.92	2467.80
1015.07	2582.49
1015.23	2598.87
1015.39	2553.82
1015.55	2543.58
1015.71	2598.87
1015.86	2557.91
1016.02	2527.19
1016.18	2430.94
1016.34	2582.49
1016.49	2531.29
1016.65	2559.96
1016.81	2449.37
1016.97	2562.01
1017.12	2478.04
1017.28	2455.51
1017.44	2437.08
1017.60	2463.71
1017.75	2435.03
1017.91	2432.99
1018.07	2523.10
1018.23	2480.09
1018.38	2480.09
1018.54	2379.74
1018.70	2486.23
1018.86	2435.03
1019.01	2381.79
1019.17	2408.41
1019.33	2488.28
1019.49	2432.99
1019.64	2541.53
1019.80	2469.85
1019.96	2381.79
1020.12	2484.19
1020.27	2322.40
1020.43	2308.06
1020.59	2410.46
1020.74	2469.85
1020.90	2420.70
1021.06	2355.16
1021.22	2365.40
1021.37	2432.99
1021.53	2289.63
1021.69	2369.50
1021.84	2291.68
1022.00	2334.68
1022.16	2336.73
1022.31	2322.40
1022.47	2379.74
1022.63	2416.60
1022.79	2232.29
1022.94	2281.44
1023.10	2361.31
1023.26	2314.20
1023.41	2236.38
1023.57	2322.40
1023.73	2289.63
1023.88	2279.39
1024.04	2203.61
1024.20	2271.20
1024.35	2228.19
1024.51	2267.10
1024.67	2207.71
1024.82	2301.92
1024.98	2308.06
1025.14	2279.39
1025.29	2281.44
1025.45	2373.60
1025.61	2211.81
1025.76	2344.92
1025.92	2287.58
1026.08	2224.09
1026.23	2193.37
1026.39	2301.92
1026.55	2162.66
1026.70	2226.14
1026.86	2189.28
1027.02	2207.71
1027.17	2170.85
1027.33	2207.71
1027.48	2195.42
1027.64	2138.08
1027.80	2074.59
1027.95	2265.05
1028.11	2113.50
1028.27	2174.94
1028.42	2170.85
1028.58	2111.46
1028.73	2082.78
1028.89	2062.30
1029.05	2228.19
1029.20	2154.46
>>>>>End Processed Spectral Data<<<<<
