SpectraSuite Data File
++++++++++++++++++++++++++++++++++++
Date: Fri Jun 02 14:53:35 CEST 2017
User: INFO_000
Dark Spectrum Present: No
Reference Spectrum Present: No
Number of Sampled Component Spectra: 1
Spectrometers: USB4H00879
Integration Time (usec): 80000 (USB4H00879)
Spectra Averaged: 1 (USB4H00879)
Boxcar Smoothing: 0 (USB4H00879)
Correct for Electrical Dark: No (USB4H00879)
Strobe/Lamp Enabled: No (USB4H00879)
Correct for Detector Non-linearity: No (USB4H00879)
Correct for Stray Light: No (USB4H00879)
Number of Pixels in Processed Spectrum: 3648
>>>>>Begin Processed Spectral Data<<<<<
345.13	1277.93
345.34	1277.93
345.56	1277.93
345.78	1302.51
345.99	1245.16
346.21	1699.81
346.42	1714.15
346.64	1650.66
346.86	1804.26
347.07	1646.57
347.29	1703.91
347.50	1636.33
347.72	1726.44
347.94	1796.07
348.15	1556.46
348.37	1556.46
348.59	1679.33
348.80	1638.38
349.02	1794.02
349.23	1877.99
349.45	1841.12
349.67	1857.51
349.88	1810.40
350.10	1947.62
350.31	1804.26
350.53	1798.12
350.75	1900.52
350.96	1783.78
351.18	1886.18
351.39	1808.36
351.61	1804.26
351.82	1824.74
352.04	1845.22
352.26	1812.45
352.47	1920.99
352.69	1943.52
352.90	1751.01
353.12	1863.65
353.34	1851.36
353.55	1910.75
353.77	1865.70
353.98	1847.27
354.20	1865.70
354.41	1861.60
354.63	1976.29
354.85	2072.54
355.06	2007.01
355.28	1806.31
355.49	1906.66
355.71	1916.90
355.92	1880.04
356.14	1884.13
356.35	1810.40
356.57	1859.56
356.79	1957.86
357.00	1861.60
357.22	2015.20
357.43	1871.84
357.65	1951.71
357.86	1912.80
358.08	1863.65
358.29	1974.24
358.51	1974.24
358.72	2027.49
358.94	1968.10
359.16	1863.65
359.37	1959.91
359.59	1953.76
359.80	1974.24
360.02	1994.72
360.23	1982.43
360.45	2060.26
360.66	1929.19
360.88	1863.65
361.09	1941.47
361.31	1953.76
361.52	2019.30
361.74	2060.26
361.95	2115.55
362.17	1959.91
362.38	2088.93
362.60	2045.92
362.81	1986.53
363.03	1947.62
363.24	2052.06
363.46	2138.08
363.67	1974.24
363.89	2039.78
364.10	2031.58
364.32	1980.39
364.53	2078.69
364.75	1925.09
364.96	1996.77
365.18	2029.54
365.39	2025.44
365.61	2011.11
365.82	2168.80
366.04	2043.87
366.25	2082.78
366.47	1990.63
366.68	2084.83
366.90	2041.82
367.11	2127.84
367.33	2076.64
367.54	2043.87
367.76	2027.49
367.97	2064.35
368.19	2035.68
368.40	2009.06
368.62	1976.29
368.83	2004.96
369.05	2109.41
369.26	2007.01
369.48	1994.72
369.69	2043.87
369.91	2033.63
370.12	2039.78
370.33	2115.55
370.55	2002.91
370.76	2072.54
370.98	2037.73
371.19	2070.50
371.41	2039.78
371.62	2088.93
371.84	1980.39
372.05	2213.85
372.27	2066.40
372.48	2099.17
372.69	2131.94
372.91	2127.84
373.12	2156.51
373.34	2109.41
373.55	2158.56
373.77	2133.98
373.98	2181.09
374.20	2158.56
374.41	2326.49
374.62	2107.36
374.84	2152.42
375.05	2240.48
375.27	2127.84
375.48	2183.13
375.70	2090.98
375.91	2162.66
376.12	2281.44
376.34	2162.66
376.55	2220.00
376.77	2271.20
376.98	2123.74
377.19	2142.18
377.41	2138.08
377.62	2166.75
377.84	2312.16
378.05	2273.25
378.27	2222.05
378.48	2340.83
378.69	2326.49
378.91	2293.72
379.12	2254.81
379.34	2263.01
379.55	2359.26
379.76	2322.40
379.98	2246.62
380.19	2228.19
380.41	2242.53
380.62	2338.78
380.83	2209.76
381.05	2338.78
381.26	2418.65
381.47	2279.39
381.69	2291.68
381.90	2363.36
382.12	2279.39
382.33	2271.20
382.54	2267.10
382.76	2273.25
382.97	2334.68
383.19	2256.86
383.40	2346.97
383.61	2379.74
383.83	2283.49
384.04	2301.92
384.25	2342.88
384.47	2336.73
384.68	2428.89
384.89	2398.17
385.11	2406.36
385.32	2371.55
385.54	2267.10
385.75	2371.55
385.96	2365.40
386.18	2404.32
386.39	2361.31
386.60	2275.29
386.82	2389.98
387.03	2394.08
387.24	2461.66
387.46	2486.23
387.67	2496.47
387.88	2482.14
388.10	2420.70
388.31	2539.48
388.52	2504.67
388.74	2457.56
388.95	2455.51
389.16	2475.99
389.38	2553.82
389.59	2555.86
389.80	2639.83
390.02	2502.62
390.23	2600.92
390.44	2572.25
390.66	2590.68
390.87	2600.92
391.08	2510.81
391.30	2678.74
391.51	2709.46
391.72	2740.18
391.94	2621.40
392.15	2549.72
392.36	2686.94
392.58	2547.67
392.79	2715.61
393.00	2658.26
393.22	2711.51
393.43	2734.04
393.64	2772.95
393.85	2793.43
394.07	2729.94
394.28	2688.98
394.49	2842.58
394.71	2828.24
394.92	2836.44
395.13	2658.26
395.35	2772.95
395.56	2781.14
395.77	2822.10
395.98	2836.44
396.20	2815.96
396.41	2848.72
396.62	2818.00
396.84	2934.74
397.05	2760.66
397.26	2875.35
397.47	2961.36
397.69	2881.49
397.90	3008.47
398.11	2914.26
398.32	2848.72
398.54	2858.96
398.75	2932.69
398.96	3026.90
399.18	3117.01
399.39	3047.38
399.60	3176.40
399.81	2996.18
400.03	2875.35
400.24	3291.09
400.45	3030.99
400.66	3178.45
400.88	2940.88
401.09	3258.32
401.30	3102.67
401.51	3170.26
401.73	3133.39
401.94	3205.07
402.15	3092.43
402.36	3280.85
402.58	3057.62
402.79	3182.54
403.00	3203.02
403.21	3260.37
403.43	3131.34
403.64	3301.33
403.85	3147.73
404.06	3313.61
404.27	3084.24
404.49	3272.65
404.70	3160.02
404.91	3395.53
405.12	3235.79
405.34	3274.70
405.55	3319.76
405.76	3280.85
405.97	3264.46
406.19	3352.52
406.40	3319.76
406.61	3323.85
406.82	3407.82
407.03	3286.99
407.25	3223.50
407.46	3575.75
407.67	3459.02
407.88	3461.07
408.09	3346.38
408.31	3387.34
408.52	3456.97
408.73	3352.52
408.94	3424.20
409.15	3481.55
409.37	3522.51
409.58	3442.64
409.79	3557.32
410.00	3602.38
410.21	3493.83
410.43	3399.63
410.64	3456.97
410.85	3590.09
411.06	3504.07
411.27	3655.62
411.48	3657.67
411.70	3594.19
411.91	3633.10
412.12	3624.90
412.33	3651.53
412.54	3610.57
412.76	3739.59
412.97	3782.60
413.18	3620.81
413.39	3669.96
413.60	3655.62
413.81	3770.31
414.03	3573.71
414.24	3606.47
414.45	3839.94
414.66	3686.34
414.87	3768.26
415.08	3672.01
415.30	3819.46
415.51	3983.30
415.72	3719.11
415.93	3747.78
416.14	3839.94
416.35	3907.52
416.56	3823.56
416.78	3940.29
416.99	3878.85
417.20	3878.85
417.41	3944.39
417.62	3960.77
417.83	3928.00
418.04	3911.62
418.26	3913.67
418.47	3899.33
418.68	4067.27
418.89	3919.81
419.10	4161.47
419.31	4110.27
419.52	4149.18
419.73	4120.51
419.95	4153.28
420.16	3864.52
420.37	4040.64
420.58	4038.59
420.79	3968.96
421.00	4034.50
421.21	4112.32
421.42	4128.70
421.63	4104.13
421.85	4128.70
422.06	4270.01
422.27	4153.28
422.48	4151.23
422.69	4278.21
422.90	4202.43
423.11	4343.74
423.32	4276.16
423.53	4513.72
423.75	4270.01
423.96	4548.54
424.17	4485.05
424.38	4534.20
424.59	4452.28
424.80	4620.22
425.01	4530.11
425.22	4333.50
425.43	4392.89
425.64	4724.66
425.85	4743.10
426.06	4616.12
426.28	4661.18
426.49	4591.55
426.70	4517.82
426.91	4741.05
427.12	4646.84
427.33	4820.92
427.54	4550.59
427.75	4820.92
427.96	4880.31
428.17	4765.62
428.38	4888.50
428.59	4919.22
428.80	4655.03
429.01	4968.37
429.23	4790.20
429.44	5048.24
429.65	5040.05
429.86	5119.92
430.07	4929.46
430.28	4992.95
430.49	4945.84
430.70	5097.39
430.91	5207.98
431.12	5261.23
431.33	5119.92
431.54	5142.45
431.75	5214.13
431.96	5062.58
432.17	5257.14
432.38	5115.83
432.59	5527.47
432.80	5289.90
433.01	5377.97
433.22	5318.57
433.43	5459.88
433.64	5273.52
433.85	5285.81
434.06	5418.93
434.27	5294.00
434.49	5359.53
434.70	5570.48
434.91	5476.27
435.12	5525.42
435.33	5539.76
435.54	5441.45
435.75	5388.21
435.96	5427.12
436.17	5414.83
436.38	5611.43
436.59	5556.14
436.80	5689.26
437.01	5638.06
437.22	5660.59
437.43	5756.84
437.64	5541.80
437.85	5912.49
438.06	6008.74
438.27	5738.41
438.48	5801.90
438.69	5984.16
438.90	5703.59
439.11	5885.86
439.32	6061.99
439.53	5812.14
439.74	5914.53
439.95	5967.78
440.16	5885.86
440.37	5990.31
440.57	6045.60
440.78	6041.51
440.99	6131.62
441.20	5988.26
441.41	5875.62
441.62	6102.95
441.83	5851.05
442.04	6205.35
442.25	6021.03
442.46	6131.62
442.67	6268.83
442.88	6549.40
443.09	6176.67
443.30	6297.50
443.51	6172.58
443.72	6438.81
443.93	6287.26
444.14	6416.29
444.35	6307.74
444.56	6334.37
444.77	6346.66
444.98	6346.66
445.19	6430.62
445.40	6279.07
445.61	6502.30
445.81	6510.49
446.02	6551.45
446.23	6494.11
446.44	6348.70
446.65	6557.60
446.86	6504.35
447.07	6582.17
447.28	6846.36
447.49	6696.86
447.70	6682.52
447.91	6774.68
448.12	6793.11
448.33	6870.94
448.54	6666.14
448.74	6703.00
448.95	6840.22
449.16	6807.45
449.37	7128.98
449.58	6934.42
449.79	7090.07
450.00	6893.46
450.21	6868.89
450.42	7180.18
450.63	7083.92
450.84	6991.77
451.05	7227.28
451.25	6981.53
451.46	7016.34
451.67	7169.94
451.88	7288.72
452.09	7296.91
452.30	7245.71
452.51	7227.28
452.72	7528.33
452.93	7665.55
453.13	7380.88
453.34	7346.06
453.55	7565.20
453.76	7573.39
453.97	7749.51
454.18	7522.19
454.39	7501.71
454.60	7454.61
454.81	7532.43
455.01	7858.06
455.22	7557.00
455.43	7810.95
455.64	7763.85
455.85	8005.51
456.06	7931.78
456.27	7966.60
456.48	7790.47
456.68	7962.50
456.89	8167.30
457.10	8099.72
457.31	8050.57
457.52	8095.62
457.73	8134.53
457.94	8269.70
458.14	8161.16
458.35	8546.17
458.56	8300.42
458.77	8245.12
458.98	8554.37
459.19	8259.46
459.39	8353.66
459.60	8648.57
459.81	8521.60
460.02	8652.67
460.23	8611.71
460.44	8812.41
460.65	8765.31
460.85	8832.89
461.06	8896.38
461.27	8802.17
461.48	9045.88
461.69	9023.35
461.89	8726.39
462.10	8888.18
462.31	8810.36
462.52	8832.89
462.73	9025.40
462.94	9230.20
463.14	9162.61
463.35	9172.85
463.56	9660.27
463.77	9518.96
463.98	9226.10
464.18	9361.27
464.39	9414.51
464.60	9715.56
464.81	9693.04
465.02	9717.61
465.23	9926.50
465.43	9731.95
465.64	10139.49
465.85	9873.26
466.06	9564.01
466.27	10178.40
466.47	9996.14
466.68	10137.45
466.89	10022.76
467.10	10276.71
467.30	10010.47
467.51	10221.41
467.72	10401.63
467.93	10211.17
468.14	10413.92
468.34	10452.83
468.55	10612.57
468.76	10514.27
468.97	10444.64
469.17	10895.19
469.38	10743.64
469.59	10987.35
469.80	10751.84
470.01	10825.56
470.21	11022.17
470.42	11278.16
470.63	11427.67
470.84	11190.10
471.04	11235.16
471.25	11505.49
471.46	11405.14
471.67	11790.16
471.87	11581.26
472.08	11630.41
472.29	11884.36
472.50	11663.18
472.70	11628.37
472.91	11781.96
473.12	12091.21
473.33	12080.97
473.53	12166.98
473.74	12128.07
473.95	12341.06
474.16	12504.90
474.36	12435.27
474.57	12670.78
474.78	12814.14
474.99	12556.10
475.19	12738.37
475.40	12789.56
475.61	12865.34
475.81	13100.86
476.02	13168.44
476.23	13287.22
476.44	13244.21
476.64	13567.79
476.85	13578.03
477.06	13670.19
477.27	13909.80
477.47	13766.45
477.68	13721.39
477.89	13993.77
478.09	13973.29
478.30	14184.23
478.51	14075.69
478.71	14425.89
478.92	14583.59
479.13	14198.57
479.34	14530.34
479.54	14563.11
479.75	14804.77
479.96	14610.21
480.16	15023.90
480.37	14919.45
480.58	15179.54
480.78	15157.02
480.99	15396.63
481.20	15421.20
481.41	15521.56
481.61	15568.66
481.82	15922.96
482.03	15816.46
482.23	15679.25
482.44	15859.47
482.65	16008.97
482.85	16287.50
483.06	16307.98
483.27	16152.33
483.47	16217.86
483.68	16373.51
483.89	16283.40
484.09	16441.09
484.30	16867.07
484.51	16779.01
484.71	16938.75
484.92	16918.27
485.13	17184.51
485.33	17172.22
485.54	17174.27
485.75	17245.94
485.95	17762.03
486.16	17551.09
486.37	17661.68
486.57	17766.13
486.78	17704.69
486.98	17581.81
487.19	17770.22
487.40	18153.20
487.60	17975.02
487.81	18282.22
488.02	18472.68
488.22	18437.86
488.43	18738.91
488.64	18564.84
488.84	18718.43
489.05	18706.15
489.25	18716.39
489.46	19300.06
489.67	18933.47
489.87	19326.68
490.08	19113.69
490.29	19320.54
490.49	19773.14
490.70	19799.76
490.90	19818.19
491.11	19551.96
491.32	19887.82
491.52	19820.24
491.73	19883.73
491.94	19988.18
492.14	19920.59
492.35	20250.32
492.55	20473.54
492.76	20573.89
492.97	20272.84
493.17	20635.33
493.38	20702.92
493.58	20735.68
493.79	20598.47
494.00	20625.09
494.20	20965.06
494.41	21270.20
494.61	21305.02
494.82	21006.02
495.02	21001.92
495.23	21462.71
495.44	21626.55
495.64	21540.54
495.85	21759.67
496.05	21622.45
496.26	21868.21
496.47	22044.34
496.67	21903.03
496.88	22271.66
497.08	21952.18
497.29	22374.06
497.49	22263.47
497.70	22245.04
497.91	22671.01
498.11	22795.94
498.32	22838.95
498.52	22818.47
498.73	22994.59
498.93	22939.30
499.14	22931.11
499.34	23078.56
499.55	23465.63
499.76	23031.46
499.96	23500.44
500.17	23338.65
500.37	23645.85
500.58	23361.18
500.78	23686.81
500.99	23627.42
501.19	23838.36
501.40	23666.33
501.60	24016.53
501.81	23705.24
502.02	23758.49
502.22	23889.56
502.43	24004.24
502.63	24387.21
502.84	24284.81
503.04	24223.37
503.25	24282.77
503.45	24313.48
503.66	24878.72
503.86	24741.51
504.07	24739.46
504.27	24684.17
504.48	25022.08
504.68	24979.07
504.89	25003.65
505.09	25302.65
505.30	24876.68
505.50	25077.38
505.71	25290.37
505.91	25284.22
506.12	25097.86
506.32	25476.73
506.53	25384.57
506.73	25589.37
506.94	25704.06
507.14	25769.59
507.35	26009.20
507.55	25935.48
507.76	25896.56
507.96	25656.95
508.17	25939.57
508.37	26050.16
508.58	25929.33
508.78	26472.04
508.99	26164.85
509.19	26304.11
509.40	26490.48
509.60	26175.09
509.81	26480.24
510.01	26508.91
510.22	26617.45
510.42	26725.99
510.63	26639.98
510.83	26773.10
511.04	26799.72
511.24	27207.26
511.44	26973.80
511.65	27330.14
511.85	26949.22
512.06	26820.20
512.26	27252.32
512.47	27123.30
512.67	27209.31
512.88	27135.59
513.08	27240.03
513.29	27821.66
513.49	27416.16
513.69	27442.78
513.90	27678.30
514.10	27999.83
514.31	27872.85
514.51	27954.77
514.72	27448.93
514.92	27928.15
515.13	27919.96
515.33	28108.37
515.53	28323.41
515.74	27991.64
515.94	28421.71
516.15	28057.17
516.35	28116.56
516.56	28669.51
516.76	28198.48
516.96	28444.24
517.17	28399.18
517.37	28569.16
517.58	28657.23
517.78	28837.45
517.99	28784.20
518.19	28829.26
518.39	28927.56
518.60	28839.50
518.80	29062.72
519.01	29298.24
519.21	28837.45
519.41	29228.61
519.62	28931.65
519.82	29408.83
520.03	29654.59
520.23	29394.50
520.43	29296.19
520.64	29865.53
520.84	30084.66
521.05	29754.94
521.25	30002.74
521.45	30178.87
521.66	30152.24
521.86	30158.39
522.07	30326.32
522.27	30311.99
522.47	30045.75
522.68	30516.78
522.88	30043.70
523.08	30821.93
523.29	30506.54
523.49	30531.12
523.70	30549.55
523.90	30983.72
524.10	30821.93
524.31	30866.98
524.51	30793.26
524.71	31211.04
524.92	31135.27
525.12	31720.99
525.33	31594.01
525.53	31481.38
525.73	32028.18
525.94	31813.15
526.14	31374.88
526.34	31735.32
526.55	32024.09
526.75	32083.48
526.95	31987.22
527.16	31909.40
527.36	32376.34
527.56	32337.43
527.77	32591.37
527.97	32478.74
528.17	32032.28
528.38	32800.27
528.58	32579.09
528.78	32822.80
528.99	32925.19
529.19	33158.66
529.39	32830.99
529.60	33039.88
529.80	33109.51
530.00	33015.30
530.21	33418.75
530.41	33484.29
530.61	33467.91
530.82	33742.33
531.02	33472.00
531.22	33480.19
531.43	33529.34
531.63	34340.34
531.83	34110.97
532.04	34760.17
532.24	34289.14
532.44	34715.12
532.64	34803.18
532.85	34514.42
533.05	34692.59
533.25	35108.33
533.46	35030.51
533.66	34672.11
533.86	35075.56
534.07	35452.39
534.27	35028.46
534.47	35540.45
534.67	35364.32
534.88	35309.03
535.08	35388.90
535.28	35669.47
535.49	35812.83
535.69	35995.10
535.89	36230.62
536.09	36287.96
536.30	36253.14
536.50	36298.20
536.70	36609.49
536.91	36539.86
537.11	36664.78
537.31	36472.28
537.51	36761.04
537.72	36791.76
537.92	36705.74
538.12	37250.50
538.32	36838.86
538.53	37461.44
538.73	37336.52
538.93	37209.54
539.13	37213.64
539.34	37703.10
539.54	37240.26
539.74	37942.72
539.94	37322.18
540.15	37508.55
540.35	38036.92
540.55	38311.35
540.75	37739.97
540.96	38065.60
541.16	38223.29
541.36	37756.35
541.56	38219.19
541.77	38720.95
541.97	38225.34
542.17	38727.09
542.37	38510.00
542.58	38866.35
542.78	38624.69
542.98	38454.71
543.18	38679.99
543.38	39267.75
543.59	39079.34
543.79	38901.17
543.99	38927.79
544.19	39327.14
544.40	38974.89
544.60	39357.86
544.80	39372.20
545.00	39241.13
545.20	39445.93
545.41	39488.93
545.61	39364.01
545.81	39728.55
546.01	40093.08
546.21	39677.35
546.42	39773.60
546.62	40041.88
546.82	40041.88
547.02	40043.93
547.22	40398.23
547.43	40211.87
547.63	40093.08
547.83	40164.76
548.03	40091.04
548.23	40525.21
548.44	40215.96
548.64	40478.10
548.84	40328.60
549.04	40519.06
549.24	40711.57
549.45	40973.71
549.65	40654.23
549.85	40836.50
550.05	41244.04
550.25	40818.07
550.45	41176.46
550.66	41254.28
550.86	40881.55
551.06	41119.12
551.26	41285.00
551.46	41229.71
551.66	41360.78
551.87	41088.40
552.07	41360.78
552.27	41497.99
552.47	41567.62
552.67	41389.45
552.87	41336.20
553.07	41784.71
553.28	41518.47
553.48	41880.96
553.68	41354.63
553.88	42153.34
554.08	41989.50
554.28	41917.82
554.48	41878.91
554.69	41715.08
554.89	42112.38
555.09	41631.11
555.29	41567.62
555.49	42179.96
555.69	42141.05
555.89	42190.20
556.10	42648.95
556.30	42245.50
556.50	42511.74
556.70	42063.23
556.90	42710.39
557.10	42833.27
557.30	42300.79
557.50	42814.83
557.70	42644.85
557.91	42835.31
558.11	42825.07
558.31	42999.15
558.51	42597.75
558.71	42448.25
558.91	42896.75
559.11	42665.33
559.31	42538.36
559.51	43021.68
559.72	43564.39
559.92	42861.94
560.12	43228.52
560.32	43015.54
560.52	42950.00
560.72	43220.33
560.92	43668.84
561.12	43390.31
561.32	43625.83
561.52	43068.78
561.72	43330.92
561.93	42761.59
562.13	43324.78
562.33	43009.39
562.53	43578.73
562.73	43267.44
562.93	43140.46
563.13	43556.20
563.33	43367.79
563.53	43588.97
563.73	43552.10
563.93	43330.92
564.13	44119.39
564.33	43914.59
564.53	44129.63
564.74	44072.29
564.94	43822.44
565.14	44135.77
565.34	43781.48
565.54	44189.02
565.74	44266.84
565.94	44375.39
566.14	44037.47
566.34	44055.90
566.54	44381.53
566.74	44293.47
566.94	44264.80
567.14	44709.21
567.34	44146.01
567.54	44518.74
567.74	44246.36
567.94	44336.48
568.14	44871.00
568.34	44459.35
568.54	44524.89
568.74	44674.39
568.94	44473.69
569.14	45094.22
569.34	44911.95
569.54	44455.26
569.75	44320.09
569.95	44932.43
570.15	45296.97
570.35	44782.93
570.55	44957.01
570.75	45069.65
570.95	45002.07
571.15	45161.81
571.35	45122.90
571.55	45514.06
571.75	45208.91
571.95	45524.30
572.15	45090.13
572.35	45249.87
572.55	45808.96
572.75	45483.34
572.95	45514.06
573.15	45864.26
573.35	45616.46
573.55	45434.19
573.75	45438.28
573.95	45978.95
574.15	45421.90
574.35	45802.82
574.55	46021.95
574.75	45477.19
574.95	45815.11
575.15	45100.37
575.34	45761.86
575.54	45899.08
575.74	46335.29
575.94	46292.29
576.14	46118.21
576.34	46581.05
576.54	46216.51
576.74	46535.99
576.94	46456.12
577.14	46431.55
577.34	46624.06
577.54	46169.41
577.74	46347.58
577.94	46529.85
578.14	46193.98
578.34	46646.58
578.54	46476.60
578.74	46589.24
578.94	47052.08
579.14	46579.00
579.34	47142.19
579.54	46650.68
579.74	47414.57
579.94	47047.99
580.13	47142.19
580.33	47166.77
580.53	47119.66
580.73	47613.23
580.93	47238.45
581.13	47236.40
581.33	47473.96
581.53	47433.00
581.73	47750.44
581.93	47926.56
582.13	47955.24
582.33	47424.81
582.53	47674.66
582.73	47586.60
582.92	47945.00
583.12	47789.35
583.32	48008.48
583.52	47734.06
583.72	48117.03
583.92	48190.75
584.12	48186.66
584.32	48379.17
584.52	48516.38
584.72	48456.99
584.92	48692.50
585.11	48987.41
585.31	48446.75
585.51	48653.59
585.71	48313.63
585.91	48696.60
586.11	48819.48
586.31	48885.01
586.51	48823.58
586.71	49034.52
586.91	48885.01
587.10	48954.64
587.30	48805.14
587.50	49059.09
587.70	49194.26
587.90	49222.93
588.10	49050.90
588.30	49370.38
588.50	49726.73
588.69	49786.12
588.89	49098.00
589.09	49519.88
589.29	49571.08
589.49	49706.25
589.69	49175.83
589.89	49714.44
590.08	49722.63
590.28	49472.78
590.48	49603.85
590.68	49233.17
590.88	49808.65
591.08	49937.67
591.28	49542.41
591.47	49921.29
591.67	49919.24
591.87	49550.60
592.07	50003.20
592.27	50148.61
592.47	49906.95
592.67	50576.64
592.86	49988.87
593.06	50269.44
593.26	50392.32
593.46	49947.91
593.66	50459.90
593.86	50283.78
594.05	50603.26
594.25	51186.93
594.45	50349.31
594.65	50638.08
594.85	50191.62
595.05	50881.78
595.24	50775.29
595.44	50580.73
595.64	50744.57
595.84	51381.49
596.04	50679.03
596.23	51277.04
596.43	50652.41
596.63	51121.40
596.83	51344.62
597.03	51139.83
597.22	51883.24
597.42	51447.02
597.62	51449.07
597.82	51449.07
598.02	51627.24
598.21	51782.89
598.41	51297.52
598.61	52002.02
598.81	51717.35
599.01	51852.52
599.20	51778.79
599.40	51330.29
599.60	52157.67
599.80	52012.26
600.00	52090.09
600.19	52290.79
600.39	51844.33
600.59	52298.98
600.79	52126.95
600.98	52008.17
601.18	52446.43
601.38	52669.66
601.58	52323.55
601.78	52106.47
601.97	52135.14
602.17	52907.22
602.37	52710.62
602.57	52868.31
602.76	53013.72
602.96	52593.89
603.16	52794.59
603.36	52665.56
603.55	53427.41
603.75	53249.24
603.95	53140.69
604.15	53691.60
604.34	53191.89
604.54	53105.88
604.74	53243.09
604.94	53130.45
605.13	53396.69
605.33	52970.71
605.53	53345.49
605.73	53513.42
605.92	53400.79
606.12	53820.62
606.32	53601.49
606.52	53664.97
606.71	53535.95
606.91	54222.02
607.11	53798.09
607.30	53851.34
607.50	54025.42
607.70	53912.78
607.90	53843.15
608.09	54129.86
608.29	54219.97
608.49	54516.93
608.68	54379.71
608.88	54219.97
609.08	54406.34
609.28	54381.76
609.47	53959.88
609.67	54654.14
609.87	54314.18
610.06	54959.29
610.26	54293.70
610.46	54881.47
610.66	54353.09
610.85	54543.55
611.05	54365.38
611.25	54473.92
611.44	54877.37
611.64	54215.88
611.84	54547.65
612.03	54588.61
612.23	54736.06
612.43	54805.69
612.62	54654.14
612.82	54459.58
613.02	54604.99
613.21	54731.96
613.41	54918.33
613.61	54912.19
613.80	54353.09
614.00	54908.09
614.20	54957.24
614.39	54828.22
614.59	55047.35
614.79	54785.21
614.98	54979.77
615.18	55162.04
615.38	54875.32
615.57	54686.91
615.77	55071.93
615.97	54723.77
616.16	54525.12
616.36	54564.03
616.56	55106.74
616.75	55057.59
616.95	54553.79
617.15	54832.32
617.34	55094.46
617.54	55327.92
617.74	54953.15
617.93	55444.66
618.13	54949.05
618.32	55260.34
618.52	54568.13
618.72	55108.79
618.91	55190.71
619.11	54961.34
619.31	54926.52
619.50	54752.44
619.70	54580.42
619.90	54901.95
620.09	55499.95
620.29	54885.56
620.48	54867.13
620.68	55497.91
620.88	54865.08
621.07	55020.73
621.27	54895.80
621.46	55108.79
621.66	55415.99
621.86	54897.85
622.05	54785.21
622.25	55317.68
622.44	55243.96
622.64	55377.08
622.84	55186.61
623.03	54678.72
623.23	55231.67
623.42	55033.02
623.62	55129.27
623.82	55321.78
624.01	54863.03
624.21	55039.16
624.40	55164.09
624.60	54752.44
624.80	55178.42
624.99	54985.91
625.19	54521.02
625.38	55047.35
625.58	55047.35
625.77	54942.91
625.97	54957.24
626.17	54637.76
626.36	54826.17
626.56	54998.20
626.75	54666.43
626.95	55108.79
627.14	55076.02
627.34	55379.12
627.54	54828.22
627.73	55225.53
627.93	55182.52
628.12	55041.21
628.32	55344.31
628.51	55096.50
628.71	55221.43
628.90	55186.61
629.10	54983.86
629.30	55309.49
629.49	55047.35
629.69	55264.44
629.88	55422.13
630.08	55291.06
630.27	55446.71
630.47	55104.70
630.66	54727.87
630.86	55297.20
631.05	54822.08
631.25	55575.73
631.44	55059.64
631.64	54799.55
631.84	55315.64
632.03	55973.03
632.23	55145.65
632.42	55907.50
632.62	55577.78
632.81	55540.91
633.01	55270.58
633.20	55766.19
633.40	55121.08
633.59	55549.10
633.79	55049.40
633.98	55014.58
634.18	55073.98
634.37	55547.06
634.57	55284.92
634.76	55876.78
634.96	55565.49
635.15	55385.27
635.35	54981.82
635.54	55323.83
635.74	55454.90
635.93	55239.86
636.13	55915.69
636.32	55946.41
636.52	55203.00
636.71	55475.38
636.91	55520.43
637.10	55731.37
637.30	55522.48
637.49	55391.41
637.69	55651.50
637.88	56235.17
638.08	55403.70
638.27	55461.04
638.46	55741.61
638.66	55514.29
638.85	55497.91
639.05	55483.57
639.24	56073.38
639.44	55547.06
639.63	55633.07
639.83	56130.73
640.02	56120.49
640.22	55815.34
640.41	56255.65
640.61	55545.01
640.80	56054.95
640.99	55981.23
641.19	56554.66
641.38	55620.78
641.58	56112.30
641.77	55325.88
641.97	55919.79
642.16	55958.70
642.36	56179.88
642.55	56464.55
642.74	55551.15
642.94	56286.37
643.13	56054.95
643.33	56081.58
643.52	56394.92
643.72	56413.35
643.91	56042.66
644.10	56032.42
644.30	56818.84
644.49	56247.46
644.69	56612.00
644.88	56534.18
645.08	56122.54
645.27	56145.06
645.46	56403.11
645.66	56448.16
645.85	56030.38
646.05	56677.54
646.24	56415.40
646.43	55948.46
646.63	56868.00
646.82	56880.28
647.02	56673.44
647.21	56687.78
647.40	56132.78
647.60	56726.69
647.79	56779.93
647.99	56546.47
648.18	56317.09
648.37	56667.30
648.57	57050.27
648.76	56489.12
648.96	56841.37
649.15	57031.83
649.34	56790.17
649.54	56800.41
649.73	56444.07
649.92	57210.01
650.12	56738.97
650.31	57201.82
650.51	56923.29
650.70	57210.01
650.89	56861.85
651.09	57470.10
651.28	57042.07
651.47	57519.25
651.67	56802.46
651.86	57326.74
652.06	56564.90
652.25	57402.52
652.44	56890.52
652.64	56507.55
652.83	56884.38
653.02	56923.29
653.22	57095.32
653.41	56904.86
653.60	56792.22
653.80	56988.83
653.99	57308.31
654.18	57044.12
654.38	57345.17
654.57	56972.44
654.76	57179.29
654.96	56968.35
655.15	57046.17
655.34	57605.26
655.54	56769.69
655.73	56788.13
655.92	57549.97
656.12	57576.59
656.31	56818.84
656.50	57191.58
656.70	57107.61
656.89	57162.90
657.08	57060.51
657.28	57300.12
657.47	57277.59
657.66	57222.29
657.86	57279.64
658.05	57521.30
658.24	57517.20
658.43	57060.51
658.63	57670.80
658.82	57044.12
659.01	57459.86
659.21	57750.67
659.40	57572.50
659.59	57216.15
659.79	57259.16
659.98	57676.94
660.17	57719.95
660.36	57576.59
660.56	57664.66
660.75	57566.35
660.94	57621.65
661.14	57152.66
661.33	57220.25
661.52	57177.24
661.71	57779.34
661.91	56923.29
662.10	57423.00
662.29	57398.42
662.49	57537.68
662.68	57203.86
662.87	57742.48
663.06	57824.40
663.26	57220.25
663.45	57963.66
663.64	57226.39
663.83	57855.12
664.03	57914.51
664.22	57474.20
664.41	57549.97
664.60	57570.45
664.80	57492.63
664.99	57105.56
665.18	57146.52
665.37	58012.81
665.57	57898.12
665.76	57574.55
665.95	57476.24
666.14	57734.29
666.34	57543.83
666.53	57709.71
666.72	57199.77
666.91	57455.76
667.11	57496.72
667.30	57457.81
667.49	57418.90
667.68	57537.68
667.87	57386.13
668.07	58014.86
668.26	57742.48
668.45	57525.39
668.64	57371.80
668.84	58109.07
669.03	57781.39
669.22	57418.90
669.41	57619.60
669.60	57627.79
669.80	57488.53
669.99	57732.24
670.18	57623.70
670.37	57734.29
670.57	57664.66
670.76	57244.82
670.95	57457.81
671.14	57857.17
671.33	57390.23
671.53	57879.69
671.72	57386.13
671.91	58008.71
672.10	57560.21
672.29	57400.47
672.48	57881.74
672.68	57726.10
672.87	57167.00
673.06	57769.10
673.25	57375.89
673.44	57273.49
673.64	57646.22
673.83	57261.21
674.02	56966.30
674.21	57117.85
674.40	57427.09
674.59	57212.06
674.79	56878.24
674.98	56958.11
675.17	57525.39
675.36	57103.51
675.55	57199.77
675.74	56833.18
675.94	57513.11
676.13	57543.83
676.32	57418.90
676.51	57539.73
676.70	57300.12
676.89	57171.10
677.08	57515.15
677.28	56972.44
677.47	57474.20
677.66	57373.84
677.85	57322.65
678.04	57844.88
678.23	57527.44
678.42	57762.96
678.62	57158.81
678.81	57369.75
679.00	57300.12
679.19	58000.52
679.38	57382.04
679.57	57539.73
679.76	57148.57
679.96	57275.54
680.15	57144.47
680.34	57312.41
680.53	56784.03
680.72	57232.53
680.91	57568.40
681.10	56933.53
681.29	57291.93
681.48	56992.92
681.68	57173.14
681.87	56947.87
682.06	57183.38
682.25	56779.93
682.44	56878.24
682.63	57283.73
682.82	57085.08
683.01	56857.76
683.20	56833.18
683.39	56865.95
683.59	56800.41
683.78	57179.29
683.97	56462.50
684.16	56612.00
684.35	56257.70
684.54	56763.55
684.73	56497.31
684.92	56507.55
685.11	56456.35
685.30	56321.19
685.49	56568.99
685.69	56364.20
685.88	56206.50
686.07	56616.10
686.26	56353.96
686.45	56964.25
686.64	56505.51
686.83	56779.93
687.02	56571.04
687.21	56726.69
687.40	56751.26
687.59	56595.62
687.78	57011.35
687.97	56399.01
688.16	56120.49
688.35	56339.62
688.54	56423.59
688.74	56360.10
688.93	56255.65
689.12	56624.29
689.31	55878.83
689.50	56493.22
689.69	56030.38
689.88	55243.96
690.07	55954.60
690.26	55925.93
690.45	56612.00
690.64	56222.89
690.83	55903.40
691.02	56073.38
691.21	55665.84
691.40	55876.78
691.59	56118.44
691.78	56044.71
691.97	56378.53
692.16	56173.73
692.35	56026.28
692.54	55862.44
692.73	55671.98
692.92	55907.50
693.11	55602.35
693.30	55565.49
693.49	56235.17
693.68	55837.87
693.87	55739.57
694.06	55620.78
694.25	55157.94
694.44	55286.96
694.63	55616.69
694.82	55522.48
695.01	55532.72
695.20	55502.00
695.39	55499.95
695.58	55170.23
695.77	55282.87
695.96	55221.43
696.15	55516.34
696.34	55178.42
696.53	55479.47
696.72	55334.07
696.91	55284.92
697.10	55555.25
697.29	55145.65
697.48	55510.19
697.67	55112.89
697.86	55102.65
698.05	54910.14
698.24	55372.98
698.43	54797.50
698.62	54975.67
698.81	55051.45
699.00	55338.16
699.19	54785.21
699.38	54807.74
699.57	54592.70
699.76	55114.94
699.95	54594.75
700.14	54533.31
700.32	54969.53
700.51	54617.28
700.70	55035.06
700.89	55200.95
701.08	54615.23
701.27	54518.98
701.46	54834.36
701.65	54097.09
701.84	54537.41
702.03	54115.53
702.22	54443.20
702.41	54484.16
702.60	54015.18
702.79	54332.61
702.98	53949.64
703.17	54219.97
703.35	54445.25
703.54	54084.81
703.73	54705.34
703.92	54197.44
704.11	54056.14
704.30	53761.23
704.49	54144.20
704.68	53634.25
704.87	53654.73
705.06	53699.79
705.25	53755.08
705.43	53429.46
705.62	53656.78
705.81	53849.29
706.00	53601.49
706.19	53335.25
706.38	53126.36
706.57	53705.93
706.76	53257.43
706.95	53783.76
707.14	53515.47
707.32	53263.57
707.51	52983.00
707.70	53116.12
707.89	53421.26
708.08	53327.06
708.27	53832.91
708.46	53957.83
708.65	53069.01
708.84	53601.49
709.02	53417.17
709.21	53527.76
709.40	53028.05
709.59	53228.76
709.78	52804.83
709.97	53114.07
710.16	53198.04
710.34	53302.48
710.53	52776.15
710.72	53005.53
710.91	52524.25
711.10	52806.87
711.29	53302.48
711.48	52987.10
711.66	53064.92
711.85	52733.15
712.04	52864.22
712.23	52526.30
712.42	53116.12
712.61	52626.65
712.80	52403.42
712.98	52270.31
713.17	52229.35
713.36	52610.27
713.55	52450.53
713.74	52557.02
713.93	52335.84
714.11	52636.89
714.30	52096.23
714.49	52139.24
714.68	52438.24
714.87	52360.42
715.06	52210.92
715.24	52122.85
715.43	52323.55
715.62	52016.36
715.81	51860.71
716.00	52305.12
716.18	51533.04
716.37	52088.04
716.56	51352.82
716.75	52102.37
716.94	51614.96
717.12	51606.76
717.31	51762.41
717.50	52075.75
717.69	51655.92
717.88	51508.46
718.06	51737.83
718.25	51426.54
718.44	51043.57
718.63	51043.57
718.82	51326.19
719.00	51336.43
719.19	50824.44
719.38	51111.16
719.57	50861.30
719.76	50631.93
719.94	50828.54
720.13	50806.01
720.32	50672.89
720.51	50832.63
720.69	50500.86
720.88	50134.28
721.07	50844.92
721.26	50554.11
721.44	50380.03
721.63	50048.26
721.82	49972.49
722.01	50279.68
722.20	50380.03
722.38	50265.34
722.57	49722.63
722.76	50015.49
722.95	49407.25
723.13	49388.81
723.32	49431.82
723.51	49800.46
723.70	49478.92
723.88	49806.60
724.07	49397.01
724.26	49579.28
724.44	49188.11
724.63	49515.79
724.82	49413.39
725.01	49276.18
725.19	49224.98
725.38	49218.83
725.57	49184.02
725.76	49765.64
725.94	49057.04
726.13	48985.36
726.32	49022.23
726.51	49046.80
726.69	49171.73
726.88	49419.53
727.07	48856.34
727.25	48862.49
727.44	48977.17
727.63	48823.58
727.82	49011.99
728.00	48764.18
728.19	48778.52
728.38	49331.47
728.56	48672.03
728.75	49179.92
728.94	48485.66
729.12	48966.93
729.31	48885.01
729.50	48588.06
729.69	48833.81
729.87	48620.83
730.06	48645.40
730.25	48731.42
730.43	49065.24
730.62	48569.63
730.81	48807.19
730.99	48831.77
731.18	48819.48
731.37	49186.07
731.55	48833.81
731.74	49102.10
731.93	48860.44
732.11	48858.39
732.30	48776.47
732.49	48426.27
732.67	48432.41
732.86	48870.68
733.05	48618.78
733.23	48227.62
733.42	48440.60
733.61	48481.56
733.79	48624.92
733.98	48817.43
734.17	48207.14
734.35	48631.07
734.54	48731.42
734.73	48743.70
734.91	48157.99
735.10	47830.31
735.29	48436.51
735.47	47762.73
735.66	48231.71
735.84	48078.11
736.03	48016.68
736.22	48729.37
736.40	47906.08
736.59	48399.65
736.78	48057.63
736.96	48377.12
737.15	48268.58
737.33	47957.28
737.52	47764.78
737.71	47611.18
737.89	48059.68
738.08	47654.18
738.27	47779.11
738.45	48252.19
738.64	48024.87
738.82	47953.19
739.01	47461.68
739.20	48119.07
739.38	47920.42
739.57	47850.79
739.75	48063.78
739.94	47482.16
740.13	47760.68
740.31	47772.97
740.50	47390.00
740.68	47715.62
740.87	47607.08
741.06	47990.05
741.24	47447.34
741.43	47142.19
741.61	47500.59
741.80	46531.90
741.99	47281.45
742.17	47330.61
742.36	47093.04
742.54	46986.55
742.73	47140.14
742.91	47269.17
743.10	47125.81
743.29	47236.40
743.47	47240.50
743.66	47025.46
743.84	47166.77
744.03	46812.47
744.21	46746.93
744.40	47406.38
744.59	46679.35
744.77	46513.47
744.96	47025.46
745.14	47127.86
745.33	47095.09
745.51	46554.43
745.70	46759.22
745.88	46630.20
746.07	46826.81
746.26	46773.56
746.44	46378.30
746.63	46742.84
746.81	46851.38
747.00	46495.03
747.18	46703.93
747.37	46572.86
747.55	46429.50
747.74	46382.40
747.92	46572.86
748.11	46480.70
748.29	46226.75
748.48	46622.01
748.66	46146.88
748.85	45866.31
749.03	46296.38
749.22	45825.35
749.41	45858.12
749.59	46134.59
749.78	46220.61
749.96	45479.24
750.15	45694.28
750.33	46409.02
750.52	45630.79
750.70	45638.98
750.89	45561.16
751.07	45649.22
751.26	45802.82
751.44	45802.82
751.63	46095.68
751.81	45409.61
752.00	45503.82
752.18	45006.16
752.37	45176.14
752.55	45030.74
752.74	45190.48
752.92	44959.06
753.10	45139.28
753.29	44914.00
753.47	45241.68
753.66	44815.70
753.84	45307.21
754.03	45002.07
754.21	44588.38
754.40	45348.17
754.58	44959.06
754.77	44922.19
754.95	44954.96
755.14	44989.78
755.32	44379.48
755.51	44457.31
755.69	44651.86
755.88	44447.07
756.06	44664.15
756.24	44459.35
756.43	44512.60
756.61	44766.55
756.80	44688.73
756.98	44152.16
757.17	44520.79
757.35	44125.53
757.54	44262.75
757.72	44574.04
757.90	44434.78
758.09	44295.52
758.27	44123.49
758.46	43912.55
758.64	44135.77
758.83	44354.91
759.01	44528.98
759.19	44180.83
759.38	44186.97
759.56	44162.40
759.75	44123.49
759.93	44041.57
760.12	44107.10
760.30	44076.38
760.48	43957.60
760.67	44119.39
760.85	43949.41
761.04	43924.83
761.22	44037.47
761.40	43556.20
761.59	43523.43
761.77	43795.81
761.96	43877.73
762.14	43515.24
762.32	43761.00
762.51	43472.23
762.69	43267.44
762.88	43382.12
763.06	43234.67
763.24	43648.36
763.43	43283.82
763.61	43269.48
763.80	42816.88
763.98	43119.98
764.16	43083.12
764.35	42849.65
764.53	42763.64
764.72	42859.89
764.90	43027.82
765.08	42855.79
765.27	43021.68
765.45	43197.80
765.63	42558.84
765.82	42704.24
766.00	42337.66
766.18	42362.23
766.37	42763.64
766.55	42493.30
766.74	42917.23
766.92	42474.87
767.10	42382.71
767.29	42268.03
767.47	41768.32
767.65	42270.08
767.84	41932.16
768.02	42239.36
768.20	41835.91
768.39	42134.91
768.57	41907.58
768.75	41790.85
768.94	42257.79
769.12	41966.98
769.30	41846.15
769.49	41932.16
769.67	41866.63
769.85	41241.99
770.04	41512.33
770.22	41837.95
770.40	41518.47
770.59	41383.30
770.77	41397.64
770.95	41340.30
771.14	41678.21
771.32	41149.84
771.50	40928.66
771.69	40891.79
771.87	41414.02
772.05	41063.82
772.24	41106.83
772.42	40715.67
772.60	40832.40
772.78	40861.07
772.97	40809.87
773.15	40904.08
773.33	40711.57
773.52	40785.30
773.70	41416.07
773.88	40979.85
774.07	40510.87
774.25	41010.57
774.43	41104.78
774.61	40783.25
774.80	41123.21
774.98	40678.80
775.16	40605.08
775.34	40916.37
775.53	40748.43
775.71	40854.93
775.89	41006.48
776.08	40912.27
776.26	40662.42
776.44	40973.71
776.62	40902.03
776.81	40705.43
776.99	41108.88
777.17	41301.39
777.35	41010.57
777.54	41575.81
777.72	40996.24
777.90	41160.08
778.08	41444.74
778.27	41188.75
778.45	41829.76
778.63	41512.33
778.81	41278.86
779.00	41428.36
779.18	41108.88
779.36	41436.55
779.54	41602.44
779.73	41506.18
779.91	41391.50
780.09	41459.08
780.27	41612.68
780.46	41534.85
780.64	41602.44
780.82	41538.95
781.00	41121.16
781.19	41506.18
781.37	41977.22
781.55	41538.95
781.73	41973.12
781.91	41530.76
782.10	41629.06
782.28	41563.53
782.46	41860.48
782.64	42016.13
782.82	41428.36
783.01	41735.56
783.19	41940.35
783.37	41794.95
783.55	41883.01
783.74	41979.26
783.92	41713.03
784.10	42018.17
784.28	41850.24
784.46	41682.31
784.64	41850.24
784.83	41940.35
785.01	42118.53
785.19	41471.37
785.37	42046.85
785.55	41616.77
785.74	41870.72
785.92	41420.17
786.10	41721.22
786.28	41481.61
786.46	41567.62
786.64	41364.87
786.83	41405.83
787.01	41790.85
787.19	41446.79
787.37	41545.09
787.55	41481.61
787.74	41448.84
787.92	41598.34
788.10	41307.53
788.28	41278.86
788.46	41442.70
788.64	41168.27
788.82	41393.54
789.01	41233.80
789.19	41201.04
789.37	41508.23
789.55	41039.25
789.73	40848.78
789.91	40809.87
790.09	40813.97
790.28	40605.08
790.46	40224.15
790.64	40359.32
790.82	40492.44
791.00	40371.61
791.18	40279.45
791.36	40398.23
791.55	40285.59
791.73	40463.77
791.91	39986.59
792.09	40000.93
792.27	39878.05
792.45	40201.63
792.63	39837.09
792.81	39652.77
793.00	39658.91
793.18	39839.14
793.36	39339.43
793.54	39517.60
793.72	39585.19
793.90	39224.75
794.08	39413.16
794.26	39343.53
794.44	38925.74
794.62	38954.41
794.81	39056.81
794.99	38917.55
795.17	38755.76
795.35	38942.13
795.53	39058.86
795.71	39136.68
795.89	38792.62
796.07	38098.36
796.25	38407.61
796.43	37940.67
796.61	37854.65
796.80	38004.16
796.98	38139.32
797.16	38172.09
797.34	37989.82
797.52	38133.18
797.70	38364.60
797.88	37965.24
798.06	37598.66
798.24	37619.14
798.42	37643.71
798.60	36935.12
798.78	37469.64
798.96	37707.20
799.14	36902.35
799.32	36971.98
799.51	36953.55
799.69	37240.26
799.87	36597.20
800.05	36611.54
800.23	36685.26
800.41	36869.58
800.59	36890.06
800.77	36648.40
800.95	36247.00
801.13	36154.84
801.31	36304.34
801.49	36517.33
801.67	36099.55
801.85	36054.49
802.03	36079.07
802.21	35888.60
802.39	35812.83
802.57	35491.30
802.75	35380.71
802.93	35616.22
803.11	35548.64
803.29	35444.20
803.47	34979.31
803.65	35460.58
803.83	35302.89
804.01	35358.18
804.19	34805.23
804.37	34389.49
804.55	34616.82
804.73	34688.49
804.91	34848.24
805.09	34534.90
805.27	34547.18
805.45	34459.12
805.63	34575.86
805.81	34627.06
805.99	34813.42
806.17	34627.06
806.35	34543.09
806.53	33983.99
806.71	34059.77
806.89	34225.65
807.07	34090.49
807.25	34244.09
807.43	34014.71
807.61	34024.95
807.79	34078.20
807.97	33365.51
808.15	33381.89
808.33	33320.45
808.51	33707.52
808.69	33459.71
808.87	33478.15
809.05	33355.27
809.23	33127.94
809.41	32851.47
809.59	32808.46
809.77	33222.15
809.95	32714.25
810.13	32898.57
810.31	32568.85
810.49	32798.22
810.67	32837.13
810.84	32886.28
811.02	32683.53
811.20	32396.82
811.38	32484.88
811.56	32189.97
811.74	32073.24
811.92	32214.55
812.10	32275.99
812.28	32056.85
812.46	32329.23
812.64	32175.64
812.82	31866.39
813.00	31829.53
813.18	32050.71
813.36	31622.69
813.53	31886.87
813.71	31381.03
813.89	31551.01
814.07	31847.96
814.25	31983.13
814.43	31516.19
814.61	31094.31
814.79	31206.95
814.97	31065.64
815.15	31274.53
815.33	30971.43
815.50	30869.03
815.68	31198.76
815.86	31182.37
816.04	31032.87
816.22	30795.31
816.40	31184.42
816.58	30740.01
816.76	30756.39
816.94	30823.98
817.11	30674.48
817.29	30637.61
817.47	30295.60
817.65	30289.46
817.83	30225.97
818.01	30426.67
818.19	30230.07
818.37	30385.71
818.54	30230.07
818.72	30371.38
818.90	30103.09
819.08	30047.80
819.26	29906.49
819.44	29894.20
819.62	29826.62
819.80	30142.00
819.97	29937.21
820.15	29634.11
820.33	29423.17
820.51	29879.86
820.69	29374.02
820.87	29890.10
821.05	29533.76
821.22	29464.13
821.40	29277.76
821.58	29470.27
821.76	29351.49
821.94	29269.57
822.12	29357.63
822.29	29312.58
822.47	29118.02
822.65	29365.82
822.83	29136.45
823.01	29152.84
823.19	28870.22
823.36	28968.52
823.54	28730.95
823.72	28743.24
823.90	28841.54
824.08	28827.21
824.25	29072.96
824.43	28573.26
824.61	28593.74
824.79	28593.74
824.97	28859.98
825.15	28552.78
825.32	28511.82
825.50	28083.80
825.68	28466.77
825.86	28573.26
826.04	28649.03
826.21	28325.46
826.39	28347.98
826.57	28284.50
826.75	27821.66
826.93	28239.44
827.10	27983.44
827.28	28071.51
827.46	28339.79
827.64	28051.03
827.81	27754.07
827.99	28151.38
828.17	27991.64
828.35	27897.43
828.53	27682.39
828.70	27592.28
828.88	27883.09
829.06	27614.81
829.24	27534.94
829.41	27457.12
829.59	27653.72
829.77	27301.47
829.95	27721.30
830.12	27426.40
830.30	27776.60
830.48	27592.28
830.66	27354.72
830.84	27227.74
831.01	27336.29
831.19	27539.04
831.37	27223.65
831.55	27213.41
831.72	27297.38
831.90	27178.59
832.08	27090.53
832.25	27145.83
832.43	26857.06
832.61	26615.40
832.79	27072.10
832.96	26986.08
833.14	26689.13
833.32	26799.72
833.50	26910.31
833.67	26779.24
833.85	27108.96
834.03	26488.43
834.20	26639.98
834.38	26809.96
834.56	26785.38
834.74	26359.41
834.91	26740.33
835.09	26551.91
835.27	26400.37
835.44	26168.94
835.62	26293.87
835.80	26314.35
835.98	25902.71
836.15	26214.00
836.33	26209.90
836.51	26490.48
836.68	26109.55
836.86	26046.07
837.04	26054.26
837.21	26023.54
837.39	25996.92
837.57	26236.53
837.75	26283.63
837.92	25773.69
838.10	25902.71
838.28	25757.30
838.45	25892.47
838.63	25384.57
838.81	26170.99
838.98	25783.93
839.16	25390.72
839.34	25527.93
839.51	25423.48
839.69	25599.61
839.87	25577.08
840.04	25538.17
840.22	25845.37
840.40	25321.09
840.57	25261.69
840.75	25552.51
840.93	25171.58
841.10	25060.99
841.28	25390.72
841.46	25480.83
841.63	25237.12
841.81	25437.82
841.98	25222.78
842.16	25294.46
842.34	25216.64
842.51	24764.04
842.69	25112.19
842.87	24800.90
843.04	24770.18
843.22	24772.23
843.40	24733.32
843.57	24747.65
843.75	24862.34
843.92	24753.80
844.10	24542.86
844.28	24888.96
844.45	24839.81
844.63	24925.83
844.81	24397.45
844.98	24503.95
845.16	24759.94
845.33	24188.56
845.51	24409.74
845.69	24430.22
845.86	24342.16
846.04	24153.74
846.21	24204.94
846.39	24395.40
846.57	24141.46
846.74	24356.49
846.92	24323.72
847.09	24309.39
847.27	23987.86
847.45	24043.15
847.62	24270.48
847.80	24047.25
847.97	24045.20
848.15	24198.80
848.32	23766.68
848.50	23918.23
848.68	23580.31
848.85	23901.84
849.03	23754.39
849.20	23654.04
849.38	23795.35
849.56	23801.49
849.73	23385.76
849.91	23744.15
850.08	23948.95
850.26	23266.97
850.43	23565.98
850.61	23547.54
850.78	23420.57
850.96	23817.88
851.14	23406.23
851.31	23328.41
851.49	23326.36
851.66	23778.97
851.84	23469.72
852.01	23533.21
852.19	23445.15
852.36	23178.91
852.54	23428.76
852.71	23174.81
852.89	23266.97
853.07	23060.13
853.24	23015.07
853.42	23449.24
853.59	23191.20
853.77	23160.48
853.94	23500.44
854.12	23273.12
854.29	22847.14
854.47	23037.60
854.64	23064.22
854.82	22877.86
854.99	22967.97
855.17	22697.64
855.34	22775.46
855.52	22779.56
855.69	22896.29
855.87	22787.75
856.04	22523.56
856.22	22640.29
856.39	22576.81
856.57	22521.51
856.74	22331.05
856.92	22361.77
857.09	22290.09
857.27	22367.91
857.44	22709.93
857.62	22648.49
857.79	22486.70
857.97	22408.87
858.14	22292.14
858.32	22292.14
858.49	22226.60
858.67	22253.23
858.84	22189.74
859.02	22296.24
859.19	22199.98
859.37	21903.03
859.54	22017.71
859.72	21999.28
859.89	21999.28
860.06	22089.39
860.24	22013.62
860.41	22202.03
860.59	22019.76
860.76	21954.22
860.94	21712.56
861.11	22095.53
861.29	22025.90
861.46	21696.18
861.64	21386.94
861.81	21626.55
861.98	21737.14
862.16	21507.77
862.33	21595.83
862.51	21616.31
862.68	21665.46
862.86	21622.45
863.03	21556.92
863.21	21472.95
863.38	21634.74
863.55	21597.88
863.73	21327.55
863.90	21305.02
864.08	21171.90
864.25	21227.20
864.43	21491.38
864.60	21266.11
864.77	20774.60
864.95	21198.52
865.12	21182.14
865.30	20991.68
865.47	20788.93
865.64	20887.23
865.82	20997.82
865.99	21077.69
866.17	20760.26
866.34	21083.84
866.51	20856.51
866.69	20995.78
866.86	20856.51
867.04	20874.95
867.21	20954.82
867.38	20819.65
867.56	20358.86
867.73	20524.74
867.91	20348.62
868.08	20627.14
868.25	20367.05
868.43	20305.61
868.60	20395.72
868.78	20229.84
868.95	20661.96
869.12	20381.38
869.30	20231.88
869.47	20123.34
869.64	20152.01
869.82	20268.75
869.99	19922.64
870.16	20303.56
870.34	20070.09
870.51	20307.66
870.69	19988.18
870.86	19914.45
871.03	19939.02
871.21	20172.49
871.38	20330.19
871.55	19736.27
871.73	19801.81
871.90	19533.53
872.07	19871.44
872.25	19648.21
872.42	19461.85
872.59	19711.70
872.77	19816.15
872.94	19433.18
873.11	19631.83
873.29	19519.19
873.46	19416.79
873.63	19392.22
873.81	19652.31
873.98	19037.92
874.15	19605.20
874.33	19097.31
874.50	19023.58
874.67	19295.96
874.85	19177.18
875.02	19130.08
875.19	19017.44
875.37	18857.70
875.54	18587.36
875.71	18992.86
875.88	18753.25
876.06	18941.66
876.23	18642.66
876.40	18495.21
876.58	18855.65
876.75	18712.29
876.92	18587.36
877.10	18775.78
877.27	18550.50
877.44	18669.28
877.61	18579.17
877.79	18415.34
877.96	18319.08
878.13	18769.63
878.31	18233.07
878.48	18173.67
878.65	18192.11
878.82	18087.66
879.00	18235.11
879.17	18294.50
879.34	18179.82
879.51	18120.43
879.69	18028.27
879.86	17862.38
880.03	18110.19
880.21	17858.29
880.38	18026.22
880.55	18128.62
880.72	17688.31
880.90	17809.14
881.07	17784.56
881.24	17747.70
881.41	17886.96
881.59	17839.86
881.76	17612.53
881.93	17557.24
882.10	17747.70
882.28	17727.22
882.45	17764.08
882.62	17407.73
882.79	17592.05
882.96	17293.05
883.14	17587.96
883.31	17526.52
883.48	17317.62
883.65	17352.44
883.83	17430.26
884.00	17311.48
884.17	17401.59
884.34	17278.71
884.51	17145.59
884.69	17438.45
884.86	17135.35
885.03	17422.07
885.20	17100.54
885.38	17358.58
885.55	17116.92
885.72	16871.17
885.89	17430.26
886.06	17172.22
886.24	16987.90
886.41	16932.61
886.58	17118.97
886.75	17204.99
886.92	17098.49
887.10	17297.14
887.27	16762.62
887.44	16801.54
887.61	17039.10
887.78	16942.85
887.95	17002.24
888.13	16797.44
888.30	16740.10
888.47	16781.06
888.64	17063.68
888.81	16783.10
888.99	16557.83
889.16	16611.07
889.33	16578.31
889.50	16666.37
889.67	16570.12
889.84	16504.58
890.01	16576.26
890.19	16527.11
890.36	16520.96
890.53	16625.41
890.70	16310.02
890.87	16590.59
891.04	16109.32
891.22	16570.12
891.39	16295.69
891.56	16250.63
891.73	16553.73
891.90	15951.63
892.07	16080.65
892.24	16041.74
892.42	15994.64
892.59	16187.14
892.76	15750.93
892.93	15929.10
893.10	16144.14
893.27	16000.78
893.44	15787.79
893.61	15914.77
893.79	16064.27
893.96	15888.14
894.13	16088.84
894.30	16090.89
894.47	15968.01
894.64	16021.26
894.81	15757.07
894.98	15900.43
895.15	15748.88
895.33	15836.94
895.50	15978.25
895.67	15871.76
895.84	15863.57
896.01	15793.94
896.18	15619.86
896.35	16088.84
896.52	15808.27
896.69	15626.00
896.86	15750.93
897.04	15699.73
897.21	15746.83
897.38	15589.14
897.55	15687.44
897.72	15687.44
897.89	15793.94
898.06	15544.08
898.23	15707.92
898.40	15560.47
898.57	15785.74
898.74	15408.92
898.91	15535.89
899.08	15658.77
899.26	15517.46
899.43	15761.17
899.60	15589.14
899.77	15615.76
899.94	15685.39
900.11	15564.56
900.28	15687.44
900.45	15396.63
900.62	15734.54
900.79	15484.69
900.96	15626.00
901.13	15695.63
901.30	15413.01
901.47	15230.74
901.64	15593.23
901.81	15597.33
901.98	15419.16
902.15	15705.87
902.32	15533.84
902.49	15718.16
902.66	15468.31
902.83	15675.15
903.01	15431.44
903.18	15634.19
903.35	15542.03
903.52	15482.64
903.69	15552.27
903.86	15513.36
904.03	15601.43
904.20	15601.43
904.37	15699.73
904.54	15421.20
904.71	15390.49
904.88	15513.36
905.05	15408.92
905.22	15441.68
905.39	15374.10
905.56	15488.79
905.73	15386.39
905.90	15453.97
906.07	15406.87
906.24	15683.34
906.41	15386.39
906.58	15570.71
906.75	15363.86
906.92	15251.22
907.09	15499.03
907.26	15529.75
907.43	15202.07
907.60	15128.35
907.77	15484.69
907.93	15300.37
908.10	15202.07
908.27	15550.23
908.44	15294.23
908.61	15183.64
908.78	15140.63
908.95	15421.20
909.12	15304.47
909.29	15257.37
909.46	15312.66
909.63	15357.72
909.80	15333.14
909.97	15361.81
910.14	15208.22
910.31	15439.64
910.48	15390.49
910.65	15279.89
910.82	15216.41
910.99	15404.82
911.16	15189.78
911.33	15163.16
911.50	15286.04
911.66	15230.74
911.83	15191.83
912.00	14919.45
912.17	14989.08
912.34	15114.01
912.51	14997.28
912.68	14765.85
912.85	14843.68
913.02	14946.08
913.19	14790.43
913.36	14712.61
913.53	14831.39
913.70	14724.90
913.86	15044.38
914.03	14692.13
914.20	14839.58
914.37	14843.68
914.54	14554.91
914.71	14778.14
914.88	14735.14
915.05	14628.64
915.22	14473.00
915.39	14522.15
915.55	14548.77
915.72	14417.70
915.89	14493.47
916.06	14391.08
916.23	14378.79
916.40	14196.52
916.57	14284.58
916.74	14354.21
916.91	14059.31
917.07	14077.74
917.24	14143.27
917.41	14151.46
917.58	14214.95
917.75	13913.90
917.92	13811.50
918.09	13975.34
918.26	14028.59
918.42	13924.14
918.59	13874.99
918.76	13539.12
918.93	13709.10
919.10	13487.92
919.27	13643.57
919.44	13631.28
919.60	13612.85
919.77	13618.99
919.94	13561.65
920.11	13381.43
920.28	13567.79
920.45	13461.30
920.61	13602.61
920.78	13561.65
920.95	13166.39
921.12	13186.87
921.29	13131.58
921.46	13008.70
921.62	13100.86
921.79	13102.90
921.96	12967.74
922.13	12961.59
922.30	13053.75
922.47	13010.75
922.63	12943.16
922.80	12916.54
922.97	12705.60
923.14	12519.23
923.31	12724.03
923.47	12719.93
923.64	12838.72
923.81	12328.77
923.98	12666.69
924.15	12189.51
924.32	12431.17
924.48	12345.16
924.65	12472.13
924.82	12136.26
924.99	12265.28
925.15	12021.58
925.32	12013.38
925.49	11976.52
925.66	11923.27
925.83	12107.59
925.99	11786.06
926.16	11982.67
926.33	11876.17
926.50	11804.49
926.67	11855.69
926.83	11808.59
927.00	11792.20
927.17	11536.21
927.34	11341.65
927.50	11312.98
927.67	11517.78
927.84	11601.74
928.01	11552.59
928.17	11433.81
928.34	11267.92
928.51	11265.88
928.68	11216.72
928.84	11202.39
929.01	11003.74
929.18	10889.05
929.35	11110.23
929.51	10854.23
929.68	10737.50
929.85	10884.95
930.02	10831.71
930.18	10807.13
930.35	10702.68
930.52	10653.53
930.69	10747.74
930.85	10694.49
931.02	10604.38
931.19	10295.14
931.36	10350.43
931.52	10575.71
931.69	10413.92
931.86	10606.43
932.02	10198.88
932.19	10172.26
932.36	10073.96
932.53	10102.63
932.69	10080.10
932.86	10200.93
933.03	10030.95
933.19	9723.76
933.36	9826.15
933.53	9836.39
933.70	9858.92
933.86	9881.45
934.03	9838.44
934.20	9521.01
934.36	9482.10
934.53	9367.41
934.70	9348.98
934.86	9396.08
935.03	9213.81
935.20	9193.33
935.36	9367.41
935.53	9119.60
935.70	9113.46
935.86	8988.53
936.03	8787.83
936.20	8660.86
936.36	8867.70
936.53	8691.58
936.70	8544.13
936.86	8765.31
937.03	8580.99
937.20	8208.26
937.36	8437.63
937.53	8136.58
937.70	8284.03
937.86	8025.99
938.03	7767.95
938.20	8124.29
938.36	7759.75
938.53	7835.53
938.70	7628.68
938.86	7518.09
939.03	7518.09
939.20	7540.62
939.36	7548.81
939.53	7145.36
939.70	7325.58
939.86	6866.84
940.03	6999.96
940.19	6815.64
940.36	6975.38
940.53	7032.72
940.69	6623.13
940.86	6772.63
941.03	6571.93
941.19	6639.51
941.36	6490.01
941.52	6539.16
941.69	6375.33
941.86	6440.86
942.02	6418.33
942.19	6162.34
942.35	6352.80
942.52	6109.09
942.69	6074.28
942.85	5902.25
943.02	5855.14
943.18	5894.05
943.35	5855.14
943.52	5941.16
943.68	5767.08
943.85	5894.05
944.01	5627.82
944.18	5752.74
944.35	5715.88
944.51	5560.24
944.68	5425.07
944.84	5646.25
945.01	5574.57
945.17	5400.49
945.34	5527.47
945.51	5558.19
945.67	5543.85
945.84	5433.26
946.00	5429.17
946.17	5541.80
946.33	5408.69
946.50	5484.46
946.67	5466.03
946.83	5455.79
947.00	5400.49
947.16	5375.92
947.33	5267.38
947.49	5271.47
947.66	5377.97
947.82	5361.58
947.99	5277.62
948.16	5279.66
948.32	5423.02
948.49	5386.16
948.65	5404.59
948.82	5427.12
948.98	5279.66
949.15	5201.84
949.31	5359.53
949.48	5394.35
949.64	5318.57
949.81	5343.15
949.97	5361.58
950.14	5363.63
950.30	5343.15
950.47	5351.34
950.63	5361.58
950.80	5396.40
950.96	5418.93
951.13	5402.54
951.30	5480.36
951.46	5506.99
951.63	5490.60
951.79	5402.54
951.96	5562.28
952.12	5408.69
952.29	5492.65
952.45	5343.15
952.62	5459.88
952.78	5474.22
952.94	5513.13
953.11	5425.07
953.27	5398.45
953.44	5576.62
953.60	5445.55
953.77	5570.48
953.93	5463.98
954.10	5638.06
954.26	5506.99
954.43	5445.55
954.59	5459.88
954.76	5539.76
954.92	5574.57
955.09	5556.14
955.25	5539.76
955.42	5523.37
955.58	5726.12
955.75	5509.04
955.91	5355.44
956.07	5621.67
956.24	5468.08
956.40	5474.22
956.57	5537.71
956.73	5582.76
956.90	5629.87
957.06	5474.22
957.23	5531.56
957.39	5533.61
957.56	5517.23
957.72	5431.21
957.88	5468.08
958.05	5578.67
958.21	5656.49
958.38	5701.54
958.54	5568.43
958.71	5638.06
958.87	5679.02
959.03	5502.89
959.20	5443.50
959.36	5441.45
959.53	5484.46
959.69	5398.45
959.85	5648.30
960.02	5304.24
960.18	5539.76
960.35	5525.42
960.51	5515.18
960.68	5539.76
960.84	5642.15
961.00	5576.62
961.17	5611.43
961.33	5455.79
961.50	5570.48
961.66	5492.65
961.82	5580.71
961.99	5480.36
962.15	5533.61
962.31	5521.32
962.48	5562.28
962.64	5695.40
962.81	5496.75
962.97	5498.80
963.13	5463.98
963.30	5443.50
963.46	5351.34
963.62	5334.96
963.79	5523.37
963.95	5550.00
964.12	5566.38
964.28	5435.31
964.44	5255.09
964.61	5441.45
964.77	5425.07
964.93	5472.17
965.10	5353.39
965.26	5377.97
965.42	5404.59
965.59	5169.07
965.75	5474.22
965.92	5334.96
966.08	5459.88
966.24	5408.69
966.41	5371.82
966.57	5359.53
966.73	5447.60
966.90	5337.01
967.06	5236.66
967.22	5349.29
967.39	5226.42
967.55	5171.12
967.71	5248.94
967.88	5277.62
968.04	5402.54
968.20	5285.81
968.37	5197.74
968.53	5259.18
968.69	5279.66
968.85	5294.00
969.02	5224.37
969.18	5398.45
969.34	5210.03
969.51	5097.39
969.67	5361.58
969.83	5054.39
970.00	5195.70
970.16	5007.28
970.32	5154.74
970.48	5175.22
970.65	5066.67
970.81	4995.00
970.97	5185.46
971.14	5124.02
971.30	5107.63
971.46	5052.34
971.63	4997.04
971.79	5156.79
971.95	5124.02
972.11	4923.32
972.28	5017.52
972.44	5064.63
972.60	4833.21
972.76	5132.21
972.93	4923.32
973.09	5097.39
973.25	5048.24
973.42	4997.04
973.58	4976.56
973.74	4896.69
973.90	5017.52
974.07	4814.77
974.23	4908.98
974.39	4872.12
974.55	4870.07
974.72	4894.65
974.88	4798.39
975.04	4769.72
975.20	4804.53
975.37	4851.64
975.53	4849.59
975.69	4794.29
975.85	4792.25
976.01	4822.97
976.18	4790.20
976.34	4902.84
976.50	4800.44
976.66	4814.77
976.83	4675.51
976.99	4634.55
977.15	4753.34
977.31	4550.59
977.47	4798.39
977.64	4779.96
977.80	4616.12
977.96	4657.08
978.12	4714.42
978.29	4657.08
978.45	4515.77
978.61	4466.62
978.77	4607.93
978.93	4454.33
979.10	4648.89
979.26	4636.60
979.42	4616.12
979.58	4478.91
979.74	4452.28
979.91	4577.21
980.07	4505.53
980.23	4548.54
980.39	4423.61
980.55	4405.18
980.71	4538.30
980.88	4405.18
981.04	4444.09
981.20	4464.57
981.36	4444.09
981.52	4409.28
981.68	4390.84
981.85	4550.59
982.01	4532.15
982.17	4372.41
982.33	4313.02
982.49	4411.32
982.65	4335.55
982.82	4345.79
982.98	4333.50
983.14	4288.45
983.30	4462.52
983.46	4329.41
983.62	4235.20
983.79	4229.06
983.95	4220.86
984.11	4243.39
984.27	4300.73
984.43	4327.36
984.59	4136.90
984.75	4317.12
984.91	4190.14
985.08	4272.06
985.24	4157.38
985.40	4018.11
985.56	4114.37
985.72	4188.10
985.88	4313.02
986.04	4288.45
986.20	4216.77
986.37	4147.14
986.53	4059.07
986.69	4046.79
986.85	4069.31
987.01	4069.31
987.17	4081.60
987.33	4196.29
987.49	4003.78
987.65	4130.75
987.82	4036.55
987.98	3923.91
988.14	3995.59
988.30	4106.18
988.46	3940.29
988.62	3846.09
988.78	4046.79
988.94	3942.34
989.10	3893.19
989.26	3751.88
989.42	3925.96
989.59	3766.21
989.75	3860.42
989.91	3868.61
990.07	3661.77
990.23	3856.33
990.39	3780.55
990.55	3891.14
990.71	3841.99
990.87	3839.94
991.03	3786.69
991.19	3772.36
991.35	3852.23
991.51	3862.47
991.67	3874.76
991.83	3700.68
992.00	3825.61
992.16	3772.36
992.32	3760.07
992.48	3735.50
992.64	3620.81
992.80	3682.25
992.96	3702.73
993.12	3766.21
993.28	3733.45
993.44	3622.86
993.60	3725.26
993.76	3571.66
993.92	3678.15
994.08	3727.30
994.24	3674.06
994.40	3620.81
994.56	3667.91
994.72	3438.54
994.88	3510.22
995.04	3463.12
995.20	3475.40
995.36	3452.88
995.52	3610.57
995.68	3491.79
995.84	3450.83
996.00	3682.25
996.16	3436.49
996.32	3516.36
996.48	3434.44
996.64	3647.43
996.80	3401.68
996.96	3483.59
997.12	3467.21
997.28	3442.64
997.44	3395.53
997.60	3430.35
997.76	3467.21
997.92	3469.26
998.08	3428.30
998.24	3340.24
998.40	3416.01
998.56	3477.45
998.72	3293.13
998.88	3317.71
999.04	3330.00
999.20	3362.76
999.36	3338.19
999.52	3375.05
999.68	3370.96
999.84	3346.38
1000.00	3327.95
1000.16	3313.61
1000.32	3223.50
1000.48	3276.75
1000.64	3282.89
1000.80	3205.07
1000.95	3256.27
1001.11	3276.75
1001.27	3084.24
1001.43	3209.17
1001.59	3117.01
1001.75	3176.40
1001.91	3225.55
1002.07	3215.31
1002.23	3198.93
1002.39	3131.34
1002.55	3205.07
1002.71	3078.10
1002.87	3217.36
1003.03	3084.24
1003.19	3106.77
1003.34	3141.58
1003.50	3055.57
1003.66	3162.06
1003.82	3186.64
1003.98	3067.86
1004.14	3043.28
1004.30	3053.52
1004.46	2955.22
1004.62	3084.24
1004.78	3020.75
1004.94	3035.09
1005.09	3090.38
1005.25	3049.43
1005.41	3078.10
1005.57	3035.09
1005.73	2998.23
1005.89	2944.98
1006.05	2969.55
1006.21	3057.62
1006.37	2949.08
1006.52	2858.96
1006.68	2914.26
1006.84	3067.86
1007.00	2830.29
1007.16	2951.12
1007.32	2856.92
1007.48	2893.78
1007.64	2949.08
1007.79	2928.60
1007.95	2803.67
1008.11	2910.16
1008.27	2848.72
1008.43	2838.48
1008.59	2883.54
1008.75	2879.44
1008.91	2883.54
1009.06	2867.16
1009.22	2727.89
1009.38	2869.20
1009.54	2854.87
1009.70	2854.87
1009.86	2846.68
1010.01	2791.38
1010.17	2838.48
1010.33	2789.33
1010.49	2768.85
1010.65	2869.20
1010.81	2723.80
1010.96	2750.42
1011.12	2701.27
1011.28	2682.84
1011.44	2826.20
1011.60	2801.62
1011.76	2715.61
1011.91	2748.37
1012.07	2709.46
1012.23	2602.97
1012.39	2660.31
1012.55	2746.33
1012.71	2600.92
1012.86	2607.06
1013.02	2625.50
1013.18	2600.92
1013.34	2656.22
1013.50	2645.98
1013.65	2674.65
1013.81	2527.19
1013.97	2527.19
1014.13	2617.30
1014.29	2607.06
1014.44	2623.45
1014.60	2527.19
1014.76	2519.00
1014.92	2529.24
1015.07	2633.69
1015.23	2600.92
1015.39	2486.23
1015.55	2578.39
1015.71	2629.59
1015.86	2529.24
1016.02	2557.91
1016.18	2502.62
1016.34	2506.71
1016.49	2600.92
1016.65	2543.58
1016.81	2469.85
1016.97	2447.32
1017.12	2478.04
1017.28	2414.56
1017.44	2410.46
1017.60	2475.99
1017.75	2475.99
1017.91	2539.48
1018.07	2484.19
1018.23	2469.85
1018.38	2346.97
1018.54	2465.75
1018.70	2414.56
1018.86	2322.40
1019.01	2486.23
1019.17	2488.28
1019.33	2529.24
1019.49	2400.22
1019.64	2439.13
1019.80	2484.19
1019.96	2412.51
1020.12	2363.36
1020.27	2316.25
1020.43	2322.40
1020.59	2389.98
1020.74	2385.88
1020.90	2439.13
1021.06	2330.59
1021.22	2394.08
1021.37	2490.33
1021.53	2254.81
1021.69	2369.50
1021.84	2254.81
1022.00	2412.51
1022.16	2267.10
1022.31	2287.58
1022.47	2336.73
1022.63	2332.64
1022.79	2217.95
1022.94	2234.33
1023.10	2430.94
1023.26	2320.35
1023.41	2217.95
1023.57	2203.61
1023.73	2324.44
1023.88	2189.28
1024.04	2193.37
1024.20	2263.01
1024.35	2318.30
1024.51	2289.63
1024.67	2254.81
1024.82	2371.55
1024.98	2191.33
1025.14	2240.48
1025.29	2271.20
1025.45	2291.68
1025.61	2166.75
1025.76	2115.55
1025.92	2142.18
1026.08	2260.96
1026.23	2228.19
1026.39	2236.38
1026.55	2240.48
1026.70	2121.70
1026.86	2119.65
1027.02	2222.05
1027.17	2183.13
1027.33	2246.62
1027.48	2183.13
1027.64	2121.70
1027.80	2164.70
1027.95	2162.66
1028.11	2152.42
1028.27	2209.76
1028.42	2205.66
1028.58	2131.94
1028.73	2117.60
1028.89	2115.55
1029.05	2287.58
1029.20	2164.70
>>>>>End Processed Spectral Data<<<<<
