SpectraSuite Data File
++++++++++++++++++++++++++++++++++++
Date: Fri Jun 02 14:53:30 CEST 2017
User: INFO_000
Dark Spectrum Present: No
Reference Spectrum Present: No
Number of Sampled Component Spectra: 1
Spectrometers: USB4H00879
Integration Time (usec): 80000 (USB4H00879)
Spectra Averaged: 1 (USB4H00879)
Boxcar Smoothing: 0 (USB4H00879)
Correct for Electrical Dark: No (USB4H00879)
Strobe/Lamp Enabled: No (USB4H00879)
Correct for Detector Non-linearity: No (USB4H00879)
Correct for Stray Light: No (USB4H00879)
Number of Pixels in Processed Spectrum: 3648
>>>>>Begin Processed Spectral Data<<<<<
345.13	1310.70
345.34	1310.70
345.56	1310.70
345.78	1255.40
345.99	1296.36
346.21	1667.05
346.42	1744.87
346.64	1650.66
346.86	1781.73
347.07	1630.18
347.29	1716.20
347.50	1613.80
347.72	1697.77
347.94	1769.44
348.15	1601.51
348.37	1587.18
348.59	1660.90
348.80	1714.15
349.02	1816.55
349.23	1820.64
349.45	1789.92
349.67	1900.52
349.88	1828.84
350.10	1935.33
350.31	1888.23
350.53	1822.69
350.75	1968.10
350.96	1800.16
351.18	1861.60
351.39	1843.17
351.61	1871.84
351.82	1953.76
352.04	1961.95
352.26	1810.40
352.47	1955.81
352.69	1863.65
352.90	1763.30
353.12	1861.60
353.34	1789.92
353.55	1961.95
353.77	1935.33
353.98	1908.71
354.20	1830.88
354.41	1867.75
354.63	1916.90
354.85	1970.15
355.06	1968.10
355.28	1832.93
355.49	1904.61
355.71	1906.66
355.92	1820.64
356.14	1939.43
356.35	1898.47
356.57	1826.79
356.79	1953.76
357.00	1888.23
357.22	1947.62
357.43	1859.56
357.65	1976.29
357.86	1857.51
358.08	1867.75
358.29	1918.95
358.51	1998.82
358.72	1925.09
358.94	1886.18
359.16	1949.67
359.37	1968.10
359.59	2011.11
359.80	2007.01
360.02	1970.15
360.23	2007.01
360.45	2019.30
360.66	1923.04
360.88	1941.47
361.09	2017.25
361.31	2011.11
361.52	1970.15
361.74	1974.24
361.95	2111.46
362.17	1964.00
362.38	2209.76
362.60	2045.92
362.81	1978.34
363.03	1943.52
363.24	2047.97
363.46	2045.92
363.67	2062.30
363.89	2019.30
364.10	2000.87
364.32	1966.05
364.53	1998.82
364.75	1939.43
364.96	2052.06
365.18	2105.31
365.39	1998.82
365.61	2019.30
365.82	2168.80
366.04	1998.82
366.25	1943.52
366.47	2086.88
366.68	2058.21
366.90	2023.39
367.11	2131.94
367.33	2203.61
367.54	2070.50
367.76	2023.39
367.97	2117.60
368.19	2004.96
368.40	2144.22
368.62	1988.58
368.83	1941.47
369.05	2011.11
369.26	2017.25
369.48	1976.29
369.69	2017.25
369.91	2035.68
370.12	2054.11
370.33	2074.59
370.55	2007.01
370.76	2011.11
370.98	2179.04
371.19	2011.11
371.41	1974.24
371.62	2109.41
371.84	2090.98
372.05	2211.81
372.27	2023.39
372.48	2017.25
372.69	2123.74
372.91	2191.33
373.12	2238.43
373.34	2127.84
373.55	2142.18
373.77	2156.51
373.98	2172.89
374.20	2174.94
374.41	2314.20
374.62	2199.52
374.84	2131.94
375.05	2240.48
375.27	2127.84
375.48	2109.41
375.70	2119.65
375.91	2115.55
376.12	2277.34
376.34	2125.79
376.55	2166.75
376.77	2111.46
376.98	2189.28
377.19	2160.61
377.41	2172.89
377.62	2183.13
377.84	2242.53
378.05	2441.18
378.27	2174.94
378.48	2424.80
378.69	2312.16
378.91	2217.95
379.12	2213.85
379.34	2205.66
379.55	2254.81
379.76	2314.20
379.98	2252.77
380.19	2258.91
380.41	2269.15
380.62	2482.14
380.83	2185.18
381.05	2217.95
381.26	2361.31
381.47	2217.95
381.69	2326.49
381.90	2410.46
382.12	2312.16
382.33	2330.59
382.54	2295.77
382.76	2263.01
382.97	2349.02
383.19	2203.61
383.40	2414.56
383.61	2303.96
383.83	2277.34
384.04	2392.03
384.25	2471.90
384.47	2334.68
384.68	2408.41
384.89	2392.03
385.11	2365.40
385.32	2293.72
385.54	2346.97
385.75	2445.27
385.96	2453.47
386.18	2455.51
386.39	2392.03
386.60	2443.23
386.82	2428.89
387.03	2430.94
387.24	2457.56
387.46	2381.79
387.67	2523.10
387.88	2572.25
388.10	2600.92
388.31	2453.47
388.52	2512.86
388.74	2578.39
388.95	2502.62
389.16	2547.67
389.38	2457.56
389.59	2578.39
389.80	2656.22
390.02	2625.50
390.23	2549.72
390.44	2623.45
390.66	2598.87
390.87	2615.26
391.08	2580.44
391.30	2777.05
391.51	2648.02
391.72	2711.51
391.94	2621.40
392.15	2600.92
392.36	2641.88
392.58	2672.60
392.79	2736.09
393.00	2672.60
393.22	2734.04
393.43	2848.72
393.64	2904.02
393.85	2836.44
394.07	2707.41
394.28	2738.13
394.49	2840.53
394.71	2826.20
394.92	2877.40
395.13	2830.29
395.35	2789.33
395.56	2744.28
395.77	2803.67
395.98	2891.73
396.20	2906.07
396.41	2953.17
396.62	2885.59
396.84	2822.10
397.05	2871.25
397.26	2920.40
397.47	2965.46
397.69	2842.58
397.90	3078.10
398.11	2942.93
398.32	2863.06
398.54	2889.68
398.75	2871.25
398.96	3047.38
399.18	3047.38
399.39	3012.56
399.60	3133.39
399.81	2924.50
400.03	2953.17
400.24	3258.32
400.45	3061.71
400.66	3172.30
400.88	3020.75
401.09	3272.65
401.30	3145.68
401.51	3145.68
401.73	3225.55
401.94	3162.06
402.15	3178.45
402.36	3155.92
402.58	3223.50
402.79	3254.22
403.00	3194.83
403.21	3286.99
403.43	3207.12
403.64	3330.00
403.85	3172.30
404.06	3278.80
404.27	3190.74
404.49	3166.16
404.70	3121.10
404.91	3246.03
405.12	3231.69
405.34	3303.37
405.55	3438.54
405.76	3174.35
405.97	3299.28
406.19	3469.26
406.40	3272.65
406.61	3317.71
406.82	3252.17
407.03	3381.20
407.25	3256.27
407.46	3459.02
407.67	3305.42
407.88	3532.75
408.09	3309.52
408.31	3377.10
408.52	3450.83
408.73	3420.11
408.94	3373.00
409.15	3370.96
409.37	3540.94
409.58	3504.07
409.79	3510.22
410.00	3522.51
410.21	3452.88
410.43	3440.59
410.64	3493.83
410.85	3557.32
411.06	3483.59
411.27	3504.07
411.48	3684.30
411.70	3504.07
411.91	3579.85
412.12	3706.82
412.33	3532.75
412.54	3557.32
412.76	3704.78
412.97	3641.29
413.18	3682.25
413.39	3608.52
413.60	3663.82
413.81	3721.16
414.03	3518.41
414.24	3641.29
414.45	3768.26
414.66	3514.31
414.87	3712.97
415.08	3702.73
415.30	3745.73
415.51	3723.21
415.72	3852.23
415.93	3919.81
416.14	3772.36
416.35	3768.26
416.56	3815.37
416.78	3815.37
416.99	3686.34
417.20	3780.55
417.41	3915.72
417.62	3844.04
417.83	3921.86
418.04	3852.23
418.26	3925.96
418.47	3844.04
418.68	3932.10
418.89	4024.26
419.10	4052.93
419.31	3964.87
419.52	3995.59
419.73	4018.11
419.95	4063.17
420.16	4059.07
420.37	4030.40
420.58	4161.47
420.79	3882.95
421.00	3977.16
421.21	4214.72
421.42	4034.50
421.63	4304.83
421.85	4188.10
422.06	4313.02
422.27	4169.66
422.48	4313.02
422.69	4245.44
422.90	4165.57
423.11	4188.10
423.32	4263.87
423.53	4417.47
423.75	4286.40
423.96	4491.20
424.17	4411.32
424.38	4566.97
424.59	4399.04
424.80	4579.26
425.01	4526.01
425.22	4392.89
425.43	4427.71
425.64	4677.56
425.85	4663.22
426.06	4634.55
426.28	4571.07
426.49	4546.49
426.70	4655.03
426.91	4724.66
427.12	4804.53
427.33	4837.30
427.54	4782.01
427.75	4839.35
427.96	4839.35
428.17	4845.49
428.38	4999.09
428.59	4870.07
428.80	4804.53
429.01	4894.65
429.23	4931.51
429.44	5126.07
429.65	5083.06
429.86	4949.94
430.07	5089.20
430.28	4902.84
430.49	5148.59
430.70	5285.81
430.91	5275.57
431.12	5081.01
431.33	5255.09
431.54	5298.10
431.75	5201.84
431.96	5263.28
432.17	5255.09
432.38	5392.30
432.59	5429.17
432.80	5474.22
433.01	5470.12
433.22	5361.58
433.43	5412.78
433.64	5304.24
433.85	5443.50
434.06	5554.09
434.27	5377.97
434.49	5615.53
434.70	5599.15
434.91	5447.60
435.12	5646.25
435.33	5441.45
435.54	5707.69
435.75	5533.61
435.96	5691.31
436.17	5633.96
436.38	5820.33
436.59	5699.50
436.80	5676.97
437.01	5971.88
437.22	5885.86
437.43	5844.90
437.64	5703.59
437.85	5857.19
438.06	5947.30
438.27	5777.32
438.48	5838.76
438.69	6004.64
438.90	5937.06
439.11	5758.89
439.32	6035.36
439.53	5842.85
439.74	5996.45
439.95	6104.99
440.16	6064.04
440.37	6092.71
440.57	5906.34
440.78	6238.11
440.99	6053.80
441.20	6125.47
441.41	5988.26
441.62	6242.21
441.83	6066.08
442.04	6158.24
442.25	6231.97
442.46	6344.61
442.67	6254.50
442.88	6686.62
443.09	6043.56
443.30	6424.48
443.51	6195.11
443.72	6541.21
443.93	6238.11
444.14	6600.60
444.35	6045.60
444.56	6375.33
444.77	6498.20
444.98	6496.16
445.19	6582.17
445.40	6457.25
445.61	6348.70
445.81	6629.27
446.02	6492.06
446.23	6565.79
446.44	6453.15
446.65	6686.62
446.86	6539.16
447.07	6862.74
447.28	6844.31
447.49	6856.60
447.70	6721.43
447.91	6844.31
448.12	6901.65
448.33	6838.17
448.54	6918.04
448.74	6793.11
448.95	6932.37
449.16	6772.63
449.37	7223.19
449.58	6932.37
449.79	7106.45
450.00	6913.94
450.21	6868.89
450.42	7165.84
450.63	7030.68
450.84	7137.17
451.05	7217.04
451.25	7139.22
451.46	6956.95
451.67	7171.99
451.88	7174.03
452.09	7145.36
452.30	6926.23
452.51	7169.94
452.72	7178.13
452.93	7628.68
453.13	7223.19
453.34	7237.52
453.55	7274.38
453.76	7321.49
453.97	7632.78
454.18	7559.05
454.39	7557.00
454.60	7405.46
454.81	7497.61
455.01	7702.41
455.22	7368.59
455.43	7563.15
455.64	7774.09
455.85	7726.99
456.06	7901.06
456.27	7815.05
456.48	7700.36
456.68	7864.20
456.89	7980.93
457.10	7972.74
457.31	7890.82
457.52	7948.17
457.73	8097.67
457.94	8183.68
458.14	8013.70
458.35	8386.43
458.56	8144.77
458.77	8064.90
458.98	8392.58
459.19	8195.97
459.39	8310.66
459.60	8488.83
459.81	8413.06
460.02	8597.37
460.23	8265.60
460.44	8638.33
460.65	8574.85
460.85	8585.08
461.06	8787.83
461.27	8382.34
461.48	8890.23
461.69	8875.90
461.89	8591.23
462.10	8968.06
462.31	8652.67
462.52	8759.16
462.73	8867.70
462.94	9031.54
463.14	9127.80
463.35	9125.75
463.56	9514.86
463.77	9340.79
463.98	9222.00
464.18	9250.67
464.39	9529.20
464.60	9662.32
464.81	9428.85
465.02	9518.96
465.23	9621.36
465.43	9588.59
465.64	9662.32
465.85	9643.88
466.06	9525.10
466.27	10006.38
466.47	10018.66
466.68	9989.99
466.89	9875.31
467.10	10045.29
467.30	9877.35
467.51	10153.83
467.72	10278.76
467.93	10069.86
468.14	10266.47
468.34	10372.96
468.55	10495.84
468.76	10467.17
468.97	10473.31
469.17	10524.51
469.38	10727.26
469.59	10911.58
469.80	10676.06
470.01	10422.11
470.21	10970.97
470.42	11095.89
470.63	11265.88
470.84	10964.82
471.04	11159.38
471.25	11378.51
471.46	11013.98
471.67	11601.74
471.87	11333.46
472.08	11568.98
472.29	11908.94
472.50	11505.49
472.70	11552.59
472.91	11675.47
473.12	11857.74
473.33	12099.40
473.53	12179.27
473.74	12048.20
473.95	12373.83
474.16	12228.42
474.36	12468.03
474.57	12736.32
474.78	12504.90
474.99	12529.47
475.19	12607.30
475.40	12689.21
475.61	12947.26
475.81	13074.23
476.02	13018.94
476.23	13045.56
476.44	13225.78
476.64	13770.54
476.85	13625.14
477.06	13553.46
477.27	13858.60
477.47	13807.41
477.68	13741.87
477.89	13983.53
478.09	13967.15
478.30	14090.02
478.51	14208.81
478.71	14335.78
478.92	14475.04
479.13	14571.30
479.34	14606.11
479.54	14688.03
479.75	14743.33
479.96	14556.96
480.16	15046.43
480.37	15023.90
480.58	15306.52
480.78	15382.29
480.99	15494.93
481.20	15611.67
481.41	15474.45
481.61	15681.30
481.82	15871.76
482.03	15769.36
482.23	15775.50
482.44	16187.14
482.65	16195.34
482.85	16465.67
483.06	16492.29
483.27	16498.44
483.47	16588.55
483.68	16815.87
483.89	16869.12
484.09	16715.52
484.30	16992.00
484.51	17008.38
484.71	17264.38
484.92	17262.33
485.13	17460.98
485.33	17329.91
485.54	17454.84
485.75	17782.51
485.95	17645.30
486.16	17952.49
486.37	18009.84
486.57	17819.38
486.78	18050.80
486.98	18210.54
487.19	18437.86
487.40	18411.24
487.60	18458.34
487.81	19005.15
488.02	18788.07
488.22	18820.83
488.43	18923.23
488.64	18970.33
488.84	19136.22
489.05	19236.57
489.25	19060.45
489.46	19726.04
489.67	19381.98
489.87	19863.25
490.08	19707.60
490.29	19728.08
490.49	20342.47
490.70	20055.76
490.90	20274.89
491.11	20369.10
491.32	20350.67
491.52	20270.79
491.73	20459.21
491.94	20854.47
492.14	20623.05
492.35	20879.04
492.55	20862.66
492.76	21098.17
492.97	21348.03
493.17	21210.81
493.38	21081.79
493.58	21413.56
493.79	21282.49
494.00	21333.69
494.20	21638.84
494.41	21731.00
494.61	21853.87
494.82	21843.63
495.02	21649.08
495.23	21956.27
495.44	22116.01
495.64	21966.51
495.85	22099.63
496.05	22257.32
496.26	22273.71
496.47	22523.56
496.67	22318.76
496.88	22843.04
497.08	22656.68
497.29	22812.32
497.49	22902.43
497.70	22941.35
497.91	23039.65
498.11	23258.78
498.32	23289.50
498.52	23389.85
498.73	23506.59
498.93	23383.71
499.14	23479.96
499.34	23643.80
499.55	23719.57
499.76	23604.89
499.96	23817.88
500.17	23791.25
500.37	23946.90
500.58	24102.54
500.78	23971.47
500.99	23963.28
501.19	24518.28
501.40	24245.90
501.60	24075.92
501.81	24598.15
502.02	24428.17
502.22	24233.61
502.43	24530.57
502.63	24766.09
502.84	24972.93
503.04	25206.40
503.25	24686.22
503.45	24796.81
503.66	24641.16
503.86	24870.53
504.07	25398.91
504.27	24925.83
504.48	25667.19
504.68	25392.76
504.89	25441.92
505.09	25413.24
505.30	25695.86
505.50	25609.85
505.71	25708.15
505.91	26091.12
506.12	25597.56
506.32	25706.10
506.53	25570.94
506.73	25982.58
506.94	26013.30
507.14	26044.02
507.35	26144.37
507.55	25992.82
507.76	26203.76
507.96	26150.51
508.17	26070.64
508.37	26312.30
508.58	26639.98
508.78	26242.67
508.99	26769.00
509.19	26666.60
509.40	26785.38
509.60	26572.39
509.81	26703.46
510.01	26582.63
510.22	26750.57
510.42	27065.96
510.63	26883.69
510.83	26906.21
511.04	26750.57
511.24	27160.16
511.44	26969.70
511.65	27014.76
511.85	27065.96
512.06	27078.24
512.26	26877.54
512.47	27242.08
512.67	27133.54
512.88	27461.21
513.08	27313.76
513.29	27678.30
513.49	27362.91
513.69	27481.69
513.90	27467.36
514.10	27616.86
514.31	27672.15
514.51	27711.07
514.72	27463.26
514.92	27801.18
515.13	27801.18
515.33	27594.33
515.53	27756.12
515.74	27983.44
515.94	27938.39
516.15	28284.50
516.35	27901.53
516.56	28419.66
516.76	28067.41
516.96	28239.44
517.17	28212.82
517.37	28374.61
517.58	28294.74
517.78	28640.84
517.99	28388.94
518.19	28591.69
518.39	28581.45
518.60	28896.84
518.80	28685.90
519.01	28726.86
519.21	28595.79
519.41	28853.83
519.62	28821.06
519.82	28862.02
520.03	28980.81
520.23	29021.77
520.43	28966.47
520.64	29083.20
520.84	29185.60
521.05	29142.60
521.25	29398.59
521.45	29556.28
521.66	29738.55
521.86	29142.60
522.07	29464.13
522.27	29513.28
522.47	29611.58
522.68	30002.74
522.88	29681.21
523.08	30101.04
523.29	29664.83
523.49	30015.03
523.70	29974.07
523.90	30187.06
524.10	29974.07
524.31	30125.62
524.51	29980.21
524.71	30426.67
524.92	30379.57
525.12	30520.88
525.33	30729.77
525.53	30658.09
525.73	30795.31
525.94	30940.71
526.14	30983.72
526.34	30645.80
526.55	30946.86
526.75	30873.13
526.95	31333.92
527.16	31051.30
527.36	31421.98
527.56	31321.63
527.77	31690.27
527.97	31587.87
528.17	31608.35
528.38	31950.36
528.58	31694.36
528.78	32024.09
528.99	31725.08
529.19	32140.82
529.39	31958.55
529.60	32218.64
529.80	31931.93
530.00	32400.91
530.21	32589.33
530.41	32708.11
530.61	32239.12
530.82	32585.23
531.02	32658.96
531.22	33265.16
531.43	32886.28
531.63	33082.89
531.83	33326.60
532.04	33594.88
532.24	33228.29
532.44	33465.86
532.64	33510.91
532.85	33627.65
533.05	33639.93
533.25	33592.83
533.46	33910.27
533.66	34049.53
533.86	34008.57
534.07	34551.28
534.27	34256.37
534.47	34553.33
534.67	34383.35
534.88	34397.68
535.08	34207.22
535.28	34483.70
535.49	34782.70
535.69	35145.19
535.89	35034.60
536.09	35173.86
536.30	35284.45
536.50	35159.53
536.70	35661.28
536.91	35425.76
537.11	35378.66
537.31	35599.84
537.51	35536.35
537.72	35812.83
537.92	36130.26
538.12	36527.57
538.32	35898.84
538.53	36347.35
538.73	36052.44
538.93	36197.85
539.13	36210.14
539.34	36369.88
539.54	36144.60
539.74	36957.64
539.94	36697.55
540.15	36812.24
540.35	37010.89
540.55	36769.23
540.75	37086.67
540.96	37043.66
541.16	36873.68
541.36	37111.24
541.56	37496.26
541.77	37701.06
541.97	37639.62
542.17	37598.66
542.37	37709.25
542.58	37674.43
542.78	37477.83
542.98	37733.82
543.18	38114.75
543.38	38176.19
543.59	38454.71
543.79	38383.03
543.99	38200.76
544.19	38614.45
544.40	38645.17
544.60	38819.25
544.80	38587.83
545.00	38712.75
545.20	39359.91
545.41	39083.44
545.61	38622.64
545.81	39148.97
546.01	39073.20
546.21	39398.82
546.42	39187.88
546.62	39425.45
546.82	38970.80
547.02	39454.12
547.22	39921.05
547.43	39630.24
547.63	39613.86
547.83	39706.02
548.03	39695.78
548.23	40117.66
548.44	39882.14
548.64	39781.79
548.84	39796.13
549.04	40011.17
549.24	40494.49
549.45	41182.60
549.65	40353.18
549.85	40244.63
550.05	40435.10
550.25	40439.19
550.45	41143.69
550.66	40893.84
550.86	40742.29
551.06	40689.04
551.26	40891.79
551.46	41194.89
551.66	40873.36
551.87	41067.92
552.07	41301.39
552.27	41303.43
552.47	41420.17
552.67	41852.29
552.87	41360.78
553.07	41538.95
553.28	42083.71
553.48	42136.96
553.68	41770.37
553.88	42268.03
554.08	41731.46
554.28	41805.19
554.48	41852.29
554.69	42337.66
554.89	42245.50
555.09	42317.18
555.29	42091.90
555.49	42583.41
555.69	42186.11
555.89	42444.15
556.10	42419.58
556.30	42653.05
556.50	42702.20
556.70	42831.22
556.90	42771.83
557.10	42481.02
557.30	42798.45
557.50	43050.35
557.70	43441.51
557.91	43392.36
558.11	43107.69
558.31	43365.74
558.51	43081.07
558.71	43244.91
558.91	43926.88
559.11	43214.19
559.31	43046.26
559.51	43279.72
559.72	43691.37
559.92	43863.39
560.12	43824.48
560.32	43763.04
560.52	43627.88
560.72	44135.77
560.92	43521.38
561.12	43529.58
561.32	44320.09
561.52	43996.51
561.72	44299.61
561.93	44080.48
562.13	44520.79
562.33	43722.08
562.53	44668.25
562.73	44137.82
562.93	44629.34
563.13	44174.69
563.33	44254.56
563.53	44957.01
563.73	44438.87
563.93	44569.94
564.13	44954.96
564.33	44647.77
564.53	44983.63
564.74	45270.35
564.94	44930.39
565.14	45045.07
565.34	44639.57
565.54	45473.10
565.74	45395.28
565.94	45368.65
566.14	45352.27
566.34	45053.26
566.54	45438.28
566.74	44918.10
566.94	45536.59
567.14	45360.46
567.34	45213.01
567.54	45681.99
567.74	45583.69
567.94	45360.46
568.14	45608.26
568.34	45573.45
568.54	45561.16
568.74	45641.03
568.94	45561.16
569.14	46050.63
569.34	46226.75
569.54	46681.40
569.75	45438.28
569.95	46077.25
570.15	46333.24
570.35	45987.14
570.55	46243.13
570.75	46187.84
570.95	46351.68
571.15	46114.11
571.35	46425.40
571.55	46296.38
571.75	46454.08
571.95	46718.26
572.15	46546.23
572.35	46794.04
572.55	46742.84
572.75	46511.42
572.95	46587.19
573.15	47082.80
573.35	47082.80
573.55	46910.77
573.75	46796.09
573.95	46980.40
574.15	46626.10
574.35	47103.28
574.55	47125.81
574.75	46996.79
574.95	47121.71
575.15	46994.74
575.34	47504.68
575.54	47975.72
575.74	47510.83
575.94	47691.05
576.14	47732.01
576.34	47680.81
576.54	48037.16
576.74	47830.31
576.94	47496.49
577.14	48028.96
577.34	48579.87
577.54	47645.99
577.74	47990.05
577.94	47910.18
578.14	48055.59
578.34	48305.44
578.54	47662.38
578.74	48139.55
578.94	48162.08
579.14	47766.82
579.34	47889.70
579.54	48721.18
579.74	48264.48
579.94	48561.44
580.13	48710.94
580.33	48401.69
580.53	48157.99
580.73	48702.74
580.93	48772.38
581.13	48866.58
581.33	49122.58
581.53	48755.99
581.73	48710.94
581.93	49149.20
582.13	49147.15
582.33	49108.24
582.53	48917.78
582.73	49040.66
582.92	49308.94
583.12	49382.67
583.32	49374.48
583.52	49222.93
583.72	49566.99
583.92	48954.64
584.12	49218.83
584.32	49976.58
584.52	49362.19
584.72	49548.56
584.92	49536.27
585.11	49933.57
585.31	49632.52
585.51	50013.44
585.71	49988.87
585.91	50140.42
586.11	49726.73
586.31	50027.78
586.51	49693.96
586.71	50058.50
586.91	49966.34
587.10	50468.09
587.30	50101.51
587.50	50078.98
587.70	50119.94
587.90	50435.33
588.10	50156.80
588.30	50420.99
588.50	50607.36
588.69	50451.71
588.89	50418.94
589.09	50294.02
589.29	50408.70
589.49	50697.47
589.69	50543.87
589.89	50877.69
590.08	50492.67
590.28	50572.54
590.48	50703.61
590.68	50488.57
590.88	50263.30
591.08	50308.35
591.28	50517.25
591.47	50844.92
591.67	50754.81
591.87	50429.18
592.07	50726.14
592.27	50926.84
592.47	50660.60
592.67	50590.97
592.86	50715.90
593.06	50969.85
593.26	50732.28
593.46	51172.60
593.66	51246.32
593.86	51248.37
594.05	51401.97
594.25	51582.19
594.45	51127.54
594.65	51092.72
594.85	50801.91
595.05	51420.40
595.24	51479.79
595.44	50777.34
595.64	51672.30
595.84	51068.15
596.04	51356.91
596.23	51363.06
596.43	51598.57
596.63	51447.02
596.83	51352.82
597.03	51827.95
597.22	51985.64
597.42	51662.06
597.62	52114.66
597.82	51832.04
598.02	51819.75
598.21	51934.44
598.41	51678.44
598.61	52061.41
598.81	52036.84
599.01	51709.16
599.20	52030.69
599.40	51696.88
599.60	51965.16
599.80	51805.42
600.00	52428.00
600.19	52030.69
600.39	51498.22
600.59	52374.75
600.79	52438.24
600.98	52100.32
601.18	52962.52
601.38	52174.05
601.58	52634.84
601.78	52729.05
601.97	52419.81
602.17	52851.93
602.37	52409.57
602.57	52282.59
602.76	52659.42
602.96	52344.03
603.16	52790.49
603.36	52382.94
603.55	53032.15
603.75	53310.67
603.95	52753.63
604.15	52802.78
604.34	52589.79
604.54	52724.96
604.74	52860.12
604.94	52950.23
605.13	53212.37
605.33	53220.56
605.53	52856.03
605.73	53458.13
605.92	53144.79
606.12	53390.55
606.32	52890.84
606.52	53083.35
606.71	53155.03
606.91	53382.35
607.11	53105.88
607.30	53675.21
607.50	53236.95
607.70	53411.02
607.90	53486.80
608.09	52968.66
608.29	53443.79
608.49	53175.51
608.68	53673.16
608.88	53552.33
609.08	53519.57
609.28	53482.70
609.47	53595.34
609.67	53763.28
609.87	53736.65
610.06	53728.46
610.26	54093.00
610.46	53734.60
610.66	53480.66
610.85	53794.00
611.05	53834.95
611.25	53832.91
611.44	53155.03
611.64	54146.25
611.84	53269.72
612.03	53845.19
612.23	53675.21
612.43	53918.92
612.62	53241.04
612.82	53847.24
613.02	53437.65
613.21	53916.87
613.41	53810.38
613.61	53925.07
613.80	53433.55
614.00	54074.57
614.20	53640.40
614.39	53462.22
614.59	53877.96
614.79	53650.64
614.98	53961.93
615.18	53638.35
615.38	53834.95
615.57	53273.81
615.77	53873.87
615.97	53918.92
616.16	54152.39
616.36	53511.38
616.56	53314.77
616.75	54002.89
616.95	53615.82
617.15	53970.12
617.34	53789.90
617.54	53724.36
617.74	54006.98
617.93	54152.39
618.13	53322.96
618.32	54047.94
618.52	53664.97
618.72	53646.54
618.91	53990.60
619.11	53353.68
619.31	53863.63
619.50	53652.69
619.70	53724.36
619.90	53597.39
620.09	53683.40
620.29	53773.52
620.48	53753.04
620.68	54154.44
620.88	53181.65
621.07	53583.05
621.27	53601.49
621.46	53140.69
621.66	53574.86
621.86	53593.29
622.05	53480.66
622.25	54148.29
622.44	53388.50
622.64	53603.53
622.84	53785.80
623.03	53388.50
623.23	54103.24
623.42	53445.84
623.62	53486.80
623.82	53812.43
624.01	53808.33
624.21	53656.78
624.40	53204.18
624.60	54193.35
624.80	53882.06
624.99	53462.22
625.19	53212.37
625.38	53189.84
625.58	53564.62
625.77	53736.65
625.97	53943.50
626.17	53458.13
626.36	53363.92
626.56	54156.49
626.75	53499.09
626.95	54385.86
627.14	53370.07
627.34	54095.05
627.54	54027.46
627.73	53996.74
627.93	53773.52
628.12	53468.37
628.32	53798.09
628.51	53851.34
628.71	53763.28
628.90	53505.23
629.10	53650.64
629.30	53746.89
629.49	53564.62
629.69	53601.49
629.88	53712.08
630.08	54219.97
630.27	53658.83
630.47	53918.92
630.66	53785.80
630.86	53910.73
631.05	53681.36
631.25	54090.95
631.44	53988.55
631.64	53695.69
631.84	53746.89
632.03	54215.88
632.23	53861.58
632.42	54539.46
632.62	53959.88
632.81	53687.50
633.01	53834.95
633.20	54502.59
633.40	53968.07
633.59	54082.76
633.79	54052.04
633.98	54287.56
634.18	53814.47
634.37	53933.26
634.57	54211.78
634.76	54181.06
634.96	54301.89
635.15	54461.63
635.35	54015.18
635.54	53826.76
635.74	54303.94
635.93	54009.03
636.13	54332.61
636.32	54592.70
636.52	53943.50
636.71	54283.46
636.91	54754.49
637.10	54238.40
637.30	54639.81
637.49	53814.47
637.69	54416.58
637.88	54693.05
638.08	54293.70
638.27	54695.10
638.46	54252.74
638.66	54371.52
638.85	54129.86
639.05	54795.45
639.24	54535.36
639.44	54262.98
639.63	54793.40
639.83	54371.52
640.02	54342.85
640.22	54412.48
640.41	54807.74
640.61	54068.42
640.80	54887.61
640.99	54684.86
641.19	55076.02
641.38	54691.01
641.58	55014.58
641.77	54854.84
641.97	55321.78
642.16	55035.06
642.36	54838.46
642.55	55483.57
642.74	54588.61
642.94	55350.45
643.13	55129.27
643.33	55311.54
643.52	55502.00
643.72	55448.75
643.91	55145.65
644.10	55174.33
644.30	55413.94
644.49	55225.53
644.69	55502.00
644.88	55256.24
645.08	55024.82
645.27	55485.62
645.46	55391.41
645.66	55372.98
645.85	55395.51
646.05	55874.73
646.24	55706.80
646.43	55751.85
646.63	55981.23
646.82	55844.01
647.02	55962.79
647.21	56267.94
647.40	55833.77
647.60	56044.71
647.79	56218.79
647.99	56235.17
648.18	55882.92
648.37	56196.26
648.57	56016.04
648.76	55923.88
648.96	55899.31
649.15	55979.18
649.34	56380.58
649.54	55960.75
649.73	56169.64
649.92	56114.34
650.12	56399.01
650.31	56642.72
650.51	56720.54
650.70	56591.52
650.89	56587.42
651.09	56868.00
651.28	56265.89
651.47	56646.82
651.67	56595.62
651.86	56718.49
652.06	56253.61
652.25	56923.29
652.44	56620.19
652.64	56335.52
652.83	56532.13
653.02	56345.76
653.22	56837.28
653.41	56612.00
653.60	56384.68
653.80	56536.23
653.99	57250.97
654.18	56865.95
654.38	56824.99
654.57	56761.50
654.76	57228.44
654.96	56450.21
655.15	56276.13
655.34	56579.23
655.54	56728.73
655.73	56976.54
655.92	57160.86
656.12	56884.38
656.31	57312.41
656.50	57195.67
656.70	57324.69
656.89	56890.52
657.08	57248.92
657.28	57308.31
657.47	57402.52
657.66	57332.89
657.86	57369.75
658.05	57394.32
658.24	57681.04
658.43	57289.88
658.63	57326.74
658.82	57468.05
659.01	57287.83
659.21	57423.00
659.40	57601.17
659.59	57369.75
659.79	57939.08
659.98	57744.53
660.17	57511.06
660.36	57701.52
660.56	57894.03
660.75	57502.87
660.94	57818.25
661.14	57777.29
661.33	57443.48
661.52	57365.65
661.71	58066.06
661.91	57951.37
662.10	57545.87
662.29	57705.62
662.49	57656.46
662.68	58139.78
662.87	57793.68
663.06	57889.93
663.26	57713.81
663.45	58612.87
663.64	58066.06
663.83	58315.91
664.03	58076.30
664.22	57734.29
664.41	57916.56
664.60	57973.90
664.80	57703.57
664.99	57963.66
665.18	58133.64
665.37	57732.24
665.57	58027.15
665.76	57832.59
665.95	57783.44
666.14	57840.78
666.34	58309.77
666.53	58369.16
666.72	57601.17
666.91	58350.73
667.11	57873.55
667.30	57808.01
667.49	58051.72
667.68	57758.86
667.87	58236.04
668.07	58094.73
668.26	58141.83
668.45	58338.44
668.64	58100.87
668.84	58887.29
669.03	58299.53
669.22	58498.18
669.41	58184.84
669.60	58483.84
669.80	58094.73
669.99	58621.06
670.18	58424.45
670.37	58375.30
670.57	58598.53
670.76	58129.54
670.95	58623.11
671.14	58408.07
671.33	58123.40
671.53	58981.50
671.72	58608.77
671.91	58389.64
672.10	58266.76
672.29	58127.50
672.48	58481.80
672.68	58930.30
672.87	58707.07
673.06	58178.70
673.25	58072.20
673.44	58291.33
673.64	58203.27
673.83	57998.48
674.02	57980.04
674.21	57748.62
674.40	58233.99
674.59	57943.18
674.79	57812.11
674.98	58422.40
675.17	58365.06
675.36	58162.31
675.55	58293.38
675.74	57533.59
675.94	58068.11
676.13	58444.93
676.32	58764.42
676.51	58692.74
676.70	58891.39
676.89	58594.43
677.08	58578.05
677.28	57971.85
677.47	58377.35
677.66	58424.45
677.85	58254.47
678.04	58768.51
678.23	58463.36
678.42	58023.05
678.62	58352.77
678.81	58752.13
679.00	58422.40
679.19	58729.60
679.38	58281.09
679.57	58217.61
679.76	58299.53
679.96	58762.37
680.15	58414.21
680.34	58432.64
680.53	58131.59
680.72	58205.32
680.91	58508.42
681.10	58322.05
681.29	58584.19
681.48	58193.03
681.68	58190.98
681.87	58252.42
682.06	58129.54
682.25	58111.11
682.44	58068.11
682.63	58211.46
682.82	57756.81
683.01	58102.92
683.20	58277.00
683.39	58131.59
683.59	57824.40
683.78	57496.72
683.97	57805.97
684.16	58143.88
684.35	57480.34
684.54	57783.44
684.73	57693.33
684.92	57549.97
685.11	57674.90
685.30	58143.88
685.49	58260.62
685.69	57762.96
685.88	57840.78
686.07	57742.48
686.26	57760.91
686.45	57644.18
686.64	57881.74
686.83	57949.32
687.02	57914.51
687.21	57990.28
687.40	57302.17
687.59	57760.91
687.78	57730.19
687.97	57857.17
688.16	57332.89
688.35	57404.56
688.54	57359.51
688.74	57353.36
688.93	57232.53
689.12	57906.32
689.31	57640.08
689.50	57310.36
689.69	57156.76
689.88	56964.25
690.07	57558.16
690.26	57400.47
690.45	57627.79
690.64	57228.44
690.83	56849.56
691.02	57132.18
691.21	57148.57
691.40	57074.84
691.59	57674.90
691.78	57445.52
691.97	57672.85
692.16	56908.96
692.35	57052.31
692.54	56882.33
692.73	56992.92
692.92	56800.41
693.11	57191.58
693.30	56612.00
693.49	57068.70
693.68	56743.07
693.87	56804.51
694.06	56761.50
694.25	56800.41
694.44	56231.08
694.63	56892.57
694.82	56675.49
695.01	56591.52
695.20	56431.78
695.39	56265.89
695.58	56824.99
695.77	56231.08
695.96	56013.99
696.15	56913.05
696.34	56685.73
696.53	56505.51
696.72	56538.27
696.91	56614.05
697.10	56317.09
697.29	56370.34
697.48	56589.47
697.67	56042.66
697.86	55970.99
698.05	56079.53
698.24	56392.87
698.43	55719.09
698.62	55878.83
698.81	55735.47
699.00	55833.77
699.19	56091.82
699.38	56042.66
699.57	55547.06
699.76	56446.11
699.95	55794.86
700.14	55581.87
700.32	55762.09
700.51	55420.08
700.70	56165.54
700.89	55784.62
701.08	55657.65
701.27	55551.15
701.46	55983.27
701.65	54926.52
701.84	55760.05
702.03	55444.66
702.22	55362.74
702.41	55039.16
702.60	55065.78
702.79	55157.94
702.98	54992.06
703.17	55270.58
703.35	54908.09
703.54	54959.29
703.73	55084.22
703.92	54930.62
704.11	54846.65
704.30	54312.13
704.49	54860.99
704.68	54467.78
704.87	54795.45
705.06	54555.84
705.25	54445.25
705.43	54514.88
705.62	54383.81
705.81	54441.15
706.00	54559.94
706.19	54232.26
706.38	54172.87
706.57	54260.93
706.76	54260.93
706.95	54494.40
707.14	53943.50
707.32	53910.73
707.51	53544.14
707.70	54203.59
707.89	54271.17
708.08	53849.29
708.27	54330.56
708.46	54688.96
708.65	53705.93
708.84	54054.09
709.02	54002.89
709.21	54146.25
709.40	53564.62
709.59	53595.34
709.78	53335.25
709.97	53499.09
710.16	53677.26
710.34	53736.65
710.53	53628.11
710.72	53503.18
710.91	53261.52
711.10	53687.50
711.29	54033.61
711.48	53562.57
711.66	53505.23
711.85	52862.17
712.04	53474.51
712.23	53470.42
712.42	53140.69
712.61	53167.32
712.80	52901.08
712.98	52679.90
713.17	52919.51
713.36	52593.89
713.55	53241.04
713.74	52962.52
713.93	52741.34
714.11	52591.84
714.30	52634.84
714.49	52767.96
714.68	52804.83
714.87	52597.98
715.06	52524.25
715.24	52692.19
715.43	52233.44
715.62	51694.83
715.81	52180.20
716.00	52608.22
716.18	51944.68
716.37	52026.60
716.56	51836.14
716.75	52376.80
716.94	51748.07
717.12	51782.89
717.31	52006.12
717.50	51887.34
717.69	51799.27
717.88	51938.54
718.06	51840.23
718.25	51557.61
718.44	51389.68
718.63	51016.95
718.82	50986.23
719.00	51916.01
719.19	51176.69
719.38	51313.90
719.57	50859.26
719.76	50564.35
719.94	50750.71
720.13	50855.16
720.32	50738.43
720.51	50402.56
720.69	50662.65
720.88	50439.42
721.07	50767.10
721.26	49865.99
721.44	50253.06
721.63	50355.46
721.82	50031.88
722.01	49974.53
722.20	50568.44
722.38	49773.83
722.57	49566.99
722.76	49872.14
722.95	49560.84
723.13	49530.12
723.32	49575.18
723.51	49186.07
723.70	49476.88
723.88	49450.25
724.07	49190.16
724.26	49675.53
724.44	49331.47
724.63	49507.60
724.82	49446.16
725.01	49169.68
725.19	49192.21
725.38	48901.40
725.57	49325.33
725.76	49022.23
725.94	48631.07
726.13	48850.20
726.32	49241.36
726.51	48825.62
726.69	49184.02
726.88	48981.27
727.07	48676.12
727.25	48889.11
727.44	49065.24
727.63	48567.58
727.82	48319.77
728.00	48360.73
728.19	48387.36
728.38	49042.71
728.56	47885.61
728.75	48575.77
728.94	48203.04
729.12	48411.93
729.31	48485.66
729.50	48526.62
729.69	48311.58
729.87	48456.99
730.06	48323.87
730.25	48092.45
730.43	48575.77
730.62	47988.00
730.81	48239.90
730.99	48401.69
731.18	47951.14
731.37	48350.49
731.55	48401.69
731.74	48227.62
731.93	48157.99
732.11	48293.15
732.30	47979.81
732.49	48016.68
732.67	47793.45
732.86	47674.66
733.05	48217.38
733.23	47830.31
733.42	48307.49
733.61	47715.62
733.79	47908.13
733.98	48411.93
734.17	47637.80
734.35	48147.75
734.54	47570.22
734.73	48016.68
734.91	47807.78
735.10	47428.91
735.29	47801.64
735.47	47283.50
735.66	47867.17
735.84	47652.14
736.03	47551.79
736.22	47678.76
736.40	47371.57
736.59	47709.48
736.78	47553.83
736.96	47701.29
737.15	47447.34
737.33	47236.40
737.52	46783.80
737.71	46855.48
737.89	47107.38
738.08	47015.22
738.27	46970.16
738.45	47160.62
738.64	47293.74
738.82	47129.90
739.01	47187.25
739.20	47209.78
739.38	46736.69
739.57	47187.25
739.75	46734.65
739.94	46380.35
740.13	46818.61
740.31	46712.12
740.50	47084.85
740.68	46769.46
740.87	46734.65
741.06	46875.96
741.24	46290.24
741.43	46161.22
741.61	46654.78
741.80	46378.30
741.99	46122.30
742.17	46341.44
742.36	45897.03
742.54	46339.39
742.73	46337.34
742.91	46286.14
743.10	46198.08
743.29	46253.37
743.47	46452.03
743.66	46232.89
743.84	46167.36
744.03	46486.84
744.21	46097.73
744.40	46519.61
744.59	46163.26
744.77	45686.09
744.96	46093.63
745.14	46155.07
745.33	46028.10
745.51	45780.29
745.70	46193.98
745.88	45835.59
746.07	45645.13
746.26	45432.14
746.44	45348.17
746.63	45794.63
746.81	45448.52
747.00	44946.77
747.18	45831.49
747.37	45272.40
747.55	45813.06
747.74	46060.87
747.92	45243.73
748.11	45475.15
748.29	45331.79
748.48	44952.91
748.66	44944.72
748.85	45094.22
749.03	45516.11
749.22	44922.19
749.41	44881.24
749.59	45333.84
749.78	45276.49
749.96	44500.31
750.15	45120.85
750.33	45176.14
750.52	44973.39
750.70	44993.87
750.89	44715.35
751.07	44434.78
751.26	44897.62
751.44	44807.51
751.63	44914.00
751.81	44270.94
752.00	44567.90
752.18	44631.38
752.37	44815.70
752.55	44053.86
752.74	44412.25
752.92	44072.29
753.10	44209.50
753.29	44625.24
753.47	44293.47
753.66	43904.35
753.84	44197.21
754.03	44008.80
754.21	43785.57
754.40	44217.69
754.58	44334.43
754.77	43574.63
754.95	43380.07
755.14	43849.06
755.32	43509.10
755.51	43580.78
755.69	43390.31
755.88	43537.77
756.06	43648.36
756.24	43416.94
756.43	43267.44
756.61	43302.25
756.80	43378.03
756.98	43339.11
757.17	43588.97
757.35	43556.20
757.54	43588.97
757.72	43445.61
757.90	43427.18
758.09	42745.20
758.27	43242.86
758.46	42890.61
758.64	43320.68
758.83	43443.56
759.01	43171.18
759.19	43310.44
759.38	43265.39
759.56	43593.06
759.75	43337.07
759.93	42966.38
760.12	42831.22
760.30	42849.65
760.48	42519.93
760.67	42757.49
760.85	42878.32
761.04	43124.08
761.22	42685.81
761.40	42898.80
761.59	42696.05
761.77	42521.98
761.96	42571.13
762.14	42595.70
762.32	42360.19
762.51	42368.38
762.69	42362.23
762.88	42417.53
763.06	42560.89
763.24	42397.05
763.43	42274.17
763.61	42435.96
763.80	42456.44
763.98	42106.24
764.16	42270.08
764.35	41989.50
764.53	41452.94
764.72	42014.08
764.90	41389.45
765.08	41792.90
765.27	41723.27
765.45	41731.46
765.63	41667.97
765.82	41966.98
766.00	41479.56
766.18	41657.73
766.37	41866.63
766.55	41604.49
766.74	41481.61
766.92	41524.61
767.10	41323.91
767.29	41497.99
767.47	40865.17
767.65	41461.13
767.84	40809.87
768.02	41579.91
768.20	40947.09
768.39	41180.56
768.57	41282.95
768.75	40977.81
768.94	41051.53
769.12	41096.59
769.30	40648.08
769.49	40883.60
769.67	40693.14
769.85	40775.06
770.04	40650.13
770.22	40934.80
770.40	40603.03
770.59	40785.30
770.77	40785.30
770.95	40678.80
771.14	40639.89
771.32	40031.65
771.50	40381.85
771.69	40304.02
771.87	40447.38
772.05	40314.26
772.24	40111.52
772.42	40076.70
772.60	40048.03
772.78	39904.67
772.97	39832.99
773.15	40324.50
773.33	39822.75
773.52	39812.51
773.70	40025.50
773.88	40261.02
774.07	39843.23
774.25	39837.09
774.43	39964.06
774.61	40172.96
774.80	40437.14
774.98	40072.60
775.16	40297.88
775.34	39828.90
775.53	40009.12
775.71	40252.83
775.89	40215.96
776.08	40150.43
776.26	40306.07
776.44	40068.51
776.62	39959.97
776.81	40109.47
776.99	40453.53
777.17	40478.10
777.35	40248.73
777.54	40699.28
777.72	40113.56
777.90	40289.69
778.08	40242.59
778.27	40086.94
778.45	40312.22
778.63	40687.00
778.81	40396.18
779.00	41178.51
779.18	40541.59
779.36	40938.90
779.54	40238.49
779.73	40469.91
779.91	40883.60
780.09	40549.78
780.27	40750.48
780.46	41098.64
780.64	41078.16
780.82	40594.84
781.00	40906.13
781.19	41260.43
781.37	41110.92
781.55	41282.95
781.73	41428.36
781.91	41143.69
782.10	41026.96
782.28	41520.52
782.46	41016.72
782.64	40926.61
782.82	41262.47
783.01	41256.33
783.19	41747.84
783.37	41436.55
783.55	41657.73
783.74	41368.97
783.92	41344.39
784.10	41530.76
784.28	41293.19
784.46	41215.37
784.64	41809.28
784.83	41135.50
785.01	41258.38
785.19	41141.64
785.37	41373.06
785.55	41110.92
785.74	40709.52
785.92	41104.78
786.10	40750.48
786.28	41579.91
786.46	41037.20
786.64	40809.87
786.83	40670.61
787.01	41145.74
787.19	40816.02
787.37	41278.86
787.55	41258.38
787.74	40656.28
787.92	41043.34
788.10	41016.72
788.28	40799.63
788.46	40924.56
788.64	40801.68
788.82	41082.25
789.01	40816.02
789.19	40971.66
789.37	40363.42
789.55	40373.66
789.73	40363.42
789.91	40392.09
790.09	40512.92
790.28	40045.98
790.46	40117.66
790.64	40551.83
790.82	40037.79
791.00	40011.17
791.18	39947.68
791.36	39749.03
791.55	40080.80
791.73	39767.46
791.91	39730.59
792.09	39980.45
792.27	40025.50
792.45	39732.64
792.63	39697.83
792.81	39515.56
793.00	39495.08
793.18	39259.56
793.36	39450.02
793.54	39060.91
793.72	39062.96
793.90	39413.16
794.08	39044.52
794.26	39067.05
794.44	38888.88
794.62	38718.90
794.81	39101.87
794.99	39056.81
795.17	38528.44
795.35	38282.68
795.53	38585.78
795.71	38882.73
795.89	38344.12
796.07	38368.69
796.25	38673.84
796.43	37963.20
796.61	37764.54
796.80	37952.96
796.98	38254.01
797.16	37782.98
797.34	37801.41
797.52	37705.15
797.70	38061.50
797.88	37531.08
798.06	37057.99
798.24	37561.79
798.42	37328.33
798.60	37336.52
798.78	37125.58
798.96	37262.79
799.14	36836.81
799.32	37037.51
799.51	36824.53
799.69	37193.16
799.87	36959.69
800.05	36713.94
800.23	36773.33
800.41	36593.11
800.59	36566.48
800.77	36445.65
800.95	36199.90
801.13	36595.15
801.31	36015.58
801.49	36582.87
801.67	35956.19
801.85	36314.58
802.03	35655.14
802.21	35976.67
802.39	35577.31
802.57	35816.93
802.75	35386.85
802.93	35653.09
803.11	35149.29
803.29	35411.43
803.47	35206.63
803.65	35468.77
803.83	35448.29
804.01	35116.52
804.19	35171.82
804.37	35085.80
804.55	34559.47
804.73	35139.05
804.91	34784.75
805.09	34977.26
805.27	35034.60
805.45	34813.42
805.63	34917.87
805.81	35014.12
805.99	34698.73
806.17	34921.96
806.35	34612.72
806.53	34203.13
806.71	34151.93
806.89	34491.89
807.07	34209.27
807.25	34311.67
807.43	33940.99
807.61	34014.71
807.79	34018.81
807.97	33506.82
808.15	33484.29
808.33	33775.10
808.51	33869.31
808.69	33736.19
808.87	33680.89
809.05	33400.32
809.23	33074.70
809.41	33238.53
809.59	33134.09
809.77	33476.10
809.95	33127.94
810.13	33175.05
810.31	33236.48
810.49	33334.79
810.67	32910.86
810.84	32998.92
811.02	32912.91
811.20	32658.96
811.38	32740.88
811.56	32790.03
811.74	32898.57
811.92	32366.10
812.10	32824.84
812.28	32710.16
812.46	32351.76
812.64	32441.87
812.82	32450.06
813.00	32437.78
813.18	32032.28
813.36	31979.03
813.53	32257.56
813.71	32065.05
813.89	31655.45
814.07	32063.00
814.25	32144.92
814.43	31706.65
814.61	31651.36
814.79	31753.76
814.97	31677.98
815.15	31813.15
815.33	31323.68
815.50	31321.63
815.68	31321.63
815.86	31415.84
816.04	31479.33
816.22	31362.59
816.40	31401.50
816.58	31182.37
816.76	31477.28
816.94	31403.55
817.11	30922.28
817.29	31182.37
817.47	30918.18
817.65	30944.81
817.83	31000.10
818.01	30576.17
818.19	30776.87
818.37	30697.00
818.54	30844.46
818.72	30283.31
818.90	30608.94
819.08	30711.34
819.26	30797.35
819.44	30217.78
819.62	30340.66
819.80	30414.38
819.97	30651.95
820.15	30412.34
820.33	30133.81
820.51	30578.22
820.69	30021.17
820.87	30195.25
821.05	30449.20
821.22	29945.40
821.40	30193.20
821.58	29654.59
821.76	29761.08
821.94	29636.16
822.12	29947.45
822.29	29898.30
822.47	29572.67
822.65	29703.74
822.83	29632.06
823.01	29746.75
823.19	29691.45
823.36	29191.75
823.54	29333.06
823.72	29156.93
823.90	29457.98
824.08	29275.71
824.25	29199.94
824.43	29275.71
824.61	29115.97
824.79	29544.00
824.97	29126.21
825.15	29146.69
825.32	29115.97
825.50	28825.16
825.68	28864.07
825.86	29081.16
826.04	29349.44
826.21	28950.09
826.39	28855.88
826.57	28712.52
826.75	28790.34
826.93	28530.25
827.10	28485.20
827.28	28536.40
827.46	28819.02
827.64	28556.88
827.81	28618.32
827.99	28540.49
828.17	28565.07
828.35	28350.03
828.53	28165.71
828.70	28567.12
828.88	28280.40
829.06	28149.33
829.24	28601.93
829.41	28356.18
829.59	28188.24
829.77	28188.24
829.95	28317.26
830.12	28214.87
830.30	28202.58
830.48	27885.14
830.66	28108.37
830.84	27981.40
831.01	27948.63
831.19	27987.54
831.37	27870.81
831.55	27670.11
831.72	27659.87
831.90	27616.86
832.08	27709.02
832.25	27616.86
832.43	27635.29
832.61	27367.01
832.79	27237.98
832.96	27815.51
833.14	27444.83
833.32	27846.23
833.50	27448.93
833.67	27405.92
833.85	27379.29
834.03	26998.37
834.20	27342.43
834.38	27479.64
834.56	27297.38
834.74	27364.96
834.91	27022.95
835.09	27008.61
835.27	26922.60
835.44	26818.15
835.62	26728.04
835.80	26820.20
835.98	26785.38
836.15	26922.60
836.33	26762.86
836.51	27053.67
836.68	26619.50
836.86	26715.75
837.04	26588.78
837.21	26621.55
837.39	26830.44
837.57	26613.35
837.75	26590.83
837.92	26586.73
838.10	26408.56
838.28	26435.18
838.45	26472.04
838.63	26279.54
838.81	26302.06
838.98	26287.73
839.16	26224.24
839.34	26283.63
839.51	26031.73
839.69	25853.56
839.87	26005.11
840.04	26138.23
840.22	26369.65
840.40	26015.35
840.57	25679.48
840.75	25837.17
840.93	25980.53
841.10	25923.19
841.28	25783.93
841.46	25626.23
841.63	25794.17
841.81	25650.81
841.98	25634.42
842.16	25767.54
842.34	25835.13
842.51	25702.01
842.69	26062.45
842.87	25540.22
843.04	25583.23
843.22	25484.92
843.40	25493.12
843.57	25237.12
843.75	25558.65
843.92	25515.64
844.10	25245.31
844.28	25304.70
844.45	25622.14
844.63	25228.93
844.81	25185.92
844.98	25249.41
845.16	25110.14
845.33	25411.20
845.51	25063.04
845.69	25216.64
845.86	25366.14
846.04	24848.00
846.21	24968.84
846.39	24979.07
846.57	25101.95
846.74	24661.64
846.92	24759.94
847.09	24667.78
847.27	24512.14
847.45	24962.69
847.62	24848.00
847.80	24788.61
847.97	24772.23
848.15	24575.62
848.32	24473.23
848.50	24551.05
848.68	24706.70
848.85	24450.70
849.03	24163.98
849.20	24776.33
849.38	24088.21
849.56	24563.34
849.73	24215.18
849.91	24092.30
850.08	24583.82
850.26	24188.56
850.43	24145.55
850.61	24395.40
850.78	24247.95
850.96	24213.13
851.14	23834.26
851.31	24293.01
851.49	24030.87
851.66	24012.43
851.84	24100.50
852.01	23942.80
852.19	24272.53
852.36	23793.30
852.54	23922.32
852.71	23834.26
852.89	23727.77
853.07	24030.87
853.24	24067.73
853.42	23965.33
853.59	23772.82
853.77	23776.92
853.94	23838.36
854.12	23774.87
854.29	23266.97
854.47	23479.96
854.64	23471.77
854.82	23504.54
854.99	23488.15
855.17	23269.02
855.34	23352.99
855.52	23557.78
855.69	23471.77
855.87	23156.38
856.04	23129.76
856.22	23133.86
856.39	22832.80
856.57	23209.63
856.74	23025.31
856.92	22953.63
857.09	22931.11
857.27	22974.11
857.44	23137.95
857.62	23230.11
857.79	23029.41
857.97	22873.76
858.14	22990.50
858.32	22996.64
858.49	22683.30
858.67	22783.65
858.84	22759.08
859.02	22599.34
859.19	22689.45
859.37	22558.38
859.54	22372.01
859.72	22779.56
859.89	22408.87
860.06	22754.98
860.24	22701.73
860.41	22775.46
860.59	22447.79
860.76	22554.28
860.94	22388.39
861.11	22468.27
861.29	22517.42
861.46	22146.73
861.64	22156.97
861.81	22144.69
861.98	22337.20
862.16	22089.39
862.33	22116.01
862.51	21894.83
862.68	22195.89
862.86	21890.74
863.03	21753.52
863.21	21851.83
863.38	22019.76
863.55	21833.39
863.73	21831.35
863.90	21915.31
864.08	21986.99
864.25	21739.19
864.43	21728.95
864.60	21774.00
864.77	21413.56
864.95	21456.57
865.12	21268.16
865.30	21618.36
865.47	21450.42
865.64	21268.16
865.82	21431.99
865.99	21286.59
866.17	21200.57
866.34	21380.79
866.51	20926.14
866.69	21489.34
866.86	21421.75
867.04	21276.35
867.21	21319.35
867.38	21196.48
867.56	21081.79
867.73	21032.64
867.91	20754.12
868.08	20879.04
868.25	20901.57
868.43	20825.79
868.60	20805.31
868.78	20577.99
868.95	21067.45
869.12	20803.27
869.30	20698.82
869.47	20694.72
869.64	20491.98
869.82	20645.57
869.99	20770.50
870.16	20725.44
870.34	20655.81
870.51	20657.86
870.69	20491.98
870.86	20688.58
871.03	20367.05
871.21	20184.78
871.38	20621.00
871.55	20342.47
871.73	20352.71
871.90	20125.39
872.07	19949.26
872.25	20047.57
872.42	20014.80
872.59	19844.82
872.77	19861.20
872.94	19984.08
873.11	19861.20
873.29	19977.94
873.46	20057.81
873.63	19881.68
873.81	19781.33
873.98	19678.93
874.15	19723.99
874.33	19576.53
874.50	19447.51
874.67	19601.11
874.85	19377.88
875.02	19443.42
875.19	19203.80
875.37	19424.98
875.54	19414.74
875.71	19121.88
875.88	19093.21
876.06	19021.53
876.23	18962.14
876.40	19259.10
876.58	18894.56
876.75	18947.81
876.92	18900.70
877.10	19123.93
877.27	19056.35
877.44	18743.01
877.61	18769.63
877.79	18786.02
877.96	18753.25
878.13	18734.82
878.31	18720.48
878.48	18542.31
878.65	18597.60
878.82	18333.42
879.00	18673.38
879.17	18413.29
879.34	18409.19
879.51	18446.05
879.69	18405.10
879.86	18300.65
880.03	18237.16
880.21	18104.04
880.38	18325.22
880.55	18085.61
880.72	18099.95
880.90	18106.09
881.07	17870.58
881.24	17956.59
881.41	18192.11
881.59	17886.96
881.76	18077.42
881.93	17972.97
882.10	17784.56
882.28	17942.25
882.45	17858.29
882.62	17780.46
882.79	18028.27
882.96	17487.61
883.14	17778.42
883.31	17458.93
883.48	17592.05
883.65	17557.24
883.83	17782.51
884.00	17639.15
884.17	17802.99
884.34	17581.81
884.51	17620.72
884.69	17538.80
884.86	17571.57
885.03	17510.13
885.20	17157.88
885.38	17469.17
885.55	17172.22
885.72	17159.93
885.89	17108.73
886.06	17374.97
886.24	17139.45
886.41	17280.76
886.58	17528.56
886.75	17245.94
886.92	17100.54
887.10	17260.28
887.27	17008.38
887.44	17129.21
887.61	17219.32
887.78	17168.12
887.95	17258.23
888.13	16965.37
888.30	17176.31
888.47	16887.55
888.64	17080.06
888.81	16873.21
888.99	16658.18
889.16	16692.99
889.33	16613.12
889.50	16574.21
889.67	16555.78
889.84	16357.13
890.01	16471.81
890.19	16482.05
890.36	16600.83
890.53	16615.17
890.70	16342.79
890.87	16467.72
891.04	16465.67
891.22	16449.28
891.39	16492.29
891.56	16441.09
891.73	16383.75
891.90	16252.68
892.07	16320.26
892.24	16080.65
892.42	16142.09
892.59	16256.78
892.76	16013.07
892.93	16025.36
893.10	16285.45
893.27	15933.20
893.44	15789.84
893.61	15922.96
893.79	15963.92
893.96	15863.57
894.13	15992.59
894.30	16074.51
894.47	15994.64
894.64	16109.32
894.81	15859.47
894.98	15785.74
895.15	15806.22
895.33	15828.75
895.50	15834.89
895.67	15884.05
895.84	15841.04
896.01	15634.19
896.18	15691.54
896.35	15822.61
896.52	15677.20
896.69	15560.47
896.86	15699.73
897.04	15857.42
897.21	15537.94
897.38	15605.52
897.55	15642.39
897.72	15800.08
897.89	15683.34
898.06	15597.33
898.23	15552.27
898.40	15607.57
898.57	15851.28
898.74	15789.84
898.91	15740.69
899.08	15750.93
899.26	15666.96
899.43	15589.14
899.60	15370.01
899.77	15511.32
899.94	15507.22
900.11	15410.96
900.28	15636.24
900.45	15505.17
900.62	15410.96
900.79	15613.71
900.96	15798.03
901.13	15501.08
901.30	15548.18
901.47	15458.07
901.64	15589.14
901.81	15732.50
901.98	15550.23
902.15	15597.33
902.32	15400.72
902.49	15413.01
902.66	15333.14
902.83	15316.76
903.01	15404.82
903.18	15513.36
903.35	15460.12
903.52	15232.79
903.69	15503.12
903.86	15419.16
904.03	15318.81
904.20	15695.63
904.37	15537.94
904.54	15597.33
904.71	15271.70
904.88	15685.39
905.05	15144.73
905.22	15599.38
905.39	15169.30
905.56	15546.13
905.73	15408.92
905.90	15482.64
906.07	15345.43
906.24	15267.61
906.41	15306.52
906.58	15185.69
906.75	15388.44
906.92	15218.46
907.09	15353.62
907.26	15327.00
907.43	15279.89
907.60	15339.29
907.77	15437.59
907.93	15384.34
908.10	15398.68
908.27	15374.10
908.44	15220.50
908.61	15009.56
908.78	15251.22
908.95	15294.23
909.12	14845.73
909.29	15142.68
909.46	15202.07
909.63	15187.74
909.80	15042.33
909.97	14864.16
910.14	15060.76
910.31	15167.26
910.48	15206.17
910.65	15120.15
910.82	14815.01
910.99	14892.83
911.16	14944.03
911.33	14821.15
911.50	14952.22
911.66	14645.02
911.83	14925.60
912.00	14800.67
912.17	14808.86
912.34	14718.75
912.51	14712.61
912.68	14743.33
912.85	14765.85
913.02	14751.52
913.19	14577.44
913.36	14747.42
913.53	14694.18
913.70	14294.82
913.86	14804.77
914.03	14567.20
914.20	14634.78
914.37	14581.54
914.54	14384.93
914.71	14415.65
914.88	14386.98
915.05	14518.05
915.22	14219.05
915.39	14645.02
915.55	14266.15
915.72	14284.58
915.89	14028.59
916.06	14087.98
916.23	14059.31
916.40	13963.05
916.57	13893.42
916.74	14114.60
916.91	13887.28
917.07	13868.84
917.24	13799.21
917.41	13926.19
917.58	13739.82
917.75	13829.93
917.92	13543.22
918.09	13553.46
918.26	13782.83
918.42	13692.72
918.59	13821.74
918.76	13358.90
918.93	13473.59
919.10	13526.83
919.27	13479.73
919.44	13639.47
919.60	13438.77
919.77	13217.59
919.94	13268.79
920.11	13406.00
920.28	13360.95
920.45	13209.40
920.61	13035.32
920.78	13090.62
920.95	13283.13
921.12	13205.30
921.29	13029.18
921.46	12898.11
921.62	12660.54
921.79	12914.49
921.96	12754.75
922.13	12953.40
922.30	12738.37
922.47	12789.56
922.63	12513.09
922.80	12656.45
922.97	12396.35
923.14	12279.62
923.31	12597.06
923.47	12320.58
923.64	12500.80
923.81	12412.74
923.98	12209.99
924.15	12203.85
924.32	12085.06
924.48	12101.45
924.65	12228.42
924.82	12017.48
924.99	11894.60
925.15	11788.11
925.32	11935.56
925.49	11685.71
925.66	12070.73
925.83	11589.46
925.99	11593.55
926.16	11618.13
926.33	11745.10
926.50	11452.24
926.67	11566.93
926.83	11571.02
927.00	11333.46
927.17	11237.20
927.34	11257.68
927.50	11429.71
927.67	11661.13
927.84	11120.47
928.01	11183.96
928.17	11026.26
928.34	11073.37
928.51	10915.67
928.68	11011.93
928.84	10749.79
929.01	10995.54
929.18	10692.44
929.35	10671.97
929.51	10762.08
929.68	10743.64
929.85	10663.77
930.02	10651.49
930.18	10280.80
930.35	10504.03
930.52	10338.15
930.69	10401.63
930.85	10430.30
931.02	10383.20
931.19	10231.65
931.36	9963.37
931.52	10227.56
931.69	10227.56
931.86	9985.90
932.02	10133.35
932.19	9971.56
932.36	9949.03
932.53	10162.02
932.69	9740.14
932.86	10018.66
933.03	9916.26
933.19	9613.17
933.36	9744.24
933.53	9686.89
933.70	9504.62
933.86	9488.24
934.03	9457.52
934.20	9486.19
934.36	9494.38
934.53	9291.63
934.70	9187.19
934.86	9318.26
935.03	9115.51
935.20	9029.49
935.36	9041.78
935.53	8931.19
935.70	8943.48
935.86	8744.83
936.03	8691.58
936.20	8546.17
936.36	8609.66
936.53	8388.48
936.70	8318.85
936.86	8562.56
937.03	8302.47
937.20	8028.04
937.36	8175.49
937.53	8001.41
937.70	7978.89
937.86	7860.10
938.03	7874.44
938.20	7878.54
938.36	7522.19
938.53	7671.69
938.70	7405.46
938.86	7458.70
939.03	7305.10
939.20	7229.33
939.36	7303.06
939.53	7255.95
939.70	7278.48
939.86	6944.66
940.03	6795.16
940.19	6719.39
940.36	6698.91
940.53	6817.69
940.69	6666.14
940.86	6506.40
941.03	6270.88
941.19	6381.47
941.36	6358.94
941.52	6213.54
941.69	6129.57
941.86	6164.39
942.02	6252.45
942.19	6088.61
942.35	6061.99
942.52	6061.99
942.69	5935.01
942.85	5961.64
943.02	5842.85
943.18	5795.75
943.35	5797.80
943.52	5740.46
943.68	5615.53
943.85	5617.58
944.01	5509.04
944.18	5554.09
944.35	5619.63
944.51	5488.56
944.68	5406.64
944.84	5457.84
945.01	5468.08
945.17	5377.97
945.34	5427.12
945.51	5474.22
945.67	5351.34
945.84	5441.45
946.00	5328.81
946.17	5296.05
946.33	5275.57
946.50	5306.29
946.67	5435.31
946.83	5222.32
947.00	5267.38
947.16	5246.90
947.33	5134.26
947.49	5236.66
947.66	5222.32
947.82	5367.73
947.99	5113.78
948.16	5238.70
948.32	5107.63
948.49	5173.17
948.65	5150.64
948.82	5384.11
948.98	5246.90
949.15	5019.57
949.31	5320.62
949.48	5230.51
949.64	5197.74
949.81	5171.12
949.97	5140.40
950.14	5257.14
950.30	5097.39
950.47	5414.83
950.63	5349.29
950.80	5345.20
950.96	5261.23
951.13	5238.70
951.30	5246.90
951.46	5214.13
951.63	5386.16
951.79	5431.21
951.96	5263.28
952.12	5226.42
952.29	5388.21
952.45	5226.42
952.62	5384.11
952.78	5177.26
952.94	5236.66
953.11	5197.74
953.27	5150.64
953.44	5349.29
953.60	5281.71
953.77	5320.62
953.93	5294.00
954.10	5345.20
954.26	5275.57
954.43	5357.49
954.59	5312.43
954.76	5373.87
954.92	5357.49
955.09	5396.40
955.25	5396.40
955.42	5416.88
955.58	5468.08
955.75	5357.49
955.91	5318.57
956.07	5560.24
956.24	5435.31
956.40	5488.56
956.57	5410.73
956.73	5406.64
956.90	5384.11
957.06	5373.87
957.23	5337.01
957.39	5341.10
957.56	5310.38
957.72	5300.14
957.88	5310.38
958.05	5521.32
958.21	5369.77
958.38	5459.88
958.54	5328.81
958.71	5363.63
958.87	5300.14
959.03	5324.72
959.20	5373.87
959.36	5314.48
959.53	5337.01
959.69	5212.08
959.85	5498.80
960.02	5361.58
960.18	5273.52
960.35	5480.36
960.51	5433.26
960.68	5312.43
960.84	5316.53
961.00	5310.38
961.17	5412.78
961.33	5320.62
961.50	5392.30
961.66	5474.22
961.82	5244.85
961.99	5304.24
962.15	5320.62
962.31	5228.46
962.48	5425.07
962.64	5222.32
962.81	5388.21
962.97	5310.38
963.13	5377.97
963.30	5238.70
963.46	5271.47
963.62	5306.29
963.79	5275.57
963.95	5244.85
964.12	5304.24
964.28	5343.15
964.44	5210.03
964.61	5320.62
964.77	5236.66
964.93	5392.30
965.10	5304.24
965.26	5158.83
965.42	5449.64
965.59	5218.22
965.75	5216.18
965.92	5263.28
966.08	5345.20
966.24	5246.90
966.41	5099.44
966.57	5173.17
966.73	5302.19
966.90	5355.44
967.06	5212.08
967.22	5089.20
967.39	5226.42
967.55	5072.82
967.71	5199.79
967.88	5017.52
968.04	5042.10
968.20	5013.43
968.37	5046.20
968.53	5072.82
968.69	5113.78
968.85	5210.03
969.02	5019.57
969.18	5074.87
969.34	4982.71
969.51	4962.23
969.67	5033.91
969.83	4935.60
970.00	5140.40
970.16	5050.29
970.32	5025.72
970.48	5205.94
970.65	4839.35
970.81	4890.55
970.97	5042.10
971.14	4802.49
971.30	4841.40
971.46	4888.50
971.63	4911.03
971.79	4931.51
971.95	4878.26
972.11	4872.12
972.28	4956.08
972.44	4990.90
972.60	4820.92
972.76	4749.24
972.93	4925.36
973.09	4794.29
973.25	4812.73
973.42	4722.62
973.58	4923.32
973.74	4782.01
973.90	4837.30
974.07	4745.14
974.23	4751.29
974.39	4890.55
974.55	4728.76
974.72	4825.01
974.88	4616.12
975.04	4747.19
975.20	4757.43
975.37	4777.91
975.53	4669.37
975.69	4620.22
975.85	4687.80
976.01	4628.41
976.18	4534.20
976.34	4544.44
976.50	4612.03
976.66	4681.66
976.83	4577.21
976.99	4550.59
977.15	4552.63
977.31	4577.21
977.47	4599.74
977.64	4589.50
977.80	4546.49
977.96	4550.59
978.12	4612.03
978.29	4634.55
978.45	4491.20
978.61	4382.65
978.77	4667.32
978.93	4431.80
979.10	4511.68
979.26	4339.65
979.42	4452.28
979.58	4325.31
979.74	4366.27
979.91	4313.02
980.07	4429.76
980.23	4401.08
980.39	4372.41
980.55	4360.13
980.71	4429.76
980.88	4362.17
981.04	4298.69
981.20	4272.06
981.36	4433.85
981.52	4317.12
981.68	4202.43
981.85	4374.46
982.01	4276.16
982.17	4339.65
982.33	4224.96
982.49	4321.21
982.65	4198.34
982.82	4198.34
982.98	4294.59
983.14	4009.92
983.30	4134.85
983.46	4304.83
983.62	4171.71
983.79	4079.55
983.95	4171.71
984.11	3985.35
984.27	4161.47
984.43	4136.90
984.59	4169.66
984.75	4108.23
984.91	4140.99
985.08	4145.09
985.24	4032.45
985.40	4181.95
985.56	4102.08
985.72	4204.48
985.88	4163.52
986.04	4026.31
986.20	3977.16
986.37	3997.64
986.53	3956.68
986.69	3983.30
986.85	3964.87
987.01	3913.67
987.17	4001.73
987.33	4042.69
987.49	3839.94
987.65	4014.02
987.82	3827.65
987.98	3833.80
988.14	3813.32
988.30	4038.59
988.46	3737.54
988.62	3887.04
988.78	3729.35
988.94	3973.06
989.10	3864.52
989.26	3788.74
989.42	3856.33
989.59	3792.84
989.75	3821.51
989.91	3809.22
990.07	3579.85
990.23	3784.65
990.39	3778.50
990.55	3827.65
990.71	3596.23
990.87	3766.21
991.03	3766.21
991.19	3608.52
991.35	3719.11
991.51	3698.63
991.67	3805.13
991.83	3719.11
992.00	3653.58
992.16	3725.26
992.32	3612.62
992.48	3702.73
992.64	3571.66
992.80	3676.10
992.96	3672.01
993.12	3633.10
993.28	3688.39
993.44	3612.62
993.60	3672.01
993.76	3643.34
993.92	3624.90
994.08	3583.95
994.24	3569.61
994.40	3565.51
994.56	3606.47
994.72	3542.99
994.88	3461.07
995.04	3598.28
995.20	3600.33
995.36	3577.80
995.52	3530.70
995.68	3442.64
995.84	3377.10
996.00	3553.23
996.16	3436.49
996.32	3381.20
996.48	3602.38
996.64	3499.98
996.80	3342.28
996.96	3416.01
997.12	3411.92
997.28	3250.13
997.44	3416.01
997.60	3327.95
997.76	3327.95
997.92	3411.92
998.08	3323.85
998.24	3190.74
998.40	3307.47
998.56	3418.06
998.72	3178.45
998.88	3243.98
999.04	3323.85
999.20	3370.96
999.36	3239.89
999.52	3342.28
999.68	3336.14
999.84	3346.38
1000.00	3295.18
1000.16	3272.65
1000.32	3262.41
1000.48	3342.28
1000.64	3223.50
1000.80	3135.44
1000.95	3096.53
1001.11	3213.26
1001.27	3112.91
1001.43	3276.75
1001.59	3088.34
1001.75	3155.92
1001.91	3088.34
1002.07	2951.12
1002.23	3108.82
1002.39	3051.47
1002.55	3045.33
1002.71	3065.81
1002.87	3028.95
1003.03	2965.46
1003.19	2987.99
1003.34	3117.01
1003.50	2998.23
1003.66	3086.29
1003.82	3022.80
1003.98	3037.14
1004.14	3069.91
1004.30	2930.64
1004.46	2891.73
1004.62	2942.93
1004.78	3035.09
1004.94	3059.67
1005.09	3037.14
1005.25	3041.23
1005.41	2981.84
1005.57	2979.79
1005.73	2875.35
1005.89	2885.59
1006.05	3000.27
1006.21	2940.88
1006.37	2918.36
1006.52	2871.25
1006.68	2867.16
1006.84	3026.90
1007.00	2879.44
1007.16	2869.20
1007.32	2901.97
1007.48	2858.96
1007.64	3049.43
1007.79	2844.63
1007.95	2863.06
1008.11	2924.50
1008.27	2818.00
1008.43	2762.71
1008.59	2875.35
1008.75	2910.16
1008.91	2787.29
1009.06	2822.10
1009.22	2832.34
1009.38	2840.53
1009.54	2820.05
1009.70	2797.53
1009.86	2818.00
1010.01	2740.18
1010.17	2756.57
1010.33	2777.05
1010.49	2668.50
1010.65	2873.30
1010.81	2613.21
1010.96	2656.22
1011.12	2682.84
1011.28	2707.41
1011.44	2693.08
1011.60	2674.65
1011.76	2705.37
1011.91	2787.29
1012.07	2645.98
1012.23	2559.96
1012.39	2645.98
1012.55	2645.98
1012.71	2695.13
1012.86	2555.86
1013.02	2648.02
1013.18	2607.06
1013.34	2678.74
1013.50	2629.59
1013.65	2658.26
1013.81	2562.01
1013.97	2594.78
1014.13	2590.68
1014.29	2600.92
1014.44	2768.85
1014.60	2484.19
1014.76	2506.71
1014.92	2590.68
1015.07	2602.97
1015.23	2586.58
1015.39	2484.19
1015.55	2535.39
1015.71	2568.15
1015.86	2549.72
1016.02	2543.58
1016.18	2437.08
1016.34	2650.07
1016.49	2592.73
1016.65	2480.09
1016.81	2437.08
1016.97	2504.67
1017.12	2539.48
1017.28	2465.75
1017.44	2492.38
1017.60	2394.08
1017.75	2392.03
1017.91	2435.03
1018.07	2455.51
1018.23	2424.80
1018.38	2369.50
1018.54	2430.94
1018.70	2379.74
1018.86	2367.45
1019.01	2408.41
1019.17	2394.08
1019.33	2441.18
1019.49	2355.16
1019.64	2457.56
1019.80	2437.08
1019.96	2437.08
1020.12	2406.36
1020.27	2322.40
1020.43	2428.89
1020.59	2351.07
1020.74	2406.36
1020.90	2408.41
1021.06	2287.58
1021.22	2334.68
1021.37	2326.49
1021.53	2246.62
1021.69	2396.12
1021.84	2287.58
1022.00	2320.35
1022.16	2359.26
1022.31	2361.31
1022.47	2361.31
1022.63	2367.45
1022.79	2189.28
1022.94	2299.87
1023.10	2316.25
1023.26	2346.97
1023.41	2260.96
1023.57	2265.05
1023.73	2297.82
1023.88	2281.44
1024.04	2334.68
1024.20	2160.61
1024.35	2232.29
1024.51	2252.77
1024.67	2230.24
1024.82	2293.72
1024.98	2172.89
1025.14	2232.29
1025.29	2209.76
1025.45	2199.52
1025.61	2170.85
1025.76	2267.10
1025.92	2205.66
1026.08	2230.24
1026.23	2279.39
1026.39	2258.91
1026.55	2164.70
1026.70	2140.13
1026.86	2201.57
1027.02	2150.37
1027.17	2170.85
1027.33	2222.05
1027.48	2138.08
1027.64	2166.75
1027.80	2148.32
1027.95	2093.02
1028.11	2017.25
1028.27	2174.94
1028.42	2158.56
1028.58	2150.37
1028.73	2039.78
1028.89	2133.98
1029.05	2222.05
1029.20	2174.94
>>>>>End Processed Spectral Data<<<<<
