SpectraSuite Data File
++++++++++++++++++++++++++++++++++++
Date: Fri Jun 02 14:53:35 CEST 2017
User: INFO_000
Dark Spectrum Present: No
Reference Spectrum Present: No
Number of Sampled Component Spectra: 1
Spectrometers: USB4H00879
Integration Time (usec): 80000 (USB4H00879)
Spectra Averaged: 1 (USB4H00879)
Boxcar Smoothing: 0 (USB4H00879)
Correct for Electrical Dark: No (USB4H00879)
Strobe/Lamp Enabled: No (USB4H00879)
Correct for Detector Non-linearity: No (USB4H00879)
Correct for Stray Light: No (USB4H00879)
Number of Pixels in Processed Spectrum: 3648
>>>>>Begin Processed Spectral Data<<<<<
345.13	1275.88
345.34	1275.88
345.56	1275.88
345.78	1316.84
345.99	1253.36
346.21	1697.77
346.42	1712.10
346.64	1691.62
346.86	1777.64
347.07	1644.52
347.29	1697.77
347.50	1601.51
347.72	1646.57
347.94	1751.01
348.15	1562.60
348.37	1642.47
348.59	1679.33
348.80	1632.23
349.02	1767.40
349.23	1847.27
349.45	1802.21
349.67	1849.32
349.88	1796.07
350.10	2011.11
350.31	1865.70
350.53	1837.03
350.75	2009.06
350.96	1753.06
351.18	1837.03
351.39	1873.89
351.61	1804.26
351.82	1910.75
352.04	1837.03
352.26	1875.94
352.47	1974.24
352.69	1867.75
352.90	1787.88
353.12	1830.88
353.34	1908.71
353.55	1865.70
353.77	1900.52
353.98	1898.47
354.20	1855.46
354.41	1918.95
354.63	1951.71
354.85	2027.49
355.06	1912.80
355.28	1902.56
355.49	1918.95
355.71	1927.14
355.92	1925.09
356.14	1916.90
356.35	1859.56
356.57	1804.26
356.79	1910.75
357.00	1871.84
357.22	1982.43
357.43	1796.07
357.65	1949.67
357.86	1828.84
358.08	1818.60
358.29	1904.61
358.51	1986.53
358.72	1994.72
358.94	1894.37
359.16	1980.39
359.37	1933.28
359.59	1943.52
359.80	2019.30
360.02	1918.95
360.23	1984.48
360.45	2019.30
360.66	1996.77
360.88	1908.71
361.09	1953.76
361.31	1970.15
361.52	2015.20
361.74	2004.96
361.95	2070.50
362.17	1976.29
362.38	2107.36
362.60	2060.26
362.81	1982.43
363.03	1986.53
363.24	1978.34
363.46	2117.60
363.67	2023.39
363.89	2054.11
364.10	2047.97
364.32	1918.95
364.53	2045.92
364.75	1947.62
364.96	2056.16
365.18	2033.63
365.39	1994.72
365.61	1978.34
365.82	2062.30
366.04	1949.67
366.25	2023.39
366.47	2064.35
366.68	2043.87
366.90	1990.63
367.11	2019.30
367.33	2144.22
367.54	2078.69
367.76	2025.44
367.97	2121.70
368.19	1986.53
368.40	2043.87
368.62	1976.29
368.83	1976.29
369.05	2086.88
369.26	2011.11
369.48	2052.06
369.69	1935.33
369.91	2060.26
370.12	1998.82
370.33	2050.02
370.55	1937.38
370.76	2019.30
370.98	2144.22
371.19	2076.64
371.41	2019.30
371.62	2052.06
371.84	2017.25
372.05	2201.57
372.27	2021.35
372.48	2093.02
372.69	2107.36
372.91	2170.85
373.12	2152.42
373.34	2082.78
373.55	2183.13
373.77	2113.50
373.98	2062.30
374.20	2176.99
374.41	2301.92
374.62	2109.41
374.84	2166.75
375.05	2152.42
375.27	2162.66
375.48	2215.90
375.70	2138.08
375.91	2281.44
376.12	2211.81
376.34	2222.05
376.55	2176.99
376.77	2146.27
376.98	2136.03
377.19	2220.00
377.41	2129.89
377.62	2236.38
377.84	2203.61
378.05	2242.53
378.27	2195.42
378.48	2303.96
378.69	2367.45
378.91	2334.68
379.12	2291.68
379.34	2232.29
379.55	2310.11
379.76	2222.05
379.98	2271.20
380.19	2271.20
380.41	2293.72
380.62	2314.20
380.83	2363.36
381.05	2199.52
381.26	2387.93
381.47	2256.86
381.69	2328.54
381.90	2412.51
382.12	2273.25
382.33	2308.06
382.54	2240.48
382.76	2301.92
382.97	2351.07
383.19	2224.09
383.40	2392.03
383.61	2346.97
383.83	2258.91
384.04	2414.56
384.25	2338.78
384.47	2414.56
384.68	2373.60
384.89	2279.39
385.11	2371.55
385.32	2351.07
385.54	2351.07
385.75	2342.88
385.96	2367.45
386.18	2418.65
386.39	2383.84
386.60	2377.69
386.82	2473.95
387.03	2387.93
387.24	2537.43
387.46	2402.27
387.67	2504.67
387.88	2584.54
388.10	2512.86
388.31	2486.23
388.52	2672.60
388.74	2584.54
388.95	2600.92
389.16	2568.15
389.38	2605.02
389.59	2609.11
389.80	2629.59
390.02	2547.67
390.23	2602.97
390.44	2523.10
390.66	2492.38
390.87	2570.20
391.08	2617.30
391.30	2672.60
391.51	2502.62
391.72	2740.18
391.94	2645.98
392.15	2666.46
392.36	2617.30
392.58	2664.41
392.79	2600.92
393.00	2607.06
393.22	2682.84
393.43	2713.56
393.64	2711.51
393.85	2764.76
394.07	2727.89
394.28	2746.33
394.49	2795.48
394.71	2713.56
394.92	2783.19
395.13	2691.03
395.35	2791.38
395.56	2713.56
395.77	2768.85
395.98	2842.58
396.20	2863.06
396.41	2858.96
396.62	2879.44
396.84	2764.76
397.05	2805.72
397.26	2893.78
397.47	2971.60
397.69	2840.53
397.90	2967.51
398.11	2924.50
398.32	2932.69
398.54	2877.40
398.75	2955.22
398.96	2936.79
399.18	3069.91
399.39	2949.08
399.60	3014.61
399.81	2940.88
400.03	2977.75
400.24	3241.93
400.45	2881.49
400.66	3049.43
400.88	3057.62
401.09	3221.45
401.30	2944.98
401.51	3125.20
401.73	3237.84
401.94	3196.88
402.15	3108.82
402.36	3131.34
402.58	3200.98
402.79	3131.34
403.00	3178.45
403.21	3096.53
403.43	3284.94
403.64	3231.69
403.85	3174.35
404.06	3354.57
404.27	3117.01
404.49	3268.56
404.70	3209.17
404.91	3186.64
405.12	3205.07
405.34	3258.32
405.55	3477.45
405.76	3194.83
405.97	3313.61
406.19	3426.25
406.40	3344.33
406.61	3395.53
406.82	3321.81
407.03	3278.80
407.25	3379.15
407.46	3456.97
407.67	3454.92
407.88	3598.28
408.09	3319.76
408.31	3489.74
408.52	3332.05
408.73	3385.29
408.94	3366.86
409.15	3393.48
409.37	3452.88
409.58	3565.51
409.79	3493.83
410.00	3518.41
410.21	3569.61
410.43	3551.18
410.64	3399.63
410.85	3626.95
411.06	3508.17
411.27	3616.71
411.48	3604.42
411.70	3571.66
411.91	3655.62
412.12	3598.28
412.33	3536.84
412.54	3571.66
412.76	3729.35
412.97	3819.46
413.18	3608.52
413.39	3731.40
413.60	3688.39
413.81	3657.67
414.03	3700.68
414.24	3692.49
414.45	3858.37
414.66	3760.07
414.87	3837.89
415.08	3831.75
415.30	3702.73
415.51	3856.33
415.72	3766.21
415.93	3704.78
416.14	3819.46
416.35	3917.76
416.56	3801.03
416.78	3897.28
416.99	3971.01
417.20	3999.68
417.41	3885.00
417.62	3909.57
417.83	4057.03
418.04	3866.56
418.26	3887.04
418.47	3923.91
418.68	4114.37
418.89	4040.64
419.10	4212.67
419.31	4097.99
419.52	4083.65
419.73	4188.10
419.95	4206.53
420.16	4018.11
420.37	4140.99
420.58	4202.43
420.79	3940.29
421.00	4173.76
421.21	4200.38
421.42	4124.61
421.63	4126.66
421.85	4159.42
422.06	4292.54
422.27	4155.33
422.48	4067.27
422.69	4286.40
422.90	4329.41
423.11	4323.26
423.32	4374.46
423.53	4526.01
423.75	4358.08
423.96	4411.32
424.17	4427.71
424.38	4474.81
424.59	4419.52
424.80	4700.09
425.01	4558.78
425.22	4351.93
425.43	4521.92
425.64	4718.52
425.85	4691.90
426.06	4638.65
426.28	4583.35
426.49	4622.27
426.70	4571.07
426.91	4816.82
427.12	4808.63
427.33	4775.86
427.54	4685.75
427.75	4829.11
427.96	4861.88
428.17	4763.58
428.38	4839.35
428.59	4882.36
428.80	4898.74
429.01	4908.98
429.23	4892.60
429.44	5087.15
429.65	5132.21
429.86	4970.42
430.07	4863.93
430.28	4990.90
430.49	5009.33
430.70	5226.42
430.91	5142.45
431.12	4966.32
431.33	5113.78
431.54	5300.14
431.75	5234.61
431.96	5162.93
432.17	5105.59
432.38	5222.32
432.59	5377.97
432.80	5296.05
433.01	5353.39
433.22	5529.52
433.43	5437.36
433.64	5271.47
433.85	5396.40
434.06	5531.56
434.27	5330.86
434.49	5543.85
434.70	5474.22
434.91	5412.78
435.12	5523.37
435.33	5556.14
435.54	5453.74
435.75	5357.49
435.96	5582.76
436.17	5392.30
436.38	5672.87
436.59	5582.76
436.80	5613.48
437.01	5642.15
437.22	5865.38
437.43	5693.35
437.64	5574.57
437.85	5861.29
438.06	5818.28
438.27	5754.79
438.48	5834.66
438.69	5902.25
438.90	5861.29
439.11	5742.50
439.32	5986.21
439.53	5781.42
439.74	5844.90
439.95	5914.53
440.16	5853.09
440.37	5935.01
440.57	5621.67
440.78	5959.59
440.99	5916.58
441.20	6059.94
441.41	5957.54
441.62	5988.26
441.83	5896.10
442.04	6188.96
442.25	6104.99
442.46	6111.14
442.67	6104.99
442.88	6440.86
443.09	6029.22
443.30	6010.79
443.51	6340.51
443.72	6430.62
443.93	6033.32
444.14	6412.19
444.35	6162.34
444.56	6336.42
444.77	6324.13
444.98	6440.86
445.19	6328.22
445.40	6340.51
445.61	6381.47
445.81	6539.16
446.02	6322.08
446.23	6483.87
446.44	6465.44
446.65	6594.46
446.86	6492.06
447.07	6653.85
447.28	6778.78
447.49	6741.91
447.70	6604.70
447.91	6643.61
448.12	6653.85
448.33	6813.59
448.54	6817.69
448.74	6584.22
448.95	6662.04
449.16	6674.33
449.37	7047.06
449.58	6817.69
449.79	7028.63
450.00	6811.54
450.21	6991.77
450.42	7049.11
450.63	7083.92
450.84	6872.98
451.05	6944.66
451.25	7116.69
451.46	6901.65
451.67	7139.22
451.88	7305.10
452.09	7182.23
452.30	7047.06
452.51	7133.08
452.72	7337.87
452.93	7522.19
453.13	7296.91
453.34	7233.43
453.55	7456.65
453.76	7243.67
453.97	7813.00
454.18	7352.21
454.39	7634.83
454.60	7532.43
454.81	7491.47
455.01	7655.31
455.22	7356.30
455.43	7763.85
455.64	7901.06
455.85	7901.06
456.06	8089.48
456.27	7870.34
456.48	7661.45
456.68	7788.43
456.89	7821.19
457.10	8062.85
457.31	7954.31
457.52	7948.17
457.73	8245.12
457.94	8249.22
458.14	7950.21
458.35	8400.77
458.56	8259.46
458.77	8243.07
458.98	8327.04
459.19	8296.32
459.39	8365.95
459.60	8398.72
459.81	8505.21
460.02	8474.49
460.23	8445.82
460.44	8615.80
460.65	8822.65
460.85	8736.63
461.06	8822.65
461.27	8537.98
461.48	9047.93
461.69	9074.55
461.89	8759.16
462.10	9095.03
462.31	8914.81
462.52	8712.06
462.73	9082.74
462.94	9412.46
463.14	9107.32
463.35	9074.55
463.56	9566.06
463.77	9416.56
463.98	9351.03
464.18	9396.08
464.39	9463.66
464.60	9869.16
464.81	9650.03
465.02	9529.20
465.23	9883.50
465.43	9738.09
465.64	9811.82
465.85	9946.98
466.06	9668.46
466.27	10256.23
466.47	10020.71
466.68	10080.10
466.89	10155.88
467.10	10379.11
467.30	10010.47
467.51	10286.95
467.72	10518.37
467.93	10340.19
468.14	10350.43
468.34	10645.34
468.55	10661.73
468.76	10725.21
468.97	10569.57
469.17	10725.21
469.38	11122.52
469.59	11028.31
469.80	10778.46
470.01	10960.73
470.21	10911.58
470.42	11220.82
470.63	11310.93
470.84	11202.39
471.04	11368.27
471.25	11609.93
471.46	11405.14
471.67	11741.00
471.87	11736.91
472.08	11757.39
472.29	11865.93
472.50	11628.37
472.70	11831.12
472.91	11951.95
473.12	12017.48
473.33	12109.64
473.53	12349.25
473.74	12259.14
473.95	12611.39
474.16	12642.11
474.36	12543.81
474.57	12611.39
474.78	12906.30
474.99	12861.24
475.19	12789.56
475.40	12994.36
475.61	12965.69
475.81	13268.79
476.02	13401.91
476.23	13414.20
476.44	13440.82
476.64	13686.58
476.85	13848.36
477.06	13739.82
477.27	13713.20
477.47	14010.15
477.68	14149.42
477.89	14298.92
478.09	14161.70
478.30	14155.56
478.51	14245.67
478.71	14409.51
478.92	14599.97
479.13	14741.28
479.34	14556.96
479.54	14542.63
479.75	14896.92
479.96	14993.18
480.16	15191.83
480.37	15200.02
480.58	15423.25
480.78	15705.87
480.99	15613.71
481.20	15652.63
481.41	15490.84
481.61	15845.13
481.82	15927.05
482.03	15712.02
482.23	15802.13
482.44	16330.50
482.65	16234.25
482.85	16480.00
483.06	16297.74
483.27	16373.51
483.47	16289.54
483.68	16604.93
483.89	16705.28
484.09	16785.15
484.30	16828.16
484.51	17032.96
484.71	17073.92
484.92	17096.44
485.13	17170.17
485.33	17481.46
485.54	17280.76
485.75	17661.68
485.95	17819.38
486.16	17766.13
486.37	17692.40
486.57	17745.65
486.78	17678.07
486.98	18028.27
487.19	18294.50
487.40	18409.19
487.60	18429.67
487.81	18179.82
488.02	18556.64
488.22	18550.50
488.43	18669.28
488.64	18771.68
488.84	18855.65
489.05	18956.00
489.25	18892.51
489.46	19168.99
489.67	19222.23
489.87	19422.94
490.08	19478.23
490.29	19457.75
490.49	19990.22
490.70	19726.04
490.90	20033.23
491.11	19799.76
491.32	20133.58
491.52	19988.18
491.73	19910.35
491.94	20377.29
492.14	19818.19
492.35	20549.32
492.55	20395.72
492.76	20577.99
492.97	20946.62
493.17	20520.65
493.38	20909.76
493.58	21059.26
493.79	21223.10
494.00	20817.60
494.20	21198.52
494.41	21415.61
494.61	21169.85
494.82	21253.82
495.02	21157.57
495.23	21415.61
495.44	21712.56
495.64	21784.24
495.85	21640.89
496.05	21923.51
496.26	21591.73
496.47	22345.39
496.67	21997.23
496.88	22105.77
497.08	22171.31
497.29	22447.79
497.49	22404.78
497.70	22632.10
497.91	22589.10
498.11	22929.06
498.32	22998.69
498.52	22884.00
498.73	23256.73
498.93	22965.92
499.14	23023.26
499.34	23137.95
499.55	23140.00
499.76	23445.15
499.96	23533.21
500.17	23301.79
500.37	23342.75
500.58	23266.97
500.78	23660.18
500.99	23504.54
501.19	23688.85
501.40	23889.56
501.60	23705.24
501.81	23760.53
502.02	23907.99
502.22	23813.78
502.43	24161.94
502.63	24178.32
502.84	24098.45
503.04	24118.93
503.25	24286.86
503.45	24389.26
503.66	24235.66
503.86	24450.70
504.07	24755.85
504.27	24614.54
504.48	24682.12
504.68	24819.33
504.89	25435.77
505.09	25177.73
505.30	24692.36
505.50	25007.75
505.71	25110.14
505.91	25638.52
506.12	25110.14
506.32	25233.02
506.53	25120.38
506.73	25613.95
506.94	25511.55
507.14	25306.75
507.35	25597.56
507.55	25814.65
507.76	25712.25
507.96	25665.14
508.17	25742.97
508.37	25669.24
508.58	25650.81
508.78	25841.27
508.99	26197.62
509.19	26261.10
509.40	26019.44
509.60	26218.10
509.81	26156.66
510.01	25841.27
510.22	26130.03
510.42	26279.54
510.63	26629.74
510.83	26519.15
511.04	26410.60
511.24	26738.28
511.44	26562.15
511.65	26736.23
511.85	26396.27
512.06	26525.29
512.26	27031.14
512.47	26803.82
512.67	27231.84
512.88	26805.86
513.08	26959.46
513.29	26996.32
513.49	27080.29
513.69	27115.11
513.90	27035.24
514.10	27493.98
514.31	27424.35
514.51	27485.79
514.72	27606.62
514.92	27344.48
515.13	27346.53
515.33	27774.55
515.53	27498.08
515.74	27346.53
515.94	27770.46
516.15	27835.99
516.35	27547.23
516.56	28034.64
516.76	27850.33
516.96	28102.23
517.17	27903.57
517.37	28358.22
517.58	28339.79
517.78	28274.26
517.99	28216.91
518.19	28401.23
518.39	28814.92
518.60	28495.44
518.80	28487.25
519.01	28671.56
519.21	28751.43
519.41	28720.71
519.62	28585.55
519.82	28702.28
520.03	28880.46
520.23	28941.89
520.43	28974.66
520.64	29597.24
520.84	29505.09
521.05	29079.11
521.25	29148.74
521.45	29853.24
521.66	29441.60
521.86	29238.85
522.07	29693.50
522.27	29955.64
522.47	29718.07
522.68	29830.71
522.88	29783.61
523.08	30172.72
523.29	30031.41
523.49	29976.12
523.70	30246.45
523.90	30496.30
524.10	30271.03
524.31	30195.25
524.51	30211.64
524.71	31082.02
524.92	30897.70
525.12	30879.27
525.33	30817.83
525.53	31407.65
525.73	30948.90
525.94	31104.55
526.14	31311.39
526.34	31432.22
526.55	31497.76
526.75	31270.43
526.95	31673.88
527.16	31528.48
527.36	31340.07
527.56	31862.30
527.77	32099.86
527.97	32060.95
528.17	32007.70
528.38	32302.61
528.58	32419.35
528.78	32362.00
528.99	32261.65
529.19	32652.81
529.39	32560.66
529.60	32908.81
529.80	33082.89
530.00	32527.89
530.21	33306.12
530.41	32773.64
530.61	32964.10
530.82	33138.18
531.02	33158.66
531.22	33318.40
531.43	33644.03
531.63	33580.54
531.83	34057.72
532.04	33949.18
532.24	33654.27
532.44	34334.20
532.64	34106.87
532.85	33857.02
533.05	34387.44
533.25	34098.68
533.46	34457.07
533.66	35012.07
533.86	34770.41
534.07	34913.77
534.27	34610.67
534.47	35255.78
534.67	34903.53
534.88	35007.98
535.08	35247.59
535.28	35517.92
535.49	35534.31
535.69	35706.34
535.89	35720.67
536.09	36183.51
536.30	36324.82
536.50	36150.74
536.70	36093.40
536.91	36146.65
537.11	36347.35
537.31	36427.22
537.51	35962.33
537.72	37125.58
537.92	36824.53
538.12	37035.47
538.32	37021.13
538.53	36732.37
538.73	36863.44
538.93	37225.93
539.13	36830.67
539.34	37252.55
539.54	37057.99
539.74	37690.82
539.94	37422.53
540.15	37014.99
540.35	37731.78
540.55	37717.44
540.75	37731.78
540.96	38268.34
541.16	37944.76
541.36	38086.07
541.56	38024.64
541.77	38299.06
541.97	38440.37
542.17	38589.88
542.37	38641.07
542.58	38620.59
542.78	38194.62
542.98	38495.67
543.18	38802.86
543.38	39247.27
543.59	39181.74
543.79	38809.01
543.99	38944.17
544.19	39329.19
544.40	39255.46
544.60	39126.44
544.80	39374.25
545.00	39693.73
545.20	39550.37
545.41	39603.62
545.61	39409.06
545.81	39652.77
546.01	40039.84
546.21	39861.66
546.42	39740.83
546.62	40232.35
546.82	40093.08
547.02	40195.48
547.22	40322.46
547.43	40392.09
547.63	40709.52
547.83	40418.71
548.03	40213.91
548.23	40691.09
548.44	40805.78
548.64	40560.02
548.84	40598.93
549.04	40457.62
549.24	41096.59
549.45	41029.01
549.65	40680.85
549.85	41149.84
550.05	41215.37
550.25	41104.78
550.45	41694.60
550.66	41422.22
550.86	41463.18
551.06	41590.15
551.26	41516.42
551.46	41786.75
551.66	41596.29
551.87	41923.97
552.07	41796.99
552.27	41862.53
552.47	41794.95
552.67	42259.84
552.87	41731.46
553.07	42313.08
553.28	42085.76
553.48	42290.55
553.68	41936.26
553.88	42685.81
554.08	42239.36
554.28	42366.33
554.48	42233.21
554.69	42495.35
554.89	42014.08
555.09	42194.30
555.29	42360.19
555.49	42726.77
555.69	42407.29
555.89	42552.69
556.10	42808.69
556.30	42524.02
556.50	42706.29
556.70	42837.36
556.90	42804.59
557.10	42847.60
557.30	42511.74
557.50	43169.13
557.70	43089.26
557.91	43308.40
558.11	43220.33
558.31	43427.18
558.51	43341.16
558.71	43316.59
558.91	43136.37
559.11	42960.24
559.31	43595.11
559.51	43320.68
559.72	43400.55
559.92	43705.70
560.12	42937.71
560.32	43781.48
560.52	43507.05
560.72	43623.78
560.92	44107.10
561.12	43857.25
561.32	44229.98
561.52	43857.25
561.72	43685.22
561.93	43859.30
562.13	43988.32
562.33	43693.41
562.53	44422.49
562.73	43926.88
562.93	44103.01
563.13	44162.40
563.33	44016.99
563.53	44436.83
563.73	43736.42
563.93	44184.93
564.13	44813.65
564.33	44162.40
564.53	44295.52
564.74	44627.29
564.94	44303.71
565.14	44768.60
565.34	44309.85
565.54	44471.64
565.74	44617.05
565.94	44938.58
566.14	44510.55
566.34	44789.08
566.54	44840.28
566.74	44703.06
566.94	44936.53
567.14	45251.92
567.34	44711.25
567.54	44983.63
567.74	44922.19
567.94	44860.76
568.14	45235.53
568.34	45563.21
568.54	44938.58
568.74	45444.43
568.94	45043.02
569.14	45505.87
569.34	45428.04
569.54	45253.97
569.75	45098.32
569.95	45546.82
570.15	45454.67
570.35	45471.05
570.55	45440.33
570.75	45598.02
570.95	45495.63
571.15	45923.65
571.35	45430.09
571.55	45890.88
571.75	45776.20
571.95	45679.94
572.15	45274.45
572.35	45684.04
572.55	45548.87
572.75	45303.12
572.95	46183.74
573.15	45856.07
573.35	45815.11
573.55	45634.89
573.75	45763.91
573.95	45860.16
574.15	46054.72
574.35	46079.30
574.55	46148.93
574.75	46253.37
574.95	46044.48
575.15	45958.47
575.34	46005.57
575.54	46667.06
575.74	46884.15
575.94	46400.83
576.14	46212.41
576.34	46982.45
576.54	46978.36
576.74	46759.22
576.94	46814.52
577.14	46875.96
577.34	46560.57
577.54	46466.36
577.74	46845.24
577.94	46996.79
578.14	47148.34
578.34	47369.52
578.54	46640.44
578.74	46773.56
578.94	47584.55
579.14	47019.31
579.34	46759.22
579.54	47230.26
579.74	47635.75
579.94	47543.59
580.13	47138.10
580.33	47326.51
580.53	47594.79
580.73	47260.97
580.93	47654.18
581.13	47162.67
581.33	47584.55
581.53	47412.52
581.73	48190.75
581.93	48260.38
582.13	48016.68
582.33	48164.13
582.53	48506.14
582.73	48121.12
582.92	48330.01
583.12	48395.55
583.32	47988.00
583.52	47715.62
583.72	47910.18
583.92	47805.73
584.12	48344.35
584.32	48758.04
584.52	48094.50
584.72	48674.07
584.92	48264.48
585.11	48698.65
585.31	48485.66
585.51	48379.17
585.71	48610.59
585.91	48989.46
586.11	48512.28
586.31	48182.56
586.51	48938.26
586.71	49042.71
586.91	49100.05
587.10	48952.60
587.30	49237.26
587.50	49227.02
587.70	49220.88
587.90	48981.27
588.10	49237.26
588.30	49087.76
588.50	49020.18
588.69	49270.03
588.89	49779.98
589.09	49456.40
589.29	49511.69
589.49	49640.71
589.69	48897.30
589.89	49775.88
590.08	49689.87
590.28	49632.52
590.48	49909.00
590.68	49429.77
590.88	49698.06
591.08	49685.77
591.28	49292.56
591.47	50058.50
591.67	49704.20
591.87	49689.87
592.07	50033.92
592.27	49874.18
592.47	49501.45
592.67	49818.89
592.86	49790.22
593.06	50044.16
593.26	50128.13
593.46	50027.78
593.66	49970.44
593.86	50160.90
594.05	50070.79
594.25	50560.25
594.45	49960.20
594.65	50339.07
594.85	50257.15
595.05	50298.11
595.24	50711.80
595.44	50222.34
595.64	50476.29
595.84	50388.22
596.04	50496.77
596.23	50521.34
596.43	50414.85
596.63	50494.72
596.83	50840.82
597.03	50971.89
597.22	50773.24
597.42	50844.92
597.62	51234.03
597.82	51109.11
598.02	51135.73
598.21	51086.58
598.41	51057.91
598.61	50975.99
598.81	51369.20
599.01	51127.54
599.20	51373.30
599.40	51090.68
599.60	51145.97
599.80	51479.79
600.00	51832.04
600.19	51541.23
600.39	51217.65
600.59	51623.15
600.79	51692.78
600.98	51041.53
601.18	51584.24
601.38	51883.24
601.58	51846.38
601.78	52002.02
601.97	51956.97
602.17	52106.47
602.37	52172.00
602.57	52247.78
602.76	52501.73
602.96	52100.32
603.16	52438.24
603.36	52126.95
603.55	52696.28
603.75	52346.08
603.95	52425.95
604.15	52810.97
604.34	52872.41
604.54	52561.12
604.74	52782.30
604.94	52311.27
605.13	52466.91
605.33	53073.11
605.53	52983.00
605.73	53021.91
605.92	52819.16
606.12	52782.30
606.32	52847.83
606.52	52845.79
606.71	53585.10
606.91	53392.59
607.11	52655.32
607.30	53103.83
607.50	52800.73
607.70	53417.17
607.90	53304.53
608.09	53316.82
608.29	53408.98
608.49	53525.71
608.68	52937.94
608.88	53583.05
609.08	53589.20
609.28	53435.60
609.47	53349.59
609.67	54058.18
609.87	53265.62
610.06	53794.00
610.26	53243.09
610.46	53880.01
610.66	53511.38
610.85	53945.54
611.05	53249.24
611.25	53912.78
611.44	54025.42
611.64	53968.07
611.84	53859.53
612.03	53429.46
612.23	54097.09
612.43	53902.54
612.62	54215.88
612.82	54578.37
613.02	53998.79
613.21	54271.17
613.41	54127.81
613.61	54154.44
613.80	53900.49
614.00	54402.24
614.20	54156.49
614.39	54244.55
614.59	54123.72
614.79	54469.82
614.98	53959.88
615.18	53624.01
615.38	54232.26
615.57	53978.31
615.77	54359.23
615.97	54381.76
616.16	53939.40
616.36	54211.78
616.56	54777.02
616.75	54093.00
616.95	53902.54
617.15	54256.84
617.34	54213.83
617.54	53685.45
617.74	54414.53
617.93	54992.06
618.13	54334.66
618.32	54793.40
618.52	54068.42
618.72	54326.47
618.91	54262.98
619.11	54305.99
619.31	54197.44
619.50	54023.37
619.70	53796.04
619.90	54416.58
620.09	54482.11
620.29	54355.14
620.48	54531.26
620.68	54408.39
620.88	53785.80
621.07	54406.34
621.27	54369.47
621.46	54199.49
621.66	54527.17
621.86	54625.47
622.05	54127.81
622.25	54582.46
622.44	54467.78
622.64	54267.08
622.84	54729.92
623.03	54465.73
623.23	54355.14
623.42	54635.71
623.62	54723.77
623.82	54674.62
624.01	54604.99
624.21	54979.77
624.40	54473.92
624.60	54432.96
624.80	54379.71
624.99	54901.95
625.19	54654.14
625.38	54795.45
625.58	54858.94
625.77	54883.51
625.97	54932.67
626.17	54480.06
626.36	54664.38
626.56	54484.16
626.75	53941.45
626.95	54582.46
627.14	54375.62
627.34	54834.36
627.54	54381.76
627.73	54400.19
627.93	54838.46
628.12	54269.12
628.32	55026.87
628.51	54762.68
628.71	54420.67
628.90	54093.00
629.10	54539.46
629.30	54498.50
629.49	54820.03
629.69	54539.46
629.88	54289.60
630.08	55051.45
630.27	54637.76
630.47	54992.06
630.66	54635.71
630.86	55200.95
631.05	54541.50
631.25	55524.53
631.44	54955.19
631.64	54600.89
631.84	54527.17
632.03	55096.50
632.23	54854.84
632.42	55186.61
632.62	55084.22
632.81	54770.88
633.01	55481.52
633.20	55710.89
633.40	55258.29
633.59	55088.31
633.79	54977.72
633.98	54887.61
634.18	55084.22
634.37	55282.87
634.57	55057.59
634.76	55379.12
634.96	55207.09
635.15	55325.88
635.35	54838.46
635.54	54787.26
635.74	55405.75
635.93	55141.56
636.13	55952.55
636.32	55725.23
636.52	55186.61
636.71	55379.12
636.91	55307.44
637.10	55604.40
637.30	55370.93
637.49	55424.18
637.69	55248.05
637.88	55917.74
638.08	55131.32
638.27	55747.76
638.46	55774.38
638.66	55508.14
638.85	55289.01
639.05	55696.56
639.24	55669.93
639.44	55565.49
639.63	55973.03
639.83	55686.32
640.02	55868.59
640.22	56104.10
640.41	56282.28
640.61	55956.65
640.80	55813.29
640.99	55651.50
641.19	56292.52
641.38	55927.98
641.58	55993.51
641.77	56208.55
641.97	55835.82
642.16	55930.03
642.36	56186.02
642.55	56612.00
642.74	55909.55
642.94	56525.99
643.13	56509.60
643.33	56497.31
643.52	56556.70
643.72	56380.58
643.91	56079.53
644.10	56114.34
644.30	56790.17
644.49	56030.38
644.69	56530.08
644.88	56439.97
645.08	56061.10
645.27	56134.82
645.46	56079.53
645.66	56310.95
645.85	55784.62
646.05	56536.23
646.24	56890.52
646.43	56712.35
646.63	56579.23
646.82	57072.79
647.02	56954.01
647.21	56786.08
647.40	56403.11
647.60	57199.77
647.79	56970.39
647.99	57085.08
648.18	56519.84
648.37	57582.74
648.57	57064.60
648.76	56657.06
648.96	56800.41
649.15	57144.47
649.34	57177.24
649.54	57207.96
649.73	56501.41
649.92	57183.38
650.12	56857.76
650.31	57363.60
650.51	57220.25
650.70	57384.08
650.89	57136.28
651.09	57521.30
651.28	57687.18
651.47	57199.77
651.67	57324.69
651.86	57863.31
652.06	57119.90
652.25	57089.18
652.44	57623.70
652.64	56968.35
652.83	57017.50
653.02	56679.58
653.22	56956.06
653.41	57105.56
653.60	57142.42
653.80	57164.95
653.99	57595.03
654.18	57455.76
654.38	57177.24
654.57	57519.25
654.76	57685.14
654.96	57408.66
655.15	57330.84
655.34	57316.50
655.54	57132.18
655.73	57795.73
655.92	57457.81
656.12	57355.41
656.31	57400.47
656.50	58053.77
656.70	57676.94
656.89	57846.93
657.08	57623.70
657.28	57369.75
657.47	57275.54
657.66	57963.66
657.86	57400.47
658.05	57750.67
658.24	58004.62
658.43	57332.89
658.63	57951.37
658.82	58096.78
659.01	57857.17
659.21	58053.77
659.40	58080.39
659.59	57623.70
659.79	57973.90
659.98	57750.67
660.17	58094.73
660.36	57998.48
660.56	57668.75
660.75	57588.88
660.94	57879.69
661.14	57693.33
661.33	58074.25
661.52	57898.12
661.71	58379.40
661.91	58072.20
662.10	57552.02
662.29	57898.12
662.49	57691.28
662.68	57910.41
662.87	58080.39
663.06	58205.32
663.26	57840.78
663.45	58549.38
663.64	57967.76
663.83	58539.14
664.03	58133.64
664.22	57959.56
664.41	58401.92
664.60	58078.35
664.80	58008.71
664.99	58049.67
665.18	57683.09
665.37	58018.95
665.57	58565.76
665.76	58201.22
665.95	58096.78
666.14	58483.84
666.34	58086.54
666.53	57808.01
666.72	58029.19
666.91	57527.44
667.11	58156.17
667.30	58066.06
667.49	58350.73
667.68	58444.93
667.87	57851.02
668.07	57914.51
668.26	57738.38
668.45	57904.27
668.64	57980.04
668.84	58731.65
669.03	58242.18
669.22	58070.15
669.41	58158.22
669.60	58227.85
669.80	58219.66
669.99	58326.15
670.18	58399.88
670.37	58141.83
670.57	58094.73
670.76	57797.77
670.95	58313.86
671.14	57998.48
671.33	57873.55
671.53	57914.51
671.72	58064.01
671.91	58168.46
672.10	57855.12
672.29	58324.10
672.48	57898.12
672.68	58260.62
672.87	58219.66
673.06	57914.51
673.25	57699.47
673.44	57851.02
673.64	57951.37
673.83	57765.01
674.02	57793.68
674.21	57648.27
674.40	57846.93
674.59	57304.21
674.79	57302.17
674.98	57152.66
675.17	57681.04
675.36	57603.22
675.55	57775.25
675.74	57519.25
675.94	57404.56
676.13	57638.03
676.32	57388.18
676.51	58131.59
676.70	58059.91
676.89	57480.34
677.08	57881.74
677.28	57509.01
677.47	58111.11
677.66	58006.67
677.85	57836.69
678.04	57734.29
678.23	58004.62
678.42	57848.97
678.62	57722.00
678.81	58068.11
679.00	57343.12
679.19	58272.90
679.38	57648.27
679.57	57382.04
679.76	57488.53
679.96	57562.26
680.15	58002.57
680.34	57717.90
680.53	57402.52
680.72	57670.80
680.91	57769.10
681.10	57777.29
681.29	57881.74
681.48	57015.45
681.68	57644.18
681.87	57484.43
682.06	57250.97
682.25	57259.16
682.44	57111.70
682.63	57160.86
682.82	56859.80
683.01	57291.93
683.20	57134.23
683.39	57001.11
683.59	56921.24
683.78	56874.14
683.97	56792.22
684.16	57353.36
684.35	56814.75
684.54	57273.49
684.73	56949.92
684.92	56202.41
685.11	56657.06
685.30	56822.94
685.49	57066.65
685.69	56515.75
685.88	56833.18
686.07	57058.46
686.26	56638.62
686.45	56671.39
686.64	56921.24
686.83	56882.33
687.02	56636.58
687.21	56790.17
687.40	56673.44
687.59	56720.54
687.78	56495.27
687.97	56661.15
688.16	56087.72
688.35	56376.48
688.54	55991.47
688.74	56454.31
688.93	56386.72
689.12	56358.05
689.31	56573.09
689.50	56542.37
689.69	55997.61
689.88	55649.45
690.07	56437.92
690.26	55975.08
690.45	56448.16
690.64	56009.90
690.83	56304.80
691.02	56161.45
691.21	56028.33
691.40	55684.27
691.59	56212.65
691.78	56128.68
691.97	56317.09
692.16	55905.45
692.35	56091.82
692.54	56173.73
692.73	55985.32
692.92	56145.06
693.11	55590.06
693.30	55751.85
693.49	55649.45
693.68	55526.58
693.87	55762.09
694.06	55151.80
694.25	55719.09
694.44	55510.19
694.63	55506.10
694.82	55465.14
695.01	55291.06
695.20	55243.96
695.39	55315.64
695.58	55407.79
695.77	55047.35
695.96	55499.95
696.15	55180.47
696.34	55293.11
696.53	55465.14
696.72	55200.95
696.91	55147.70
697.10	55067.83
697.29	55268.53
697.48	55311.54
697.67	54858.94
697.86	54621.37
698.05	54598.85
698.24	55155.89
698.43	54740.16
698.62	54500.54
698.81	54588.61
699.00	55059.64
699.19	54518.98
699.38	54777.02
699.57	54584.51
699.76	54729.92
699.95	54375.62
700.14	54494.40
700.32	54359.23
700.51	54158.53
700.70	54529.22
700.89	54772.92
701.08	54232.26
701.27	54527.17
701.46	54510.78
701.65	53736.65
701.84	54242.50
702.03	54146.25
702.22	54109.38
702.41	54064.33
702.60	54490.30
702.79	53828.81
702.98	53675.21
703.17	53767.37
703.35	53841.10
703.54	53206.23
703.73	53705.93
703.92	53974.22
704.11	53728.46
704.30	53433.55
704.49	53511.38
704.68	53089.49
704.87	53916.87
705.06	53560.53
705.25	53322.96
705.43	53388.50
705.62	53800.14
705.81	52987.10
706.00	53484.75
706.19	53056.73
706.38	53204.18
706.57	53142.74
706.76	53402.83
706.95	53036.25
707.14	52993.24
707.32	52876.51
707.51	52626.65
707.70	53204.18
707.89	52997.34
708.08	52528.35
708.27	52925.66
708.46	53351.63
708.65	52720.86
708.84	53275.86
709.02	53220.56
709.21	52913.37
709.40	52686.04
709.59	52479.20
709.78	52602.08
709.97	52874.46
710.16	52337.89
710.34	52303.07
710.53	52667.61
710.72	52626.65
710.91	52698.33
711.10	52550.88
711.29	52557.02
711.48	52518.11
711.66	52303.07
711.85	51723.50
712.04	52573.41
712.23	52118.76
712.42	51991.78
712.61	52108.52
712.80	52088.04
712.98	51969.26
713.17	51782.89
713.36	52133.09
713.55	51944.68
713.74	51520.75
713.93	52049.13
714.11	51926.25
714.30	51750.12
714.49	51213.55
714.68	51782.89
714.87	51463.41
715.06	51811.56
715.24	51291.38
715.43	51496.17
715.62	51352.82
715.81	51229.94
716.00	51684.59
716.18	51299.57
716.37	51008.76
716.56	50769.15
716.75	51229.94
716.94	50726.14
717.12	50515.20
717.31	51125.49
717.50	51365.10
717.69	51209.46
717.88	50447.61
718.06	50863.35
718.25	51258.61
718.44	50115.84
718.63	50570.49
718.82	50953.46
719.00	50373.89
719.19	50615.55
719.38	50251.01
719.57	50466.05
719.76	49714.44
719.94	50140.42
720.13	49831.18
720.32	50066.69
720.51	49698.06
720.69	50177.28
720.88	49632.52
721.07	49792.26
721.26	49442.06
721.44	49849.61
721.63	49685.77
721.82	49304.85
722.01	49329.42
722.20	49489.16
722.38	49196.31
722.57	48995.60
722.76	49233.17
722.95	49210.64
723.13	48866.58
723.32	48643.35
723.51	48872.73
723.70	48768.28
723.88	49102.10
724.07	48741.66
724.26	49018.13
724.44	48500.00
724.63	48966.93
724.82	48764.18
725.01	48219.42
725.19	48639.26
725.38	48532.76
725.57	48747.80
725.76	48680.22
725.94	48155.94
726.13	48127.27
726.32	48379.17
726.51	48170.27
726.69	48493.85
726.88	48248.10
727.07	48305.44
727.25	47789.35
727.44	48239.90
727.63	47990.05
727.82	48354.59
728.00	48006.44
728.19	48178.46
728.38	48258.34
728.56	47697.19
728.75	48297.25
728.94	47938.85
729.12	48031.01
729.31	48248.10
729.50	48233.76
729.69	48559.39
729.87	47824.17
730.06	47990.05
730.25	48155.94
730.43	47820.07
730.62	47762.73
730.81	48223.52
730.99	47871.27
731.18	48209.18
731.37	47822.12
731.55	47904.04
731.74	48002.34
731.93	48067.87
732.11	47791.40
732.30	47748.39
732.49	47783.21
732.67	47602.99
732.86	47844.65
733.05	47664.42
733.23	47486.25
733.42	47578.41
733.61	47519.02
733.79	47863.08
733.98	47785.25
734.17	47611.18
734.35	47502.64
734.54	47363.37
734.73	47971.62
734.91	47752.49
735.10	47711.53
735.29	47691.05
735.47	47625.51
735.66	47439.15
735.84	47539.50
736.03	47680.81
736.22	47824.17
736.40	47275.31
736.59	47506.73
736.78	47596.84
736.96	47205.68
737.15	47641.90
737.33	46929.20
737.52	46695.74
737.71	47387.95
737.89	46884.15
738.08	46763.32
738.27	46800.18
738.45	47672.62
738.64	47023.41
738.82	46849.33
739.01	47084.85
739.20	47011.12
739.38	46959.92
739.57	47437.10
739.75	47043.89
739.94	47027.51
740.13	47035.70
740.31	46636.34
740.50	46800.18
740.68	47074.61
740.87	46740.79
741.06	46650.68
741.24	46648.63
741.43	46658.87
741.61	46601.53
741.80	46660.92
741.99	46329.15
742.17	46404.92
742.36	46492.99
742.54	46058.82
742.73	46253.37
742.91	46951.73
743.10	46228.80
743.29	46601.53
743.47	46744.89
743.66	46363.96
743.84	46622.01
744.03	46130.50
744.21	46161.22
744.40	46730.55
744.59	46144.83
744.77	46519.61
744.96	46392.64
745.14	46392.64
745.33	46208.32
745.51	46490.94
745.70	46374.20
745.88	46185.79
746.07	45958.47
746.26	46077.25
746.44	45894.98
746.63	45794.63
746.81	45974.85
747.00	45876.55
747.18	46079.30
747.37	45811.01
747.55	46040.39
747.74	45976.90
747.92	45634.89
748.11	45725.00
748.29	45978.95
748.48	45776.20
748.66	46130.50
748.85	45704.52
749.03	45794.63
749.22	45518.15
749.41	45141.33
749.59	45806.92
749.78	45469.00
749.96	44764.50
750.15	45126.99
750.33	45514.06
750.52	45188.43
750.70	45137.23
750.89	45055.31
751.07	44803.41
751.26	44936.53
751.44	44938.58
751.63	45137.23
751.81	45026.64
752.00	45204.81
752.18	45092.18
752.37	44825.94
752.55	44424.54
752.74	44897.62
752.92	44416.35
753.10	44158.30
753.29	44795.22
753.47	44606.81
753.66	44193.12
753.84	44889.43
754.03	44526.94
754.21	43861.35
754.40	44432.73
754.58	44547.42
754.77	44565.85
754.95	44647.77
755.14	44041.57
755.32	44506.46
755.51	43877.73
755.69	44016.99
755.88	44328.28
756.06	44006.75
756.24	43947.36
756.43	43920.74
756.61	44260.70
756.80	44000.61
756.98	44105.06
757.17	44213.60
757.35	44211.55
757.54	43767.14
757.72	44326.24
757.90	43930.98
758.09	43834.72
758.27	43726.18
758.46	43271.53
758.64	43885.92
758.83	43976.03
759.01	44082.53
759.19	43664.74
759.38	43427.18
759.56	43988.32
759.75	43728.23
759.93	43611.49
760.12	43091.31
760.30	43269.48
760.48	43556.20
760.67	43267.44
760.85	43509.10
761.04	43558.25
761.22	43539.82
761.40	43519.34
761.59	43355.50
761.77	43201.90
761.96	43406.70
762.14	43007.34
762.32	42651.00
762.51	42945.90
762.69	42841.46
762.88	43128.17
763.06	42933.62
763.24	43162.99
763.43	42982.77
763.61	43003.25
763.80	42800.50
763.98	42859.89
764.16	42898.80
764.35	42708.34
764.53	42626.42
764.72	43007.34
764.90	42689.91
765.08	42808.69
765.27	42614.13
765.45	42651.00
765.63	42452.34
765.82	42669.43
766.00	42280.31
766.18	42104.19
766.37	42626.42
766.55	42503.54
766.74	42478.97
766.92	42243.45
767.10	42442.10
767.29	42222.97
767.47	41864.58
767.65	42134.91
767.84	41719.17
768.02	42208.64
768.20	41528.71
768.39	42139.00
768.57	42132.86
768.75	41604.49
768.94	41897.34
769.12	41977.22
769.30	41786.75
769.49	41614.72
769.67	41500.04
769.85	41375.11
770.04	41690.50
770.22	41285.00
770.40	41285.00
770.59	41680.26
770.77	41637.25
770.95	41325.96
771.14	41092.49
771.32	40818.07
771.50	40699.28
771.69	40932.75
771.87	41237.90
772.05	41264.52
772.24	40881.55
772.42	41055.63
772.60	40627.60
772.78	40711.57
772.97	40367.51
773.15	40906.13
773.33	40648.08
773.52	40510.87
773.70	40576.40
773.88	41082.25
774.07	40664.47
774.25	40842.64
774.43	40965.52
774.61	40670.61
774.80	40846.74
774.98	40766.87
775.16	40979.85
775.34	40922.51
775.53	40611.22
775.71	41334.15
775.89	41213.32
776.08	40510.87
776.26	41360.78
776.44	40922.51
776.62	40834.45
776.81	40613.27
776.99	41201.04
777.17	40910.22
777.35	41192.84
777.54	41305.48
777.72	40996.24
777.90	41016.72
778.08	41166.22
778.27	41477.51
778.45	41473.42
778.63	41219.47
778.81	41231.75
779.00	41876.86
779.18	41231.75
779.36	41391.50
779.54	41729.41
779.73	41299.34
779.91	41328.01
780.09	41620.87
780.27	41555.33
780.46	41751.94
780.64	41676.16
780.82	41588.10
781.00	41418.12
781.19	41932.16
781.37	41997.70
781.55	41721.22
781.73	42388.86
781.91	41606.53
782.10	41362.82
782.28	41846.15
782.46	42030.46
782.64	42024.32
782.82	41739.65
783.01	42253.69
783.19	41909.63
783.37	42452.34
783.55	42036.61
783.74	42069.37
783.92	41940.35
784.10	42292.60
784.28	42182.01
784.46	41782.66
784.64	41952.64
784.83	42124.67
785.01	42200.44
785.19	42524.02
785.37	42046.85
785.55	42014.08
785.74	41729.41
785.92	41932.16
786.10	42429.82
786.28	41846.15
786.46	41727.36
786.64	41837.95
786.83	42016.13
787.01	41917.82
787.19	41823.62
787.37	41590.15
787.55	41600.39
787.74	41338.25
787.92	41250.19
788.10	41348.49
788.28	41223.56
788.46	41684.36
788.64	41538.95
788.82	41895.30
789.01	41389.45
789.19	41534.85
789.37	41700.74
789.55	41461.13
789.73	40811.92
789.91	41285.00
790.09	41340.30
790.28	41004.43
790.46	40738.19
790.64	41139.60
790.82	40928.66
791.00	40879.50
791.18	40703.38
791.36	40662.42
791.55	40752.53
791.73	40895.89
791.91	40474.01
792.09	40367.51
792.27	40336.79
792.45	40232.35
792.63	40101.28
792.81	40252.83
793.00	39837.09
793.18	40111.52
793.36	39841.18
793.54	40175.00
793.72	39669.15
793.90	39359.91
794.08	39720.35
794.26	39933.34
794.44	39212.46
794.62	39148.97
794.81	39660.96
794.99	39271.85
795.17	39337.38
795.35	39007.66
795.53	39065.00
795.71	39339.43
795.89	39447.97
796.07	38385.08
796.25	39024.04
796.43	38614.45
796.61	38442.42
796.80	38090.17
796.98	38462.90
797.16	38133.18
797.34	38503.86
797.52	38245.82
797.70	38278.58
797.88	38272.44
798.06	37795.26
798.24	38147.51
798.42	38143.42
798.60	37887.42
798.78	37819.84
798.96	38231.48
799.14	37739.97
799.32	37608.90
799.51	37322.18
799.69	37832.13
799.87	37463.49
800.05	37184.97
800.23	37113.29
800.41	37066.19
800.59	37303.75
800.77	36996.56
800.95	36660.69
801.13	36660.69
801.31	36605.39
801.49	36816.33
801.67	36251.09
801.85	36986.32
802.03	36126.17
802.21	36335.06
802.39	35847.64
802.57	36464.08
802.75	36486.61
802.93	35837.41
803.11	36197.85
803.29	35962.33
803.47	35710.43
803.65	35952.09
803.83	35917.28
804.01	35763.68
804.19	35347.94
804.37	35395.04
804.55	35345.89
804.73	35456.48
804.91	35212.77
805.09	35438.05
805.27	35010.03
805.45	35263.97
805.63	35261.93
805.81	34905.58
805.99	34958.83
806.17	34971.11
806.35	34815.47
806.53	34981.35
806.71	34606.58
806.89	34913.77
807.07	34649.58
807.25	34684.40
807.43	34555.38
807.61	34567.66
807.79	34334.20
807.97	34164.21
808.15	34123.26
808.33	33732.09
808.51	33930.75
808.69	33934.84
808.87	33969.66
809.05	33457.67
809.23	33588.74
809.41	33601.02
809.59	33707.52
809.77	33805.82
809.95	33441.28
810.13	33863.16
810.31	33500.67
810.49	33285.64
810.67	33299.97
810.84	33390.08
811.02	33095.18
811.20	32572.94
811.38	33259.01
811.56	32607.76
811.74	33154.57
811.92	32620.05
812.10	32886.28
812.28	32822.80
812.46	32957.96
812.64	32779.79
812.82	32423.44
813.00	32701.96
813.18	32673.29
813.36	32321.04
813.53	32187.92
813.71	32208.40
813.89	32155.16
814.07	32333.33
814.25	32421.39
814.43	32159.25
814.61	32050.71
814.79	31809.05
814.97	31665.69
815.15	31794.71
815.33	31723.04
815.50	31727.13
815.68	31551.01
815.86	31841.82
816.04	31477.28
816.22	31094.31
816.40	31299.11
816.58	31383.07
816.76	31272.48
816.94	31211.04
817.11	31399.46
817.29	31024.68
817.47	31139.36
817.65	31016.49
817.83	31145.51
818.01	30873.13
818.19	30932.52
818.37	30682.67
818.54	30633.52
818.72	30793.26
818.90	30539.31
819.08	30586.41
819.26	30574.13
819.44	30543.41
819.62	30541.36
819.80	30361.14
819.97	29963.83
820.15	30225.97
820.33	30074.42
820.51	30461.49
820.69	30086.71
820.87	30047.80
821.05	30121.52
821.22	29683.26
821.40	29961.78
821.58	29920.82
821.76	29783.61
821.94	29871.67
822.12	29990.45
822.29	29775.42
822.47	29627.96
822.65	30127.67
822.83	29679.16
823.01	29673.02
823.19	29453.89
823.36	29748.79
823.54	29296.19
823.72	29322.82
823.90	29138.50
824.08	29359.68
824.25	29570.62
824.43	29228.61
824.61	29201.99
824.79	28997.19
824.97	28980.81
825.15	29122.12
825.32	29400.64
825.50	29132.36
825.68	28966.47
825.86	28960.33
826.04	29148.74
826.21	29072.96
826.39	28972.61
826.57	28653.13
826.75	28862.02
826.93	28489.29
827.10	28462.67
827.28	28499.53
827.46	28646.99
827.64	28089.94
827.81	28401.23
827.99	28554.83
828.17	28407.37
828.35	28380.75
828.53	28292.69
828.70	28026.45
828.88	27897.43
829.06	28198.48
829.24	28292.69
829.41	28034.64
829.59	28411.47
829.77	28087.89
829.95	28108.37
830.12	28018.26
830.30	27924.05
830.48	28180.05
830.66	27792.98
830.84	28106.32
831.01	27590.24
831.19	27680.35
831.37	27772.50
831.55	27639.39
831.72	27485.79
831.90	27465.31
832.08	27209.31
832.25	27526.75
832.43	27614.81
832.61	27473.50
832.79	27485.79
832.96	27493.98
833.14	27450.97
833.32	27418.21
833.50	27137.63
833.67	27213.41
833.85	27289.18
834.03	26891.88
834.20	27094.63
834.38	27225.70
834.56	27268.70
834.74	27033.19
834.91	27143.78
835.09	26969.70
835.27	26642.03
835.44	26707.56
835.62	26695.27
835.80	26719.85
835.98	26682.98
836.15	26996.32
836.33	26617.45
836.51	26576.49
836.68	26535.53
836.86	26560.11
837.04	26486.38
837.21	26353.26
837.39	26564.20
837.57	26566.25
837.75	26463.85
837.92	26218.10
838.10	26148.46
838.28	26041.97
838.45	26246.77
838.63	26306.16
838.81	26181.23
838.98	26207.86
839.16	25958.00
839.34	26046.07
839.51	25941.62
839.69	25843.32
839.87	25828.98
840.04	25822.84
840.22	25931.38
840.40	25810.55
840.57	25482.88
840.75	25818.74
840.93	25374.33
841.10	25613.95
841.28	25845.37
841.46	25718.39
841.63	25663.10
841.81	25366.14
841.98	25454.20
842.16	25157.25
842.34	25478.78
842.51	25523.83
842.69	25316.99
842.87	25312.89
843.04	25226.88
843.22	25175.68
843.40	24944.26
843.57	25302.65
843.75	25079.43
843.92	25151.10
844.10	25106.05
844.28	25087.62
844.45	25159.30
844.63	25046.66
844.81	25206.40
844.98	25261.69
845.16	24927.88
845.33	24979.07
845.51	24827.53
845.69	24741.51
845.86	24854.15
846.04	24688.26
846.21	24667.78
846.39	24532.62
846.57	24346.25
846.74	24761.99
846.92	24524.43
847.09	24446.60
847.27	24471.18
847.45	24379.02
847.62	24618.63
847.80	24675.98
847.97	24510.09
848.15	24174.22
848.32	24198.80
848.50	24497.80
848.68	23975.57
848.85	24071.82
849.03	23922.32
849.20	24155.79
849.38	24194.70
849.56	24225.42
849.73	23926.42
849.91	23766.68
850.08	24016.53
850.26	23733.91
850.43	23916.18
850.61	23602.84
850.78	23551.64
850.96	23948.95
851.14	23393.95
851.31	23840.40
851.49	23639.70
851.66	23531.16
851.84	23942.80
852.01	23537.30
852.19	23715.48
852.36	23570.07
852.54	23375.52
852.71	23088.80
852.89	23565.98
853.07	23291.55
853.24	23316.12
853.42	23361.18
853.59	23221.92
853.77	23533.21
853.94	23318.17
854.12	23729.81
854.29	23156.38
854.47	23269.02
854.64	22941.35
854.82	23172.77
854.99	23246.49
855.17	22875.81
855.34	22886.05
855.52	23240.35
855.69	22927.01
855.87	22681.25
856.04	22525.61
856.22	22777.51
856.39	22742.69
856.57	22728.36
856.74	22656.68
856.92	22759.08
857.09	22783.65
857.27	22402.73
857.44	22908.58
857.62	22474.41
857.79	22480.55
857.97	22881.95
858.14	22351.53
858.32	22447.79
858.49	22511.27
858.67	22421.16
858.84	22292.14
859.02	22314.67
859.19	22169.26
859.37	22560.42
859.54	22183.60
859.72	22179.50
859.89	22189.74
860.06	22290.09
860.24	22038.19
860.41	22120.11
860.59	21659.32
860.76	21952.18
860.94	21753.52
861.11	21851.83
861.29	22060.72
861.46	21810.87
861.64	21620.41
861.81	21475.00
861.98	21653.17
862.16	21538.49
862.33	21507.77
862.51	21518.01
862.68	22087.34
862.86	21632.69
863.03	21620.41
863.21	21554.87
863.38	21556.92
863.55	21421.75
863.73	21550.78
863.90	21300.92
864.08	21614.26
864.25	21491.38
864.43	21292.73
864.60	21528.25
864.77	21208.76
864.95	21362.36
865.12	21200.57
865.30	21153.47
865.47	21192.38
865.64	20889.28
865.82	21069.50
865.99	21212.86
866.17	21098.17
866.34	21096.13
866.51	20711.11
866.69	21024.45
866.86	20922.05
867.04	20960.96
867.21	20731.59
867.38	20876.99
867.56	20833.99
867.73	20631.24
867.91	20534.98
868.08	20762.31
868.25	20365.00
868.43	20451.02
868.60	20309.71
868.78	20530.89
868.95	20553.41
869.12	20340.43
869.30	20043.47
869.47	20274.89
869.64	20063.95
869.82	20414.15
869.99	20063.95
870.16	20156.11
870.34	20025.04
870.51	20453.06
870.69	20070.09
870.86	20192.97
871.03	20162.25
871.21	19754.71
871.38	19896.02
871.55	19949.26
871.73	19834.58
871.90	19588.82
872.07	19484.37
872.25	19541.72
872.42	19738.32
872.59	19547.86
872.77	19554.01
872.94	19556.05
873.11	19623.64
873.29	19584.73
873.46	19486.42
873.63	19490.52
873.81	19404.50
873.98	19267.29
874.15	19291.87
874.33	18990.81
874.50	19164.89
874.67	19011.29
874.85	19148.51
875.02	19044.06
875.19	19107.55
875.37	19033.82
875.54	18601.70
875.71	18837.22
875.88	18697.95
876.06	19003.10
876.23	18697.95
876.40	18849.50
876.58	18493.16
876.75	18734.82
876.92	18421.48
877.10	18630.37
877.27	18335.46
877.44	18110.19
877.61	18353.90
877.79	18216.68
877.96	18188.01
878.13	18267.88
878.31	18147.05
878.48	18290.41
878.65	18276.07
878.82	18054.89
879.00	18325.22
879.17	18228.97
879.34	17983.21
879.51	18085.61
879.69	18233.07
879.86	17848.05
880.03	17829.62
880.21	17891.06
880.38	17864.43
880.55	17925.87
880.72	17782.51
880.90	17841.90
881.07	17610.48
881.24	17880.82
881.41	17782.51
881.59	17850.10
881.76	17594.10
881.93	17657.59
882.10	17446.65
882.28	17368.82
882.45	17727.22
882.62	17483.51
882.79	17489.65
882.96	17237.75
883.14	17606.39
883.31	17315.58
883.48	17061.63
883.65	17159.93
883.83	17180.41
884.00	17293.05
884.17	17194.75
884.34	17319.67
884.51	17073.92
884.69	17217.27
884.86	17028.86
885.03	17041.15
885.20	16805.63
885.38	16916.22
885.55	16985.85
885.72	17063.68
885.89	17039.10
886.06	16738.05
886.24	16975.61
886.41	16862.97
886.58	17147.64
886.75	16934.65
886.92	16897.79
887.10	16928.51
887.27	16729.86
887.44	16912.13
887.61	16875.26
887.78	16873.21
887.95	16803.58
888.13	16840.45
888.30	16670.47
888.47	16559.88
888.64	16508.68
888.81	16484.10
888.99	16490.24
889.16	16391.94
889.33	16424.71
889.50	16393.99
889.67	16533.25
889.84	16350.98
890.01	16226.06
890.19	16215.82
890.36	16324.36
890.53	16125.71
890.70	16152.33
890.87	16262.92
891.04	16164.62
891.22	16119.56
891.39	16011.02
891.56	15953.68
891.73	15894.29
891.90	15646.48
892.07	15906.57
892.24	15687.44
892.42	15707.92
892.59	15937.29
892.76	15687.44
892.93	15882.00
893.10	15636.24
893.27	15785.74
893.44	15658.77
893.61	15429.40
893.79	15847.18
893.96	15580.95
894.13	15679.25
894.30	15853.33
894.47	15763.22
894.64	15752.98
894.81	15617.81
894.98	15654.67
895.15	15671.06
895.33	15542.03
895.50	15601.43
895.67	15607.57
895.84	15582.99
896.01	15658.77
896.18	15230.74
896.35	15589.14
896.52	15374.10
896.69	15294.23
896.86	15621.91
897.04	15372.05
897.21	15421.20
897.38	15277.85
897.55	15550.23
897.72	15474.45
897.89	15410.96
898.06	15585.04
898.23	15478.55
898.40	15544.08
898.57	15402.77
898.74	15585.04
898.91	15333.14
899.08	15322.90
899.26	15122.20
899.43	15388.44
899.60	15150.87
899.77	15398.68
899.94	15320.85
900.11	15099.67
900.28	15488.79
900.45	15269.66
900.62	15152.92
900.79	15537.94
900.96	15240.98
901.13	15165.21
901.30	15339.29
901.47	15298.33
901.64	15419.16
901.81	15189.78
901.98	15195.93
902.15	15451.92
902.32	15322.90
902.49	15333.14
902.66	15435.54
902.83	15058.71
903.01	15298.33
903.18	15206.17
903.35	15103.77
903.52	14964.51
903.69	15286.04
903.86	15396.63
904.03	15279.89
904.20	15286.04
904.37	15441.68
904.54	15013.66
904.71	15036.19
904.88	15261.46
905.05	15003.42
905.22	15191.83
905.39	15142.68
905.56	15144.73
905.73	15064.86
905.90	15339.29
906.07	15144.73
906.24	15193.88
906.41	15144.73
906.58	15251.22
906.75	15202.07
906.92	15056.67
907.09	15056.67
907.26	15320.85
907.43	14921.50
907.60	14972.70
907.77	15054.62
907.93	15134.49
908.10	15009.56
908.27	15253.27
908.44	14960.41
908.61	14929.69
908.78	14935.84
908.95	14954.27
909.12	14984.99
909.29	14825.25
909.46	14888.73
909.63	15046.43
909.80	14919.45
909.97	15050.52
910.14	14952.22
910.31	15159.06
910.48	14780.19
910.65	14946.08
910.82	14896.92
910.99	14966.56
911.16	14718.75
911.33	14931.74
911.50	14827.29
911.66	14745.38
911.83	15027.99
912.00	14817.05
912.17	14739.23
912.34	14655.26
912.51	14585.63
912.68	14546.72
912.85	14475.04
913.02	14671.65
913.19	14624.54
913.36	14511.91
913.53	14534.43
913.70	14413.60
913.86	14671.65
914.03	14303.01
914.20	14487.33
914.37	14296.87
914.54	14415.65
914.71	14188.33
914.88	14423.84
915.05	14214.95
915.22	14337.83
915.39	14257.96
915.55	14186.28
915.72	13965.10
915.89	14065.45
916.06	14130.98
916.23	13807.41
916.40	13895.47
916.57	14057.26
916.74	13618.99
916.91	13799.21
917.07	13635.38
917.24	13852.46
917.41	14008.11
917.58	13555.51
917.75	13877.04
917.92	13319.99
918.09	13766.45
918.26	13676.34
918.42	13512.50
918.59	13598.51
918.76	13293.37
918.93	13188.92
919.10	13418.29
919.27	13238.07
919.44	13367.09
919.60	13166.39
919.77	13172.54
919.94	13307.70
920.11	13102.90
920.28	13215.54
920.45	13080.38
920.61	12959.55
920.78	12943.16
920.95	13080.38
921.12	12887.87
921.29	12756.80
921.46	12947.26
921.62	12674.88
921.79	12791.61
921.96	12578.62
922.13	12726.08
922.30	12709.69
922.47	12468.03
922.63	12576.58
922.80	12382.02
922.97	12431.17
923.14	12312.39
923.31	12445.51
923.47	12279.62
923.64	12572.48
923.81	12275.52
923.98	12480.32
924.15	12099.40
924.32	12226.37
924.48	12183.37
924.65	12044.10
924.82	11700.05
924.99	11708.24
925.15	11874.12
925.32	11904.84
925.49	11544.40
925.66	11786.06
925.83	11654.99
925.99	11648.85
926.16	11722.57
926.33	11642.70
926.50	11493.20
926.67	11587.41
926.83	11489.10
927.00	11214.68
927.17	11241.30
927.34	11251.54
927.50	11333.46
927.67	11353.94
927.84	11077.46
928.01	11110.23
928.17	11122.52
928.34	11077.46
928.51	10817.37
928.68	11016.02
928.84	10905.43
929.01	10872.67
929.18	10649.44
929.35	10532.70
929.51	10860.38
929.68	10561.37
929.85	10647.39
930.02	10536.80
930.18	10631.01
930.35	10475.36
930.52	10481.50
930.69	10393.44
930.85	10432.35
931.02	10219.36
931.19	10164.07
931.36	10069.86
931.52	10002.28
931.69	10088.29
931.86	10018.66
932.02	10127.21
932.19	9787.24
932.36	10014.57
932.53	9981.80
932.69	9881.45
932.86	9881.45
933.03	9893.74
933.19	9750.38
933.36	9787.24
933.53	9860.97
933.70	9572.21
933.86	9465.71
934.03	9570.16
934.20	9322.35
934.36	9432.94
934.53	9394.03
934.70	9166.71
934.86	9158.52
935.03	9052.02
935.20	8953.72
935.36	8826.75
935.53	8933.24
935.70	8892.28
935.86	8791.93
936.03	8728.44
936.20	8603.52
936.36	8433.54
936.53	8511.36
936.70	8482.69
936.86	8507.26
937.03	8372.10
937.20	8247.17
937.36	8175.49
937.53	7989.13
937.70	7909.26
937.86	7866.25
938.03	7636.88
938.20	7944.07
938.36	7434.13
938.53	7522.19
938.70	7528.33
938.86	7509.90
939.03	7352.21
939.20	7358.35
939.36	7184.27
939.53	7026.58
939.70	7253.91
939.86	7079.83
940.03	6799.26
940.19	6750.10
940.36	6614.94
940.53	6754.20
940.69	6723.48
940.86	6553.50
941.03	6365.09
941.19	6172.58
941.36	6297.50
941.52	6367.13
941.69	6150.05
941.86	6328.22
942.02	6223.78
942.19	6156.19
942.35	6113.19
942.52	6008.74
942.69	5881.77
942.85	5834.66
943.02	5730.22
943.18	5975.97
943.35	5803.94
943.52	5832.62
943.68	5672.87
943.85	5754.79
944.01	5701.54
944.18	5623.72
944.35	5605.29
944.51	5572.52
944.68	5361.58
944.84	5447.60
945.01	5449.64
945.17	5439.40
945.34	5322.67
945.51	5439.40
945.67	5316.53
945.84	5367.73
946.00	5318.57
946.17	5416.88
946.33	5234.61
946.50	5400.49
946.67	5308.34
946.83	5156.79
947.00	5257.14
947.16	5246.90
947.33	5277.62
947.49	5207.98
947.66	5085.11
947.82	5332.91
947.99	5150.64
948.16	5349.29
948.32	5138.35
948.49	5320.62
948.65	5365.68
948.82	5183.41
948.98	5298.10
949.15	5009.33
949.31	5250.99
949.48	5316.53
949.64	5253.04
949.81	5158.83
949.97	5285.81
950.14	5308.34
950.30	5169.07
950.47	5320.62
950.63	5152.69
950.80	5281.71
950.96	5230.51
951.13	5218.22
951.30	5236.66
951.46	5189.55
951.63	5468.08
951.79	5222.32
951.96	5341.10
952.12	5255.09
952.29	5445.55
952.45	5173.17
952.62	5271.47
952.78	5445.55
952.94	5232.56
953.11	5193.65
953.27	5294.00
953.44	5412.78
953.60	5298.10
953.77	5300.14
953.93	5347.25
954.10	5271.47
954.26	5369.77
954.43	5250.99
954.59	5349.29
954.76	5466.03
954.92	5357.49
955.09	5486.51
955.25	5345.20
955.42	5361.58
955.58	5480.36
955.75	5386.16
955.91	5277.62
956.07	5414.83
956.24	5402.54
956.40	5441.45
956.57	5519.28
956.73	5320.62
956.90	5332.91
957.06	5361.58
957.23	5380.01
957.39	5435.31
957.56	5429.17
957.72	5408.69
957.88	5339.05
958.05	5474.22
958.21	5543.85
958.38	5361.58
958.54	5414.83
958.71	5455.79
958.87	5337.01
959.03	5439.40
959.20	5519.28
959.36	5263.28
959.53	5312.43
959.69	5294.00
959.85	5472.17
960.02	5318.57
960.18	5386.16
960.35	5416.88
960.51	5642.15
960.68	5451.69
960.84	5398.45
961.00	5394.35
961.17	5287.86
961.33	5382.06
961.50	5457.84
961.66	5576.62
961.82	5470.12
961.99	5416.88
962.15	5400.49
962.31	5287.86
962.48	5533.61
962.64	5418.93
962.81	5326.77
962.97	5345.20
963.13	5291.95
963.30	5277.62
963.46	5289.90
963.62	5320.62
963.79	5353.39
963.95	5320.62
964.12	5386.16
964.28	5388.21
964.44	5197.74
964.61	5388.21
964.77	5296.05
964.93	5365.68
965.10	5341.10
965.26	5361.58
965.42	5316.53
965.59	5339.05
965.75	5261.23
965.92	5414.83
966.08	5341.10
966.24	5287.86
966.41	5265.33
966.57	5420.97
966.73	5242.80
966.90	5316.53
967.06	5330.86
967.22	5089.20
967.39	5271.47
967.55	5181.36
967.71	5271.47
967.88	5173.17
968.04	5046.20
968.20	5228.46
968.37	5087.15
968.53	5138.35
968.69	5121.97
968.85	5089.20
969.02	5283.76
969.18	5062.58
969.34	5011.38
969.51	5263.28
969.67	5044.15
969.83	5158.83
970.00	5169.07
970.16	5058.48
970.32	5001.14
970.48	5097.39
970.65	5070.77
970.81	5040.05
970.97	5111.73
971.14	4986.80
971.30	5064.63
971.46	4833.21
971.63	4956.08
971.79	5029.81
971.95	4822.97
972.11	4859.83
972.28	4878.26
972.44	4992.95
972.60	4880.31
972.76	4923.32
972.93	4825.01
973.09	4951.99
973.25	4822.97
973.42	4784.06
973.58	4849.59
973.74	4870.07
973.90	4749.24
974.07	4689.85
974.23	4833.21
974.39	4827.06
974.55	4771.77
974.72	4767.67
974.88	4612.03
975.04	4786.10
975.20	4706.23
975.37	4685.75
975.53	4755.38
975.69	4814.77
975.85	4806.58
976.01	4708.28
976.18	4706.23
976.34	4827.06
976.50	4726.71
976.66	4722.62
976.83	4765.62
976.99	4657.08
977.15	4640.70
977.31	4550.59
977.47	4691.90
977.64	4782.01
977.80	4616.12
977.96	4591.55
978.12	4417.47
978.29	4558.78
978.45	4652.98
978.61	4546.49
978.77	4597.69
978.93	4556.73
979.10	4515.77
979.26	4509.63
979.42	4468.67
979.58	4362.17
979.74	4493.24
979.91	4396.99
980.07	4315.07
980.23	4493.24
980.39	4313.02
980.55	4450.24
980.71	4331.45
980.88	4251.58
981.04	4302.78
981.20	4247.49
981.36	4374.46
981.52	4286.40
981.68	4257.73
981.85	4333.50
982.01	4233.15
982.17	4247.49
982.33	4196.29
982.49	4376.51
982.65	4216.77
982.82	4227.01
982.98	4237.25
983.14	4145.09
983.30	4173.76
983.46	4302.78
983.62	4249.54
983.79	4253.63
983.95	4204.48
984.11	4163.52
984.27	4224.96
984.43	4067.27
984.59	4184.00
984.75	4161.47
984.91	4169.66
985.08	4151.23
985.24	4116.42
985.40	4093.89
985.56	4102.08
985.72	4181.95
985.88	4130.75
986.04	4042.69
986.20	4034.50
986.37	4059.07
986.53	4091.84
986.69	3997.64
986.85	3964.87
987.01	3872.71
987.17	4007.87
987.33	4018.11
987.49	3887.04
987.65	3958.72
987.82	4067.27
987.98	3805.13
988.14	3921.86
988.30	4024.26
988.46	3966.92
988.62	3909.57
988.78	3950.53
988.94	3925.96
989.10	3729.35
989.26	3841.99
989.42	3919.81
989.59	3764.17
989.75	3821.51
989.91	3899.33
990.07	3788.74
990.23	3790.79
990.39	3735.50
990.55	3803.08
990.71	3762.12
990.87	3829.70
991.03	3831.75
991.19	3766.21
991.35	3735.50
991.51	3727.30
991.67	3848.13
991.83	3721.16
992.00	3706.82
992.16	3739.59
992.32	3696.58
992.48	3753.93
992.64	3571.66
992.80	3661.77
992.96	3737.54
993.12	3557.32
993.28	3727.30
993.44	3604.42
993.60	3598.28
993.76	3657.67
993.92	3645.38
994.08	3622.86
994.24	3631.05
994.40	3526.60
994.56	3522.51
994.72	3616.71
994.88	3452.88
995.04	3502.03
995.20	3651.53
995.36	3528.65
995.52	3436.49
995.68	3448.78
995.84	3502.03
996.00	3512.27
996.16	3395.53
996.32	3444.68
996.48	3418.06
996.64	3579.85
996.80	3334.09
996.96	3395.53
997.12	3448.78
997.28	3373.00
997.44	3387.34
997.60	3401.68
997.76	3342.28
997.92	3440.59
998.08	3395.53
998.24	3227.60
998.40	3254.22
998.56	3418.06
998.72	3352.52
998.88	3340.24
999.04	3397.58
999.20	3461.07
999.36	3278.80
999.52	3375.05
999.68	3284.94
999.84	3270.61
1000.00	3190.74
1000.16	3311.57
1000.32	3270.61
1000.48	3395.53
1000.64	3172.30
1000.80	3297.23
1000.95	3074.00
1001.11	3246.03
1001.27	3196.88
1001.43	3223.50
1001.59	3176.40
1001.75	3096.53
1001.91	3164.11
1002.07	3157.97
1002.23	3141.58
1002.39	3065.81
1002.55	3121.10
1002.71	3110.86
1002.87	3053.52
1003.03	3010.51
1003.19	3127.25
1003.34	3100.62
1003.50	3153.87
1003.66	3110.86
1003.82	3168.21
1003.98	3045.33
1004.14	3065.81
1004.30	2971.60
1004.46	3002.32
1004.62	2977.75
1004.78	3043.28
1004.94	3049.43
1005.09	3088.34
1005.25	3157.97
1005.41	2994.13
1005.57	2998.23
1005.73	2971.60
1005.89	2897.88
1006.05	3071.95
1006.21	2998.23
1006.37	2934.74
1006.52	2904.02
1006.68	2895.83
1006.84	2973.65
1007.00	2926.55
1007.16	2967.51
1007.32	2914.26
1007.48	2871.25
1007.64	2928.60
1007.79	2820.05
1007.95	2830.29
1008.11	2926.55
1008.27	2920.40
1008.43	2891.73
1008.59	2811.86
1008.75	2951.12
1008.91	2787.29
1009.06	2820.05
1009.22	2811.86
1009.38	2762.71
1009.54	2854.87
1009.70	2762.71
1009.86	2670.55
1010.01	2879.44
1010.17	2789.33
1010.33	2795.48
1010.49	2809.81
1010.65	2846.68
1010.81	2662.36
1010.96	2768.85
1011.12	2719.70
1011.28	2719.70
1011.44	2742.23
1011.60	2787.29
1011.76	2713.56
1011.91	2772.95
1012.07	2682.84
1012.23	2645.98
1012.39	2641.88
1012.55	2691.03
1012.71	2678.74
1012.86	2650.07
1013.02	2641.88
1013.18	2572.25
1013.34	2519.00
1013.50	2707.41
1013.65	2598.87
1013.81	2553.82
1013.97	2465.75
1014.13	2578.39
1014.29	2557.91
1014.44	2752.47
1014.60	2625.50
1014.76	2576.34
1014.92	2486.23
1015.07	2568.15
1015.23	2660.31
1015.39	2525.15
1015.55	2531.29
1015.71	2551.77
1015.86	2574.30
1016.02	2527.19
1016.18	2387.93
1016.34	2555.86
1016.49	2535.39
1016.65	2553.82
1016.81	2473.95
1016.97	2475.99
1017.12	2592.73
1017.28	2400.22
1017.44	2408.41
1017.60	2551.77
1017.75	2527.19
1017.91	2510.81
1018.07	2424.80
1018.23	2519.00
1018.38	2363.36
1018.54	2426.84
1018.70	2424.80
1018.86	2396.12
1019.01	2355.16
1019.17	2469.85
1019.33	2531.29
1019.49	2461.66
1019.64	2432.99
1019.80	2361.31
1019.96	2533.34
1020.12	2432.99
1020.27	2267.10
1020.43	2328.54
1020.59	2475.99
1020.74	2428.89
1020.90	2379.74
1021.06	2357.21
1021.22	2355.16
1021.37	2346.97
1021.53	2322.40
1021.69	2410.46
1021.84	2207.71
1022.00	2295.77
1022.16	2338.78
1022.31	2377.69
1022.47	2353.12
1022.63	2314.20
1022.79	2246.62
1022.94	2289.63
1023.10	2322.40
1023.26	2295.77
1023.41	2271.20
1023.57	2275.29
1023.73	2328.54
1023.88	2265.05
1024.04	2244.57
1024.20	2148.32
1024.35	2355.16
1024.51	2273.25
1024.67	2342.88
1024.82	2240.48
1024.98	2152.42
1025.14	2256.86
1025.29	2172.89
1025.45	2389.98
1025.61	2168.80
1025.76	2250.72
1025.92	2191.33
1026.08	2248.67
1026.23	2185.18
1026.39	2234.33
1026.55	2125.79
1026.70	2176.99
1026.86	2176.99
1027.02	2162.66
1027.17	2185.18
1027.33	2168.80
1027.48	2183.13
1027.64	2148.32
1027.80	2252.77
1027.95	2119.65
1028.11	2170.85
1028.27	2222.05
1028.42	2181.09
1028.58	2146.27
1028.73	2072.54
1028.89	2088.93
1029.05	2172.89
1029.20	2131.94
>>>>>End Processed Spectral Data<<<<<
