SpectraSuite Data File
++++++++++++++++++++++++++++++++++++
Date: Fri Jun 02 14:53:28 CEST 2017
User: INFO_000
Dark Spectrum Present: No
Reference Spectrum Present: No
Number of Sampled Component Spectra: 1
Spectrometers: USB4H00879
Integration Time (usec): 80000 (USB4H00879)
Spectra Averaged: 1 (USB4H00879)
Boxcar Smoothing: 0 (USB4H00879)
Correct for Electrical Dark: No (USB4H00879)
Strobe/Lamp Enabled: No (USB4H00879)
Correct for Detector Non-linearity: No (USB4H00879)
Correct for Stray Light: No (USB4H00879)
Number of Pixels in Processed Spectrum: 3648
>>>>>Begin Processed Spectral Data<<<<<
345.13	1253.36
345.34	1253.36
345.56	1253.36
345.78	1316.84
345.99	1284.08
346.21	1691.62
346.42	1779.68
346.64	1636.33
346.86	1849.32
347.07	1607.66
347.29	1744.87
347.50	1624.04
347.72	1642.47
347.94	1744.87
348.15	1572.84
348.37	1671.14
348.59	1712.10
348.80	1650.66
349.02	1744.87
349.23	1855.46
349.45	1714.15
349.67	1798.12
349.88	1667.05
350.10	1886.18
350.31	1705.96
350.53	1771.49
350.75	1953.76
350.96	1691.62
351.18	1738.73
351.39	1785.83
351.61	1761.25
351.82	1851.36
352.04	1763.30
352.26	1724.39
352.47	1882.08
352.69	1791.97
352.90	1632.23
353.12	1712.10
353.34	1722.34
353.55	1861.60
353.77	1789.92
353.98	1746.92
354.20	1726.44
354.41	1822.69
354.63	1863.65
354.85	1937.38
355.06	1824.74
355.28	1617.90
355.49	1767.40
355.71	1779.68
355.92	1806.31
356.14	1802.21
356.35	1691.62
356.57	1679.33
356.79	1818.60
357.00	1716.20
357.22	1910.75
357.43	1773.54
357.65	1789.92
357.86	1705.96
358.08	1798.12
358.29	1759.21
358.51	1802.21
358.72	1822.69
358.94	1751.01
359.16	1789.92
359.37	1751.01
359.59	1779.68
359.80	1871.84
360.02	1863.65
360.23	1789.92
360.45	1888.23
360.66	1773.54
360.88	1777.64
361.09	1720.29
361.31	1822.69
361.52	1845.22
361.74	1937.38
361.95	1929.19
362.17	1775.59
362.38	1851.36
362.60	1873.89
362.81	1771.49
363.03	1808.36
363.24	1789.92
363.46	1900.52
363.67	1794.02
363.89	1759.21
364.10	1865.70
364.32	1763.30
364.53	1826.79
364.75	1699.81
364.96	1820.64
365.18	1814.50
365.39	1781.73
365.61	1744.87
365.82	1937.38
366.04	1830.88
366.25	1748.97
366.47	1814.50
366.68	1871.84
366.90	1871.84
367.11	1865.70
367.33	1830.88
367.54	1949.67
367.76	1787.88
367.97	1957.86
368.19	1791.97
368.40	1845.22
368.62	1810.40
368.83	1794.02
369.05	1892.32
369.26	1779.68
369.48	1726.44
369.69	1769.44
369.91	1753.06
370.12	1845.22
370.33	1871.84
370.55	1701.86
370.76	1765.35
370.98	1904.61
371.19	1890.28
371.41	1839.08
371.62	1896.42
371.84	1845.22
372.05	1892.32
372.27	1853.41
372.48	1947.62
372.69	1892.32
372.91	1992.67
373.12	1931.23
373.34	1837.03
373.55	1888.23
373.77	1918.95
373.98	1839.08
374.20	1923.04
374.41	2047.97
374.62	1843.17
374.84	1941.47
375.05	1867.75
375.27	1918.95
375.48	1900.52
375.70	1972.19
375.91	1986.53
376.12	2101.22
376.34	1892.32
376.55	1910.75
376.77	1990.63
376.98	1896.42
377.19	1832.93
377.41	1867.75
377.62	2019.30
377.84	2052.06
378.05	2193.37
378.27	2082.78
378.48	1986.53
378.69	2119.65
378.91	2068.45
379.12	1998.82
379.34	1996.77
379.55	2045.92
379.76	1996.77
379.98	1900.52
380.19	1953.76
380.41	2000.87
380.62	2125.79
380.83	1910.75
381.05	1966.05
381.26	2211.81
381.47	1937.38
381.69	2045.92
381.90	2140.13
382.12	2013.15
382.33	2025.44
382.54	2117.60
382.76	2107.36
382.97	2101.22
383.19	1953.76
383.40	2187.23
383.61	2090.98
383.83	2179.04
384.04	2023.39
384.25	2138.08
384.47	2101.22
384.68	2111.46
384.89	2058.21
385.11	2127.84
385.32	2158.56
385.54	2189.28
385.75	2078.69
385.96	2179.04
386.18	2107.36
386.39	2170.85
386.60	2113.50
386.82	2162.66
387.03	2197.47
387.24	2193.37
387.46	2224.09
387.67	2289.63
387.88	2314.20
388.10	2269.15
388.31	2281.44
388.52	2387.93
388.74	2414.56
388.95	2240.48
389.16	2260.96
389.38	2234.33
389.59	2359.26
389.80	2301.92
390.02	2394.08
390.23	2392.03
390.44	2299.87
390.66	2340.83
390.87	2293.72
391.08	2435.03
391.30	2516.95
391.51	2519.00
391.72	2449.37
391.94	2447.32
392.15	2549.72
392.36	2381.79
392.58	2461.66
392.79	2521.05
393.00	2531.29
393.22	2580.44
393.43	2664.41
393.64	2627.54
393.85	2625.50
394.07	2578.39
394.28	2637.78
394.49	2639.83
394.71	2719.70
394.92	2658.26
395.13	2615.26
395.35	2584.54
395.56	2516.95
395.77	2799.57
395.98	2697.17
396.20	2779.09
396.41	2807.77
396.62	2877.40
396.84	2686.94
397.05	2605.02
397.26	2701.27
397.47	2834.39
397.69	2717.65
397.90	2996.18
398.11	2830.29
398.32	2795.48
398.54	2781.14
398.75	2824.15
398.96	2922.45
399.18	2957.27
399.39	2879.44
399.60	2957.27
399.81	2899.92
400.03	2824.15
400.24	3129.30
400.45	2854.87
400.66	3069.91
400.88	2967.51
401.09	3065.81
401.30	2895.83
401.51	3033.04
401.73	3012.56
401.94	3047.38
402.15	2977.75
402.36	3188.69
402.58	3125.20
402.79	3069.91
403.00	3190.74
403.21	3149.78
403.43	3209.17
403.64	3297.23
403.85	3100.62
404.06	3219.41
404.27	3082.19
404.49	3133.39
404.70	3098.58
404.91	3321.81
405.12	3200.98
405.34	3182.54
405.55	3403.72
405.76	3082.19
405.97	3239.89
406.19	3346.38
406.40	3149.78
406.61	3385.29
406.82	3375.05
407.03	3276.75
407.25	3344.33
407.46	3469.26
407.67	3344.33
407.88	3407.82
408.09	3293.13
408.31	3286.99
408.52	3381.20
408.73	3346.38
408.94	3368.91
409.15	3373.00
409.37	3442.64
409.58	3530.70
409.79	3452.88
410.00	3649.48
410.21	3469.26
410.43	3346.38
410.64	3430.35
410.85	3487.69
411.06	3594.19
411.27	3639.24
411.48	3477.45
411.70	3502.03
411.91	3635.14
412.12	3657.67
412.33	3618.76
412.54	3534.79
412.76	3848.13
412.97	3741.64
413.18	3555.27
413.39	3629.00
413.60	3733.45
413.81	3751.88
414.03	3678.15
414.24	3653.58
414.45	3813.32
414.66	3663.82
414.87	3829.70
415.08	3715.02
415.30	3788.74
415.51	3833.80
415.72	3715.02
415.93	3846.09
416.14	3813.32
416.35	3821.51
416.56	3837.89
416.78	3864.52
416.99	3866.56
417.20	3858.37
417.41	3997.64
417.62	3919.81
417.83	3919.81
418.04	4030.40
418.26	3940.29
418.47	3854.28
418.68	3928.00
418.89	4040.64
419.10	4057.03
419.31	3964.87
419.52	4077.51
419.73	4151.23
419.95	4143.04
420.16	3983.30
420.37	3901.38
420.58	4192.19
420.79	3956.68
421.00	4155.33
421.21	4163.52
421.42	4155.33
421.63	4136.90
421.85	4069.31
422.06	4229.06
422.27	4147.14
422.48	4227.01
422.69	4184.00
422.90	4304.83
423.11	4253.63
423.32	4331.45
423.53	4370.37
423.75	4300.73
423.96	4515.77
424.17	4468.67
424.38	4507.58
424.59	4356.03
424.80	4704.18
425.01	4618.17
425.22	4497.34
425.43	4493.24
425.64	4716.47
425.85	4706.23
426.06	4612.03
426.28	4618.17
426.49	4552.63
426.70	4501.44
426.91	4722.62
427.12	4743.10
427.33	4671.42
427.54	4648.89
427.75	4841.40
427.96	4962.23
428.17	4802.49
428.38	4710.33
428.59	4999.09
428.80	4831.16
429.01	4929.46
429.23	4917.17
429.44	5154.74
429.65	5015.48
429.86	5007.28
430.07	4902.84
430.28	4921.27
430.49	5054.39
430.70	5132.21
430.91	5242.80
431.12	5164.98
431.33	5218.22
431.54	5226.42
431.75	5218.22
431.96	5220.27
432.17	5230.51
432.38	5271.47
432.59	5353.39
432.80	5294.00
433.01	5228.46
433.22	5345.20
433.43	5416.88
433.64	5369.77
433.85	5420.97
434.06	5519.28
434.27	5320.62
434.49	5601.19
434.70	5550.00
434.91	5506.99
435.12	5535.66
435.33	5595.05
435.54	5574.57
435.75	5476.27
435.96	5472.17
436.17	5427.12
436.38	5601.19
436.59	5533.61
436.80	5556.14
437.01	5816.23
437.22	5910.44
437.43	5787.56
437.64	5511.08
437.85	5824.42
438.06	5785.51
438.27	5744.55
438.48	5644.20
438.69	5916.58
438.90	5799.85
439.11	5840.81
439.32	5930.92
439.53	5887.91
439.74	5947.30
439.95	6002.60
440.16	5787.56
440.37	5971.88
440.57	5793.70
440.78	5869.48
440.99	5912.49
441.20	5949.35
441.41	5851.05
441.62	6195.11
441.83	5896.10
442.04	6205.35
442.25	6051.75
442.46	6035.36
442.67	6244.26
442.88	6645.66
443.09	6221.73
443.30	6264.74
443.51	6150.05
443.72	6406.05
443.93	6332.32
444.14	6438.81
444.35	6170.53
444.56	6428.57
444.77	6348.70
444.98	6436.77
445.19	6506.40
445.40	6504.35
445.61	6451.10
445.81	6483.87
446.02	6580.12
446.23	6404.00
446.44	6453.15
446.65	6571.93
446.86	6500.25
447.07	6588.32
447.28	6774.68
447.49	6711.19
447.70	6682.52
447.91	6690.71
448.12	6809.50
448.33	6961.05
448.54	6862.74
448.74	6756.25
448.95	6823.83
449.16	6621.08
449.37	7106.45
449.58	6836.12
449.79	7098.26
450.00	6782.87
450.21	6993.81
450.42	7057.30
450.63	7212.95
450.84	7030.68
451.05	7167.89
451.25	7079.83
451.46	7022.48
451.67	7262.10
451.88	7258.00
452.09	7227.28
452.30	7128.98
452.51	7298.96
452.72	7423.89
452.93	7567.24
453.13	7268.24
453.34	7153.55
453.55	7282.58
453.76	7466.89
453.97	7638.92
454.18	7446.41
454.39	7712.65
454.60	7470.99
454.81	7634.83
455.01	7817.10
455.22	7593.87
455.43	7573.39
455.64	7919.50
455.85	7989.13
456.06	8032.13
456.27	7911.30
456.48	7815.05
456.68	7989.13
456.89	7962.50
457.10	8107.91
457.31	7901.06
457.52	7925.64
457.73	8058.76
457.94	8349.57
458.14	8038.28
458.35	8451.97
458.56	8259.46
458.77	8222.59
458.98	8433.54
459.19	8384.38
459.39	8449.92
459.60	8677.24
459.81	8451.97
460.02	8630.14
460.23	8546.17
460.44	8898.42
460.65	8839.03
460.85	8632.19
461.06	8947.58
461.27	8583.04
461.48	9011.06
461.69	9054.07
461.89	8798.07
462.10	8859.51
462.31	8968.06
462.52	8961.91
462.73	8789.88
462.94	9265.01
463.14	9342.83
463.35	9267.06
463.56	9547.63
463.77	9543.53
463.98	9230.20
464.18	9334.64
464.39	9588.59
464.60	9561.97
464.81	9756.52
465.02	9623.41
465.23	9856.87
465.43	9777.00
465.64	9987.94
465.85	9836.39
466.06	9637.74
466.27	10110.82
466.47	10129.25
466.68	10127.21
466.89	10176.36
467.10	10241.89
467.30	10159.97
467.51	10264.42
467.72	10600.29
467.93	10215.27
468.14	10510.18
468.34	10592.09
468.55	10516.32
468.76	10714.97
468.97	10563.42
469.17	10979.16
469.38	10846.04
469.59	11018.07
469.80	10876.76
470.01	11013.98
470.21	11040.60
470.42	11155.29
470.63	11202.39
470.84	11310.93
471.04	11482.96
471.25	11382.61
471.46	11413.33
471.67	11521.87
471.87	11599.70
472.08	11769.68
472.29	11882.31
472.50	11530.06
472.70	11808.59
472.91	11700.05
473.12	11947.85
473.33	12328.77
473.53	12238.66
473.74	12207.94
473.95	12365.64
474.16	12662.59
474.36	12490.56
474.57	12734.27
474.78	12738.37
474.99	12693.31
475.19	12676.93
475.40	13031.23
475.61	13254.45
475.81	13338.42
476.02	13301.56
476.23	13053.75
476.44	13307.70
476.64	13504.31
476.85	13530.93
477.06	13594.42
477.27	13870.89
477.47	13897.52
477.68	13680.43
477.89	14151.46
478.09	14087.98
478.30	13922.09
478.51	14090.02
478.71	14421.80
478.92	14333.73
479.13	14548.77
479.34	14606.11
479.54	14673.70
479.75	14821.15
479.96	14987.04
480.16	15060.76
480.37	15224.60
480.58	15159.06
480.78	15288.09
480.99	15374.10
481.20	15312.66
481.41	15644.43
481.61	15722.26
481.82	15611.67
482.03	15814.41
482.23	15623.95
482.44	15888.14
482.65	16330.50
482.85	16408.33
483.06	16350.98
483.27	16424.71
483.47	16582.40
483.68	16520.96
483.89	16592.64
484.09	16396.04
484.30	16672.51
484.51	17166.07
484.71	16992.00
484.92	17051.39
485.13	17331.96
485.33	17497.84
485.54	17334.01
485.75	17626.87
485.95	17659.63
486.16	17786.61
486.37	17782.51
486.57	17778.42
486.78	18011.89
486.98	17856.24
487.19	18265.83
487.40	18001.65
487.60	18317.03
487.81	18519.78
488.02	18319.08
488.22	18427.62
488.43	18849.50
488.64	18501.35
488.84	18976.48
489.05	19029.73
489.25	19056.35
489.46	19199.71
489.67	19121.88
489.87	19447.51
490.08	19547.86
490.29	19439.32
490.49	19726.04
490.70	19744.47
490.90	20049.61
491.11	19576.53
491.32	19648.21
491.52	20010.70
491.73	20117.20
491.94	20285.13
492.14	20268.75
492.35	20545.22
492.55	20559.56
492.76	20655.81
492.97	20643.52
493.17	20602.57
493.38	20999.87
493.58	21106.37
493.79	20899.52
494.00	21036.74
494.20	21083.84
494.41	21475.00
494.61	21481.14
494.82	21311.16
495.02	21429.94
495.23	21675.70
495.44	21905.07
495.64	21900.98
495.85	21966.51
496.05	21980.85
496.26	21982.90
496.47	22363.82
496.67	22124.21
496.88	22103.73
497.08	22302.38
497.29	22582.95
497.49	22230.70
497.70	22810.28
497.91	22462.12
498.11	22824.61
498.32	22687.40
498.52	22691.49
498.73	23252.64
498.93	23119.52
499.14	22912.67
499.34	23236.25
499.55	23453.34
499.76	23152.29
499.96	23195.29
500.17	23525.02
500.37	23522.97
500.58	23586.46
500.78	23539.35
500.99	23785.11
501.19	24176.27
501.40	23836.31
501.60	23903.89
501.81	23967.38
502.02	24102.54
502.22	23965.33
502.43	24110.74
502.63	24333.96
502.84	24499.85
503.04	24329.87
503.25	24170.13
503.45	24565.39
503.66	24721.03
503.86	24821.38
504.07	24663.69
504.27	24630.92
504.48	25179.78
504.68	24825.48
504.89	25151.10
505.09	25003.65
505.30	25173.63
505.50	25052.80
505.71	25153.15
505.91	25462.40
506.12	25263.74
506.32	25259.65
506.53	25269.89
506.73	25335.42
506.94	25302.65
507.14	25667.19
507.35	25857.65
507.55	25820.79
507.76	25724.54
507.96	25826.93
508.17	26031.73
508.37	25949.81
508.58	26201.71
508.78	25939.57
508.99	26371.69
509.19	26191.47
509.40	26060.40
509.60	26478.19
509.81	26474.09
510.01	26279.54
510.22	26689.13
510.42	26336.88
510.63	26570.35
510.83	26736.23
511.04	26377.84
511.24	26631.79
511.44	26789.48
511.65	27010.66
511.85	27100.77
512.06	27115.11
512.26	27203.17
512.47	27182.69
512.67	27274.85
512.88	27348.57
513.08	27207.26
513.29	27373.15
513.49	27166.31
513.69	27332.19
513.90	27303.52
514.10	27555.42
514.31	27698.78
514.51	27567.71
514.72	27698.78
514.92	27690.59
515.13	27969.11
515.33	27881.05
515.53	28008.02
515.74	28059.22
515.94	27856.47
516.15	28196.43
516.35	27989.59
516.56	28360.27
516.76	28202.58
516.96	28192.34
517.17	28212.82
517.37	28489.29
517.58	28405.33
517.78	28692.04
517.99	28524.11
518.19	28745.29
518.39	28892.74
518.60	28984.90
518.80	28986.95
519.01	29210.18
519.21	29138.50
519.41	29357.63
519.62	29148.74
519.82	29232.71
520.03	29640.25
520.23	29716.03
520.43	28911.17
520.64	29699.64
520.84	29830.71
521.05	29435.45
521.25	30197.30
521.45	29824.57
521.66	29935.16
521.86	29986.36
522.07	29902.39
522.27	30262.83
522.47	29990.45
522.68	30590.51
522.88	30164.53
523.08	30711.34
523.29	30195.25
523.49	30524.97
523.70	30617.13
523.90	30332.47
524.10	30924.33
524.31	30977.58
524.51	30735.92
524.71	31362.59
524.92	31055.40
525.12	31315.49
525.33	31366.69
525.53	31475.23
525.73	31589.92
525.94	31403.55
526.14	31596.06
526.34	31772.19
526.55	31772.19
526.75	32071.19
526.95	32271.89
527.16	31774.24
527.36	32136.73
527.56	32478.74
527.77	32382.48
527.97	32626.19
528.17	32486.93
528.38	32790.03
528.58	32955.91
528.78	32843.27
528.99	32781.84
529.19	33334.79
529.39	32839.18
529.60	33308.16
529.80	33492.48
530.00	32908.81
530.21	33801.72
530.41	33893.88
530.61	33656.32
530.82	33736.19
531.02	33877.50
531.22	33977.85
531.43	33986.04
531.63	34127.35
531.83	33967.61
532.04	34450.93
532.24	34264.57
532.44	34711.02
532.64	34723.31
532.85	34680.30
533.05	34393.59
533.25	34657.78
533.46	34758.13
533.66	35091.94
533.86	34964.97
534.07	35605.98
534.27	35263.97
534.47	35694.05
534.67	35407.33
534.88	35266.02
535.08	35464.67
535.28	36077.02
535.49	35704.29
535.69	35864.03
535.89	35816.93
536.09	36113.88
536.30	36376.02
536.50	36247.00
536.70	36361.69
536.91	36275.67
537.11	36212.18
537.31	36357.59
537.51	36531.67
537.72	37000.65
537.92	37203.40
538.12	37207.50
538.32	37041.61
538.53	37357.00
538.73	36971.98
538.93	37209.54
539.13	37076.43
539.34	37182.92
539.54	37561.79
539.74	37764.54
539.94	37469.64
540.15	37361.09
540.35	37852.61
540.55	37567.94
540.75	37739.97
540.96	37873.09
541.16	38092.22
541.36	37993.92
541.56	38231.48
541.77	38340.02
541.97	38172.09
542.17	38503.86
542.37	38600.12
542.58	38266.30
542.78	38370.74
542.98	38665.65
543.18	38704.56
543.38	39284.14
543.59	38778.29
543.79	38907.31
543.99	39091.63
544.19	39079.34
544.40	38749.62
544.60	39423.40
544.80	39513.51
545.00	39355.82
545.20	39585.19
545.41	38952.37
545.61	39097.77
545.81	39550.37
546.01	39734.69
546.21	39464.36
546.42	39343.53
546.62	39933.34
546.82	39527.84
547.02	39837.09
547.22	39849.38
547.43	39695.78
547.63	39812.51
547.83	39945.63
548.03	40215.96
548.23	40093.08
548.44	39990.69
548.64	40469.91
548.84	40269.21
549.04	40113.56
549.24	40723.86
549.45	41008.53
549.65	40455.57
549.85	40416.66
550.05	40662.42
550.25	40865.17
550.45	40971.66
550.66	40809.87
550.86	40449.43
551.06	41098.64
551.26	40953.23
551.46	41155.98
551.66	41315.72
551.87	40971.66
552.07	41237.90
552.27	41194.89
552.47	41330.06
552.67	41405.83
552.87	41411.98
553.07	41893.25
553.28	41524.61
553.48	41424.26
553.68	41285.00
553.88	41534.85
554.08	41786.75
554.28	41667.97
554.48	41405.83
554.69	41981.31
554.89	41594.25
555.09	41862.53
555.29	41727.36
555.49	42055.04
555.69	42300.79
555.89	41870.72
556.10	42182.01
556.30	42169.72
556.50	42360.19
556.70	42108.29
556.90	42243.45
557.10	42589.56
557.30	42028.41
557.50	42481.02
557.70	42640.76
557.91	42773.88
558.11	42544.50
558.31	42730.87
558.51	42626.42
558.71	42794.36
558.91	42964.34
559.11	42442.10
559.31	42847.60
559.51	42616.18
559.72	42798.45
559.92	42945.90
560.12	42958.19
560.32	43314.54
560.52	42694.00
560.72	43343.21
560.92	43388.27
561.12	43515.24
561.32	43726.18
561.52	43093.36
561.72	43591.01
561.93	43566.44
562.13	43769.19
562.33	43351.40
562.53	43881.83
562.73	43513.19
562.93	43388.27
563.13	43623.78
563.33	43476.33
563.53	44004.70
563.73	44000.61
563.93	43668.84
564.13	44201.31
564.33	43492.71
564.53	43853.15
564.74	44242.27
564.94	43752.80
565.14	44203.36
565.34	43967.84
565.54	43654.50
565.74	44320.09
565.94	44621.14
566.14	44359.00
566.34	44158.30
566.54	44774.74
566.74	43984.22
566.94	45131.09
567.14	44795.22
567.34	44676.44
567.54	44701.01
567.74	45081.94
567.94	44555.61
568.14	45024.59
568.34	44938.58
568.54	44793.17
568.74	45090.13
568.94	44651.86
569.14	45512.01
569.34	45352.27
569.54	44774.74
569.75	44909.91
569.95	45038.93
570.15	45348.17
570.35	45151.57
570.55	45286.73
570.75	45294.92
570.95	45219.15
571.15	45479.24
571.35	45481.29
571.55	45997.38
571.75	45307.21
571.95	45579.59
572.15	45718.85
572.35	45808.96
572.55	45763.91
572.75	45393.23
572.95	45890.88
573.15	46155.07
573.35	45784.39
573.55	45634.89
573.75	45784.39
573.95	46026.05
574.15	45817.16
574.35	46175.55
574.55	45950.27
574.75	46228.80
574.95	46503.23
575.15	46341.44
575.34	46273.85
575.54	46380.35
575.74	46691.64
575.94	46474.55
576.14	46478.65
576.34	47113.52
576.54	46990.64
576.74	46705.98
576.94	46431.55
577.14	47320.37
577.34	47125.81
577.54	47023.41
577.74	46947.64
577.94	46796.09
578.14	47269.17
578.34	47637.80
578.54	46884.15
578.74	47217.97
578.94	47453.48
579.14	46900.53
579.34	47082.80
579.54	47691.05
579.74	47609.13
579.94	47766.82
580.13	47590.70
580.33	47678.76
580.53	47783.21
580.73	47959.33
580.93	47711.53
581.13	47469.87
581.33	48143.65
581.53	48000.29
581.73	48035.11
581.93	48100.64
582.13	48190.75
582.33	48411.93
582.53	48014.63
582.73	48172.32
582.92	48387.36
583.12	48434.46
583.32	48145.70
583.52	48170.27
583.72	48702.74
583.92	48383.26
584.12	48981.27
584.32	48936.21
584.52	48690.46
584.72	48377.12
584.92	48837.91
585.11	49321.23
585.31	48842.01
585.51	48870.68
585.71	48923.93
585.91	49405.20
586.11	49016.08
586.31	48698.65
586.51	48995.60
586.71	49087.76
586.91	49460.49
587.10	49431.82
587.30	49493.26
587.50	49380.62
587.70	49181.97
587.90	49003.80
588.10	49257.74
588.30	49636.62
588.50	50089.22
588.69	49517.84
588.89	49732.87
589.09	49769.74
589.29	49775.88
589.49	50404.61
589.69	49839.37
589.89	50115.84
590.08	49741.06
590.28	50197.76
590.48	49919.24
590.68	49833.22
590.88	49816.84
591.08	49777.93
591.28	49747.21
591.47	50599.16
591.67	50199.81
591.87	50103.56
592.07	50078.98
592.27	50287.87
592.47	50420.99
592.67	50289.92
592.86	50392.32
593.06	50425.09
593.26	50599.16
593.46	50074.88
593.66	50722.04
593.86	50652.41
594.05	50838.78
594.25	50765.05
594.45	50705.66
594.65	50578.68
594.85	50384.13
595.05	51113.20
595.24	50871.54
595.44	50599.16
595.64	51209.46
595.84	50920.70
596.04	51031.29
596.23	51287.28
596.43	51682.54
596.63	51242.23
596.83	50959.61
597.03	51358.96
597.22	51408.11
597.42	51514.61
597.62	51401.97
597.82	51356.91
598.02	51492.08
598.21	51766.51
598.41	50799.86
598.61	51434.74
598.81	51748.07
599.01	52057.32
599.20	51686.64
599.40	51870.95
599.60	51959.02
599.80	51918.06
600.00	51866.86
600.19	52038.89
600.39	51868.90
600.59	52350.18
600.79	52143.33
600.98	51707.12
601.18	52477.15
601.38	52622.56
601.58	52010.21
601.78	52255.97
601.97	52335.84
602.17	52561.12
602.37	52241.63
602.57	52393.18
602.76	52950.23
602.96	52733.15
603.16	52858.07
603.36	52368.61
603.55	52917.46
603.75	52790.49
603.95	53161.17
604.15	53058.77
604.34	53191.89
604.54	53179.60
604.74	52905.18
604.94	52770.01
605.13	53593.29
605.33	53134.55
605.53	53275.86
605.73	53484.75
605.92	52925.66
606.12	53535.95
606.32	53966.02
606.52	53478.61
606.71	53707.98
606.91	53662.93
607.11	53370.07
607.30	53820.62
607.50	53576.91
607.70	53918.92
607.90	53851.34
608.09	53697.74
608.29	53837.00
608.49	53929.16
608.68	53966.02
608.88	54125.77
609.08	54211.78
609.28	54179.01
609.47	53722.32
609.67	54502.59
609.87	54645.95
610.06	54629.57
610.26	54332.61
610.46	54539.46
610.66	53896.39
610.85	54320.32
611.05	54154.44
611.25	54506.69
611.44	54127.81
611.64	54514.88
611.84	54310.08
612.03	54547.65
612.23	54830.27
612.43	54359.23
612.62	54502.59
612.82	54822.08
613.02	54721.72
613.21	54856.89
613.41	54549.70
613.61	55203.00
613.80	54734.01
614.00	55063.74
614.20	55033.02
614.39	54740.16
614.59	54990.01
614.79	55149.75
614.98	54613.18
615.18	54809.79
615.38	54924.47
615.57	54695.10
615.77	55307.44
615.97	55174.33
616.16	55176.37
616.36	54881.47
616.56	55162.04
616.75	54996.15
616.95	55129.27
617.15	55338.16
617.34	54987.96
617.54	55104.70
617.74	55254.20
617.93	55112.89
618.13	55045.30
618.32	54752.44
618.52	54889.66
618.72	54975.67
618.91	55321.78
619.11	55024.82
619.31	55563.44
619.50	55372.98
619.70	54858.94
619.90	55590.06
620.09	55442.61
620.29	55348.40
620.48	55084.22
620.68	55489.71
620.88	54783.16
621.07	55137.46
621.27	55561.39
621.46	55008.44
621.66	55354.55
621.86	55393.46
622.05	55108.79
622.25	55862.44
622.44	55004.34
622.64	55479.47
622.84	55585.97
623.03	55293.11
623.23	55524.53
623.42	55135.41
623.62	55344.31
623.82	55893.16
624.01	55397.55
624.21	55291.06
624.40	55444.66
624.60	55710.89
624.80	55237.81
624.99	55223.48
625.19	54998.20
625.38	55571.63
625.58	55596.21
625.77	55313.59
625.97	55381.17
626.17	55256.24
626.36	55399.60
626.56	55297.20
626.75	54777.02
626.95	55809.20
627.14	55129.27
627.34	56016.04
627.54	55573.68
627.73	55921.83
627.93	55526.58
628.12	55071.93
628.32	55309.49
628.51	55755.95
628.71	55227.57
628.90	55870.64
629.10	55594.16
629.30	55475.38
629.49	55456.95
629.69	55211.19
629.88	55573.68
630.08	55508.14
630.27	55981.23
630.47	55702.70
630.66	55698.61
630.86	55583.92
631.05	55530.67
631.25	56239.27
631.44	55895.21
631.64	55563.44
631.84	55436.47
632.03	56427.68
632.23	55538.86
632.42	55792.81
632.62	56093.86
632.81	55696.56
633.01	55637.17
633.20	56224.93
633.40	55960.75
633.59	55887.02
633.79	55911.59
633.98	55667.89
634.18	56261.80
634.37	56155.30
634.57	56003.75
634.76	56480.93
634.96	55776.43
635.15	55235.77
635.35	55618.74
635.54	55372.98
635.74	55948.46
635.93	55407.79
636.13	56136.87
636.32	55817.39
636.52	55411.89
636.71	55952.55
636.91	55442.61
637.10	55833.77
637.30	56278.18
637.49	55735.47
637.69	55657.65
637.88	56358.05
638.08	55925.93
638.27	56335.52
638.46	55671.98
638.66	55903.40
638.85	55776.43
639.05	56013.99
639.24	56108.20
639.44	56048.81
639.63	56247.46
639.83	56147.11
640.02	55895.21
640.22	55698.61
640.41	56304.80
640.61	55530.67
640.80	55735.47
640.99	56075.43
641.19	56644.77
641.38	56202.41
641.58	55790.76
641.77	55936.17
641.97	55977.13
642.16	56089.77
642.36	56026.28
642.55	56487.07
642.74	55936.17
642.94	56849.56
643.13	56231.08
643.33	56229.03
643.52	56423.59
643.72	56126.63
643.91	56177.83
644.10	56263.85
644.30	56485.03
644.49	56249.51
644.69	56478.88
644.88	56358.05
645.08	56073.38
645.27	56591.52
645.46	56046.76
645.66	56482.98
645.85	56417.44
646.05	56534.18
646.24	56415.40
646.43	56548.51
646.63	56726.69
646.82	56779.93
647.02	56153.26
647.21	56902.81
647.40	56179.88
647.60	56792.22
647.79	56542.37
647.99	56968.35
648.18	56149.16
648.37	56655.01
648.57	56579.23
648.76	56181.93
648.96	56485.03
649.15	56370.34
649.34	56620.19
649.54	56591.52
649.73	56165.54
649.92	56935.58
650.12	56202.41
650.31	56775.84
650.51	56878.24
650.70	56538.27
650.89	56394.92
651.09	57132.18
651.28	56710.30
651.47	56931.48
651.67	56657.06
651.86	57048.22
652.06	56399.01
652.25	56820.89
652.44	56984.73
652.64	56288.42
652.83	56540.32
653.02	56757.41
653.22	56528.03
653.41	56235.17
653.60	56171.69
653.80	56865.95
653.99	56546.47
654.18	56669.34
654.38	56595.62
654.57	56517.79
654.76	56880.28
654.96	56566.94
655.15	56706.21
655.34	57005.21
655.54	56824.99
655.73	56677.54
655.92	56636.58
656.12	56362.15
656.31	56474.79
656.50	56714.40
656.70	56550.56
656.89	56276.13
657.08	56976.54
657.28	56749.21
657.47	56437.92
657.66	57050.27
657.86	56444.07
658.05	56562.85
658.24	56736.93
658.43	56630.43
658.63	56743.07
658.82	56824.99
659.01	56587.42
659.21	57103.51
659.40	56597.66
659.59	56806.56
659.79	57005.21
659.98	57064.60
660.17	56784.03
660.36	56605.86
660.56	56806.56
660.75	56874.14
660.94	56435.87
661.14	56601.76
661.33	56439.97
661.52	56544.42
661.71	56874.14
661.91	56480.93
662.10	56409.25
662.29	57029.79
662.49	57007.26
662.68	56745.12
662.87	56964.25
663.06	57058.46
663.26	56339.62
663.45	56792.22
663.64	56820.89
663.83	56698.01
664.03	56857.76
664.22	56921.24
664.41	56810.65
664.60	56728.73
664.80	56943.77
664.99	57021.59
665.18	56614.05
665.37	56607.90
665.57	56677.54
665.76	56724.64
665.95	56534.18
666.14	56595.62
666.34	56546.47
666.53	56972.44
666.72	56374.44
666.91	56669.34
667.11	56444.07
667.30	56851.61
667.49	56435.87
667.68	56657.06
667.87	56620.19
668.07	56931.48
668.26	56943.77
668.45	56976.54
668.64	56593.57
668.84	57164.95
669.03	56747.17
669.22	57015.45
669.41	56521.89
669.60	56777.89
669.80	56222.89
669.99	57089.18
670.18	56665.25
670.37	56444.07
670.57	56941.72
670.76	56745.12
670.95	57367.70
671.14	57009.31
671.33	56351.91
671.53	57164.95
671.72	56595.62
671.91	56837.28
672.10	56939.68
672.29	57216.15
672.48	56511.65
672.68	57099.42
672.87	56816.80
673.06	56865.95
673.25	56904.86
673.44	56378.53
673.64	56671.39
673.83	56978.59
674.02	56339.62
674.21	56540.32
674.40	56648.86
674.59	56360.10
674.79	56679.58
674.98	56005.80
675.17	56423.59
675.36	56464.55
675.55	56372.39
675.74	56319.14
675.94	56341.67
676.13	56714.40
676.32	56646.82
676.51	57126.04
676.70	56812.70
676.89	56648.86
677.08	57078.94
677.28	56251.56
677.47	57046.17
677.66	57246.87
677.85	56661.15
678.04	57201.82
678.23	56923.29
678.42	56845.47
678.62	56902.81
678.81	56716.45
679.00	56349.86
679.19	57181.34
679.38	56583.33
679.57	56589.47
679.76	56460.45
679.96	57040.03
680.15	56693.92
680.34	57197.72
680.53	56763.55
680.72	56777.89
680.91	57373.84
681.10	56628.38
681.29	56769.69
681.48	56251.56
681.68	56636.58
681.87	56532.13
682.06	56603.81
682.25	56325.28
682.44	56771.74
682.63	56861.85
682.82	56519.84
683.01	56251.56
683.20	56005.80
683.39	56671.39
683.59	56114.34
683.78	56487.07
683.97	56284.33
684.16	56554.66
684.35	56032.42
684.54	56261.80
684.73	56071.34
684.92	56132.78
685.11	56657.06
685.30	56294.56
685.49	56614.05
685.69	56693.92
685.88	56052.90
686.07	56468.64
686.26	56276.13
686.45	56714.40
686.64	56513.70
686.83	56153.26
687.02	56396.96
687.21	56693.92
687.40	56417.44
687.59	56374.44
687.78	56728.73
687.97	56347.81
688.16	56235.17
688.35	56468.64
688.54	56448.16
688.74	56431.78
688.93	56112.30
689.12	56491.17
689.31	56472.74
689.50	56382.63
689.69	55809.20
689.88	55434.42
690.07	55995.56
690.26	56130.73
690.45	56591.52
690.64	55839.92
690.83	55911.59
691.02	55876.78
691.21	56030.38
691.40	55784.62
691.59	56343.72
691.78	56370.34
691.97	56169.64
692.16	55878.83
692.35	56288.42
692.54	55522.48
692.73	55872.68
692.92	55493.81
693.11	55751.85
693.30	55696.56
693.49	55975.08
693.68	56175.78
693.87	55680.17
694.06	55088.31
694.25	55602.35
694.44	55649.45
694.63	55758.00
694.82	56073.38
695.01	55891.12
695.20	55409.84
695.39	55536.82
695.58	55733.42
695.77	55344.31
695.96	55200.95
696.15	55833.77
696.34	55098.55
696.53	55620.78
696.72	55458.99
696.91	55635.12
697.10	55964.84
697.29	55706.80
697.48	55688.37
697.67	55342.26
697.86	54844.60
698.05	55047.35
698.24	55493.81
698.43	55133.37
698.62	55448.75
698.81	55065.78
699.00	55710.89
699.19	54836.41
699.38	55237.81
699.57	54869.18
699.76	55805.10
699.95	54848.70
700.14	55078.07
700.32	54992.06
700.51	54770.88
700.70	55405.75
700.89	54949.05
701.08	54940.86
701.27	54774.97
701.46	55092.41
701.65	54179.01
701.84	54856.89
702.03	55051.45
702.22	54400.19
702.41	54580.42
702.60	54936.76
702.79	54523.07
702.98	54361.28
703.17	54461.63
703.35	54623.42
703.54	54154.44
703.73	54576.32
703.92	54389.95
704.11	54373.57
704.30	54377.67
704.49	54351.04
704.68	53894.35
704.87	54279.36
705.06	54365.38
705.25	54113.48
705.43	54873.27
705.62	54346.95
705.81	54088.90
706.00	53912.78
706.19	54125.77
706.38	53818.57
706.57	54189.25
706.76	54420.67
706.95	54195.40
707.14	53787.85
707.32	53875.91
707.51	53286.10
707.70	54086.85
707.89	53875.91
708.08	53740.75
708.27	53816.52
708.46	54138.05
708.65	53646.54
708.84	53896.39
709.02	53839.05
709.21	53945.54
709.40	53710.03
709.59	53357.78
709.78	53257.43
709.97	53533.90
710.16	53445.84
710.34	53652.69
710.53	53439.70
710.72	53433.55
710.91	53441.74
711.10	53712.08
711.29	53300.43
711.48	53318.87
711.66	53411.02
711.85	52917.46
712.04	53046.49
712.23	53122.26
712.42	53195.99
712.61	53202.13
712.80	52878.55
712.98	52950.23
713.17	52759.77
713.36	52688.09
713.55	52387.04
713.74	52520.16
713.93	52921.56
714.11	53107.93
714.30	52858.07
714.49	52671.71
714.68	52319.46
714.87	52528.35
715.06	52739.29
715.24	52348.13
715.43	52622.56
715.62	52268.26
715.81	52303.07
716.00	52307.17
716.18	52122.85
716.37	51983.59
716.56	51823.85
716.75	52311.27
716.94	52079.85
717.12	51238.13
717.31	52554.97
717.50	51549.42
717.69	51328.24
717.88	52145.38
718.06	52083.94
718.25	51918.06
718.44	51385.58
718.63	51688.68
718.82	51451.12
719.00	51649.77
719.19	51166.45
719.38	51180.79
719.57	50683.13
719.76	50742.52
719.94	50414.85
720.13	50996.47
720.32	50771.19
720.51	50959.61
720.69	50902.26
720.88	50668.79
721.07	50705.66
721.26	50636.03
721.44	50271.49
721.63	50478.33
721.82	50500.86
722.01	50265.34
722.20	50812.15
722.38	50234.63
722.57	49710.35
722.76	50377.98
722.95	49992.97
723.13	49507.60
723.32	50128.13
723.51	49569.04
723.70	49669.39
723.88	49751.30
724.07	49675.53
724.26	49925.38
724.44	49108.24
724.63	49743.11
724.82	49902.85
725.01	49427.73
725.19	49667.34
725.38	49325.33
725.57	49214.74
725.76	49376.53
725.94	49104.15
726.13	48870.68
726.32	49235.22
726.51	49083.67
726.69	49452.30
726.88	49149.20
727.07	49014.04
727.25	48928.02
727.44	48923.93
727.63	48919.83
727.82	49368.33
728.00	48856.34
728.19	48561.44
728.38	49265.94
728.56	48573.72
728.75	48475.42
728.94	48356.64
729.12	48901.40
729.31	48651.55
729.50	48598.30
729.69	49251.60
729.87	48643.35
730.06	48698.65
730.25	48661.79
730.43	48882.97
730.62	48432.41
730.81	48745.75
730.99	48764.18
731.18	48530.72
731.37	48370.97
731.55	48524.57
731.74	48577.82
731.93	48864.53
732.11	48512.28
732.30	48315.68
732.49	48405.79
732.67	48368.93
732.86	48780.57
733.05	48536.86
733.23	48123.17
733.42	48626.97
733.61	48037.16
733.79	48014.63
733.98	48821.53
734.17	48287.01
734.35	48143.65
734.54	48606.49
734.73	48446.75
734.91	48241.95
735.10	48059.68
735.29	48100.64
735.47	48049.44
735.66	48096.55
735.84	48106.79
736.03	48289.06
736.22	48289.06
736.40	47637.80
736.59	48274.72
736.78	47977.76
736.96	47478.06
737.15	47613.23
737.33	47641.90
737.52	47453.48
737.71	47746.34
737.89	47711.53
738.08	47011.12
738.27	47443.24
738.45	47471.92
738.64	47519.02
738.82	47314.22
739.01	47539.50
739.20	47465.77
739.38	47844.65
739.57	47934.76
739.75	47420.72
739.94	47471.92
740.13	47303.98
740.31	47224.11
740.50	46804.28
740.68	47170.86
740.87	47174.96
741.06	47043.89
741.24	47555.88
741.43	47064.37
741.61	47367.47
741.80	46970.16
741.99	46898.48
742.17	47183.15
742.36	46642.49
742.54	46331.20
742.73	46992.69
742.91	47123.76
743.10	46937.40
743.29	47017.27
743.47	46931.25
743.66	46802.23
743.84	46916.92
744.03	46740.79
744.21	46886.20
744.40	47029.55
744.59	46871.86
744.77	46376.25
744.96	46597.43
745.14	46476.60
745.33	46947.64
745.51	46689.59
745.70	46703.93
745.88	46665.02
746.07	46310.72
746.26	46224.70
746.44	46486.84
746.63	46355.77
746.81	46763.32
747.00	46198.08
747.18	46531.90
747.37	46548.28
747.55	46492.99
747.74	46873.91
747.92	45997.38
748.11	45978.95
748.29	46163.26
748.48	46507.32
748.66	46196.03
748.85	45946.18
749.03	46363.96
749.22	45610.31
749.41	45679.94
749.59	45718.85
749.78	45794.63
749.96	45194.57
750.15	45714.76
750.33	45854.02
750.52	45843.78
750.70	45681.99
750.89	45325.64
751.07	45024.59
751.26	45727.05
751.44	45561.16
751.63	45757.77
751.81	45565.26
752.00	45614.41
752.18	45819.20
752.37	45339.98
752.55	45086.03
752.74	45178.19
752.92	45174.09
753.10	45000.02
753.29	45202.77
753.47	44991.83
753.66	44916.05
753.84	45270.35
754.03	44703.06
754.21	44498.26
754.40	44944.72
754.58	45147.47
754.77	44967.25
754.95	44377.43
755.14	45174.09
755.32	44817.75
755.51	44483.93
755.69	44569.94
755.88	44639.57
756.06	44594.52
756.24	44875.09
756.43	44584.28
756.61	44363.10
756.80	44744.02
756.98	44129.63
757.17	44246.36
757.35	44485.98
757.54	44281.18
757.72	44344.67
757.90	44348.76
758.09	44344.67
758.27	44496.22
758.46	43916.64
758.64	44311.90
758.83	44283.23
759.01	44328.28
759.19	44346.72
759.38	44238.17
759.56	44178.78
759.75	44586.33
759.93	44156.25
760.12	44019.04
760.30	44279.13
760.48	43851.11
760.67	43998.56
760.85	44223.84
761.04	43933.03
761.22	43965.79
761.40	43720.04
761.59	43988.32
761.77	43543.91
761.96	43523.43
762.14	43787.62
762.32	43464.04
762.51	43521.38
762.69	43201.90
762.88	43480.42
763.06	43777.38
763.24	43810.15
763.43	43505.00
763.61	43263.34
763.80	43550.06
763.98	43316.59
764.16	43296.11
764.35	43228.52
764.53	42878.32
764.72	43105.65
764.90	43154.80
765.08	43416.94
765.27	42638.71
765.45	43150.70
765.63	42732.92
765.82	43558.25
766.00	42653.05
766.18	43177.33
766.37	42952.05
766.55	43113.84
766.74	42825.07
766.92	42749.30
767.10	42714.48
767.29	42452.34
767.47	42853.75
767.65	42628.47
767.84	42759.54
768.02	42966.38
768.20	42743.16
768.39	42718.58
768.57	42943.86
768.75	42448.25
768.94	42313.08
769.12	42454.39
769.30	42003.84
769.49	41915.78
769.67	42036.61
769.85	41948.54
770.04	42147.20
770.22	41985.41
770.40	41991.55
770.59	41907.58
770.77	42257.79
770.95	41989.50
771.14	41864.58
771.32	41727.36
771.50	41840.00
771.69	41516.42
771.87	42171.77
772.05	41551.24
772.24	41481.61
772.42	41395.59
772.60	41305.48
772.78	41227.66
772.97	41325.96
773.15	41301.39
773.33	41497.99
773.52	41282.95
773.70	41268.62
773.88	41657.73
774.07	41328.01
774.25	41577.86
774.43	41487.75
774.61	41506.18
774.80	41577.86
774.98	41328.01
775.16	41596.29
775.34	41452.94
775.53	41305.48
775.71	41700.74
775.89	41704.84
776.08	41647.49
776.26	41848.19
776.44	41753.99
776.62	41252.23
776.81	41575.81
776.99	41526.66
777.17	41952.64
777.35	41645.44
777.54	41860.48
777.72	41475.46
777.90	41639.30
778.08	42112.38
778.27	41739.65
778.45	42114.43
778.63	42077.57
778.81	41905.54
779.00	42573.17
779.18	42034.56
779.36	42153.34
779.54	42335.61
779.73	41964.93
779.91	42409.34
780.09	42190.20
780.27	42530.17
780.46	42159.48
780.64	42186.11
780.82	41956.74
781.00	42036.61
781.19	42511.74
781.37	42157.44
781.55	42012.03
781.73	42573.17
781.91	42345.85
782.10	42655.09
782.28	42636.66
782.46	42311.03
782.64	42925.42
782.82	42278.27
783.01	42677.62
783.19	42689.91
783.37	42603.89
783.55	42460.54
783.74	42835.31
783.92	42704.24
784.10	43183.47
784.28	42415.48
784.46	42403.19
784.64	42194.30
784.83	42360.19
785.01	42906.99
785.19	42802.55
785.37	42685.81
785.55	42517.88
785.74	42290.55
785.92	42239.36
786.10	42769.78
786.28	42198.40
786.46	42360.19
786.64	41936.26
786.83	42175.87
787.01	42638.71
787.19	42429.82
787.37	42261.88
787.55	42311.03
787.74	41915.78
787.92	41950.59
788.10	41837.95
788.28	41792.90
788.46	41889.15
788.64	41606.53
788.82	42093.95
789.01	41883.01
789.19	42380.67
789.37	42028.41
789.55	41792.90
789.73	41731.46
789.91	41641.35
790.09	41557.38
790.28	41633.16
790.46	41198.99
790.64	41561.48
790.82	41309.58
791.00	41547.14
791.18	41205.13
791.36	41190.80
791.55	41307.53
791.73	41094.54
791.91	40535.45
792.09	40883.60
792.27	40983.95
792.45	40697.24
792.63	40664.47
792.81	39986.59
793.00	40402.33
793.18	40353.18
793.36	40084.89
793.54	40271.26
793.72	40539.54
793.90	39910.82
794.08	39845.28
794.26	40183.19
794.44	39620.00
794.62	39679.39
794.81	39675.30
794.99	39847.33
795.17	39284.14
795.35	39450.02
795.53	39562.66
795.71	39773.60
795.89	38923.69
796.07	38532.53
796.25	38858.16
796.43	38512.05
796.61	38702.51
796.80	38923.69
796.98	38249.91
797.16	38542.77
797.34	38745.52
797.52	38643.12
797.70	38718.90
797.88	38221.24
798.06	37963.20
798.24	38270.39
798.42	38286.78
798.60	38090.17
798.78	37764.54
798.96	38106.55
799.14	37408.20
799.32	37594.56
799.51	37266.89
799.69	37875.13
799.87	37639.62
800.05	37176.78
800.23	37383.62
800.41	37021.13
800.59	37113.29
800.77	36740.56
800.95	36828.62
801.13	36804.05
801.31	36300.25
801.49	36845.01
801.67	36371.92
801.85	36568.53
802.03	36333.01
802.21	35986.91
802.39	36312.53
802.57	36208.09
802.75	36482.52
802.93	36425.17
803.11	36072.92
803.29	35841.50
803.47	35759.58
803.65	35714.53
803.83	35898.84
804.01	35542.50
804.19	35126.76
804.37	35118.57
804.55	35560.93
804.73	35421.67
804.91	35261.93
805.09	35022.31
805.27	35065.32
805.45	35245.54
805.63	34919.92
805.81	34987.50
805.99	35196.39
806.17	34790.89
806.35	34565.62
806.53	34215.41
806.71	34676.21
806.89	34252.28
807.07	34307.57
807.25	34405.88
807.43	34526.71
807.61	34209.27
807.79	34127.35
807.97	33930.75
808.15	33801.72
808.33	33504.77
808.51	33734.14
808.69	33873.40
808.87	33404.42
809.05	33326.60
809.23	33121.80
809.41	33154.57
809.59	33396.23
809.77	33402.37
809.95	33259.01
810.13	33340.93
810.31	33375.75
810.49	33334.79
810.67	32736.78
810.84	32720.40
811.02	32695.82
811.20	32284.18
811.38	32724.49
811.56	32525.84
811.74	32169.49
811.92	32392.72
812.10	32325.14
812.28	32423.44
812.46	32503.31
812.64	32212.50
812.82	32153.11
813.00	32208.40
813.18	31950.36
813.36	31598.11
813.53	31659.55
813.71	31999.51
813.89	31737.37
814.07	31641.12
814.25	31878.68
814.43	31647.26
814.61	31397.41
814.79	31428.13
814.97	31268.39
815.15	31546.91
815.33	30885.42
815.50	30795.31
815.68	31252.00
815.86	31127.08
816.04	30817.83
816.22	30893.61
816.40	30639.66
816.58	30606.89
816.76	30477.87
816.94	30701.10
817.11	30647.85
817.29	30735.92
817.47	30295.60
817.65	30500.40
817.83	30375.47
818.01	30217.78
818.19	30383.66
818.37	30359.09
818.54	30055.99
818.72	29558.33
818.90	30309.94
819.08	29976.12
819.26	30004.79
819.44	29890.10
819.62	29754.94
819.80	29787.71
819.97	29623.87
820.15	29697.59
820.33	29388.35
820.51	29599.29
820.69	29451.84
820.87	29283.91
821.05	29494.85
821.22	29091.40
821.40	29408.83
821.58	29290.05
821.76	29140.55
821.94	29431.36
822.12	29306.43
822.29	29376.06
822.47	28870.22
822.65	29228.61
822.83	29003.33
823.01	28962.37
823.19	29197.89
823.36	28511.82
823.54	28765.77
823.72	28552.78
823.90	28597.84
824.08	28409.42
824.25	28661.32
824.43	28347.98
824.61	28481.10
824.79	28677.71
824.97	28155.47
825.15	28448.33
825.32	28276.30
825.50	28040.79
825.68	27909.72
825.86	28292.69
826.04	28352.08
826.21	28186.19
826.39	27913.81
826.57	27879.00
826.75	27815.51
826.93	27364.96
827.10	28003.92
827.28	27924.05
827.46	27881.05
827.64	27479.64
827.81	27582.04
827.99	27840.09
828.17	27502.17
828.35	27369.05
828.53	27493.98
828.70	27215.46
828.88	27160.16
829.06	27311.71
829.24	27545.18
829.41	27027.04
829.59	27180.64
829.77	26998.37
829.95	27022.95
830.12	27209.31
830.30	26949.22
830.48	27129.44
830.66	26721.90
830.84	27057.76
831.01	26867.30
831.19	27088.48
831.37	26836.58
831.55	26920.55
831.72	26678.89
831.90	26785.38
832.08	26691.18
832.25	26809.96
832.43	26646.12
832.61	26498.67
832.79	26572.39
832.96	26383.98
833.14	26515.05
833.32	26324.59
833.50	26639.98
833.67	26435.18
833.85	26361.45
834.03	26123.89
834.20	26261.10
834.38	26416.75
834.56	26488.43
834.74	25917.04
834.91	26222.19
835.09	26156.66
835.27	25652.86
835.44	25800.31
835.62	25708.15
835.80	25796.21
835.98	25800.31
836.15	25792.12
836.33	25677.43
836.51	25718.39
836.68	25439.87
836.86	25958.00
837.04	25751.16
837.21	25849.46
837.39	25677.43
837.57	25685.62
837.75	25550.46
837.92	25310.85
838.10	25241.21
838.28	25177.73
838.45	25058.95
838.63	25276.03
838.81	25364.09
838.98	25366.14
839.16	24893.06
839.34	24882.82
839.51	25038.47
839.69	25042.56
839.87	24878.72
840.04	24884.87
840.22	25079.43
840.40	25130.62
840.57	24374.92
840.75	24739.46
840.93	24399.50
841.10	24743.56
841.28	25200.26
841.46	24635.02
841.63	24768.13
841.81	24655.50
841.98	24706.70
842.16	24843.91
842.34	24663.69
842.51	24243.85
842.69	24473.23
842.87	24454.79
843.04	24475.27
843.22	24055.44
843.40	24243.85
843.57	24536.71
843.75	24589.96
843.92	24374.92
844.10	24239.76
844.28	24084.11
844.45	24100.50
844.63	24434.32
844.81	23889.56
844.98	24319.63
845.16	24209.04
845.33	24194.70
845.51	24012.43
845.69	24340.11
845.86	23647.90
846.04	23707.29
846.21	24014.48
846.39	24059.54
846.57	23758.49
846.74	23776.92
846.92	23758.49
847.09	23746.20
847.27	23738.01
847.45	23740.05
847.62	23733.91
847.80	23836.31
847.97	23850.64
848.15	23613.08
848.32	23549.59
848.50	23615.13
848.68	23742.10
848.85	23727.77
849.03	22965.92
849.20	23121.57
849.38	23529.11
849.56	23418.52
849.73	23250.59
849.91	23426.71
850.08	23596.70
850.26	23127.71
850.43	23316.12
850.61	23439.00
850.78	22939.30
850.96	23246.49
851.14	22826.66
851.31	23256.73
851.49	23066.27
851.66	23029.41
851.84	22863.52
852.01	22875.81
852.19	23209.63
852.36	22802.08
852.54	22972.07
852.71	22998.69
852.89	22765.22
853.07	22808.23
853.24	22466.22
853.42	22828.71
853.59	22789.80
853.77	22863.52
853.94	22779.56
854.12	22847.14
854.29	22738.60
854.47	22750.88
854.64	22269.61
854.82	22300.33
854.99	22767.27
855.17	22300.33
855.34	22466.22
855.52	22511.27
855.69	22537.90
855.87	22281.90
856.04	22027.95
856.22	22257.32
856.39	22310.57
856.57	22271.66
856.74	22193.84
856.92	22154.93
857.09	22220.46
857.27	22169.26
857.44	21995.18
857.62	22187.69
857.79	21900.98
857.97	22255.28
858.14	22001.33
858.32	22107.82
858.49	22044.34
858.67	22087.34
858.84	21964.46
859.02	21692.08
859.19	21788.34
859.37	21679.80
859.54	21796.53
859.72	21624.50
859.89	21520.06
860.06	21900.98
860.24	21767.86
860.41	22101.68
860.59	21538.49
860.76	21667.51
860.94	21448.38
861.11	21515.96
861.29	21640.89
861.46	21466.81
861.64	21368.51
861.81	21577.40
861.98	21368.51
862.16	21368.51
862.33	21081.79
862.51	21169.85
862.68	21030.59
862.86	21216.96
863.03	21442.23
863.21	21085.89
863.38	21237.44
863.55	21253.82
863.73	21266.11
863.90	21198.52
864.08	21214.91
864.25	21010.11
864.43	20956.86
864.60	21020.35
864.77	20741.83
864.95	20975.30
865.12	21116.61
865.30	20928.19
865.47	20471.50
865.64	20768.45
865.82	21149.37
865.99	20879.04
866.17	20979.39
866.34	20889.28
866.51	20582.09
866.69	20782.79
866.86	20520.65
867.04	20678.34
867.21	20641.48
867.38	20549.32
867.56	20559.56
867.73	20473.54
867.91	20604.61
868.08	20436.68
868.25	20276.94
868.43	20381.38
868.60	20109.01
868.78	20211.40
868.95	20616.90
869.12	20291.27
869.30	19949.26
869.47	20225.74
869.64	19953.36
869.82	20106.96
869.99	20059.85
870.16	20164.30
870.34	20285.13
870.51	20254.41
870.69	19824.34
870.86	20016.85
871.03	20127.44
871.21	19584.73
871.38	19719.89
871.55	19760.85
871.73	19775.19
871.90	19683.03
872.07	19433.18
872.25	19537.62
872.42	19619.54
872.59	19689.17
872.77	19476.18
872.94	19476.18
873.11	19560.15
873.29	19564.25
873.46	19472.09
873.63	19488.47
873.81	19527.38
873.98	19334.87
874.15	19220.19
874.33	19052.25
874.50	18869.98
874.67	19306.20
874.85	18869.98
875.02	19021.53
875.19	18896.61
875.37	18849.50
875.54	18759.39
875.71	18673.38
875.88	18835.17
876.06	18863.84
876.23	18831.07
876.40	18812.64
876.58	18671.33
876.75	18730.72
876.92	18386.66
877.10	18511.59
877.27	18392.81
877.44	18556.64
877.61	18564.84
877.79	18355.94
877.96	18450.15
878.13	18482.92
878.31	18337.51
878.48	18278.12
878.65	18153.20
878.82	18079.47
879.00	18151.15
879.17	18214.63
879.34	18185.96
879.51	18243.31
879.69	18239.21
879.86	18011.89
880.03	18257.64
880.21	17723.12
880.38	18167.53
880.55	18302.70
880.72	17729.27
880.90	18022.12
881.07	17739.51
881.24	17798.90
881.41	17764.08
881.59	17860.34
881.76	17587.96
881.93	17520.37
882.10	17395.45
882.28	17563.38
882.45	17860.34
882.62	17780.46
882.79	17829.62
882.96	17327.86
883.14	17702.64
883.31	17641.20
883.48	17272.57
883.65	17471.22
883.83	17491.70
884.00	17352.44
884.17	17379.06
884.34	17594.10
884.51	17211.13
884.69	17518.32
884.86	17196.79
885.03	17291.00
885.20	17043.20
885.38	17125.11
885.55	17340.15
885.72	17102.59
885.89	16944.89
886.06	17155.83
886.24	17391.35
886.41	17026.81
886.58	17309.43
886.75	17286.90
886.92	17026.81
887.10	17127.16
887.27	16985.85
887.44	17035.00
887.61	17170.17
887.78	16998.14
887.95	17233.66
888.13	16905.98
888.30	16901.89
888.47	17004.28
888.64	17196.79
888.81	16629.51
888.99	16615.17
889.16	16525.06
889.33	16592.64
889.50	16574.21
889.67	16836.35
889.84	16682.75
890.01	16561.92
890.19	16627.46
890.36	16600.83
890.53	16541.44
890.70	16387.85
890.87	16465.67
891.04	16316.17
891.22	16439.05
891.39	16338.69
891.56	16359.17
891.73	16375.56
891.90	16385.80
892.07	16215.82
892.24	16426.76
892.42	16070.41
892.59	16281.35
892.76	16004.88
892.93	15951.63
893.10	16269.06
893.27	16066.31
893.44	15945.48
893.61	16004.88
893.79	16248.58
893.96	16094.99
894.13	16207.62
894.30	16094.99
894.47	16146.19
894.64	16125.71
894.81	16146.19
894.98	16183.05
895.15	16060.17
895.33	15877.90
895.50	15959.82
895.67	16185.10
895.84	15853.33
896.01	15773.46
896.18	15863.57
896.35	15906.57
896.52	15931.15
896.69	15953.68
896.86	15822.61
897.04	15879.95
897.21	15951.63
897.38	15922.96
897.55	15945.48
897.72	15798.03
897.89	16045.84
898.06	15953.68
898.23	15830.80
898.40	15644.43
898.57	15863.57
898.74	15755.02
898.91	15664.91
899.08	15828.75
899.26	15539.99
899.43	15908.62
899.60	15750.93
899.77	15619.86
899.94	15789.84
900.11	15623.95
900.28	15875.85
900.45	15908.62
900.62	15421.20
900.79	15929.10
900.96	15828.75
901.13	15738.64
901.30	15681.30
901.47	15699.73
901.64	15773.46
901.81	15767.31
901.98	15728.40
902.15	15806.22
902.32	15585.04
902.49	15558.42
902.66	15648.53
902.83	15675.15
903.01	15591.19
903.18	15814.41
903.35	15712.02
903.52	15761.17
903.69	15804.17
903.86	15787.79
904.03	15681.30
904.20	15832.85
904.37	15791.89
904.54	15806.22
904.71	15757.07
904.88	15613.71
905.05	15658.77
905.22	15589.14
905.39	15474.45
905.56	15521.56
905.73	15664.91
905.90	15705.87
906.07	15632.15
906.24	15673.10
906.41	15630.10
906.58	15564.56
906.75	15542.03
906.92	15566.61
907.09	15505.17
907.26	15388.44
907.43	15552.27
907.60	15470.36
907.77	15531.80
907.93	15550.23
908.10	15382.29
908.27	15632.15
908.44	15451.92
908.61	15435.54
908.78	15509.27
908.95	15408.92
909.12	15376.15
909.29	15482.64
909.46	15392.53
909.63	15533.84
909.80	15519.51
909.97	15474.45
910.14	15402.77
910.31	15527.70
910.48	15384.34
910.65	15449.88
910.82	15218.46
910.99	15294.23
911.16	15453.97
911.33	15329.05
911.50	15382.29
911.66	15146.78
911.83	15482.64
912.00	15040.28
912.17	14903.07
912.34	15050.52
912.51	15103.77
912.68	14853.92
912.85	15036.19
913.02	14876.44
913.19	14765.85
913.36	14976.80
913.53	15122.20
913.70	15226.65
913.86	15003.42
914.03	14888.73
914.20	15003.42
914.37	14714.66
914.54	14927.64
914.71	14722.85
914.88	14761.76
915.05	14554.91
915.22	14745.38
915.39	14675.74
915.55	14552.87
915.72	14585.63
915.89	14563.11
916.06	14483.24
916.23	14438.18
916.40	14356.26
916.57	14272.29
916.74	14163.75
916.91	14264.10
917.07	14251.81
917.24	13920.04
917.41	13963.05
917.58	14487.33
917.75	13932.33
917.92	13762.35
918.09	13848.36
918.26	14024.49
918.42	13940.52
918.59	13754.16
918.76	13827.88
918.93	13682.48
919.10	13674.29
919.27	13606.70
919.44	13553.46
919.60	13831.98
919.77	13481.78
919.94	13430.58
920.11	13399.86
920.28	13555.51
920.45	13547.31
920.61	13287.22
920.78	13406.00
920.95	13266.74
921.12	13543.22
921.29	13279.03
921.46	13111.10
921.62	12959.55
921.79	12961.59
921.96	13068.09
922.13	12965.69
922.30	12967.74
922.47	12799.80
922.63	12779.32
922.80	13027.13
922.97	12709.69
923.14	12627.78
923.31	12705.60
923.47	12578.62
923.64	12863.29
923.81	12633.92
923.98	12568.38
924.15	12431.17
924.32	12701.50
924.48	12453.70
924.65	12500.80
924.82	12171.08
924.99	12115.78
925.15	12019.53
925.32	12279.62
925.49	11972.43
925.66	12007.24
925.83	11751.24
925.99	11908.94
926.16	11956.04
926.33	11700.05
926.50	11806.54
926.67	11769.68
926.83	11622.22
927.00	11687.76
927.17	11659.09
927.34	11437.91
927.50	11480.91
927.67	11646.80
927.84	11564.88
928.01	11335.51
928.17	11495.25
928.34	11163.48
928.51	11288.40
928.68	11237.20
928.84	11108.18
929.01	11016.02
929.18	10934.11
929.35	10811.23
929.51	11149.14
929.68	10927.96
929.85	10800.99
930.02	10899.29
930.18	10778.46
930.35	10571.61
930.52	10516.32
930.69	10704.73
930.85	10555.23
931.02	10518.37
931.19	10471.26
931.36	10415.97
931.52	10358.63
931.69	10276.71
931.86	10370.91
932.02	10209.12
932.19	10112.87
932.36	9996.14
932.53	10184.55
932.69	9926.50
932.86	10248.04
933.03	9901.93
933.19	10018.66
933.36	9918.31
933.53	9873.26
933.70	9715.56
933.86	9695.08
934.03	9592.69
934.20	9424.75
934.36	9647.98
934.53	9449.33
934.70	9228.15
934.86	9281.39
935.03	9262.96
935.20	9133.94
935.36	9109.36
935.53	8972.15
935.70	8963.96
935.86	9023.35
936.03	8966.01
936.20	8617.85
936.36	8626.04
936.53	8701.82
936.70	8603.52
936.86	8574.85
937.03	8398.72
937.20	8212.35
937.36	8384.38
937.53	8161.16
937.70	8064.90
937.86	7970.69
938.03	7956.36
938.20	7997.32
938.36	7843.72
938.53	7862.15
938.70	7528.33
938.86	7726.99
939.03	7362.45
939.20	7374.74
939.36	7470.99
939.53	7272.34
939.70	7442.32
939.86	7006.10
940.03	6750.10
940.19	6780.82
940.36	6758.30
940.53	6864.79
940.69	6647.71
940.86	6543.26
941.03	6653.85
941.19	6475.68
941.36	6512.54
941.52	6447.01
941.69	6338.46
941.86	6383.52
942.02	6195.11
942.19	6023.08
942.35	6217.63
942.52	5986.21
942.69	5949.35
942.85	5767.08
943.02	5924.77
943.18	5914.53
943.35	5773.22
943.52	5789.61
943.68	5736.36
943.85	5783.46
944.01	5685.16
944.18	5617.58
944.35	5711.78
944.51	5517.23
944.68	5425.07
944.84	5564.33
945.01	5484.46
945.17	5619.63
945.34	5545.90
945.51	5402.54
945.67	5517.23
945.84	5533.61
946.00	5310.38
946.17	5423.02
946.33	5308.34
946.50	5367.73
946.67	5455.79
946.83	5308.34
947.00	5447.60
947.16	5382.06
947.33	5359.53
947.49	5410.73
947.66	5201.84
947.82	5410.73
947.99	5279.66
948.16	5420.97
948.32	5271.47
948.49	5414.83
948.65	5250.99
948.82	5318.57
948.98	5218.22
949.15	5339.05
949.31	5353.39
949.48	5238.70
949.64	5183.41
949.81	5314.48
949.97	5230.51
950.14	5273.52
950.30	5347.25
950.47	5154.74
950.63	5484.46
950.80	5296.05
950.96	5310.38
951.13	5304.24
951.30	5365.68
951.46	5484.46
951.63	5398.45
951.79	5494.70
951.96	5435.31
952.12	5384.11
952.29	5353.39
952.45	5228.46
952.62	5334.96
952.78	5441.45
952.94	5285.81
953.11	5343.15
953.27	5308.34
953.44	5449.64
953.60	5361.58
953.77	5451.69
953.93	5283.76
954.10	5468.08
954.26	5406.64
954.43	5361.58
954.59	5502.89
954.76	5566.38
954.92	5408.69
955.09	5482.41
955.25	5253.04
955.42	5351.34
955.58	5492.65
955.75	5377.97
955.91	5443.50
956.07	5443.50
956.24	5537.71
956.40	5416.88
956.57	5472.17
956.73	5414.83
956.90	5418.93
957.06	5386.16
957.23	5349.29
957.39	5390.25
957.56	5418.93
957.72	5433.26
957.88	5406.64
958.05	5506.99
958.21	5466.03
958.38	5347.25
958.54	5504.94
958.71	5582.76
958.87	5355.44
959.03	5461.93
959.20	5420.97
959.36	5246.90
959.53	5453.74
959.69	5425.07
959.85	5361.58
960.02	5345.20
960.18	5482.41
960.35	5271.47
960.51	5586.86
960.68	5392.30
960.84	5468.08
961.00	5498.80
961.17	5375.92
961.33	5345.20
961.50	5478.32
961.66	5502.89
961.82	5304.24
961.99	5330.86
962.15	5349.29
962.31	5341.10
962.48	5425.07
962.64	5539.76
962.81	5314.48
962.97	5443.50
963.13	5375.92
963.30	5324.72
963.46	5425.07
963.62	5359.53
963.79	5306.29
963.95	5257.14
964.12	5398.45
964.28	5279.66
964.44	5384.11
964.61	5384.11
964.77	5418.93
964.93	5509.04
965.10	5203.89
965.26	5322.67
965.42	5318.57
965.59	5119.92
965.75	5361.58
965.92	5375.92
966.08	5212.08
966.24	5253.04
966.41	5253.04
966.57	5240.75
966.73	5355.44
966.90	5328.81
967.06	5175.22
967.22	5236.66
967.39	5076.91
967.55	5076.91
967.71	5132.21
967.88	5105.59
968.04	5003.19
968.20	5222.32
968.37	5271.47
968.53	5095.35
968.69	5214.13
968.85	5193.65
969.02	5158.83
969.18	5212.08
969.34	5140.40
969.51	5091.25
969.67	5179.31
969.83	5052.34
970.00	5099.44
970.16	5146.55
970.32	5066.67
970.48	5105.59
970.65	4982.71
970.81	4841.40
970.97	5103.54
971.14	4851.64
971.30	5048.24
971.46	4933.56
971.63	4988.85
971.79	5048.24
971.95	4941.75
972.11	4816.82
972.28	4915.12
972.44	5078.96
972.60	5076.91
972.76	4933.56
972.93	4884.41
973.09	5017.52
973.25	4876.21
973.42	4960.18
973.58	5105.59
973.74	4911.03
973.90	4962.23
974.07	4820.92
974.23	4894.65
974.39	4816.82
974.55	4835.25
974.72	4816.82
974.88	4648.89
975.04	4736.95
975.20	4693.94
975.37	4712.38
975.53	4786.10
975.69	4806.58
975.85	4706.23
976.01	4593.59
976.18	4693.94
976.34	4745.14
976.50	4685.75
976.66	4755.38
976.83	4681.66
976.99	4528.06
977.15	4554.68
977.31	4591.55
977.47	4779.96
977.64	4618.17
977.80	4513.72
977.96	4612.03
978.12	4614.07
978.29	4624.31
978.45	4558.78
978.61	4372.41
978.77	4624.31
978.93	4548.54
979.10	4515.77
979.26	4388.80
979.42	4458.43
979.58	4538.30
979.74	4419.52
979.91	4362.17
980.07	4368.32
980.23	4421.56
980.39	4435.90
980.55	4431.80
980.71	4300.73
980.88	4306.88
981.04	4310.97
981.20	4304.83
981.36	4452.28
981.52	4407.23
981.68	4292.54
981.85	4337.60
982.01	4399.04
982.17	4333.50
982.33	4288.45
982.49	4407.23
982.65	4274.11
982.82	4356.03
982.98	4286.40
983.14	4218.82
983.30	4349.89
983.46	4362.17
983.62	4286.40
983.79	4280.25
983.95	4278.21
984.11	4151.23
984.27	4323.26
984.43	4220.86
984.59	4218.82
984.75	4284.35
984.91	4089.79
985.08	4220.86
985.24	4030.40
985.40	3966.92
985.56	4052.93
985.72	4165.57
985.88	4151.23
986.04	4124.61
986.20	3999.68
986.37	4087.75
986.53	3975.11
986.69	4116.42
986.85	3983.30
987.01	4028.35
987.17	4102.08
987.33	4093.89
987.49	3880.90
987.65	4091.84
987.82	3936.20
987.98	3950.53
988.14	3925.96
988.30	3909.57
988.46	3915.72
988.62	3882.95
988.78	3903.43
988.94	3925.96
989.10	3778.50
989.26	3850.18
989.42	3772.36
989.59	3817.41
989.75	3813.32
989.91	3862.47
990.07	3770.31
990.23	3813.32
990.39	3780.55
990.55	3778.50
990.71	3807.17
990.87	3786.69
991.03	3823.56
991.19	3727.30
991.35	3694.54
991.51	3665.86
991.67	3829.70
991.83	3694.54
992.00	3665.86
992.16	3680.20
992.32	3737.54
992.48	3721.16
992.64	3651.53
992.80	3622.86
992.96	3577.80
993.12	3583.95
993.28	3725.26
993.44	3598.28
993.60	3786.69
993.76	3608.52
993.92	3639.24
994.08	3706.82
994.24	3612.62
994.40	3536.84
994.56	3635.14
994.72	3585.99
994.88	3553.23
995.04	3559.37
995.20	3604.42
995.36	3422.16
995.52	3569.61
995.68	3534.79
995.84	3391.44
996.00	3602.38
996.16	3397.58
996.32	3477.45
996.48	3368.91
996.64	3420.11
996.80	3426.25
996.96	3366.86
997.12	3393.48
997.28	3381.20
997.44	3432.40
997.60	3379.15
997.76	3323.85
997.92	3426.25
998.08	3418.06
998.24	3350.48
998.40	3321.81
998.56	3399.63
998.72	3315.66
998.88	3332.05
999.04	3215.31
999.20	3393.48
999.36	3233.74
999.52	3284.94
999.68	3155.92
999.84	3336.14
1000.00	3317.71
1000.16	3248.08
1000.32	3200.98
1000.48	3139.54
1000.64	3041.23
1000.80	3196.88
1000.95	3114.96
1001.11	3184.59
1001.27	3100.62
1001.43	3184.59
1001.59	3096.53
1001.75	3049.43
1001.91	3114.96
1002.07	3129.30
1002.23	2967.51
1002.39	3043.28
1002.55	3137.49
1002.71	3078.10
1002.87	3088.34
1003.03	3043.28
1003.19	3018.71
1003.34	3143.63
1003.50	2938.84
1003.66	3149.78
1003.82	3024.85
1003.98	3018.71
1004.14	3067.86
1004.30	3059.67
1004.46	2918.36
1004.62	2910.16
1004.78	3039.19
1004.94	2891.73
1005.09	2914.26
1005.25	2959.31
1005.41	2944.98
1005.57	2830.29
1005.73	2963.41
1005.89	2799.57
1006.05	3006.42
1006.21	2975.70
1006.37	2772.95
1006.52	2793.43
1006.68	2742.23
1006.84	2912.21
1007.00	2877.40
1007.16	2910.16
1007.32	2846.68
1007.48	2748.37
1007.64	2826.20
1007.79	2770.90
1007.95	2824.15
1008.11	2807.77
1008.27	2795.48
1008.43	2729.94
1008.59	2818.00
1008.75	2744.28
1008.91	2721.75
1009.06	2693.08
1009.22	2748.37
1009.38	2736.09
1009.54	2723.80
1009.70	2627.54
1009.86	2703.32
1010.01	2693.08
1010.17	2715.61
1010.33	2738.13
1010.49	2707.41
1010.65	2752.47
1010.81	2555.86
1010.96	2598.87
1011.12	2582.49
1011.28	2465.75
1011.44	2674.65
1011.60	2519.00
1011.76	2562.01
1011.91	2471.90
1012.07	2516.95
1012.23	2435.03
1012.39	2389.98
1012.55	2557.91
1012.71	2635.74
1012.86	2428.89
1013.02	2402.27
1013.18	2408.41
1013.34	2400.22
1013.50	2551.77
1013.65	2459.61
1013.81	2428.89
1013.97	2398.17
1014.13	2353.12
1014.29	2326.49
1014.44	2441.18
1014.60	2387.93
1014.76	2318.30
1014.92	2342.88
1015.07	2336.73
1015.23	2412.51
1015.39	2377.69
1015.55	2334.68
1015.71	2392.03
1015.86	2287.58
1016.02	2289.63
1016.18	2222.05
1016.34	2322.40
1016.49	2160.61
1016.65	2377.69
1016.81	2279.39
1016.97	2144.22
1017.12	2330.59
1017.28	2201.57
1017.44	2056.16
1017.60	2283.49
1017.75	2297.82
1017.91	2279.39
1018.07	2248.67
1018.23	2265.05
1018.38	2129.89
1018.54	2127.84
1018.70	2226.14
1018.86	2217.95
1019.01	2146.27
1019.17	2256.86
1019.33	2281.44
1019.49	2123.74
1019.64	2187.23
1019.80	2113.50
1019.96	2041.82
1020.12	2166.75
1020.27	2017.25
1020.43	2076.64
1020.59	2088.93
1020.74	2179.04
1020.90	2158.56
1021.06	2045.92
1021.22	2117.60
1021.37	2052.06
1021.53	2117.60
1021.69	2115.55
1021.84	1972.19
1022.00	2084.83
1022.16	2095.07
1022.31	2050.02
1022.47	2111.46
1022.63	2068.45
1022.79	2039.78
1022.94	1912.80
1023.10	2244.57
1023.26	2050.02
1023.41	1970.15
1023.57	1853.41
1023.73	1957.86
1023.88	2070.50
1024.04	1933.28
1024.20	1937.38
1024.35	2041.82
1024.51	2095.07
1024.67	2039.78
1024.82	2023.39
1024.98	1871.84
1025.14	1968.10
1025.29	1898.47
1025.45	1947.62
1025.61	1816.55
1025.76	1880.04
1025.92	1869.80
1026.08	1945.57
1026.23	1988.58
1026.39	1961.95
1026.55	1867.75
1026.70	1904.61
1026.86	1927.14
1027.02	2017.25
1027.17	2033.63
1027.33	2019.30
1027.48	1830.88
1027.64	1900.52
1027.80	1910.75
1027.95	1910.75
1028.11	1685.48
1028.27	1820.64
1028.42	2011.11
1028.58	1863.65
1028.73	1849.32
1028.89	1771.49
1029.05	1937.38
1029.20	1837.03
>>>>>End Processed Spectral Data<<<<<
