SpectraSuite Data File
++++++++++++++++++++++++++++++++++++
Date: Fri Jun 02 14:53:31 CEST 2017
User: INFO_000
Dark Spectrum Present: No
Reference Spectrum Present: No
Number of Sampled Component Spectra: 1
Spectrometers: USB4H00879
Integration Time (usec): 80000 (USB4H00879)
Spectra Averaged: 1 (USB4H00879)
Boxcar Smoothing: 0 (USB4H00879)
Correct for Electrical Dark: No (USB4H00879)
Strobe/Lamp Enabled: No (USB4H00879)
Correct for Detector Non-linearity: No (USB4H00879)
Correct for Stray Light: No (USB4H00879)
Number of Pixels in Processed Spectrum: 3648
>>>>>Begin Processed Spectral Data<<<<<
345.13	1253.36
345.34	1253.36
345.56	1253.36
345.78	1302.51
345.99	1245.16
346.21	1673.19
346.42	1683.43
346.64	1609.70
346.86	1748.97
347.07	1701.86
347.29	1691.62
347.50	1687.53
347.72	1656.81
347.94	1783.78
348.15	1669.09
348.37	1648.61
348.59	1708.01
348.80	1626.09
349.02	1781.73
349.23	1826.79
349.45	1781.73
349.67	1847.27
349.88	1796.07
350.10	2027.49
350.31	1757.16
350.53	1755.11
350.75	1994.72
350.96	1771.49
351.18	1871.84
351.39	1755.11
351.61	1822.69
351.82	1839.08
352.04	1945.57
352.26	1898.47
352.47	1843.17
352.69	1939.43
352.90	1800.16
353.12	1875.94
353.34	1773.54
353.55	2033.63
353.77	1939.43
353.98	1898.47
354.20	1820.64
354.41	2011.11
354.63	1896.42
354.85	2066.40
355.06	1927.14
355.28	1812.45
355.49	1959.91
355.71	1935.33
355.92	1906.66
356.14	1908.71
356.35	1900.52
356.57	1843.17
356.79	1916.90
357.00	1845.22
357.22	1943.52
357.43	1857.51
357.65	1920.99
357.86	1951.71
358.08	1875.94
358.29	1923.04
358.51	1949.67
358.72	1992.67
358.94	1957.86
359.16	1953.76
359.37	1933.28
359.59	1925.09
359.80	1980.39
360.02	1970.15
360.23	1947.62
360.45	2082.78
360.66	1982.43
360.88	1859.56
361.09	1959.91
361.31	1994.72
361.52	1937.38
361.74	2101.22
361.95	2011.11
362.17	1916.90
362.38	2133.98
362.60	1927.14
362.81	2056.16
363.03	1884.13
363.24	1959.91
363.46	2115.55
363.67	2050.02
363.89	2002.91
364.10	2039.78
364.32	1945.57
364.53	2121.70
364.75	1990.63
364.96	2074.59
365.18	2072.54
365.39	1970.15
365.61	1902.56
365.82	2105.31
366.04	2072.54
366.25	1951.71
366.47	2115.55
366.68	2060.26
366.90	1992.67
367.11	2099.17
367.33	2082.78
367.54	2146.27
367.76	2066.40
367.97	2084.83
368.19	2078.69
368.40	2105.31
368.62	1943.52
368.83	1998.82
369.05	2058.21
369.26	2068.45
369.48	1943.52
369.69	2002.91
369.91	2056.16
370.12	2027.49
370.33	2033.63
370.55	1908.71
370.76	2066.40
370.98	2105.31
371.19	2082.78
371.41	1966.05
371.62	2025.44
371.84	2000.87
372.05	2150.37
372.27	2066.40
372.48	2117.60
372.69	2170.85
372.91	2142.18
373.12	2222.05
373.34	2111.46
373.55	2146.27
373.77	2172.89
373.98	2162.66
374.20	2127.84
374.41	2279.39
374.62	2170.85
374.84	2252.77
375.05	2252.77
375.27	2189.28
375.48	2244.57
375.70	2156.51
375.91	2224.09
376.12	2236.38
376.34	2195.42
376.55	2090.98
376.77	2303.96
376.98	2197.47
377.19	2140.13
377.41	2170.85
377.62	2207.71
377.84	2271.20
378.05	2353.12
378.27	2230.24
378.48	2330.59
378.69	2412.51
378.91	2265.05
379.12	2349.02
379.34	2136.03
379.55	2285.53
379.76	2371.55
379.98	2228.19
380.19	2228.19
380.41	2291.68
380.62	2404.32
380.83	2258.91
381.05	2228.19
381.26	2365.40
381.47	2248.67
381.69	2277.34
381.90	2441.18
382.12	2349.02
382.33	2263.01
382.54	2367.45
382.76	2281.44
382.97	2463.71
383.19	2271.20
383.40	2475.99
383.61	2297.82
383.83	2324.44
384.04	2303.96
384.25	2334.68
384.47	2435.03
384.68	2289.63
384.89	2312.16
385.11	2361.31
385.32	2351.07
385.54	2310.11
385.75	2279.39
385.96	2424.80
386.18	2359.26
386.39	2410.46
386.60	2349.02
386.82	2363.36
387.03	2420.70
387.24	2508.76
387.46	2424.80
387.67	2463.71
387.88	2478.04
388.10	2488.28
388.31	2453.47
388.52	2559.96
388.74	2504.67
388.95	2527.19
389.16	2553.82
389.38	2527.19
389.59	2637.78
389.80	2623.45
390.02	2523.10
390.23	2629.59
390.44	2658.26
390.66	2584.54
390.87	2531.29
391.08	2650.07
391.30	2701.27
391.51	2594.78
391.72	2766.81
391.94	2676.70
392.15	2605.02
392.36	2615.26
392.58	2648.02
392.79	2725.85
393.00	2697.17
393.22	2643.93
393.43	2801.62
393.64	2801.62
393.85	2824.15
394.07	2703.32
394.28	2820.05
394.49	2772.95
394.71	2824.15
394.92	2826.20
395.13	2754.52
395.35	2775.00
395.56	2764.76
395.77	2779.09
395.98	2820.05
396.20	2861.01
396.41	2768.85
396.62	2848.72
396.84	2836.44
397.05	2856.92
397.26	2893.78
397.47	2930.64
397.69	2805.72
397.90	3041.23
398.11	2918.36
398.32	2871.25
398.54	2957.27
398.75	2920.40
398.96	2922.45
399.18	3071.95
399.39	3039.19
399.60	2979.79
399.81	2996.18
400.03	2922.45
400.24	3239.89
400.45	3000.27
400.66	3182.54
400.88	3102.67
401.09	3157.97
401.30	3039.19
401.51	3225.55
401.73	3121.10
401.94	3215.31
402.15	3246.03
402.36	3174.35
402.58	3131.34
402.79	3182.54
403.00	3145.68
403.21	3258.32
403.43	3237.84
403.64	3325.90
403.85	3215.31
404.06	3370.96
404.27	3125.20
404.49	3139.54
404.70	3221.45
404.91	3295.18
405.12	3282.89
405.34	3264.46
405.55	3338.19
405.76	3176.40
405.97	3327.95
406.19	3430.35
406.40	3278.80
406.61	3317.71
406.82	3450.83
407.03	3250.13
407.25	3268.56
407.46	3426.25
407.67	3418.06
407.88	3469.26
408.09	3409.87
408.31	3436.49
408.52	3426.25
408.73	3493.83
408.94	3360.72
409.15	3495.88
409.37	3643.34
409.58	3442.64
409.79	3495.88
410.00	3540.94
410.21	3448.78
410.43	3542.99
410.64	3444.68
410.85	3637.19
411.06	3647.43
411.27	3563.47
411.48	3674.06
411.70	3446.73
411.91	3669.96
412.12	3639.24
412.33	3553.23
412.54	3577.80
412.76	3647.43
412.97	3645.38
413.18	3432.40
413.39	3631.05
413.60	3712.97
413.81	3723.21
414.03	3712.97
414.24	3633.10
414.45	3803.08
414.66	3608.52
414.87	3725.26
415.08	3715.02
415.30	3827.65
415.51	3925.96
415.72	3755.97
415.93	3858.37
416.14	3760.07
416.35	3913.67
416.56	3850.18
416.78	3835.85
416.99	3778.50
417.20	3948.48
417.41	3913.67
417.62	3872.71
417.83	3876.80
418.04	3928.00
418.26	3870.66
418.47	3844.04
418.68	4011.97
418.89	4073.41
419.10	4116.42
419.31	4054.98
419.52	4077.51
419.73	4087.75
419.95	4149.18
420.16	3964.87
420.37	4149.18
420.58	4018.11
420.79	3934.15
421.00	4177.86
421.21	4138.94
421.42	4003.78
421.63	4075.46
421.85	4149.18
422.06	4296.64
422.27	4124.61
422.48	4163.52
422.69	4319.17
422.90	4247.49
423.11	4235.20
423.32	4313.02
423.53	4526.01
423.75	4429.76
423.96	4513.72
424.17	4440.00
424.38	4538.30
424.59	4476.86
424.80	4595.64
425.01	4460.48
425.22	4448.19
425.43	4593.59
425.64	4587.45
425.85	4544.44
426.06	4556.73
426.28	4650.94
426.49	4652.98
426.70	4605.88
426.91	4679.61
427.12	4716.47
427.33	4687.80
427.54	4671.42
427.75	4677.56
427.96	4882.36
428.17	4771.77
428.38	4865.97
428.59	5035.96
428.80	4898.74
429.01	4841.40
429.23	4855.73
429.44	5058.48
429.65	4980.66
429.86	4945.84
430.07	5038.00
430.28	4868.02
430.49	5062.58
430.70	5001.14
430.91	5269.42
431.12	5070.77
431.33	5132.21
431.54	5105.59
431.75	5140.40
431.96	5066.67
432.17	5109.68
432.38	5222.32
432.59	5394.35
432.80	5326.77
433.01	5353.39
433.22	5246.90
433.43	5318.57
433.64	5300.14
433.85	5210.03
434.06	5414.83
434.27	5253.04
434.49	5474.22
434.70	5488.56
434.91	5509.04
435.12	5476.27
435.33	5441.45
435.54	5490.60
435.75	5466.03
435.96	5406.64
436.17	5429.17
436.38	5535.66
436.59	5568.43
436.80	5586.86
437.01	5726.12
437.22	5867.43
437.43	5748.65
437.64	5623.72
437.85	5777.32
438.06	5803.94
438.27	5736.36
438.48	5736.36
438.69	5828.52
438.90	5951.40
439.11	5748.65
439.32	5906.34
439.53	5814.18
439.74	5859.24
439.95	5951.40
440.16	5894.05
440.37	5908.39
440.57	5914.53
440.78	5953.45
440.99	5951.40
441.20	6256.54
441.41	5945.25
441.62	5992.36
441.83	5980.07
442.04	6025.12
442.25	6031.27
442.46	6137.76
442.67	6191.01
442.88	6533.02
443.09	6139.81
443.30	6096.80
443.51	6334.37
443.72	6401.95
443.93	6119.33
444.14	6494.11
444.35	6258.59
444.56	6459.29
444.77	6453.15
444.98	6317.98
445.19	6557.60
445.40	6467.49
445.61	6549.40
445.81	6559.64
446.02	6543.26
446.23	6551.45
446.44	6399.90
446.65	6573.98
446.86	6594.46
447.07	6705.05
447.28	6678.43
447.49	6746.01
447.70	6635.42
447.91	6727.58
448.12	6737.82
448.33	6852.50
448.54	6807.45
448.74	6707.10
448.95	6764.44
449.16	6655.90
449.37	7004.05
449.58	6918.04
449.79	7030.68
450.00	6897.56
450.21	7124.88
450.42	7276.43
450.63	7106.45
450.84	6983.57
451.05	7110.55
451.25	7030.68
451.46	6999.96
451.67	7270.29
451.88	7341.97
452.09	7186.32
452.30	7350.16
452.51	7040.92
452.72	7415.69
452.93	7575.44
453.13	7208.85
453.34	7341.97
453.55	7563.15
453.76	7305.10
453.97	7899.02
454.18	7483.28
454.39	7729.03
454.60	7630.73
454.81	7479.18
455.01	7776.14
455.22	7468.94
455.43	7696.27
455.64	7675.79
455.85	7839.62
456.06	8116.10
456.27	7829.38
456.48	7806.86
456.68	7864.20
456.89	8105.86
457.10	7997.32
457.31	8126.34
457.52	7968.65
457.73	8095.62
457.94	8394.62
458.14	8036.23
458.35	8441.73
458.56	8286.08
458.77	8089.48
458.98	8339.33
459.19	8415.10
459.39	8335.23
459.60	8599.42
459.81	8277.89
460.02	8605.56
460.23	8533.89
460.44	8757.11
460.65	8748.92
460.85	8906.62
461.06	8718.20
461.27	8681.34
461.48	8947.58
461.69	8998.77
461.89	8621.95
462.10	8900.47
462.31	8822.65
462.52	8892.28
462.73	8982.39
462.94	9232.24
463.14	9189.24
463.35	9095.03
463.56	9559.92
463.77	9537.39
463.98	9162.61
464.18	9314.16
464.39	9643.88
464.60	9746.28
464.81	9521.01
465.02	9690.99
465.23	10028.90
465.43	9690.99
465.64	9797.48
465.85	10086.25
466.06	9797.48
466.27	10260.32
466.47	10069.86
466.68	10119.01
466.89	9959.27
467.10	10407.78
467.30	9965.42
467.51	10237.80
467.72	10717.02
467.93	10235.75
468.14	10438.50
468.34	10604.38
468.55	10444.64
468.76	10608.48
468.97	10487.65
469.17	10805.08
469.38	11003.74
469.59	11018.07
469.80	11003.74
470.01	11132.76
470.21	10956.63
470.42	11323.22
470.63	11200.34
470.84	11278.16
471.04	11437.91
471.25	11245.40
471.46	11407.19
471.67	11702.09
471.87	11489.10
472.08	11726.67
472.29	11845.45
472.50	11528.02
472.70	11804.49
472.91	11552.59
473.12	12058.44
473.33	12076.87
473.53	12283.72
473.74	12310.34
473.95	12459.84
474.16	12392.26
474.36	12150.60
474.57	12646.21
474.78	12801.85
474.99	12779.32
475.19	12523.33
475.40	13072.18
475.61	13115.19
475.81	12904.25
476.02	13424.44
476.23	13051.70
476.44	13289.27
476.64	13471.54
476.85	13573.94
477.06	13397.81
477.27	13860.65
477.47	13797.17
477.68	13760.30
477.89	13895.47
478.09	13891.37
478.30	14262.05
478.51	14196.52
478.71	14434.08
478.92	14556.96
479.13	14407.46
479.34	14702.37
479.54	14722.85
479.75	14772.00
479.96	14677.79
480.16	14964.51
480.37	15038.23
480.58	14954.27
480.78	15523.60
480.99	15255.32
481.20	15535.89
481.41	15640.34
481.61	16058.12
481.82	15773.46
482.03	15597.33
482.23	15628.05
482.44	16002.83
482.65	16172.81
482.85	16348.93
483.06	16246.54
483.27	16246.54
483.47	16228.10
483.68	16387.85
483.89	16727.81
484.09	16826.11
484.30	16830.21
484.51	16854.78
484.71	16801.54
484.92	17164.03
485.13	17235.70
485.33	17127.16
485.54	17291.00
485.75	17336.06
485.95	17610.48
486.16	17350.39
486.37	17837.81
486.57	17786.61
486.78	17864.43
486.98	17929.97
487.19	18116.33
487.40	18196.20
487.60	18054.89
487.81	18368.23
488.02	18112.24
488.22	18108.14
488.43	18689.76
488.64	18337.51
488.84	18769.63
489.05	19064.54
489.25	18706.15
489.46	19140.32
489.67	19054.30
489.87	19392.22
490.08	19336.92
490.29	19533.53
490.49	19533.53
490.70	19640.02
490.90	19746.51
491.11	19678.93
491.32	19934.93
491.52	19846.87
491.73	19875.54
491.94	19992.27
492.14	20000.46
492.35	20334.28
492.55	20336.33
492.76	20530.89
492.97	20647.62
493.17	20651.72
493.38	20815.55
493.58	20911.81
493.79	21069.50
494.00	20897.47
494.20	20868.80
494.41	21227.20
494.61	21419.71
494.82	21309.11
495.02	21221.05
495.23	21554.87
495.44	21565.11
495.64	21599.93
495.85	21819.06
496.05	21986.99
496.26	21704.37
496.47	21948.08
496.67	21972.66
496.88	22214.32
497.08	21948.08
497.29	22116.01
497.49	22341.29
497.70	22435.50
497.91	22922.91
498.11	22630.05
498.32	22824.61
498.52	22869.67
498.73	23070.37
498.93	22718.12
499.14	23176.86
499.34	23289.50
499.55	23264.92
499.76	23183.01
499.96	23076.51
500.17	23305.88
500.37	23748.25
500.58	23326.36
500.78	23709.33
500.99	23795.35
501.19	23660.18
501.40	23877.27
501.60	23588.50
501.81	23899.80
502.02	23985.81
502.22	24004.24
502.43	24094.35
502.63	24430.22
502.84	24364.68
503.04	24059.54
503.25	24241.81
503.45	24657.54
503.66	24708.74
503.86	24503.95
504.07	24977.03
504.27	24628.87
504.48	24944.26
504.68	24862.34
504.89	25095.81
505.09	25075.33
505.30	25245.31
505.50	25036.42
505.71	25296.51
505.91	25407.10
506.12	25249.41
506.32	25419.39
506.53	25570.94
506.73	25355.90
506.94	25675.38
507.14	25599.61
507.35	25882.23
507.55	25831.03
507.76	25888.37
507.96	26093.17
508.17	26015.35
508.37	26160.75
508.58	26218.10
508.78	26152.56
508.99	26230.38
509.19	26164.85
509.40	26416.75
509.60	26173.04
509.81	26486.38
510.01	26648.17
510.22	26541.68
510.42	26535.53
510.63	26766.95
510.83	26840.68
511.04	26558.06
511.24	26957.41
511.44	26664.55
511.65	26861.16
511.85	27020.90
512.06	27090.53
512.26	26844.77
512.47	27405.92
512.67	27205.22
512.88	26967.65
513.08	26904.17
513.29	27647.58
513.49	27401.82
513.69	27278.94
513.90	27332.19
514.10	27594.33
514.31	27709.02
514.51	27620.95
514.72	27496.03
514.92	27704.92
515.13	27729.50
515.33	27582.04
515.53	27661.91
515.74	27803.22
515.94	28051.03
516.15	28173.91
516.35	28130.90
516.56	28313.17
516.76	28194.39
516.96	28169.81
517.17	28337.74
517.37	28077.65
517.58	28419.66
517.78	28251.73
517.99	28558.92
518.19	28755.53
518.39	29005.38
518.60	28943.94
518.80	28843.59
519.01	29042.24
519.21	28827.21
519.41	28923.46
519.62	28794.44
519.82	29085.25
520.03	29140.55
520.23	29120.07
520.43	29523.52
520.64	29691.45
520.84	29537.85
521.05	29402.69
521.25	29527.61
521.45	29664.83
521.66	29836.86
521.86	29658.68
522.07	29648.44
522.27	29980.21
522.47	29642.30
522.68	30285.36
522.88	30164.53
523.08	30447.15
523.29	30410.29
523.49	30504.49
523.70	30492.21
523.90	30881.32
524.10	30473.78
524.31	30967.34
524.51	30721.58
524.71	30737.96
524.92	30758.44
525.12	31245.86
525.33	30981.67
525.53	31417.89
525.73	31637.02
525.94	31434.27
526.14	31194.66
526.34	31192.61
526.55	31581.73
526.75	31659.55
526.95	31940.12
527.16	31751.71
527.36	32017.94
527.56	31933.98
527.77	32220.69
527.97	32415.25
528.17	32505.36
528.38	32525.84
528.58	32257.56
528.78	32456.21
528.99	32495.12
529.19	32925.19
529.39	32691.73
529.60	32970.25
529.80	32843.27
530.00	32880.14
530.21	33039.88
530.41	33152.52
530.61	33056.26
530.82	33191.43
531.02	33195.53
531.22	33707.52
531.43	33381.89
531.63	33875.45
531.83	33922.55
532.04	34217.46
532.24	33926.65
532.44	34336.24
532.64	34366.96
532.85	34704.88
533.05	34510.32
533.25	34360.82
533.46	34358.77
533.66	34807.28
533.86	34518.51
534.07	34846.19
534.27	34678.25
534.47	35390.95
534.67	35220.97
534.88	35263.97
535.08	35530.21
535.28	35241.45
535.49	35581.41
535.69	35694.05
535.89	35622.37
536.09	35861.98
536.30	35937.76
536.50	36001.24
536.70	36427.22
536.91	35993.05
537.11	36103.64
537.31	36472.28
537.51	36107.74
537.72	36603.35
537.92	36980.17
538.12	36683.22
538.32	36570.58
538.53	37139.91
538.73	36425.17
538.93	36935.12
539.13	36681.17
539.34	37193.16
539.54	36910.54
539.74	37336.52
539.94	37174.73
540.15	37287.37
540.35	37668.29
540.55	37526.98
540.75	37762.50
540.96	37688.77
541.16	37825.98
541.36	37694.91
541.56	37799.36
541.77	38507.96
541.97	37887.42
542.17	38206.90
542.37	38477.24
542.58	38499.76
542.78	38294.97
542.98	38421.94
543.18	38557.11
543.38	38677.94
543.59	38897.07
543.79	38491.57
543.99	39019.95
544.19	39159.21
544.40	38899.12
544.60	39411.11
544.80	39271.85
545.00	39280.04
545.20	39542.18
545.41	39394.73
545.61	39456.17
545.81	39886.24
546.01	39613.86
546.21	39570.85
546.42	39402.92
546.62	40043.93
546.82	39351.72
547.02	40091.04
547.22	39941.53
547.43	39894.43
547.63	40078.75
547.83	39978.40
548.03	40129.95
548.23	40361.37
548.44	40045.98
548.64	40453.53
548.84	40209.82
549.04	40449.43
549.24	40824.21
549.45	40924.56
549.65	40502.68
549.85	40666.52
550.05	41131.40
550.25	40727.95
550.45	41432.46
550.66	40856.98
550.86	40621.46
551.06	40781.20
551.26	41289.10
551.46	41387.40
551.66	41364.87
551.87	41016.72
552.07	41409.93
552.27	41495.94
552.47	41647.49
552.67	41747.84
552.87	41383.30
553.07	41702.79
553.28	41932.16
553.48	41692.55
553.68	41801.09
553.88	42247.55
554.08	41827.71
554.28	42114.43
554.48	41510.28
554.69	42247.55
554.89	41942.40
555.09	42161.53
555.29	41778.56
555.49	42249.60
555.69	41915.78
555.89	42407.29
556.10	42372.47
556.30	42507.64
556.50	42354.04
556.70	42409.34
556.90	42499.45
557.10	42669.43
557.30	42528.12
557.50	42866.03
557.70	43013.49
557.91	43173.23
558.11	42317.18
558.31	42876.27
558.51	42882.42
558.71	42917.23
558.91	43191.66
559.11	42780.02
559.31	42943.86
559.51	42519.93
559.72	43054.45
559.92	43560.30
560.12	42974.58
560.32	43122.03
560.52	43208.04
560.72	43240.81
560.92	43668.84
561.12	43513.19
561.32	43578.73
561.52	43142.51
561.72	43853.15
561.93	43128.17
562.13	43654.50
562.33	43371.88
562.53	44195.17
562.73	43629.93
562.93	43455.85
563.13	44082.53
563.33	43664.74
563.53	43898.21
563.73	43746.66
563.93	44021.09
564.13	44500.31
564.33	44209.50
564.53	43853.15
564.74	44223.84
564.94	43795.81
565.14	44154.21
565.34	44244.32
565.54	44092.77
565.74	43951.46
565.94	44725.59
566.14	44283.23
566.34	43998.56
566.54	44561.75
566.74	44531.03
566.94	44692.82
567.14	45008.21
567.34	44543.32
567.54	44967.25
567.74	44397.91
567.94	44766.55
568.14	45260.11
568.34	44799.32
568.54	44885.33
568.74	45112.66
568.94	44737.88
569.14	44877.14
569.34	45102.42
569.54	44938.58
569.75	44596.57
569.95	44705.11
570.15	45346.12
570.35	45178.19
570.55	44989.78
570.75	45086.03
570.95	45509.96
571.15	45112.66
571.35	45229.39
571.55	45800.77
571.75	45481.29
571.95	45909.32
572.15	45475.15
572.35	45403.47
572.55	45292.88
572.75	45778.25
572.95	45657.42
573.15	45684.04
573.35	45942.08
573.55	45569.35
573.75	45847.88
573.95	45878.60
574.15	45497.67
574.35	46380.35
574.55	45749.57
574.75	45675.85
574.95	46196.03
575.15	45952.32
575.34	46495.03
575.54	46218.56
575.74	46243.13
575.94	46114.11
576.14	46464.32
576.34	46052.67
576.54	46484.79
576.74	46630.20
576.94	46748.98
577.14	46763.32
577.34	46906.68
577.54	46474.55
577.74	46712.12
577.94	46892.34
578.14	46927.16
578.34	47353.13
578.54	46712.12
578.74	46671.16
578.94	46896.44
579.14	47093.04
579.34	47041.84
579.54	47279.41
579.74	47267.12
579.94	47260.97
580.13	47162.67
580.33	47727.91
580.53	47119.66
580.73	47471.92
580.93	47541.55
581.13	47627.56
581.33	47869.22
581.53	47861.03
581.73	47809.83
581.93	47975.72
582.13	47828.26
582.33	48084.26
582.53	47924.52
582.73	48149.79
582.92	48252.19
583.12	48223.52
583.32	47717.67
583.52	48076.07
583.72	48239.90
583.92	48287.01
584.12	48028.96
584.32	48549.15
584.52	48231.71
584.72	48260.38
584.92	48469.28
585.11	48989.46
585.31	48540.96
585.51	48862.49
585.71	48422.17
585.91	48579.87
586.11	48659.74
586.31	49061.14
586.51	49063.19
586.71	48958.74
586.91	48997.65
587.10	48975.12
587.30	48948.50
587.50	49394.96
587.70	49175.83
587.90	49491.21
588.10	48977.17
588.30	49235.22
588.50	49458.45
588.69	49333.52
588.89	49132.82
589.09	49777.93
589.29	49634.57
589.49	49745.16
589.69	49491.21
589.89	49798.41
590.08	49775.88
590.28	49833.22
590.48	49614.09
590.68	49839.37
590.88	49661.19
591.08	49689.87
591.28	49263.89
591.47	50140.42
591.67	49831.18
591.87	50021.64
592.07	49601.80
592.27	50138.37
592.47	50193.67
592.67	50076.93
592.86	49958.15
593.06	50459.90
593.26	50109.70
593.46	50212.10
593.66	50582.78
593.86	50488.57
594.05	50748.67
594.25	50902.26
594.45	50767.10
594.65	50205.95
594.85	50154.75
595.05	51010.81
595.24	50730.23
595.44	50812.15
595.64	50779.39
595.84	51008.76
596.04	50836.73
596.23	51174.64
596.43	51256.56
596.63	51123.44
596.83	50767.10
597.03	51152.12
597.22	51348.72
597.42	51268.85
597.62	51893.48
597.82	51225.84
598.02	51078.39
598.21	51393.78
598.41	51318.00
598.61	51832.04
598.81	51524.85
599.01	51944.68
599.20	51614.96
599.40	51541.23
599.60	51967.21
599.80	52284.64
600.00	51711.21
600.19	52247.78
600.39	51811.56
600.59	52104.42
600.79	52198.63
600.98	52077.80
601.18	51807.47
601.38	52204.77
601.58	52382.94
601.78	52188.39
601.97	51789.03
602.17	52573.41
602.37	52258.02
602.57	52417.76
602.76	52649.18
602.96	52276.45
603.16	52942.04
603.36	52737.24
603.55	52417.76
603.75	52704.48
603.95	53116.12
604.15	52909.27
604.34	53169.36
604.54	53273.81
604.74	52856.03
604.94	53540.05
605.13	52966.62
605.33	53464.27
605.53	53060.82
605.73	53474.51
605.92	53511.38
606.12	53568.72
606.32	53746.89
606.52	53542.10
606.71	53230.80
606.91	53794.00
607.11	53570.77
607.30	53974.22
607.50	53707.98
607.70	54209.73
607.90	53494.99
608.09	53750.99
608.29	54217.92
608.49	53769.42
608.68	53814.47
608.88	54078.66
609.08	54129.86
609.28	54088.90
609.47	53652.69
609.67	54185.16
609.87	54154.44
610.06	54076.61
610.26	54189.25
610.46	54346.95
610.66	53855.43
610.85	54377.67
611.05	54355.14
611.25	54138.05
611.44	53951.69
611.64	54369.47
611.84	54344.90
612.03	54090.95
612.23	54351.04
612.43	54332.61
612.62	54129.86
612.82	54682.81
613.02	54523.07
613.21	54760.64
613.41	54586.56
613.61	54860.99
613.80	54105.29
614.00	54498.50
614.20	54381.76
614.39	54598.85
614.59	54756.54
614.79	54318.28
614.98	54564.03
615.18	54590.66
615.38	54549.70
615.57	54451.39
615.77	54518.98
615.97	54914.23
616.16	54617.28
616.36	55125.17
616.56	54850.75
616.75	54285.51
616.95	54760.64
617.15	54903.99
617.34	54748.35
617.54	54508.74
617.74	55059.64
617.93	54953.15
618.13	54457.54
618.32	54910.14
618.52	54430.91
618.72	54609.09
618.91	54736.06
619.11	54709.44
619.31	54660.29
619.50	54908.09
619.70	54623.42
619.90	54803.64
620.09	54903.99
620.29	55239.86
620.48	54607.04
620.68	54822.08
620.88	54381.76
621.07	54574.27
621.27	54731.96
621.46	54607.04
621.66	54596.80
621.86	54752.44
622.05	54752.44
622.25	54947.00
622.44	54697.15
622.64	54490.30
622.84	55035.06
623.03	54934.71
623.23	54703.29
623.42	54867.13
623.62	54654.14
623.82	54994.10
624.01	55188.66
624.21	54793.40
624.40	55024.82
624.60	54990.01
624.80	54848.70
624.99	54502.59
625.19	54226.12
625.38	54635.71
625.58	54795.45
625.77	54695.10
625.97	55471.28
626.17	54408.39
626.36	54285.51
626.56	54942.91
626.75	54424.77
626.95	55098.55
627.14	54506.69
627.34	55258.29
627.54	55106.74
627.73	54838.46
627.93	54623.42
628.12	54471.87
628.32	55194.81
628.51	54779.07
628.71	54787.26
628.90	54787.26
629.10	54564.03
629.30	55069.88
629.49	54643.90
629.69	54865.08
629.88	54930.62
630.08	55116.98
630.27	55315.64
630.47	55129.27
630.66	54940.86
630.86	55284.92
631.05	54635.71
631.25	55020.73
631.44	55231.67
631.64	55151.80
631.84	55184.57
632.03	55332.02
632.23	55194.81
632.42	55381.17
632.62	55243.96
632.81	54830.27
633.01	55383.22
633.20	55123.13
633.40	55841.96
633.59	54858.94
633.79	55190.71
633.98	55143.61
634.18	55237.81
634.37	54889.66
634.57	55153.85
634.76	55391.41
634.96	55336.12
635.15	55569.58
635.35	55104.70
635.54	55094.46
635.74	55415.99
635.93	54637.76
636.13	55741.61
636.32	55858.35
636.52	55264.44
636.71	55760.05
636.91	55237.81
637.10	55747.76
637.30	55336.12
637.49	55342.26
637.69	55401.65
637.88	55960.75
638.08	55354.55
638.27	55815.34
638.46	55207.09
638.66	55164.09
638.85	55522.48
639.05	55485.62
639.24	55563.44
639.44	55086.26
639.63	55628.98
639.83	55991.47
640.02	55424.18
640.22	55727.28
640.41	55762.09
640.61	54944.95
640.80	55342.26
640.99	55481.52
641.19	56030.38
641.38	55473.33
641.58	55618.74
641.77	55702.70
641.97	55977.13
642.16	55977.13
642.36	55874.73
642.55	56368.29
642.74	55565.49
642.94	56016.04
643.13	56009.90
643.33	56454.31
643.52	56265.89
643.72	56464.55
643.91	56206.50
644.10	56589.47
644.30	56054.95
644.49	56057.00
644.69	56308.90
644.88	56401.06
645.08	55635.12
645.27	56192.17
645.46	55815.34
645.66	56210.60
645.85	56016.04
646.05	56235.17
646.24	56290.47
646.43	56450.21
646.63	56628.38
646.82	56415.40
647.02	56575.14
647.21	56685.73
647.40	56384.68
647.60	56466.59
647.79	56550.56
647.99	56652.96
648.18	56259.75
648.37	56771.74
648.57	56583.33
648.76	56681.63
648.96	56147.11
649.15	56816.80
649.34	56485.03
649.54	56464.55
649.73	56423.59
649.92	57158.81
650.12	56829.08
650.31	56868.00
650.51	57130.14
650.70	57169.05
650.89	57058.46
651.09	57445.52
651.28	57005.21
651.47	57293.97
651.67	56812.70
651.86	57183.38
652.06	56425.64
652.25	57064.60
652.44	56702.11
652.64	56857.76
652.83	56851.61
653.02	57021.59
653.22	56788.13
653.41	56521.89
653.60	56947.87
653.80	57150.62
653.99	57308.31
654.18	57167.00
654.38	56857.76
654.57	57064.60
654.76	57142.42
654.96	56933.53
655.15	57066.65
655.34	57121.94
655.54	56276.13
655.73	56597.66
655.92	56886.43
656.12	57119.90
656.31	57564.31
656.50	56726.69
656.70	57218.20
656.89	56986.78
657.08	57201.82
657.28	57386.13
657.47	57365.65
657.66	57621.65
657.86	57351.32
658.05	57341.08
658.24	57148.57
658.43	57195.67
658.63	57336.98
658.82	57644.18
659.01	57529.49
659.21	57525.39
659.40	57590.93
659.59	57257.11
659.79	57291.93
659.98	57529.49
660.17	57451.67
660.36	57244.82
660.56	57441.43
660.75	57242.77
660.94	57261.21
661.14	57351.32
661.33	57408.66
661.52	56882.33
661.71	57762.96
661.91	57228.44
662.10	57420.95
662.29	57678.99
662.49	57506.96
662.68	57259.16
662.87	57447.57
663.06	57719.95
663.26	57152.66
663.45	57709.71
663.64	58127.50
663.83	58029.19
664.03	57341.08
664.22	57744.53
664.41	57629.84
664.60	57277.59
664.80	58051.72
664.99	57302.17
665.18	57482.39
665.37	57386.13
665.57	57939.08
665.76	57568.40
665.95	57545.87
666.14	57654.42
666.34	57506.96
666.53	57103.51
666.72	57447.57
666.91	57439.38
667.11	57414.80
667.30	57316.50
667.49	57320.60
667.68	57588.88
667.87	57320.60
668.07	57492.63
668.26	57408.66
668.45	57547.92
668.64	57210.01
668.84	58365.06
669.03	58084.49
669.22	57490.58
669.41	57173.14
669.60	57605.26
669.80	57744.53
669.99	57666.70
670.18	57373.84
670.37	57810.06
670.57	57447.57
670.76	57336.98
670.95	57640.08
671.14	57455.76
671.33	57109.66
671.53	57873.55
671.72	57554.07
671.91	57781.39
672.10	57332.89
672.29	57773.20
672.48	57246.87
672.68	57529.49
672.87	57418.90
673.06	57379.99
673.25	57005.21
673.44	57531.54
673.64	56966.30
673.83	57201.82
674.02	57287.83
674.21	57164.95
674.40	57541.78
674.59	57080.98
674.79	57296.02
674.98	57263.25
675.17	57365.65
675.36	57154.71
675.55	57406.61
675.74	56857.76
675.94	57162.90
676.13	57752.72
676.32	57502.87
676.51	57566.35
676.70	57793.68
676.89	57025.69
677.08	57535.63
677.28	56730.78
677.47	57433.24
677.66	57644.18
677.85	57099.42
678.04	57775.25
678.23	57605.26
678.42	57468.05
678.62	57414.80
678.81	57498.77
679.00	57136.28
679.19	57607.31
679.38	57302.17
679.57	57408.66
679.76	56845.47
679.96	57265.30
680.15	57277.59
680.34	57492.63
680.53	57203.86
680.72	57742.48
680.91	57429.14
681.10	57222.29
681.29	57662.61
681.48	56800.41
681.68	57103.51
681.87	56702.11
682.06	56630.43
682.25	56515.75
682.44	57240.73
682.63	57296.02
682.82	56446.11
683.01	56802.46
683.20	56655.01
683.39	56327.33
683.59	56517.79
683.78	56765.60
683.97	56429.73
684.16	56644.77
684.35	56544.42
684.54	56546.47
684.73	56433.83
684.92	56775.84
685.11	56507.55
685.30	56173.73
685.49	56540.32
685.69	56710.30
685.88	56341.67
686.07	56536.23
686.26	56431.78
686.45	56601.76
686.64	56476.83
686.83	56304.80
687.02	56468.64
687.21	56587.42
687.40	56468.64
687.59	56573.09
687.78	56210.60
687.97	56386.72
688.16	56296.61
688.35	56286.37
688.54	56341.67
688.74	56433.83
688.93	56048.81
689.12	56030.38
689.31	56272.04
689.50	56128.68
689.69	55561.39
689.88	55575.73
690.07	55862.44
690.26	55686.32
690.45	56159.40
690.64	55979.18
690.83	55647.41
691.02	55841.96
691.21	55811.24
691.40	55710.89
691.59	55678.13
691.78	56009.90
691.97	55893.16
692.16	55710.89
692.35	55973.03
692.54	55534.77
692.73	55870.64
692.92	55540.91
693.11	55710.89
693.30	55600.30
693.49	55620.78
693.68	55510.19
693.87	55321.78
694.06	54871.23
694.25	55669.93
694.44	54858.94
694.63	55227.57
694.82	55413.94
695.01	54928.57
695.20	55260.34
695.39	55452.85
695.58	55205.05
695.77	54860.99
695.96	54817.98
696.15	55379.12
696.34	54908.09
696.53	55014.58
696.72	55334.07
696.91	55243.96
697.10	54744.25
697.29	54838.46
697.48	54998.20
697.67	54723.77
697.86	54557.89
698.05	54772.92
698.24	55405.75
698.43	54351.04
698.62	54891.71
698.81	54682.81
699.00	54910.14
699.19	54209.73
699.38	54711.49
699.57	54451.39
699.76	54791.36
699.95	54389.95
700.14	54293.70
700.32	54521.02
700.51	54402.24
700.70	54903.99
700.89	54625.47
701.08	54334.66
701.27	54631.61
701.46	54697.15
701.65	53695.69
701.84	54400.19
702.03	53966.02
702.22	53949.64
702.41	54303.94
702.60	54533.31
702.79	53988.55
702.98	53531.86
703.17	54334.66
703.35	53529.81
703.54	53796.04
703.73	54009.03
703.92	54179.01
704.11	53507.28
704.30	53630.16
704.49	53544.14
704.68	53130.45
704.87	53605.58
705.06	53673.16
705.25	53296.34
705.43	53316.82
705.62	53626.06
705.81	53458.13
706.00	53310.67
706.19	52935.90
706.38	53378.26
706.57	53507.28
706.76	52770.01
706.95	53417.17
707.14	52894.94
707.32	53282.00
707.51	52618.46
707.70	53026.01
707.89	53353.68
708.08	53507.28
708.27	52860.12
708.46	53122.26
708.65	52944.09
708.84	53071.06
709.02	53009.62
709.21	52745.44
709.40	52995.29
709.59	52630.75
709.78	52909.27
709.97	53138.65
710.16	52278.50
710.34	52929.75
710.53	52448.48
710.72	52667.61
710.91	52364.51
711.10	52331.75
711.29	52569.31
711.48	52835.55
711.66	52129.00
711.85	52096.23
712.04	52428.00
712.23	52444.38
712.42	52456.67
712.61	52456.67
712.80	52122.85
712.98	52368.61
713.17	52077.80
713.36	52487.39
713.55	52272.35
713.74	51746.03
713.93	51672.30
714.11	51850.47
714.30	51561.71
714.49	51846.38
714.68	51963.11
714.87	51770.60
715.06	51821.80
715.24	51758.31
715.43	51739.88
715.62	51182.84
715.81	51057.91
716.00	51737.83
716.18	51156.21
716.37	50746.62
716.56	50902.26
716.75	51393.78
716.94	51494.13
717.12	50865.40
717.31	51178.74
717.50	51365.10
717.69	51307.76
717.88	51231.99
718.06	51318.00
718.25	51670.25
718.44	50420.99
718.63	50916.60
718.82	50703.61
719.00	50658.56
719.19	50492.67
719.38	50689.27
719.57	50447.61
719.76	50179.33
719.94	49829.13
720.13	50246.91
720.32	50377.98
720.51	50468.09
720.69	50304.26
720.88	50277.63
721.07	49927.43
721.26	49794.31
721.44	49771.78
721.63	49696.01
721.82	49489.16
722.01	49546.51
722.20	49841.42
722.38	49657.10
722.57	49427.73
722.76	49341.71
722.95	49493.26
723.13	48780.57
723.32	49345.81
723.51	49255.70
723.70	49446.16
723.88	49171.73
724.07	48676.12
724.26	49706.25
724.44	48848.15
724.63	49136.91
724.82	49304.85
725.01	49052.95
725.19	49065.24
725.38	48866.58
725.57	48780.57
725.76	48934.17
725.94	48489.76
726.13	48655.64
726.32	48846.10
726.51	48616.73
726.69	48805.14
726.88	48514.33
727.07	48442.65
727.25	48387.36
727.44	48762.14
727.63	48442.65
727.82	48440.60
728.00	48356.64
728.19	48270.62
728.38	48669.98
728.56	47535.40
728.75	48665.88
728.94	48338.21
729.12	48739.61
729.31	48518.43
729.50	48334.11
729.69	48362.78
729.87	47990.05
730.06	48321.82
730.25	48104.74
730.43	48596.25
730.62	47906.08
730.81	48268.58
730.99	48608.54
731.18	48354.59
731.37	48305.44
731.55	48121.12
731.74	48973.08
731.93	48522.52
732.11	48309.53
732.30	48207.14
732.49	48002.34
732.67	48071.97
732.86	48166.18
733.05	48194.85
733.23	47426.86
733.42	47895.85
733.61	47570.22
733.79	48108.83
733.98	48035.11
734.17	47977.76
734.35	48145.70
734.54	48155.94
734.73	48739.61
734.91	47742.25
735.10	47455.53
735.29	48074.02
735.47	47633.71
735.66	47938.85
735.84	47369.52
736.03	47572.27
736.22	47906.08
736.40	47476.01
736.59	47908.13
736.78	47717.67
736.96	47547.69
737.15	47537.45
737.33	47256.88
737.52	47496.49
737.71	47488.30
737.89	47050.03
738.08	46996.79
738.27	47121.71
738.45	47691.05
738.64	47512.88
738.82	47390.00
739.01	47562.03
739.20	47322.41
739.38	47316.27
739.57	47080.75
739.75	47314.22
739.94	47424.81
740.13	47181.10
740.31	47015.22
740.50	47117.62
740.68	47224.11
740.87	47056.18
741.06	47344.94
741.24	46947.64
741.43	47017.27
741.61	47146.29
741.80	46734.65
741.99	46718.26
742.17	46841.14
742.36	47082.80
742.54	46591.29
742.73	46837.05
742.91	46970.16
743.10	46699.83
743.29	47052.08
743.47	46716.22
743.66	46531.90
743.84	46769.46
744.03	46767.41
744.21	46335.29
744.40	46955.83
744.59	46576.95
744.77	46714.17
744.96	46708.02
745.14	47045.94
745.33	46779.70
745.51	46601.53
745.70	46646.58
745.88	46206.27
746.07	46873.91
746.26	46001.47
746.44	46218.56
746.63	46533.95
746.81	46224.70
747.00	46290.24
747.18	46271.81
747.37	46120.26
747.55	46495.03
747.74	46316.86
747.92	45849.92
748.11	46058.82
748.29	45923.65
748.48	46202.18
748.66	45987.14
748.85	45585.74
749.03	45909.32
749.22	45620.55
749.41	45669.70
749.59	45880.64
749.78	45475.15
749.96	45473.10
750.15	45581.64
750.33	45921.60
750.52	45630.79
750.70	45235.53
750.89	45073.74
751.07	44987.73
751.26	45428.04
751.44	45489.48
751.63	45552.97
751.81	45202.77
752.00	45137.23
752.18	45487.43
752.37	45423.95
752.55	45253.97
752.74	44637.53
752.92	45122.90
753.10	45112.66
753.29	45094.22
753.47	45213.01
753.66	45126.99
753.84	44889.43
754.03	44666.20
754.21	44741.97
754.40	44799.32
754.58	44522.84
754.77	44744.02
754.95	44281.18
755.14	44514.65
755.32	44514.65
755.51	44457.31
755.69	44277.08
755.88	44610.90
756.06	44750.17
756.24	44506.46
756.43	44483.93
756.61	44414.30
756.80	44283.23
756.98	44221.79
757.17	44254.56
757.35	44313.95
757.54	44324.19
757.72	44143.97
757.90	43965.79
758.09	44105.06
758.27	44131.68
758.46	43613.54
758.64	44123.49
758.83	44150.11
759.01	44139.87
759.19	44197.21
759.38	44029.28
759.56	44156.25
759.75	44119.39
759.93	43771.24
760.12	43703.65
760.30	43603.30
760.48	43531.62
760.67	43517.29
760.85	43603.30
761.04	43998.56
761.22	43492.71
761.40	43765.09
761.59	43615.59
761.77	43322.73
761.96	43212.14
762.14	43410.79
762.32	43191.66
762.51	43318.64
762.69	43312.49
762.88	43394.41
763.06	43515.24
763.24	43339.11
763.43	43638.12
763.61	43357.55
763.80	43314.54
763.98	43244.91
764.16	43042.16
764.35	43173.23
764.53	42415.48
764.72	43064.69
764.90	43079.02
765.08	42816.88
765.27	42655.09
765.45	42323.32
765.63	42558.84
765.82	43062.64
766.00	42243.45
766.18	42564.98
766.37	42730.87
766.55	42597.75
766.74	42597.75
766.92	42773.88
767.10	42468.73
767.29	42487.16
767.47	41901.44
767.65	42503.54
767.84	41915.78
768.02	42532.22
768.20	42098.05
768.39	41903.49
768.57	42182.01
768.75	42526.07
768.94	41891.20
769.12	41780.61
769.30	42032.51
769.49	41782.66
769.67	41733.51
769.85	41670.02
770.04	41700.74
770.22	41594.25
770.40	41457.03
770.59	41639.30
770.77	41799.04
770.95	41461.13
771.14	41162.12
771.32	40955.28
771.50	41108.88
771.69	41088.40
771.87	41321.87
772.05	41078.16
772.24	41192.84
772.42	40916.37
772.60	41033.10
772.78	40707.47
772.97	40703.38
773.15	41149.84
773.33	41211.28
773.52	40885.65
773.70	41137.55
773.88	40910.22
774.07	40619.41
774.25	41297.29
774.43	41256.33
774.61	40859.02
774.80	40732.05
774.98	41020.81
775.16	40822.16
775.34	41131.40
775.53	40955.28
775.71	41196.94
775.89	40883.60
776.08	40949.14
776.26	41051.53
776.44	40981.90
776.62	41196.94
776.81	40859.02
776.99	41553.29
777.17	41137.55
777.35	41174.41
777.54	41459.08
777.72	41215.37
777.90	41323.91
778.08	41360.78
778.27	41221.52
778.45	41409.93
778.63	41938.30
778.81	41309.58
779.00	42028.41
779.18	41395.59
779.36	41698.69
779.54	41385.35
779.73	41573.77
779.91	41573.77
780.09	41543.05
780.27	41303.43
780.46	41641.35
780.64	41983.36
780.82	41756.03
781.00	41506.18
781.19	42120.57
781.37	42171.77
781.55	41999.74
781.73	42235.26
781.91	41964.93
782.10	41745.80
782.28	41905.54
782.46	42351.99
782.64	42427.77
782.82	41811.33
783.01	42061.18
783.19	42241.40
783.37	42433.91
783.55	41940.35
783.74	41907.58
783.92	41934.21
784.10	42026.37
784.28	42190.20
784.46	41842.05
784.64	42286.46
784.83	42368.38
785.01	42628.47
785.19	42104.19
785.37	42003.84
785.55	42120.57
785.74	41553.29
785.92	41823.62
786.10	42022.27
786.28	41962.88
786.46	41948.54
786.64	41561.48
786.83	41692.55
787.01	41880.96
787.19	41694.60
787.37	41690.50
787.55	41563.53
787.74	41909.63
787.92	41784.71
788.10	41442.70
788.28	41420.17
788.46	41637.25
788.64	41317.77
788.82	41893.25
789.01	41565.57
789.19	41682.31
789.37	41452.94
789.55	41162.12
789.73	41106.83
789.91	40961.42
790.09	41184.65
790.28	40938.90
790.46	40863.12
790.64	41452.94
790.82	40842.64
791.00	40764.82
791.18	40744.34
791.36	40525.21
791.55	40627.60
791.73	40275.35
791.91	40082.84
792.09	40258.97
792.27	40510.87
792.45	40453.53
792.63	40281.50
792.81	40285.59
793.00	40347.03
793.18	39767.46
793.36	40025.50
793.54	39699.87
793.72	39548.32
793.90	39964.06
794.08	39450.02
794.26	39531.94
794.44	39450.02
794.62	38950.32
794.81	39531.94
794.99	39103.92
795.17	39038.38
795.35	39101.87
795.53	39388.58
795.71	39513.51
795.89	38899.12
796.07	38737.33
796.25	38448.57
796.43	38118.84
796.61	38522.29
796.80	37983.68
796.98	38161.85
797.16	38188.47
797.34	38528.44
797.52	38016.44
797.70	38593.97
797.88	38024.64
798.06	38114.75
798.24	37912.00
798.42	38129.08
798.60	37807.55
798.78	37731.78
798.96	37701.06
799.14	37416.39
799.32	37582.27
799.51	37330.37
799.69	37467.59
799.87	37127.63
800.05	37121.48
800.23	36935.12
800.41	37066.19
800.59	36990.41
800.77	36808.14
800.95	36480.47
801.13	37076.43
801.31	36748.75
801.49	36775.37
801.67	36935.12
801.85	36464.08
802.03	36181.46
802.21	35972.57
802.39	35984.86
802.57	35821.02
802.75	36187.61
802.93	35831.26
803.11	36134.36
803.29	35589.60
803.47	35325.41
803.65	35894.75
803.83	35741.15
804.01	35352.04
804.19	35562.98
804.37	35053.03
804.55	35386.85
804.73	35055.08
804.91	35296.74
805.09	35268.07
805.27	35161.58
805.45	35085.80
805.63	34995.69
805.81	35075.56
805.99	35114.47
806.17	35069.42
806.35	34647.54
806.53	34684.40
806.71	34878.96
806.89	34262.52
807.07	34911.72
807.25	34532.85
807.43	34108.92
807.61	34272.76
807.79	34520.56
807.97	33932.79
808.15	33975.80
808.33	33955.32
808.51	33814.01
808.69	33814.01
808.87	33574.40
809.05	33533.44
809.23	33435.14
809.41	33121.80
809.59	33447.43
809.77	33621.50
809.95	33228.29
810.13	33803.77
810.31	33107.46
810.49	33443.33
810.67	32984.58
810.84	32841.23
811.02	33152.52
811.20	32618.00
811.38	33029.64
811.56	32781.84
811.74	32974.34
811.92	32445.97
812.10	32583.18
812.28	32654.86
812.46	32779.79
812.64	32568.85
812.82	32263.70
813.00	32095.77
813.18	32546.32
813.36	32245.27
813.53	32087.57
813.71	32083.48
813.89	31706.65
814.07	32142.87
814.25	32214.55
814.43	32069.14
814.61	31847.96
814.79	31929.88
814.97	31665.69
815.15	31424.03
815.33	31610.40
815.50	31553.05
815.68	31350.31
815.86	31360.55
816.04	31381.03
816.22	31399.46
816.40	31129.12
816.58	30897.70
816.76	31168.04
816.94	31268.39
817.11	31389.22
817.29	31395.36
817.47	30862.89
817.65	30815.79
817.83	31274.53
818.01	30506.54
818.19	30723.63
818.37	30656.04
818.54	30291.51
818.72	30610.99
818.90	30594.61
819.08	30174.77
819.26	30137.91
819.44	30426.67
819.62	30328.37
819.80	30594.61
819.97	29937.21
820.15	30035.51
820.33	29867.58
820.51	30354.99
820.69	29943.35
820.87	30205.49
821.05	30086.71
821.22	29652.54
821.40	30084.66
821.58	29640.25
821.76	29767.23
821.94	29830.71
822.12	29328.96
822.29	29861.43
822.47	29447.74
822.65	30055.99
822.83	29840.95
823.01	29582.91
823.19	29238.85
823.36	29167.17
823.54	29208.13
823.72	29257.28
823.90	29376.06
824.08	29095.49
824.25	29032.00
824.43	29124.16
824.61	29144.64
824.79	28931.65
824.97	29054.53
825.15	28974.66
825.32	29132.36
825.50	28800.58
825.68	28411.47
825.86	28937.80
826.04	28884.55
826.21	28763.72
826.39	28724.81
826.57	28778.06
826.75	28317.26
826.93	28403.28
827.10	28446.29
827.28	28366.42
827.46	28495.44
827.64	28317.26
827.81	28028.50
827.99	28372.56
828.17	28280.40
828.35	28065.36
828.53	28132.95
828.70	27799.13
828.88	27864.66
829.06	27868.76
829.24	28352.08
829.41	27825.75
829.59	27823.70
829.77	27997.78
829.95	27971.16
830.12	27934.29
830.30	27784.79
830.48	27868.76
830.66	27661.91
830.84	27553.37
831.01	27506.27
831.19	27561.56
831.37	27715.16
831.55	27395.68
831.72	27231.84
831.90	27340.38
832.08	27819.61
832.25	27600.47
832.43	27336.29
832.61	27201.12
832.79	27033.19
832.96	27244.13
833.14	27160.16
833.32	27125.35
833.50	27231.84
833.67	26900.07
833.85	26949.22
834.03	26750.57
834.20	27260.51
834.38	26953.32
834.56	27080.29
834.74	27053.67
834.91	26918.50
835.09	26615.40
835.27	26766.95
835.44	26779.24
835.62	26275.44
835.80	26545.77
835.98	26601.07
836.15	26840.68
836.33	26711.66
836.51	26594.92
836.68	25925.24
836.86	26517.10
837.04	26361.45
837.21	26187.38
837.39	26539.63
837.57	26523.24
837.75	26381.93
837.92	26113.65
838.10	26068.59
838.28	25976.44
838.45	26058.35
838.63	25820.79
838.81	25867.89
838.98	25902.71
839.16	25771.64
839.34	25749.11
839.51	25783.93
839.69	25491.07
839.87	25665.14
840.04	25699.96
840.22	25767.54
840.40	25853.56
840.57	25306.75
840.75	25540.22
840.93	25355.90
841.10	25534.07
841.28	25673.34
841.46	25368.19
841.63	25831.03
841.81	25360.00
841.98	25333.37
842.16	25472.64
842.34	25501.31
842.51	25253.50
842.69	25456.25
842.87	25339.52
843.04	25464.44
843.22	25017.99
843.40	25116.29
843.57	25069.19
843.75	25044.61
843.92	24966.79
844.10	25034.37
844.28	25026.18
844.45	25151.10
844.63	25075.33
844.81	24917.64
844.98	24815.24
845.16	24766.09
845.33	24831.62
845.51	24950.40
845.69	24841.86
845.86	24473.23
846.04	24405.64
846.21	24923.78
846.39	24213.13
846.57	24598.15
846.74	24344.20
846.92	24622.73
847.09	24372.88
847.27	24397.45
847.45	24403.60
847.62	24311.44
847.80	24485.51
847.97	24512.14
848.15	24108.69
848.32	24153.74
848.50	24276.62
848.68	24123.02
848.85	24075.92
849.03	23580.31
849.20	23936.66
849.38	24159.89
849.56	24153.74
849.73	23602.84
849.91	24006.29
850.08	24237.71
850.26	23639.70
850.43	23756.44
850.61	23651.99
850.78	23350.94
850.96	23508.63
851.14	23629.46
851.31	23545.50
851.49	23561.88
851.66	23795.35
851.84	23316.12
852.01	23580.31
852.19	23479.96
852.36	23463.58
852.54	23742.10
852.71	23309.98
852.89	23154.33
853.07	23375.52
853.24	23373.47
853.42	23529.11
853.59	23140.00
853.77	23307.93
853.94	23234.21
854.12	23486.11
854.29	23217.82
854.47	23219.87
854.64	23008.93
854.82	23158.43
854.99	22797.99
855.17	23242.40
855.34	22632.10
855.52	22937.25
855.69	23103.14
855.87	22912.67
856.04	22668.97
856.22	23023.26
856.39	22701.73
856.57	22664.87
856.74	22765.22
856.92	22931.11
857.09	22574.76
857.27	22797.99
857.44	22746.79
857.62	22693.54
857.79	22587.05
857.97	22539.94
858.14	22132.40
858.32	22439.59
858.49	22455.98
858.67	22120.11
858.84	22245.04
859.02	22412.97
859.19	21980.85
859.37	22392.49
859.54	22101.68
859.72	22611.62
859.89	22130.35
860.06	22279.85
860.24	21974.70
860.41	22062.77
860.59	21810.87
860.76	21870.26
860.94	21720.76
861.11	21720.76
861.29	21862.07
861.46	22046.38
861.64	21513.91
861.81	21536.44
861.98	21444.28
862.16	21538.49
862.33	21513.91
862.51	21833.39
862.68	21743.28
862.86	21339.83
863.03	21683.89
863.21	21456.57
863.38	21704.37
863.55	21247.68
863.73	21542.58
863.90	21601.97
864.08	21372.60
864.25	21329.59
864.43	21202.62
864.60	20930.24
864.77	20883.14
864.95	20928.19
865.12	20868.80
865.30	21309.11
865.47	21092.03
865.64	21143.23
865.82	21003.97
865.99	21468.86
866.17	20801.22
866.34	20928.19
866.51	20534.98
866.69	20856.51
866.86	20969.15
867.04	20676.29
867.21	20860.61
867.38	20637.38
867.56	20674.24
867.73	20526.79
867.91	20367.05
868.08	20528.84
868.25	20586.18
868.43	20393.67
868.60	20438.73
868.78	20127.44
868.95	20614.85
869.12	20446.92
869.30	20037.33
869.47	20166.35
869.64	20029.13
869.82	20338.38
869.99	20035.28
870.16	20090.57
870.34	20106.96
870.51	20414.15
870.69	20102.86
870.86	20057.81
871.03	20000.46
871.21	19918.54
871.38	20035.28
871.55	20022.99
871.73	19982.03
871.90	19775.19
872.07	19396.31
872.25	19484.37
872.42	19662.55
872.59	19537.62
872.77	19586.77
872.94	19529.43
873.11	19519.19
873.29	19566.29
873.46	19334.87
873.63	19361.50
873.81	19377.88
873.98	19128.03
874.15	19048.16
874.33	18994.91
874.50	19136.22
874.67	19138.27
874.85	18939.62
875.02	19015.39
875.19	18775.78
875.37	18833.12
875.54	18661.09
875.71	19001.05
875.88	18757.35
876.06	18906.85
876.23	18896.61
876.40	18538.21
876.58	18673.38
876.75	18597.60
876.92	18685.67
877.10	18648.80
877.27	18427.62
877.44	18509.54
877.61	18183.91
877.79	18321.13
877.96	18157.29
878.13	18261.74
878.31	18292.46
878.48	17954.54
878.65	17913.58
878.82	18034.41
879.00	17981.17
879.17	18136.81
879.34	18011.89
879.51	17913.58
879.69	17841.90
879.86	17764.08
880.03	17915.63
880.21	17829.62
880.38	18003.69
880.55	17884.91
880.72	17610.48
880.90	17733.36
881.07	17372.92
881.24	17506.04
881.41	17860.34
881.59	17434.36
881.76	17565.43
881.93	17426.17
882.10	17684.21
882.28	17401.59
882.45	17719.03
882.62	17338.10
882.79	17559.28
882.96	17213.18
883.14	17211.13
883.31	17549.04
883.48	17313.53
883.65	17166.07
883.83	17655.54
884.00	17030.91
884.17	17211.13
884.34	17223.42
884.51	16934.65
884.69	17207.03
884.86	16959.23
885.03	17135.35
885.20	16899.84
885.38	17094.40
885.55	16871.17
885.72	17129.21
885.89	16971.52
886.06	16848.64
886.24	17116.92
886.41	17006.33
886.58	17002.24
886.75	17192.70
886.92	16772.86
887.10	16914.17
887.27	16418.57
887.44	16836.35
887.61	16838.40
887.78	16701.19
887.95	16951.04
888.13	16645.89
888.30	16586.50
888.47	16504.58
888.64	16631.55
888.81	16568.07
888.99	16592.64
889.16	16367.37
889.33	16535.30
889.50	16178.95
889.67	16434.95
889.84	16144.14
890.01	16205.58
890.19	16371.46
890.36	16109.32
890.53	16271.11
890.70	16049.93
890.87	16054.03
891.04	15965.96
891.22	15947.53
891.39	16070.41
891.56	15941.39
891.73	16064.27
891.90	15701.78
892.07	15826.70
892.24	16203.53
892.42	15685.39
892.59	15896.33
892.76	15789.84
892.93	15746.83
893.10	15628.05
893.27	15726.35
893.44	15537.94
893.61	15795.98
893.79	15814.41
893.96	15826.70
894.13	15732.50
894.30	15644.43
894.47	15671.06
894.64	15718.16
894.81	15615.76
894.98	15765.26
895.15	15847.18
895.33	15501.08
895.50	15576.85
895.67	15890.19
895.84	15679.25
896.01	15337.24
896.18	15605.52
896.35	15740.69
896.52	15611.67
896.69	15568.66
896.86	15462.16
897.04	15728.40
897.21	15394.58
897.38	15417.11
897.55	15298.33
897.72	15505.17
897.89	15316.76
898.06	15327.00
898.23	15486.74
898.40	15245.08
898.57	15363.86
898.74	15458.07
898.91	15331.09
899.08	15400.72
899.26	15482.64
899.43	15439.64
899.60	15324.95
899.77	15269.66
899.94	15130.39
900.11	15120.15
900.28	15245.08
900.45	15308.57
900.62	15054.62
900.79	15513.36
900.96	15064.86
901.13	15232.79
901.30	15124.25
901.47	15122.20
901.64	15091.48
901.81	15271.70
901.98	15271.70
902.15	15318.81
902.32	15179.54
902.49	15349.53
902.66	15152.92
902.83	15290.13
903.01	15380.25
903.18	15392.53
903.35	15370.01
903.52	15343.38
903.69	15181.59
903.86	15392.53
904.03	15275.80
904.20	15466.26
904.37	15449.88
904.54	15208.22
904.71	15087.39
904.88	15077.15
905.05	15019.80
905.22	15327.00
905.39	14796.57
905.56	15152.92
905.73	15095.58
905.90	15087.39
906.07	15327.00
906.24	15245.08
906.41	15101.72
906.58	15212.31
906.75	15081.24
906.92	15050.52
907.09	15142.68
907.26	15224.60
907.43	14677.79
907.60	15208.22
907.77	15093.53
907.93	15099.67
908.10	15075.10
908.27	15298.33
908.44	14847.77
908.61	14847.77
908.78	14929.69
908.95	15144.73
909.12	15177.50
909.29	14964.51
909.46	14962.46
909.63	15109.91
909.80	14978.84
909.97	15015.71
910.14	15056.67
910.31	15005.47
910.48	14751.52
910.65	14917.40
910.82	14976.80
910.99	14677.79
911.16	14645.02
911.33	14741.28
911.50	14792.48
911.66	14640.93
911.83	14919.45
912.00	15068.95
912.17	14604.07
912.34	14604.07
912.51	14327.59
912.68	14509.86
912.85	14765.85
913.02	14677.79
913.19	14614.30
913.36	14458.66
913.53	14405.41
913.70	14239.53
913.86	14577.44
914.03	14331.69
914.20	14313.25
914.37	14436.13
914.54	14221.10
914.71	14413.60
914.88	14491.43
915.05	14278.44
915.22	14163.75
915.39	14092.07
915.55	14286.63
915.72	14186.28
915.89	14120.74
916.06	13997.87
916.23	14055.21
916.40	13821.74
916.57	13993.77
916.74	13948.72
916.91	13819.69
917.07	13606.70
917.24	13760.30
917.41	13784.88
917.58	13760.30
917.75	13606.70
917.92	13729.58
918.09	13590.32
918.26	13743.92
918.42	13530.93
918.59	13688.62
918.76	13426.48
918.93	13475.63
919.10	13309.75
919.27	13125.43
919.44	13422.39
919.60	13578.03
919.77	13094.71
919.94	13037.37
920.11	13190.97
920.28	13133.62
920.45	12992.31
920.61	12982.07
920.78	12947.26
920.95	12803.90
921.12	13084.47
921.29	12926.78
921.46	12801.85
921.62	12588.86
921.79	12709.69
921.96	12728.13
922.13	12617.54
922.30	12627.78
922.47	12629.82
922.63	12488.51
922.80	12564.29
922.97	12308.29
923.14	12414.79
923.31	12556.10
923.47	12201.80
923.64	12547.90
923.81	12242.76
923.98	12171.08
924.15	12166.98
924.32	12126.02
924.48	12150.60
924.65	12144.45
924.82	11986.76
924.99	12033.86
925.15	11710.29
925.32	11765.58
925.49	11585.36
925.66	12048.20
925.83	11654.99
925.99	11620.17
926.16	11593.55
926.33	11595.60
926.50	11226.96
926.67	11433.81
926.83	11679.57
927.00	11261.78
927.17	11239.25
927.34	11099.99
927.50	11298.64
927.67	11321.17
927.84	11069.27
928.01	10960.73
928.17	11192.15
928.34	10901.34
928.51	11116.37
928.68	10977.11
928.84	10964.82
929.01	10837.85
929.18	10688.35
929.35	10514.27
929.51	10612.57
929.68	10671.97
929.85	10530.66
930.02	10534.75
930.18	10383.20
930.35	10594.14
930.52	10393.44
930.69	10465.12
930.85	10385.25
931.02	10157.92
931.19	10307.43
931.36	10172.26
931.52	10170.21
931.69	10067.81
931.86	10178.40
932.02	10174.31
932.19	9946.98
932.36	10037.09
932.53	9908.07
932.69	9871.21
932.86	9969.51
933.03	9963.37
933.19	9527.15
933.36	9654.12
933.53	9674.60
933.70	9510.77
933.86	9672.56
934.03	9621.36
934.20	9394.03
934.36	9398.13
934.53	9328.50
934.70	9144.18
934.86	9293.68
935.03	8884.09
935.20	9013.11
935.36	9054.07
935.53	8902.52
935.70	8963.96
935.86	8779.64
936.03	8662.91
936.20	8640.38
936.36	8556.41
936.53	8415.10
936.70	8329.09
936.86	8628.09
937.03	8476.54
937.20	8206.21
937.36	8232.83
937.53	7997.32
937.70	7864.20
937.86	7743.37
938.03	7956.36
938.20	7995.27
938.36	7769.99
938.53	7638.92
938.70	7393.17
938.86	7516.05
939.03	7417.74
939.20	7231.38
939.36	7290.77
939.53	7321.49
939.70	7305.10
939.86	6875.03
940.03	6942.61
940.19	6842.26
940.36	6719.39
940.53	6834.07
940.69	6602.65
940.86	6655.90
941.03	6465.44
941.19	6315.94
941.36	6363.04
941.52	6379.42
941.69	6221.73
941.86	6080.42
942.02	6156.19
942.19	6045.60
942.35	6164.39
942.52	5887.91
942.69	5941.16
942.85	5867.43
943.02	5834.66
943.18	5808.04
943.35	5814.18
943.52	5744.55
943.68	5687.21
943.85	5687.21
944.01	5644.20
944.18	5658.54
944.35	5681.07
944.51	5474.22
944.68	5310.38
944.84	5500.84
945.01	5492.65
945.17	5394.35
945.34	5371.82
945.51	5463.98
945.67	5506.99
945.84	5492.65
946.00	5218.22
946.17	5420.97
946.33	5146.55
946.50	5351.34
946.67	5263.28
946.83	5203.89
947.00	5369.77
947.16	5287.86
947.33	5203.89
947.49	5210.03
947.66	5140.40
947.82	5302.19
947.99	5255.09
948.16	5408.69
948.32	5392.30
948.49	5205.94
948.65	5377.97
948.82	5361.58
948.98	5345.20
949.15	5097.39
949.31	5320.62
949.48	5322.67
949.64	5193.65
949.81	5255.09
949.97	5171.12
950.14	5296.05
950.30	5185.46
950.47	5500.84
950.63	5261.23
950.80	5162.93
950.96	5326.77
951.13	5273.52
951.30	5398.45
951.46	5414.83
951.63	5377.97
951.79	5318.57
951.96	5574.57
952.12	5255.09
952.29	5308.34
952.45	5339.05
952.62	5398.45
952.78	5509.04
952.94	5316.53
953.11	5439.40
953.27	5298.10
953.44	5517.23
953.60	5365.68
953.77	5457.84
953.93	5369.77
954.10	5345.20
954.26	5345.20
954.43	5425.07
954.59	5552.04
954.76	5560.24
954.92	5537.71
955.09	5386.16
955.25	5410.73
955.42	5322.67
955.58	5468.08
955.75	5511.08
955.91	5509.04
956.07	5472.17
956.24	5437.36
956.40	5388.21
956.57	5631.91
956.73	5552.04
956.90	5431.21
957.06	5275.57
957.23	5423.02
957.39	5273.52
957.56	5468.08
957.72	5244.85
957.88	5367.73
958.05	5506.99
958.21	5648.30
958.38	5363.63
958.54	5478.32
958.71	5597.10
958.87	5361.58
959.03	5490.60
959.20	5433.26
959.36	5351.34
959.53	5492.65
959.69	5408.69
959.85	5484.46
960.02	5443.50
960.18	5410.73
960.35	5435.31
960.51	5429.17
960.68	5343.15
960.84	5494.70
961.00	5337.01
961.17	5310.38
961.33	5455.79
961.50	5447.60
961.66	5470.12
961.82	5384.11
961.99	5539.76
962.15	5380.01
962.31	5322.67
962.48	5425.07
962.64	5568.43
962.81	5349.29
962.97	5353.39
963.13	5423.02
963.30	5345.20
963.46	5455.79
963.62	5435.31
963.79	5429.17
963.95	5386.16
964.12	5431.21
964.28	5365.68
964.44	5115.83
964.61	5396.40
964.77	5371.82
964.93	5447.60
965.10	5500.84
965.26	5277.62
965.42	5320.62
965.59	5271.47
965.75	5246.90
965.92	5402.54
966.08	5273.52
966.24	5334.96
966.41	5255.09
966.57	5377.97
966.73	5304.24
966.90	5300.14
967.06	5128.11
967.22	5179.31
967.39	5283.76
967.55	5091.25
967.71	5162.93
967.88	5132.21
968.04	5253.04
968.20	5124.02
968.37	5171.12
968.53	5160.88
968.69	5060.53
968.85	5171.12
969.02	5148.59
969.18	5302.19
969.34	5038.00
969.51	5044.15
969.67	5042.10
969.83	5038.00
970.00	5115.83
970.16	5066.67
970.32	5138.35
970.48	5130.16
970.65	4943.80
970.81	4984.76
970.97	5044.15
971.14	4937.65
971.30	4976.56
971.46	5064.63
971.63	5005.24
971.79	4997.04
971.95	4925.36
972.11	4896.69
972.28	4882.36
972.44	4990.90
972.60	4886.45
972.76	4947.89
972.93	4839.35
973.09	5062.58
973.25	4888.50
973.42	4929.46
973.58	4847.54
973.74	4857.78
973.90	4855.73
974.07	4853.69
974.23	4800.44
974.39	4845.49
974.55	4878.26
974.72	4769.72
974.88	4736.95
975.04	4784.06
975.20	4820.92
975.37	4835.25
975.53	4775.86
975.69	4683.70
975.85	4761.53
976.01	4646.84
976.18	4579.26
976.34	4786.10
976.50	4763.58
976.66	4661.18
976.83	4542.39
976.99	4685.75
977.15	4788.15
977.31	4530.11
977.47	4763.58
977.64	4464.57
977.80	4587.45
977.96	4755.38
978.12	4714.42
978.29	4433.85
978.45	4564.92
978.61	4493.24
978.77	4663.22
978.93	4485.05
979.10	4579.26
979.26	4519.87
979.42	4421.56
979.58	4360.13
979.74	4491.20
979.91	4386.75
980.07	4300.73
980.23	4546.49
980.39	4442.04
980.55	4552.63
980.71	4480.96
980.88	4419.52
981.04	4450.24
981.20	4372.41
981.36	4343.74
981.52	4345.79
981.68	4302.78
981.85	4411.32
982.01	4351.93
982.17	4278.21
982.33	4331.45
982.49	4356.03
982.65	4155.33
982.82	4380.61
982.98	4218.82
983.14	4116.42
983.30	4267.97
983.46	4411.32
983.62	4231.10
983.79	4241.34
983.95	4224.96
984.11	4188.10
984.27	4274.11
984.43	4157.38
984.59	4292.54
984.75	4337.60
984.91	4177.86
985.08	4145.09
985.24	4079.55
985.40	4134.85
985.56	4159.42
985.72	4161.47
985.88	4136.90
986.04	4159.42
986.20	4024.26
986.37	3975.11
986.53	3934.15
986.69	3987.40
986.85	3979.20
987.01	3950.53
987.17	4052.93
987.33	3960.77
987.49	3872.71
987.65	4026.31
987.82	3882.95
987.98	3901.38
988.14	4005.83
988.30	4052.93
988.46	3895.24
988.62	3987.40
988.78	3860.42
988.94	3786.69
989.10	3864.52
989.26	3887.04
989.42	3786.69
989.59	3811.27
989.75	3784.65
989.91	3940.29
990.07	3737.54
990.23	3885.00
990.39	3831.75
990.55	3796.93
990.71	3839.94
990.87	3786.69
991.03	3784.65
991.19	3758.02
991.35	3776.45
991.51	3731.40
991.67	3737.54
991.83	3760.07
992.00	3753.93
992.16	3852.23
992.32	3880.90
992.48	3764.17
992.64	3659.72
992.80	3661.77
992.96	3692.49
993.12	3657.67
993.28	3657.67
993.44	3639.24
993.60	3583.95
993.76	3690.44
993.92	3563.47
994.08	3596.23
994.24	3631.05
994.40	3504.07
994.56	3717.06
994.72	3581.90
994.88	3461.07
995.04	3461.07
995.20	3442.64
995.36	3467.21
995.52	3575.75
995.68	3428.30
995.84	3467.21
996.00	3600.33
996.16	3444.68
996.32	3342.28
996.48	3469.26
996.64	3557.32
996.80	3336.14
996.96	3452.88
997.12	3373.00
997.28	3432.40
997.44	3452.88
997.60	3330.00
997.76	3397.58
997.92	3426.25
998.08	3416.01
998.24	3297.23
998.40	3481.55
998.56	3452.88
998.72	3248.08
998.88	3330.00
999.04	3278.80
999.20	3301.33
999.36	3332.05
999.52	3395.53
999.68	3219.41
999.84	3348.43
1000.00	3352.52
1000.16	3319.76
1000.32	3192.78
1000.48	3203.02
1000.64	3188.69
1000.80	3256.27
1000.95	3100.62
1001.11	3280.85
1001.27	3090.38
1001.43	3301.33
1001.59	3215.31
1001.75	2985.94
1001.91	3192.78
1002.07	3129.30
1002.23	3135.44
1002.39	3051.47
1002.55	3092.43
1002.71	3174.35
1002.87	3080.14
1003.03	3149.78
1003.19	3178.45
1003.34	3160.02
1003.50	3078.10
1003.66	3104.72
1003.82	3137.49
1003.98	3149.78
1004.14	3024.85
1004.30	3063.76
1004.46	3000.27
1004.62	3051.47
1004.78	2916.31
1004.94	3028.95
1005.09	3016.66
1005.25	3125.20
1005.41	2961.36
1005.57	2881.49
1005.73	3012.56
1005.89	2912.21
1006.05	2967.51
1006.21	2994.13
1006.37	2858.96
1006.52	2979.79
1006.68	2818.00
1006.84	2928.60
1007.00	2949.08
1007.16	2985.94
1007.32	2955.22
1007.48	3018.71
1007.64	2983.89
1007.79	2901.97
1007.95	2830.29
1008.11	2957.27
1008.27	2877.40
1008.43	2836.44
1008.59	2844.63
1008.75	2918.36
1008.91	2936.79
1009.06	2846.68
1009.22	2834.39
1009.38	2840.53
1009.54	2803.67
1009.70	2811.86
1009.86	2748.37
1010.01	2834.39
1010.17	2680.79
1010.33	2879.44
1010.49	2803.67
1010.65	2863.06
1010.81	2740.18
1010.96	2760.66
1011.12	2779.09
1011.28	2725.85
1011.44	2768.85
1011.60	2734.04
1011.76	2715.61
1011.91	2705.37
1012.07	2625.50
1012.23	2668.50
1012.39	2656.22
1012.55	2729.94
1012.71	2680.79
1012.86	2674.65
1013.02	2598.87
1013.18	2631.64
1013.34	2686.94
1013.50	2772.95
1013.65	2607.06
1013.81	2584.54
1013.97	2568.15
1014.13	2656.22
1014.29	2578.39
1014.44	2658.26
1014.60	2684.89
1014.76	2672.60
1014.92	2467.80
1015.07	2555.86
1015.23	2615.26
1015.39	2686.94
1015.55	2543.58
1015.71	2523.10
1015.86	2535.39
1016.02	2457.56
1016.18	2459.61
1016.34	2514.91
1016.49	2574.30
1016.65	2557.91
1016.81	2498.52
1016.97	2525.15
1017.12	2576.34
1017.28	2344.92
1017.44	2447.32
1017.60	2512.86
1017.75	2443.23
1017.91	2494.43
1018.07	2512.86
1018.23	2516.95
1018.38	2445.27
1018.54	2447.32
1018.70	2459.61
1018.86	2369.50
1019.01	2363.36
1019.17	2455.51
1019.33	2531.29
1019.49	2420.70
1019.64	2295.77
1019.80	2379.74
1019.96	2389.98
1020.12	2428.89
1020.27	2383.84
1020.43	2416.60
1020.59	2410.46
1020.74	2267.10
1020.90	2486.23
1021.06	2351.07
1021.22	2361.31
1021.37	2344.92
1021.53	2402.27
1021.69	2392.03
1021.84	2301.92
1022.00	2379.74
1022.16	2308.06
1022.31	2324.44
1022.47	2353.12
1022.63	2385.88
1022.79	2299.87
1022.94	2273.25
1023.10	2373.60
1023.26	2310.11
1023.41	2248.67
1023.57	2250.72
1023.73	2316.25
1023.88	2269.15
1024.04	2191.33
1024.20	2242.53
1024.35	2293.72
1024.51	2215.90
1024.67	2258.91
1024.82	2301.92
1024.98	2248.67
1025.14	2176.99
1025.29	2222.05
1025.45	2314.20
1025.61	2103.26
1025.76	2240.48
1025.92	2215.90
1026.08	2199.52
1026.23	2199.52
1026.39	2308.06
1026.55	2164.70
1026.70	2209.76
1026.86	2154.46
1027.02	2248.67
1027.17	2240.48
1027.33	2090.98
1027.48	2236.38
1027.64	2107.36
1027.80	2127.84
1027.95	2140.13
1028.11	2176.99
1028.27	2224.09
1028.42	2119.65
1028.58	2093.02
1028.73	2164.70
1028.89	2099.17
1029.05	2174.94
1029.20	2138.08
>>>>>End Processed Spectral Data<<<<<
