SpectraSuite Data File
++++++++++++++++++++++++++++++++++++
Date: Fri Jun 02 14:51:10 CEST 2017
User: INFO_000
Dark Spectrum Present: No
Reference Spectrum Present: No
Number of Sampled Component Spectra: 1
Spectrometers: USB4H00879
Integration Time (usec): 80000 (USB4H00879)
Spectra Averaged: 1 (USB4H00879)
Boxcar Smoothing: 0 (USB4H00879)
Correct for Electrical Dark: No (USB4H00879)
Strobe/Lamp Enabled: No (USB4H00879)
Correct for Detector Non-linearity: No (USB4H00879)
Correct for Stray Light: No (USB4H00879)
Number of Pixels in Processed Spectrum: 3648
>>>>>Begin Processed Spectral Data<<<<<
345.13	1263.60
345.34	1263.60
345.56	1263.60
345.78	1339.37
345.99	1325.04
346.21	1699.81
346.42	1681.38
346.64	1667.05
346.86	1732.58
347.07	1628.14
347.29	1687.53
347.50	1644.52
347.72	1683.43
347.94	1738.73
348.15	1560.55
348.37	1597.42
348.59	1755.11
348.80	1619.94
349.02	1761.25
349.23	1894.37
349.45	1873.89
349.67	1898.47
349.88	1775.59
350.10	1900.52
350.31	1765.35
350.53	1822.69
350.75	1869.80
350.96	1783.78
351.18	1927.14
351.39	1802.21
351.61	1863.65
351.82	1853.41
352.04	1910.75
352.26	1830.88
352.47	1943.52
352.69	1923.04
352.90	1791.97
353.12	1777.64
353.34	1851.36
353.55	1923.04
353.77	1882.08
353.98	1841.12
354.20	1875.94
354.41	1933.28
354.63	1984.48
354.85	2060.26
355.06	1865.70
355.28	1785.83
355.49	1943.52
355.71	1857.51
355.92	1890.28
356.14	1912.80
356.35	1791.97
356.57	1839.08
356.79	1882.08
357.00	1935.33
357.22	1961.95
357.43	1861.60
357.65	1927.14
357.86	1849.32
358.08	1914.85
358.29	1908.71
358.51	1920.99
358.72	1978.34
358.94	1949.67
359.16	1904.61
359.37	1912.80
359.59	1966.05
359.80	1923.04
360.02	1943.52
360.23	1990.63
360.45	2000.87
360.66	1908.71
360.88	1896.42
361.09	1849.32
361.31	1955.81
361.52	1978.34
361.74	2076.64
361.95	2099.17
362.17	1832.93
362.38	2070.50
362.60	1957.86
362.81	1908.71
363.03	1877.99
363.24	1955.81
363.46	2123.74
363.67	2015.20
363.89	2009.06
364.10	2097.12
364.32	2002.91
364.53	2050.02
364.75	1914.85
364.96	2066.40
365.18	2000.87
365.39	2031.58
365.61	2015.20
365.82	2115.55
366.04	1992.67
366.25	1902.56
366.47	2121.70
366.68	2043.87
366.90	1998.82
367.11	2050.02
367.33	2090.98
367.54	2064.35
367.76	2043.87
367.97	2131.94
368.19	2074.59
368.40	2056.16
368.62	1949.67
368.83	1937.38
369.05	1953.76
369.26	1933.28
369.48	2019.30
369.69	1959.91
369.91	2172.89
370.12	2045.92
370.33	2146.27
370.55	1855.46
370.76	2060.26
370.98	2082.78
371.19	1941.47
371.41	1957.86
371.62	2123.74
371.84	1986.53
372.05	2162.66
372.27	2041.82
372.48	2076.64
372.69	2142.18
372.91	2119.65
373.12	2140.13
373.34	2115.55
373.55	2082.78
373.77	2119.65
373.98	2027.49
374.20	2222.05
374.41	2217.95
374.62	2119.65
374.84	2076.64
375.05	2099.17
375.27	2133.98
375.48	2197.47
375.70	2123.74
375.91	2299.87
376.12	2244.57
376.34	2174.94
376.55	2189.28
376.77	2248.67
376.98	2000.87
377.19	2136.03
377.41	2183.13
377.62	2240.48
377.84	2263.01
378.05	2328.54
378.27	2150.37
378.48	2357.21
378.69	2371.55
378.91	2375.64
379.12	2211.81
379.34	2222.05
379.55	2283.49
379.76	2254.81
379.98	2260.96
380.19	2238.43
380.41	2326.49
380.62	2357.21
380.83	2344.92
381.05	2254.81
381.26	2412.51
381.47	2170.85
381.69	2273.25
381.90	2349.02
382.12	2260.96
382.33	2250.72
382.54	2312.16
382.76	2289.63
382.97	2291.68
383.19	2267.10
383.40	2383.84
383.61	2326.49
383.83	2246.62
384.04	2363.36
384.25	2334.68
384.47	2318.30
384.68	2369.50
384.89	2293.72
385.11	2353.12
385.32	2297.82
385.54	2346.97
385.75	2314.20
385.96	2404.32
386.18	2406.36
386.39	2422.75
386.60	2420.70
386.82	2363.36
387.03	2453.47
387.24	2480.09
387.46	2441.18
387.67	2527.19
387.88	2619.35
388.10	2510.81
388.31	2553.82
388.52	2580.44
388.74	2484.19
388.95	2510.81
389.16	2490.33
389.38	2439.13
389.59	2557.91
389.80	2602.97
390.02	2512.86
390.23	2611.16
390.44	2482.14
390.66	2494.43
390.87	2482.14
391.08	2510.81
391.30	2662.36
391.51	2645.98
391.72	2641.88
391.94	2623.45
392.15	2562.01
392.36	2568.15
392.58	2559.96
392.79	2615.26
393.00	2789.33
393.22	2719.70
393.43	2731.99
393.64	2826.20
393.85	2693.08
394.07	2580.44
394.28	2711.51
394.49	2754.52
394.71	2721.75
394.92	2820.05
395.13	2674.65
395.35	2781.14
395.56	2693.08
395.77	2818.00
395.98	2877.40
396.20	2897.88
396.41	2883.54
396.62	2957.27
396.84	2944.98
397.05	2789.33
397.26	2887.64
397.47	2920.40
397.69	2818.00
397.90	3004.37
398.11	2879.44
398.32	2811.86
398.54	2852.82
398.75	2822.10
398.96	2846.68
399.18	3026.90
399.39	2807.77
399.60	3061.71
399.81	2953.17
400.03	2947.03
400.24	3209.17
400.45	2885.59
400.66	3014.61
400.88	2918.36
401.09	3106.77
401.30	3074.00
401.51	3084.24
401.73	3100.62
401.94	3092.43
402.15	3135.44
402.36	3100.62
402.58	3069.91
402.79	3213.26
403.00	3157.97
403.21	3227.60
403.43	3209.17
403.64	3321.81
403.85	3123.15
404.06	3297.23
404.27	3039.19
404.49	3200.98
404.70	2967.51
404.91	3231.69
405.12	3217.36
405.34	3237.84
405.55	3452.88
405.76	3235.79
405.97	3205.07
406.19	3354.57
406.40	3182.54
406.61	3344.33
406.82	3319.76
407.03	3289.04
407.25	3303.37
407.46	3327.95
407.67	3469.26
407.88	3440.59
408.09	3248.08
408.31	3313.61
408.52	3368.91
408.73	3315.66
408.94	3358.67
409.15	3330.00
409.37	3432.40
409.58	3424.20
409.79	3522.51
410.00	3481.55
410.21	3444.68
410.43	3338.19
410.64	3493.83
410.85	3614.66
411.06	3522.51
411.27	3585.99
411.48	3712.97
411.70	3567.56
411.91	3477.45
412.12	3626.95
412.33	3618.76
412.54	3567.56
412.76	3715.02
412.97	3651.53
413.18	3502.03
413.39	3590.09
413.60	3641.29
413.81	3592.14
414.03	3641.29
414.24	3637.19
414.45	3831.75
414.66	3551.18
414.87	3674.06
415.08	3553.23
415.30	3663.82
415.51	3725.26
415.72	3776.45
415.93	3758.02
416.14	3846.09
416.35	3774.41
416.56	3784.65
416.78	3801.03
416.99	3858.37
417.20	3723.21
417.41	3950.53
417.62	3837.89
417.83	3958.72
418.04	3932.10
418.26	3917.76
418.47	3909.57
418.68	4026.31
418.89	3893.19
419.10	4087.75
419.31	3989.44
419.52	3993.54
419.73	3983.30
419.95	4034.50
420.16	3825.61
420.37	4005.83
420.58	3981.25
420.79	3907.52
421.00	4063.17
421.21	4034.50
421.42	4001.73
421.63	4218.82
421.85	4128.70
422.06	4220.86
422.27	4218.82
422.48	4175.81
422.69	4249.54
422.90	4204.48
423.11	4253.63
423.32	4349.89
423.53	4487.10
423.75	4229.06
423.96	4239.30
424.17	4360.13
424.38	4440.00
424.59	4386.75
424.80	4552.63
425.01	4319.17
425.22	4526.01
425.43	4388.80
425.64	4630.46
425.85	4427.71
426.06	4501.44
426.28	4415.42
426.49	4526.01
426.70	4468.67
426.91	4562.87
427.12	4552.63
427.33	4693.94
427.54	4571.07
427.75	4675.51
427.96	4712.38
428.17	4671.42
428.38	4763.58
428.59	4870.07
428.80	4642.75
429.01	4794.29
429.23	4839.35
429.44	4921.27
429.65	4880.31
429.86	4951.99
430.07	4771.77
430.28	4927.41
430.49	4892.60
430.70	5019.57
430.91	5052.34
431.12	4925.36
431.33	4990.90
431.54	5050.29
431.75	5038.00
431.96	5066.67
432.17	5019.57
432.38	5062.58
432.59	5287.86
432.80	5203.89
433.01	5158.83
433.22	5300.14
433.43	5294.00
433.64	5248.94
433.85	5136.31
434.06	5394.35
434.27	5281.71
434.49	5337.01
434.70	5382.06
434.91	5343.15
435.12	5435.31
435.33	5529.52
435.54	5404.59
435.75	5238.70
435.96	5377.97
436.17	5375.92
436.38	5515.18
436.59	5582.76
436.80	5504.94
437.01	5697.45
437.22	5697.45
437.43	5576.62
437.64	5443.50
437.85	5609.39
438.06	5799.85
438.27	5537.71
438.48	5697.45
438.69	5771.18
438.90	5783.46
439.11	5539.76
439.32	5799.85
439.53	5719.98
439.74	5754.79
439.95	5990.31
440.16	5920.68
440.37	5828.52
440.57	5697.45
440.78	5887.91
440.99	5877.67
441.20	5906.34
441.41	5795.75
441.62	5922.73
441.83	5857.19
442.04	6027.17
442.25	5965.73
442.46	6115.23
442.67	6080.42
442.88	6397.85
443.09	5988.26
443.30	6008.74
443.51	6154.15
443.72	6295.46
443.93	5967.78
444.14	6350.75
444.35	6092.71
444.56	6168.48
444.77	6365.09
444.98	6340.51
445.19	6410.14
445.40	6246.30
445.61	6248.35
445.81	6440.86
446.02	6514.59
446.23	6461.34
446.44	6184.87
446.65	6350.75
446.86	6440.86
447.07	6457.25
447.28	6537.12
447.49	6705.05
447.70	6442.91
447.91	6651.80
448.12	6670.23
448.33	6584.22
448.54	6735.77
448.74	6530.97
448.95	6829.98
449.16	6602.65
449.37	7006.10
449.58	6668.19
449.79	6895.51
450.00	6791.06
450.21	6905.75
450.42	7040.92
450.63	7026.58
450.84	6811.54
451.05	6995.86
451.25	6940.57
451.46	6768.54
451.67	7192.47
451.88	7171.99
452.09	7045.01
452.30	6967.19
452.51	6999.96
452.72	7051.16
452.93	7499.66
453.13	7171.99
453.34	7210.90
453.55	7196.56
453.76	7139.22
453.97	7626.64
454.18	7391.12
454.39	7571.34
454.60	7395.22
454.81	7341.97
455.01	7608.20
455.22	7284.62
455.43	7462.80
455.64	7729.03
455.85	7823.24
456.06	7962.50
456.27	7720.84
456.48	7696.27
456.68	7817.10
456.89	7724.94
457.10	7784.33
457.31	7802.76
457.52	7769.99
457.73	7935.88
457.94	8167.30
458.14	7974.79
458.35	8171.40
458.56	8112.00
458.77	7997.32
458.98	8243.07
459.19	8236.93
459.39	8214.40
459.60	8474.49
459.81	8306.56
460.02	8408.96
460.23	8314.75
460.44	8810.36
460.65	8578.94
460.85	8710.01
461.06	8779.64
461.27	8378.24
461.48	8857.46
461.69	8974.20
461.89	8615.80
462.10	8867.70
462.31	8750.97
462.52	8695.68
462.73	8875.90
462.94	9230.20
463.14	8843.13
463.35	8982.39
463.56	9234.29
463.77	9351.03
463.98	9193.33
464.18	9187.19
464.39	9373.55
464.60	9457.52
464.81	9512.81
465.02	9461.62
465.23	9787.24
465.43	9406.32
465.64	9676.65
465.85	9551.73
466.06	9578.35
466.27	10080.10
466.47	9936.74
466.68	10145.64
466.89	9838.44
467.10	10047.33
467.30	9883.50
467.51	10248.04
467.72	10332.00
467.93	10114.92
468.14	10270.56
468.34	10514.27
468.55	10436.45
468.76	10491.74
468.97	10360.67
469.17	10579.81
469.38	10471.26
469.59	10717.02
469.80	10694.49
470.01	10692.44
470.21	10921.82
470.42	10868.57
470.63	11099.99
470.84	11155.29
471.04	11018.07
471.25	11179.86
471.46	11085.65
471.67	11413.33
471.87	11321.17
472.08	11550.54
472.29	11622.22
472.50	11511.63
472.70	11487.06
472.91	11368.27
473.12	11845.45
473.33	11841.36
473.53	12238.66
473.74	11910.99
473.95	12238.66
474.16	12326.72
474.36	12226.37
474.57	12275.52
474.78	12603.20
474.99	12558.14
475.19	12480.32
475.40	12795.71
475.61	12891.96
475.81	12937.02
476.02	13356.85
476.23	12957.50
476.44	12969.79
476.64	13354.80
476.85	13504.31
477.06	13377.33
477.27	13518.64
477.47	13774.64
477.68	13528.88
477.89	13756.21
478.09	13768.49
478.30	13885.23
478.51	13918.00
478.71	14100.26
478.92	14237.48
479.13	14485.28
479.34	14389.03
479.54	14284.58
479.75	14540.58
479.96	14485.28
480.16	14679.84
480.37	14782.24
480.58	15038.23
480.78	15167.26
480.99	15075.10
481.20	15353.62
481.41	15253.27
481.61	15228.70
481.82	15226.65
482.03	15544.08
482.23	15308.57
482.44	15664.91
482.65	15765.26
482.85	15841.04
483.06	15976.20
483.27	16054.03
483.47	15974.16
483.68	16129.80
483.89	16183.05
484.09	16496.39
484.30	16477.96
484.51	16744.19
484.71	16828.16
484.92	16699.14
485.13	17096.44
485.33	16903.93
485.54	16701.19
485.75	17356.54
485.95	16967.42
486.16	17362.68
486.37	17592.05
486.57	17342.20
486.78	17553.14
486.98	17852.14
487.19	17735.41
487.40	17852.14
487.60	18054.89
487.81	18122.48
488.02	17985.26
488.22	17944.30
488.43	18345.70
488.64	18333.42
488.84	18396.90
489.05	18536.17
489.25	18689.76
489.46	18790.11
489.67	18808.54
489.87	19089.12
490.08	19011.29
490.29	18937.57
490.49	19408.60
490.70	19308.25
490.90	19287.77
491.11	19447.51
491.32	19427.03
491.52	19543.77
491.73	19797.71
491.94	19904.21
492.14	19697.36
492.35	20008.65
492.55	20045.52
492.76	20268.75
492.97	20330.19
493.17	20377.29
493.38	20276.94
493.58	20645.57
493.79	20498.12
494.00	20524.74
494.20	20729.54
494.41	20797.12
494.61	21092.03
494.82	21227.20
495.02	20958.91
495.23	21145.28
495.44	21509.82
495.64	21401.27
495.85	21368.51
496.05	21630.65
496.26	21497.53
496.47	21882.55
496.67	21642.93
496.88	22034.10
497.08	21767.86
497.29	21890.74
497.49	22050.48
497.70	22165.17
497.91	22271.66
498.11	22404.78
498.32	22486.70
498.52	22441.64
498.73	22785.70
498.93	22664.87
499.14	22804.13
499.34	22920.87
499.55	23008.93
499.76	22685.35
499.96	22931.11
500.17	23240.35
500.37	23084.70
500.58	23074.46
500.78	23355.04
500.99	23398.04
501.19	23731.86
501.40	23527.06
501.60	23223.97
501.81	23586.46
502.02	23912.08
502.22	23477.91
502.43	23776.92
502.63	23973.52
502.84	24114.83
503.04	23891.60
503.25	23989.91
503.45	23965.33
503.66	24172.18
503.86	24202.89
504.07	24462.99
504.27	24176.27
504.48	24602.25
504.68	24389.26
504.89	24843.91
505.09	24688.26
505.30	24757.89
505.50	24919.68
505.71	24651.40
505.91	24852.10
506.12	24870.53
506.32	24917.64
506.53	25325.18
506.73	25558.65
506.94	25362.04
507.14	25118.34
507.35	25259.65
507.55	25474.68
507.76	25630.33
507.96	25591.42
508.17	25788.02
508.37	25548.41
508.58	25556.60
508.78	25923.19
508.99	25691.77
509.19	25659.00
509.40	25849.46
509.60	25736.82
509.81	26406.51
510.01	26150.51
510.22	26130.03
510.42	26041.97
510.63	26175.09
510.83	26328.69
511.04	26236.53
511.24	26455.66
511.44	26230.38
511.65	26619.50
511.85	26502.76
512.06	27156.07
512.26	26513.00
512.47	26990.18
512.67	26750.57
512.88	26824.29
513.08	26680.94
513.29	27088.48
513.49	27045.48
513.69	26945.12
513.90	27213.41
514.10	27272.80
514.31	27037.28
514.51	27389.53
514.72	27237.98
514.92	27510.36
515.13	27592.28
515.33	27590.24
515.53	27694.68
515.74	27637.34
515.94	27790.94
516.15	27762.26
516.35	27590.24
516.56	27860.57
516.76	27729.50
516.96	27827.80
517.17	27950.68
517.37	27928.15
517.58	28196.43
517.78	28395.09
517.99	28259.92
518.19	28563.02
518.39	28612.17
518.60	28571.21
518.80	28726.86
519.01	28685.90
519.21	28595.79
519.41	28804.68
519.62	28374.61
519.82	29056.58
520.03	28771.91
520.23	28997.19
520.43	28673.61
520.64	29199.94
520.84	29349.44
521.05	29142.60
521.25	29181.51
521.45	29238.85
521.66	29603.39
521.86	29406.78
522.07	29632.06
522.27	29556.28
522.47	29701.69
522.68	29832.76
522.88	29810.23
523.08	30185.01
523.29	29740.60
523.49	30092.85
523.70	30158.39
523.90	30506.54
524.10	30150.20
524.31	30363.18
524.51	29916.73
524.71	30770.73
524.92	30602.80
525.12	30629.42
525.33	30916.14
525.53	31004.20
525.73	31131.17
525.94	30862.89
526.14	31110.69
526.34	30793.26
526.55	31170.08
526.75	31047.21
526.95	31833.63
527.16	31596.06
527.36	31325.73
527.56	31874.59
527.77	32017.94
527.97	31913.50
528.17	31841.82
528.38	32456.21
528.58	32173.59
528.78	32067.09
528.99	32284.18
529.19	32648.72
529.39	32163.35
529.60	32554.51
529.80	32583.18
530.00	32499.22
530.21	32628.24
530.41	33132.04
530.61	32400.91
530.82	32794.12
531.02	33009.16
531.22	33400.32
531.43	33504.77
531.63	33625.60
531.83	33465.86
532.04	33863.16
532.24	33541.63
532.44	33994.23
532.64	34055.67
532.85	34172.41
533.05	33859.07
533.25	34258.42
533.46	34211.32
533.66	34500.08
533.86	34485.75
534.07	34907.63
534.27	34657.78
534.47	35055.08
534.67	34747.89
534.88	34743.79
535.08	34762.22
535.28	35067.37
535.49	34866.67
535.69	35329.51
535.89	35368.42
536.09	35212.77
536.30	35573.22
536.50	35495.39
536.70	36093.40
536.91	35751.39
537.11	35902.94
537.31	35808.73
537.51	35694.05
537.72	36265.43
537.92	36320.73
538.12	36222.42
538.32	36713.94
538.53	36533.71
538.73	36812.24
538.93	36615.63
539.13	36660.69
539.34	36652.50
539.54	36738.51
539.74	37060.04
539.94	37076.43
540.15	36855.25
540.35	37072.33
540.55	37127.63
540.75	37426.63
540.96	37262.79
541.16	37481.92
541.36	37569.99
541.56	37629.38
541.77	38221.24
541.97	37352.90
542.17	37989.82
542.37	38174.14
542.58	37821.89
542.78	37725.63
542.98	38294.97
543.18	38264.25
543.38	38325.69
543.59	38704.56
543.79	37983.68
543.99	38434.23
544.19	38622.64
544.40	38190.52
544.60	38804.91
544.80	38770.10
545.00	38886.83
545.20	39202.22
545.41	38763.95
545.61	38784.43
545.81	38909.36
546.01	39134.63
546.21	38933.93
546.42	39366.06
546.62	39433.64
546.82	39124.40
547.02	39263.66
547.22	39447.97
547.43	38823.34
547.63	39615.91
547.83	39474.60
548.03	39490.98
548.23	40082.84
548.44	39910.82
548.64	39908.77
548.84	39732.64
549.04	39814.56
549.24	40304.02
549.45	40078.75
549.65	40029.60
549.85	40109.47
550.05	40443.29
550.25	40457.62
550.45	40879.50
550.66	40539.54
550.86	40261.02
551.06	40719.76
551.26	40801.68
551.46	40899.98
551.66	40756.63
551.87	40590.74
552.07	40904.08
552.27	41217.42
552.47	40791.44
552.67	41246.09
552.87	41145.74
553.07	41233.80
553.28	41008.53
553.48	41446.79
553.68	41047.44
553.88	41561.48
554.08	41180.56
554.28	41198.99
554.48	41162.12
554.69	41745.80
554.89	41133.45
555.09	41653.64
555.29	41407.88
555.49	41762.18
555.69	41479.56
555.89	41459.08
556.10	41799.04
556.30	41368.97
556.50	41907.58
556.70	41633.16
556.90	41627.01
557.10	42147.20
557.30	41647.49
557.50	42163.58
557.70	42007.94
557.91	42005.89
558.11	42319.23
558.31	42626.42
558.51	42452.34
558.71	42476.92
558.91	42454.39
559.11	42276.22
559.31	42734.96
559.51	42347.90
559.72	42421.62
559.92	42685.81
560.12	42603.89
560.32	42614.13
560.52	42581.37
560.72	42478.97
560.92	42751.35
561.12	42757.49
561.32	43244.91
561.52	42593.65
561.72	43308.40
561.93	42726.77
562.13	42800.50
562.33	42657.14
562.53	43763.04
562.73	42982.77
562.93	42913.14
563.13	43335.02
563.33	43193.71
563.53	43638.12
563.73	43378.03
563.93	43533.67
564.13	43951.46
564.33	43699.56
564.53	43875.68
564.74	43650.41
564.94	43531.62
565.14	43525.48
565.34	43162.99
565.54	43761.00
565.74	43345.26
565.94	44014.94
566.14	43957.60
566.34	43957.60
566.54	44072.29
566.74	43715.94
566.94	44150.11
567.14	44203.36
567.34	43783.52
567.54	44064.10
567.74	44070.24
567.94	44045.66
568.14	43984.22
568.34	44426.59
568.54	44221.79
568.74	44510.55
568.94	43998.56
569.14	44643.67
569.34	44502.36
569.54	44447.07
569.75	44236.12
569.95	44832.08
570.15	44864.85
570.35	44553.56
570.55	44502.36
570.75	44606.81
570.95	44830.04
571.15	45004.11
571.35	44610.90
571.55	45020.50
571.75	45024.59
571.95	45012.31
572.15	45092.18
572.35	44905.81
572.55	45028.69
572.75	44926.29
572.95	45108.56
573.15	45268.30
573.35	45270.35
573.55	45176.14
573.75	44698.97
573.95	45335.88
574.15	45448.52
574.35	45464.91
574.55	45501.77
574.75	45213.01
574.95	45571.40
575.15	45342.03
575.34	45581.64
575.54	45768.01
575.74	46298.43
575.94	45950.27
576.14	45970.75
576.34	46095.68
576.54	45739.33
576.74	46263.61
576.94	46130.50
577.14	46323.01
577.34	46691.64
577.54	46136.64
577.74	46325.05
577.94	46363.96
578.14	46542.14
578.34	46554.43
578.54	46230.85
578.74	46200.13
578.94	46892.34
579.14	46249.28
579.34	46841.14
579.54	46712.12
579.74	47029.55
579.94	46671.16
580.13	47052.08
580.33	47113.52
580.53	47041.84
580.73	46943.54
580.93	46873.91
581.13	46857.52
581.33	47283.50
581.53	47437.10
581.73	46968.12
581.93	47697.19
582.13	47445.29
582.33	47762.73
582.53	47543.59
582.73	47476.01
582.92	47529.26
583.12	47715.62
583.32	47633.71
583.52	47686.95
583.72	48028.96
583.92	47895.85
584.12	48399.65
584.32	48092.45
584.52	48162.08
584.72	48639.26
584.92	48434.46
585.11	48526.62
585.31	48633.11
585.51	48553.24
585.71	48321.82
585.91	48547.10
586.11	48170.27
586.31	48221.47
586.51	48346.40
586.71	48602.39
586.91	48819.48
587.10	48766.23
587.30	49040.66
587.50	48790.81
587.70	48919.83
587.90	48702.74
588.10	49038.61
588.30	48839.96
588.50	49069.33
588.69	49067.28
588.89	49198.35
589.09	49196.31
589.29	49026.32
589.49	49669.39
589.69	48999.70
589.89	49583.37
590.08	49782.02
590.28	49200.40
590.48	49521.93
590.68	49444.11
590.88	49376.53
591.08	49468.69
591.28	49239.31
591.47	50136.32
591.67	49726.73
591.87	49667.34
592.07	49943.81
592.27	49915.14
592.47	50046.21
592.67	49827.08
592.86	49992.97
593.06	50263.30
593.26	49861.90
593.46	49964.29
593.66	50320.64
593.86	50386.18
594.05	50107.65
594.25	50971.89
594.45	50013.44
594.65	50099.46
594.85	50398.46
595.05	50582.78
595.24	50783.48
595.44	50844.92
595.64	50859.26
595.84	50816.25
596.04	50687.23
596.23	50846.97
596.43	50830.58
596.63	50580.73
596.83	50971.89
597.03	51258.61
597.22	50953.46
597.42	51320.05
597.62	51406.06
597.82	50924.79
598.02	51244.27
598.21	51154.16
598.41	51195.12
598.61	51365.10
598.81	51291.38
599.01	51475.69
599.20	51627.24
599.40	51344.62
599.60	51330.29
599.80	51913.96
600.00	51770.60
600.19	52051.17
600.39	51619.05
600.59	52352.23
600.79	52307.17
600.98	51852.52
601.18	52282.59
601.38	52049.13
601.58	52565.21
601.78	52493.54
601.97	52212.96
602.17	52815.07
602.37	52843.74
602.57	52497.63
602.76	52733.15
602.96	52581.60
603.16	52350.18
603.36	52425.95
603.55	52647.13
603.75	52518.11
603.95	52698.33
604.15	52843.74
604.34	52540.64
604.54	52917.46
604.74	53013.72
604.94	52794.59
605.13	52802.78
605.33	52853.98
605.53	53163.22
605.73	53642.45
605.92	53159.12
606.12	53392.59
606.32	53468.37
606.52	53322.96
606.71	53494.99
606.91	53683.40
607.11	53548.24
607.30	53779.66
607.50	53755.08
607.70	53986.50
607.90	53746.89
608.09	53566.67
608.29	53562.57
608.49	54201.54
608.68	53812.43
608.88	54217.92
609.08	54179.01
609.28	53963.98
609.47	53765.32
609.67	54535.36
609.87	53726.41
610.06	54211.78
610.26	54437.06
610.46	54490.30
610.66	54097.09
610.85	54557.89
611.05	54039.75
611.25	54004.94
611.44	54197.44
611.64	54475.97
611.84	54103.24
612.03	54363.33
612.23	54527.17
612.43	54273.22
612.62	54246.60
612.82	54531.26
613.02	54703.29
613.21	54813.88
613.41	54000.84
613.61	54643.90
613.80	53949.64
614.00	54817.98
614.20	54457.54
614.39	54475.97
614.59	54723.77
614.79	54193.35
614.98	54645.95
615.18	55039.16
615.38	54705.34
615.57	54230.21
615.77	55094.46
615.97	54828.22
616.16	54998.20
616.36	54662.33
616.56	54965.43
616.75	55037.11
616.95	54523.07
617.15	54934.71
617.34	54664.38
617.54	54889.66
617.74	55047.35
617.93	54940.86
618.13	54453.44
618.32	54824.12
618.52	54508.74
618.72	54811.84
618.91	54908.09
619.11	54359.23
619.31	54617.28
619.50	54555.84
619.70	54809.79
619.90	54889.66
620.09	54559.94
620.29	54717.63
620.48	54918.33
620.68	55123.13
620.88	54334.66
621.07	54588.61
621.27	55428.27
621.46	54545.60
621.66	54961.34
621.86	54426.82
622.05	54598.85
622.25	55041.21
622.44	54899.90
622.64	54514.88
622.84	55037.11
623.03	54654.14
623.23	54842.56
623.42	54377.67
623.62	54893.75
623.82	55172.28
624.01	54318.28
624.21	54768.83
624.40	54971.58
624.60	54416.58
624.80	54682.81
624.99	54502.59
625.19	54041.80
625.38	54869.18
625.58	55084.22
625.77	54820.03
625.97	54752.44
626.17	54781.12
626.36	54881.47
626.56	54717.63
626.75	54723.77
626.95	54934.71
627.14	54740.16
627.34	55035.06
627.54	54590.66
627.73	54944.95
627.93	54502.59
628.12	54695.10
628.32	54707.39
628.51	54727.87
628.71	54729.92
628.90	54564.03
629.10	54850.75
629.30	54654.14
629.49	54879.42
629.69	54795.45
629.88	54844.60
630.08	55297.20
630.27	55121.08
630.47	54652.09
630.66	55020.73
630.86	55153.85
631.05	54140.10
631.25	55018.68
631.44	54783.16
631.64	54713.53
631.84	54871.23
632.03	55381.17
632.23	54621.37
632.42	55438.51
632.62	54883.51
632.81	54965.43
633.01	54981.82
633.20	55174.33
633.40	55305.40
633.59	55141.56
633.79	55086.26
633.98	54852.80
634.18	55364.79
634.37	54826.17
634.57	55215.29
634.76	55358.64
634.96	55170.23
635.15	55319.73
635.35	55006.39
635.54	55112.89
635.74	55493.81
635.93	55092.41
636.13	55477.43
636.32	55362.74
636.52	55194.81
636.71	55059.64
636.91	55227.57
637.10	55559.34
637.30	54965.43
637.49	55391.41
637.69	55375.03
637.88	55727.28
638.08	55628.98
638.27	55508.14
638.46	55327.92
638.66	55207.09
638.85	54922.43
639.05	55442.61
639.24	55528.62
639.44	54740.16
639.63	55020.73
639.83	55622.83
640.02	55704.75
640.22	55276.72
640.41	55493.81
640.61	54832.32
640.80	55393.46
640.99	55456.95
641.19	55932.07
641.38	55747.76
641.58	55289.01
641.77	55080.12
641.97	55137.46
642.16	55803.05
642.36	55585.97
642.55	55760.05
642.74	55475.38
642.94	56100.01
643.13	55420.08
643.33	55964.84
643.52	55880.88
643.72	55989.42
643.91	55649.45
644.10	56046.76
644.30	56112.30
644.49	55944.36
644.69	55778.48
644.88	55999.66
645.08	55768.24
645.27	55901.36
645.46	55989.42
645.66	55966.89
645.85	55192.76
646.05	56016.04
646.24	55616.69
646.43	56683.68
646.63	56140.97
646.82	56161.45
647.02	55766.19
647.21	56298.66
647.40	56073.38
647.60	56325.28
647.79	56384.68
647.99	56245.41
648.18	56118.44
648.37	56120.49
648.57	56288.42
648.76	56261.80
648.96	55723.18
649.15	56450.21
649.34	56550.56
649.54	56155.30
649.73	56280.23
649.92	56951.96
650.12	56050.86
650.31	56810.65
650.51	56353.96
650.70	56267.94
650.89	56454.31
651.09	57138.33
651.28	56620.19
651.47	56616.10
651.67	56575.14
651.86	57001.11
652.06	56151.21
652.25	56618.14
652.44	56427.68
652.64	55921.83
652.83	56194.21
653.02	56161.45
653.22	56095.91
653.41	56239.27
653.60	56120.49
653.80	56407.20
653.99	56908.96
654.18	56732.83
654.38	56491.17
654.57	56568.99
654.76	56710.30
654.96	56771.74
655.15	56562.85
655.34	56415.40
655.54	56190.12
655.73	56343.72
655.92	56614.05
656.12	56939.68
656.31	56145.06
656.50	56566.94
656.70	56792.22
656.89	56237.22
657.08	56964.25
657.28	56366.24
657.47	56562.85
657.66	56865.95
657.86	56786.08
658.05	56675.49
658.24	56802.46
658.43	56603.81
658.63	56982.68
658.82	56898.72
659.01	57123.99
659.21	56843.42
659.40	56997.02
659.59	56259.75
659.79	56812.70
659.98	56546.47
660.17	57115.80
660.36	56911.00
660.56	57193.62
660.75	56472.74
660.94	57001.11
661.14	56868.00
661.33	56841.37
661.52	56812.70
661.71	57097.37
661.91	56513.70
662.10	56460.45
662.29	57123.99
662.49	56685.73
662.68	56880.28
662.87	56734.88
663.06	57341.08
663.26	57044.12
663.45	57033.88
663.64	57046.17
663.83	57291.93
664.03	57261.21
664.22	57017.50
664.41	56972.44
664.60	56777.89
664.80	56945.82
664.99	57189.53
665.18	56646.82
665.37	56947.87
665.57	57119.90
665.76	56792.22
665.95	57306.26
666.14	56587.42
666.34	56890.52
666.53	57210.01
666.72	56988.83
666.91	56888.48
667.11	56667.30
667.30	56796.32
667.49	57005.21
667.68	57212.06
667.87	56798.37
668.07	57160.86
668.26	56833.18
668.45	56960.15
668.64	56702.11
668.84	57613.46
669.03	56857.76
669.22	56876.19
669.41	57091.22
669.60	57007.26
669.80	56923.29
669.99	57085.08
670.18	56816.80
670.37	56988.83
670.57	57259.16
670.76	57228.44
670.95	57214.10
671.14	56884.38
671.33	56657.06
671.53	57296.02
671.72	56999.07
671.91	57597.07
672.10	57115.80
672.29	57119.90
672.48	56657.06
672.68	57552.02
672.87	57285.78
673.06	56870.04
673.25	57046.17
673.44	56485.03
673.64	56745.12
673.83	56734.88
674.02	56722.59
674.21	56448.16
674.40	56849.56
674.59	56253.61
674.79	56446.11
674.98	56714.40
675.17	57095.32
675.36	56386.72
675.55	56751.26
675.74	56888.48
675.94	56368.29
676.13	56804.51
676.32	56845.47
676.51	57115.80
676.70	57035.93
676.89	56730.78
677.08	57054.36
677.28	56612.00
677.47	56755.36
677.66	56968.35
677.85	56313.00
678.04	56984.73
678.23	57308.31
678.42	56478.88
678.62	56710.30
678.81	57007.26
679.00	56775.84
679.19	56943.77
679.38	56923.29
679.57	56792.22
679.76	57083.03
679.96	57048.22
680.15	56726.69
680.34	56439.97
680.53	56919.20
680.72	56816.80
680.91	57103.51
681.10	56251.56
681.29	57056.41
681.48	56573.09
681.68	56497.31
681.87	56331.43
682.06	56767.65
682.25	56333.48
682.44	56259.75
682.63	56571.04
682.82	56075.43
683.01	56177.83
683.20	55891.12
683.39	56386.72
683.59	56345.76
683.78	56057.00
683.97	55819.44
684.16	56153.26
684.35	55776.43
684.54	56323.24
684.73	56198.31
684.92	56063.14
685.11	55848.11
685.30	56071.34
685.49	56525.99
685.69	56075.43
685.88	55755.95
686.07	56110.25
686.26	55891.12
686.45	56226.98
686.64	55968.94
686.83	55776.43
687.02	55534.77
687.21	55891.12
687.40	56140.97
687.59	56349.86
687.78	55901.36
687.97	56216.74
688.16	55809.20
688.35	56153.26
688.54	55375.03
688.74	56104.10
688.93	56100.01
689.12	55647.41
689.31	56005.80
689.50	56173.73
689.69	55534.77
689.88	54930.62
690.07	55714.99
690.26	55637.17
690.45	56061.10
690.64	56247.46
690.83	55815.34
691.02	55080.12
691.21	55368.88
691.40	55272.63
691.59	55557.30
691.78	55588.02
691.97	55919.79
692.16	55411.89
692.35	56038.57
692.54	55297.20
692.73	55932.07
692.92	55495.86
693.11	55604.40
693.30	55067.83
693.49	55577.78
693.68	55575.73
693.87	55092.41
694.06	54906.04
694.25	54768.83
694.44	55180.47
694.63	55413.94
694.82	55207.09
695.01	55391.41
695.20	55370.93
695.39	55096.50
695.58	55303.35
695.77	54912.19
695.96	54293.70
696.15	55411.89
696.34	54461.63
696.53	54838.46
696.72	55071.93
696.91	54748.35
697.10	54922.43
697.29	54820.03
697.48	55110.84
697.67	54553.79
697.86	54279.36
698.05	54523.07
698.24	55149.75
698.43	54174.92
698.62	54750.40
698.81	54172.87
699.00	54990.01
699.19	54668.48
699.38	54879.42
699.57	54289.60
699.76	55235.77
699.95	54842.56
700.14	54277.32
700.32	54332.61
700.51	54314.18
700.70	54449.35
700.89	54588.61
701.08	54750.40
701.27	54170.82
701.46	54367.43
701.65	54088.90
701.84	54011.08
702.03	54430.91
702.22	54045.90
702.41	53816.52
702.60	54000.84
702.79	53525.71
702.98	53994.70
703.17	53658.83
703.35	53572.81
703.54	53869.77
703.73	53920.97
703.92	53538.00
704.11	53794.00
704.30	53374.16
704.49	53433.55
704.68	53396.69
704.87	54064.33
705.06	53781.71
705.25	53574.86
705.43	53337.30
705.62	53519.57
705.81	53572.81
706.00	53746.89
706.19	53335.25
706.38	52845.79
706.57	53179.60
706.76	53425.36
706.95	53499.09
707.14	53140.69
707.32	53054.68
707.51	53003.48
707.70	53363.92
707.89	52970.71
708.08	52978.90
708.27	53320.91
708.46	53609.68
708.65	52946.14
708.84	53306.58
709.02	53093.59
709.21	53400.79
709.40	52747.48
709.59	52864.22
709.78	52927.70
709.97	52991.19
710.16	53073.11
710.34	53200.08
710.53	52862.17
710.72	52638.94
710.91	52929.75
711.10	52755.68
711.29	52950.23
711.48	53040.34
711.66	52702.43
711.85	52688.09
712.04	52520.16
712.23	52573.41
712.42	52790.49
712.61	52204.77
712.80	52180.20
712.98	52909.27
713.17	52458.72
713.36	52184.29
713.55	52479.20
713.74	52270.31
713.93	52194.53
714.11	52384.99
714.30	52016.36
714.49	51778.79
714.68	52141.28
714.87	52159.72
715.06	52638.94
715.24	51700.97
715.43	51852.52
715.62	51733.74
715.81	51707.12
716.00	52112.61
716.18	51907.82
716.37	51754.22
716.56	51453.17
716.75	52329.70
716.94	51385.58
717.12	51442.93
717.31	51942.63
717.50	51535.09
717.69	51377.39
717.88	51211.51
718.06	51442.93
718.25	51666.16
718.44	50988.28
718.63	51750.12
718.82	51174.64
719.00	51066.10
719.19	51217.65
719.38	50439.42
719.57	50488.57
719.76	50808.06
719.94	50464.00
720.13	50539.77
720.32	50951.41
720.51	50740.47
720.69	51096.82
720.88	50126.08
721.07	50556.16
721.26	50390.27
721.44	50246.91
721.63	50449.66
721.82	50169.09
722.01	49741.06
722.20	50388.22
722.38	49591.56
722.57	49661.19
722.76	49878.28
722.95	49964.29
723.13	49390.86
723.32	49538.32
723.51	49550.60
723.70	49706.25
723.88	49503.50
724.07	49677.58
724.26	49825.03
724.44	48950.55
724.63	49689.87
724.82	49708.30
725.01	49351.95
725.19	49730.83
725.38	49386.77
725.57	49263.89
725.76	49472.78
725.94	48805.14
726.13	49095.95
726.32	49085.72
726.51	48618.78
726.69	49296.66
726.88	49259.79
727.07	49061.14
727.25	48776.47
727.44	48680.22
727.63	49151.25
727.82	48606.49
728.00	49104.15
728.19	48768.28
728.38	49247.50
728.56	48674.07
728.75	49304.85
728.94	48915.73
729.12	48925.97
729.31	48944.41
729.50	48760.09
729.69	48997.65
729.87	48905.49
730.06	48778.52
730.25	48831.77
730.43	49016.08
730.62	48463.13
730.81	48909.59
730.99	48702.74
731.18	49040.66
731.37	49198.35
731.55	49050.90
731.74	49315.09
731.93	48981.27
732.11	49427.73
732.30	48905.49
732.49	48594.20
732.67	48608.54
732.86	48420.13
733.05	48641.31
733.23	48465.18
733.42	48805.14
733.61	48377.12
733.79	48387.36
733.98	48915.73
734.17	49098.00
734.35	49059.09
734.54	48559.39
734.73	49143.06
734.91	48459.04
735.10	48217.38
735.29	48635.16
735.47	47955.24
735.66	48616.73
735.84	48489.76
736.03	48297.25
736.22	48860.44
736.40	48321.82
736.59	48563.48
736.78	48028.96
736.96	48227.62
737.15	48051.49
737.33	48338.21
737.52	47938.85
737.71	48135.46
737.89	47750.44
738.08	47635.75
738.27	47977.76
738.45	48733.46
738.64	48438.56
738.82	47584.55
739.01	47858.98
739.20	48295.20
739.38	48108.83
739.57	47936.80
739.75	48475.42
739.94	47766.82
740.13	47985.96
740.31	47897.89
740.50	47727.91
740.68	47916.32
740.87	47979.81
741.06	47955.24
741.24	47144.24
741.43	47260.97
741.61	47789.35
741.80	47283.50
741.99	47662.38
742.17	47363.37
742.36	47691.05
742.54	47152.43
742.73	47435.05
742.91	47672.62
743.10	47398.19
743.29	47408.43
743.47	47473.96
743.66	47230.26
743.84	47510.83
744.03	47195.44
744.21	46826.81
744.40	47723.82
744.59	47275.31
744.77	47177.01
744.96	46996.79
745.14	47514.92
745.33	47514.92
745.51	47385.90
745.70	46994.74
745.88	47246.64
746.07	46839.09
746.26	46878.00
746.44	46978.36
746.63	46980.40
746.81	46845.24
747.00	46855.48
747.18	46916.92
747.37	46896.44
747.55	46953.78
747.74	47146.29
747.92	46871.86
748.11	47002.93
748.29	46298.43
748.48	46593.34
748.66	46611.77
748.85	46820.66
749.03	46433.60
749.22	46660.92
749.41	46122.30
749.59	46282.05
749.78	45888.84
749.96	45931.84
750.15	46277.95
750.33	46216.51
750.52	46499.13
750.70	46239.04
750.89	45886.79
751.07	45864.26
751.26	45944.13
751.44	46177.60
751.63	46048.58
751.81	46064.96
752.00	45759.81
752.18	46232.89
752.37	45780.29
752.55	45430.09
752.74	45567.30
752.92	45622.60
753.10	45798.73
753.29	45522.25
753.47	45614.41
753.66	45102.42
753.84	45725.00
754.03	45657.42
754.21	44834.13
754.40	45415.76
754.58	45675.85
754.77	45387.08
754.95	44905.81
755.14	45174.09
755.32	45198.67
755.51	44871.00
755.69	45012.31
755.88	44907.86
756.06	45538.63
756.24	44932.43
756.43	44676.44
756.61	44983.63
756.80	44537.18
756.98	44383.58
757.17	44875.09
757.35	44813.65
757.54	44557.66
757.72	45139.28
757.90	44838.23
758.09	44594.52
758.27	44721.49
758.46	44623.19
758.64	44678.49
758.83	44610.90
759.01	44823.89
759.19	44533.08
759.38	44586.33
759.56	44715.35
759.75	44152.16
759.93	44438.87
760.12	44199.26
760.30	44488.03
760.48	44369.24
760.67	44391.77
760.85	44432.73
761.04	44281.18
761.22	43951.46
761.40	44000.61
761.59	44113.25
761.77	43857.25
761.96	44152.16
762.14	43849.06
762.32	43810.15
762.51	43842.92
762.69	43386.22
762.88	43902.31
763.06	43853.15
763.24	43672.93
763.43	43922.79
763.61	43736.42
763.80	43562.34
763.98	43169.13
764.16	43720.04
764.35	43128.17
764.53	43046.26
764.72	43312.49
764.90	43398.51
765.08	42931.57
765.27	43435.37
765.45	43259.24
765.63	42978.67
765.82	43423.08
766.00	42968.43
766.18	43347.31
766.37	43558.25
766.55	43117.93
766.74	42919.28
766.92	42685.81
767.10	42268.03
767.29	42425.72
767.47	42530.17
767.65	42528.12
767.84	42364.28
768.02	42657.14
768.20	42210.68
768.39	42202.49
768.57	42868.08
768.75	42530.17
768.94	42591.61
769.12	42435.96
769.30	41938.30
769.49	42218.88
769.67	42046.85
769.85	41491.85
770.04	42362.23
770.22	41438.60
770.40	41850.24
770.59	42030.46
770.77	42251.64
770.95	41731.46
771.14	41760.13
771.32	41481.61
771.50	41059.73
771.69	41536.90
771.87	41872.77
772.05	41545.09
772.24	40891.79
772.42	41207.18
772.60	41346.44
772.78	41325.96
772.97	40981.90
773.15	41268.62
773.33	41024.91
773.52	41047.44
773.70	41112.97
773.88	41268.62
774.07	41145.74
774.25	41217.42
774.43	40973.71
774.61	40910.22
774.80	41389.45
774.98	41293.19
775.16	41377.16
775.34	41280.91
775.53	41127.31
775.71	41000.33
775.89	41192.84
776.08	41180.56
776.26	41555.33
776.44	41416.07
776.62	41295.24
776.81	41213.32
776.99	41485.70
777.17	41166.22
777.35	41610.63
777.54	41510.28
777.72	41239.95
777.90	41293.19
778.08	41543.05
778.27	41305.48
778.45	41579.91
778.63	41678.21
778.81	41469.32
779.00	42235.26
779.18	41667.97
779.36	41887.10
779.54	41588.10
779.73	41809.28
779.91	41915.78
780.09	41913.73
780.27	42001.79
780.46	41790.85
780.64	42081.66
780.82	41508.23
781.00	41969.02
781.19	42159.48
781.37	42069.37
781.55	41928.06
781.73	42591.61
781.91	42108.29
782.10	41852.29
782.28	41938.30
782.46	42247.55
782.64	42335.61
782.82	41620.87
783.01	41909.63
783.19	42194.30
783.37	42530.17
783.55	42104.19
783.74	42243.45
783.92	42067.33
784.10	42304.89
784.28	42315.13
784.46	42065.28
784.64	41948.54
784.83	42186.11
785.01	42190.20
785.19	41981.31
785.37	42208.64
785.55	42243.45
785.74	42270.08
785.92	41684.36
786.10	42220.92
786.28	41907.58
786.46	41512.33
786.64	41618.82
786.83	41964.93
787.01	42351.99
787.19	41932.16
787.37	42265.98
787.55	41885.06
787.74	41403.78
787.92	41674.12
788.10	41389.45
788.28	41340.30
788.46	41862.53
788.64	41149.84
788.82	41766.27
789.01	41387.40
789.19	41870.72
789.37	41549.19
789.55	41682.31
789.73	41123.21
789.91	41411.98
790.09	41029.01
790.28	41076.11
790.46	40564.12
790.64	40877.46
790.82	41059.73
791.00	40547.73
791.18	40836.50
791.36	40529.30
791.55	40641.94
791.73	40756.63
791.91	40351.13
792.09	40347.03
792.27	40375.70
792.45	40129.95
792.63	39980.45
792.81	39863.71
793.00	40066.46
793.18	40068.51
793.36	39726.50
793.54	39916.96
793.72	39972.25
793.90	39683.49
794.08	39499.17
794.26	39505.32
794.44	39091.63
794.62	38854.06
794.81	39187.88
794.99	39583.14
795.17	38852.02
795.35	39273.90
795.53	39044.52
795.71	39558.56
795.89	38784.43
796.07	38612.40
796.25	38522.29
796.43	38550.96
796.61	38266.30
796.80	38591.92
796.98	38071.74
797.16	38221.24
797.34	38157.75
797.52	38104.51
797.70	38442.42
797.88	38172.09
798.06	37807.55
798.24	37844.41
798.42	37486.02
798.60	37481.92
798.78	37479.88
798.96	37696.96
799.14	37205.45
799.32	37510.60
799.51	37066.19
799.69	37469.64
799.87	37563.84
800.05	36572.63
800.23	36853.20
800.41	36812.24
800.59	36732.37
800.77	36885.97
800.95	36140.50
801.13	36449.75
801.31	36597.20
801.49	36226.52
801.67	36328.92
801.85	36077.02
802.03	36173.27
802.21	35831.26
802.39	36109.78
802.57	35737.05
802.75	35370.47
802.93	35950.04
803.11	35773.92
803.29	35681.76
803.47	35382.76
803.65	35304.93
803.83	35384.80
804.01	35255.78
804.19	34840.04
804.37	34977.26
804.55	34842.09
804.73	35007.98
804.91	35153.38
805.09	34956.78
805.27	34596.34
805.45	34790.89
805.63	34692.59
805.81	34846.19
805.99	34645.49
806.17	34522.61
806.35	34342.39
806.53	34121.21
806.71	34389.49
806.89	34391.54
807.07	34088.44
807.25	34264.57
807.43	34207.22
807.61	34371.06
807.79	33621.50
807.97	33678.85
808.15	33887.74
808.33	33797.63
808.51	33621.50
808.69	33633.79
808.87	33598.98
809.05	33510.91
809.23	33302.02
809.41	33048.07
809.59	32902.67
809.77	33373.70
809.95	33232.39
810.13	33175.05
810.31	32982.54
810.49	33132.04
810.67	33041.93
810.84	32736.78
811.02	33005.06
811.20	32468.50
811.38	32722.44
811.56	32603.66
811.74	32826.89
811.92	32187.92
812.10	32673.29
812.28	32411.15
812.46	32497.17
812.64	32562.70
812.82	32134.68
813.00	32089.62
813.18	31895.07
813.36	32296.47
813.53	31938.07
813.71	31850.01
813.89	31530.53
814.07	31759.90
814.25	31831.58
814.43	31643.17
814.61	31372.83
814.79	31589.92
814.97	31004.20
815.15	31761.95
815.33	31329.83
815.50	30754.35
815.68	31045.16
815.86	31387.17
816.04	30772.78
816.22	30989.86
816.40	30721.58
816.58	30799.40
816.76	30834.22
816.94	30721.58
817.11	30875.18
817.29	30551.60
817.47	30436.91
817.65	30449.20
817.83	30570.03
818.01	30477.87
818.19	30250.55
818.37	30735.92
818.54	30279.22
818.72	30301.75
818.90	30178.87
819.08	29924.92
819.26	30234.16
819.44	30484.01
819.62	29980.21
819.80	30260.79
819.97	29840.95
820.15	29636.16
820.33	29584.96
820.51	29570.62
820.69	29910.58
820.87	29652.54
821.05	29832.76
821.22	29630.01
821.40	29824.57
821.58	29310.53
821.76	29335.10
821.94	29101.64
822.12	29341.25
822.29	29462.08
822.47	29103.68
822.65	29587.00
822.83	29533.76
823.01	29290.05
823.19	29134.40
823.36	28751.43
823.54	29052.48
823.72	28829.26
823.90	28806.73
824.08	28671.56
824.25	29093.44
824.43	28747.34
824.61	28780.10
824.79	28788.30
824.97	28776.01
825.15	28730.95
825.32	28534.35
825.50	28487.25
825.68	28249.68
825.86	28583.50
826.04	28462.67
826.21	28409.42
826.39	28810.82
826.57	28399.18
826.75	28309.07
826.93	28161.62
827.10	28081.75
827.28	27934.29
827.46	28259.92
827.64	28030.55
827.81	27743.83
827.99	27993.68
828.17	27891.29
828.35	27833.94
828.53	28028.50
828.70	27674.20
828.88	27760.22
829.06	27721.30
829.24	27684.44
829.41	27717.21
829.59	27559.52
829.77	27395.68
829.95	27682.39
830.12	27346.53
830.30	27620.95
830.48	27645.53
830.66	27561.56
830.84	27307.62
831.01	27330.14
831.19	27266.66
831.37	27219.55
831.55	27274.85
831.72	27010.66
831.90	26750.57
832.08	27016.80
832.25	27131.49
832.43	26961.51
832.61	26721.90
832.79	26871.40
832.96	26979.94
833.14	26889.83
833.32	27178.59
833.50	26816.10
833.67	26965.60
833.85	26781.29
834.03	26525.29
834.20	26766.95
834.38	26629.74
834.56	26760.81
834.74	26320.49
834.91	26601.07
835.09	26398.32
835.27	26306.16
835.44	26615.40
835.62	26093.17
835.80	26201.71
835.98	26424.94
836.15	26326.64
836.33	25941.62
836.51	26332.78
836.68	26211.95
836.86	26175.09
837.04	26054.26
837.21	26244.72
837.39	26474.09
837.57	26214.00
837.75	26185.33
837.92	25845.37
838.10	25820.79
838.28	25575.03
838.45	25882.23
838.63	25632.38
838.81	25906.80
838.98	25790.07
839.16	25529.98
839.34	25400.96
839.51	25757.30
839.69	25190.02
839.87	25130.62
840.04	25433.72
840.22	25622.14
840.40	25347.71
840.57	25384.57
840.75	25362.04
840.93	24989.31
841.10	25448.06
841.28	25310.85
841.46	25202.30
841.63	25353.85
841.81	25446.01
841.98	25089.67
842.16	25384.57
842.34	25046.66
842.51	25005.70
842.69	24823.43
842.87	25132.67
843.04	24905.35
843.22	24718.98
843.40	24788.61
843.57	24917.64
843.75	24770.18
843.92	24772.23
844.10	24759.94
844.28	24755.85
844.45	24794.76
844.63	24878.72
844.81	24514.19
844.98	24690.31
845.16	24346.25
845.33	24829.57
845.51	24301.20
845.69	24585.86
845.86	24323.72
846.04	24348.30
846.21	24546.95
846.39	24319.63
846.57	24182.42
846.74	24497.80
846.92	24288.91
847.09	23905.94
847.27	23928.47
847.45	24123.02
847.62	24309.39
847.80	24221.33
847.97	24127.12
848.15	23885.46
848.32	23912.08
848.50	24069.78
848.68	23961.23
848.85	23797.40
849.03	23529.11
849.20	23680.66
849.38	23672.47
849.56	23748.25
849.73	23758.49
849.91	23424.67
850.08	23895.70
850.26	23643.80
850.43	23783.06
850.61	23797.40
850.78	23289.50
850.96	23525.02
851.14	22994.59
851.31	23568.02
851.49	23479.96
851.66	23484.06
851.84	23502.49
852.01	23496.35
852.19	23426.71
852.36	23312.03
852.54	23391.90
852.71	23344.80
852.89	23199.39
853.07	23183.01
853.24	23285.40
853.42	23355.04
853.59	22824.61
853.77	23160.48
853.94	23123.62
854.12	23144.09
854.29	23172.77
854.47	23150.24
854.64	22992.55
854.82	22765.22
854.99	23078.56
855.17	22699.69
855.34	22838.95
855.52	22888.10
855.69	23043.74
855.87	22490.79
856.04	22574.76
856.22	22374.06
856.39	22648.49
856.57	22462.12
856.74	22390.44
856.92	22410.92
857.09	22576.81
857.27	22441.64
857.44	22576.81
857.62	22199.98
857.79	22367.91
857.97	22582.95
858.14	22548.14
858.32	22222.51
858.49	22204.08
858.67	22167.21
858.84	22238.89
859.02	22261.42
859.19	22347.44
859.37	21974.70
859.54	21831.35
859.72	22038.19
859.89	21892.79
860.06	21817.01
860.24	21868.21
860.41	22044.34
860.59	21837.49
860.76	22062.77
860.94	21460.66
861.11	22073.01
861.29	21864.11
861.46	22111.92
861.64	21628.60
861.81	21583.54
861.98	21626.55
862.16	21569.21
862.33	21329.59
862.51	21429.94
862.68	21806.77
862.86	21497.53
863.03	21532.34
863.21	21305.02
863.38	21294.78
863.55	21444.28
863.73	21528.25
863.90	21479.10
864.08	21388.99
864.25	21563.06
864.43	21219.00
864.60	21184.19
864.77	20989.63
864.95	21065.41
865.12	20866.75
865.30	21128.89
865.47	20991.68
865.64	20997.82
865.82	21132.99
865.99	21079.74
866.17	20723.40
866.34	21178.04
866.51	20522.69
866.69	20629.19
866.86	20786.88
867.04	20833.99
867.21	20602.57
867.38	20836.03
867.56	20451.02
867.73	20414.15
867.91	20455.11
868.08	20405.96
868.25	20182.73
868.43	20344.52
868.60	20276.94
868.78	20268.75
868.95	20633.29
869.12	20545.22
869.30	19889.87
869.47	20340.43
869.64	20252.36
869.82	20119.24
869.99	20164.30
870.16	20111.05
870.34	20254.41
870.51	20285.13
870.69	19762.90
870.86	19920.59
871.03	20063.95
871.21	20078.29
871.38	19840.72
871.55	19789.52
871.73	19695.32
871.90	19820.24
872.07	19465.94
872.25	19531.48
872.42	19525.33
872.59	19470.04
872.77	20082.38
872.94	19588.82
873.11	19732.18
873.29	19623.64
873.46	19449.56
873.63	19484.37
873.81	19439.32
873.98	19255.00
874.15	19259.10
874.33	19183.32
874.50	19400.41
874.67	19093.21
874.85	19248.86
875.02	18953.95
875.19	18970.33
875.37	18675.43
875.54	19013.34
875.71	18988.77
875.88	18468.58
876.06	18831.07
876.23	18743.01
876.40	18646.76
876.58	18693.86
876.75	18890.46
876.92	18599.65
877.10	18708.19
877.27	18390.76
877.44	18736.87
877.61	18468.58
877.79	18566.88
877.96	18398.95
878.13	18333.42
878.31	18286.31
878.48	18042.60
878.65	18276.07
878.82	18339.56
879.00	18263.79
879.17	18222.83
879.34	18063.08
879.51	17972.97
879.69	17870.58
879.86	18200.30
880.03	18020.08
880.21	18030.32
880.38	18077.42
880.55	17858.29
880.72	17559.28
880.90	17991.41
881.07	17782.51
881.24	17772.27
881.41	17913.58
881.59	17520.37
881.76	17751.79
881.93	17579.76
882.10	17397.49
882.28	17583.86
882.45	17745.65
882.62	17571.57
882.79	17872.62
882.96	17317.62
883.14	17544.95
883.31	17555.19
883.48	17350.39
883.65	17387.25
883.83	17553.14
884.00	17366.78
884.17	17192.70
884.34	17387.25
884.51	17182.46
884.69	17078.01
884.86	17323.77
885.03	17196.79
885.20	17123.07
885.38	17293.05
885.55	17061.63
885.72	17344.25
885.89	17276.66
886.06	17243.90
886.24	16822.02
886.41	17213.18
886.58	17217.27
886.75	17264.38
886.92	17018.62
887.10	17108.73
887.27	16789.25
887.44	17200.89
887.61	16989.95
887.78	16992.00
887.95	17104.64
888.13	16905.98
888.30	16686.85
888.47	16647.94
888.64	16721.66
888.81	16740.10
888.99	16621.31
889.16	16480.00
889.33	16484.10
889.50	16242.44
889.67	16391.94
889.84	16453.38
890.01	16379.65
890.19	16742.14
890.36	16455.43
890.53	16656.13
890.70	16445.19
890.87	16606.98
891.04	16551.68
891.22	16242.44
891.39	16295.69
891.56	16062.22
891.73	16058.12
891.90	15902.48
892.07	16054.03
892.24	15902.48
892.42	15849.23
892.59	16238.34
892.76	15945.48
892.93	15787.79
893.10	15974.16
893.27	15922.96
893.44	15929.10
893.61	16004.88
893.79	15992.59
893.96	15982.35
894.13	16140.04
894.30	15972.11
894.47	15908.62
894.64	15765.26
894.81	15777.55
894.98	15816.46
895.15	15963.92
895.33	15666.96
895.50	15664.91
895.67	15918.86
895.84	15605.52
896.01	15820.56
896.18	15843.09
896.35	15984.40
896.52	15931.15
896.69	15603.47
896.86	15699.73
897.04	15740.69
897.21	15873.81
897.38	15709.97
897.55	15560.47
897.72	15738.64
897.89	15869.71
898.06	15523.60
898.23	15648.53
898.40	15626.00
898.57	15580.95
898.74	15812.37
898.91	15851.28
899.08	15619.86
899.26	15537.94
899.43	15922.96
899.60	15539.99
899.77	15564.56
899.94	15476.50
900.11	15410.96
900.28	15601.43
900.45	15496.98
900.62	15562.51
900.79	15652.63
900.96	15535.89
901.13	15709.97
901.30	15671.06
901.47	15609.62
901.64	15591.19
901.81	15617.81
901.98	15628.05
902.15	15718.16
902.32	15329.05
902.49	15636.24
902.66	15505.17
902.83	15378.20
903.01	15462.16
903.18	15623.95
903.35	15308.57
903.52	15503.12
903.69	15484.69
903.86	15656.72
904.03	15562.51
904.20	15433.49
904.37	15591.19
904.54	15423.25
904.71	15552.27
904.88	15179.54
905.05	15544.08
905.22	15603.47
905.39	15456.02
905.56	15748.88
905.73	15521.56
905.90	15451.92
906.07	15701.78
906.24	15511.32
906.41	15347.48
906.58	15650.58
906.75	15470.36
906.92	15226.65
907.09	15251.22
907.26	15558.42
907.43	15365.91
907.60	15249.18
907.77	15574.80
907.93	15468.31
908.10	15537.94
908.27	15501.08
908.44	15132.44
908.61	15103.77
908.78	15296.28
908.95	15488.79
909.12	15451.92
909.29	15191.83
909.46	14997.28
909.63	15398.68
909.80	15101.72
909.97	15251.22
910.14	15154.97
910.31	15197.98
910.48	15286.04
910.65	15312.66
910.82	14864.16
910.99	15011.61
911.16	15327.00
911.33	15124.25
911.50	15204.12
911.66	15150.87
911.83	15124.25
912.00	15034.14
912.17	14845.73
912.34	14941.98
912.51	14855.97
912.68	14759.71
912.85	14710.56
913.02	15071.00
913.19	14782.24
913.36	14743.33
913.53	14939.93
913.70	14473.00
913.86	14712.61
914.03	14618.40
914.20	14749.47
914.37	14698.27
914.54	14751.52
914.71	14696.22
914.88	14812.96
915.05	14688.03
915.22	14620.45
915.39	14610.21
915.55	14606.11
915.72	14546.72
915.89	14534.43
916.06	14260.01
916.23	13981.48
916.40	14184.23
916.57	14051.11
916.74	14208.81
916.91	14176.04
917.07	14034.73
917.24	14008.11
917.41	13854.51
917.58	13973.29
917.75	13987.63
917.92	13954.86
918.09	13633.33
918.26	13887.28
918.42	13770.54
918.59	13881.13
918.76	13643.57
918.93	13717.29
919.10	13549.36
919.27	13596.46
919.44	13752.11
919.60	13489.97
919.77	13657.90
919.94	13381.43
920.11	13555.51
920.28	13664.05
920.45	13473.59
920.61	13207.35
920.78	13287.22
920.95	13276.98
921.12	13272.89
921.29	13115.19
921.46	13197.11
921.62	13029.18
921.79	13010.75
921.96	12941.11
922.13	13027.13
922.30	12881.72
922.47	12877.63
922.63	12701.50
922.80	12750.65
922.97	12504.90
923.14	12533.57
923.31	12746.56
923.47	12506.95
923.64	12771.13
923.81	12541.76
923.98	12369.73
924.15	12463.94
924.32	12453.70
924.48	12429.12
924.65	12365.64
924.82	12074.82
924.99	12230.47
925.15	11859.79
925.32	12275.52
925.49	11833.16
925.66	11997.00
925.83	11919.18
925.99	11876.17
926.16	12060.49
926.33	11802.44
926.50	11677.52
926.67	11874.12
926.83	11650.89
927.00	11495.25
927.17	11525.97
927.34	11589.46
927.50	11599.70
927.67	11562.83
927.84	11343.70
928.01	11345.75
928.17	11229.01
928.34	11226.96
928.51	11153.24
928.68	11149.14
928.84	11085.65
929.01	10876.76
929.18	10874.71
929.35	10848.09
929.51	11108.18
929.68	10827.61
929.85	10786.65
930.02	10800.99
930.18	10753.88
930.35	10686.30
930.52	10729.31
930.69	10690.40
930.85	10686.30
931.02	10651.49
931.19	10594.14
931.36	10596.19
931.52	10422.11
931.69	10463.07
931.86	10198.88
932.02	10389.35
932.19	10334.05
932.36	10223.46
932.53	10162.02
932.69	10092.39
932.86	10006.38
933.03	10004.33
933.19	9981.80
933.36	10108.77
933.53	10037.09
933.70	9686.89
933.86	9854.83
934.03	9826.15
934.20	9758.57
934.36	9688.94
934.53	9551.73
934.70	9525.10
934.86	9529.20
935.03	9156.47
935.20	9258.87
935.36	9168.76
935.53	9015.16
935.70	9023.35
935.86	8996.73
936.03	8957.82
936.20	9025.40
936.36	8697.72
936.53	8783.74
936.70	8572.80
936.86	8775.55
937.03	8507.26
937.20	8353.66
937.36	8327.04
937.53	8302.47
937.70	8079.24
937.86	8040.33
938.03	7878.54
938.20	8210.31
938.36	7923.59
938.53	7794.57
938.70	7597.96
938.86	7733.13
939.03	7593.87
939.20	7464.85
939.36	7327.63
939.53	7317.39
939.70	7520.14
939.86	7128.98
940.03	6965.14
940.19	6909.85
940.36	6928.28
940.53	6809.50
940.69	6743.96
940.86	6688.67
941.03	6721.43
941.19	6647.71
941.36	6434.72
941.52	6498.20
941.69	6373.28
941.86	6453.15
942.02	6336.42
942.19	6303.65
942.35	6272.93
942.52	6066.08
942.69	6127.52
942.85	5908.39
943.02	5945.25
943.18	6115.23
943.35	5896.10
943.52	5879.72
943.68	5777.32
943.85	5869.48
944.01	5730.22
944.18	5717.93
944.35	5689.26
944.51	5640.11
944.68	5578.67
944.84	5488.56
945.01	5513.13
945.17	5611.43
945.34	5449.64
945.51	5568.43
945.67	5453.74
945.84	5556.14
946.00	5500.84
946.17	5525.42
946.33	5472.17
946.50	5466.03
946.67	5361.58
946.83	5316.53
947.00	5400.49
947.16	5558.19
947.33	5369.77
947.49	5488.56
947.66	5248.94
947.82	5332.91
947.99	5431.21
948.16	5410.73
948.32	5490.60
948.49	5351.34
948.65	5472.17
948.82	5402.54
948.98	5205.94
949.15	5287.86
949.31	5425.07
949.48	5332.91
949.64	5330.86
949.81	5355.44
949.97	5377.97
950.14	5377.97
950.30	5363.63
950.47	5484.46
950.63	5185.46
950.80	5482.41
950.96	5394.35
951.13	5232.56
951.30	5398.45
951.46	5486.51
951.63	5506.99
951.79	5511.08
951.96	5572.52
952.12	5418.93
952.29	5500.84
952.45	5466.03
952.62	5523.37
952.78	5480.36
952.94	5332.91
953.11	5461.93
953.27	5291.95
953.44	5578.67
953.60	5408.69
953.77	5541.80
953.93	5566.38
954.10	5531.56
954.26	5519.28
954.43	5476.27
954.59	5666.73
954.76	5615.53
954.92	5517.23
955.09	5525.42
955.25	5496.75
955.42	5541.80
955.58	5617.58
955.75	5566.38
955.91	5402.54
956.07	5474.22
956.24	5511.08
956.40	5545.90
956.57	5652.39
956.73	5398.45
956.90	5679.02
957.06	5562.28
957.23	5359.53
957.39	5435.31
957.56	5466.03
957.72	5330.86
957.88	5423.02
958.05	5715.88
958.21	5668.78
958.38	5515.18
958.54	5398.45
958.71	5722.02
958.87	5531.56
959.03	5564.33
959.20	5705.64
959.36	5398.45
959.53	5425.07
959.69	5527.47
959.85	5527.47
960.02	5463.98
960.18	5566.38
960.35	5466.03
960.51	5556.14
960.68	5453.74
960.84	5447.60
961.00	5445.55
961.17	5566.38
961.33	5431.21
961.50	5539.76
961.66	5580.71
961.82	5367.73
961.99	5480.36
962.15	5572.52
962.31	5533.61
962.48	5601.19
962.64	5531.56
962.81	5500.84
962.97	5441.45
963.13	5490.60
963.30	5459.88
963.46	5443.50
963.62	5410.73
963.79	5466.03
963.95	5455.79
964.12	5410.73
964.28	5679.02
964.44	5455.79
964.61	5537.71
964.77	5523.37
964.93	5547.95
965.10	5312.43
965.26	5427.12
965.42	5488.56
965.59	5345.20
965.75	5418.93
965.92	5322.67
966.08	5310.38
966.24	5406.64
966.41	5472.17
966.57	5449.64
966.73	5420.97
966.90	5476.27
967.06	5406.64
967.22	5230.51
967.39	5353.39
967.55	5349.29
967.71	5248.94
967.88	5261.23
968.04	5279.66
968.20	5164.98
968.37	5308.34
968.53	5109.68
968.69	5154.74
968.85	5267.38
969.02	5361.58
969.18	5300.14
969.34	5173.17
969.51	5345.20
969.67	5289.90
969.83	5040.05
970.00	5384.11
970.16	5269.42
970.32	5193.65
970.48	5218.22
970.65	5164.98
970.81	5052.34
970.97	5197.74
971.14	4982.71
971.30	5232.56
971.46	5144.50
971.63	5078.96
971.79	5097.39
971.95	5050.29
972.11	4882.36
972.28	4956.08
972.44	5023.67
972.60	4984.76
972.76	4915.12
972.93	5017.52
973.09	4984.76
973.25	5044.15
973.42	5078.96
973.58	5025.72
973.74	5011.38
973.90	5066.67
974.07	4964.28
974.23	4925.36
974.39	4980.66
974.55	4855.73
974.72	4767.67
974.88	4802.49
975.04	4806.58
975.20	4898.74
975.37	4865.97
975.53	4878.26
975.69	4814.77
975.85	4972.47
976.01	4837.30
976.18	4847.54
976.34	4857.78
976.50	4872.12
976.66	4837.30
976.83	4706.23
976.99	4659.13
977.15	4712.38
977.31	4710.33
977.47	4769.72
977.64	4755.38
977.80	4767.67
977.96	4628.41
978.12	4722.62
978.29	4573.11
978.45	4550.59
978.61	4599.74
978.77	4650.94
978.93	4589.50
979.10	4493.24
979.26	4644.79
979.42	4571.07
979.58	4444.09
979.74	4562.87
979.91	4538.30
980.07	4485.05
980.23	4585.40
980.39	4532.15
980.55	4429.76
980.71	4480.96
980.88	4489.15
981.04	4413.37
981.20	4370.37
981.36	4552.63
981.52	4564.92
981.68	4319.17
981.85	4552.63
982.01	4530.11
982.17	4298.69
982.33	4341.69
982.49	4585.40
982.65	4370.37
982.82	4253.63
982.98	4362.17
983.14	4294.59
983.30	4427.71
983.46	4288.45
983.62	4282.30
983.79	4333.50
983.95	4276.16
984.11	4196.29
984.27	4407.23
984.43	4243.39
984.59	4179.90
984.75	4253.63
984.91	4145.09
985.08	4237.25
985.24	4114.37
985.40	4153.28
985.56	4073.41
985.72	4343.74
985.88	4038.59
986.04	4038.59
986.20	4128.70
986.37	4038.59
986.53	4116.42
986.69	4130.75
986.85	4054.98
987.01	4009.92
987.17	4126.66
987.33	4067.27
987.49	3942.34
987.65	4032.45
987.82	3940.29
987.98	4122.56
988.14	4104.13
988.30	4085.70
988.46	3921.86
988.62	3956.68
988.78	3975.11
988.94	3962.82
989.10	3932.10
989.26	3942.34
989.42	3796.93
989.59	3819.46
989.75	3903.43
989.91	3893.19
990.07	3764.17
990.23	3784.65
990.39	3862.47
990.55	3841.99
990.71	3807.17
990.87	3905.48
991.03	3809.22
991.19	3803.08
991.35	3753.93
991.51	3784.65
991.67	3768.26
991.83	3801.03
992.00	3766.21
992.16	3686.34
992.32	3741.64
992.48	3829.70
992.64	3571.66
992.80	3647.43
992.96	3737.54
993.12	3803.08
993.28	3739.59
993.44	3692.49
993.60	3715.02
993.76	3555.27
993.92	3620.81
994.08	3770.31
994.24	3643.34
994.40	3540.94
994.56	3712.97
994.72	3651.53
994.88	3618.76
995.04	3596.23
995.20	3530.70
995.36	3616.71
995.52	3659.72
995.68	3571.66
995.84	3489.74
996.00	3645.38
996.16	3479.50
996.32	3504.07
996.48	3510.22
996.64	3635.14
996.80	3448.78
996.96	3432.40
997.12	3483.59
997.28	3422.16
997.44	3424.20
997.60	3477.45
997.76	3446.73
997.92	3450.83
998.08	3522.51
998.24	3311.57
998.40	3506.12
998.56	3446.73
998.72	3278.80
998.88	3356.62
999.04	3243.98
999.20	3481.55
999.36	3362.76
999.52	3432.40
999.68	3377.10
999.84	3448.78
1000.00	3319.76
1000.16	3332.05
1000.32	3260.37
1000.48	3395.53
1000.64	3246.03
1000.80	3223.50
1000.95	3235.79
1001.11	3319.76
1001.27	3143.63
1001.43	3223.50
1001.59	3131.34
1001.75	3137.49
1001.91	3264.46
1002.07	3190.74
1002.23	3231.69
1002.39	3235.79
1002.55	3219.41
1002.71	3071.95
1002.87	3180.50
1003.03	3067.86
1003.19	3139.54
1003.34	3153.87
1003.50	3069.91
1003.66	3153.87
1003.82	3112.91
1003.98	3006.42
1004.14	3086.29
1004.30	3022.80
1004.46	3061.71
1004.62	3035.09
1004.78	3030.99
1004.94	2981.84
1005.09	3035.09
1005.25	3037.14
1005.41	2969.55
1005.57	3020.75
1005.73	3074.00
1005.89	2973.65
1006.05	2969.55
1006.21	2975.70
1006.37	2906.07
1006.52	2863.06
1006.68	2932.69
1006.84	3051.47
1007.00	2934.74
1007.16	2998.23
1007.32	2963.41
1007.48	2846.68
1007.64	2842.58
1007.79	2932.69
1007.95	2924.50
1008.11	2897.88
1008.27	2805.72
1008.43	2889.68
1008.59	2838.48
1008.75	2834.39
1008.91	2858.96
1009.06	2846.68
1009.22	2930.64
1009.38	2818.00
1009.54	2785.24
1009.70	2785.24
1009.86	2731.99
1010.01	2867.16
1010.17	2760.66
1010.33	2887.64
1010.49	2770.90
1010.65	2928.60
1010.81	2777.05
1010.96	2748.37
1011.12	2676.70
1011.28	2768.85
1011.44	2717.65
1011.60	2734.04
1011.76	2793.43
1011.91	2830.29
1012.07	2586.58
1012.23	2607.06
1012.39	2623.45
1012.55	2740.18
1012.71	2662.36
1012.86	2658.26
1013.02	2709.46
1013.18	2676.70
1013.34	2664.41
1013.50	2691.03
1013.65	2625.50
1013.81	2559.96
1013.97	2613.21
1014.13	2596.82
1014.29	2631.64
1014.44	2713.56
1014.60	2686.94
1014.76	2635.74
1014.92	2519.00
1015.07	2596.82
1015.23	2533.34
1015.39	2580.44
1015.55	2576.34
1015.71	2529.24
1015.86	2471.90
1016.02	2525.15
1016.18	2426.84
1016.34	2539.48
1016.49	2525.15
1016.65	2543.58
1016.81	2525.15
1016.97	2553.82
1017.12	2486.23
1017.28	2469.85
1017.44	2441.18
1017.60	2576.34
1017.75	2461.66
1017.91	2455.51
1018.07	2424.80
1018.23	2404.32
1018.38	2523.10
1018.54	2463.71
1018.70	2416.60
1018.86	2459.61
1019.01	2359.26
1019.17	2404.32
1019.33	2469.85
1019.49	2410.46
1019.64	2369.50
1019.80	2400.22
1019.96	2512.86
1020.12	2414.56
1020.27	2299.87
1020.43	2369.50
1020.59	2394.08
1020.74	2402.27
1020.90	2383.84
1021.06	2338.78
1021.22	2342.88
1021.37	2418.65
1021.53	2285.53
1021.69	2367.45
1021.84	2334.68
1022.00	2285.53
1022.16	2349.02
1022.31	2336.73
1022.47	2371.55
1022.63	2396.12
1022.79	2191.33
1022.94	2295.77
1023.10	2332.64
1023.26	2211.81
1023.41	2195.42
1023.57	2287.58
1023.73	2275.29
1023.88	2215.90
1024.04	2185.18
1024.20	2213.85
1024.35	2236.38
1024.51	2252.77
1024.67	2197.47
1024.82	2389.98
1024.98	2150.37
1025.14	2187.23
1025.29	2220.00
1025.45	2226.14
1025.61	2179.04
1025.76	2265.05
1025.92	2176.99
1026.08	2263.01
1026.23	2269.15
1026.39	2234.33
1026.55	2236.38
1026.70	2199.52
1026.86	2197.47
1027.02	2240.48
1027.17	2166.75
1027.33	2250.72
1027.48	2113.50
1027.64	2164.70
1027.80	2158.56
1027.95	2133.98
1028.11	2133.98
1028.27	2119.65
1028.42	2183.13
1028.58	2150.37
1028.73	2172.89
1028.89	2064.35
1029.05	2156.51
1029.20	2121.70
>>>>>End Processed Spectral Data<<<<<
