SpectraSuite Data File
++++++++++++++++++++++++++++++++++++
Date: Fri Jun 02 14:51:09 CEST 2017
User: INFO_000
Dark Spectrum Present: No
Reference Spectrum Present: No
Number of Sampled Component Spectra: 1
Spectrometers: USB4H00879
Integration Time (usec): 80000 (USB4H00879)
Spectra Averaged: 1 (USB4H00879)
Boxcar Smoothing: 0 (USB4H00879)
Correct for Electrical Dark: No (USB4H00879)
Strobe/Lamp Enabled: No (USB4H00879)
Correct for Detector Non-linearity: No (USB4H00879)
Correct for Stray Light: No (USB4H00879)
Number of Pixels in Processed Spectrum: 3648
>>>>>Begin Processed Spectral Data<<<<<
345.13	1296.36
345.34	1296.36
345.56	1296.36
345.78	1279.98
345.99	1261.55
346.21	1699.81
346.42	1738.73
346.64	1634.28
346.86	1761.25
347.07	1742.82
347.29	1613.80
347.50	1648.61
347.72	1712.10
347.94	1751.01
348.15	1617.90
348.37	1644.52
348.59	1691.62
348.80	1634.28
349.02	1794.02
349.23	1841.12
349.45	1816.55
349.67	1914.85
349.88	1787.88
350.10	1920.99
350.31	1875.94
350.53	1912.80
350.75	2013.15
350.96	1785.83
351.18	1822.69
351.39	1896.42
351.61	1740.77
351.82	1822.69
352.04	1900.52
352.26	1884.13
352.47	1935.33
352.69	1935.33
352.90	1748.97
353.12	1841.12
353.34	1890.28
353.55	1920.99
353.77	1896.42
353.98	1781.73
354.20	1798.12
354.41	1904.61
354.63	1951.71
354.85	2019.30
355.06	1964.00
355.28	1730.53
355.49	1877.99
355.71	1802.21
355.92	1875.94
356.14	1959.91
356.35	1839.08
356.57	1888.23
356.79	1990.63
357.00	1880.04
357.22	1912.80
357.43	1853.41
357.65	1914.85
357.86	1816.55
358.08	1875.94
358.29	1959.91
358.51	2007.01
358.72	2002.91
358.94	1947.62
359.16	1953.76
359.37	1904.61
359.59	1931.23
359.80	1888.23
360.02	1890.28
360.23	1890.28
360.45	1957.86
360.66	1902.56
360.88	1900.52
361.09	1933.28
361.31	1998.82
361.52	1970.15
361.74	2060.26
361.95	2082.78
362.17	1990.63
362.38	2037.73
362.60	2019.30
362.81	1968.10
363.03	1906.66
363.24	1933.28
363.46	2039.78
363.67	2023.39
363.89	1912.80
364.10	1949.67
364.32	2015.20
364.53	1980.39
364.75	1822.69
364.96	2047.97
365.18	2011.11
365.39	1986.53
365.61	2033.63
365.82	2093.02
366.04	1980.39
366.25	1990.63
366.47	2090.98
366.68	2009.06
366.90	1988.58
367.11	2133.98
367.33	2076.64
367.54	2062.30
367.76	2050.02
367.97	2099.17
368.19	2023.39
368.40	2021.35
368.62	1994.72
368.83	1947.62
369.05	2060.26
369.26	1953.76
369.48	2017.25
369.69	1925.09
369.91	2052.06
370.12	1935.33
370.33	1992.67
370.55	1978.34
370.76	1992.67
370.98	2133.98
371.19	1984.48
371.41	1949.67
371.62	2041.82
371.84	2076.64
372.05	2156.51
372.27	2113.50
372.48	2043.87
372.69	2072.54
372.91	2058.21
373.12	2041.82
373.34	2058.21
373.55	2088.93
373.77	2174.94
373.98	2045.92
374.20	2197.47
374.41	2248.67
374.62	2105.31
374.84	2179.04
375.05	2197.47
375.27	2136.03
375.48	2156.51
375.70	2125.79
375.91	2193.37
376.12	2263.01
376.34	2144.22
376.55	2197.47
376.77	2254.81
376.98	2109.41
377.19	2197.47
377.41	2113.50
377.62	2189.28
377.84	2154.46
378.05	2281.44
378.27	2228.19
378.48	2318.30
378.69	2297.82
378.91	2240.48
379.12	2209.76
379.34	2258.91
379.55	2330.59
379.76	2265.05
379.98	2207.71
380.19	2183.13
380.41	2179.04
380.62	2297.82
380.83	2191.33
381.05	2140.13
381.26	2306.01
381.47	2256.86
381.69	2254.81
381.90	2416.60
382.12	2230.24
382.33	2273.25
382.54	2338.78
382.76	2310.11
382.97	2295.77
383.19	2205.66
383.40	2244.57
383.61	2269.15
383.83	2277.34
384.04	2338.78
384.25	2322.40
384.47	2400.22
384.68	2346.97
384.89	2205.66
385.11	2222.05
385.32	2242.53
385.54	2342.88
385.75	2289.63
385.96	2322.40
386.18	2342.88
386.39	2346.97
386.60	2338.78
386.82	2387.93
387.03	2420.70
387.24	2443.23
387.46	2387.93
387.67	2428.89
387.88	2514.91
388.10	2455.51
388.31	2461.66
388.52	2547.67
388.74	2445.27
388.95	2451.42
389.16	2402.27
389.38	2426.84
389.59	2459.61
389.80	2439.13
390.02	2492.38
390.23	2529.24
390.44	2510.81
390.66	2557.91
390.87	2408.41
391.08	2666.46
391.30	2654.17
391.51	2639.83
391.72	2598.87
391.94	2580.44
392.15	2688.98
392.36	2578.39
392.58	2496.47
392.79	2484.19
393.00	2600.92
393.22	2697.17
393.43	2709.46
393.64	2676.70
393.85	2736.09
394.07	2611.16
394.28	2594.78
394.49	2723.80
394.71	2662.36
394.92	2748.37
395.13	2600.92
395.35	2668.50
395.56	2731.99
395.77	2688.98
395.98	2707.41
396.20	2656.22
396.41	2811.86
396.62	2815.96
396.84	2799.57
397.05	2797.53
397.26	2897.88
397.47	2801.62
397.69	2801.62
397.90	2967.51
398.11	2924.50
398.32	2797.53
398.54	2777.05
398.75	2850.77
398.96	2920.40
399.18	3090.38
399.39	2854.87
399.60	3041.23
399.81	2869.20
400.03	2924.50
400.24	3246.03
400.45	2899.92
400.66	2899.92
400.88	2854.87
401.09	3248.08
401.30	2930.64
401.51	3141.58
401.73	3067.86
401.94	3045.33
402.15	3026.90
402.36	3141.58
402.58	3061.71
402.79	3041.23
403.00	3076.05
403.21	3194.83
403.43	3129.30
403.64	3178.45
403.85	3076.05
404.06	3207.12
404.27	3041.23
404.49	3067.86
404.70	3067.86
404.91	3235.79
405.12	3121.10
405.34	3258.32
405.55	3299.28
405.76	2992.08
405.97	3229.65
406.19	3260.37
406.40	3274.70
406.61	3231.69
406.82	3284.94
407.03	3192.78
407.25	3205.07
407.46	3252.17
407.67	3418.06
407.88	3315.66
408.09	3264.46
408.31	3323.85
408.52	3323.85
408.73	3178.45
408.94	3194.83
409.15	3344.33
409.37	3542.99
409.58	3467.21
409.79	3422.16
410.00	3434.44
410.21	3313.61
410.43	3403.72
410.64	3354.57
410.85	3354.57
411.06	3409.87
411.27	3499.98
411.48	3518.41
411.70	3475.40
411.91	3459.02
412.12	3620.81
412.33	3461.07
412.54	3520.46
412.76	3676.10
412.97	3518.41
413.18	3516.36
413.39	3477.45
413.60	3600.33
413.81	3590.09
414.03	3567.56
414.24	3499.98
414.45	3755.97
414.66	3561.42
414.87	3684.30
415.08	3608.52
415.30	3575.75
415.51	3645.38
415.72	3755.97
415.93	3639.24
416.14	3702.73
416.35	3831.75
416.56	3753.93
416.78	3678.15
416.99	3710.92
417.20	3874.76
417.41	3805.13
417.62	3780.55
417.83	3856.33
418.04	3803.08
418.26	3932.10
418.47	3841.99
418.68	3956.68
418.89	3897.28
419.10	4036.55
419.31	3987.40
419.52	3905.48
419.73	3907.52
419.95	4022.21
420.16	3841.99
420.37	3956.68
420.58	3923.91
420.79	3737.54
421.00	3917.76
421.21	4071.36
421.42	3846.09
421.63	3981.25
421.85	3960.77
422.06	3995.59
422.27	4059.07
422.48	3968.96
422.69	4083.65
422.90	4044.74
423.11	4020.16
423.32	4042.69
423.53	4241.34
423.75	4157.38
423.96	4241.34
424.17	4136.90
424.38	4272.06
424.59	4122.56
424.80	4341.69
425.01	4231.10
425.22	4124.61
425.43	4149.18
425.64	4501.44
425.85	4392.89
426.06	4401.08
426.28	4304.83
426.49	4296.64
426.70	4288.45
426.91	4417.47
427.12	4519.87
427.33	4450.24
427.54	4497.34
427.75	4530.11
427.96	4687.80
428.17	4597.69
428.38	4620.22
428.59	4581.31
428.80	4409.28
429.01	4679.61
429.23	4626.36
429.44	4810.68
429.65	4665.27
429.86	4878.26
430.07	4657.08
430.28	4614.07
430.49	4722.62
430.70	4728.76
430.91	4845.49
431.12	4718.52
431.33	4935.60
431.54	5003.19
431.75	4782.01
431.96	4923.32
432.17	4769.72
432.38	4890.55
432.59	5027.76
432.80	5093.30
433.01	5117.87
433.22	5091.25
433.43	5132.21
433.64	5031.86
433.85	5062.58
434.06	5230.51
434.27	5029.81
434.49	5072.82
434.70	5339.05
434.91	5117.87
435.12	5263.28
435.33	5109.68
435.54	5255.09
435.75	5281.71
435.96	5300.14
436.17	5144.50
436.38	5547.95
436.59	5466.03
436.80	5289.90
437.01	5509.04
437.22	5599.15
437.43	5420.97
437.64	5310.38
437.85	5582.76
438.06	5728.17
438.27	5457.84
438.48	5511.08
438.69	5664.68
438.90	5590.95
439.11	5457.84
439.32	5621.67
439.53	5652.39
439.74	5742.50
439.95	5627.82
440.16	5648.30
440.37	5609.39
440.57	5578.67
440.78	5726.12
440.99	5875.62
441.20	5715.88
441.41	5719.98
441.62	5672.87
441.83	5656.49
442.04	5855.14
442.25	5844.90
442.46	5840.81
442.67	5945.25
442.88	6258.59
443.09	5818.28
443.30	5801.90
443.51	6029.22
443.72	6219.68
443.93	5861.29
444.14	6231.97
444.35	5840.81
444.56	6070.18
444.77	6121.38
444.98	6178.72
445.19	6242.21
445.40	5988.26
445.61	6205.35
445.81	6309.79
446.02	6307.74
446.23	6234.02
446.44	6072.23
446.65	6354.85
446.86	6168.48
447.07	6483.87
447.28	6498.20
447.49	6539.16
447.70	6352.80
447.91	6504.35
448.12	6324.13
448.33	6621.08
448.54	6700.95
448.74	6508.44
448.95	6659.99
449.16	6471.58
449.37	6782.87
449.58	6565.79
449.79	6772.63
450.00	6768.54
450.21	6813.59
450.42	6864.79
450.63	6948.76
450.84	6631.32
451.05	6836.12
451.25	6864.79
451.46	6825.88
451.67	6903.70
451.88	6965.14
452.09	6973.33
452.30	6866.84
452.51	7071.64
452.72	7090.07
452.93	7161.75
453.13	7010.20
453.34	7057.30
453.55	7032.72
453.76	6991.77
453.97	7401.36
454.18	7157.65
454.39	7387.02
454.60	7137.17
454.81	7184.27
455.01	7454.61
455.22	7260.05
455.43	7307.15
455.64	7372.69
455.85	7673.74
456.06	7710.60
456.27	7456.65
456.48	7499.66
456.68	7593.87
456.89	7593.87
457.10	7692.17
457.31	7612.30
457.52	7577.48
457.73	7876.49
457.94	8025.99
458.14	7571.34
458.35	8195.97
458.56	7966.60
458.77	7878.54
458.98	7989.13
459.19	7995.27
459.39	7999.37
459.60	8109.96
459.81	7982.98
460.02	8382.34
460.23	8095.62
460.44	8226.69
460.65	8415.10
460.85	8470.40
461.06	8488.83
461.27	8318.85
461.48	8613.76
461.69	8660.86
461.89	8302.47
462.10	8550.27
462.31	8458.11
462.52	8546.17
462.73	8605.56
462.94	8732.54
463.14	8691.58
463.35	8791.93
463.56	9269.11
463.77	9152.37
463.98	8888.18
464.18	8892.28
464.39	9004.92
464.60	9303.92
464.81	8990.58
465.02	9146.23
465.23	9447.28
465.43	9138.04
465.64	9375.60
465.85	9133.94
466.06	9330.55
466.27	9586.54
466.47	9514.86
466.68	9604.97
466.89	9432.94
467.10	9682.80
467.30	9299.83
467.51	9764.72
467.72	9992.04
467.93	9527.15
468.14	9856.87
468.34	10037.09
468.55	10073.96
468.76	9924.46
468.97	9744.24
469.17	10155.88
469.38	10205.03
469.59	10274.66
469.80	10342.24
470.01	10377.06
470.21	10395.49
470.42	10635.10
470.63	10528.61
470.84	10415.97
471.04	10854.23
471.25	10745.69
471.46	10581.85
471.67	10864.47
471.87	10911.58
472.08	11036.50
472.29	11222.87
472.50	10526.56
472.70	11136.85
472.91	10913.63
473.12	11456.34
473.33	11175.77
473.53	11636.56
473.74	11323.22
473.95	11407.19
474.16	11683.66
474.36	11698.00
474.57	11974.47
474.78	12150.60
474.99	11872.07
475.19	11843.40
475.40	12115.78
475.61	12138.31
475.81	12308.29
476.02	12556.10
476.23	12261.19
476.44	12472.13
476.64	12595.01
476.85	12842.81
477.06	12693.31
477.27	13008.70
477.47	12963.64
477.68	12894.01
477.89	13203.25
478.09	13045.56
478.30	13266.74
478.51	13285.17
478.71	13506.35
478.92	13401.91
479.13	13506.35
479.34	13811.50
479.54	13666.10
479.75	13848.36
479.96	13815.60
480.16	13946.67
480.37	14073.64
480.58	14366.50
480.78	14298.92
480.99	14356.26
481.20	14452.52
481.41	14712.61
481.61	14751.52
481.82	14929.69
482.03	14501.67
482.23	14667.55
482.44	15240.98
482.65	15032.09
482.85	15044.38
483.06	14999.32
483.27	15003.42
483.47	15300.37
483.68	15394.58
483.89	15580.95
484.09	15572.75
484.30	15671.06
484.51	16056.08
484.71	15851.28
484.92	16033.55
485.13	16111.37
485.33	16201.48
485.54	15955.72
485.75	16359.17
485.95	16441.09
486.16	16688.90
486.37	16606.98
486.57	16817.92
486.78	16643.84
486.98	16535.30
487.19	16844.54
487.40	16994.04
487.60	17192.70
487.81	16985.85
488.02	17319.67
488.22	17385.21
488.43	17714.93
488.64	17374.97
488.84	17612.53
489.05	17647.35
489.25	17551.09
489.46	17889.01
489.67	18044.65
489.87	18226.92
490.08	18050.80
490.29	18286.31
490.49	18636.52
490.70	18521.83
490.90	18816.74
491.11	18773.73
491.32	18783.97
491.52	19023.58
491.73	19156.70
491.94	19080.92
492.14	19050.21
492.35	19302.11
492.55	19504.85
492.76	19478.23
492.97	19400.41
493.17	19621.59
493.38	19816.15
493.58	19967.70
493.79	20205.26
494.00	19869.39
494.20	20098.77
494.41	20225.74
494.61	20340.43
494.82	19873.49
495.02	20326.09
495.23	20770.50
495.44	20850.37
495.64	20774.60
495.85	20690.63
496.05	20999.87
496.26	20938.43
496.47	21358.27
496.67	21339.83
496.88	21288.64
497.08	20874.95
497.29	21317.31
497.49	21186.24
497.70	21550.78
497.91	21513.91
498.11	21968.56
498.32	21884.59
498.52	21946.03
498.73	22079.15
498.93	21989.04
499.14	22417.07
499.34	22159.02
499.55	22015.66
499.76	22187.69
499.96	22582.95
500.17	22361.77
500.37	22568.62
500.58	22650.53
500.78	22935.20
500.99	22718.12
501.19	23049.89
501.40	22730.41
501.60	22800.04
501.81	23164.57
502.02	23340.70
502.22	22980.26
502.43	23381.66
502.63	23449.24
502.84	23291.55
503.04	23330.46
503.25	23393.95
503.45	23426.71
503.66	23959.19
503.86	23760.53
504.07	24094.35
504.27	23484.06
504.48	23989.91
504.68	24213.13
504.89	24469.13
505.09	23971.47
505.30	24163.98
505.50	24258.19
505.71	24037.01
505.91	24471.18
506.12	24759.94
506.32	24635.02
506.53	24383.12
506.73	24829.57
506.94	24788.61
507.14	24620.68
507.35	25015.94
507.55	24946.31
507.76	25179.78
507.96	24766.09
508.17	24895.11
508.37	25065.09
508.58	25015.94
508.78	25149.06
508.99	25206.40
509.19	25368.19
509.40	25439.87
509.60	25058.95
509.81	25314.94
510.01	25218.69
510.22	25513.59
510.42	25482.88
510.63	25865.85
510.83	25740.92
511.04	25740.92
511.24	25728.63
511.44	25894.52
511.65	25841.27
511.85	25927.28
512.06	26023.54
512.26	25773.69
512.47	26084.98
512.67	26037.87
512.88	26426.99
513.08	26017.40
513.29	26230.38
513.49	26216.05
513.69	26373.74
513.90	26445.42
514.10	26347.12
514.31	26269.30
514.51	26654.31
514.72	26482.28
514.92	26369.65
515.13	26760.81
515.33	26560.11
515.53	26775.14
515.74	26912.36
515.94	26924.65
516.15	26902.12
516.35	26551.91
516.56	26877.54
516.76	26867.30
516.96	27186.79
517.17	27078.24
517.37	26756.71
517.58	27250.27
517.78	27231.84
517.99	27573.85
518.19	27139.68
518.39	27541.08
518.60	27735.64
518.80	27301.47
519.01	27473.50
519.21	27285.09
519.41	27809.37
519.62	27358.81
519.82	27610.71
520.03	28030.55
520.23	27883.09
520.43	27749.98
520.64	28010.07
520.84	28341.84
521.05	28157.52
521.25	28292.69
521.45	28411.47
521.66	28122.71
521.86	28137.04
522.07	28481.10
522.27	28446.29
522.47	28225.11
522.68	28835.40
522.88	28329.55
523.08	28739.15
523.29	28743.24
523.49	28702.28
523.70	28698.19
523.90	29236.80
524.10	29025.86
524.31	29222.47
524.51	28599.88
524.71	29740.60
524.92	29095.49
525.12	29447.74
525.33	29619.77
525.53	29195.84
525.73	29699.64
525.94	29834.81
526.14	29582.91
526.34	29607.48
526.55	29609.53
526.75	30000.69
526.95	29947.45
527.16	30285.36
527.36	30004.79
527.56	29914.68
527.77	30293.55
527.97	30404.14
528.17	30391.86
528.38	30600.75
528.58	30502.45
528.78	30778.92
528.99	30549.55
529.19	30877.22
529.39	30694.96
529.60	30912.04
529.80	30770.73
530.00	30654.00
530.21	31065.64
530.41	31096.36
530.61	30963.24
530.82	31299.11
531.02	31077.93
531.22	31530.53
531.43	31413.79
531.63	31430.18
531.83	31866.39
532.04	32149.01
532.24	31604.25
532.44	32251.41
532.64	31989.27
532.85	32192.02
533.05	32001.56
533.25	32450.06
533.46	32146.97
533.66	32609.81
533.86	32359.95
534.07	32699.92
534.27	32773.64
534.47	32876.04
534.67	33201.67
534.88	32620.05
535.08	33328.64
535.28	33166.85
535.49	33207.81
535.69	33601.02
535.89	33334.79
536.09	33463.81
536.30	33793.53
536.50	33631.74
536.70	33891.83
536.91	33756.67
537.11	33922.55
537.31	33666.56
537.51	34108.92
537.72	34223.61
537.92	34407.92
538.12	34518.51
538.32	34037.24
538.53	34403.83
538.73	34375.16
538.93	34166.26
539.13	34469.36
539.34	34651.63
539.54	34647.54
539.74	34936.30
539.94	34846.19
540.15	35003.88
540.35	35241.45
540.55	35167.72
540.75	35476.96
540.96	35155.43
541.16	35558.88
541.36	35427.81
541.56	35524.07
541.77	35868.12
541.97	35845.60
542.17	35884.51
542.37	35517.92
542.58	35986.91
542.78	35923.42
542.98	35927.52
543.18	36214.23
543.38	36584.91
543.59	36672.98
543.79	36228.57
543.99	36343.25
544.19	36316.63
544.40	36582.87
544.60	36672.98
544.80	37084.62
545.00	36664.78
545.20	37477.83
545.41	36724.18
545.61	36804.05
545.81	37113.29
546.01	37606.85
546.21	37060.04
546.42	37037.51
546.62	37445.06
546.82	37266.89
547.02	37844.41
547.22	37660.10
547.43	37541.32
547.63	37645.76
547.83	37905.85
548.03	37492.16
548.23	38258.10
548.44	37821.89
548.64	37713.34
548.84	38118.84
549.04	37680.58
549.24	38243.77
549.45	38823.34
549.65	38323.64
549.85	38292.92
550.05	38655.41
550.25	38493.62
550.45	38815.15
550.66	38878.64
550.86	38682.03
551.06	38821.30
551.26	39214.51
551.46	38929.84
551.66	39138.73
551.87	38995.37
552.07	39243.18
552.27	39159.21
552.47	38915.50
552.67	39325.10
552.87	39306.66
553.07	39560.61
553.28	39509.41
553.48	39558.56
553.68	39558.56
553.88	40039.84
554.08	39724.45
554.28	39671.20
554.48	39525.80
554.69	40134.04
554.89	40322.46
555.09	40261.02
555.29	40160.67
555.49	40344.98
555.69	40195.48
555.89	40080.80
556.10	40674.71
556.30	40031.65
556.50	40576.40
556.70	40168.86
556.90	40990.09
557.10	40592.79
557.30	40267.16
557.50	40832.40
557.70	40955.28
557.91	40721.81
558.11	40818.07
558.31	40986.00
558.51	40838.54
558.71	41067.92
558.91	41248.14
559.11	40877.46
559.31	41213.32
559.51	40908.18
559.72	41084.30
559.92	41584.01
560.12	40861.07
560.32	41485.70
560.52	41141.64
560.72	41178.51
560.92	41510.28
561.12	41547.14
561.32	41655.68
561.52	41260.43
561.72	41944.45
561.93	41600.39
562.13	42114.43
562.33	41954.69
562.53	42478.97
562.73	41614.72
562.93	42151.29
563.13	42294.65
563.33	41715.08
563.53	42356.09
563.73	41661.83
563.93	42345.85
564.13	42859.89
564.33	42589.56
564.53	42317.18
564.74	42675.57
564.94	42126.72
565.14	42685.81
565.34	42425.72
565.54	42462.58
565.74	42567.03
565.94	42974.58
566.14	42990.96
566.34	42395.00
566.54	43283.82
566.74	43052.40
566.94	42863.99
567.14	43287.92
567.34	42837.36
567.54	42900.85
567.74	43021.68
567.94	42702.20
568.14	43146.61
568.34	43216.24
568.54	43165.04
568.74	43668.84
568.94	43283.82
569.14	43752.80
569.34	43371.88
569.54	43728.23
569.75	43220.33
569.95	43494.76
570.15	44135.77
570.35	43562.34
570.55	43742.56
570.75	44066.14
570.95	43955.55
571.15	43771.24
571.35	43976.03
571.55	44107.10
571.75	43824.48
571.95	44377.43
572.15	44141.92
572.35	44105.06
572.55	44373.34
572.75	44191.07
572.95	44201.31
573.15	44229.98
573.35	44143.97
573.55	44283.23
573.75	44268.89
573.95	44928.34
574.15	44146.01
574.35	44275.04
574.55	44213.60
574.75	44332.38
574.95	44963.15
575.15	44660.05
575.34	44510.55
575.54	44989.78
575.74	45079.89
575.94	44868.95
576.14	44922.19
576.34	45194.57
576.54	45253.97
576.74	45313.36
576.94	45329.74
577.14	45184.33
577.34	45565.26
577.54	45305.16
577.74	45348.17
577.94	45362.51
578.14	45403.47
578.34	45577.54
578.54	45202.77
578.74	45581.64
578.94	45690.18
579.14	45757.77
579.34	45559.11
579.54	45405.52
579.74	46110.02
579.94	45716.81
580.13	46011.71
580.33	46388.54
580.53	45733.19
580.73	46046.53
580.93	46103.87
581.13	45956.42
581.33	46449.98
581.53	45833.54
581.73	46292.29
581.93	46138.69
582.13	46284.09
582.33	46355.77
582.53	46265.66
582.73	46400.83
582.92	46540.09
583.12	46753.08
583.32	47031.60
583.52	46241.09
583.72	46427.45
583.92	46878.00
584.12	46777.65
584.32	47248.69
584.52	46531.90
584.72	46724.41
584.92	47316.27
585.11	47611.18
585.31	47209.78
585.51	47408.43
585.71	46818.61
585.91	47471.92
586.11	47365.42
586.31	46837.05
586.51	46984.50
586.71	47357.23
586.91	47551.79
587.10	47283.50
587.30	47338.80
587.50	47686.95
587.70	47412.52
587.90	47691.05
588.10	47201.58
588.30	47627.56
588.50	47832.36
588.69	47228.21
588.89	47740.20
589.09	47738.15
589.29	47684.90
589.49	47904.04
589.69	47545.64
589.89	47811.88
590.08	47918.37
590.28	47574.31
590.48	47891.75
590.68	47660.33
590.88	47775.02
591.08	47781.16
591.28	47527.21
591.47	48573.72
591.67	48088.35
591.87	48125.22
592.07	48108.83
592.27	48088.35
592.47	48024.87
592.67	48227.62
592.86	47658.28
593.06	48246.05
593.26	48522.52
593.46	48211.23
593.66	48489.76
593.86	48676.12
594.05	48321.82
594.25	48485.66
594.45	48626.97
594.65	48194.85
594.85	48682.27
595.05	48442.65
595.24	48538.91
595.44	48723.22
595.64	48545.05
595.84	48796.95
596.04	48446.75
596.23	49073.43
596.43	48817.43
596.63	48565.53
596.83	48958.74
597.03	49112.34
597.22	49315.09
597.42	49184.02
597.62	48868.63
597.82	48741.66
598.02	48991.51
598.21	49308.94
598.41	48823.58
598.61	49114.39
598.81	49196.31
599.01	49526.03
599.20	49302.80
599.40	49214.74
599.60	49638.67
599.80	49437.97
600.00	49362.19
600.19	49476.88
600.39	49165.59
600.59	49722.63
600.79	49419.53
600.98	49296.66
601.18	50013.44
601.38	49755.40
601.58	49865.99
601.78	49493.26
601.97	49788.17
602.17	50013.44
602.37	50128.13
602.57	50064.64
602.76	50308.35
602.96	50050.31
603.16	50083.08
603.36	49970.44
603.55	50160.90
603.75	50009.35
603.95	50156.80
604.15	50593.02
604.34	50332.93
604.54	50369.79
604.74	50298.11
604.94	50480.38
605.13	50117.89
605.33	50842.87
605.53	50582.78
605.73	50810.10
605.92	50445.57
606.12	50681.08
606.32	50623.74
606.52	50447.61
606.71	50828.54
606.91	50900.22
607.11	50703.61
607.30	50828.54
607.50	50826.49
607.70	50588.92
607.90	50775.29
608.09	50828.54
608.29	50674.94
608.49	50928.89
608.68	50926.84
608.88	51510.51
609.08	51307.76
609.28	51178.74
609.47	50855.16
609.67	51303.67
609.87	51023.09
610.06	51301.62
610.26	51025.14
610.46	51176.69
610.66	51041.53
610.85	51563.76
611.05	51043.57
611.25	51100.92
611.44	51498.22
611.64	51309.81
611.84	51080.44
612.03	51539.18
612.23	51459.31
612.43	51236.08
612.62	51182.84
612.82	51483.89
613.02	51709.16
613.21	51318.00
613.41	51242.23
613.61	51633.39
613.80	51246.32
614.00	51361.01
614.20	51393.78
614.39	51664.11
614.59	51451.12
614.79	51678.44
614.98	51510.51
615.18	51535.09
615.38	51541.23
615.57	51559.66
615.77	51873.00
615.97	51340.53
616.16	51533.04
616.36	51369.20
616.56	52135.14
616.75	51225.84
616.95	51354.86
617.15	51631.34
617.34	51735.79
617.54	51657.96
617.74	51819.75
617.93	51727.59
618.13	51332.34
618.32	51676.40
618.52	51657.96
618.72	51434.74
618.91	51508.46
619.11	51727.59
619.31	51700.97
619.50	51305.71
619.70	51590.38
619.90	52030.69
620.09	51731.69
620.29	51598.57
620.48	51213.55
620.68	52092.13
620.88	51277.04
621.07	51719.40
621.27	51682.54
621.46	51461.36
621.66	51598.57
621.86	51942.63
622.05	51231.99
622.25	52081.89
622.44	51664.11
622.64	51518.70
622.84	52038.89
623.03	51430.64
623.23	51799.27
623.42	51473.65
623.62	51809.51
623.82	52192.48
624.01	51193.07
624.21	52020.45
624.40	51786.99
624.60	51961.06
624.80	51530.99
624.99	51881.19
625.19	51313.90
625.38	52133.09
625.58	52055.27
625.77	52047.08
625.97	52057.32
626.17	51342.58
626.36	51877.10
626.56	52196.58
626.75	51356.91
626.95	52382.94
627.14	51840.23
627.34	52511.97
627.54	52014.31
627.73	51930.34
627.93	52004.07
628.12	51520.75
628.32	52147.43
628.51	51576.04
628.71	52217.06
628.90	52174.05
629.10	51590.38
629.30	51840.23
629.49	52327.65
629.69	51981.54
629.88	52028.65
630.08	52016.36
630.27	52311.27
630.47	52042.98
630.66	52057.32
630.86	52172.00
631.05	51809.51
631.25	52538.59
631.44	52008.17
631.64	52141.28
631.84	52581.60
632.03	53007.58
632.23	52321.51
632.42	52526.30
632.62	52735.20
632.81	52327.65
633.01	52272.35
633.20	53040.34
633.40	52813.02
633.59	52610.27
633.79	51971.30
633.98	52376.80
634.18	52880.60
634.37	53046.49
634.57	52581.60
634.76	53058.77
634.96	52462.82
635.15	52763.87
635.35	52438.24
635.54	52763.87
635.74	52815.07
635.93	52481.25
636.13	53302.48
636.32	53343.44
636.52	52638.94
636.71	53245.14
636.91	52968.66
637.10	53234.90
637.30	53302.48
637.49	52905.18
637.69	53144.79
637.88	53560.53
638.08	52679.90
638.27	53456.08
638.46	52892.89
638.66	53204.18
638.85	52890.84
639.05	53122.26
639.24	53425.36
639.44	52950.23
639.63	53509.33
639.83	53095.64
640.02	53216.47
640.22	53355.73
640.41	53591.25
640.61	53003.48
640.80	53515.47
640.99	52944.09
641.19	54187.21
641.38	53499.09
641.58	53601.49
641.77	53540.05
641.97	53650.64
642.16	53787.85
642.36	53847.24
642.55	54326.47
642.74	53220.56
642.94	53851.34
643.13	53804.24
643.33	54011.08
643.52	54064.33
643.72	54150.34
643.91	53794.00
644.10	54248.64
644.30	54164.68
644.49	54015.18
644.69	54226.12
644.88	54265.03
645.08	53712.08
645.27	54142.15
645.46	54068.42
645.66	54351.04
645.85	53843.15
646.05	54226.12
646.24	54105.29
646.43	54219.97
646.63	54619.33
646.82	54727.87
647.02	54316.23
647.21	54584.51
647.40	54295.75
647.60	54824.12
647.79	54711.49
647.99	54883.51
648.18	54453.44
648.37	54865.08
648.57	54947.00
648.76	54691.01
648.96	54721.72
649.15	54983.86
649.34	55049.40
649.54	54641.85
649.73	54613.18
649.92	54830.27
650.12	55098.55
650.31	55334.07
650.51	55188.66
650.70	55112.89
650.89	54885.56
651.09	56022.19
651.28	55045.30
651.47	55530.67
651.67	55272.63
651.86	55712.94
652.06	54875.32
652.25	55166.13
652.44	55473.33
652.64	54963.39
652.83	54932.67
653.02	54889.66
653.22	55094.46
653.41	55041.21
653.60	54533.31
653.80	55321.78
653.99	55616.69
654.18	55186.61
654.38	55381.17
654.57	55508.14
654.76	55790.76
654.96	55403.70
655.15	55336.12
655.34	54990.01
655.54	55301.30
655.73	55778.48
655.92	55153.85
656.12	55598.26
656.31	55422.13
656.50	55755.95
656.70	55403.70
656.89	55862.44
657.08	55729.33
657.28	55448.75
657.47	55870.64
657.66	55817.39
657.86	55276.72
658.05	55866.54
658.24	55706.80
658.43	55530.67
658.63	55989.42
658.82	56116.39
659.01	56085.67
659.21	55884.97
659.40	55737.52
659.59	55364.79
659.79	56190.12
659.98	55987.37
660.17	56097.96
660.36	56161.45
660.56	56130.73
660.75	56331.43
660.94	55719.09
661.14	56087.72
661.33	56091.82
661.52	55411.89
661.71	56333.48
661.91	55776.43
662.10	55600.30
662.29	56208.55
662.49	55456.95
662.68	55956.65
662.87	55983.27
663.06	56140.97
663.26	55848.11
663.45	56562.85
663.64	56186.02
663.83	56493.22
664.03	56128.68
664.22	56169.64
664.41	56261.80
664.60	56038.57
664.80	56337.57
664.99	55991.47
665.18	55897.26
665.37	56272.04
665.57	56061.10
665.76	55989.42
665.95	56226.98
666.14	56009.90
666.34	56345.76
666.53	56048.81
666.72	55858.35
666.91	55981.23
667.11	55977.13
667.30	55837.87
667.49	55940.27
667.68	55827.63
667.87	55923.88
668.07	56104.10
668.26	55911.59
668.45	56501.41
668.64	56448.16
668.84	56415.40
669.03	55927.98
669.22	56169.64
669.41	56476.83
669.60	55860.40
669.80	56276.13
669.99	56087.72
670.18	55792.81
670.37	56362.15
670.57	56173.73
670.76	55440.56
670.95	56143.02
671.14	56052.90
671.33	55792.81
671.53	56239.27
671.72	56030.38
671.91	56134.82
672.10	55686.32
672.29	56114.34
672.48	56128.68
672.68	56716.45
672.87	56038.57
673.06	55751.85
673.25	55710.89
673.44	55983.27
673.64	55954.60
673.83	55817.39
674.02	55927.98
674.21	55821.48
674.40	55661.74
674.59	55284.92
674.79	55542.96
674.98	55600.30
675.17	55739.57
675.36	55790.76
675.55	56104.10
675.74	55227.57
675.94	55602.35
676.13	55469.23
676.32	55706.80
676.51	56194.21
676.70	55493.81
676.89	55725.23
677.08	55776.43
677.28	55241.91
677.47	55782.57
677.66	56083.62
677.85	55846.06
678.04	56396.96
678.23	55735.47
678.42	55542.96
678.62	55473.33
678.81	55620.78
679.00	55493.81
679.19	56616.10
679.38	55948.46
679.57	55278.77
679.76	55442.61
679.96	55585.97
680.15	55151.80
680.34	55542.96
680.53	55473.33
680.72	55563.44
680.91	55659.69
681.10	55114.94
681.29	55706.80
681.48	55280.82
681.68	55442.61
681.87	55209.14
682.06	55334.07
682.25	54797.50
682.44	55493.81
682.63	55006.39
682.82	55024.82
683.01	54697.15
683.20	54713.53
683.39	54711.49
683.59	54914.23
683.78	54424.77
683.97	54893.75
684.16	54672.57
684.35	54494.40
684.54	54527.17
684.73	54926.52
684.92	54691.01
685.11	54561.98
685.30	54572.22
685.49	54975.67
685.69	54451.39
685.88	54658.24
686.07	54504.64
686.26	53925.07
686.45	54684.86
686.64	54539.46
686.83	54492.35
687.02	54146.25
687.21	54236.36
687.40	54269.12
687.59	54119.62
687.78	54195.40
687.97	54576.32
688.16	54394.05
688.35	53982.41
688.54	53910.73
688.74	53937.35
688.93	54193.35
689.12	53859.53
689.31	53630.16
689.50	54076.61
689.69	54037.70
689.88	53339.35
690.07	53933.26
690.26	53941.45
690.45	54070.47
690.64	53535.95
690.83	53966.02
691.02	53408.98
691.21	53404.88
691.40	53232.85
691.59	53390.55
691.78	54066.38
691.97	53517.52
692.16	53456.08
692.35	54009.03
692.54	53757.13
692.73	53617.87
692.92	53206.23
693.11	53671.12
693.30	53404.88
693.49	53654.73
693.68	53109.97
693.87	53488.85
694.06	52991.19
694.25	53167.32
694.44	53441.74
694.63	53552.33
694.82	53183.70
695.01	52915.42
695.20	52927.70
695.39	52649.18
695.58	52694.24
695.77	52983.00
695.96	52731.10
696.15	53001.43
696.34	52374.75
696.53	52595.93
696.72	53097.69
696.91	52622.56
697.10	52966.62
697.29	52602.08
697.48	52239.59
697.67	52505.82
697.86	51997.93
698.05	52430.05
698.24	52542.69
698.43	51709.16
698.62	52409.57
698.81	52036.84
699.00	52434.14
699.19	51987.69
699.38	51903.72
699.57	51834.09
699.76	52501.73
699.95	52004.07
700.14	51617.00
700.32	51887.34
700.51	51926.25
700.70	52163.81
700.89	52016.36
701.08	51950.82
701.27	52049.13
701.46	52298.98
701.65	51608.81
701.84	51420.40
702.03	51940.58
702.22	51461.36
702.41	52012.26
702.60	51688.68
702.79	51819.75
702.98	51188.98
703.17	51279.09
703.35	51797.23
703.54	50859.26
703.73	51873.00
703.92	50654.46
704.11	51123.44
704.30	50959.61
704.49	51113.20
704.68	51148.02
704.87	50763.00
705.06	50930.93
705.25	50926.84
705.43	51270.90
705.62	51207.41
705.81	50812.15
706.00	50932.98
706.19	50584.83
706.38	50629.88
706.57	50746.62
706.76	50636.03
706.95	50556.16
707.14	50208.00
707.32	50474.24
707.51	50574.59
707.70	50337.02
707.89	50310.40
708.08	50285.82
708.27	50638.08
708.46	50967.80
708.65	50093.32
708.84	50687.23
709.02	50285.82
709.21	50449.66
709.40	50144.51
709.59	50109.70
709.78	50083.08
709.97	50390.27
710.16	49771.78
710.34	49722.63
710.53	50347.26
710.72	49956.10
710.91	49945.86
711.10	49726.73
711.29	50064.64
711.48	49734.92
711.66	49947.91
711.85	49863.94
712.04	50046.21
712.23	49909.00
712.42	49716.49
712.61	49446.16
712.80	49693.96
712.98	49298.70
713.17	49079.57
713.36	49405.20
713.55	49685.77
713.74	49198.35
713.93	49337.62
714.11	49417.49
714.30	48999.70
714.49	49327.38
714.68	49351.95
714.87	49450.25
715.06	49272.08
715.24	49108.24
715.43	48821.53
715.62	48729.37
715.81	48788.76
716.00	49048.85
716.18	48604.44
716.37	48534.81
716.56	48557.34
716.75	48829.72
716.94	48735.51
717.12	48252.19
717.31	48981.27
717.50	48477.47
717.69	48624.92
717.88	48426.27
718.06	48813.34
718.25	48817.43
718.44	48145.70
718.63	48299.30
718.82	48024.87
719.00	48317.73
719.19	48100.64
719.38	48092.45
719.57	47596.84
719.76	47557.93
719.94	47373.61
720.13	47635.75
720.32	47785.25
720.51	47711.53
720.69	47645.99
720.88	47498.54
721.07	47215.92
721.26	47047.99
721.44	47543.59
721.63	47127.86
721.82	47113.52
722.01	46988.60
722.20	47359.28
722.38	47496.49
722.57	46908.72
722.76	46671.16
722.95	46830.90
723.13	46875.96
723.32	46656.82
723.51	46464.32
723.70	46742.84
723.88	46572.86
724.07	46513.47
724.26	46798.13
724.44	46462.27
724.63	46538.04
724.82	46601.53
725.01	46443.84
725.19	46445.88
725.38	46318.91
725.57	46529.85
725.76	46695.74
725.94	46153.02
726.13	45964.61
726.32	45913.41
726.51	46187.84
726.69	46372.16
726.88	46056.77
727.07	46183.74
727.25	46187.84
727.44	46419.26
727.63	46038.34
727.82	45778.25
728.00	46030.15
728.19	45929.80
728.38	46249.28
728.56	45720.90
728.75	46314.81
728.94	45915.46
729.12	46236.99
729.31	46302.53
729.50	45964.61
729.69	46077.25
729.87	45806.92
730.06	46097.73
730.25	45753.67
730.43	46449.98
730.62	45937.99
730.81	45921.60
730.99	46150.98
731.18	45997.38
731.37	45970.75
731.55	45606.22
731.74	46126.40
731.93	45831.49
732.11	45933.89
732.30	46009.67
732.49	46161.22
732.67	45729.09
732.86	45978.95
733.05	46327.10
733.23	45585.74
733.42	45684.04
733.61	45593.93
733.79	46130.50
733.98	45991.23
734.17	45860.16
734.35	45770.05
734.54	45757.77
734.73	46083.39
734.91	45882.69
735.10	45516.11
735.29	46017.86
735.47	45675.85
735.66	45751.62
735.84	45806.92
736.03	45530.44
736.22	45718.85
736.40	45401.42
736.59	45567.30
736.78	45614.41
736.96	45487.43
737.15	45845.83
737.33	45382.99
737.52	45823.30
737.71	45208.91
737.89	45196.62
738.08	45210.96
738.27	45503.82
738.45	45995.33
738.64	45585.74
738.82	45446.47
739.01	45350.22
739.20	45151.57
739.38	45430.09
739.57	45675.85
739.75	45569.35
739.94	45276.49
740.13	45233.49
740.31	44924.24
740.50	45294.92
740.68	45012.31
740.87	45436.23
741.06	45280.59
741.24	44825.94
741.43	45034.83
741.61	44971.35
741.80	44676.44
741.99	44856.66
742.17	44918.10
742.36	45049.17
742.54	44981.59
742.73	45065.55
742.91	45241.68
743.10	44957.01
743.29	44928.34
743.47	45069.65
743.66	44881.24
743.84	45006.16
744.03	44764.50
744.21	44873.04
744.40	44819.80
744.59	44488.03
744.77	44760.40
744.96	44827.99
745.14	45008.21
745.33	44834.13
745.51	44692.82
745.70	44698.97
745.88	44819.80
746.07	44752.21
746.26	44496.22
746.44	44252.51
746.63	44938.58
746.81	44741.97
747.00	44975.44
747.18	44766.55
747.37	44404.06
747.55	44481.88
747.74	44690.77
747.92	44311.90
748.11	44387.67
748.29	44383.58
748.48	44440.92
748.66	44328.28
748.85	44330.33
749.03	44406.11
749.22	44412.25
749.41	44266.84
749.59	44612.95
749.78	44152.16
749.96	43791.72
750.15	43904.35
750.33	44105.06
750.52	44049.76
750.70	43677.03
750.89	43890.02
751.07	43619.69
751.26	43920.74
751.44	43949.41
751.63	43924.83
751.81	44025.18
752.00	43638.12
752.18	44313.95
752.37	43550.06
752.55	43726.18
752.74	43486.57
752.92	43865.44
753.10	43586.92
753.29	44193.12
753.47	43498.86
753.66	43423.08
753.84	43615.59
754.03	43500.90
754.21	43322.73
754.40	43638.12
754.58	43611.49
754.77	43107.69
754.95	43435.37
755.14	43068.78
755.32	43482.47
755.51	43107.69
755.69	42997.10
755.88	43085.17
756.06	43001.20
756.24	43371.88
756.43	42659.19
756.61	43726.18
756.80	43046.26
756.98	42892.66
757.17	43584.87
757.35	43320.68
757.54	43128.17
757.72	43091.31
757.90	42960.24
758.09	43042.16
758.27	43435.37
758.46	42763.64
758.64	43042.16
758.83	43197.80
759.01	42648.95
759.19	42861.94
759.38	43488.62
759.56	43072.88
759.75	43148.65
759.93	42833.27
760.12	42603.89
760.30	43011.44
760.48	42462.58
760.67	42829.17
760.85	42999.15
761.04	42544.50
761.22	42915.19
761.40	42599.80
761.59	42544.50
761.77	42345.85
761.96	42458.49
762.14	42382.71
762.32	42100.09
762.51	42124.67
762.69	42093.95
762.88	41899.39
763.06	42407.29
763.24	42421.62
763.43	42433.91
763.61	41948.54
763.80	42255.74
763.98	41889.15
764.16	42067.33
764.35	41876.86
764.53	41751.94
764.72	42159.48
764.90	41811.33
765.08	41723.27
765.27	41948.54
765.45	41770.37
765.63	41780.61
765.82	41641.35
766.00	41653.64
766.18	41813.38
766.37	42046.85
766.55	41549.19
766.74	41819.52
766.92	41682.31
767.10	41647.49
767.29	41536.90
767.47	41229.71
767.65	41760.13
767.84	41311.63
768.02	41481.61
768.20	41514.37
768.39	41407.88
768.57	41495.94
768.75	41403.78
768.94	41360.78
769.12	41489.80
769.30	41184.65
769.49	40996.24
769.67	40744.34
769.85	40666.52
770.04	41149.84
770.22	40615.32
770.40	40930.70
770.59	40865.17
770.77	40773.01
770.95	40676.76
771.14	40471.96
771.32	40615.32
771.50	40132.00
771.69	40596.88
771.87	40627.60
772.05	40392.09
772.24	39957.92
772.42	40426.90
772.60	40336.79
772.78	40242.59
772.97	40230.30
773.15	40299.93
773.33	40252.83
773.52	39818.66
773.70	40150.43
773.88	40484.25
774.07	40435.10
774.25	40088.99
774.43	40408.47
774.61	40369.56
774.80	40312.22
774.98	40199.58
775.16	40242.59
775.34	40605.08
775.53	40355.22
775.71	40838.54
775.89	40641.94
776.08	40304.02
776.26	40897.94
776.44	40797.59
776.62	40414.62
776.81	40351.13
776.99	40465.81
777.17	40408.47
777.35	40582.55
777.54	40793.49
777.72	40336.79
777.90	40756.63
778.08	40713.62
778.27	41121.16
778.45	41170.32
778.63	41076.11
778.81	40476.05
779.00	41338.25
779.18	41031.05
779.36	40992.14
779.54	40899.98
779.73	40859.02
779.91	41115.02
780.09	41084.30
780.27	41624.96
780.46	41592.20
780.64	41373.06
780.82	41334.15
781.00	41278.86
781.19	41373.06
781.37	41463.18
781.55	41160.08
781.73	41463.18
781.91	41170.32
782.10	41459.08
782.28	41246.09
782.46	41317.77
782.64	41493.89
782.82	41471.37
783.01	41491.85
783.19	41563.53
783.37	41526.66
783.55	41624.96
783.74	41536.90
783.92	41244.04
784.10	41690.50
784.28	41624.96
784.46	41311.63
784.64	41311.63
784.83	41551.24
785.01	41989.50
785.19	41645.44
785.37	41405.83
785.55	41368.97
785.74	40945.04
785.92	41055.63
786.10	42057.09
786.28	41723.27
786.46	41178.51
786.64	41289.10
786.83	41383.30
787.01	41115.02
787.19	41215.37
787.37	41481.61
787.55	41180.56
787.74	40723.86
787.92	41115.02
788.10	41459.08
788.28	40942.99
788.46	41260.43
788.64	40703.38
788.82	40879.50
789.01	40994.19
789.19	40945.04
789.37	40787.35
789.55	41098.64
789.73	40488.34
789.91	40629.65
790.09	40742.29
790.28	40818.07
790.46	40146.33
790.64	40324.50
790.82	40621.46
791.00	40107.42
791.18	40314.26
791.36	40488.34
791.55	40277.40
791.73	39900.58
791.91	39703.97
792.09	39787.94
792.27	39957.92
792.45	40197.53
792.63	39439.78
792.81	39671.20
793.00	39740.83
793.18	39579.04
793.36	39009.71
793.54	39161.26
793.72	39151.02
793.90	39128.49
794.08	39228.84
794.26	39402.92
794.44	38798.77
794.62	38532.53
794.81	38677.94
794.99	38675.89
795.17	38362.55
795.35	38323.64
795.53	38563.25
795.71	38641.07
795.89	38114.75
796.07	38192.57
796.25	37856.70
796.43	38014.40
796.61	37948.86
796.80	38098.36
796.98	37780.93
797.16	37490.12
797.34	37836.22
797.52	37408.20
797.70	37682.62
797.88	37357.00
798.06	37574.08
798.24	37275.08
798.42	37397.96
798.60	37313.99
798.78	37158.34
798.96	37125.58
799.14	36795.85
799.32	37117.39
799.51	36591.06
799.69	37057.99
799.87	36507.09
800.05	36718.03
800.23	36693.46
800.41	36355.54
800.59	36474.32
800.77	36177.37
800.95	36199.90
801.13	35874.27
801.31	36087.26
801.49	36263.38
801.67	35708.38
801.85	35919.32
802.03	35493.35
802.21	35345.89
802.39	35423.72
802.57	35532.26
802.75	35393.00
802.93	35261.93
803.11	35239.40
803.29	35071.46
803.47	34801.13
803.65	35077.61
803.83	35010.03
804.01	35309.03
804.19	34340.34
804.37	34610.67
804.55	34532.85
804.73	34446.83
804.91	34715.12
805.09	34426.35
805.27	34330.10
805.45	34289.14
805.63	34731.50
805.81	34074.10
805.99	34174.45
806.17	34246.13
806.35	33846.78
806.53	34027.00
806.71	33623.55
806.89	33828.35
807.07	33756.67
807.25	33998.33
807.43	33570.30
807.61	33682.94
807.79	33451.52
807.97	32859.66
808.15	33371.65
808.33	33136.13
808.51	32853.51
808.69	32884.23
808.87	32953.87
809.05	32847.37
809.23	32681.49
809.41	32579.09
809.59	32560.66
809.77	32982.54
809.95	32466.45
810.13	32390.67
810.31	32712.20
810.49	32640.53
810.67	32187.92
810.84	32331.28
811.02	31946.26
811.20	31876.63
811.38	32116.25
811.56	31747.61
811.74	31866.39
811.92	31819.29
812.10	31817.24
812.28	31954.46
812.46	31571.49
812.64	31905.31
812.82	31770.14
813.00	31286.82
813.18	31614.49
813.36	31313.44
813.53	31362.59
813.71	31327.78
813.89	31137.32
814.07	31165.99
814.25	31303.20
814.43	30789.16
814.61	30834.22
814.79	30815.79
814.97	30844.46
815.15	31020.58
815.33	30715.44
815.50	30311.99
815.68	30725.68
815.86	30619.18
816.04	30129.72
816.22	30303.79
816.40	30225.97
816.58	30264.88
816.76	30297.65
816.94	30154.29
817.11	30092.85
817.29	30305.84
817.47	29904.44
817.65	29877.82
817.83	29814.33
818.01	30090.80
818.19	30015.03
818.37	29359.68
818.54	29447.74
818.72	29759.03
818.90	29388.35
819.08	29558.33
819.26	29277.76
819.44	29558.33
819.62	29361.73
819.80	29331.01
819.97	29292.10
820.15	29128.26
820.33	28726.86
820.51	29154.88
820.69	28597.84
820.87	29359.68
821.05	29050.44
821.22	28880.46
821.40	29005.38
821.58	28706.38
821.76	28657.23
821.94	28425.81
822.12	28216.91
822.29	28851.78
822.47	28468.81
822.65	28659.27
822.83	28515.92
823.01	28493.39
823.19	28501.58
823.36	28071.51
823.54	28089.94
823.72	28276.30
823.90	28102.23
824.08	27960.92
824.25	28425.81
824.43	27672.15
824.61	28005.97
824.79	28132.95
824.97	27620.95
825.15	27938.39
825.32	28057.17
825.50	27354.72
825.68	27350.62
825.86	27868.76
826.04	27694.68
826.21	27879.00
826.39	27790.94
826.57	27606.62
826.75	27496.03
826.93	27276.90
827.10	27280.99
827.28	27082.34
827.46	27360.86
827.64	27457.12
827.81	26975.84
827.99	27025.00
828.17	26981.99
828.35	26715.75
828.53	26832.49
828.70	26967.65
828.88	26975.84
829.06	27072.10
829.24	27039.33
829.41	26812.01
829.59	26936.93
829.77	26963.56
829.95	26672.74
830.12	26660.46
830.30	26850.92
830.48	26771.05
830.66	26752.62
830.84	26568.30
831.01	26336.88
831.19	26588.78
831.37	26234.48
831.55	26140.27
831.72	26130.03
831.90	26140.27
832.08	26326.64
832.25	26218.10
832.43	25958.00
832.61	26156.66
832.79	26175.09
832.96	26011.25
833.14	25847.41
833.32	25900.66
833.50	25763.45
833.67	26003.06
833.85	26160.75
834.03	25525.88
834.20	25808.50
834.38	25796.21
834.56	25714.30
834.74	25685.62
834.91	25542.27
835.09	25523.83
835.27	25241.21
835.44	25257.60
835.62	24911.49
835.80	25480.83
835.98	25091.71
836.15	25417.34
836.33	25292.41
836.51	25378.43
836.68	25093.76
836.86	25245.31
837.04	25329.28
837.21	25216.64
837.39	25284.22
837.57	24835.72
837.75	25144.96
837.92	24796.81
838.10	24923.78
838.28	24620.68
838.45	24680.07
838.63	24385.16
838.81	24997.51
838.98	24573.58
839.16	24473.23
839.34	24501.90
839.51	24911.49
839.69	24612.49
839.87	24329.87
840.04	24313.48
840.22	24639.11
840.40	24379.02
840.57	24137.36
840.75	24471.18
840.93	23838.36
841.10	24317.58
841.28	24419.98
841.46	24196.75
841.63	24293.01
841.81	24061.58
841.98	23633.56
842.16	24157.84
842.34	24030.87
842.51	23584.41
842.69	24186.51
842.87	23752.34
843.04	24026.77
843.22	23549.59
843.40	23944.85
843.57	23680.66
843.75	23811.73
843.92	23899.80
844.10	23795.35
844.28	23754.39
844.45	23656.09
844.63	23516.83
844.81	23563.93
844.98	23643.80
845.16	23443.10
845.33	23434.91
845.51	23205.53
845.69	23346.84
845.86	23334.56
846.04	23185.05
846.21	23324.32
846.39	23117.47
846.57	22908.58
846.74	23195.29
846.92	22673.06
847.09	22988.45
847.27	22881.95
847.45	23166.62
847.62	23125.66
847.80	22955.68
847.97	22828.71
848.15	23027.36
848.32	22931.11
848.50	22912.67
848.68	22433.45
848.85	22910.63
849.03	22503.08
849.20	22722.21
849.38	22431.40
849.56	22396.59
849.73	22331.05
849.91	22533.80
850.08	22863.52
850.26	22251.18
850.43	22533.80
850.61	22349.48
850.78	22040.24
850.96	22003.38
851.14	22105.77
851.31	22408.87
851.49	22154.93
851.66	22095.53
851.84	22187.69
852.01	22404.78
852.19	22210.22
852.36	21898.93
852.54	21874.35
852.71	21894.83
852.89	21950.13
853.07	21952.18
853.24	22056.62
853.42	22298.28
853.59	21999.28
853.77	21905.07
853.94	22027.95
854.12	22068.91
854.29	21657.27
854.47	21599.93
854.64	21700.28
854.82	21921.46
854.99	21620.41
855.17	21417.66
855.34	21438.14
855.52	21745.33
855.69	21558.97
855.87	21169.85
856.04	21219.00
856.22	21751.48
856.39	21323.45
856.57	21294.78
856.74	21034.69
856.92	21386.94
857.09	21051.07
857.27	21272.25
857.44	21282.49
857.62	21374.65
857.79	21442.23
857.97	21096.13
858.14	21257.92
858.32	20881.09
858.49	20774.60
858.67	20940.48
858.84	20870.85
859.02	20926.14
859.19	20788.93
859.37	20963.01
859.54	20641.48
859.72	20768.45
859.89	21028.54
860.06	21096.13
860.24	20702.92
860.41	20825.79
860.59	20659.91
860.76	20647.62
860.94	20350.67
861.11	20946.62
861.29	20670.15
861.46	20586.18
861.64	20446.92
861.81	20387.53
861.98	20149.96
862.16	20233.93
862.33	20117.20
862.51	20336.33
862.68	20487.88
862.86	20186.83
863.03	20192.97
863.21	20240.08
863.38	20154.06
863.55	20143.82
863.73	20254.41
863.90	20248.27
864.08	20018.89
864.25	20354.76
864.43	19853.01
864.60	20008.65
864.77	19758.80
864.95	19896.02
865.12	19652.31
865.30	19967.70
865.47	19619.54
865.64	19764.95
865.82	19898.06
865.99	19660.50
866.17	19912.40
866.34	19855.06
866.51	19398.36
866.69	19455.70
866.86	19668.69
867.04	19482.33
867.21	19427.03
867.38	19500.76
867.56	19646.16
867.73	19515.09
867.91	19572.44
868.08	19166.94
868.25	19175.13
868.43	19390.17
868.60	19195.61
868.78	18884.32
868.95	19498.71
869.12	19168.99
869.30	18874.08
869.47	19035.87
869.64	18777.83
869.82	19138.27
869.99	18919.14
870.16	18982.62
870.34	19171.04
870.51	19201.76
870.69	18951.90
870.86	18872.03
871.03	19136.22
871.21	18697.95
871.38	18831.07
871.55	18312.94
871.73	18700.00
871.90	18695.91
872.07	18394.86
872.25	18536.17
872.42	18548.45
872.59	18290.41
872.77	18173.67
872.94	18343.66
873.11	18558.69
873.29	18374.38
873.46	18278.12
873.63	18519.78
873.81	18290.41
873.98	18005.74
874.15	18208.49
874.33	17819.38
874.50	17878.77
874.67	17870.58
874.85	18132.72
875.02	17915.63
875.19	17614.58
875.37	17960.69
875.54	17774.32
875.71	17725.17
875.88	17583.86
876.06	17774.32
876.23	17762.03
876.40	17592.05
876.58	17694.45
876.75	17575.67
876.92	17239.80
877.10	17573.62
877.27	17542.90
877.44	17465.08
877.61	17370.87
877.79	17225.47
877.96	17184.51
878.13	17364.73
878.31	17270.52
878.48	17192.70
878.65	16840.45
878.82	16946.94
879.00	17311.48
879.17	16762.62
879.34	16940.80
879.51	17127.16
879.69	16803.58
879.86	16865.02
880.03	16946.94
880.21	16793.34
880.38	17092.35
880.55	16799.49
880.72	16807.68
880.90	16969.47
881.07	16680.71
881.24	16658.18
881.41	16729.86
881.59	16787.20
881.76	16504.58
881.93	16486.15
882.10	16416.52
882.28	16545.54
882.45	16443.14
882.62	16629.51
882.79	16600.83
882.96	16080.65
883.14	16389.89
883.31	16350.98
883.48	16592.64
883.65	16285.45
883.83	16342.79
884.00	16398.09
884.17	16156.43
884.34	16412.42
884.51	16303.88
884.69	16318.22
884.86	16348.93
885.03	16277.26
885.20	16224.01
885.38	15935.24
885.55	16045.84
885.72	16125.71
885.89	16150.28
886.06	16307.98
886.24	15795.98
886.41	16160.52
886.58	16176.91
886.75	16148.23
886.92	15826.70
887.10	16008.97
887.27	15585.04
887.44	15816.46
887.61	16045.84
887.78	16115.47
887.95	15828.75
888.13	15716.11
888.30	15669.01
888.47	15865.61
888.64	15709.97
888.81	15718.16
888.99	15761.17
889.16	15404.82
889.33	15406.87
889.50	15275.80
889.67	15558.42
889.84	15468.31
890.01	15394.58
890.19	15376.15
890.36	15488.79
890.53	15517.46
890.70	15365.91
890.87	15249.18
891.04	15417.11
891.22	15470.36
891.39	15318.81
891.56	15200.02
891.73	15146.78
891.90	15249.18
892.07	15150.87
892.24	15283.99
892.42	15120.15
892.59	14894.88
892.76	15163.16
892.93	14798.62
893.10	14941.98
893.27	14958.36
893.44	14921.50
893.61	14735.14
893.79	15085.34
893.96	15044.38
894.13	14903.07
894.30	14880.54
894.47	14968.60
894.64	14892.83
894.81	15005.47
894.98	14853.92
895.15	15114.01
895.33	14915.36
895.50	14925.60
895.67	14997.28
895.84	14917.40
896.01	14919.45
896.18	14941.98
896.35	14866.21
896.52	14675.74
896.69	14733.09
896.86	14815.01
897.04	14722.85
897.21	14696.22
897.38	14823.20
897.55	14886.68
897.72	14819.10
897.89	14944.03
898.06	15015.71
898.23	14892.83
898.40	14778.14
898.57	14706.46
898.74	14966.56
898.91	14694.18
899.08	14696.22
899.26	14782.24
899.43	15027.99
899.60	14835.49
899.77	14767.90
899.94	14720.80
900.11	14665.50
900.28	14669.60
900.45	14563.11
900.62	14823.20
900.79	14722.85
900.96	14769.95
901.13	14810.91
901.30	14542.63
901.47	14595.87
901.64	14718.75
901.81	14952.22
901.98	14638.88
902.15	14776.09
902.32	14677.79
902.49	14683.94
902.66	14774.05
902.83	14651.17
903.01	14720.80
903.18	14903.07
903.35	14829.34
903.52	14694.18
903.69	14579.49
903.86	14731.04
904.03	14772.00
904.20	14950.17
904.37	14782.24
904.54	14495.52
904.71	14513.95
904.88	14489.38
905.05	14419.75
905.22	14716.70
905.39	14477.09
905.56	14589.73
905.73	14755.61
905.90	14624.54
906.07	14833.44
906.24	14714.66
906.41	14454.56
906.58	14626.59
906.75	14589.73
906.92	14532.39
907.09	14577.44
907.26	14640.93
907.43	14319.40
907.60	14591.78
907.77	14851.87
907.93	14585.63
908.10	14579.49
908.27	14548.77
908.44	14614.30
908.61	14556.96
908.78	14421.80
908.95	14481.19
909.12	14458.66
909.29	14481.19
909.46	14454.56
909.63	14632.74
909.80	14632.74
909.97	14593.83
910.14	14432.04
910.31	14282.53
910.48	14434.08
910.65	14507.81
910.82	14522.15
910.99	14085.93
911.16	14264.10
911.33	14343.97
911.50	14548.77
911.66	14399.27
911.83	14298.92
912.00	14325.54
912.17	14260.01
912.34	14325.54
912.51	14313.25
912.68	14266.15
912.85	14307.11
913.02	14276.39
913.19	14303.01
913.36	14028.59
913.53	14077.74
913.70	13907.76
913.86	14286.63
914.03	14071.59
914.20	14327.59
914.37	14004.01
914.54	13983.53
914.71	13911.85
914.88	14012.20
915.05	13918.00
915.22	13719.34
915.39	13897.52
915.55	13772.59
915.72	13655.86
915.89	13819.69
916.06	13664.05
916.23	13639.47
916.40	13657.90
916.57	13530.93
916.74	13645.62
916.91	13578.03
917.07	13334.32
917.24	13471.54
917.41	13397.81
917.58	13553.46
917.75	13262.65
917.92	13360.95
918.09	13537.07
918.26	13197.11
918.42	13068.09
918.59	13205.30
918.76	13090.62
918.93	13031.23
919.10	13115.19
919.27	13000.51
919.44	12959.55
919.60	13090.62
919.77	12949.31
919.94	12791.61
920.11	12984.12
920.28	13053.75
920.45	12832.57
920.61	12689.21
920.78	12834.62
920.95	12490.56
921.12	12764.99
921.29	12478.27
921.46	12527.42
921.62	12619.58
921.79	12504.90
921.96	12418.88
922.13	12492.61
922.30	12506.95
922.47	12257.09
922.63	12080.97
922.80	12298.05
922.97	12302.15
923.14	12175.17
923.31	12156.74
923.47	12222.28
923.64	12326.72
923.81	11738.96
923.98	11802.44
924.15	11964.23
924.32	11915.08
924.48	11900.75
924.65	11790.16
924.82	11759.44
924.99	11392.85
925.15	11726.67
925.32	11734.86
925.49	11433.81
925.66	11591.50
925.83	11296.60
925.99	11444.05
926.16	11259.73
926.33	11452.24
926.50	11143.00
926.67	11370.32
926.83	11079.51
927.00	11249.49
927.17	10989.40
927.34	11294.55
927.50	11020.12
927.67	11220.82
927.84	11048.79
928.01	10923.87
928.17	10899.29
928.34	11001.69
928.51	10887.00
928.68	10739.55
928.84	10641.25
929.01	10440.54
929.18	10491.74
929.35	10712.92
929.51	10688.35
929.68	10475.36
929.85	10559.33
930.02	10344.29
930.18	10309.47
930.35	10430.30
930.52	10344.29
930.69	10465.12
930.85	10297.19
931.02	10119.01
931.19	10286.95
931.36	10172.26
931.52	10219.36
931.69	10270.56
931.86	9998.18
932.02	9930.60
932.19	9977.70
932.36	9987.94
932.53	9785.19
932.69	9772.91
932.86	9815.91
933.03	9813.87
933.19	9611.12
933.36	9527.15
933.53	9670.51
933.70	9430.90
933.86	9699.18
934.03	9463.66
934.20	9318.26
934.36	9635.69
934.53	9195.38
934.70	9226.10
934.86	9019.25
935.03	9023.35
935.20	8853.37
935.36	8927.10
935.53	8746.87
935.70	8843.13
935.86	8765.31
936.03	8712.06
936.20	8611.71
936.36	8425.34
936.53	8437.63
936.70	8482.69
936.86	8517.50
937.03	8253.31
937.20	8171.40
937.36	8243.07
937.53	8081.28
937.70	7823.24
937.86	7821.19
938.03	7696.27
938.20	7982.98
938.36	7538.57
938.53	7679.88
938.70	7391.12
938.86	7430.03
939.03	7227.28
939.20	7182.23
939.36	7274.38
939.53	7202.71
939.70	7368.59
939.86	6909.85
940.03	6690.71
940.19	6610.84
940.36	6721.43
940.53	6668.19
940.69	6490.01
940.86	6696.86
941.03	6410.14
941.19	6291.36
941.36	6426.53
941.52	6551.45
941.69	6137.76
941.86	6078.37
942.02	6332.32
942.19	6156.19
942.35	6064.04
942.52	5975.97
942.69	6018.98
942.85	5793.70
943.02	5748.65
943.18	5881.77
943.35	5889.96
943.52	5859.24
943.68	5654.44
943.85	5640.11
944.01	5623.72
944.18	5488.56
944.35	5644.20
944.51	5431.21
944.68	5461.93
944.84	5457.84
945.01	5361.58
945.17	5476.27
945.34	5515.18
945.51	5476.27
945.67	5517.23
945.84	5349.29
946.00	5375.92
946.17	5261.23
946.33	5308.34
946.50	5287.86
946.67	5347.25
946.83	5158.83
947.00	5345.20
947.16	5259.18
947.33	5332.91
947.49	5259.18
947.66	5277.62
947.82	5386.16
947.99	5234.61
948.16	5316.53
948.32	5216.18
948.49	5195.70
948.65	5300.14
948.82	5189.55
948.98	5230.51
949.15	5121.97
949.31	5255.09
949.48	5187.50
949.64	5285.81
949.81	5330.86
949.97	5218.22
950.14	5283.76
950.30	5181.36
950.47	5334.96
950.63	5287.86
950.80	5232.56
950.96	5345.20
951.13	5207.98
951.30	5388.21
951.46	5365.68
951.63	5431.21
951.79	5377.97
951.96	5484.46
952.12	5294.00
952.29	5433.26
952.45	5312.43
952.62	5261.23
952.78	5255.09
952.94	5406.64
953.11	5255.09
953.27	5189.55
953.44	5461.93
953.60	5427.12
953.77	5459.88
953.93	5408.69
954.10	5445.55
954.26	5304.24
954.43	5429.17
954.59	5490.60
954.76	5519.28
954.92	5373.87
955.09	5461.93
955.25	5420.97
955.42	5453.74
955.58	5547.95
955.75	5558.19
955.91	5558.19
956.07	5500.84
956.24	5377.97
956.40	5431.21
956.57	5486.51
956.73	5361.58
956.90	5470.12
957.06	5416.88
957.23	5586.86
957.39	5459.88
957.56	5517.23
957.72	5402.54
957.88	5504.94
958.05	5441.45
958.21	5670.83
958.38	5414.83
958.54	5474.22
958.71	5607.34
958.87	5586.86
959.03	5490.60
959.20	5365.68
959.36	5357.49
959.53	5382.06
959.69	5431.21
959.85	5386.16
960.02	5492.65
960.18	5506.99
960.35	5447.60
960.51	5674.92
960.68	5396.40
960.84	5441.45
961.00	5521.32
961.17	5255.09
961.33	5449.64
961.50	5427.12
961.66	5427.12
961.82	5396.40
961.99	5427.12
962.15	5402.54
962.31	5466.03
962.48	5414.83
962.64	5472.17
962.81	5240.75
962.97	5343.15
963.13	5537.71
963.30	5488.56
963.46	5410.73
963.62	5359.53
963.79	5349.29
963.95	5291.95
964.12	5279.66
964.28	5412.78
964.44	5332.91
964.61	5427.12
964.77	5404.59
964.93	5496.75
965.10	5328.81
965.26	5337.01
965.42	5408.69
965.59	5201.84
965.75	5476.27
965.92	5275.57
966.08	5361.58
966.24	5400.49
966.41	5357.49
966.57	5341.10
966.73	5373.87
966.90	5373.87
967.06	5308.34
967.22	5246.90
967.39	5226.42
967.55	5300.14
967.71	5306.29
967.88	5134.26
968.04	5173.17
968.20	5029.81
968.37	5195.70
968.53	5081.01
968.69	5246.90
968.85	5238.70
969.02	5195.70
969.18	5214.13
969.34	5031.86
969.51	5187.50
969.67	5050.29
969.83	5052.34
970.00	5232.56
970.16	5138.35
970.32	5197.74
970.48	5148.59
970.65	5001.14
970.81	4902.84
970.97	4941.75
971.14	5052.34
971.30	5060.53
971.46	5005.24
971.63	4960.18
971.79	4972.47
971.95	4941.75
972.11	4941.75
972.28	5011.38
972.44	4927.41
972.60	4859.83
972.76	4831.16
972.93	4882.36
973.09	5023.67
973.25	4939.70
973.42	4884.41
973.58	5078.96
973.74	4837.30
973.90	4878.26
974.07	4822.97
974.23	4841.40
974.39	4943.80
974.55	4890.55
974.72	4978.61
974.88	4782.01
975.04	4751.29
975.20	4831.16
975.37	4732.86
975.53	4859.83
975.69	4825.01
975.85	4716.47
976.01	4741.05
976.18	4741.05
976.34	4675.51
976.50	4851.64
976.66	4798.39
976.83	4693.94
976.99	4739.00
977.15	4794.29
977.31	4480.96
977.47	4689.85
977.64	4816.82
977.80	4601.79
977.96	4718.52
978.12	4556.73
978.29	4665.27
978.45	4648.89
978.61	4556.73
978.77	4591.55
978.93	4589.50
979.10	4513.72
979.26	4517.82
979.42	4526.01
979.58	4403.13
979.74	4433.85
979.91	4497.34
980.07	4523.96
980.23	4513.72
980.39	4474.81
980.55	4448.19
980.71	4313.02
980.88	4458.43
981.04	4415.42
981.20	4249.54
981.36	4382.65
981.52	4431.80
981.68	4407.23
981.85	4444.09
982.01	4444.09
982.17	4435.90
982.33	4337.60
982.49	4470.72
982.65	4288.45
982.82	4347.84
982.98	4444.09
983.14	4339.65
983.30	4384.70
983.46	4288.45
983.62	4380.61
983.79	4239.30
983.95	4198.34
984.11	4177.86
984.27	4272.06
984.43	4241.34
984.59	4204.48
984.75	4286.40
984.91	4216.77
985.08	4198.34
985.24	4071.36
985.40	4085.70
985.56	4110.27
985.72	4097.99
985.88	4169.66
986.04	4075.46
986.20	4007.87
986.37	4171.71
986.53	4081.60
986.69	4063.17
986.85	3971.01
987.01	4050.88
987.17	4073.41
987.33	4032.45
987.49	3850.18
987.65	4057.03
987.82	3999.68
987.98	3932.10
988.14	4048.83
988.30	4071.36
988.46	3928.00
988.62	4001.73
988.78	3911.62
988.94	3887.04
989.10	3925.96
989.26	3778.50
989.42	3868.61
989.59	3762.12
989.75	3747.78
989.91	3942.34
990.07	3729.35
990.23	3784.65
990.39	3905.48
990.55	3887.04
990.71	3755.97
990.87	3749.83
991.03	3876.80
991.19	3764.17
991.35	3733.45
991.51	3874.76
991.67	3809.22
991.83	3715.02
992.00	3717.06
992.16	3776.45
992.32	3772.36
992.48	3829.70
992.64	3573.71
992.80	3796.93
992.96	3563.47
993.12	3573.71
993.28	3766.21
993.44	3751.88
993.60	3659.72
993.76	3629.00
993.92	3596.23
994.08	3678.15
994.24	3575.75
994.40	3676.10
994.56	3598.28
994.72	3600.33
994.88	3665.86
995.04	3571.66
995.20	3575.75
995.36	3559.37
995.52	3637.19
995.68	3483.59
995.84	3450.83
996.00	3639.24
996.16	3575.75
996.32	3520.46
996.48	3452.88
996.64	3545.03
996.80	3575.75
996.96	3381.20
997.12	3442.64
997.28	3366.86
997.44	3381.20
997.60	3330.00
997.76	3377.10
997.92	3401.68
998.08	3434.44
998.24	3203.02
998.40	3364.81
998.56	3485.64
998.72	3264.46
998.88	3352.52
999.04	3209.17
999.20	3403.72
999.36	3364.81
999.52	3409.87
999.68	3250.13
999.84	3295.18
1000.00	3438.54
1000.16	3313.61
1000.32	3319.76
1000.48	3319.76
1000.64	3198.93
1000.80	3305.42
1000.95	3108.82
1001.11	3237.84
1001.27	3112.91
1001.43	3241.93
1001.59	3178.45
1001.75	3225.55
1001.91	3258.32
1002.07	3168.21
1002.23	3149.78
1002.39	3194.83
1002.55	3166.16
1002.71	3112.91
1002.87	3155.92
1003.03	3059.67
1003.19	3074.00
1003.34	3131.34
1003.50	3110.86
1003.66	3182.54
1003.82	3098.58
1003.98	3026.90
1004.14	3088.34
1004.30	3053.52
1004.46	2992.08
1004.62	3006.42
1004.78	2996.18
1004.94	2975.70
1005.09	3082.19
1005.25	3022.80
1005.41	3067.86
1005.57	2940.88
1005.73	3035.09
1005.89	2979.79
1006.05	2953.17
1006.21	3016.66
1006.37	2840.53
1006.52	2912.21
1006.68	2820.05
1006.84	2955.22
1007.00	2877.40
1007.16	3014.61
1007.32	2904.02
1007.48	2914.26
1007.64	2858.96
1007.79	2914.26
1007.95	2793.43
1008.11	2934.74
1008.27	2838.48
1008.43	2820.05
1008.59	2848.72
1008.75	2801.62
1008.91	2871.25
1009.06	2736.09
1009.22	2858.96
1009.38	2951.12
1009.54	2758.61
1009.70	2731.99
1009.86	2826.20
1010.01	2768.85
1010.17	2777.05
1010.33	2846.68
1010.49	2813.91
1010.65	2746.33
1010.81	2656.22
1010.96	2721.75
1011.12	2660.31
1011.28	2707.41
1011.44	2805.72
1011.60	2799.57
1011.76	2623.45
1011.91	2768.85
1012.07	2570.20
1012.23	2586.58
1012.39	2666.46
1012.55	2789.33
1012.71	2652.12
1012.86	2562.01
1013.02	2719.70
1013.18	2678.74
1013.34	2578.39
1013.50	2637.78
1013.65	2590.68
1013.81	2631.64
1013.97	2592.73
1014.13	2590.68
1014.29	2576.34
1014.44	2631.64
1014.60	2598.87
1014.76	2480.09
1014.92	2670.55
1015.07	2502.62
1015.23	2549.72
1015.39	2490.33
1015.55	2596.82
1015.71	2551.77
1015.86	2494.43
1016.02	2404.32
1016.18	2469.85
1016.34	2510.81
1016.49	2525.15
1016.65	2475.99
1016.81	2551.77
1016.97	2525.15
1017.12	2574.30
1017.28	2410.46
1017.44	2420.70
1017.60	2420.70
1017.75	2443.23
1017.91	2432.99
1018.07	2447.32
1018.23	2486.23
1018.38	2471.90
1018.54	2478.04
1018.70	2383.84
1018.86	2469.85
1019.01	2441.18
1019.17	2369.50
1019.33	2564.06
1019.49	2281.44
1019.64	2392.03
1019.80	2467.80
1019.96	2404.32
1020.12	2453.47
1020.27	2332.64
1020.43	2371.55
1020.59	2310.11
1020.74	2408.41
1020.90	2334.68
1021.06	2285.53
1021.22	2346.97
1021.37	2371.55
1021.53	2318.30
1021.69	2404.32
1021.84	2203.61
1022.00	2250.72
1022.16	2351.07
1022.31	2306.01
1022.47	2361.31
1022.63	2334.68
1022.79	2215.90
1022.94	2156.51
1023.10	2400.22
1023.26	2250.72
1023.41	2295.77
1023.57	2258.91
1023.73	2342.88
1023.88	2306.01
1024.04	2144.22
1024.20	2228.19
1024.35	2228.19
1024.51	2224.09
1024.67	2211.81
1024.82	2338.78
1024.98	2191.33
1025.14	2240.48
1025.29	2209.76
1025.45	2224.09
1025.61	2107.36
1025.76	2232.29
1025.92	2176.99
1026.08	2215.90
1026.23	2240.48
1026.39	2207.71
1026.55	2117.60
1026.70	2211.81
1026.86	2191.33
1027.02	2236.38
1027.17	2189.28
1027.33	2121.70
1027.48	2207.71
1027.64	2174.94
1027.80	2058.21
1027.95	2154.46
1028.11	2086.88
1028.27	2187.23
1028.42	2142.18
1028.58	2095.07
1028.73	2111.46
1028.89	1980.39
1029.05	2183.13
1029.20	2142.18
>>>>>End Processed Spectral Data<<<<<
