SpectraSuite Data File
++++++++++++++++++++++++++++++++++++
Date: Fri Jun 02 14:51:06 CEST 2017
User: INFO_000
Dark Spectrum Present: No
Reference Spectrum Present: No
Number of Sampled Component Spectra: 1
Spectrometers: USB4H00879
Integration Time (usec): 80000 (USB4H00879)
Spectra Averaged: 1 (USB4H00879)
Boxcar Smoothing: 0 (USB4H00879)
Correct for Electrical Dark: No (USB4H00879)
Strobe/Lamp Enabled: No (USB4H00879)
Correct for Detector Non-linearity: No (USB4H00879)
Correct for Stray Light: No (USB4H00879)
Number of Pixels in Processed Spectrum: 3648
>>>>>Begin Processed Spectral Data<<<<<
345.13	1275.88
345.34	1275.88
345.56	1275.88
345.78	1236.97
345.99	1296.36
346.21	1730.53
346.42	1691.62
346.64	1636.33
346.86	1736.68
347.07	1632.23
347.29	1640.42
347.50	1648.61
347.72	1691.62
347.94	1763.30
348.15	1624.04
348.37	1603.56
348.59	1806.31
348.80	1699.81
349.02	1669.09
349.23	1740.77
349.45	1751.01
349.67	1755.11
349.88	1757.16
350.10	1873.89
350.31	1683.43
350.53	1736.68
350.75	1796.07
350.96	1646.57
351.18	1740.77
351.39	1703.91
351.61	1667.05
351.82	1767.40
352.04	1800.16
352.26	1691.62
352.47	1785.83
352.69	1691.62
352.90	1636.33
353.12	1730.53
353.34	1730.53
353.55	1798.12
353.77	1691.62
353.98	1689.57
354.20	1794.02
354.41	1724.39
354.63	1802.21
354.85	1824.74
355.06	1773.54
355.28	1617.90
355.49	1777.64
355.71	1740.77
355.92	1769.44
356.14	1755.11
356.35	1730.53
356.57	1675.24
356.79	1818.60
357.00	1658.85
357.22	1851.36
357.43	1761.25
357.65	1834.98
357.86	1607.66
358.08	1748.97
358.29	1820.64
358.51	1794.02
358.72	1773.54
358.94	1712.10
359.16	1693.67
359.37	1714.15
359.59	1802.21
359.80	1818.60
360.02	1683.43
360.23	1767.40
360.45	1826.79
360.66	1705.96
360.88	1669.09
361.09	1736.68
361.31	1732.58
361.52	1748.97
361.74	1785.83
361.95	1865.70
362.17	1722.34
362.38	1863.65
362.60	1853.41
362.81	1755.11
363.03	1699.81
363.24	1798.12
363.46	1830.88
363.67	1730.53
363.89	1716.20
364.10	1851.36
364.32	1656.81
364.53	1751.01
364.75	1701.86
364.96	1720.29
365.18	1738.73
365.39	1751.01
365.61	1658.85
365.82	1927.14
366.04	1871.84
366.25	1724.39
366.47	1808.36
366.68	1839.08
366.90	1761.25
367.11	1853.41
367.33	1783.78
367.54	1800.16
367.76	1771.49
367.97	1937.38
368.19	1728.49
368.40	1808.36
368.62	1763.30
368.83	1693.67
369.05	1701.86
369.26	1714.15
369.48	1744.87
369.69	1738.73
369.91	1853.41
370.12	1728.49
370.33	1843.17
370.55	1669.09
370.76	1812.45
370.98	1880.04
371.19	1734.63
371.41	1697.77
371.62	1740.77
371.84	1726.44
372.05	1933.28
372.27	1714.15
372.48	1775.59
372.69	1781.73
372.91	1861.60
373.12	1777.64
373.34	1781.73
373.55	1742.82
373.77	1941.47
373.98	1697.77
374.20	1904.61
374.41	1929.19
374.62	1773.54
374.84	1832.93
375.05	1798.12
375.27	1816.55
375.48	1812.45
375.70	1765.35
375.91	1855.46
376.12	2037.73
376.34	1767.40
376.55	1771.49
376.77	1937.38
376.98	1765.35
377.19	1718.25
377.41	1802.21
377.62	1824.74
377.84	1859.56
378.05	2011.11
378.27	1855.46
378.48	1839.08
378.69	1896.42
378.91	1908.71
379.12	1912.80
379.34	1779.68
379.55	1871.84
379.76	1853.41
379.98	1837.03
380.19	1894.37
380.41	1787.88
380.62	1920.99
380.83	1832.93
381.05	1740.77
381.26	2000.87
381.47	1734.63
381.69	1820.64
381.90	1947.62
382.12	1808.36
382.33	1847.27
382.54	1884.13
382.76	1925.09
382.97	1933.28
383.19	1822.69
383.40	1953.76
383.61	1904.61
383.83	1849.32
384.04	1855.46
384.25	1859.56
384.47	1953.76
384.68	1802.21
384.89	1812.45
385.11	1886.18
385.32	1886.18
385.54	1908.71
385.75	1847.27
385.96	1851.36
386.18	1939.43
386.39	1837.03
386.60	1886.18
386.82	1910.75
387.03	1941.47
387.24	1966.05
387.46	1933.28
387.67	1908.71
387.88	2119.65
388.10	1867.75
388.31	1839.08
388.52	2060.26
388.74	2078.69
388.95	1966.05
389.16	1855.46
389.38	1933.28
389.59	1984.48
389.80	2052.06
390.02	1966.05
390.23	2107.36
390.44	1957.86
390.66	1992.67
390.87	1871.84
391.08	2013.15
391.30	2133.98
391.51	2074.59
391.72	2000.87
391.94	2117.60
392.15	2072.54
392.36	1998.82
392.58	1904.61
392.79	2060.26
393.00	2068.45
393.22	2191.33
393.43	2109.41
393.64	2056.16
393.85	2232.29
394.07	2166.75
394.28	2136.03
394.49	2136.03
394.71	2312.16
394.92	2203.61
395.13	2090.98
395.35	2097.12
395.56	1980.39
395.77	2252.77
395.98	2136.03
396.20	2191.33
396.41	2277.34
396.62	2332.64
396.84	2183.13
397.05	2109.41
397.26	2041.82
397.47	2297.82
397.69	2203.61
397.90	2392.03
398.11	2279.39
398.32	2176.99
398.54	2213.85
398.75	2193.37
398.96	2424.80
399.18	2406.36
399.39	2349.02
399.60	2361.31
399.81	2346.97
400.03	2351.07
400.24	2396.12
400.45	2285.53
400.66	2414.56
400.88	2232.29
401.09	2478.04
401.30	2203.61
401.51	2490.33
401.73	2410.46
401.94	2367.45
402.15	2533.34
402.36	2639.83
402.58	2529.24
402.79	2594.78
403.00	2543.58
403.21	2480.09
403.43	2613.21
403.64	2648.02
403.85	2441.18
404.06	2695.13
404.27	2512.86
404.49	2625.50
404.70	2471.90
404.91	2600.92
405.12	2418.65
405.34	2588.63
405.55	2686.94
405.76	2412.51
405.97	2674.65
406.19	2926.55
406.40	2576.34
406.61	2688.98
406.82	2621.40
407.03	2723.80
407.25	2699.22
407.46	2867.16
407.67	2613.21
407.88	3014.61
408.09	2740.18
408.31	2709.46
408.52	2822.10
408.73	2877.40
408.94	2602.97
409.15	2822.10
409.37	2895.83
409.58	2912.21
409.79	2936.79
410.00	3010.51
410.21	2744.28
410.43	2854.87
410.64	2641.88
410.85	2844.63
411.06	3043.28
411.27	2969.55
411.48	3000.27
411.70	3157.97
411.91	3006.42
412.12	3174.35
412.33	3209.17
412.54	3049.43
412.76	3178.45
412.97	3114.96
413.18	2914.26
413.39	2983.89
413.60	3141.58
413.81	3084.24
414.03	3092.43
414.24	3008.47
414.45	3321.81
414.66	3133.39
414.87	3327.95
415.08	3100.62
415.30	3330.00
415.51	3205.07
415.72	3121.10
415.93	3383.24
416.14	3254.22
416.35	3268.56
416.56	3362.76
416.78	3434.44
416.99	3289.04
417.20	3215.31
417.41	3483.59
417.62	3432.40
417.83	3481.55
418.04	3336.14
418.26	3497.93
418.47	3440.59
418.68	3604.42
418.89	3524.55
419.10	3854.28
419.31	3612.62
419.52	3665.86
419.73	3602.38
419.95	3841.99
420.16	3516.36
420.37	3692.49
420.58	3530.70
420.79	3428.30
421.00	3559.37
421.21	3698.63
421.42	3786.69
421.63	3645.38
421.85	3739.59
422.06	3952.58
422.27	3788.74
422.48	3796.93
422.69	3823.56
422.90	3829.70
423.11	3889.09
423.32	4036.55
423.53	3962.82
423.75	3930.05
423.96	4116.42
424.17	4069.31
424.38	4227.01
424.59	4024.26
424.80	4169.66
425.01	4071.36
425.22	4114.37
425.43	4143.04
425.64	4272.06
425.85	4476.86
426.06	4192.19
426.28	4366.27
426.49	4048.83
426.70	4403.13
426.91	4378.56
427.12	4435.90
427.33	4362.17
427.54	4407.23
427.75	4528.06
427.96	4669.37
428.17	4599.74
428.38	4503.48
428.59	4628.41
428.80	4380.61
429.01	4425.66
429.23	4655.03
429.44	4704.18
429.65	4888.50
429.86	4796.34
430.07	4624.31
430.28	4698.04
430.49	4890.55
430.70	4779.96
430.91	4892.60
431.12	4872.12
431.33	4896.69
431.54	4894.65
431.75	4845.49
431.96	4681.66
432.17	4827.06
432.38	4847.54
432.59	5078.96
432.80	5142.45
433.01	5009.33
433.22	5115.83
433.43	5062.58
433.64	5154.74
433.85	5134.26
434.06	5089.20
434.27	5009.33
434.49	5242.80
434.70	5267.38
434.91	5359.53
435.12	5337.01
435.33	5138.35
435.54	5240.75
435.75	5066.67
435.96	5169.07
436.17	5287.86
436.38	5451.69
436.59	5447.60
436.80	5279.66
437.01	5453.74
437.22	5468.08
437.43	5621.67
437.64	5179.31
437.85	5556.14
438.06	5527.47
438.27	5347.25
438.48	5365.68
438.69	5523.37
438.90	5439.40
439.11	5412.78
439.32	5656.49
439.53	5695.40
439.74	5625.77
439.95	5595.05
440.16	5668.78
440.37	5728.17
440.57	5447.60
440.78	5738.41
440.99	5685.16
441.20	5871.53
441.41	5554.09
441.62	5746.60
441.83	5674.92
442.04	5849.00
442.25	5851.05
442.46	5793.70
442.67	5877.67
442.88	6246.30
443.09	5865.38
443.30	5892.01
443.51	5849.00
443.72	6162.34
443.93	5822.38
444.14	6207.39
444.35	5984.16
444.56	6066.08
444.77	6041.51
444.98	5998.50
445.19	6152.10
445.40	6045.60
445.61	6084.52
445.81	6213.54
446.02	6272.93
446.23	6178.72
446.44	6049.70
446.65	6186.91
446.86	6201.25
447.07	6330.27
447.28	6520.73
447.49	6367.13
447.70	6264.74
447.91	6395.81
448.12	6438.81
448.33	6492.06
448.54	6430.62
448.74	6322.08
448.95	6582.17
449.16	6369.18
449.37	6676.38
449.58	6371.23
449.79	6690.71
450.00	6369.18
450.21	6647.71
450.42	6627.23
450.63	6629.27
450.84	6700.95
451.05	6707.10
451.25	6588.32
451.46	6508.44
451.67	6922.13
451.88	6981.53
452.09	6825.88
452.30	6821.78
452.51	6821.78
452.72	6915.99
452.93	7083.92
453.13	6815.64
453.34	6942.61
453.55	7098.26
453.76	6920.09
453.97	7221.14
454.18	7065.49
454.39	7114.64
454.60	7155.60
454.81	7219.09
455.01	7419.79
455.22	7151.51
455.43	7319.44
455.64	7419.79
455.85	7466.89
456.06	7620.49
456.27	7522.19
456.48	7184.27
456.68	7679.88
456.89	7677.83
457.10	7651.21
457.31	7591.82
457.52	7724.94
457.73	7837.58
457.94	8036.23
458.14	7550.86
458.35	8087.43
458.56	7845.77
458.77	7776.14
458.98	8048.52
459.19	7778.19
459.39	7974.79
459.60	8187.78
459.81	8105.86
460.02	8216.45
460.23	8077.19
460.44	8380.29
460.65	8257.41
460.85	8490.88
461.06	8415.10
461.27	8134.53
461.48	8578.94
461.69	8542.08
461.89	8394.62
462.10	8607.61
462.31	8441.73
462.52	8691.58
462.73	8566.65
462.94	8912.76
463.14	8724.35
463.35	8882.04
463.56	9193.33
463.77	8931.19
463.98	8867.70
464.18	8941.43
464.39	9131.89
464.60	9330.55
464.81	9273.20
465.02	9160.56
465.23	9420.66
465.43	9310.07
465.64	9521.01
465.85	9422.70
466.06	9344.88
466.27	9863.02
466.47	9854.83
466.68	9774.95
466.89	9682.80
467.10	9844.59
467.30	9545.58
467.51	10153.83
467.72	10116.97
467.93	9787.24
468.14	10033.00
468.34	10135.40
468.55	10227.56
468.76	10207.08
468.97	10284.90
469.17	10622.81
469.38	10651.49
469.59	10569.57
469.80	10506.08
470.01	10442.59
470.21	10594.14
470.42	10997.59
470.63	10770.27
470.84	10823.51
471.04	10960.73
471.25	11091.80
471.46	10856.28
471.67	11360.08
471.87	11149.14
472.08	11239.25
472.29	11640.65
472.50	11212.63
472.70	11464.53
472.91	11403.09
473.12	11702.09
473.33	11577.17
473.53	11939.66
473.74	11679.57
473.95	11964.23
474.16	12257.09
474.36	12099.40
474.57	12379.97
474.78	12386.12
474.99	12455.75
475.19	12369.73
475.40	12719.93
475.61	12601.15
475.81	12865.34
476.02	12965.69
476.23	12750.65
476.44	12975.93
476.64	13217.59
476.85	13449.01
477.06	13373.24
477.27	13633.33
477.47	13465.39
477.68	13363.00
477.89	13596.46
478.09	13522.74
478.30	13725.49
478.51	13766.45
478.71	14239.53
478.92	13987.63
479.13	14018.35
479.34	14278.44
479.54	14323.49
479.75	14247.72
479.96	14462.76
480.16	14522.15
480.37	14339.88
480.58	14739.23
480.78	15109.91
480.99	15038.23
481.20	15144.73
481.41	15154.97
481.61	15378.20
481.82	15281.94
482.03	15144.73
482.23	15263.51
482.44	15535.89
482.65	15507.22
482.85	15781.65
483.06	15587.09
483.27	15968.01
483.47	15810.32
483.68	16021.26
483.89	16058.12
484.09	16002.83
484.30	16051.98
484.51	16525.06
484.71	16291.59
484.92	16416.52
485.13	16850.69
485.33	16629.51
485.54	16703.23
485.75	16807.68
485.95	16992.00
486.16	17247.99
486.37	16979.71
486.57	17157.88
486.78	17125.11
486.98	17331.96
487.19	17377.01
487.40	17469.17
487.60	17391.35
487.81	17547.00
488.02	17661.68
488.22	17807.09
488.43	17903.34
488.64	17985.26
488.84	18167.53
489.05	18368.23
489.25	18054.89
489.46	18573.03
489.67	18523.88
489.87	18362.09
490.08	18669.28
490.29	18673.38
490.49	19164.89
490.70	19074.78
490.90	19095.26
491.11	18642.66
491.32	19068.64
491.52	19320.54
491.73	19197.66
491.94	19336.92
492.14	19338.97
492.35	19463.90
492.55	19467.99
492.76	19793.62
492.97	19916.50
493.17	19787.47
493.38	19842.77
493.58	20049.61
493.79	19865.30
494.00	19998.41
494.20	20068.05
494.41	20184.78
494.61	20176.59
494.82	20526.79
495.02	20475.59
495.23	20666.05
495.44	20496.07
495.64	20891.33
495.85	20555.46
496.05	20715.20
496.26	20569.80
496.47	21001.92
496.67	20735.68
496.88	21040.83
497.08	20995.78
497.29	21243.58
497.49	21192.38
497.70	21333.69
497.91	21667.51
498.11	21712.56
498.32	21358.27
498.52	21716.66
498.73	21735.09
498.93	21677.75
499.14	21759.67
499.34	21798.58
499.55	21903.03
499.76	21786.29
499.96	22359.72
500.17	21954.22
500.37	22429.35
500.58	22111.92
500.78	22390.44
500.99	22163.12
501.19	22621.86
501.40	22062.77
501.60	22355.63
501.81	22529.70
502.02	22496.94
502.22	22593.19
502.43	22851.24
502.63	23027.36
502.84	23072.42
503.04	22613.67
503.25	23086.75
503.45	22994.59
503.66	23213.73
503.86	22896.29
504.07	23447.19
504.27	23391.90
504.48	23715.48
504.68	23512.73
504.89	23715.48
505.09	23576.22
505.30	23352.99
505.50	23488.15
505.71	23647.90
505.91	23590.55
506.12	23793.30
506.32	23940.75
506.53	23846.55
506.73	24293.01
506.94	24159.89
507.14	24348.30
507.35	24166.03
507.55	24663.69
507.76	24192.65
507.96	24049.30
508.17	24485.51
508.37	24342.16
508.58	24405.64
508.78	24372.88
508.99	24741.51
509.19	24735.37
509.40	24501.90
509.60	24888.96
509.81	24856.20
510.01	24891.01
510.22	24880.77
510.42	25179.78
510.63	25194.11
510.83	25196.16
511.04	24964.74
511.24	25312.89
511.44	25327.23
511.65	25212.54
511.85	25048.71
512.06	25685.62
512.26	25505.40
512.47	25620.09
512.67	25398.91
512.88	25710.20
513.08	25501.31
513.29	25560.70
513.49	25773.69
513.69	25648.76
513.90	25761.40
514.10	25896.56
514.31	26074.74
514.51	26154.61
514.72	26406.51
514.92	26115.70
515.13	26613.35
515.33	26242.67
515.53	26224.24
515.74	26398.32
515.94	26463.85
516.15	26717.80
516.35	26533.48
516.56	26918.50
516.76	26486.38
516.96	26527.34
517.17	26769.00
517.37	27027.04
517.58	27006.56
517.78	26945.12
517.99	26857.06
518.19	27285.09
518.39	27348.57
518.60	27467.36
518.80	27324.00
519.01	27489.88
519.21	27602.52
519.41	27635.29
519.62	27416.16
519.82	27940.44
520.03	27561.56
520.23	27946.58
520.43	27926.10
520.64	28274.26
520.84	28309.07
521.05	28112.47
521.25	28288.59
521.45	28595.79
521.66	28231.25
521.86	28048.98
522.07	28362.32
522.27	28454.48
522.47	28495.44
522.68	29029.96
522.88	28532.30
523.08	29083.20
523.29	29105.73
523.49	28948.04
523.70	29292.10
523.90	29607.48
524.10	29591.10
524.31	29294.14
524.51	29390.40
524.71	29675.07
524.92	29496.89
525.12	30004.79
525.33	29912.63
525.53	30008.89
525.73	30103.09
525.94	30201.40
526.14	29861.43
526.34	30479.92
526.55	30721.58
526.75	30707.24
526.95	30610.99
527.16	30684.72
527.36	30768.68
527.56	30823.98
527.77	31219.24
527.97	31034.92
528.17	31145.51
528.38	31280.67
528.58	31559.20
528.78	31317.54
528.99	31501.86
529.19	31755.80
529.39	31360.55
529.60	31890.97
529.80	31917.59
530.00	31847.96
530.21	32337.43
530.41	32165.40
530.61	32177.68
530.82	32210.45
531.02	32480.78
531.22	32828.94
531.43	32777.74
531.63	32656.91
531.83	32681.49
532.04	33195.53
532.24	33013.26
532.44	33662.46
532.64	33662.46
532.85	33553.92
533.05	33740.29
533.25	33586.69
533.46	33361.41
533.66	34006.52
533.86	33963.51
534.07	34125.30
534.27	34008.57
534.47	34426.35
534.67	34266.61
534.88	34393.59
535.08	34319.86
535.28	34444.79
535.49	34721.26
535.69	34921.96
535.89	34995.69
536.09	35118.57
536.30	35206.63
536.50	35007.98
536.70	35395.04
536.91	35028.46
537.11	35589.60
537.31	35458.53
537.51	35681.76
537.72	35888.60
537.92	35915.23
538.12	36142.55
538.32	35857.88
538.53	36181.46
538.73	36044.25
538.93	35808.73
539.13	36247.00
539.34	36122.07
539.54	36333.01
539.74	36474.32
539.94	36701.65
540.15	36525.52
540.35	36675.02
540.55	36482.52
540.75	36685.26
540.96	36724.18
541.16	36826.57
541.36	37019.08
541.56	37246.41
541.77	37733.82
541.97	37451.20
542.17	37707.20
542.37	37420.48
542.58	37668.29
542.78	37508.55
542.98	37746.11
543.18	37795.26
543.38	38143.42
543.59	37998.01
543.79	37778.88
543.99	38124.99
544.19	38323.64
544.40	38372.79
544.60	38444.47
544.80	38045.12
545.00	38192.57
545.20	38835.63
545.41	38180.28
545.61	38553.01
545.81	38682.03
546.01	38888.88
546.21	38643.12
546.42	38622.64
546.62	39040.43
546.82	38286.78
547.02	38790.58
547.22	39024.04
547.43	38768.05
547.63	39441.83
547.83	39458.21
548.03	39009.71
548.23	39636.39
548.44	39605.67
548.64	39165.35
548.84	39321.00
549.04	39632.29
549.24	39970.21
549.45	39622.05
549.65	39630.24
549.85	39734.69
550.05	40113.56
550.25	39763.36
550.45	40344.98
550.66	39722.40
550.86	39998.88
551.06	39906.72
551.26	40074.65
551.46	40330.65
551.66	40328.60
551.87	39904.67
552.07	40314.26
552.27	40013.21
552.47	40519.06
552.67	40588.69
552.87	40402.33
553.07	40607.12
553.28	40514.97
553.48	40502.68
553.68	40568.21
553.88	40795.54
554.08	40646.04
554.28	40344.98
554.48	40179.10
554.69	40652.18
554.89	40648.08
555.09	40693.14
555.29	40615.32
555.49	40887.70
555.69	41002.38
555.89	40846.74
556.10	41004.43
556.30	41178.51
556.50	41260.43
556.70	40623.51
556.90	41213.32
557.10	41141.64
557.30	40826.26
557.50	41223.56
557.70	41600.39
557.91	41317.77
558.11	41426.31
558.31	41518.47
558.51	41207.18
558.71	41567.62
558.91	41573.77
559.11	41164.17
559.31	41198.99
559.51	41649.54
559.72	41391.50
559.92	41747.84
560.12	41196.94
560.32	41950.59
560.52	41491.85
560.72	41827.71
560.92	41516.42
561.12	41475.46
561.32	42145.15
561.52	41489.80
561.72	42235.26
561.93	41885.06
562.13	41622.92
562.33	41352.58
562.53	41979.26
562.73	41743.75
562.93	41923.97
563.13	41891.20
563.33	41674.12
563.53	41997.70
563.73	41620.87
563.93	41743.75
564.13	42710.39
564.33	42169.72
564.53	42235.26
564.74	42005.89
564.94	41960.83
565.14	42130.81
565.34	41864.58
565.54	42134.91
565.74	41966.98
565.94	42894.71
566.14	42411.38
566.34	42083.71
566.54	42438.01
566.74	41993.60
566.94	42366.33
567.14	42595.70
567.34	42329.47
567.54	42452.34
567.74	42497.40
567.94	42382.71
568.14	42722.68
568.34	42767.73
568.54	42644.85
568.74	42591.61
568.94	42829.17
569.14	42980.72
569.34	42761.59
569.54	42782.07
569.75	42481.02
569.95	42726.77
570.15	43337.07
570.35	42603.89
570.55	43011.44
570.75	42407.29
570.95	42866.03
571.15	43021.68
571.35	42683.76
571.55	42978.67
571.75	42884.47
571.95	43640.17
572.15	42943.86
572.35	43353.45
572.55	42751.35
572.75	42919.28
572.95	43134.32
573.15	43087.21
573.35	43177.33
573.55	42812.79
573.75	43128.17
573.95	43167.09
574.15	43031.92
574.35	43357.55
574.55	43451.75
574.75	43068.78
574.95	43320.68
575.15	43152.75
575.34	43644.26
575.54	43717.99
575.74	43828.58
575.94	43693.41
576.14	43849.06
576.34	43519.34
576.54	44143.97
576.74	43769.19
576.94	43752.80
577.14	44238.17
577.34	44455.26
577.54	43971.94
577.74	44137.82
577.94	44070.24
578.14	44262.75
578.34	44631.38
578.54	43779.43
578.74	44250.46
578.94	44612.95
579.14	44246.36
579.34	44029.28
579.54	44555.61
579.74	44825.94
579.94	44342.62
580.13	44950.87
580.33	44621.14
580.53	44701.01
580.73	44787.03
580.93	44905.81
581.13	44916.05
581.33	44825.94
581.53	44871.00
581.73	44983.63
581.93	45081.94
582.13	45155.66
582.33	45432.14
582.53	45237.58
582.73	45440.33
582.92	45231.44
583.12	45487.43
583.32	45491.53
583.52	45294.92
583.72	45737.29
583.92	45407.56
584.12	45372.75
584.32	46486.84
584.52	45339.98
584.72	46007.62
584.92	45823.30
585.11	45915.46
585.31	45587.78
585.51	45774.15
585.71	46028.10
585.91	45952.32
586.11	46236.99
586.31	46171.46
586.51	46302.53
586.71	46232.89
586.91	46118.21
587.10	46347.58
587.30	46454.08
587.50	46159.17
587.70	46208.32
587.90	46312.77
588.10	46839.09
588.30	46552.38
588.50	46892.34
588.69	47103.28
588.89	46351.68
589.09	47125.81
589.29	46824.76
589.49	47459.63
589.69	46830.90
589.89	47299.89
590.08	47150.38
590.28	46988.60
590.48	47234.35
590.68	46986.55
590.88	47408.43
591.08	47050.03
591.28	46941.49
591.47	47469.87
591.67	47553.83
591.87	47783.21
592.07	47349.04
592.27	47428.91
592.47	47258.93
592.67	47934.76
592.86	47568.17
593.06	47772.97
593.26	48024.87
593.46	47922.47
593.66	48067.87
593.86	47813.93
594.05	48284.96
594.25	47926.56
594.45	47957.28
594.65	48381.21
594.85	47762.73
595.05	48411.93
595.24	48700.70
595.44	48393.50
595.64	48518.43
595.84	48459.04
596.04	48755.99
596.23	48641.31
596.43	49235.22
596.63	48323.87
596.83	48938.26
597.03	48588.06
597.22	49636.62
597.42	48815.38
597.62	49102.10
597.82	49108.24
598.02	49315.09
598.21	49239.31
598.41	49315.09
598.61	49202.45
598.81	49644.81
599.01	49818.89
599.20	49667.34
599.40	49280.27
599.60	49790.22
599.80	49632.52
600.00	50005.25
600.19	50244.87
600.39	49497.36
600.59	50111.75
600.79	50019.59
600.98	49751.30
601.18	50308.35
601.38	50414.85
601.58	50758.91
601.78	50447.61
601.97	50076.93
602.17	51086.58
602.37	50586.88
602.57	50908.41
602.76	51012.85
602.96	50824.44
603.16	50930.93
603.36	51115.25
603.55	51248.37
603.75	51086.58
603.95	50937.08
604.15	51156.21
604.34	51569.90
604.54	51129.59
604.74	50975.99
604.94	51330.29
605.13	51694.83
605.33	51426.54
605.53	50978.04
605.73	51741.93
605.92	51438.83
606.12	52004.07
606.32	51944.68
606.52	51614.96
606.71	51893.48
606.91	51901.67
607.11	51916.01
607.30	52532.45
607.50	52278.50
607.70	52892.89
607.90	51879.14
608.09	52561.12
608.29	52585.69
608.49	52509.92
608.68	52341.99
608.88	52628.70
609.08	52966.62
609.28	52714.72
609.47	52770.01
609.67	53212.37
609.87	52518.11
610.06	53021.91
610.26	52839.64
610.46	53376.21
610.66	53026.01
610.85	52935.90
611.05	52896.98
611.25	53470.42
611.44	53101.78
611.64	53056.73
611.84	53056.73
612.03	53396.69
612.23	52942.04
612.43	53474.51
612.62	53249.24
612.82	53818.57
613.02	53349.59
613.21	53486.80
613.41	53132.50
613.61	53421.26
613.80	53456.08
614.00	53179.60
614.20	53953.74
614.39	53380.31
614.59	53951.69
614.79	53671.12
614.98	53617.87
615.18	53636.30
615.38	53845.19
615.57	53552.33
615.77	54113.48
615.97	53720.27
616.16	53380.31
616.36	53619.92
616.56	53957.83
616.75	54099.14
616.95	53488.85
617.15	53615.82
617.34	53648.59
617.54	54080.71
617.74	53978.31
617.93	54189.25
618.13	53654.73
618.32	53726.41
618.52	53998.79
618.72	53703.88
618.91	54453.44
619.11	53910.73
619.31	53963.98
619.50	54099.14
619.70	53802.19
619.90	54170.82
620.09	53843.15
620.29	54629.57
620.48	54297.80
620.68	54641.85
620.88	53621.97
621.07	54578.37
621.27	54381.76
621.46	54166.73
621.66	54293.70
621.86	54291.65
622.05	54068.42
622.25	54842.56
622.44	54213.83
622.64	54486.21
622.84	54809.79
623.03	53963.98
623.23	54138.05
623.42	54277.32
623.62	54719.68
623.82	54621.37
624.01	53980.36
624.21	54748.35
624.40	54283.46
624.60	54287.56
624.80	54383.81
624.99	53984.46
625.19	53875.91
625.38	54195.40
625.58	54557.89
625.77	54422.72
625.97	54340.80
626.17	54172.87
626.36	54553.79
626.56	54500.54
626.75	53914.83
626.95	54760.64
627.14	54226.12
627.34	54736.06
627.54	54666.43
627.73	54498.50
627.93	54281.41
628.12	54187.21
628.32	54748.35
628.51	54457.54
628.71	54543.55
628.90	54326.47
629.10	54420.67
629.30	54082.76
629.49	54449.35
629.69	54738.11
629.88	54267.08
630.08	54582.46
630.27	54527.17
630.47	54617.28
630.66	54480.06
630.86	54613.18
631.05	54273.22
631.25	54625.47
631.44	54795.45
631.64	54082.76
631.84	54529.22
632.03	54740.16
632.23	54469.82
632.42	55358.64
632.62	54529.22
632.81	54367.43
633.01	54793.40
633.20	54607.04
633.40	55020.73
633.59	54686.91
633.79	54465.73
633.98	54572.22
634.18	54449.35
634.37	54703.29
634.57	54445.25
634.76	55207.09
634.96	54877.37
635.15	55360.69
635.35	54813.88
635.54	54185.16
635.74	54772.92
635.93	54789.31
636.13	54711.49
636.32	55012.54
636.52	54895.80
636.71	54604.99
636.91	54842.56
637.10	54944.95
637.30	54662.33
637.49	54574.27
637.69	54285.51
637.88	54766.78
638.08	54670.53
638.27	54908.09
638.46	54492.35
638.66	54727.87
638.85	54549.70
639.05	54998.20
639.24	55006.39
639.44	54203.59
639.63	54543.55
639.83	54903.99
640.02	54908.09
640.22	54314.18
640.41	54908.09
640.61	54600.89
640.80	54697.15
640.99	54490.30
641.19	55053.50
641.38	54621.37
641.58	54977.72
641.77	54273.22
641.97	54695.10
642.16	54764.73
642.36	55256.24
642.55	55299.25
642.74	54750.40
642.94	55444.66
643.13	54662.33
643.33	54824.12
643.52	55002.30
643.72	55002.30
643.91	54932.67
644.10	55116.98
644.30	55491.76
644.49	54754.49
644.69	55319.73
644.88	54938.81
645.08	54695.10
645.27	54525.12
645.46	54648.00
645.66	55274.68
645.85	54912.19
646.05	54944.95
646.24	54955.19
646.43	54613.18
646.63	55538.86
646.82	55243.96
647.02	54691.01
647.21	55157.94
647.40	54789.31
647.60	54916.28
647.79	55045.30
647.99	54990.01
648.18	54740.16
648.37	55477.43
648.57	55321.78
648.76	55358.64
648.96	54877.37
649.15	55383.22
649.34	54795.45
649.54	55162.04
649.73	54416.58
649.92	55030.97
650.12	55123.13
650.31	55147.70
650.51	55131.32
650.70	55248.05
650.89	54871.23
651.09	55702.70
651.28	55411.89
651.47	55448.75
651.67	55227.57
651.86	55596.21
652.06	54850.75
652.25	55209.14
652.44	55065.78
652.64	54719.68
652.83	54613.18
653.02	54834.36
653.22	54508.74
653.41	54906.04
653.60	54830.27
653.80	55108.79
653.99	54727.87
654.18	55047.35
654.38	55186.61
654.57	55260.34
654.76	55164.09
654.96	55071.93
655.15	54631.61
655.34	54963.39
655.54	54772.92
655.73	54998.20
655.92	55139.51
656.12	54996.15
656.31	55307.44
656.50	54916.28
656.70	54959.29
656.89	54748.35
657.08	55147.70
657.28	54920.38
657.47	54887.61
657.66	54934.71
657.86	54903.99
658.05	55121.08
658.24	54967.48
658.43	54957.24
658.63	54957.24
658.82	55135.41
659.01	54994.10
659.21	55065.78
659.40	55010.49
659.59	55157.94
659.79	55358.64
659.98	55043.26
660.17	54994.10
660.36	54990.01
660.56	54838.46
660.75	55385.27
660.94	54686.91
661.14	54666.43
661.33	55106.74
661.52	54707.39
661.71	54746.30
661.91	54561.98
662.10	54379.71
662.29	54996.15
662.49	54760.64
662.68	54895.80
662.87	54822.08
663.06	54785.21
663.26	54430.91
663.45	55164.09
663.64	54891.71
663.83	55088.31
664.03	54840.51
664.22	54490.30
664.41	55334.07
664.60	54543.55
664.80	54813.88
664.99	54516.93
665.18	55069.88
665.37	54785.21
665.57	54973.63
665.76	54523.07
665.95	54731.96
666.14	54547.65
666.34	54850.75
666.53	54584.51
666.72	54635.71
666.91	54113.48
667.11	54539.46
667.30	54879.42
667.49	54308.04
667.68	54553.79
667.87	54357.19
668.07	54437.06
668.26	54449.35
668.45	54893.75
668.64	54238.40
668.84	55096.50
669.03	54774.97
669.22	54551.74
669.41	54131.91
669.60	54684.86
669.80	53841.10
669.99	54789.31
670.18	54625.47
670.37	54736.06
670.57	54609.09
670.76	54047.94
670.95	54295.75
671.14	54645.95
671.33	54023.37
671.53	54795.45
671.72	53896.39
671.91	54408.39
672.10	54363.33
672.29	54133.96
672.48	54387.91
672.68	54652.09
672.87	53990.60
673.06	54564.03
673.25	54150.34
673.44	53832.91
673.64	54203.59
673.83	54308.04
674.02	53740.75
674.21	53591.25
674.40	54156.49
674.59	53591.25
674.79	54166.73
674.98	54146.25
675.17	53789.90
675.36	53822.67
675.55	53834.95
675.74	53777.61
675.94	53736.65
676.13	54148.29
676.32	54379.71
676.51	54336.71
676.70	54017.22
676.89	53951.69
677.08	53841.10
677.28	53966.02
677.47	54355.14
677.66	54011.08
677.85	53904.59
678.04	54195.40
678.23	53826.76
678.42	54056.14
678.62	53589.20
678.81	54144.20
679.00	54133.96
679.19	54658.24
679.38	54101.19
679.57	53619.92
679.76	53634.25
679.96	54047.94
680.15	53329.11
680.34	53834.95
680.53	53464.27
680.72	53826.76
680.91	54080.71
681.10	53572.81
681.29	53744.84
681.48	53306.58
681.68	53329.11
681.87	53304.53
682.06	53556.43
682.25	53239.00
682.44	53400.79
682.63	54023.37
682.82	53161.17
683.01	53060.82
683.20	53179.60
683.39	53519.57
683.59	53236.95
683.78	52810.97
683.97	53380.31
684.16	53400.79
684.35	53404.88
684.54	53368.02
684.73	53406.93
684.92	53185.75
685.11	53056.73
685.30	53118.17
685.49	53601.49
685.69	52796.63
685.88	53214.42
686.07	52931.80
686.26	53032.15
686.45	52823.26
686.64	52698.33
686.83	53050.58
687.02	53044.44
687.21	53294.29
687.40	53259.48
687.59	53155.03
687.78	53050.58
687.97	52810.97
688.16	52927.70
688.35	52880.60
688.54	52819.16
688.74	53114.07
688.93	52708.57
689.12	53048.53
689.31	52645.08
689.50	53140.69
689.69	52798.68
689.88	52268.26
690.07	52878.55
690.26	52634.84
690.45	53126.36
690.64	52835.55
690.83	52565.21
691.02	52546.78
691.21	52352.23
691.40	52270.31
691.59	52874.46
691.78	52663.52
691.97	52663.52
692.16	52815.07
692.35	53093.59
692.54	52694.24
692.73	52862.17
692.92	52442.34
693.11	52524.25
693.30	52770.01
693.49	52511.97
693.68	52415.71
693.87	52298.98
694.06	51887.34
694.25	52245.73
694.44	52159.72
694.63	52262.11
694.82	52597.98
695.01	52143.33
695.20	52341.99
695.39	52188.39
695.58	52032.74
695.77	52276.45
695.96	52026.60
696.15	52452.58
696.34	52032.74
696.53	52157.67
696.72	52405.47
696.91	51635.44
697.10	52258.02
697.29	51926.25
697.48	52397.28
697.67	51981.54
697.86	51819.75
698.05	51555.57
698.24	52380.90
698.43	52067.56
698.62	52131.04
698.81	51436.78
699.00	52163.81
699.19	52061.41
699.38	52145.38
699.57	51918.06
699.76	52452.58
699.95	51918.06
700.14	51811.56
700.32	52081.89
700.51	51705.07
700.70	51991.78
700.89	51950.82
701.08	51975.40
701.27	51623.15
701.46	52362.46
701.65	51236.08
701.84	51447.02
702.03	52008.17
702.22	51365.10
702.41	51322.10
702.60	51551.47
702.79	51526.89
702.98	51422.45
703.17	51799.27
703.35	51324.14
703.54	51113.20
703.73	51756.27
703.92	51612.91
704.11	51369.20
704.30	51221.75
704.49	51397.87
704.68	51324.14
704.87	51328.24
705.06	51209.46
705.25	51506.41
705.43	51051.76
705.62	51356.91
705.81	51389.68
706.00	51500.27
706.19	50736.38
706.38	51084.53
706.57	50894.07
706.76	50918.65
706.95	51395.82
707.14	50722.04
707.32	50644.22
707.51	50851.06
707.70	51027.19
707.89	50961.65
708.08	51115.25
708.27	50816.25
708.46	51256.56
708.65	50842.87
708.84	51432.69
709.02	51197.17
709.21	51274.99
709.40	50951.41
709.59	50715.90
709.78	50402.56
709.97	51094.77
710.16	51076.34
710.34	50795.77
710.53	50994.42
710.72	51059.96
710.91	50959.61
711.10	50775.29
711.29	51029.24
711.48	50855.16
711.66	50812.15
711.85	50351.36
712.04	50812.15
712.23	51078.39
712.42	50504.96
712.61	50490.62
712.80	50638.08
712.98	50650.36
713.17	50386.18
713.36	50466.05
713.55	50203.91
713.74	49849.61
713.93	50611.45
714.11	50316.54
714.30	50285.82
714.49	50457.85
714.68	51025.14
714.87	50271.49
715.06	50404.61
715.24	50097.41
715.43	50236.67
715.62	50183.43
715.81	50089.22
716.00	50320.64
716.18	49986.82
716.37	49624.33
716.56	49999.11
716.75	50277.63
716.94	50068.74
717.12	50259.20
717.31	50269.44
717.50	50068.74
717.69	49976.58
717.88	50124.04
718.06	50038.02
718.25	50316.54
718.44	49333.52
718.63	49663.24
718.82	49612.04
719.00	49519.88
719.19	49519.88
719.38	49483.02
719.57	49401.10
719.76	49104.15
719.94	49202.45
720.13	49642.76
720.32	49612.04
720.51	49423.63
720.69	49526.03
720.88	49327.38
721.07	49306.90
721.26	48872.73
721.44	49003.80
721.63	48948.50
721.82	49153.30
722.01	48903.45
722.20	49149.20
722.38	48807.19
722.57	48446.75
722.76	48817.43
722.95	48325.92
723.13	48510.24
723.32	48733.46
723.51	48420.13
723.70	48514.33
723.88	48508.19
724.07	48360.73
724.26	48790.81
724.44	47856.93
724.63	48981.27
724.82	48526.62
725.01	48016.68
725.19	48446.75
725.38	48278.82
725.57	48100.64
725.76	48237.86
725.94	48065.83
726.13	48334.11
726.32	48717.08
726.51	48096.55
726.69	48612.63
726.88	48424.22
727.07	48287.01
727.25	47977.76
727.44	48213.28
727.63	47996.20
727.82	48401.69
728.00	47975.72
728.19	47938.85
728.38	48164.13
728.56	47541.55
728.75	48571.67
728.94	47863.08
729.12	48360.73
729.31	48153.89
729.50	48254.24
729.69	47955.24
729.87	47947.04
730.06	47985.96
730.25	48231.71
730.43	48629.02
730.62	47674.66
730.81	48160.03
730.99	48336.16
731.18	47813.93
731.37	48428.32
731.55	48364.83
731.74	48526.62
731.93	47963.43
732.11	48358.69
732.30	48121.12
732.49	48000.29
732.67	48131.36
732.86	48289.06
733.05	48041.25
733.23	47715.62
733.42	48024.87
733.61	48074.02
733.79	48086.31
733.98	48440.60
734.17	48186.66
734.35	47891.75
734.54	47656.23
734.73	48117.03
734.91	48125.22
735.10	47678.76
735.29	48153.89
735.47	47830.31
735.66	47635.75
735.84	48008.48
736.03	47971.62
736.22	48157.99
736.40	47617.32
736.59	48182.56
736.78	47820.07
736.96	47826.21
737.15	47764.78
737.33	47584.55
737.52	47445.29
737.71	47545.64
737.89	47498.54
738.08	47138.10
738.27	47353.13
738.45	47838.50
738.64	47785.25
738.82	47699.24
739.01	47547.69
739.20	47371.57
739.38	47476.01
739.57	47856.93
739.75	47764.78
739.94	47580.46
740.13	47617.32
740.31	47547.69
740.50	47521.07
740.68	47725.86
740.87	47471.92
741.06	47258.93
741.24	47115.57
741.43	47371.57
741.61	47254.83
741.80	46871.86
741.99	46984.50
742.17	47152.43
742.36	46835.00
742.54	46966.07
742.73	46871.86
742.91	47166.77
743.10	46845.24
743.29	47508.78
743.47	46904.63
743.66	47045.94
743.84	47285.55
744.03	47007.03
744.21	46798.13
744.40	47478.06
744.59	46695.74
744.77	46966.07
744.96	46978.36
745.14	47031.60
745.33	47002.93
745.51	46736.69
745.70	47125.81
745.88	47021.36
746.07	46689.59
746.26	46839.09
746.44	46509.37
746.63	46970.16
746.81	46720.31
747.00	46873.91
747.18	46552.38
747.37	46753.08
747.55	46464.32
747.74	46638.39
747.92	46034.24
748.11	46454.08
748.29	46499.13
748.48	46193.98
748.66	45991.23
748.85	46290.24
749.03	46605.62
749.22	46402.88
749.41	45923.65
749.59	46429.50
749.78	46382.40
749.96	45751.62
750.15	46138.69
750.33	45813.06
750.52	45966.66
750.70	45839.68
750.89	45765.96
751.07	45538.63
751.26	45794.63
751.44	45641.03
751.63	45946.18
751.81	45393.23
752.00	45487.43
752.18	45739.33
752.37	45550.92
752.55	45299.02
752.74	45221.20
752.92	45323.60
753.10	45239.63
753.29	45086.03
753.47	45106.51
753.66	45462.86
753.84	45194.57
754.03	45210.96
754.21	44899.67
754.40	45057.36
754.58	45225.29
754.77	45034.83
754.95	44623.19
755.14	44748.12
755.32	45120.85
755.51	44963.15
755.69	44596.57
755.88	44905.81
756.06	45004.11
756.24	44340.57
756.43	44516.70
756.61	44576.09
756.80	44580.18
756.98	44246.36
757.17	44823.89
757.35	44463.45
757.54	44408.15
757.72	44803.41
757.90	44236.12
758.09	44131.68
758.27	44649.81
758.46	44023.14
758.64	44707.16
758.83	44649.81
759.01	44567.90
759.19	44195.17
759.38	44035.42
759.56	44318.04
759.75	44467.55
759.93	43851.11
760.12	44045.66
760.30	44238.17
760.48	44404.06
760.67	44055.90
760.85	43779.43
761.04	44209.50
761.22	43967.84
761.40	43785.57
761.59	43814.24
761.77	43509.10
761.96	43453.80
762.14	43249.00
762.32	43505.00
762.51	43240.81
762.69	43179.37
762.88	43195.76
763.06	43398.51
763.24	43335.02
763.43	43652.45
763.61	43337.07
763.80	43435.37
763.98	42663.28
764.16	43140.46
764.35	42718.58
764.53	42935.66
764.72	42997.10
764.90	42911.09
765.08	43068.78
765.27	42931.57
765.45	42577.27
765.63	42612.09
765.82	42753.40
766.00	42298.75
766.18	42607.99
766.37	42618.23
766.55	42900.85
766.74	42345.85
766.92	42255.74
767.10	42270.08
767.29	42489.21
767.47	42050.94
767.65	42491.26
767.84	41895.30
768.02	42458.49
768.20	41788.80
768.39	42098.05
768.57	42319.23
768.75	41864.58
768.94	42096.00
769.12	42067.33
769.30	41659.78
769.49	41803.14
769.67	41897.34
769.85	41850.24
770.04	41827.71
770.22	41313.67
770.40	41262.47
770.59	40986.00
770.77	41514.37
770.95	40971.66
771.14	41377.16
771.32	40951.18
771.50	40856.98
771.69	40768.91
771.87	41074.06
772.05	41153.93
772.24	40826.26
772.42	40488.34
772.60	40818.07
772.78	40555.93
772.97	40666.52
773.15	40766.87
773.33	40699.28
773.52	40842.64
773.70	40500.63
773.88	40805.78
774.07	40510.87
774.25	40476.05
774.43	40598.93
774.61	40426.90
774.80	40719.76
774.98	40607.12
775.16	40744.34
775.34	40695.19
775.53	40328.60
775.71	40619.41
775.89	40670.61
776.08	40744.34
776.26	40431.00
776.44	40768.91
776.62	41012.62
776.81	40441.24
776.99	40465.81
777.17	40682.90
777.35	40873.36
777.54	41086.35
777.72	40400.28
777.90	40539.54
778.08	40570.26
778.27	40439.19
778.45	40555.93
778.63	41180.56
778.81	40586.64
779.00	41049.49
779.18	40439.19
779.36	41223.56
779.54	40977.81
779.73	40447.38
779.91	40938.90
780.09	41250.19
780.27	41160.08
780.46	40770.96
780.64	41090.44
780.82	41022.86
781.00	40895.89
781.19	41024.91
781.37	41409.93
781.55	41190.80
781.73	41354.63
781.91	41305.48
782.10	40977.81
782.28	41072.01
782.46	41143.69
782.64	41383.30
782.82	40801.68
783.01	40869.26
783.19	41403.78
783.37	41561.48
783.55	40979.85
783.74	41084.30
783.92	40959.38
784.10	41852.29
784.28	40967.57
784.46	41094.54
784.64	40865.17
784.83	41180.56
785.01	41387.40
785.19	41244.04
785.37	41135.50
785.55	41045.39
785.74	41053.58
785.92	40777.11
786.10	40838.54
786.28	41053.58
786.46	40828.30
786.64	40625.56
786.83	40730.00
787.01	41209.23
787.19	40715.67
787.37	40701.33
787.55	40564.12
787.74	40252.83
787.92	40842.64
788.10	40418.71
788.28	40191.39
788.46	40482.20
788.64	40744.34
788.82	40654.23
789.01	40029.60
789.19	40682.90
789.37	40080.80
789.55	39962.01
789.73	39531.94
789.91	39660.96
790.09	39644.58
790.28	39728.55
790.46	39521.70
790.64	39939.49
790.82	39552.42
791.00	39511.46
791.18	39685.54
791.36	39310.76
791.55	39335.34
791.73	39165.35
791.91	38817.20
792.09	39228.84
792.27	39202.22
792.45	39003.56
792.63	38559.16
792.81	38913.45
793.00	39181.74
793.18	38704.56
793.36	38770.10
793.54	38405.56
793.72	38491.57
793.90	38063.55
794.08	38147.51
794.26	38307.26
794.44	37789.12
794.62	37705.15
794.81	37950.91
794.99	37742.02
795.17	37916.09
795.35	37684.67
795.53	37529.03
795.71	37955.00
795.89	37451.20
796.07	37457.35
796.25	37123.53
796.43	37248.46
796.61	36746.70
796.80	37086.67
796.98	37004.75
797.16	36814.29
797.34	37037.51
797.52	36638.16
797.70	36951.50
797.88	36361.69
798.06	36294.10
798.24	36349.40
798.42	36416.98
798.60	35902.94
798.78	36154.84
798.96	36177.37
799.14	35792.35
799.32	36163.03
799.51	35595.74
799.69	35911.13
799.87	35747.29
800.05	35288.55
800.23	35642.85
800.41	35417.57
800.59	35489.25
800.77	35270.12
800.95	35026.41
801.13	34901.48
801.31	34737.65
801.49	35077.61
801.67	34815.47
801.85	34735.60
802.03	34516.47
802.21	34305.52
802.39	34446.83
802.57	34479.60
802.75	34508.27
802.93	34305.52
803.11	34088.44
803.29	34203.13
803.47	34350.58
803.65	33865.21
803.83	33465.86
804.01	33906.17
804.19	33527.30
804.37	33322.50
804.55	33412.61
804.73	33719.81
804.91	33504.77
805.09	33381.89
805.27	33306.12
805.45	33783.29
805.63	33117.70
805.81	33299.97
805.99	33449.47
806.17	33216.01
806.35	33060.36
806.53	32931.34
806.71	32902.67
806.89	32566.80
807.07	32742.92
807.25	32630.29
807.43	32466.45
807.61	32695.82
807.79	32577.04
807.97	31839.77
808.15	32290.32
808.33	32181.78
808.51	31723.04
808.69	32011.80
808.87	31845.91
809.05	31694.36
809.23	31837.72
809.41	31868.44
809.59	31479.33
809.77	31733.28
809.95	31348.26
810.13	31430.18
810.31	31252.00
810.49	31393.31
810.67	31415.84
810.84	31430.18
811.02	31110.69
811.20	30914.09
811.38	30885.42
811.56	30746.15
811.74	30871.08
811.92	30869.03
812.10	30658.09
812.28	30592.56
812.46	30584.37
812.64	30721.58
812.82	30334.51
813.00	30412.34
813.18	30168.63
813.36	30279.22
813.53	29720.12
813.71	30000.69
813.89	30139.96
814.07	30451.25
814.25	30064.18
814.43	30142.00
814.61	29898.30
814.79	29947.45
814.97	29888.06
815.15	29898.30
815.33	29484.61
815.50	29470.27
815.68	29683.26
815.86	29681.21
816.04	29556.28
816.22	29005.38
816.40	29388.35
816.58	29134.40
816.76	29079.11
816.94	29285.95
817.11	29191.75
817.29	29007.43
817.47	28984.90
817.65	29144.64
817.83	29029.96
818.01	28786.25
818.19	29292.10
818.37	29058.63
818.54	28382.80
818.72	28810.82
818.90	28548.68
819.08	28337.74
819.26	28460.62
819.44	28450.38
819.62	28401.23
819.80	28190.29
819.97	28466.77
820.15	28206.67
820.33	28122.71
820.51	28221.01
820.69	27799.13
820.87	27983.44
821.05	28079.70
821.22	27901.53
821.40	27913.81
821.58	28089.94
821.76	27807.32
821.94	27827.80
822.12	27678.30
822.29	27915.86
822.47	27844.18
822.65	27725.40
822.83	27960.92
823.01	27393.63
823.19	27627.10
823.36	27444.83
823.54	27145.83
823.72	27465.31
823.90	27285.09
824.08	27174.50
824.25	27436.64
824.43	27190.88
824.61	27174.50
824.79	27360.86
824.97	27065.96
825.15	27041.38
825.32	27264.61
825.50	26728.04
825.68	26857.06
825.86	26967.65
826.04	26725.99
826.21	26828.39
826.39	26660.46
826.57	26533.48
826.75	26619.50
826.93	26273.39
827.10	26375.79
827.28	26549.87
827.46	26691.18
827.64	26398.32
827.81	26470.00
827.99	26398.32
828.17	26343.02
828.35	26226.29
828.53	26267.25
828.70	26009.20
828.88	25978.48
829.06	26244.72
829.24	26009.20
829.41	26027.63
829.59	26201.71
829.77	25888.37
829.95	26060.40
830.12	25890.42
830.30	25880.18
830.48	25826.93
830.66	26150.51
830.84	25837.17
831.01	25941.62
831.19	25958.00
831.37	25648.76
831.55	25607.80
831.72	25501.31
831.90	25650.81
832.08	25480.83
832.25	25618.04
832.43	25714.30
832.61	25396.86
832.79	25204.35
832.96	25063.04
833.14	25339.52
833.32	25263.74
833.50	25364.09
833.67	25138.82
833.85	25347.71
834.03	24866.44
834.20	25099.90
834.38	25159.30
834.56	25374.33
834.74	24774.28
834.91	25253.50
835.09	24915.59
835.27	24671.88
835.44	25036.42
835.62	24305.29
835.80	24778.37
835.98	24761.99
836.15	24684.17
836.33	24661.64
836.51	24729.22
836.68	24430.22
836.86	24587.91
837.04	24491.66
837.21	24473.23
837.39	24514.19
837.57	24866.44
837.75	24475.27
837.92	24694.41
838.10	24481.42
838.28	24538.76
838.45	24231.57
838.63	24118.93
838.81	24110.74
838.98	24209.04
839.16	23924.37
839.34	24041.11
839.51	24125.07
839.69	23844.50
839.87	24008.34
840.04	23883.41
840.22	24350.35
840.40	23828.12
840.57	23606.94
840.75	23819.92
840.93	23795.35
841.10	23707.29
841.28	24125.07
841.46	23938.71
841.63	23510.68
841.81	23541.40
841.98	23635.61
842.16	23854.74
842.34	23623.32
842.51	23244.45
842.69	23768.73
842.87	23676.57
843.04	23608.98
843.22	23449.24
843.40	23281.31
843.57	23336.60
843.75	23580.31
843.92	23592.60
844.10	23219.87
844.28	23719.57
844.45	23316.12
844.63	23447.19
844.81	23424.67
844.98	23482.01
845.16	23262.88
845.33	23234.21
845.51	23228.06
845.69	23053.98
845.86	23047.84
846.04	23103.14
846.21	22965.92
846.39	22918.82
846.57	22724.26
846.74	22906.53
846.92	23131.81
847.09	22779.56
847.27	22552.23
847.45	22720.17
847.62	23121.57
847.80	22834.85
847.97	22853.28
848.15	22681.25
848.32	22572.71
848.50	22863.52
848.68	22324.91
848.85	22640.29
849.03	22580.90
849.20	22517.42
849.38	22494.89
849.56	22337.20
849.73	22310.57
849.91	22288.04
850.08	22539.94
850.26	22476.46
850.43	22625.96
850.61	22400.68
850.78	21948.08
850.96	22064.82
851.14	22329.00
851.31	22353.58
851.49	22048.43
851.66	22599.34
851.84	22105.77
852.01	22085.30
852.19	22144.69
852.36	22116.01
852.54	21927.60
852.71	21995.18
852.89	21819.06
853.07	21884.59
853.24	21956.27
853.42	22066.86
853.59	22032.05
853.77	22179.50
853.94	21941.94
854.12	21980.85
854.29	21540.54
854.47	21706.42
854.64	21612.21
854.82	22015.66
854.99	22181.55
855.17	21565.11
855.34	21745.33
855.52	21561.02
855.69	21851.83
855.87	21630.65
856.04	21450.42
856.22	21241.53
856.39	21401.27
856.57	21630.65
856.74	21368.51
856.92	21499.58
857.09	21382.84
857.27	21345.98
857.44	21434.04
857.62	21274.30
857.79	21249.72
857.97	21460.66
858.14	21173.95
858.32	21143.23
858.49	20967.10
858.67	21124.80
858.84	21034.69
859.02	21186.24
859.19	20874.95
859.37	20981.44
859.54	21006.02
859.72	21126.85
859.89	20981.44
860.06	21069.50
860.24	20872.90
860.41	21100.22
860.59	20637.38
860.76	20688.58
860.94	20747.97
861.11	20989.63
861.29	20713.16
861.46	20635.33
861.64	20498.12
861.81	20618.95
861.98	20602.57
862.16	20707.01
862.33	20217.55
862.51	20350.67
862.68	20481.74
862.86	20221.64
863.03	20393.67
863.21	20410.06
863.38	20385.48
863.55	20403.91
863.73	20524.74
863.90	20238.03
864.08	20430.54
864.25	20451.02
864.43	20432.58
864.60	20354.76
864.77	20119.24
864.95	20408.01
865.12	20029.13
865.30	20289.23
865.47	20190.92
865.64	20324.04
865.82	20307.66
865.99	20297.42
866.17	19838.67
866.34	19990.22
866.51	19789.52
866.69	19955.41
866.86	19826.39
867.04	19676.88
867.21	19853.01
867.38	19926.74
867.56	19693.27
867.73	19701.46
867.91	19599.06
868.08	19678.93
868.25	19472.09
868.43	19441.37
868.60	19420.89
868.78	19625.68
868.95	19652.31
869.12	19234.52
869.30	19470.04
869.47	19631.83
869.64	19191.52
869.82	19302.11
869.99	19400.41
870.16	19386.07
870.34	19343.06
870.51	19719.89
870.69	19226.33
870.86	19408.60
871.03	19298.01
871.21	19119.84
871.38	19058.40
871.55	19101.40
871.73	19048.16
871.90	19205.85
872.07	18849.50
872.25	18845.41
872.42	19074.78
872.59	18960.09
872.77	19031.77
872.94	18765.54
873.11	18714.34
873.29	19107.55
873.46	18820.83
873.63	18634.47
873.81	18814.69
873.98	18593.51
874.15	18667.24
874.33	18392.81
874.50	18276.07
874.67	18314.98
874.85	18357.99
875.02	18421.48
875.19	18282.22
875.37	18093.80
875.54	18239.21
875.71	18155.24
875.88	18097.90
876.06	18087.66
876.23	18118.38
876.40	17915.63
876.58	18028.27
876.75	17981.17
876.92	17721.07
877.10	18138.86
877.27	17981.17
877.44	17860.34
877.61	17684.21
877.79	17911.53
877.96	17956.59
878.13	17719.03
878.31	17645.30
878.48	17692.40
878.65	17526.52
878.82	17286.90
879.00	17727.22
879.17	17633.01
879.34	17497.84
879.51	17506.04
879.69	17315.58
879.86	17536.76
880.03	17348.34
880.21	17276.66
880.38	17237.75
880.55	17368.82
880.72	17110.78
880.90	17342.20
881.07	17235.70
881.24	17354.49
881.41	17352.44
881.59	17065.72
881.76	17149.69
881.93	17204.99
882.10	17221.37
882.28	17190.65
882.45	17100.54
882.62	16850.69
882.79	17313.53
882.96	16883.45
883.14	17006.33
883.31	17024.76
883.48	16752.38
883.65	16723.71
883.83	16844.54
884.00	16924.41
884.17	16627.46
884.34	17213.18
884.51	17028.86
884.69	16903.93
884.86	16559.88
885.03	16910.08
885.20	16860.93
885.38	16697.09
885.55	16572.16
885.72	16779.01
885.89	16525.06
886.06	16680.71
886.24	16594.69
886.41	16420.61
886.58	16645.89
886.75	16559.88
886.92	16600.83
887.10	16621.31
887.27	16520.96
887.44	16541.44
887.61	16750.34
887.78	16375.56
887.95	16531.20
888.13	16326.41
888.30	16025.36
888.47	16248.58
888.64	16404.23
888.81	16291.59
888.99	16240.39
889.16	16037.64
889.33	15894.29
889.50	15980.30
889.67	16117.51
889.84	16047.88
890.01	16207.62
890.19	16008.97
890.36	15871.76
890.53	16211.72
890.70	15914.77
890.87	16019.21
891.04	15836.94
891.22	15873.81
891.39	15734.54
891.56	15849.23
891.73	15720.21
891.90	15705.87
892.07	15646.48
892.24	16101.13
892.42	15679.25
892.59	15769.36
892.76	15425.30
892.93	15650.58
893.10	15619.86
893.27	15613.71
893.44	15355.67
893.61	15425.30
893.79	15558.42
893.96	15310.61
894.13	15656.72
894.30	15830.80
894.47	15472.40
894.64	15640.34
894.81	15410.96
894.98	15701.78
895.15	15628.05
895.33	15290.13
895.50	15484.69
895.67	15615.76
895.84	15593.23
896.01	15441.68
896.18	15093.53
896.35	15529.75
896.52	15478.55
896.69	15339.29
896.86	15390.49
897.04	15572.75
897.21	15697.68
897.38	15431.44
897.55	15310.61
897.72	15421.20
897.89	15257.37
898.06	15220.50
898.23	15355.67
898.40	15548.18
898.57	15402.77
898.74	15427.35
898.91	15222.55
899.08	15406.87
899.26	15470.36
899.43	15556.37
899.60	15382.29
899.77	15320.85
899.94	15288.09
900.11	14984.99
900.28	15191.83
900.45	15310.61
900.62	14935.84
900.79	15539.99
900.96	15193.88
901.13	15372.05
901.30	15277.85
901.47	15281.94
901.64	15394.58
901.81	15189.78
901.98	15220.50
902.15	15388.44
902.32	15093.53
902.49	15560.47
902.66	15623.95
902.83	15357.72
903.01	15081.24
903.18	15224.60
903.35	15298.33
903.52	14917.40
903.69	15562.51
903.86	15447.83
904.03	15234.84
904.20	15496.98
904.37	15365.91
904.54	15179.54
904.71	15337.24
904.88	15154.97
905.05	15015.71
905.22	15109.91
905.39	15400.72
905.56	15259.42
905.73	15089.43
905.90	14952.22
906.07	15468.31
906.24	15175.45
906.41	15343.38
906.58	15191.83
906.75	15136.54
906.92	14962.46
907.09	15359.77
907.26	15339.29
907.43	15171.35
907.60	15134.49
907.77	15370.01
907.93	15435.54
908.10	15283.99
908.27	15101.72
908.44	15109.91
908.61	15085.34
908.78	14964.51
908.95	15208.22
909.12	15093.53
909.29	15232.79
909.46	15146.78
909.63	15404.82
909.80	15259.42
909.97	15142.68
910.14	15222.55
910.31	14976.80
910.48	15152.92
910.65	15228.70
910.82	15083.29
910.99	15128.35
911.16	15224.60
911.33	14894.88
911.50	14782.24
911.66	14954.27
911.83	14788.38
912.00	14794.53
912.17	14774.05
912.34	14948.12
912.51	14702.37
912.68	14722.85
912.85	14649.12
913.02	14778.14
913.19	14724.90
913.36	15030.04
913.53	14745.38
913.70	14722.85
913.86	14888.73
914.03	14616.35
914.20	14493.47
914.37	14757.66
914.54	14579.49
914.71	14452.52
914.88	14466.85
915.05	14282.53
915.22	14343.97
915.39	14495.52
915.55	14427.94
915.72	14319.40
915.89	14325.54
916.06	14262.05
916.23	14292.77
916.40	14102.31
916.57	14047.02
916.74	14229.29
916.91	14272.29
917.07	13868.84
917.24	13926.19
917.41	14116.65
917.58	13684.53
917.75	13809.45
917.92	13782.83
918.09	13805.36
918.26	13762.35
918.42	13985.58
918.59	13862.70
918.76	13719.34
918.93	13432.63
919.10	13496.11
919.27	13344.56
919.44	13662.00
919.60	13586.22
919.77	13477.68
919.94	13371.19
920.11	13438.77
920.28	13461.30
920.45	13336.37
920.61	13231.93
920.78	13236.02
920.95	13336.37
921.12	12994.36
921.29	13211.45
921.46	12922.68
921.62	12918.59
921.79	13123.38
921.96	12934.97
922.13	12885.82
922.30	12898.11
922.47	12812.09
922.63	12676.93
922.80	13025.08
922.97	12826.43
923.14	12398.40
923.31	12650.30
923.47	12627.78
923.64	12404.55
923.81	12500.80
923.98	12345.16
924.15	12457.79
924.32	12244.81
924.48	12281.67
924.65	12433.22
924.82	12343.11
924.99	12212.04
925.15	12085.06
925.32	12105.54
925.49	11931.47
925.66	12017.48
925.83	11849.55
925.99	11691.85
926.16	11964.23
926.33	12056.39
926.50	11714.38
926.67	12042.06
926.83	11663.18
927.00	11558.74
927.17	11478.86
927.34	11482.96
927.50	11501.39
927.67	11634.51
927.84	11364.18
928.01	11323.22
928.17	11073.37
928.34	11110.23
928.51	11130.71
928.68	10960.73
928.84	11151.19
929.01	11052.89
929.18	10954.58
929.35	10903.39
929.51	10876.76
929.68	10811.23
929.85	10813.28
930.02	10817.37
930.18	10633.05
930.35	10737.50
930.52	10651.49
930.69	10631.01
930.85	10645.34
931.02	10344.29
931.19	10456.93
931.36	10309.47
931.52	10432.35
931.69	10370.91
931.86	10348.39
932.02	10489.70
932.19	10444.64
932.36	10168.16
932.53	10157.92
932.69	9963.37
932.86	10192.74
933.03	10090.34
933.19	9930.60
933.36	9801.58
933.53	9971.56
933.70	9826.15
933.86	9734.00
934.03	9625.45
934.20	9437.04
934.36	9600.88
934.53	9439.09
934.70	9359.22
934.86	9267.06
935.03	9203.57
935.20	9191.28
935.36	9213.81
935.53	8982.39
935.70	9084.79
935.86	9080.69
936.03	8742.78
936.20	8867.70
936.36	8662.91
936.53	8761.21
936.70	8636.28
936.86	8720.25
937.03	8597.37
937.20	8521.60
937.36	8468.35
937.53	8265.60
937.70	8087.43
937.86	7862.15
938.03	7835.53
938.20	8054.66
938.36	7937.93
938.53	7835.53
938.70	7507.85
938.86	7716.75
939.03	7479.18
939.20	7321.49
939.36	7419.79
939.53	7184.27
939.70	7321.49
939.86	7018.39
940.03	6932.37
940.19	6856.60
940.36	7018.39
940.53	6915.99
940.69	6909.85
940.86	6754.20
941.03	6713.24
941.19	6342.56
941.36	6502.30
941.52	6444.96
941.69	6299.55
941.86	6268.83
942.02	6256.54
942.19	6176.67
942.35	6164.39
942.52	6219.68
942.69	5910.44
942.85	5969.83
943.02	5857.19
943.18	5760.94
943.35	5728.17
943.52	5777.32
943.68	5765.03
943.85	5705.64
944.01	5679.02
944.18	5521.32
944.35	5642.15
944.51	5623.72
944.68	5463.98
944.84	5390.25
945.01	5547.95
945.17	5658.54
945.34	5535.66
945.51	5547.95
945.67	5281.71
945.84	5427.12
946.00	5326.77
946.17	5326.77
946.33	5322.67
946.50	5382.06
946.67	5337.01
946.83	5427.12
947.00	5259.18
947.16	5244.85
947.33	5203.89
947.49	5298.10
947.66	5148.59
947.82	5285.81
947.99	5210.03
948.16	5390.25
948.32	5201.84
948.49	5283.76
948.65	5402.54
948.82	5337.01
948.98	5207.98
949.15	5050.29
949.31	5355.44
949.48	5214.13
949.64	5248.94
949.81	5277.62
949.97	5195.70
950.14	5375.92
950.30	5150.64
950.47	5310.38
950.63	5294.00
950.80	5316.53
950.96	5232.56
951.13	5296.05
951.30	5375.92
951.46	5279.66
951.63	5490.60
951.79	5406.64
951.96	5537.71
952.12	5205.94
952.29	5377.97
952.45	5167.03
952.62	5382.06
952.78	5310.38
952.94	5384.11
953.11	5363.63
953.27	5224.37
953.44	5429.17
953.60	5441.45
953.77	5482.41
953.93	5404.59
954.10	5337.01
954.26	5445.55
954.43	5285.81
954.59	5486.51
954.76	5484.46
954.92	5394.35
955.09	5533.61
955.25	5427.12
955.42	5543.85
955.58	5582.76
955.75	5365.68
955.91	5341.10
956.07	5416.88
956.24	5517.23
956.40	5437.36
956.57	5408.69
956.73	5326.77
956.90	5582.76
957.06	5461.93
957.23	5451.69
957.39	5384.11
957.56	5337.01
957.72	5337.01
957.88	5230.51
958.05	5556.14
958.21	5488.56
958.38	5459.88
958.54	5500.84
958.71	5504.94
958.87	5410.73
959.03	5332.91
959.20	5525.42
959.36	5298.10
959.53	5406.64
959.69	5287.86
959.85	5474.22
960.02	5306.29
960.18	5324.72
960.35	5355.44
960.51	5482.41
960.68	5353.39
960.84	5461.93
961.00	5324.72
961.17	5418.93
961.33	5461.93
961.50	5699.50
961.66	5451.69
961.82	5423.02
961.99	5398.45
962.15	5197.74
962.31	5277.62
962.48	5191.60
962.64	5418.93
962.81	5312.43
962.97	5404.59
963.13	5558.19
963.30	5367.73
963.46	5316.53
963.62	5242.80
963.79	5150.64
963.95	5199.79
964.12	5318.57
964.28	5367.73
964.44	5124.02
964.61	5351.34
964.77	5375.92
964.93	5443.50
965.10	5357.49
965.26	5191.60
965.42	5318.57
965.59	5412.78
965.75	5343.15
965.92	5210.03
966.08	5250.99
966.24	5296.05
966.41	5253.04
966.57	5345.20
966.73	5345.20
966.90	5187.50
967.06	5218.22
967.22	5042.10
967.39	5154.74
967.55	5171.12
967.71	5318.57
967.88	5027.76
968.04	5164.98
968.20	5111.73
968.37	5085.11
968.53	5033.91
968.69	4997.04
968.85	5099.44
969.02	5119.92
969.18	5216.18
969.34	5156.79
969.51	5126.07
969.67	5091.25
969.83	4829.11
970.00	4970.42
970.16	5089.20
970.32	5058.48
970.48	5119.92
970.65	4919.22
970.81	4804.53
970.97	4935.60
971.14	4794.29
971.30	5068.72
971.46	4859.83
971.63	4937.65
971.79	4900.79
971.95	4851.64
972.11	4757.43
972.28	4894.65
972.44	4820.92
972.60	4822.97
972.76	4788.15
972.93	4708.28
973.09	4829.11
973.25	4964.28
973.42	4794.29
973.58	4648.89
973.74	4779.96
973.90	4868.02
974.07	4693.94
974.23	4784.06
974.39	4736.95
974.55	4726.71
974.72	4802.49
974.88	4540.35
975.04	4695.99
975.20	4657.08
975.37	4622.27
975.53	4745.14
975.69	4677.56
975.85	4597.69
976.01	4605.88
976.18	4478.91
976.34	4558.78
976.50	4564.92
976.66	4722.62
976.83	4550.59
976.99	4534.20
977.15	4523.96
977.31	4372.41
977.47	4665.27
977.64	4499.39
977.80	4495.29
977.96	4364.22
978.12	4480.96
978.29	4317.12
978.45	4460.48
978.61	4337.60
978.77	4417.47
978.93	4315.07
979.10	4302.78
979.26	4370.37
979.42	4376.51
979.58	4179.90
979.74	4253.63
979.91	4313.02
980.07	4259.78
980.23	4200.38
980.39	4298.69
980.55	4259.78
980.71	4145.09
980.88	4212.67
981.04	4112.32
981.20	4208.58
981.36	4145.09
981.52	4108.23
981.68	4093.89
981.85	4321.21
982.01	4065.22
982.17	3989.44
982.33	4089.79
982.49	4274.11
982.65	4014.02
982.82	4040.64
982.98	4184.00
983.14	3944.39
983.30	3844.04
983.46	3968.96
983.62	4153.28
983.79	3919.81
983.95	4032.45
984.11	3817.41
984.27	3960.77
984.43	3917.76
984.59	3885.00
984.75	3971.01
984.91	3938.24
985.08	3950.53
985.24	3786.69
985.40	3751.88
985.56	3762.12
985.72	3835.85
985.88	3721.16
986.04	3706.82
986.20	3645.38
986.37	3796.93
986.53	3727.30
986.69	3725.26
986.85	3837.89
987.01	3663.82
987.17	3727.30
987.33	3624.90
987.49	3534.79
987.65	3620.81
987.82	3594.19
987.98	3538.89
988.14	3608.52
988.30	3600.33
988.46	3622.86
988.62	3461.07
988.78	3493.83
988.94	3446.73
989.10	3379.15
989.26	3352.52
989.42	3418.06
989.59	3473.36
989.75	3399.63
989.91	3379.15
990.07	3252.17
990.23	3444.68
990.39	3377.10
990.55	3461.07
990.71	3221.45
990.87	3616.71
991.03	3407.82
991.19	3133.39
991.35	3219.41
991.51	3416.01
991.67	3428.30
991.83	3211.22
992.00	3319.76
992.16	3291.09
992.32	3272.65
992.48	3291.09
992.64	3219.41
992.80	3205.07
992.96	3098.58
993.12	3217.36
993.28	3231.69
993.44	3078.10
993.60	3176.40
993.76	3084.24
993.92	3203.02
994.08	3303.37
994.24	2996.18
994.40	3108.82
994.56	3121.10
994.72	2897.88
994.88	2977.75
995.04	3080.14
995.20	3102.67
995.36	2994.13
995.52	3174.35
995.68	3057.62
995.84	3035.09
996.00	3164.11
996.16	2822.10
996.32	2879.44
996.48	2973.65
996.64	3104.72
996.80	3033.04
996.96	2990.03
997.12	2881.49
997.28	2844.63
997.44	2844.63
997.60	2936.79
997.76	2824.15
997.92	2791.38
998.08	2895.83
998.24	2779.09
998.40	2783.19
998.56	2727.89
998.72	2668.50
998.88	2803.67
999.04	2660.31
999.20	2809.81
999.36	2705.37
999.52	2901.97
999.68	2719.70
999.84	2680.79
1000.00	2799.57
1000.16	2901.97
1000.32	2455.51
1000.48	2654.17
1000.64	2541.53
1000.80	2537.43
1000.95	2326.49
1001.11	2654.17
1001.27	2637.78
1001.43	2484.19
1001.59	2506.71
1001.75	2420.70
1001.91	2609.11
1002.07	2529.24
1002.23	2392.03
1002.39	2363.36
1002.55	2353.12
1002.71	2320.35
1002.87	2598.87
1003.03	2598.87
1003.19	2455.51
1003.34	2738.13
1003.50	2385.88
1003.66	2514.91
1003.82	2379.74
1003.98	2441.18
1004.14	2676.70
1004.30	2326.49
1004.46	2320.35
1004.62	2543.58
1004.78	2463.71
1004.94	2357.21
1005.09	2383.84
1005.25	2357.21
1005.41	2484.19
1005.57	2207.71
1005.73	2330.59
1005.89	2267.10
1006.05	2367.45
1006.21	2283.49
1006.37	2332.64
1006.52	2123.74
1006.68	2232.29
1006.84	2279.39
1007.00	2207.71
1007.16	2320.35
1007.32	2058.21
1007.48	2199.52
1007.64	2127.84
1007.79	2213.85
1007.95	2211.81
1008.11	2355.16
1008.27	2238.43
1008.43	2189.28
1008.59	2166.75
1008.75	2142.18
1008.91	2170.85
1009.06	2125.79
1009.22	2076.64
1009.38	2183.13
1009.54	2133.98
1009.70	2043.87
1009.86	2181.09
1010.01	2156.51
1010.17	2176.99
1010.33	2142.18
1010.49	2070.50
1010.65	2369.50
1010.81	2103.26
1010.96	2090.98
1011.12	2101.22
1011.28	1902.56
1011.44	2207.71
1011.60	2035.68
1011.76	1951.71
1011.91	2066.40
1012.07	1955.81
1012.23	1929.19
1012.39	2035.68
1012.55	1941.47
1012.71	2060.26
1012.86	1992.67
1013.02	1996.77
1013.18	1933.28
1013.34	1978.34
1013.50	2047.97
1013.65	2017.25
1013.81	2076.64
1013.97	2078.69
1014.13	1933.28
1014.29	1888.23
1014.44	1966.05
1014.60	2025.44
1014.76	1953.76
1014.92	1910.75
1015.07	1898.47
1015.23	1964.00
1015.39	1916.90
1015.55	1949.67
1015.71	1900.52
1015.86	1826.79
1016.02	1957.86
1016.18	1900.52
1016.34	1890.28
1016.49	1839.08
1016.65	1884.13
1016.81	1937.38
1016.97	1939.43
1017.12	1964.00
1017.28	1886.18
1017.44	1751.01
1017.60	1859.56
1017.75	1857.51
1017.91	1943.52
1018.07	1873.89
1018.23	1863.65
1018.38	1798.12
1018.54	1910.75
1018.70	1955.81
1018.86	1775.59
1019.01	1863.65
1019.17	1849.32
1019.33	2066.40
1019.49	1816.55
1019.64	1818.60
1019.80	1810.40
1019.96	1785.83
1020.12	1861.60
1020.27	1804.26
1020.43	1837.03
1020.59	1773.54
1020.74	1957.86
1020.90	1882.08
1021.06	1789.92
1021.22	1865.70
1021.37	1851.36
1021.53	1765.35
1021.69	1802.21
1021.84	1681.38
1022.00	1880.04
1022.16	1906.66
1022.31	1802.21
1022.47	1763.30
1022.63	1822.69
1022.79	1708.01
1022.94	1796.07
1023.10	1894.37
1023.26	1824.74
1023.41	1722.34
1023.57	1693.67
1023.73	1767.40
1023.88	1808.36
1024.04	1675.24
1024.20	1802.21
1024.35	1765.35
1024.51	1816.55
1024.67	1837.03
1024.82	1783.78
1024.98	1728.49
1025.14	1773.54
1025.29	1720.29
1025.45	1705.96
1025.61	1720.29
1025.76	1712.10
1025.92	1730.53
1026.08	1773.54
1026.23	1753.06
1026.39	1826.79
1026.55	1748.97
1026.70	1697.77
1026.86	1767.40
1027.02	1730.53
1027.17	1734.63
1027.33	1691.62
1027.48	1716.20
1027.64	1693.67
1027.80	1730.53
1027.95	1794.02
1028.11	1581.03
1028.27	1691.62
1028.42	1767.40
1028.58	1662.95
1028.73	1624.04
1028.89	1634.28
1029.05	1849.32
1029.20	1730.53
>>>>>End Processed Spectral Data<<<<<
