SpectraSuite Data File
++++++++++++++++++++++++++++++++++++
Date: Fri Jun 02 14:51:10 CEST 2017
User: INFO_000
Dark Spectrum Present: No
Reference Spectrum Present: No
Number of Sampled Component Spectra: 1
Spectrometers: USB4H00879
Integration Time (usec): 80000 (USB4H00879)
Spectra Averaged: 1 (USB4H00879)
Boxcar Smoothing: 0 (USB4H00879)
Correct for Electrical Dark: No (USB4H00879)
Strobe/Lamp Enabled: No (USB4H00879)
Correct for Detector Non-linearity: No (USB4H00879)
Correct for Stray Light: No (USB4H00879)
Number of Pixels in Processed Spectrum: 3648
>>>>>Begin Processed Spectral Data<<<<<
345.13	1310.70
345.34	1310.70
345.56	1310.70
345.78	1232.88
345.99	1263.60
346.21	1767.40
346.42	1699.81
346.64	1652.71
346.86	1798.12
347.07	1624.04
347.29	1703.91
347.50	1626.09
347.72	1648.61
347.94	1783.78
348.15	1548.26
348.37	1642.47
348.59	1720.29
348.80	1609.70
349.02	1865.70
349.23	1834.98
349.45	1839.08
349.67	1892.32
349.88	1877.99
350.10	1937.38
350.31	1798.12
350.53	1826.79
350.75	1957.86
350.96	1728.49
351.18	1871.84
351.39	1804.26
351.61	1767.40
351.82	1855.46
352.04	1923.04
352.26	1769.44
352.47	1867.75
352.69	1935.33
352.90	1777.64
353.12	1826.79
353.34	1925.09
353.55	1947.62
353.77	1888.23
353.98	1845.22
354.20	1841.12
354.41	1880.04
354.63	2025.44
354.85	1994.72
355.06	1898.47
355.28	1794.02
355.49	1904.61
355.71	1974.24
355.92	1904.61
356.14	1935.33
356.35	1939.43
356.57	1877.99
356.79	1920.99
357.00	1837.03
357.22	1931.23
357.43	1785.83
357.65	2041.82
357.86	1812.45
358.08	1871.84
358.29	1994.72
358.51	2047.97
358.72	1943.52
358.94	1894.37
359.16	1896.42
359.37	1920.99
359.59	1953.76
359.80	1955.81
360.02	1945.57
360.23	1931.23
360.45	1877.99
360.66	1877.99
360.88	1875.94
361.09	1912.80
361.31	1943.52
361.52	1955.81
361.74	2033.63
361.95	1984.48
362.17	1968.10
362.38	2060.26
362.60	1992.67
362.81	1865.70
363.03	2027.49
363.24	1996.77
363.46	2043.87
363.67	1982.43
363.89	2004.96
364.10	1937.38
364.32	1951.71
364.53	2033.63
364.75	1857.51
364.96	2025.44
365.18	1990.63
365.39	2011.11
365.61	1970.15
365.82	2129.89
366.04	1947.62
366.25	1976.29
366.47	2064.35
366.68	2025.44
366.90	1959.91
367.11	1980.39
367.33	2043.87
367.54	2088.93
367.76	2080.74
367.97	2076.64
368.19	1982.43
368.40	2090.98
368.62	2023.39
368.83	1959.91
369.05	2019.30
369.26	1964.00
369.48	1953.76
369.69	2002.91
369.91	2084.83
370.12	1994.72
370.33	2199.52
370.55	1951.71
370.76	2062.30
370.98	2176.99
371.19	2029.54
371.41	2050.02
371.62	2023.39
371.84	1968.10
372.05	2179.04
372.27	2002.91
372.48	2105.31
372.69	2023.39
372.91	2076.64
373.12	2164.70
373.34	2105.31
373.55	2113.50
373.77	2228.19
373.98	2107.36
374.20	2162.66
374.41	2152.42
374.62	2072.54
374.84	2150.37
375.05	2240.48
375.27	2156.51
375.48	2021.35
375.70	2140.13
375.91	2220.00
376.12	2254.81
376.34	2095.07
376.55	2082.78
376.77	2166.75
376.98	2056.16
377.19	2131.94
377.41	2111.46
377.62	2154.46
377.84	2197.47
378.05	2265.05
378.27	2115.55
378.48	2346.97
378.69	2383.84
378.91	2287.58
379.12	2209.76
379.34	2133.98
379.55	2357.21
379.76	2154.46
379.98	2234.33
380.19	2211.81
380.41	2263.01
380.62	2238.43
380.83	2308.06
381.05	2189.28
381.26	2310.11
381.47	2250.72
381.69	2248.67
381.90	2389.98
382.12	2293.72
382.33	2213.85
382.54	2306.01
382.76	2232.29
382.97	2215.90
383.19	2238.43
383.40	2320.35
383.61	2328.54
383.83	2172.89
384.04	2273.25
384.25	2334.68
384.47	2281.44
384.68	2303.96
384.89	2220.00
385.11	2303.96
385.32	2312.16
385.54	2271.20
385.75	2330.59
385.96	2338.78
386.18	2439.13
386.39	2371.55
386.60	2297.82
386.82	2473.95
387.03	2383.84
387.24	2422.75
387.46	2412.51
387.67	2375.64
387.88	2424.80
388.10	2443.23
388.31	2389.98
388.52	2449.37
388.74	2516.95
388.95	2408.41
389.16	2455.51
389.38	2385.88
389.59	2557.91
389.80	2494.43
390.02	2559.96
390.23	2510.81
390.44	2422.75
390.66	2502.62
390.87	2547.67
391.08	2553.82
391.30	2709.46
391.51	2539.48
391.72	2584.54
391.94	2602.97
392.15	2574.30
392.36	2525.15
392.58	2494.43
392.79	2605.02
393.00	2557.91
393.22	2684.89
393.43	2697.17
393.64	2797.53
393.85	2736.09
394.07	2637.78
394.28	2510.81
394.49	2731.99
394.71	2795.48
394.92	2731.99
395.13	2680.79
395.35	2670.55
395.56	2682.84
395.77	2725.85
395.98	2781.14
396.20	2772.95
396.41	2758.61
396.62	2844.63
396.84	2707.41
397.05	2656.22
397.26	2654.17
397.47	2944.98
397.69	2682.84
397.90	2971.60
398.11	2813.91
398.32	2848.72
398.54	2863.06
398.75	2832.34
398.96	2834.39
399.18	3018.71
399.39	2897.88
399.60	3084.24
399.81	2883.54
400.03	2813.91
400.24	3205.07
400.45	2959.31
400.66	2971.60
400.88	2844.63
401.09	3223.50
401.30	2973.65
401.51	3096.53
401.73	2959.31
401.94	3153.87
402.15	3125.20
402.36	2965.46
402.58	3104.72
402.79	3082.19
403.00	3205.07
403.21	3129.30
403.43	3188.69
403.64	3291.09
403.85	3100.62
404.06	3254.22
404.27	3121.10
404.49	3188.69
404.70	3149.78
404.91	3254.22
405.12	3196.88
405.34	3186.64
405.55	3332.05
405.76	3243.98
405.97	3141.58
406.19	3297.23
406.40	3231.69
406.61	3272.65
406.82	3297.23
407.03	3258.32
407.25	3200.98
407.46	3399.63
407.67	3241.93
407.88	3327.95
408.09	3243.98
408.31	3217.36
408.52	3325.90
408.73	3366.86
408.94	3264.46
409.15	3377.10
409.37	3407.82
409.58	3440.59
409.79	3469.26
410.00	3452.88
410.21	3375.05
410.43	3450.83
410.64	3321.81
410.85	3481.55
411.06	3549.13
411.27	3583.95
411.48	3510.22
411.70	3467.21
411.91	3528.65
412.12	3602.38
412.33	3524.55
412.54	3567.56
412.76	3518.41
412.97	3596.23
413.18	3342.28
413.39	3444.68
413.60	3512.27
413.81	3608.52
414.03	3555.27
414.24	3612.62
414.45	3786.69
414.66	3489.74
414.87	3612.62
415.08	3618.76
415.30	3553.23
415.51	3807.17
415.72	3649.48
415.93	3645.38
416.14	3717.06
416.35	3606.47
416.56	3614.66
416.78	3643.34
416.99	3792.84
417.20	3686.34
417.41	3715.02
417.62	3653.58
417.83	3833.80
418.04	3727.30
418.26	3729.35
418.47	3825.61
418.68	3917.76
418.89	3796.93
419.10	3993.54
419.31	3758.02
419.52	3885.00
419.73	3903.43
419.95	3837.89
420.16	3760.07
420.37	3870.66
420.58	3932.10
420.79	3653.58
421.00	3942.34
421.21	3999.68
421.42	3856.33
421.63	3944.39
421.85	3977.16
422.06	3909.57
422.27	4114.37
422.48	3930.05
422.69	3948.48
422.90	4016.07
423.11	4011.97
423.32	4077.51
423.53	4294.59
423.75	4089.79
423.96	4216.77
424.17	4241.34
424.38	4358.08
424.59	4300.73
424.80	4337.60
425.01	4165.57
425.22	4235.20
425.43	4157.38
425.64	4509.63
425.85	4370.37
426.06	4386.75
426.28	4313.02
426.49	4241.34
426.70	4349.89
426.91	4456.38
427.12	4583.35
427.33	4345.79
427.54	4313.02
427.75	4571.07
427.96	4536.25
428.17	4409.28
428.38	4607.93
428.59	4618.17
428.80	4515.77
429.01	4612.03
429.23	4571.07
429.44	4759.48
429.65	4628.41
429.86	4644.79
430.07	4548.54
430.28	4726.71
430.49	4853.69
430.70	4870.07
430.91	4853.69
431.12	4870.07
431.33	4820.92
431.54	4908.98
431.75	4890.55
431.96	4833.21
432.17	4870.07
432.38	4947.89
432.59	5072.82
432.80	5111.73
433.01	5216.18
433.22	5255.09
433.43	5140.40
433.64	5124.02
433.85	5001.14
434.06	5230.51
434.27	5101.49
434.49	5189.55
434.70	5371.82
434.91	5255.09
435.12	5281.71
435.33	5187.50
435.54	5406.64
435.75	5019.57
435.96	5193.65
436.17	5193.65
436.38	5427.12
436.59	5443.50
436.80	5384.11
437.01	5482.41
437.22	5539.76
437.43	5408.69
437.64	5244.85
437.85	5529.52
438.06	5609.39
438.27	5347.25
438.48	5580.71
438.69	5556.14
438.90	5599.15
439.11	5580.71
439.32	5769.13
439.53	5744.55
439.74	5638.06
439.95	5744.55
440.16	5707.69
440.37	5705.64
440.57	5568.43
440.78	5853.09
440.99	5812.14
441.20	5846.95
441.41	5826.47
441.62	5803.94
441.83	5599.15
442.04	5955.49
442.25	6002.60
442.46	5937.06
442.67	5986.21
442.88	6356.90
443.09	5967.78
443.30	5959.59
443.51	6156.19
443.72	6242.21
443.93	6109.09
444.14	6272.93
444.35	5992.36
444.56	6150.05
444.77	6287.26
444.98	6248.35
445.19	6301.60
445.40	6242.21
445.61	6209.44
445.81	6442.91
446.02	6248.35
446.23	6229.92
446.44	6170.53
446.65	6391.71
446.86	6277.02
447.07	6385.57
447.28	6727.58
447.49	6461.34
447.70	6367.13
447.91	6533.02
448.12	6516.64
448.33	6668.19
448.54	6549.40
448.74	6598.56
448.95	6586.27
449.16	6522.78
449.37	6877.08
449.58	6610.84
449.79	6793.11
450.00	6653.85
450.21	6815.64
450.42	6866.84
450.63	6793.11
450.84	6776.73
451.05	6889.37
451.25	6741.91
451.46	6952.85
451.67	6961.05
451.88	6985.62
452.09	7008.15
452.30	6860.70
452.51	6940.57
452.72	7178.13
452.93	7378.83
453.13	6915.99
453.34	7040.92
453.55	7122.84
453.76	7012.24
453.97	7374.74
454.18	7196.56
454.39	7262.10
454.60	7249.81
454.81	7184.27
455.01	7384.98
455.22	7171.99
455.43	7374.74
455.64	7466.89
455.85	7616.40
456.06	7665.55
456.27	7421.84
456.48	7458.70
456.68	7868.30
456.89	7602.06
457.10	7858.06
457.31	7726.99
457.52	7655.31
457.73	7888.78
457.94	8069.00
458.14	7722.89
458.35	8095.62
458.56	7899.02
458.77	7870.34
458.98	8062.85
459.19	7847.82
459.39	8095.62
459.60	8114.05
459.81	7997.32
460.02	8077.19
460.23	8050.57
460.44	8441.73
460.65	8255.36
460.85	8357.76
461.06	8296.32
461.27	8228.74
461.48	8507.26
461.69	8691.58
461.89	8261.51
462.10	8509.31
462.31	8368.00
462.52	8513.41
462.73	8621.95
462.94	8646.52
463.14	8687.48
463.35	8531.84
463.56	9111.41
463.77	8857.46
463.98	8722.30
464.18	8916.86
464.39	8941.43
464.60	9095.03
464.81	9113.46
465.02	8841.08
465.23	9453.42
465.43	8992.63
465.64	9437.04
465.85	9213.81
466.06	9195.38
466.27	9695.08
466.47	9342.83
466.68	9416.56
466.89	9199.48
467.10	9461.62
467.30	9387.89
467.51	9633.64
467.72	9746.28
467.93	9547.63
468.14	9824.11
468.34	9998.18
468.55	9936.74
468.76	9946.98
468.97	9779.05
469.17	9973.61
469.38	10282.85
469.59	10260.32
469.80	10100.58
470.01	10360.67
470.21	10377.06
470.42	10420.06
470.63	10491.74
470.84	10381.15
471.04	10497.89
471.25	10622.81
471.46	10501.98
471.67	10962.78
471.87	10739.55
472.08	10876.76
472.29	11128.66
472.50	10610.53
472.70	11044.70
472.91	10930.01
473.12	11030.36
473.33	11122.52
473.53	11396.95
473.74	11337.56
473.95	11487.06
474.16	11458.39
474.36	11749.20
474.57	11988.81
474.78	11837.26
474.99	11728.72
475.19	11654.99
475.40	12017.48
475.61	12326.72
475.81	12246.85
476.02	12283.72
476.23	12386.12
476.44	12611.39
476.64	12574.53
476.85	12758.85
477.06	12818.24
477.27	13012.79
477.47	13084.47
477.68	13074.23
477.89	12971.83
478.09	13307.70
478.30	13266.74
478.51	12998.46
478.71	13492.02
478.92	13549.36
479.13	13389.62
479.34	14051.11
479.54	13717.29
479.75	13756.21
479.96	13877.04
480.16	13868.84
480.37	14114.60
480.58	14151.46
480.78	14343.97
480.99	14401.32
481.20	14642.98
481.41	14540.58
481.61	14634.78
481.82	14896.92
482.03	14788.38
482.23	14966.56
482.44	14927.64
482.65	15097.63
482.85	15247.13
483.06	15263.51
483.27	15210.26
483.47	15376.15
483.68	15503.12
483.89	15640.34
484.09	15617.81
484.30	16035.60
484.51	15933.20
484.71	16119.56
484.92	16189.19
485.13	16461.57
485.33	16140.04
485.54	16221.96
485.75	16561.92
485.95	16686.85
486.16	16832.26
486.37	16807.68
486.57	16729.86
486.78	16953.09
486.98	16934.65
487.19	17094.40
487.40	17247.99
487.60	17280.76
487.81	17635.06
488.02	17405.69
488.22	17626.87
488.43	17946.35
488.64	17852.14
488.84	18155.24
489.05	17835.76
489.25	17886.96
489.46	18353.90
489.67	18214.63
489.87	18450.15
490.08	18659.04
490.29	18300.65
490.49	18865.89
490.70	18765.54
490.90	18769.63
491.11	18923.23
491.32	19214.04
491.52	19234.52
491.73	19095.26
491.94	19218.14
492.14	19082.97
492.35	19633.88
492.55	19715.80
492.76	19576.53
492.97	20025.04
493.17	19908.30
493.38	20063.95
493.58	20221.64
493.79	20080.33
494.00	20381.38
494.20	20070.09
494.41	20467.40
494.61	20682.44
494.82	20514.50
495.02	20371.15
495.23	20891.33
495.44	20901.57
495.64	21018.30
495.85	21065.41
496.05	21270.20
496.26	21153.47
496.47	21315.26
496.67	21309.11
496.88	21413.56
497.08	21573.30
497.29	21628.60
497.49	21503.67
497.70	21771.96
497.91	21788.34
498.11	21786.29
498.32	21927.60
498.52	21900.98
498.73	22326.96
498.93	22390.44
499.14	22296.24
499.34	22308.52
499.55	22634.15
499.76	22427.31
499.96	22703.78
500.17	22662.82
500.37	22953.63
500.58	22541.99
500.78	23076.51
500.99	22931.11
501.19	23039.65
501.40	23058.08
501.60	23025.31
501.81	23183.01
502.02	23246.49
502.22	23000.74
502.43	23187.10
502.63	23291.55
502.84	23367.32
503.04	23361.18
503.25	23561.88
503.45	23535.26
503.66	23766.68
503.86	23608.98
504.07	24237.71
504.27	23891.60
504.48	24120.98
504.68	24125.07
504.89	24186.51
505.09	24581.77
505.30	24180.37
505.50	24512.14
505.71	24243.85
505.91	24225.42
506.12	24526.47
506.32	24653.45
506.53	24370.83
506.73	24852.10
506.94	24667.78
507.14	24710.79
507.35	24764.04
507.55	24481.42
507.76	25091.71
507.96	24972.93
508.17	25126.53
508.37	24774.28
508.58	25364.09
508.78	24696.46
508.99	25421.44
509.19	25251.45
509.40	24968.84
509.60	25441.92
509.81	25439.87
510.01	25454.20
510.22	25415.29
510.42	25437.82
510.63	25450.11
510.83	25794.17
511.04	25708.15
511.24	25599.61
511.44	25613.95
511.65	25726.58
511.85	25781.88
512.06	25656.95
512.26	26107.51
512.47	26050.16
512.67	26044.02
512.88	26277.49
513.08	26052.21
513.29	26107.51
513.49	25970.29
513.69	26310.25
513.90	26222.19
514.10	26285.68
514.31	26101.36
514.51	26345.07
514.72	26527.34
514.92	26281.58
515.13	26369.65
515.33	26553.96
515.53	26414.70
515.74	26474.09
515.94	26818.15
516.15	26517.10
516.35	26306.16
516.56	26703.46
516.76	26842.73
516.96	26478.19
517.17	27000.42
517.37	27029.09
517.58	26803.82
517.78	26922.60
517.99	27115.11
518.19	27194.98
518.39	27350.62
518.60	27367.01
518.80	27453.02
519.01	27147.87
519.21	27553.37
519.41	27465.31
519.62	27190.88
519.82	27639.39
520.03	27629.15
520.23	27641.43
520.43	27385.44
520.64	27749.98
520.84	27930.20
521.05	27737.69
521.25	27883.09
521.45	27780.70
521.66	28100.18
521.86	27975.25
522.07	27960.92
522.27	28053.08
522.47	28345.94
522.68	28270.16
522.88	28208.72
523.08	28745.29
523.29	28401.23
523.49	28546.64
523.70	28763.72
523.90	28937.80
524.10	28565.07
524.31	28925.51
524.51	28634.70
524.71	29138.50
524.92	28978.76
525.12	29253.19
525.33	29222.47
525.53	29261.38
525.73	29320.77
525.94	29326.91
526.14	29599.29
526.34	29455.93
526.55	29437.50
526.75	29371.97
526.95	30146.10
527.16	29699.64
527.36	29926.97
527.56	29902.39
527.77	30228.02
527.97	29740.60
528.17	30193.20
528.38	30002.74
528.58	30152.24
528.78	30180.92
528.99	30113.33
529.19	30897.70
529.39	30105.14
529.60	30764.59
529.80	30545.45
530.00	30443.06
530.21	30725.68
530.41	30963.24
530.61	30602.80
530.82	31245.86
531.02	31145.51
531.22	31190.56
531.43	31323.68
531.63	31464.99
531.83	31591.97
532.04	31886.87
532.24	31743.52
532.44	32093.72
532.64	32099.86
532.85	32040.47
533.05	32126.49
533.25	32038.42
533.46	32146.97
533.66	32597.52
533.86	32337.43
534.07	32880.14
534.27	32587.28
534.47	32923.15
534.67	32955.91
534.88	32912.91
535.08	32855.56
535.28	33046.02
535.49	32972.30
535.69	33179.14
535.89	33166.85
536.09	33568.26
536.30	33930.75
536.50	33367.55
536.70	33754.62
536.91	33668.61
537.11	33652.22
537.31	34041.34
537.51	33623.55
537.72	34151.93
537.92	34356.72
538.12	34547.18
538.32	34305.52
538.53	34332.15
538.73	34428.40
538.93	34594.29
539.13	34493.94
539.34	34801.13
539.54	34600.43
539.74	35057.13
539.94	34903.53
540.15	35104.23
540.35	35184.10
540.55	35249.64
540.75	35319.27
540.96	35540.45
541.16	35483.11
541.36	35583.46
541.56	35532.26
541.77	36249.05
541.97	35597.79
542.17	36154.84
542.37	36091.35
542.58	35866.08
542.78	35784.16
542.98	35837.41
543.18	36191.70
543.38	36582.87
543.59	36685.26
543.79	36378.07
543.99	36638.16
544.19	36617.68
544.40	36562.39
544.60	37035.47
544.80	37076.43
545.00	36601.30
545.20	37350.85
545.41	37322.18
545.61	37146.06
545.81	37684.67
546.01	37463.49
546.21	37287.37
546.42	37291.46
546.62	37791.17
546.82	37631.43
547.02	37473.73
547.22	37973.44
547.43	37868.99
547.63	37957.05
547.83	38405.56
548.03	37647.81
548.23	38229.43
548.44	38335.93
548.64	38354.36
548.84	38438.33
549.04	38385.08
549.24	38325.69
549.45	38432.18
549.65	38790.58
549.85	38882.73
550.05	39181.74
550.25	38512.05
550.45	39321.00
550.66	39341.48
550.86	38970.80
551.06	39513.51
551.26	39214.51
551.46	39353.77
551.66	39595.43
551.87	39249.32
552.07	39298.47
552.27	39425.45
552.47	39730.59
552.67	39521.70
552.87	39300.52
553.07	39769.51
553.28	39876.00
553.48	40134.04
553.68	39890.34
553.88	40428.95
554.08	39832.99
554.28	39910.82
554.48	40222.11
554.69	40316.31
554.89	40293.79
555.09	40641.94
555.29	40181.15
555.49	40828.30
555.69	40713.62
555.89	40467.86
556.10	40732.05
556.30	40600.98
556.50	40576.40
556.70	40920.46
556.90	41305.48
557.10	40934.80
557.30	40756.63
557.50	41254.28
557.70	41082.25
557.91	41596.29
558.11	41368.97
558.31	41872.77
558.51	41635.20
558.71	41944.45
558.91	41751.94
559.11	41604.49
559.31	41579.91
559.51	41528.71
559.72	41745.80
559.92	41921.92
560.12	41561.48
560.32	41889.15
560.52	42020.22
560.72	41971.07
560.92	41905.54
561.12	41979.26
561.32	42487.16
561.52	42147.20
561.72	42708.34
561.93	42196.35
562.13	42149.24
562.33	42259.84
562.53	43085.17
562.73	42108.29
562.93	42139.00
563.13	42530.17
563.33	42403.19
563.53	42657.14
563.73	42020.22
563.93	42587.51
564.13	43195.76
564.33	42728.82
564.53	43128.17
564.74	43033.97
564.94	42620.28
565.14	42859.89
565.34	42607.99
565.54	42960.24
565.74	43158.89
565.94	43427.18
566.14	42980.72
566.34	43068.78
566.54	43330.92
566.74	42956.14
566.94	42997.10
567.14	43500.90
567.34	43265.39
567.54	43341.16
567.74	43050.35
567.94	43529.58
568.14	43961.70
568.34	43830.63
568.54	43488.62
568.74	44176.73
568.94	43586.92
569.14	44166.49
569.34	43492.71
569.54	43861.35
569.75	43369.83
569.95	44078.43
570.15	44168.54
570.35	43844.96
570.55	43740.52
570.75	44211.55
570.95	44037.47
571.15	44186.97
571.35	44105.06
571.55	44713.30
571.75	44154.21
571.95	44408.15
572.15	44250.46
572.35	44617.05
572.55	44500.31
572.75	44391.77
572.95	44662.10
573.15	44461.40
573.35	44571.99
573.55	44148.06
573.75	44279.13
573.95	44389.72
574.15	44254.56
574.35	44391.77
574.55	44496.22
574.75	44387.67
574.95	44766.55
575.15	44733.78
575.34	45178.19
575.54	45208.91
575.74	45237.58
575.94	45159.76
576.14	45053.26
576.34	45397.32
576.54	45374.80
576.74	45315.40
576.94	45129.04
577.14	45528.39
577.34	45421.90
577.54	45170.00
577.74	45337.93
577.94	45380.94
578.14	45497.67
578.34	45530.44
578.54	45339.98
578.74	45401.42
578.94	45671.75
579.14	45454.67
579.34	45299.02
579.54	45782.34
579.74	46019.91
579.94	45997.38
580.13	46226.75
580.33	45487.43
580.53	45712.71
580.73	46021.95
580.93	45847.88
581.13	45589.83
581.33	46228.80
581.53	46318.91
581.73	45983.04
581.93	46101.82
582.13	46464.32
582.33	46232.89
582.53	46431.55
582.73	46271.81
582.92	46144.83
583.12	46884.15
583.32	46599.48
583.52	46304.57
583.72	46861.62
583.92	46658.87
584.12	46566.71
584.32	47154.48
584.52	46419.26
584.72	46998.83
584.92	46570.81
585.11	47252.78
585.31	46937.40
585.51	46753.08
585.71	47043.89
585.91	46816.57
586.11	46789.94
586.31	46982.45
586.51	46736.69
586.71	47291.69
586.91	47330.61
587.10	47160.62
587.30	47322.41
587.50	47539.50
587.70	46961.97
587.90	47084.85
588.10	47324.46
588.30	47299.89
588.50	47252.78
588.69	47437.10
588.89	47103.28
589.09	47445.29
589.29	47230.26
589.49	47645.99
589.69	47207.73
589.89	47664.42
590.08	47719.72
590.28	47390.00
590.48	48002.34
590.68	47246.64
590.88	47842.60
591.08	47809.83
591.28	47594.79
591.47	47916.32
591.67	47844.65
591.87	47422.76
592.07	47656.23
592.27	47594.79
592.47	47865.13
592.67	47889.70
592.86	47510.83
593.06	47883.56
593.26	47942.95
593.46	47717.67
593.66	48395.55
593.86	47734.06
594.05	48074.02
594.25	48422.17
594.45	48071.97
594.65	47637.80
594.85	47746.34
595.05	48469.28
595.24	48383.26
595.44	48133.41
595.64	48287.01
595.84	48477.47
596.04	48373.02
596.23	48315.68
596.43	48164.13
596.63	48755.99
596.83	48405.79
597.03	48641.31
597.22	48796.95
597.42	48467.23
597.62	48782.62
597.82	48440.60
598.02	48839.96
598.21	48825.62
598.41	48528.67
598.61	48663.83
598.81	48653.59
599.01	49071.38
599.20	49018.13
599.40	48870.68
599.60	48854.29
599.80	49067.28
600.00	48805.14
600.19	49151.25
600.39	49167.63
600.59	49538.32
600.79	49206.55
600.98	49061.14
601.18	49362.19
601.38	49290.51
601.58	49517.84
601.78	49591.56
601.97	49077.52
602.17	49632.52
602.37	49673.48
602.57	49411.34
602.76	49730.83
602.96	49020.18
603.16	49759.50
603.36	49726.73
603.55	49876.23
603.75	49765.64
603.95	50042.12
604.15	49816.84
604.34	49943.81
604.54	50435.33
604.74	50087.17
604.94	50232.58
605.13	49919.24
605.33	50158.85
605.53	50253.06
605.73	50386.18
605.92	50144.51
606.12	50314.50
606.32	50402.56
606.52	50369.79
606.71	50357.50
606.91	50650.36
607.11	50341.12
607.30	50509.05
607.50	50388.22
607.70	50728.19
607.90	50304.26
608.09	50863.35
608.29	50607.36
608.49	50857.21
608.68	50640.12
608.88	51010.81
609.08	50728.19
609.28	51002.61
609.47	50371.84
609.67	51186.93
609.87	50644.22
610.06	50861.30
610.26	50935.03
610.46	50746.62
610.66	51072.24
610.85	51133.68
611.05	51274.99
611.25	51176.69
611.44	50810.10
611.64	51205.36
611.84	51582.19
612.03	50715.90
612.23	51033.33
612.43	51119.35
612.62	50824.44
612.82	51510.51
613.02	51410.16
613.21	51455.21
613.41	50965.75
613.61	51264.75
613.80	50750.71
614.00	51354.86
614.20	51852.52
614.39	51193.07
614.59	51334.38
614.79	51735.79
614.98	51006.71
615.18	51617.00
615.38	51772.65
615.57	51115.25
615.77	52073.70
615.97	51602.67
616.16	51418.35
616.36	51737.83
616.56	51889.38
616.75	51598.57
616.95	51584.24
617.15	51424.50
617.34	51547.37
617.54	51684.59
617.74	51760.36
617.93	51819.75
618.13	51565.81
618.32	51709.16
618.52	51557.61
618.72	51428.59
618.91	51639.53
619.11	51428.59
619.31	51617.00
619.50	51940.58
619.70	51584.24
619.90	51442.93
620.09	51811.56
620.29	51801.32
620.48	51832.04
620.68	52122.85
620.88	51184.88
621.07	52016.36
621.27	51922.15
621.46	51569.90
621.66	52174.05
621.86	51823.85
622.05	51844.33
622.25	52049.13
622.44	51868.90
622.64	51543.28
622.84	52065.51
623.03	51885.29
623.23	52077.80
623.42	51825.90
623.62	52221.16
623.82	52094.18
624.01	52266.21
624.21	52249.83
624.40	51696.88
624.60	51811.56
624.80	52253.92
624.99	52221.16
625.19	52141.28
625.38	52174.05
625.58	52335.84
625.77	52442.34
625.97	52315.36
626.17	52057.32
626.36	52311.27
626.56	52778.20
626.75	51330.29
626.95	52131.04
627.14	52122.85
627.34	52761.82
627.54	52212.96
627.73	52169.96
627.93	52464.86
628.12	52620.51
628.32	52458.72
628.51	52694.24
628.71	51856.62
628.90	52475.10
629.10	52227.30
629.30	52516.06
629.49	52716.76
629.69	52237.54
629.88	51997.93
630.08	52733.15
630.27	52663.52
630.47	52829.40
630.66	52516.06
630.86	52659.42
631.05	52419.81
631.25	53044.44
631.44	52765.91
631.64	52798.68
631.84	52540.64
632.03	53402.83
632.23	52602.08
632.42	53183.70
632.62	52729.05
632.81	52731.10
633.01	52788.44
633.20	53515.47
633.40	53048.53
633.59	53384.40
633.79	53183.70
633.98	53499.09
634.18	52858.07
634.37	53249.24
634.57	52999.38
634.76	53359.83
634.96	53327.06
635.15	53298.39
635.35	52991.19
635.54	53357.78
635.74	53406.93
635.93	53427.41
636.13	53744.84
636.32	53626.06
636.52	53175.51
636.71	53363.92
636.91	53521.62
637.10	53593.29
637.30	53521.62
637.49	53615.82
637.69	53593.29
637.88	54035.66
638.08	53441.74
638.27	53968.07
638.46	53955.78
638.66	53394.64
638.85	53753.04
639.05	53916.87
639.24	53742.80
639.44	53621.97
639.63	53664.97
639.83	53867.72
640.02	53439.70
640.22	53941.45
640.41	54254.79
640.61	53705.93
640.80	53767.37
640.99	53890.25
641.19	54537.41
641.38	53978.31
641.58	54502.59
641.77	54097.09
641.97	54002.89
642.16	53953.74
642.36	54428.87
642.55	54865.08
642.74	53890.25
642.94	54795.45
643.13	54004.94
643.33	54369.47
643.52	54662.33
643.72	54600.89
643.91	54303.94
644.10	54355.14
644.30	55039.16
644.49	54592.70
644.69	54547.65
644.88	55016.63
645.08	54201.54
645.27	54314.18
645.46	54539.46
645.66	54854.84
645.85	54297.80
646.05	54705.34
646.24	54834.36
646.43	54971.58
646.63	54539.46
646.82	55188.66
647.02	54846.65
647.21	55399.60
647.40	54951.10
647.60	55645.36
647.79	55137.46
647.99	55444.66
648.18	54795.45
648.37	55682.22
648.57	55624.88
648.76	55121.08
648.96	55194.81
649.15	55475.38
649.34	55522.48
649.54	55508.14
649.73	55256.24
649.92	55598.26
650.12	55393.46
650.31	55739.57
650.51	55600.30
650.70	55551.15
650.89	55346.36
651.09	56278.18
651.28	55952.55
651.47	55784.62
651.67	55921.83
651.86	56444.07
652.06	55286.96
652.25	56042.66
652.44	55645.36
652.64	55309.49
652.83	55616.69
653.02	55012.54
653.22	55667.89
653.41	55534.77
653.60	55403.70
653.80	55063.74
653.99	55889.07
654.18	55882.92
654.38	55725.23
654.57	55801.00
654.76	55909.55
654.96	55653.55
655.15	55844.01
655.34	55798.96
655.54	55289.01
655.73	55727.28
655.92	56128.68
656.12	56220.84
656.31	55858.35
656.50	55917.74
656.70	56165.54
656.89	55811.24
657.08	56239.27
657.28	56366.24
657.47	55694.51
657.66	56249.51
657.86	56196.26
658.05	56392.87
658.24	56145.06
658.43	55952.55
658.63	55997.61
658.82	56394.92
659.01	56235.17
659.21	56333.48
659.40	56392.87
659.59	56335.52
659.79	56554.66
659.98	56300.71
660.17	56562.85
660.36	56245.41
660.56	56020.14
660.75	56364.20
660.94	56865.95
661.14	56106.15
661.33	55997.61
661.52	56128.68
661.71	56288.42
661.91	55680.17
662.10	55981.23
662.29	56661.15
662.49	56329.38
662.68	56079.53
662.87	56401.06
663.06	56792.22
663.26	56183.97
663.45	56603.81
663.64	56353.96
663.83	56226.98
664.03	56843.42
664.22	56161.45
664.41	56173.73
664.60	56267.94
664.80	55899.31
664.99	55981.23
665.18	56186.02
665.37	56358.05
665.57	56358.05
665.76	56263.85
665.95	56276.13
666.14	56153.26
666.34	56612.00
666.53	56425.64
666.72	55872.68
666.91	55977.13
667.11	56079.53
667.30	56136.87
667.49	56016.04
667.68	55696.56
667.87	55995.56
668.07	56128.68
668.26	56247.46
668.45	56085.67
668.64	55694.51
668.84	56530.08
669.03	56458.40
669.22	56130.73
669.41	56247.46
669.60	56290.47
669.80	55981.23
669.99	55997.61
670.18	56026.28
670.37	56011.95
670.57	55874.73
670.76	56321.19
670.95	56065.19
671.14	55966.89
671.33	55506.10
671.53	56530.08
671.72	56358.05
671.91	56132.78
672.10	55903.40
672.29	56181.93
672.48	55585.97
672.68	56464.55
672.87	55256.24
673.06	56245.41
673.25	55663.79
673.44	55817.39
673.64	55596.21
673.83	55317.68
674.02	55764.14
674.21	55182.52
674.40	56128.68
674.59	55434.42
674.79	55622.83
674.98	55403.70
675.17	55520.43
675.36	55422.13
675.55	55338.16
675.74	55014.58
675.94	55143.61
676.13	55803.05
676.32	56007.85
676.51	56095.91
676.70	55811.24
676.89	55610.54
677.08	55094.46
677.28	55280.82
677.47	55710.89
677.66	55473.33
677.85	55442.61
678.04	55637.17
678.23	55794.86
678.42	55952.55
678.62	55092.41
678.81	55196.85
679.00	55456.95
679.19	55653.55
679.38	55454.90
679.57	55430.32
679.76	55379.12
679.96	55139.51
680.15	55241.91
680.34	55084.22
680.53	55200.95
680.72	55338.16
680.91	55143.61
681.10	54977.72
681.29	55432.37
681.48	55215.29
681.68	54938.81
681.87	54576.32
682.06	55088.31
682.25	54869.18
682.44	54938.81
682.63	54903.99
682.82	54482.11
683.01	54688.96
683.20	54566.08
683.39	54371.52
683.59	54283.46
683.78	54570.18
683.97	54629.57
684.16	54523.07
684.35	54162.63
684.54	54772.92
684.73	53953.74
684.92	54254.79
685.11	53947.59
685.30	54301.89
685.49	54580.42
685.69	54172.87
685.88	54058.18
686.07	54553.79
686.26	54109.38
686.45	54138.05
686.64	54191.30
686.83	54154.44
687.02	54090.95
687.21	54365.38
687.40	54297.80
687.59	54471.87
687.78	54222.02
687.97	54158.53
688.16	53765.32
688.35	53644.49
688.54	53888.20
688.74	53734.60
688.93	53576.91
689.12	53943.50
689.31	53794.00
689.50	53816.52
689.69	53361.87
689.88	53355.73
690.07	53576.91
690.26	53675.21
690.45	53816.52
690.64	53619.92
690.83	53355.73
691.02	53097.69
691.21	52901.08
691.40	53161.17
691.59	53185.75
691.78	53470.42
691.97	53558.48
692.16	53195.99
692.35	52884.70
692.54	53155.03
692.73	52954.33
692.92	53490.90
693.11	53140.69
693.30	52798.68
693.49	53134.55
693.68	52544.73
693.87	52727.00
694.06	52915.42
694.25	52425.95
694.44	52876.51
694.63	52796.63
694.82	52847.83
695.01	52772.06
695.20	53048.53
695.39	52565.21
695.58	52208.87
695.77	52421.86
695.96	52446.43
696.15	52516.06
696.34	52100.32
696.53	52352.23
696.72	52448.48
696.91	52352.23
697.10	52458.72
697.29	52462.82
697.48	52288.74
697.67	51924.20
697.86	51854.57
698.05	51870.95
698.24	52309.22
698.43	51369.20
698.62	51598.57
698.81	51580.14
699.00	52294.88
699.19	51725.55
699.38	51758.31
699.57	51184.88
699.76	51854.57
699.95	51754.22
700.14	51588.33
700.32	51565.81
700.51	51414.26
700.70	51825.90
700.89	51846.38
701.08	51895.53
701.27	51379.44
701.46	51729.64
701.65	50726.14
701.84	51649.77
702.03	51567.85
702.22	51033.33
702.41	50951.41
702.60	51023.09
702.79	51166.45
702.98	51019.00
703.17	51305.71
703.35	50967.80
703.54	50941.17
703.73	51393.78
703.92	50930.93
704.11	51094.77
704.30	50513.15
704.49	50877.69
704.68	50500.86
704.87	50730.23
705.06	50541.82
705.25	50332.93
705.43	50117.89
705.62	50746.62
705.81	50529.53
706.00	50617.60
706.19	50308.35
706.38	50425.09
706.57	50312.45
706.76	50031.88
706.95	50212.10
707.14	50275.58
707.32	49911.05
707.51	49607.95
707.70	50185.47
707.89	49861.90
708.08	50099.46
708.27	49984.77
708.46	50578.68
708.65	49949.96
708.84	50609.40
709.02	50177.28
709.21	50001.16
709.40	49691.91
709.59	49974.53
709.78	49583.37
709.97	49970.44
710.16	49362.19
710.34	49765.64
710.53	49831.18
710.72	49495.31
710.91	49661.19
711.10	49845.51
711.29	49818.89
711.48	49759.50
711.66	49458.45
711.85	49511.69
712.04	49159.44
712.23	49491.21
712.42	49736.97
712.61	49427.73
712.80	49132.82
712.98	49526.03
713.17	49284.37
713.36	49413.39
713.55	49141.01
713.74	49372.43
713.93	49091.86
714.11	49081.62
714.30	48788.76
714.49	48956.69
714.68	49186.07
714.87	49276.18
715.06	48852.25
715.24	48880.92
715.43	48676.12
715.62	48432.41
715.81	48842.01
716.00	48606.49
716.18	48424.22
716.37	48307.49
716.56	48252.19
716.75	49042.71
716.94	48219.42
717.12	48071.97
717.31	48987.41
717.50	48264.48
717.69	48403.74
717.88	48211.23
718.06	47871.27
718.25	48495.90
718.44	48026.92
718.63	48049.44
718.82	48139.55
719.00	48252.19
719.19	48028.96
719.38	48254.24
719.57	47828.26
719.76	47553.83
719.94	47236.40
720.13	47437.10
720.32	47488.30
720.51	47744.30
720.69	47473.96
720.88	47838.50
721.07	47719.72
721.26	47117.62
721.44	47465.77
721.63	47447.34
721.82	47226.16
722.01	46943.54
722.20	47088.95
722.38	47166.77
722.57	46261.57
722.76	47002.93
722.95	46880.05
723.13	46912.82
723.32	46910.77
723.51	46892.34
723.70	46464.32
723.88	46454.08
724.07	46499.13
724.26	46683.45
724.44	46177.60
724.63	46583.10
724.82	46564.67
725.01	46454.08
725.19	46738.74
725.38	46503.23
725.57	46083.39
725.76	46239.04
725.94	46441.79
726.13	46349.63
726.32	46077.25
726.51	46138.69
726.69	46642.49
726.88	46347.58
727.07	46454.08
727.25	46163.26
727.44	46112.06
727.63	46101.82
727.82	45946.18
728.00	46603.58
728.19	45854.02
728.38	46456.12
728.56	45858.12
728.75	46267.71
728.94	46011.71
729.12	45901.12
729.31	46169.41
729.50	45841.73
729.69	46449.98
729.87	46089.54
730.06	45862.21
730.25	45909.32
730.43	46470.46
730.62	45540.68
730.81	46355.77
730.99	46155.07
731.18	46099.78
731.37	46019.91
731.55	46224.70
731.74	46368.06
731.93	46126.40
732.11	46101.82
732.30	46286.14
732.49	45995.33
732.67	45905.22
732.86	45880.64
733.05	45954.37
733.23	46030.15
733.42	46073.15
733.61	45958.47
733.79	46175.55
733.98	46271.81
734.17	45960.51
734.35	45874.50
734.54	46202.18
734.73	46114.11
734.91	46159.17
735.10	46175.55
735.29	46290.24
735.47	45835.59
735.66	46013.76
735.84	46013.76
736.03	45653.32
736.22	45937.99
736.40	45700.42
736.59	45976.90
736.78	45739.33
736.96	45835.59
737.15	46024.00
737.33	45976.90
737.52	45681.99
737.71	45837.64
737.89	45655.37
738.08	45647.18
738.27	45479.24
738.45	45968.71
738.64	45737.29
738.82	45725.00
739.01	45698.37
739.20	45466.95
739.38	46060.87
739.57	45794.63
739.75	46011.71
739.94	45540.68
740.13	45808.96
740.31	45452.62
740.50	45331.79
740.68	45487.43
740.87	45735.24
741.06	45677.90
741.24	45776.20
741.43	45391.18
741.61	45471.05
741.80	45071.70
741.99	45149.52
742.17	45256.01
742.36	45442.38
742.54	44723.54
742.73	45227.34
742.91	45509.96
743.10	45329.74
743.29	45417.80
743.47	45180.24
743.66	45274.45
743.84	45720.90
744.03	45630.79
744.21	44803.41
744.40	45190.48
744.59	45157.71
744.77	44821.84
744.96	44993.87
745.14	45331.79
745.33	45348.17
745.51	45299.02
745.70	45116.75
745.88	45141.33
746.07	45315.40
746.26	44778.84
746.44	45036.88
746.63	45020.50
746.81	44924.24
747.00	44535.13
747.18	44905.81
747.37	44914.00
747.55	44844.37
747.74	45118.80
747.92	44752.21
748.11	44598.62
748.29	44887.38
748.48	44817.75
748.66	44639.57
748.85	44741.97
749.03	44488.03
749.22	44758.36
749.41	44590.42
749.59	44328.28
749.78	44420.44
749.96	44387.67
750.15	44344.67
750.33	44320.09
750.52	44522.84
750.70	44492.12
750.89	44545.37
751.07	44299.61
751.26	44717.40
751.44	44311.90
751.63	44393.82
751.81	44211.55
752.00	44000.61
752.18	44533.08
752.37	44191.07
752.55	43943.27
752.74	44197.21
752.92	43750.76
753.10	43668.84
753.29	43898.21
753.47	44178.78
753.66	43455.85
753.84	43502.95
754.03	44223.84
754.21	43828.58
754.40	43894.11
754.58	44043.62
754.77	43752.80
754.95	43502.95
755.14	43384.17
755.32	43775.33
755.51	43533.67
755.69	43353.45
755.88	44115.29
756.06	43677.03
756.24	43435.37
756.43	43681.13
756.61	43533.67
756.80	43965.79
756.98	43529.58
757.17	43353.45
757.35	43410.79
757.54	43230.57
757.72	43492.71
757.90	43285.87
758.09	43175.28
758.27	43322.73
758.46	43060.59
758.64	43210.09
758.83	43560.30
759.01	43433.32
759.19	43492.71
759.38	43287.92
759.56	43744.61
759.75	43570.54
759.93	43064.69
760.12	43158.89
760.30	43279.72
760.48	43101.55
760.67	43005.30
760.85	43169.13
761.04	43099.50
761.22	43394.41
761.40	42583.41
761.59	43087.21
761.77	43140.46
761.96	43083.12
762.14	42902.90
762.32	42900.85
762.51	42849.65
762.69	42700.15
762.88	42569.08
763.06	42638.71
763.24	43128.17
763.43	42718.58
763.61	42786.16
763.80	42610.04
763.98	42519.93
764.16	42558.84
764.35	42585.46
764.53	42130.81
764.72	42687.86
764.90	42198.40
765.08	42556.79
765.27	42452.34
765.45	42171.77
765.63	41799.04
765.82	42612.09
766.00	41907.58
766.18	42415.48
766.37	42505.59
766.55	41975.17
766.74	41878.91
766.92	41975.17
767.10	41758.08
767.29	41809.28
767.47	41942.40
767.65	41799.04
767.84	41827.71
768.02	41743.75
768.20	41459.08
768.39	41756.03
768.57	41692.55
768.75	41690.50
768.94	42001.79
769.12	41710.98
769.30	41465.22
769.49	41534.85
769.67	41325.96
769.85	41151.88
770.04	41342.35
770.22	41151.88
770.40	41043.34
770.59	41330.06
770.77	41399.69
770.95	41088.40
771.14	41223.56
771.32	40621.46
771.50	40730.00
771.69	40891.79
771.87	41047.44
772.05	40859.02
772.24	40691.09
772.42	41137.55
772.60	40732.05
772.78	40654.23
772.97	40408.47
773.15	40830.35
773.33	40474.01
773.52	40615.32
773.70	40830.35
773.88	41022.86
774.07	40711.57
774.25	40791.44
774.43	41115.02
774.61	40785.30
774.80	40768.91
774.98	40609.17
775.16	40633.75
775.34	40455.57
775.53	40453.53
775.71	40785.30
775.89	40678.80
776.08	40662.42
776.26	41104.78
776.44	41020.81
776.62	40426.90
776.81	40848.78
776.99	40826.26
777.17	41186.70
777.35	40793.49
777.54	41141.64
777.72	40678.80
777.90	40926.61
778.08	41397.64
778.27	40957.33
778.45	41334.15
778.63	41500.04
778.81	40932.75
779.00	41512.33
779.18	41401.74
779.36	41749.89
779.54	40947.09
779.73	41260.43
779.91	41321.87
780.09	41352.58
780.27	41661.83
780.46	41444.74
780.64	41452.94
780.82	41397.64
781.00	40936.85
781.19	41495.94
781.37	41422.22
781.55	41311.63
781.73	41641.35
781.91	41659.78
782.10	41581.96
782.28	41661.83
782.46	41657.73
782.64	41964.93
782.82	41297.29
783.01	41600.39
783.19	41631.11
783.37	41530.76
783.55	41731.46
783.74	42231.16
783.92	41377.16
784.10	42157.44
784.28	41452.94
784.46	41604.49
784.64	41674.12
784.83	41663.88
785.01	41719.17
785.19	41686.40
785.37	41581.96
785.55	41489.80
785.74	41645.44
785.92	41530.76
786.10	41440.65
786.28	41532.81
786.46	41287.05
786.64	41328.01
786.83	41532.81
787.01	41452.94
787.19	41516.42
787.37	41422.22
787.55	41119.12
787.74	41065.87
787.92	41485.70
788.10	41164.17
788.28	40695.19
788.46	41354.63
788.64	41088.40
788.82	41473.42
789.01	41299.34
789.19	41305.48
789.37	40973.71
789.55	41076.11
789.73	40537.49
789.91	40715.67
790.09	40893.84
790.28	40916.37
790.46	40156.57
790.64	40547.73
790.82	40646.04
791.00	40451.48
791.18	40185.24
791.36	40230.30
791.55	40420.76
791.73	40250.78
791.91	39785.89
792.09	40220.06
792.27	39439.78
792.45	40025.50
792.63	40148.38
792.81	39603.62
793.00	39478.69
793.18	39490.98
793.36	39728.55
793.54	39425.45
793.72	39206.31
793.90	39499.17
794.08	39028.14
794.26	38970.80
794.44	38542.77
794.62	38591.92
794.81	38749.62
794.99	38880.69
795.17	39091.63
795.35	38737.33
795.53	38751.66
795.71	38743.47
795.89	38159.80
796.07	38024.64
796.25	37873.09
796.43	38178.23
796.61	38057.40
796.80	37897.66
796.98	38165.95
797.16	37789.12
797.34	37713.34
797.52	37729.73
797.70	37508.55
797.88	37408.20
798.06	37701.06
798.24	37590.47
798.42	37109.19
798.60	37234.12
798.78	37211.59
798.96	36935.12
799.14	36722.13
799.32	36781.52
799.51	36750.80
799.69	36865.49
799.87	36355.54
800.05	36505.04
800.23	36505.04
800.41	36507.09
800.59	36273.62
800.77	36511.19
800.95	35980.76
801.13	35921.37
801.31	35935.71
801.49	36023.77
801.67	35911.13
801.85	35773.92
802.03	35642.85
802.21	35288.55
802.39	35276.26
802.57	35571.17
802.75	35352.04
802.93	35175.91
803.11	35327.46
803.29	35270.12
803.47	34872.81
803.65	34913.77
803.83	35147.24
804.01	34639.34
804.19	34465.27
804.37	34577.90
804.55	34477.55
804.73	34702.83
804.91	34360.82
805.09	34457.07
805.27	34127.35
805.45	34596.34
805.63	34285.04
805.81	33793.53
805.99	33906.17
806.17	34323.96
806.35	34160.12
806.53	33721.85
806.71	34078.20
806.89	33764.86
807.07	33420.80
807.25	33875.45
807.43	33388.03
807.61	33650.17
807.79	33474.05
807.97	32751.12
808.15	32869.90
808.33	33121.80
808.51	32873.99
808.69	32884.23
808.87	32716.30
809.05	32767.50
809.23	32773.64
809.41	32364.05
809.59	32810.51
809.77	32622.09
809.95	32269.84
810.13	32581.13
810.31	32736.78
810.49	32673.29
810.67	32255.51
810.84	32226.84
811.02	32349.71
811.20	31952.41
811.38	32054.81
811.56	32019.99
811.74	31874.59
811.92	31735.32
812.10	31542.81
812.28	31757.85
812.46	31751.71
812.64	32040.47
812.82	31278.63
813.00	31151.65
813.18	31309.35
813.36	31112.74
813.53	30957.10
813.71	31278.63
813.89	31092.26
814.07	31030.82
814.25	30803.50
814.43	30869.03
814.61	30606.89
814.79	30813.74
814.97	30584.37
815.15	30787.11
815.33	30260.79
815.50	30391.86
815.68	30303.79
815.86	30676.52
816.04	30262.83
816.22	30338.61
816.40	30103.09
816.58	30268.98
816.76	29947.45
816.94	29898.30
817.11	29754.94
817.29	30381.62
817.47	30015.03
817.65	29613.63
817.83	29734.46
818.01	29535.81
818.19	29441.60
818.37	29666.88
818.54	29562.43
818.72	29255.23
818.90	29632.06
819.08	29646.40
819.26	29328.96
819.44	29281.86
819.62	29208.13
819.80	29224.51
819.97	28964.42
820.15	28894.79
820.33	28819.02
820.51	28857.93
820.69	28501.58
820.87	28778.06
821.05	29349.44
821.22	28599.88
821.40	28816.97
821.58	28468.81
821.76	28442.19
821.94	28503.63
822.12	28493.39
822.29	28544.59
822.47	28593.74
822.65	28597.84
822.83	28411.47
823.01	28474.96
823.19	28245.58
823.36	27926.10
823.54	27635.29
823.72	28171.86
823.90	27985.49
824.08	27797.08
824.25	27971.16
824.43	27743.83
824.61	27592.28
824.79	27760.22
824.97	27577.95
825.15	27866.71
825.32	27663.96
825.50	27393.63
825.68	27428.45
825.86	27692.63
826.04	27680.35
826.21	27362.91
826.39	27528.80
826.57	27233.89
826.75	27225.70
826.93	27174.50
827.10	27127.39
827.28	27254.37
827.46	27059.81
827.64	26992.23
827.81	27096.67
827.99	27100.77
828.17	27004.52
828.35	26611.31
828.53	26963.56
828.70	26885.73
828.88	26484.33
829.06	26394.22
829.24	26707.56
829.41	26539.63
829.59	26592.87
829.77	26582.63
829.95	26637.93
830.12	26465.90
830.30	26412.65
830.48	26625.64
830.66	26058.35
830.84	26424.94
831.01	26144.37
831.19	26324.59
831.37	26222.19
831.55	26078.83
831.72	26119.79
831.90	25960.05
832.08	26150.51
832.25	26170.99
832.43	25783.93
832.61	25876.09
832.79	25628.28
832.96	25415.29
833.14	25656.95
833.32	25988.72
833.50	25994.87
833.67	25763.45
833.85	25476.73
834.03	25331.33
834.20	25603.71
834.38	25534.07
834.56	25706.10
834.74	25294.46
834.91	25634.42
835.09	25386.62
835.27	25237.12
835.44	25052.80
835.62	24645.26
835.80	24972.93
835.98	25187.97
836.15	25079.43
836.33	25134.72
836.51	25212.54
836.68	25056.90
836.86	25013.89
837.04	25130.62
837.21	24909.44
837.39	25142.91
837.57	24747.65
837.75	24942.21
837.92	24716.93
838.10	24788.61
838.28	24581.77
838.45	24596.10
838.63	24493.71
838.81	24413.84
838.98	24645.26
839.16	24217.23
839.34	23963.28
839.51	24276.62
839.69	24161.94
839.87	24118.93
840.04	24163.98
840.22	24219.28
840.40	24340.11
840.57	24233.61
840.75	24141.46
840.93	23758.49
841.10	24086.16
841.28	24243.85
841.46	23957.14
841.63	24247.95
841.81	23719.57
841.98	23813.78
842.16	23676.57
842.34	23920.28
842.51	23692.95
842.69	24159.89
842.87	23793.30
843.04	23862.93
843.22	23633.56
843.40	23801.49
843.57	23703.19
843.75	23709.33
843.92	23625.37
844.10	23578.26
844.28	23502.49
844.45	23555.74
844.63	23654.04
844.81	23148.19
844.98	23500.44
845.16	23238.30
845.33	23373.47
845.51	23363.23
845.69	22941.35
845.86	23193.25
846.04	22849.19
846.21	23058.08
846.39	22884.00
846.57	22871.72
846.74	23090.85
846.92	22935.20
847.09	22943.39
847.27	22650.53
847.45	22922.91
847.62	22974.11
847.80	23146.14
847.97	22625.96
848.15	22691.49
848.32	22455.98
848.50	22718.12
848.68	22400.68
848.85	22451.88
849.03	22576.81
849.20	22308.52
849.38	22648.49
849.56	22566.57
849.73	22544.04
849.91	22294.19
850.08	22734.50
850.26	22318.76
850.43	22353.58
850.61	21974.70
850.78	22195.89
850.96	22060.72
851.14	21862.07
851.31	22050.48
851.49	22054.58
851.66	22204.08
851.84	22093.49
852.01	22281.90
852.19	22052.53
852.36	21790.39
852.54	21986.99
852.71	22034.10
852.89	21958.32
853.07	21923.51
853.24	21681.85
853.42	21948.08
853.59	21700.28
853.77	21974.70
853.94	22116.01
854.12	21692.08
854.29	21571.25
854.47	21647.03
854.64	21702.32
854.82	21538.49
854.99	21288.64
855.17	21599.93
855.34	21206.72
855.52	21530.30
855.69	21628.60
855.87	21081.79
856.04	21038.78
856.22	21298.88
856.39	21253.82
856.57	21694.13
856.74	21057.21
856.92	21395.13
857.09	21022.40
857.27	21032.64
857.44	21466.81
857.62	20819.65
857.79	20975.30
857.97	21161.66
858.14	21153.47
858.32	20860.61
858.49	21016.26
858.67	20776.64
858.84	20973.25
859.02	20756.16
859.19	20725.44
859.37	20768.45
859.54	20582.09
859.72	20866.75
859.89	20616.90
860.06	20774.60
860.24	20494.02
860.41	20883.14
860.59	20246.22
860.76	20799.17
860.94	20350.67
861.11	20686.53
861.29	20696.77
861.46	20623.05
861.64	20436.68
861.81	20317.90
861.98	20641.48
862.16	20252.36
862.33	19910.35
862.51	20297.42
862.68	20264.65
862.86	19783.38
863.03	20424.39
863.21	20254.41
863.38	20133.58
863.55	20078.29
863.73	20063.95
863.90	20125.39
864.08	19871.44
864.25	19791.57
864.43	20152.01
864.60	19687.12
864.77	19801.81
864.95	19715.80
865.12	19508.95
865.30	19713.75
865.47	19875.54
865.64	19697.36
865.82	19551.96
865.99	19801.81
866.17	19752.66
866.34	19619.54
866.51	19355.35
866.69	19748.56
866.86	19703.51
867.04	19412.70
867.21	19402.46
867.38	19388.12
867.56	19230.43
867.73	19082.97
867.91	19218.14
868.08	19412.70
868.25	19054.30
868.43	18898.66
868.60	18900.70
868.78	18962.14
868.95	19328.73
869.12	19017.44
869.30	19179.23
869.47	19048.16
869.64	18796.26
869.82	18865.89
869.99	18921.18
870.16	19125.98
870.34	18960.09
870.51	19080.92
870.69	18808.54
870.86	18794.21
871.03	18894.56
871.21	18654.95
871.38	18845.41
871.55	18632.42
871.73	18562.79
871.90	18472.68
872.07	18448.10
872.25	18411.24
872.42	18480.87
872.59	18441.96
872.77	18652.90
872.94	18519.78
873.11	18450.15
873.29	18411.24
873.46	18265.83
873.63	18163.43
873.81	18028.27
873.98	17782.51
874.15	17991.41
874.33	17825.52
874.50	17960.69
874.67	17964.78
874.85	17952.49
875.02	18112.24
875.19	17665.78
875.37	18099.95
875.54	17688.31
875.71	17608.44
875.88	17704.69
876.06	17669.87
876.23	17475.32
876.40	17495.80
876.58	17575.67
876.75	17643.25
876.92	17286.90
877.10	17553.14
877.27	17528.56
877.44	17198.84
877.61	17385.21
877.79	17336.06
877.96	17264.38
878.13	17065.72
878.31	17235.70
878.48	17082.11
878.65	17039.10
878.82	17071.87
879.00	16987.90
879.17	17229.56
879.34	17137.40
879.51	16862.97
879.69	16828.16
879.86	16676.61
880.03	16606.98
880.21	16887.55
880.38	16834.30
880.55	17000.19
880.72	16744.19
880.90	16635.65
881.07	16647.94
881.24	16809.73
881.41	16662.27
881.59	16748.29
881.76	16783.10
881.93	16523.01
882.10	16604.93
882.28	16299.78
882.45	16570.12
882.62	16232.20
882.79	16568.07
882.96	16408.33
883.14	16256.78
883.31	16375.56
883.48	16301.83
883.65	16344.84
883.83	16346.89
884.00	16447.24
884.17	16119.56
884.34	16529.16
884.51	16152.33
884.69	16240.39
884.86	16017.16
885.03	16301.83
885.20	16209.67
885.38	16264.97
885.55	15935.24
885.72	16078.60
885.89	16015.12
886.06	16105.23
886.24	15963.92
886.41	15906.57
886.58	16203.53
886.75	16226.06
886.92	16027.40
887.10	16049.93
887.27	15847.18
887.44	16084.75
887.61	16144.14
887.78	16008.97
887.95	15992.59
888.13	15929.10
888.30	15544.08
888.47	15714.06
888.64	15775.50
888.81	15742.74
888.99	15542.03
889.16	15681.30
889.33	15634.19
889.50	15288.09
889.67	15505.17
889.84	15601.43
890.01	15585.04
890.19	15460.12
890.36	15531.80
890.53	15453.97
890.70	15255.32
890.87	15468.31
891.04	15392.53
891.22	15527.70
891.39	15294.23
891.56	15138.58
891.73	15214.36
891.90	15122.20
892.07	14999.32
892.24	15232.79
892.42	14956.32
892.59	15154.97
892.76	14958.36
892.93	15144.73
893.10	15111.96
893.27	15011.61
893.44	14798.62
893.61	14925.60
893.79	15189.78
893.96	14882.59
894.13	15140.63
894.30	15052.57
894.47	14970.65
894.64	15062.81
894.81	15071.00
894.98	15261.46
895.15	15052.57
895.33	14984.99
895.50	14698.27
895.67	14995.23
895.84	15011.61
896.01	14868.25
896.18	14853.92
896.35	15056.67
896.52	14941.98
896.69	14800.67
896.86	14991.13
897.04	15019.80
897.21	14976.80
897.38	14827.29
897.55	14827.29
897.72	15025.95
897.89	14860.06
898.06	14653.22
898.23	14559.01
898.40	14839.58
898.57	14909.21
898.74	14935.84
898.91	14792.48
899.08	14774.05
899.26	14759.71
899.43	14837.53
899.60	14524.19
899.77	14847.77
899.94	14931.74
900.11	14554.91
900.28	14995.23
900.45	14692.13
900.62	14681.89
900.79	14905.12
900.96	14841.63
901.13	14751.52
901.30	14675.74
901.47	14618.40
901.64	14864.16
901.81	14882.59
901.98	14577.44
902.15	14808.86
902.32	14673.70
902.49	14817.05
902.66	14630.69
902.83	14827.29
903.01	14585.63
903.18	14845.73
903.35	14778.14
903.52	14720.80
903.69	14802.72
903.86	14923.55
904.03	14862.11
904.20	14665.50
904.37	14759.71
904.54	14714.66
904.71	14640.93
904.88	14755.61
905.05	14438.18
905.22	14638.88
905.39	14864.16
905.56	14718.75
905.73	14798.62
905.90	14919.45
906.07	14751.52
906.24	14520.10
906.41	14827.29
906.58	14939.93
906.75	14751.52
906.92	14526.24
907.09	14712.61
907.26	14628.64
907.43	14442.28
907.60	14536.48
907.77	14774.05
907.93	14724.90
908.10	14657.31
908.27	14788.38
908.44	14464.80
908.61	14567.20
908.78	14460.71
908.95	14454.56
909.12	14493.47
909.29	14636.83
909.46	14642.98
909.63	14559.01
909.80	14655.26
909.97	14602.02
910.14	14614.30
910.31	14499.62
910.48	14757.66
910.65	14544.67
910.82	14491.43
910.99	14534.43
911.16	14391.08
911.33	14481.19
911.50	14337.83
911.66	14499.62
911.83	14493.47
912.00	14294.82
912.17	14163.75
912.34	14163.75
912.51	14450.47
912.68	14401.32
912.85	14436.13
913.02	14255.91
913.19	14171.94
913.36	14397.22
913.53	14114.60
913.70	14235.43
913.86	14221.10
914.03	14221.10
914.20	14018.35
914.37	14241.57
914.54	14030.63
914.71	14255.91
914.88	14085.93
915.05	13889.32
915.22	13954.86
915.39	13950.76
915.55	13969.19
915.72	13791.02
915.89	13883.18
916.06	13770.54
916.23	13578.03
916.40	13559.60
916.57	13662.00
916.74	13641.52
916.91	13688.62
917.07	13500.21
917.24	13604.66
917.41	13379.38
917.58	13487.92
917.75	13528.88
917.92	13354.80
918.09	13492.02
918.26	13360.95
918.42	13506.35
918.59	13399.86
918.76	13266.74
918.93	13168.44
919.10	12965.69
919.27	13012.79
919.44	12879.68
919.60	13293.37
919.77	13078.33
919.94	12871.48
920.11	13338.42
920.28	12980.03
920.45	12887.87
920.61	12574.53
920.78	12871.48
920.95	12767.04
921.12	12814.14
921.29	12703.55
921.46	12607.30
921.62	12619.58
921.79	12570.43
921.96	12687.17
922.13	12545.86
922.30	12431.17
922.47	12349.25
922.63	12617.54
922.80	12156.74
922.97	12220.23
923.14	12017.48
923.31	12353.35
923.47	11974.47
923.64	12365.64
923.81	12175.17
923.98	12005.19
924.15	11941.71
924.32	12138.31
924.48	12101.45
924.65	11982.67
924.82	11923.27
924.99	11816.78
925.15	11505.49
925.32	11910.99
925.49	11671.37
925.66	11589.46
925.83	11497.30
925.99	11536.21
926.16	11509.58
926.33	11523.92
926.50	11253.59
926.67	11636.56
926.83	11310.93
927.00	11300.69
927.17	11155.29
927.34	11157.33
927.50	11149.14
927.67	11317.08
927.84	11128.66
928.01	11241.30
928.17	10985.30
928.34	10991.45
928.51	10979.16
928.68	10927.96
928.84	10829.66
929.01	10612.57
929.18	10651.49
929.35	10780.51
929.51	10514.27
929.68	10526.56
929.85	10508.13
930.02	10547.04
930.18	10391.39
930.35	10465.12
930.52	10477.41
930.69	10473.31
930.85	10370.91
931.02	10252.13
931.19	10309.47
931.36	10073.96
931.52	10266.47
931.69	10325.86
931.86	10143.59
932.02	10131.30
932.19	10063.72
932.36	9875.31
932.53	9777.00
932.69	9801.58
932.86	9973.61
933.03	9830.25
933.19	9578.35
933.36	9873.26
933.53	9764.72
933.70	9799.53
933.86	9537.39
934.03	9535.34
934.20	9324.40
934.36	9590.64
934.53	9131.89
934.70	9230.20
934.86	9168.76
935.03	9066.36
935.20	9049.97
935.36	8992.63
935.53	9013.11
935.70	8843.13
935.86	8775.55
936.03	8658.81
936.20	8601.47
936.36	8624.00
936.53	8521.60
936.70	8480.64
936.86	8521.60
937.03	8165.25
937.20	8081.28
937.36	8253.31
937.53	7989.13
937.70	7905.16
937.86	7909.26
938.03	7874.44
938.20	7921.54
938.36	7737.23
938.53	7858.06
938.70	7311.25
938.86	7583.63
939.03	7313.30
939.20	7196.56
939.36	7217.04
939.53	7104.40
939.70	7276.43
939.86	6795.16
940.03	6924.18
940.19	6606.75
940.36	6827.93
940.53	6811.54
940.69	6573.98
940.86	6731.67
941.03	6420.38
941.19	6416.29
941.36	6502.30
941.52	6369.18
941.69	6254.50
941.86	6234.02
942.02	6238.11
942.19	6148.00
942.35	6143.91
942.52	6051.75
942.69	6000.55
942.85	5967.78
943.02	5885.86
943.18	5791.66
943.35	5826.47
943.52	5783.46
943.68	5795.75
943.85	5691.31
944.01	5670.83
944.18	5597.10
944.35	5580.71
944.51	5337.01
944.68	5390.25
944.84	5437.36
945.01	5488.56
945.17	5425.07
945.34	5377.97
945.51	5234.61
945.67	5412.78
945.84	5500.84
946.00	5369.77
946.17	5496.75
946.33	5380.01
946.50	5400.49
946.67	5306.29
946.83	5302.19
947.00	5480.36
947.16	5242.80
947.33	5306.29
947.49	5361.58
947.66	5306.29
947.82	5267.38
947.99	5271.47
948.16	5296.05
948.32	5271.47
948.49	5263.28
948.65	5388.21
948.82	5308.34
948.98	5302.19
949.15	5296.05
949.31	5461.93
949.48	5310.38
949.64	5275.57
949.81	5246.90
949.97	5367.73
950.14	5502.89
950.30	5244.85
950.47	5226.42
950.63	5304.24
950.80	5363.63
950.96	5222.32
951.13	5236.66
951.30	5361.58
951.46	5416.88
951.63	5451.69
951.79	5357.49
951.96	5484.46
952.12	5441.45
952.29	5443.50
952.45	5250.99
952.62	5443.50
952.78	5359.53
952.94	5404.59
953.11	5453.74
953.27	5238.70
953.44	5398.45
953.60	5537.71
953.77	5496.75
953.93	5449.64
954.10	5390.25
954.26	5476.27
954.43	5398.45
954.59	5449.64
954.76	5521.32
954.92	5431.21
955.09	5308.34
955.25	5302.19
955.42	5482.41
955.58	5509.04
955.75	5500.84
955.91	5537.71
956.07	5388.21
956.24	5509.04
956.40	5449.64
956.57	5494.70
956.73	5552.04
956.90	5474.22
957.06	5445.55
957.23	5427.12
957.39	5506.99
957.56	5523.37
957.72	5480.36
957.88	5296.05
958.05	5568.43
958.21	5689.26
958.38	5328.81
958.54	5625.77
958.71	5633.96
958.87	5515.18
959.03	5468.08
959.20	5441.45
959.36	5478.32
959.53	5447.60
959.69	5396.40
959.85	5418.93
960.02	5341.10
960.18	5490.60
960.35	5529.52
960.51	5576.62
960.68	5527.47
960.84	5459.88
961.00	5420.97
961.17	5447.60
961.33	5498.80
961.50	5431.21
961.66	5607.34
961.82	5550.00
961.99	5513.13
962.15	5509.04
962.31	5425.07
962.48	5339.05
962.64	5517.23
962.81	5429.17
962.97	5382.06
963.13	5449.64
963.30	5382.06
963.46	5433.26
963.62	5451.69
963.79	5363.63
963.95	5310.38
964.12	5414.83
964.28	5484.46
964.44	5253.04
964.61	5531.56
964.77	5359.53
964.93	5425.07
965.10	5425.07
965.26	5380.01
965.42	5394.35
965.59	5367.73
965.75	5412.78
965.92	5410.73
966.08	5347.25
966.24	5271.47
966.41	5310.38
966.57	5369.77
966.73	5334.96
966.90	5339.05
967.06	5199.79
967.22	5255.09
967.39	5267.38
967.55	5160.88
967.71	5136.31
967.88	5189.55
968.04	5267.38
968.20	5257.14
968.37	5156.79
968.53	5138.35
968.69	5179.31
968.85	5289.90
969.02	5205.94
969.18	5255.09
969.34	5189.55
969.51	5111.73
969.67	5160.88
969.83	5140.40
970.00	5253.04
970.16	5056.43
970.32	5017.52
970.48	5218.22
970.65	5031.86
970.81	5062.58
970.97	5040.05
971.14	4882.36
971.30	5205.94
971.46	5089.20
971.63	5105.59
971.79	5068.72
971.95	4970.42
972.11	4900.79
972.28	5042.10
972.44	4970.42
972.60	4917.17
972.76	5085.11
972.93	4843.45
973.09	5007.28
973.25	4984.76
973.42	4927.41
973.58	4929.46
973.74	4962.23
973.90	4900.79
974.07	4878.26
974.23	4966.32
974.39	4853.69
974.55	4886.45
974.72	4849.59
974.88	4675.51
975.04	4976.56
975.20	4779.96
975.37	4745.14
975.53	4700.09
975.69	4853.69
975.85	4724.66
976.01	4677.56
976.18	4743.10
976.34	4702.14
976.50	4859.83
976.66	4820.92
976.83	4640.70
976.99	4667.32
977.15	4786.10
977.31	4575.16
977.47	4782.01
977.64	4630.46
977.80	4638.65
977.96	4589.50
978.12	4757.43
978.29	4667.32
978.45	4591.55
978.61	4661.18
978.77	4698.04
978.93	4620.22
979.10	4593.59
979.26	4386.75
979.42	4650.94
979.58	4458.43
979.74	4616.12
979.91	4511.68
980.07	4415.42
980.23	4458.43
980.39	4450.24
980.55	4499.39
980.71	4327.36
980.88	4382.65
981.04	4425.66
981.20	4321.21
981.36	4380.61
981.52	4523.96
981.68	4407.23
981.85	4589.50
982.01	4317.12
982.17	4351.93
982.33	4323.26
982.49	4335.55
982.65	4296.64
982.82	4401.08
982.98	4368.32
983.14	4265.92
983.30	4319.17
983.46	4308.93
983.62	4298.69
983.79	4194.24
983.95	4143.04
984.11	4192.19
984.27	4120.51
984.43	4179.90
984.59	4204.48
984.75	4214.72
984.91	4270.01
985.08	4239.30
985.24	4206.53
985.40	4081.60
985.56	4095.94
985.72	4143.04
985.88	4143.04
986.04	4071.36
986.20	4034.50
986.37	4179.90
986.53	4032.45
986.69	4048.83
986.85	3962.82
987.01	4042.69
987.17	4048.83
987.33	4014.02
987.49	4011.97
987.65	4059.07
987.82	4042.69
987.98	3997.64
988.14	3854.28
988.30	4073.41
988.46	3870.66
988.62	3950.53
988.78	3692.49
988.94	3903.43
989.10	3874.76
989.26	3897.28
989.42	3948.48
989.59	3758.02
989.75	3796.93
989.91	3907.52
990.07	3764.17
990.23	3885.00
990.39	3823.56
990.55	3887.04
990.71	3762.12
990.87	3796.93
991.03	3796.93
991.19	3700.68
991.35	3745.73
991.51	3770.31
991.67	3821.51
991.83	3733.45
992.00	3854.28
992.16	3690.44
992.32	3715.02
992.48	3786.69
992.64	3770.31
992.80	3723.21
992.96	3657.67
993.12	3659.72
993.28	3594.19
993.44	3631.05
993.60	3645.38
993.76	3667.91
993.92	3680.20
994.08	3770.31
994.24	3684.30
994.40	3661.77
994.56	3608.52
994.72	3567.56
994.88	3512.27
995.04	3598.28
995.20	3549.13
995.36	3622.86
995.52	3620.81
995.68	3608.52
995.84	3534.79
996.00	3637.19
996.16	3534.79
996.32	3463.12
996.48	3366.86
996.64	3514.31
996.80	3452.88
996.96	3506.12
997.12	3481.55
997.28	3336.14
997.44	3471.31
997.60	3416.01
997.76	3342.28
997.92	3373.00
998.08	3387.34
998.24	3295.18
998.40	3385.29
998.56	3487.69
998.72	3338.19
998.88	3387.34
999.04	3264.46
999.20	3366.86
999.36	3209.17
999.52	3424.20
999.68	3330.00
999.84	3358.67
1000.00	3241.93
1000.16	3239.89
1000.32	3170.26
1000.48	3375.05
1000.64	3094.48
1000.80	3176.40
1000.95	3143.63
1001.11	3270.61
1001.27	3186.64
1001.43	3246.03
1001.59	3143.63
1001.75	3233.74
1001.91	3217.36
1002.07	3096.53
1002.23	3133.39
1002.39	3262.41
1002.55	3139.54
1002.71	3020.75
1002.87	3291.09
1003.03	3125.20
1003.19	3104.72
1003.34	3149.78
1003.50	3172.30
1003.66	3076.05
1003.82	3090.38
1003.98	3104.72
1004.14	3071.95
1004.30	2985.94
1004.46	3047.38
1004.62	3063.76
1004.78	3067.86
1004.94	3065.81
1005.09	3039.19
1005.25	3094.48
1005.41	3055.57
1005.57	3028.95
1005.73	3006.42
1005.89	2893.78
1006.05	2938.84
1006.21	3022.80
1006.37	2932.69
1006.52	2883.54
1006.68	3012.56
1006.84	2998.23
1007.00	2926.55
1007.16	3076.05
1007.32	2826.20
1007.48	2889.68
1007.64	2914.26
1007.79	2998.23
1007.95	2807.77
1008.11	2912.21
1008.27	2914.26
1008.43	2848.72
1008.59	2840.53
1008.75	2916.31
1008.91	2807.77
1009.06	2783.19
1009.22	2809.81
1009.38	2836.44
1009.54	2828.24
1009.70	2811.86
1009.86	2738.13
1010.01	2820.05
1010.17	2758.61
1010.33	2738.13
1010.49	2805.72
1010.65	2869.20
1010.81	2785.24
1010.96	2738.13
1011.12	2619.35
1011.28	2670.55
1011.44	2826.20
1011.60	2748.37
1011.76	2762.71
1011.91	2830.29
1012.07	2623.45
1012.23	2584.54
1012.39	2594.78
1012.55	2656.22
1012.71	2713.56
1012.86	2639.83
1013.02	2699.22
1013.18	2521.05
1013.34	2658.26
1013.50	2662.36
1013.65	2650.07
1013.81	2586.58
1013.97	2588.63
1014.13	2512.86
1014.29	2588.63
1014.44	2615.26
1014.60	2602.97
1014.76	2576.34
1014.92	2635.74
1015.07	2648.02
1015.23	2641.88
1015.39	2531.29
1015.55	2545.63
1015.71	2588.63
1015.86	2531.29
1016.02	2473.95
1016.18	2467.80
1016.34	2551.77
1016.49	2535.39
1016.65	2590.68
1016.81	2453.47
1016.97	2502.62
1017.12	2508.76
1017.28	2459.61
1017.44	2375.64
1017.60	2424.80
1017.75	2467.80
1017.91	2457.56
1018.07	2363.36
1018.23	2490.33
1018.38	2441.18
1018.54	2400.22
1018.70	2475.99
1018.86	2336.73
1019.01	2430.94
1019.17	2439.13
1019.33	2488.28
1019.49	2457.56
1019.64	2404.32
1019.80	2402.27
1019.96	2428.89
1020.12	2414.56
1020.27	2340.83
1020.43	2359.26
1020.59	2441.18
1020.74	2400.22
1020.90	2402.27
1021.06	2275.29
1021.22	2353.12
1021.37	2410.46
1021.53	2250.72
1021.69	2467.80
1021.84	2232.29
1022.00	2330.59
1022.16	2265.05
1022.31	2283.49
1022.47	2416.60
1022.63	2355.16
1022.79	2236.38
1022.94	2254.81
1023.10	2344.92
1023.26	2332.64
1023.41	2299.87
1023.57	2246.62
1023.73	2359.26
1023.88	2281.44
1024.04	2248.67
1024.20	2224.09
1024.35	2359.26
1024.51	2187.23
1024.67	2334.68
1024.82	2346.97
1024.98	2179.04
1025.14	2240.48
1025.29	2193.37
1025.45	2217.95
1025.61	2115.55
1025.76	2129.89
1025.92	2199.52
1026.08	2289.63
1026.23	2138.08
1026.39	2263.01
1026.55	2220.00
1026.70	2203.61
1026.86	2138.08
1027.02	2185.18
1027.17	2154.46
1027.33	2162.66
1027.48	2148.32
1027.64	2146.27
1027.80	2101.22
1027.95	2174.94
1028.11	2031.58
1028.27	2213.85
1028.42	2183.13
1028.58	2078.69
1028.73	2086.88
1028.89	2121.70
1029.05	2183.13
1029.20	2189.28
>>>>>End Processed Spectral Data<<<<<
