SpectraSuite Data File
++++++++++++++++++++++++++++++++++++
Date: Fri Jun 02 14:51:09 CEST 2017
User: INFO_000
Dark Spectrum Present: No
Reference Spectrum Present: No
Number of Sampled Component Spectra: 1
Spectrometers: USB4H00879
Integration Time (usec): 80000 (USB4H00879)
Spectra Averaged: 1 (USB4H00879)
Boxcar Smoothing: 0 (USB4H00879)
Correct for Electrical Dark: No (USB4H00879)
Strobe/Lamp Enabled: No (USB4H00879)
Correct for Detector Non-linearity: No (USB4H00879)
Correct for Stray Light: No (USB4H00879)
Number of Pixels in Processed Spectrum: 3648
>>>>>Begin Processed Spectral Data<<<<<
345.13	1265.64
345.34	1265.64
345.56	1265.64
345.78	1349.61
345.99	1294.32
346.21	1697.77
346.42	1714.15
346.64	1601.51
346.86	1742.82
347.07	1630.18
347.29	1708.01
347.50	1578.98
347.72	1640.42
347.94	1708.01
348.15	1558.50
348.37	1619.94
348.59	1691.62
348.80	1658.85
349.02	1757.16
349.23	1908.71
349.45	1847.27
349.67	1894.37
349.88	1863.65
350.10	1908.71
350.31	1849.32
350.53	1830.88
350.75	1918.95
350.96	1787.88
351.18	1847.27
351.39	1851.36
351.61	1873.89
351.82	1914.85
352.04	1931.23
352.26	1871.84
352.47	1904.61
352.69	1894.37
352.90	1732.58
353.12	1923.04
353.34	1843.17
353.55	1972.19
353.77	1875.94
353.98	1808.36
354.20	1816.55
354.41	1884.13
354.63	1886.18
354.85	2035.68
355.06	1794.02
355.28	1847.27
355.49	1783.78
355.71	1941.47
355.92	1904.61
356.14	1916.90
356.35	1910.75
356.57	1798.12
356.79	1861.60
357.00	1884.13
357.22	1953.76
357.43	1877.99
357.65	1984.48
357.86	1920.99
358.08	1920.99
358.29	1920.99
358.51	1984.48
358.72	2050.02
358.94	1923.04
359.16	1871.84
359.37	1929.19
359.59	2007.01
359.80	1966.05
360.02	1933.28
360.23	1920.99
360.45	2056.16
360.66	1810.40
360.88	1931.23
361.09	2004.96
361.31	1970.15
361.52	1888.23
361.74	1986.53
361.95	1980.39
362.17	1959.91
362.38	2007.01
362.60	1994.72
362.81	2007.01
363.03	1890.28
363.24	2029.54
363.46	2033.63
363.67	1998.82
363.89	1996.77
364.10	1957.86
364.32	1992.67
364.53	2033.63
364.75	1884.13
364.96	2093.02
365.18	1941.47
365.39	1966.05
365.61	1929.19
365.82	2140.13
366.04	2025.44
366.25	2002.91
366.47	1982.43
366.68	2000.87
366.90	1949.67
367.11	2064.35
367.33	2047.97
367.54	2025.44
367.76	1937.38
367.97	2133.98
368.19	2004.96
368.40	2050.02
368.62	1933.28
368.83	2015.20
369.05	2058.21
369.26	1959.91
369.48	2015.20
369.69	2002.91
369.91	2074.59
370.12	1998.82
370.33	2062.30
370.55	2023.39
370.76	2025.44
370.98	2113.50
371.19	2011.11
371.41	2019.30
371.62	2074.59
371.84	1961.95
372.05	2156.51
372.27	2099.17
372.48	2029.54
372.69	2050.02
372.91	2127.84
373.12	2148.32
373.34	2064.35
373.55	2035.68
373.77	2125.79
373.98	2064.35
374.20	2136.03
374.41	2234.33
374.62	2080.74
374.84	2148.32
375.05	2244.57
375.27	2170.85
375.48	2201.57
375.70	2217.95
375.91	2133.98
376.12	2271.20
376.34	2176.99
376.55	2181.09
376.77	2158.56
376.98	2140.13
377.19	2113.50
377.41	2088.93
377.62	2211.81
377.84	2195.42
378.05	2338.78
378.27	2193.37
378.48	2248.67
378.69	2363.36
378.91	2318.30
379.12	2199.52
379.34	2199.52
379.55	2293.72
379.76	2211.81
379.98	2174.94
380.19	2306.01
380.41	2238.43
380.62	2236.38
380.83	2230.24
381.05	2183.13
381.26	2355.16
381.47	2215.90
381.69	2168.80
381.90	2269.15
382.12	2275.29
382.33	2271.20
382.54	2267.10
382.76	2222.05
382.97	2291.68
383.19	2246.62
383.40	2320.35
383.61	2263.01
383.83	2217.95
384.04	2242.53
384.25	2402.27
384.47	2338.78
384.68	2334.68
384.89	2299.87
385.11	2269.15
385.32	2420.70
385.54	2322.40
385.75	2220.00
385.96	2404.32
386.18	2394.08
386.39	2361.31
386.60	2351.07
386.82	2318.30
387.03	2363.36
387.24	2420.70
387.46	2406.36
387.67	2426.84
387.88	2408.41
388.10	2447.32
388.31	2410.46
388.52	2463.71
388.74	2420.70
388.95	2467.80
389.16	2512.86
389.38	2478.04
389.59	2570.20
389.80	2508.76
390.02	2467.80
390.23	2516.95
390.44	2553.82
390.66	2547.67
390.87	2459.61
391.08	2516.95
391.30	2545.63
391.51	2519.00
391.72	2686.94
391.94	2549.72
392.15	2656.22
392.36	2570.20
392.58	2576.34
392.79	2547.67
393.00	2684.89
393.22	2617.30
393.43	2746.33
393.64	2707.41
393.85	2695.13
394.07	2629.59
394.28	2680.79
394.49	2738.13
394.71	2715.61
394.92	2652.12
395.13	2617.30
395.35	2586.58
395.56	2650.07
395.77	2684.89
395.98	2727.89
396.20	2815.96
396.41	2699.22
396.62	2904.02
396.84	2729.94
397.05	2711.51
397.26	2772.95
397.47	2863.06
397.69	2680.79
397.90	3026.90
398.11	2828.24
398.32	2801.62
398.54	2877.40
398.75	2815.96
398.96	2854.87
399.18	2990.03
399.39	2908.12
399.60	2885.59
399.81	2928.60
400.03	2916.31
400.24	3125.20
400.45	2924.50
400.66	3049.43
400.88	2996.18
401.09	3182.54
401.30	3033.04
401.51	3051.47
401.73	2983.89
401.94	3051.47
402.15	3016.66
402.36	3010.51
402.58	3049.43
402.79	3221.45
403.00	3155.92
403.21	3057.62
403.43	3123.15
403.64	3246.03
403.85	3112.91
404.06	3227.60
404.27	3047.38
404.49	3190.74
404.70	3133.39
404.91	3313.61
405.12	3117.01
405.34	3196.88
405.55	3360.72
405.76	3114.96
405.97	3139.54
406.19	3215.31
406.40	3180.50
406.61	3229.65
406.82	3246.03
407.03	3250.13
407.25	3166.16
407.46	3411.92
407.67	3299.28
407.88	3428.30
408.09	3274.70
408.31	3262.41
408.52	3311.57
408.73	3274.70
408.94	3250.13
409.15	3438.54
409.37	3418.06
409.58	3489.74
409.79	3362.76
410.00	3530.70
410.21	3336.14
410.43	3426.25
410.64	3342.28
410.85	3413.96
411.06	3491.79
411.27	3385.29
411.48	3456.97
411.70	3575.75
411.91	3522.51
412.12	3663.82
412.33	3514.31
412.54	3596.23
412.76	3516.36
412.97	3612.62
413.18	3456.97
413.39	3581.90
413.60	3626.95
413.81	3561.42
414.03	3540.94
414.24	3583.95
414.45	3745.73
414.66	3401.68
414.87	3715.02
415.08	3663.82
415.30	3583.95
415.51	3792.84
415.72	3575.75
415.93	3706.82
416.14	3682.25
416.35	3829.70
416.56	3616.71
416.78	3772.36
416.99	3657.67
417.20	3700.68
417.41	3813.32
417.62	3760.07
417.83	3819.46
418.04	3792.84
418.26	3809.22
418.47	3798.98
418.68	3803.08
418.89	3968.96
419.10	3891.14
419.31	3846.09
419.52	3942.34
419.73	3987.40
419.95	3839.94
420.16	3794.89
420.37	3811.27
420.58	4036.55
420.79	3772.36
421.00	3852.23
421.21	4050.88
421.42	3917.76
421.63	3936.20
421.85	3911.62
422.06	4169.66
422.27	4093.89
422.48	3989.44
422.69	4192.19
422.90	4007.87
423.11	4083.65
423.32	4054.98
423.53	4435.90
423.75	4186.05
423.96	4259.78
424.17	4104.13
424.38	4263.87
424.59	4259.78
424.80	4304.83
425.01	4247.49
425.22	4237.25
425.43	4366.27
425.64	4341.69
425.85	4429.76
426.06	4302.78
426.28	4325.31
426.49	4267.97
426.70	4288.45
426.91	4419.52
427.12	4532.15
427.33	4464.57
427.54	4415.42
427.75	4542.39
427.96	4571.07
428.17	4382.65
428.38	4564.92
428.59	4558.78
428.80	4485.05
429.01	4743.10
429.23	4630.46
429.44	4863.93
429.65	4722.62
429.86	4773.82
430.07	4622.27
430.28	4673.46
430.49	4704.18
430.70	4886.45
430.91	4802.49
431.12	4751.29
431.33	4837.30
431.54	4929.46
431.75	4935.60
431.96	4923.32
432.17	5007.28
432.38	4847.54
432.59	5062.58
432.80	5074.87
433.01	5074.87
433.22	5134.26
433.43	5169.07
433.64	4968.37
433.85	5062.58
434.06	5167.03
434.27	5062.58
434.49	5101.49
434.70	5306.29
434.91	5154.74
435.12	5218.22
435.33	5220.27
435.54	5179.31
435.75	5140.40
435.96	5195.70
436.17	5234.61
436.38	5195.70
436.59	5373.87
436.80	5240.75
437.01	5511.08
437.22	5560.24
437.43	5392.30
437.64	5224.37
437.85	5646.25
438.06	5603.24
438.27	5384.11
438.48	5476.27
438.69	5572.52
438.90	5590.95
439.11	5449.64
439.32	5724.07
439.53	5711.78
439.74	5580.71
439.95	5672.87
440.16	5775.27
440.37	5586.86
440.57	5607.34
440.78	5631.91
440.99	5785.51
441.20	5906.34
441.41	5629.87
441.62	5711.78
441.83	5875.62
442.04	5826.47
442.25	5873.57
442.46	5853.09
442.67	6066.08
442.88	6238.11
443.09	5928.87
443.30	5935.01
443.51	5949.35
443.72	6213.54
443.93	5994.40
444.14	6205.35
444.35	5916.58
444.56	6184.87
444.77	6078.37
444.98	6197.15
445.19	6215.59
445.40	6139.81
445.61	6078.37
445.81	6227.87
446.02	6385.57
446.23	6199.20
446.44	6180.77
446.65	6377.37
446.86	6289.31
447.07	6453.15
447.28	6621.08
447.49	6406.05
447.70	6410.14
447.91	6512.54
448.12	6348.70
448.33	6616.99
448.54	6805.40
448.74	6414.24
448.95	6696.86
449.16	6375.33
449.37	6924.18
449.58	6713.24
449.79	6932.37
450.00	6584.22
450.21	6721.43
450.42	6758.30
450.63	6959.00
450.84	6750.10
451.05	7008.15
451.25	6875.03
451.46	6795.16
451.67	7075.73
451.88	7057.30
452.09	6946.71
452.30	6868.89
452.51	7028.63
452.72	7212.95
452.93	7460.75
453.13	6877.08
453.34	7116.69
453.55	7153.55
453.76	7194.51
453.97	7548.81
454.18	7194.51
454.39	7442.32
454.60	7176.08
454.81	7184.27
455.01	7458.70
455.22	7190.42
455.43	7405.46
455.64	7421.84
455.85	7651.21
456.06	7817.10
456.27	7557.00
456.48	7595.92
456.68	7661.45
456.89	7669.64
457.10	7890.82
457.31	7628.68
457.52	7665.55
457.73	7853.96
457.94	7982.98
458.14	7864.20
458.35	8193.92
458.56	7825.29
458.77	7839.62
458.98	8060.80
459.19	8187.78
459.39	8142.72
459.60	8281.99
459.81	8198.02
460.02	8171.40
460.23	8150.92
460.44	8376.19
460.65	8433.54
460.85	8437.63
461.06	8341.38
461.27	8292.23
461.48	8740.73
461.69	8705.92
461.89	8198.02
462.10	8642.43
462.31	8341.38
462.52	8574.85
462.73	8724.35
462.94	8828.79
463.14	8599.42
463.35	8703.87
463.56	9197.43
463.77	9095.03
463.98	8933.24
464.18	8998.77
464.39	8896.38
464.60	9316.21
464.81	9246.58
465.02	9164.66
465.23	9482.10
465.43	9088.89
465.64	9369.46
465.85	9416.56
466.06	9279.35
466.27	9639.79
466.47	9447.28
466.68	9705.32
466.89	9680.75
467.10	9455.47
467.30	9559.92
467.51	9666.41
467.72	10035.05
467.93	9684.84
468.14	9865.07
468.34	9828.20
468.55	10045.29
468.76	10108.77
468.97	10053.48
469.17	10088.29
469.38	10110.82
469.59	10332.00
469.80	10192.74
470.01	10280.80
470.21	10313.57
470.42	10438.50
470.63	10610.53
470.84	10440.54
471.04	10641.25
471.25	10641.25
471.46	10827.61
471.67	10817.37
471.87	10764.12
472.08	10917.72
472.29	11237.20
472.50	10850.14
472.70	10915.67
472.91	11081.56
473.12	11022.17
473.33	11243.35
473.53	11511.63
473.74	11372.37
473.95	11728.72
474.16	11607.89
474.36	11718.48
474.57	11820.88
474.78	11831.12
474.99	11640.65
475.19	11757.39
475.40	12121.93
475.61	12316.48
475.81	12453.70
476.02	12455.75
476.23	12226.37
476.44	12373.83
476.64	12803.90
476.85	12711.74
477.06	12863.29
477.27	12937.02
477.47	12875.58
477.68	12889.92
477.89	13045.56
478.09	12908.35
478.30	13244.21
478.51	13377.33
478.71	13391.67
478.92	13375.28
479.13	13694.77
479.34	13494.07
479.54	13553.46
479.75	13694.77
479.96	13618.99
480.16	13721.39
480.37	14104.36
480.58	13971.24
480.78	14438.18
480.99	14165.80
481.20	14450.47
481.41	14208.81
481.61	14759.71
481.82	14702.37
482.03	14659.36
482.23	14634.78
482.44	15124.25
482.65	15050.52
482.85	15181.59
483.06	15150.87
483.27	15185.69
483.47	15265.56
483.68	15253.27
483.89	15666.96
484.09	15447.83
484.30	15599.38
484.51	15994.64
484.71	16172.81
484.92	16035.60
485.13	16121.61
485.33	16207.62
485.54	16357.13
485.75	16580.36
485.95	16635.65
486.16	16662.27
486.37	16805.63
486.57	16631.55
486.78	16733.95
486.98	16770.82
487.19	17121.02
487.40	16879.36
487.60	17069.82
487.81	17397.49
488.02	17313.53
488.22	17196.79
488.43	17530.61
488.64	17587.96
488.84	17874.67
489.05	17825.52
489.25	17850.10
489.46	18271.98
489.67	17987.31
489.87	18112.24
490.08	18046.70
490.29	18351.85
490.49	18642.66
490.70	18792.16
490.90	18644.71
491.11	18646.76
491.32	18882.27
491.52	18878.18
491.73	18878.18
491.94	19033.82
492.14	18982.62
492.35	19392.22
492.55	19619.54
492.76	19451.61
492.97	19746.51
493.17	19556.05
493.38	19760.85
493.58	19773.14
493.79	19998.41
494.00	19891.92
494.20	20063.95
494.41	20039.37
494.61	20446.92
494.82	20328.14
495.02	20555.46
495.23	20588.23
495.44	20850.37
495.64	21046.97
495.85	20831.94
496.05	21376.70
496.26	21061.31
496.47	21331.64
496.67	21044.93
496.88	21159.61
497.08	21018.30
497.29	21550.78
497.49	21257.92
497.70	21419.71
497.91	21794.48
498.11	21827.25
498.32	21882.55
498.52	21997.23
498.73	22187.69
498.93	22060.72
499.14	22206.13
499.34	22306.48
499.55	22279.85
499.76	22337.20
499.96	22490.79
500.17	22656.68
500.37	22650.53
500.58	22603.43
500.78	22826.66
500.99	23000.74
501.19	23199.39
501.40	22929.06
501.60	22896.29
501.81	23223.97
502.02	23232.16
502.22	23103.14
502.43	23525.02
502.63	23269.02
502.84	23723.67
503.04	23651.99
503.25	23828.12
503.45	23905.94
503.66	24127.12
503.86	23621.27
504.07	24233.61
504.27	23647.90
504.48	24532.62
504.68	24186.51
504.89	24317.58
505.09	24518.28
505.30	24399.50
505.50	24399.50
505.71	24903.30
505.91	24589.96
506.12	24362.64
506.32	24667.78
506.53	24639.11
506.73	24549.00
506.94	25190.02
507.14	25228.93
507.35	25089.67
507.55	24960.64
507.76	24966.79
507.96	25099.90
508.17	25360.00
508.37	25382.52
508.58	25253.50
508.78	25298.56
508.99	25417.34
509.19	25366.14
509.40	25478.78
509.60	25347.71
509.81	25644.66
510.01	25292.41
510.22	25599.61
510.42	25659.00
510.63	25581.18
510.83	25874.04
511.04	26125.94
511.24	25900.66
511.44	26080.88
511.65	26170.99
511.85	26168.94
512.06	26150.51
512.26	26375.79
512.47	26439.28
512.67	26277.49
512.88	26164.85
513.08	25980.53
513.29	26289.77
513.49	26379.89
513.69	26283.63
513.90	26531.44
514.10	26650.22
514.31	26537.58
514.51	26762.86
514.72	26459.76
514.92	26402.41
515.13	26748.52
515.33	26857.06
515.53	26549.87
515.74	26680.94
515.94	26793.58
516.15	26900.07
516.35	26779.24
516.56	27397.73
516.76	27022.95
516.96	27367.01
517.17	27436.64
517.37	27317.86
517.58	27354.72
517.78	27319.90
517.99	27424.35
518.19	27367.01
518.39	27651.67
518.60	27735.64
518.80	27547.23
519.01	27612.76
519.21	27686.49
519.41	27770.46
519.62	27981.40
519.82	27823.70
520.03	28034.64
520.23	28044.88
520.43	27647.58
520.64	28264.02
520.84	28319.31
521.05	28362.32
521.25	28358.22
521.45	28104.28
521.66	28538.44
521.86	28190.29
522.07	28343.89
522.27	28388.94
522.47	28380.75
522.68	28847.69
522.88	28350.03
523.08	28993.09
523.29	28642.89
523.49	28847.69
523.70	28628.56
523.90	29079.11
524.10	28757.58
524.31	29105.73
524.51	29046.34
524.71	29175.36
524.92	29023.81
525.12	29511.23
525.33	29210.18
525.53	29668.92
525.73	29976.12
525.94	29853.24
526.14	29599.29
526.34	29574.72
526.55	29965.88
526.75	29830.71
526.95	30047.80
527.16	29695.55
527.36	29941.30
527.56	30148.15
527.77	30207.54
527.97	30053.94
528.17	30508.59
528.38	30393.90
528.58	30664.24
528.78	30486.06
528.99	30502.45
529.19	30957.10
529.39	30395.95
529.60	31039.01
529.80	30744.11
530.00	30938.66
530.21	31245.86
530.41	31421.98
530.61	30901.80
530.82	31378.98
531.02	31331.87
531.22	31518.24
531.43	31428.13
531.63	31594.01
531.83	31901.21
532.04	31608.35
532.24	31360.55
532.44	32230.93
532.64	32054.81
532.85	31956.50
533.05	32251.41
533.25	32134.68
533.46	32065.05
533.66	32499.22
533.86	32237.08
534.07	32480.78
534.27	32292.37
534.47	32796.17
534.67	32962.06
534.88	32841.23
535.08	32849.42
535.28	32878.09
535.49	32970.25
535.69	33527.30
535.89	33422.85
536.09	33050.12
536.30	33510.91
536.50	33363.46
536.70	33789.44
536.91	33680.89
537.11	33359.36
537.31	33863.16
537.51	33959.42
537.72	34338.29
537.92	34151.93
538.12	34448.88
538.32	33983.99
538.53	34350.58
538.73	34162.17
538.93	34467.31
539.13	34823.66
539.34	34903.53
539.54	34385.40
539.74	34938.35
539.94	34751.98
540.15	34801.13
540.35	35075.56
540.55	35210.73
540.75	35171.82
540.96	35083.75
541.16	34997.74
541.36	35374.56
541.56	35427.81
541.77	35716.58
541.97	35454.44
542.17	35497.44
542.37	35626.46
542.58	35472.87
542.78	35339.75
542.98	36052.44
543.18	35894.75
543.38	36238.81
543.59	36103.64
543.79	36191.70
543.99	36115.93
544.19	36333.01
544.40	36320.73
544.60	36621.78
544.80	36355.54
545.00	36793.81
545.20	36904.40
545.41	36750.80
545.61	36505.04
545.81	37150.15
546.01	37004.75
546.21	36963.79
546.42	36728.27
546.62	37453.25
546.82	36914.64
547.02	37148.11
547.22	37361.09
547.43	37443.01
547.63	37676.48
547.83	37760.45
548.03	37225.93
548.23	37938.62
548.44	37983.68
548.64	37780.93
548.84	38075.84
549.04	38145.47
549.24	38348.21
549.45	38180.28
549.65	38239.67
549.85	38165.95
550.05	38346.17
550.25	38686.13
550.45	39183.79
550.66	38610.35
550.86	38548.92
551.06	38686.13
551.26	38647.22
551.46	39171.50
551.66	39151.02
551.87	38843.82
552.07	38966.70
552.27	39116.20
552.47	39359.91
552.67	39335.34
552.87	39128.49
553.07	39507.37
553.28	39232.94
553.48	39892.38
553.68	39867.81
553.88	40142.24
554.08	39439.78
554.28	39761.31
554.48	39531.94
554.69	39706.02
554.89	39822.75
555.09	40125.85
555.29	39706.02
555.49	40113.56
555.69	40056.22
555.89	40136.09
556.10	40449.43
556.30	39984.54
556.50	40506.77
556.70	40553.88
556.90	41043.34
557.10	40719.76
557.30	40437.14
557.50	40676.76
557.70	40740.24
557.91	40777.11
558.11	40859.02
558.31	41084.30
558.51	40945.04
558.71	41196.94
558.91	41600.39
559.11	40875.41
559.31	41051.53
559.51	41069.97
559.72	41301.39
559.92	41168.27
560.12	41014.67
560.32	41565.57
560.52	41162.12
560.72	41571.72
560.92	41612.68
561.12	41633.16
561.32	41598.34
561.52	41393.54
561.72	42079.61
561.93	41901.44
562.13	41811.33
562.33	41942.40
562.53	42579.32
562.73	42005.89
562.93	42186.11
563.13	42114.43
563.33	42009.98
563.53	42487.16
563.73	41905.54
563.93	42575.22
564.13	42616.18
564.33	42220.92
564.53	42790.26
564.74	42628.47
564.94	41969.02
565.14	42474.87
565.34	42282.36
565.54	42974.58
565.74	43398.51
565.94	43388.27
566.14	42855.79
566.34	42990.96
566.54	43627.88
566.74	43054.45
566.94	43218.28
567.14	43605.35
567.34	43171.18
567.54	43287.92
567.74	43242.86
567.94	43197.80
568.14	43257.20
568.34	43771.24
568.54	43341.16
568.74	43941.22
568.94	43468.14
569.14	43945.31
569.34	43869.54
569.54	43625.83
569.75	43314.54
569.95	44103.01
570.15	44285.28
570.35	43873.63
570.55	43840.87
570.75	44143.97
570.95	44150.11
571.15	44080.48
571.35	44111.20
571.55	44359.00
571.75	44393.82
571.95	44457.31
572.15	43857.25
572.35	44633.43
572.55	44541.27
572.75	44184.93
572.95	44391.77
573.15	44602.71
573.35	44639.57
573.55	44631.38
573.75	44520.79
573.95	44967.25
574.15	44330.33
574.35	44799.32
574.55	44787.03
574.75	44531.03
574.95	44836.18
575.15	44766.55
575.34	44533.08
575.54	45751.62
575.74	45108.56
575.94	45219.15
576.14	44895.57
576.34	45636.94
576.54	45579.59
576.74	45444.43
576.94	45471.05
577.14	45753.67
577.34	45735.24
577.54	45696.33
577.74	45780.29
577.94	45579.59
578.14	45626.70
578.34	46077.25
578.54	45452.62
578.74	45407.56
578.94	46093.63
579.14	46183.74
579.34	45876.55
579.54	46028.10
579.74	46239.04
579.94	46302.53
580.13	46363.96
580.33	46204.22
580.53	46681.40
580.73	46447.93
580.93	46142.78
581.13	46335.29
581.33	46495.03
581.53	46617.91
581.73	46751.03
581.93	46693.69
582.13	46548.28
582.33	46499.13
582.53	46425.40
582.73	47093.04
582.92	46931.25
583.12	47224.11
583.32	46882.10
583.52	46462.27
583.72	47258.93
583.92	46683.45
584.12	46796.09
584.32	47416.62
584.52	47109.43
584.72	47031.60
584.92	47181.10
585.11	47465.77
585.31	47482.16
585.51	47281.45
585.71	47635.75
585.91	47541.55
586.11	47217.97
586.31	47349.04
586.51	47301.93
586.71	47572.27
586.91	47574.31
587.10	47691.05
587.30	47815.97
587.50	47897.89
587.70	47707.43
587.90	47641.90
588.10	47736.10
588.30	47713.58
588.50	47543.59
588.69	47367.47
588.89	47756.58
589.09	47650.09
589.29	48151.84
589.49	47963.43
589.69	47738.15
589.89	47813.93
590.08	47901.99
590.28	47815.97
590.48	48094.50
590.68	47852.84
590.88	48100.64
591.08	48334.11
591.28	47740.20
591.47	48420.13
591.67	48268.58
591.87	48330.01
592.07	48477.47
592.27	48338.21
592.47	48301.34
592.67	48663.83
592.86	47875.37
593.06	48485.66
593.26	48338.21
593.46	48422.17
593.66	48248.10
593.86	48592.15
594.05	48755.99
594.25	48807.19
594.45	48373.02
594.65	48725.27
594.85	48274.72
595.05	48905.49
595.24	48674.07
595.44	48389.41
595.64	49018.13
595.84	48876.82
596.04	48702.74
596.23	48891.16
596.43	48815.38
596.63	48921.88
596.83	49003.80
597.03	49233.17
597.22	49032.47
597.42	48962.84
597.62	49278.22
597.82	49122.58
598.02	49206.55
598.21	49358.09
598.41	48954.64
598.61	49224.98
598.81	49358.09
599.01	49689.87
599.20	49452.30
599.40	49136.91
599.60	49208.59
599.80	49419.53
600.00	49366.29
600.19	49970.44
600.39	48887.06
600.59	49763.59
600.79	49583.37
600.98	49454.35
601.18	49632.52
601.38	50052.36
601.58	49779.98
601.78	49679.63
601.97	50060.55
602.17	50322.69
602.37	49593.61
602.57	49399.05
602.76	50150.66
602.96	49571.08
603.16	50181.38
603.36	49708.30
603.55	50410.75
603.75	49970.44
603.95	50164.99
604.15	50238.72
604.34	50408.70
604.54	50435.33
604.74	50341.12
604.94	50070.79
605.13	50480.38
605.33	50418.94
605.53	49935.62
605.73	50312.45
605.92	50418.94
606.12	50765.05
606.32	51000.57
606.52	50590.97
606.71	50863.35
606.91	50828.54
607.11	50189.57
607.30	51066.10
607.50	50916.60
607.70	50992.37
607.90	50713.85
608.09	50652.41
608.29	50863.35
608.49	51148.02
608.68	50836.73
608.88	51012.85
609.08	51076.34
609.28	50683.13
609.47	50846.97
609.67	51193.07
609.87	50734.33
610.06	51143.92
610.26	51197.17
610.46	51393.78
610.66	51309.81
610.85	50887.93
611.05	50820.34
611.25	51227.89
611.44	50867.45
611.64	51041.53
611.84	51240.18
612.03	50732.28
612.23	51731.69
612.43	51078.39
612.62	50816.25
612.82	51053.81
613.02	51049.72
613.21	51303.67
613.41	51244.27
613.61	51780.84
613.80	51139.83
614.00	51377.39
614.20	51455.21
614.39	51379.44
614.59	51315.95
614.79	51358.96
614.98	51594.48
615.18	51346.67
615.38	51789.03
615.57	51283.19
615.77	51285.23
615.97	51320.05
616.16	51199.22
616.36	51533.04
616.56	51219.70
616.75	51723.50
616.95	51361.01
617.15	51451.12
617.34	51934.44
617.54	51078.39
617.74	51625.20
617.93	51999.97
618.13	51330.29
618.32	51598.57
618.52	51234.03
618.72	51193.07
618.91	51412.21
619.11	51459.31
619.31	51539.18
619.50	51428.59
619.70	51131.64
619.90	51377.39
620.09	51756.27
620.29	51084.53
620.48	51750.12
620.68	51508.46
620.88	51016.95
621.07	51369.20
621.27	51496.17
621.46	51621.10
621.66	51516.65
621.86	51377.39
622.05	51379.44
622.25	52141.28
622.44	51617.00
622.64	51731.69
622.84	51768.55
623.03	51475.69
623.23	51647.72
623.42	51594.48
623.62	51856.62
623.82	51651.82
624.01	51866.86
624.21	51741.93
624.40	51518.70
624.60	51367.15
624.80	51430.64
624.99	51666.16
625.19	51113.20
625.38	51868.90
625.58	51713.26
625.77	51356.91
625.97	51737.83
626.17	51406.06
626.36	51483.89
626.56	51889.38
626.75	51125.49
626.95	51903.72
627.14	51635.44
627.34	52143.33
627.54	51500.27
627.73	51631.34
627.93	52036.84
628.12	51584.24
628.32	51942.63
628.51	52321.51
628.71	52270.31
628.90	51590.38
629.10	51621.10
629.30	51893.48
629.49	52135.14
629.69	51762.41
629.88	52204.77
630.08	51756.27
630.27	52344.03
630.47	51893.48
630.66	52159.72
630.86	52278.50
631.05	51578.09
631.25	52729.05
631.44	52235.49
631.64	51938.54
631.84	51926.25
632.03	52634.84
632.23	52356.32
632.42	52630.75
632.62	52643.04
632.81	52008.17
633.01	52145.38
633.20	52505.82
633.40	52268.26
633.59	52778.20
633.79	52298.98
633.98	52438.24
634.18	52837.59
634.37	52432.10
634.57	52561.12
634.76	52759.77
634.96	52407.52
635.15	52821.21
635.35	52548.83
635.54	52561.12
635.74	52663.52
635.93	52942.04
636.13	52638.94
636.32	53140.69
636.52	52409.57
636.71	52763.87
636.91	52907.22
637.10	52970.71
637.30	52868.31
637.49	52884.70
637.69	53009.62
637.88	53466.32
638.08	52804.83
638.27	53257.43
638.46	53013.72
638.66	52792.54
638.85	53118.17
639.05	52993.24
639.24	53181.65
639.44	52925.66
639.63	53220.56
639.83	53458.13
640.02	53236.95
640.22	53007.58
640.41	53548.24
640.61	53353.68
640.80	53204.18
640.99	53206.23
641.19	53968.07
641.38	53564.62
641.58	53707.98
641.77	53660.88
641.97	53171.41
642.16	53372.11
642.36	53681.36
642.55	53781.71
642.74	53581.01
642.94	54285.51
643.13	53941.45
643.33	54095.05
643.52	53822.67
643.72	54019.27
643.91	53941.45
644.10	53830.86
644.30	54541.50
644.49	53705.93
644.69	54183.11
644.88	54279.36
645.08	53851.34
645.27	53974.22
645.46	54023.37
645.66	54402.24
645.85	54508.74
646.05	54279.36
646.24	53976.26
646.43	54688.96
646.63	54842.56
646.82	54815.93
647.02	54785.21
647.21	54789.31
647.40	54539.46
647.60	54944.95
647.79	54461.63
647.99	54654.14
648.18	54719.68
648.37	55350.45
648.57	54766.78
648.76	55084.22
648.96	54346.95
649.15	55098.55
649.34	54990.01
649.54	55315.64
649.73	55069.88
649.92	54963.39
650.12	54840.51
650.31	55194.81
650.51	55393.46
650.70	54998.20
650.89	55235.77
651.09	55930.03
651.28	55264.44
651.47	55194.81
651.67	55452.85
651.86	55508.14
652.06	54779.07
652.25	55194.81
652.44	55121.08
652.64	55264.44
652.83	55196.85
653.02	54885.56
653.22	55655.60
653.41	54930.62
653.60	55301.30
653.80	55332.02
653.99	55401.65
654.18	55620.78
654.38	55413.94
654.57	55866.54
654.76	55516.34
654.96	55497.91
655.15	55377.08
655.34	55135.41
655.54	55172.28
655.73	55325.88
655.92	56511.65
656.12	56009.90
656.31	55862.44
656.50	55528.62
656.70	55555.25
656.89	55522.48
657.08	55803.05
657.28	55989.42
657.47	55919.79
657.66	55942.31
657.86	56009.90
658.05	56057.00
658.24	56243.37
658.43	55755.95
658.63	55997.61
658.82	56175.78
659.01	56198.31
659.21	55938.22
659.40	55844.01
659.59	55827.63
659.79	56290.47
659.98	56153.26
660.17	55817.39
660.36	56419.49
660.56	56196.26
660.75	56530.08
660.94	55956.65
661.14	55995.56
661.33	56052.90
661.52	55792.81
661.71	56759.45
661.91	56079.53
662.10	56140.97
662.29	56454.31
662.49	56253.61
662.68	56169.64
662.87	56491.17
663.06	56100.01
663.26	56450.21
663.45	56392.87
663.64	56427.68
663.83	56818.84
664.03	56353.96
664.22	56636.58
664.41	56794.27
664.60	56333.48
664.80	56337.57
664.99	56122.54
665.18	56110.25
665.37	56409.25
665.57	56669.34
665.76	56380.58
665.95	56366.24
666.14	56419.49
666.34	56323.24
666.53	56573.09
666.72	56714.40
666.91	56720.54
667.11	56192.17
667.30	56489.12
667.49	56540.32
667.68	56235.17
667.87	56206.50
668.07	56423.59
668.26	56562.85
668.45	56241.32
668.64	56659.10
668.84	57105.56
669.03	56460.45
669.22	56378.53
669.41	56261.80
669.60	56794.27
669.80	56360.10
669.99	56376.48
670.18	56292.52
670.37	56157.35
670.57	56857.76
670.76	56202.41
670.95	56882.33
671.14	56485.03
671.33	56497.31
671.53	56960.15
671.72	56542.37
671.91	56429.73
672.10	56329.38
672.29	56278.18
672.48	56036.52
672.68	56458.40
672.87	56208.55
673.06	56679.58
673.25	56196.26
673.44	55772.33
673.64	56310.95
673.83	56052.90
674.02	56173.73
674.21	55753.90
674.40	56323.24
674.59	55641.26
674.79	56216.74
674.98	55698.61
675.17	55780.52
675.36	55753.90
675.55	56108.20
675.74	55866.54
675.94	55739.57
676.13	55905.45
676.32	56245.41
676.51	56218.79
676.70	56278.18
676.89	55944.36
677.08	56382.63
677.28	55770.28
677.47	56272.04
677.66	56140.97
677.85	55678.13
678.04	55915.69
678.23	56038.57
678.42	55887.02
678.62	55653.55
678.81	55762.09
679.00	56177.83
679.19	56161.45
679.38	55743.66
679.57	55964.84
679.76	55620.78
679.96	56097.96
680.15	55764.14
680.34	55590.06
680.53	55358.64
680.72	55428.27
680.91	56034.47
681.10	55139.51
681.29	55934.12
681.48	55157.94
681.68	55514.29
681.87	55452.85
682.06	55784.62
682.25	55434.42
682.44	55037.11
682.63	55497.91
682.82	55293.11
683.01	55076.02
683.20	54725.82
683.39	55112.89
683.59	55018.68
683.78	54877.37
683.97	54852.80
684.16	54705.34
684.35	54404.29
684.54	55045.30
684.73	54473.92
684.92	54631.61
685.11	54602.94
685.30	54471.87
685.49	54981.82
685.69	54912.19
685.88	55067.83
686.07	54975.67
686.26	54793.40
686.45	54656.19
686.64	54860.99
686.83	54754.49
687.02	54559.94
687.21	54895.80
687.40	54344.90
687.59	55174.33
687.78	54879.42
687.97	54494.40
688.16	54666.43
688.35	54269.12
688.54	54068.42
688.74	54262.98
688.93	54236.36
689.12	54174.92
689.31	54203.59
689.50	54449.35
689.69	54031.56
689.88	53871.82
690.07	53966.02
690.26	53873.87
690.45	54355.14
690.64	53877.96
690.83	54068.42
691.02	53814.47
691.21	53894.35
691.40	53757.13
691.59	54064.33
691.78	54015.18
691.97	54043.85
692.16	54025.42
692.35	53902.54
692.54	53779.66
692.73	53640.40
692.92	53843.15
693.11	53679.31
693.30	53298.39
693.49	53548.24
693.68	53286.10
693.87	53499.09
694.06	52806.87
694.25	53181.65
694.44	53284.05
694.63	53712.08
694.82	53640.40
695.01	53538.00
695.20	52886.74
695.39	52991.19
695.58	53241.04
695.77	52630.75
695.96	52462.82
696.15	53398.74
696.34	53001.43
696.53	52679.90
696.72	53097.69
696.91	52524.25
697.10	52876.51
697.29	52466.91
697.48	52989.14
697.67	52344.03
697.86	52249.83
698.05	52212.96
698.24	52761.82
698.43	52110.56
698.62	52421.86
698.81	52303.07
699.00	52600.03
699.19	52008.17
699.38	52561.12
699.57	52215.01
699.76	52806.87
699.95	51621.10
700.14	51877.10
700.32	51729.64
700.51	52016.36
700.70	52088.04
700.89	52376.80
701.08	52151.52
701.27	51700.97
701.46	52018.41
701.65	51162.36
701.84	51623.15
702.03	51647.72
702.22	51320.05
702.41	51963.11
702.60	51619.05
702.79	51625.20
702.98	51430.64
703.17	51336.43
703.35	51350.77
703.54	51404.02
703.73	51600.62
703.92	51352.82
704.11	50982.13
704.30	51115.25
704.49	50695.42
704.68	50752.76
704.87	50857.21
705.06	51109.11
705.25	50621.69
705.43	50957.56
705.62	51148.02
705.81	50642.17
706.00	50722.04
706.19	50539.77
706.38	50767.10
706.57	50697.47
706.76	50695.42
706.95	50754.81
707.14	50431.23
707.32	50111.75
707.51	50343.17
707.70	50437.37
707.89	50783.48
708.08	50238.72
708.27	50502.91
708.46	50560.25
708.65	50208.00
708.84	50238.72
709.02	50222.34
709.21	50175.23
709.40	50025.73
709.59	50455.81
709.78	49601.80
709.97	50402.56
710.16	50226.43
710.34	50210.05
710.53	49982.73
710.72	50160.90
710.91	49511.69
711.10	50078.98
711.29	49720.59
711.48	49943.81
711.66	49833.22
711.85	49587.47
712.04	49870.09
712.23	49558.80
712.42	49597.71
712.61	49935.62
712.80	49667.34
712.98	49603.85
713.17	49313.04
713.36	49526.03
713.55	49259.79
713.74	49687.82
713.93	49292.56
714.11	48975.12
714.30	49014.04
714.49	49042.71
714.68	49405.20
714.87	49493.26
715.06	49181.97
715.24	48729.37
715.43	48889.11
715.62	48340.25
715.81	48370.97
716.00	49126.67
716.18	48411.93
716.37	48553.24
716.56	48211.23
716.75	48821.53
716.94	48698.65
717.12	48655.64
717.31	48545.05
717.50	48772.38
717.69	48096.55
717.88	48330.01
718.06	48766.23
718.25	48569.63
718.44	48057.63
718.63	48348.45
718.82	47633.71
719.00	48125.22
719.19	48125.22
719.38	47781.16
719.57	47299.89
719.76	47185.20
719.94	47588.65
720.13	47629.61
720.32	47865.13
720.51	47842.60
720.69	47439.15
720.88	47281.45
721.07	47414.57
721.26	47039.79
721.44	47121.71
721.63	46906.68
721.82	46806.33
722.01	47318.32
722.20	47426.86
722.38	46832.95
722.57	46411.07
722.76	46677.30
722.95	46675.26
723.13	46275.90
723.32	46351.68
723.51	46515.51
723.70	46163.26
723.88	46878.00
724.07	45886.79
724.26	46298.43
724.44	45790.53
724.63	46337.34
724.82	46224.70
725.01	46216.51
725.19	46099.78
725.38	46298.43
725.57	46353.72
725.76	46521.66
725.94	45696.33
726.13	46191.94
726.32	45950.27
726.51	45815.11
726.69	45710.66
726.88	46169.41
727.07	46245.18
727.25	45991.23
727.44	45884.74
727.63	45819.20
727.82	45884.74
728.00	45987.14
728.19	46007.62
728.38	46175.55
728.56	45368.65
728.75	46032.19
728.94	45753.67
729.12	45872.45
729.31	45976.90
729.50	45749.57
729.69	45770.05
729.87	45751.62
730.06	46189.89
730.25	46093.63
730.43	46449.98
730.62	45307.21
730.81	45518.15
730.99	45761.86
731.18	46013.76
731.37	45841.73
731.55	46079.30
731.74	45774.15
731.93	45948.23
732.11	45712.71
732.30	45817.16
732.49	45919.56
732.67	45854.02
732.86	45802.82
733.05	45636.94
733.23	45735.24
733.42	45747.53
733.61	45610.31
733.79	45493.58
733.98	45927.75
734.17	45466.95
734.35	45389.13
734.54	45874.50
734.73	45921.60
734.91	45196.62
735.10	45575.50
735.29	45684.04
735.47	45126.99
735.66	45634.89
735.84	45616.46
736.03	45368.65
736.22	45657.42
736.40	45425.99
736.59	45714.76
736.78	45301.07
736.96	45581.64
737.15	45479.24
737.33	45241.68
737.52	45063.50
737.71	45245.77
737.89	45692.23
738.08	45253.97
738.27	45094.22
738.45	45440.33
738.64	45106.51
738.82	45204.81
739.01	45190.48
739.20	45202.77
739.38	45309.26
739.57	45329.74
739.75	44744.02
739.94	45051.22
740.13	45143.38
740.31	44578.14
740.50	45221.20
740.68	45090.13
740.87	45184.33
741.06	45243.73
741.24	44854.61
741.43	45149.52
741.61	45161.81
741.80	45055.31
741.99	44344.67
742.17	44907.86
742.36	44950.87
742.54	44627.29
742.73	44852.56
742.91	44686.68
743.10	44649.81
743.29	44891.48
743.47	45200.72
743.66	44615.00
743.84	44827.99
744.03	44795.22
744.21	44391.77
744.40	44889.43
744.59	44619.10
744.77	44653.91
744.96	44848.47
745.14	44684.63
745.33	44703.06
745.51	44471.64
745.70	44586.33
745.88	44803.41
746.07	44578.14
746.26	44369.24
746.44	44651.86
746.63	44348.76
746.81	44617.05
747.00	44391.77
747.18	44578.14
747.37	44701.01
747.55	44883.28
747.74	44422.49
747.92	44191.07
748.11	44410.20
748.29	44291.42
748.48	44391.77
748.66	44143.97
748.85	43922.79
749.03	44447.07
749.22	44373.34
749.41	44209.50
749.59	44385.63
749.78	44135.77
749.96	43982.18
750.15	44121.44
750.33	44068.19
750.52	43726.18
750.70	43906.40
750.89	43627.88
751.07	43605.35
751.26	43828.58
751.44	43765.09
751.63	43881.83
751.81	44025.18
752.00	43625.83
752.18	43849.06
752.37	43955.55
752.55	43390.31
752.74	43408.75
752.92	43459.94
753.10	43568.49
753.29	43726.18
753.47	43142.51
753.66	43324.78
753.84	43681.13
754.03	43414.89
754.21	43259.24
754.40	43742.56
754.58	43556.20
754.77	43406.70
754.95	43292.01
755.14	43197.80
755.32	43461.99
755.51	42759.54
755.69	42980.72
755.88	43128.17
756.06	42829.17
756.24	43369.83
756.43	42898.80
756.61	43169.13
756.80	42972.53
756.98	43021.68
757.17	42700.15
757.35	43062.64
757.54	43130.22
757.72	43285.87
757.90	42653.05
758.09	42964.34
758.27	42947.95
758.46	42804.59
758.64	42868.08
758.83	42870.13
759.01	43201.90
759.19	43003.25
759.38	42868.08
759.56	42950.00
759.75	42763.64
759.93	42812.79
760.12	42474.87
760.30	42665.33
760.48	42399.10
760.67	42835.31
760.85	42581.37
761.04	42906.99
761.22	43089.26
761.40	42583.41
761.59	42341.75
761.77	41915.78
761.96	42571.13
762.14	42481.02
762.32	42239.36
762.51	42253.69
762.69	42276.22
762.88	42050.94
763.06	42190.20
763.24	42337.66
763.43	42153.34
763.61	42210.68
763.80	42237.31
763.98	42063.23
764.16	42102.14
764.35	42411.38
764.53	41371.02
764.72	42061.18
764.90	42286.46
765.08	42055.04
765.27	41710.98
765.45	41606.53
765.63	41538.95
765.82	41977.22
766.00	41893.25
766.18	41792.90
766.37	42202.49
766.55	41608.58
766.74	41829.76
766.92	41770.37
767.10	41674.12
767.29	41371.02
767.47	41457.03
767.65	41651.59
767.84	41119.12
768.02	41604.49
768.20	40879.50
768.39	41352.58
768.57	41340.30
768.75	41602.44
768.94	41575.81
769.12	41743.75
769.30	41280.91
769.49	40926.61
769.67	40906.13
769.85	40580.50
770.04	40785.30
770.22	40474.01
770.40	40402.33
770.59	40826.26
770.77	40947.09
770.95	41205.13
771.14	40514.97
771.32	40666.52
771.50	40486.29
771.69	40547.73
771.87	40951.18
772.05	40576.40
772.24	40662.42
772.42	40375.70
772.60	40529.30
772.78	40367.51
772.97	39964.06
773.15	40392.09
773.33	40101.28
773.52	39908.77
773.70	40625.56
773.88	40426.90
774.07	40588.69
774.25	40543.64
774.43	40465.81
774.61	40474.01
774.80	40347.03
774.98	40132.00
775.16	40678.80
775.34	40916.37
775.53	40088.99
775.71	40588.69
775.89	40578.45
776.08	40469.91
776.26	40369.56
776.44	40582.55
776.62	40684.95
776.81	40684.95
776.99	40873.36
777.17	40773.01
777.35	40789.39
777.54	40916.37
777.72	40316.31
777.90	40793.49
778.08	41178.51
778.27	40625.56
778.45	41041.29
778.63	41162.12
778.81	40519.06
779.00	41186.70
779.18	41135.50
779.36	41299.34
779.54	41141.64
779.73	40740.24
779.91	41446.79
780.09	40721.81
780.27	41514.37
780.46	41293.19
780.64	41622.92
780.82	40983.95
781.00	40875.41
781.19	41280.91
781.37	41581.96
781.55	41647.49
781.73	41739.65
781.91	41624.96
782.10	41366.92
782.28	41524.61
782.46	41667.97
782.64	41661.83
782.82	41649.54
783.01	41428.36
783.19	41772.42
783.37	41508.23
783.55	42018.17
783.74	41725.32
783.92	41375.11
784.10	42159.48
784.28	41811.33
784.46	41248.14
784.64	41581.96
784.83	41694.60
785.01	41903.49
785.19	42022.27
785.37	41866.63
785.55	41612.68
785.74	41196.94
785.92	41385.35
786.10	41432.46
786.28	41323.91
786.46	41588.10
786.64	41053.58
786.83	41428.36
787.01	41563.53
787.19	41633.16
787.37	41336.20
787.55	41375.11
787.74	41366.92
787.92	41528.71
788.10	41346.44
788.28	40940.94
788.46	41377.16
788.64	41379.21
788.82	41346.44
789.01	41041.29
789.19	41635.20
789.37	40848.78
789.55	41131.40
789.73	40928.66
789.91	40654.23
790.09	40625.56
790.28	40457.62
790.46	40474.01
790.64	40920.46
790.82	40680.85
791.00	40189.34
791.18	40230.30
791.36	40211.87
791.55	40371.61
791.73	40170.91
791.91	39706.02
792.09	39857.57
792.27	40142.24
792.45	40058.27
792.63	40201.63
792.81	39712.16
793.00	39384.49
793.18	39497.13
793.36	39669.15
793.54	39417.25
793.72	39325.10
793.90	38968.75
794.08	39208.36
794.26	39566.76
794.44	38892.97
794.62	38679.99
794.81	39069.10
794.99	38993.32
795.17	38864.30
795.35	38897.07
795.53	39069.10
795.71	38909.36
795.89	38434.23
796.07	38251.96
796.25	38260.15
796.43	38247.86
796.61	37780.93
796.80	38366.65
796.98	38180.28
797.16	37995.96
797.34	37877.18
797.52	37832.13
797.70	38055.36
797.88	37731.78
798.06	37348.81
798.24	37569.99
798.42	37588.42
798.60	37395.91
798.78	37436.87
798.96	37148.11
799.14	36574.67
799.32	37418.44
799.51	36730.32
799.69	37117.39
799.87	37361.09
800.05	36799.95
800.23	36562.39
800.41	36132.31
800.59	36865.49
800.77	36408.79
800.95	36027.87
801.13	36326.87
801.31	36275.67
801.49	36240.86
801.67	35886.56
801.85	36031.96
802.03	35476.96
802.21	35493.35
802.39	35714.53
802.57	35577.31
802.75	35476.96
802.93	35454.44
803.11	35642.85
803.29	35022.31
803.47	35165.67
803.65	34973.16
803.83	35028.46
804.01	34649.58
804.19	34786.80
804.37	34672.11
804.55	34651.63
804.73	34532.85
804.91	34760.17
805.09	35007.98
805.27	34479.60
805.45	34788.85
805.63	34336.24
805.81	34436.59
805.99	34328.05
806.17	34258.42
806.35	33998.33
806.53	34137.59
806.71	34481.65
806.89	33834.49
807.07	33904.12
807.25	33807.87
807.43	33732.09
807.61	33936.89
807.79	33879.55
807.97	33406.47
808.15	33340.93
808.33	33478.15
808.51	33355.27
808.69	33181.19
808.87	32863.75
809.05	33009.16
809.23	32980.49
809.41	32833.04
809.59	32937.48
809.77	32833.04
809.95	32523.79
810.13	33089.03
810.31	32554.51
810.49	33076.74
810.67	32335.38
810.84	32609.81
811.02	32476.69
811.20	31757.85
811.38	32482.83
811.56	32075.29
811.74	32267.80
811.92	32280.08
812.10	32286.23
812.28	32106.01
812.46	31970.84
812.64	32032.28
812.82	31954.46
813.00	31634.97
813.18	31888.92
813.36	31735.32
813.53	31180.32
813.71	31454.75
813.89	31256.10
814.07	31202.85
814.25	31323.68
814.43	31456.80
814.61	30957.10
814.79	30989.86
814.97	31012.39
815.15	31237.67
815.33	30555.69
815.50	30541.36
815.68	30531.12
815.86	31079.97
816.04	30631.47
816.22	30559.79
816.40	30524.97
816.58	30029.37
816.76	30178.87
816.94	30006.84
817.11	30084.66
817.29	30023.22
817.47	30172.72
817.65	29943.35
817.83	30074.42
818.01	29881.91
818.19	29961.78
818.37	29818.42
818.54	29974.07
818.72	29666.88
818.90	30156.34
819.08	29619.77
819.26	29662.78
819.44	29548.09
819.62	29505.09
819.80	29306.43
819.97	29552.19
820.15	29386.30
820.33	29263.43
820.51	29091.40
820.69	29064.77
820.87	29175.36
821.05	28997.19
821.22	29187.65
821.40	29058.63
821.58	28825.16
821.76	28800.58
821.94	28767.82
822.12	28862.02
822.29	29122.12
822.47	28614.22
822.65	28741.19
822.83	28728.91
823.01	28493.39
823.19	28683.85
823.36	28290.64
823.54	28237.39
823.72	28489.29
823.90	28307.02
824.08	28194.39
824.25	28374.61
824.43	28073.56
824.61	28194.39
824.79	28218.96
824.97	27760.22
825.15	28225.11
825.32	27788.89
825.50	27936.34
825.68	27762.26
825.86	27924.05
826.04	27960.92
826.21	27551.32
826.39	27502.17
826.57	27571.80
826.75	27571.80
826.93	27471.45
827.10	27498.08
827.28	27698.78
827.46	27446.88
827.64	27457.12
827.81	26828.39
827.99	27270.75
828.17	27084.39
828.35	26916.45
828.53	27250.27
828.70	27092.58
828.88	26969.70
829.06	27000.42
829.24	27235.94
829.41	26715.75
829.59	27065.96
829.77	26697.32
829.95	26680.94
830.12	26687.08
830.30	26963.56
830.48	26746.47
830.66	26588.78
830.84	26695.27
831.01	26513.00
831.19	26418.80
831.37	26566.25
831.55	26310.25
831.72	26297.97
831.90	26340.97
832.08	26146.42
832.25	26138.23
832.43	26340.97
832.61	26181.23
832.79	26228.34
832.96	26220.14
833.14	26259.06
833.32	26062.45
833.50	26015.35
833.67	25962.10
833.85	25927.28
834.03	25726.58
834.20	25800.31
834.38	25994.87
834.56	25826.93
834.74	25687.67
834.91	25876.09
835.09	25747.06
835.27	25429.63
835.44	25507.45
835.62	25300.61
835.80	25435.77
835.98	25540.22
836.15	25546.36
836.33	25425.53
836.51	25634.42
836.68	25099.90
836.86	25491.07
837.04	25413.24
837.21	25396.86
837.39	25443.96
837.57	25298.56
837.75	25017.99
837.92	24913.54
838.10	24811.14
838.28	24925.83
838.45	24856.20
838.63	24594.06
838.81	25009.79
838.98	24579.72
839.16	24485.51
839.34	24561.29
839.51	24454.79
839.69	24317.58
839.87	24331.92
840.04	24598.15
840.22	24731.27
840.40	24360.59
840.57	24295.05
840.75	24467.08
840.93	24161.94
841.10	24485.51
841.28	24440.46
841.46	24141.46
841.63	24567.43
841.81	24454.79
841.98	24295.05
842.16	24241.81
842.34	24297.10
842.51	24039.06
842.69	23873.17
842.87	23846.55
843.04	23938.71
843.22	23490.20
843.40	23678.61
843.57	23680.66
843.75	23879.32
843.92	23690.90
844.10	23662.23
844.28	23844.50
844.45	23862.93
844.63	23879.32
844.81	23742.10
844.98	23709.33
845.16	23277.21
845.33	23615.13
845.51	23420.57
845.69	23539.35
845.86	23285.40
846.04	23197.34
846.21	23156.38
846.39	23033.50
846.57	23027.36
846.74	23066.27
846.92	22976.16
847.09	22859.43
847.27	22890.15
847.45	23266.97
847.62	23258.78
847.80	22996.64
847.97	22707.88
848.15	22972.07
848.32	22609.58
848.50	22896.29
848.68	22748.84
848.85	22683.30
849.03	22507.18
849.20	22863.52
849.38	22609.58
849.56	22425.26
849.73	22666.92
849.91	22482.60
850.08	22851.24
850.26	22195.89
850.43	22392.49
850.61	22347.44
850.78	21927.60
850.96	22482.60
851.14	22075.06
851.31	22453.93
851.49	22361.77
851.66	22544.04
851.84	22130.35
852.01	22421.16
852.19	22128.30
852.36	22054.58
852.54	22140.59
852.71	22210.22
852.89	22081.20
853.07	21943.99
853.24	22083.25
853.42	22083.25
853.59	21837.49
853.77	21907.12
853.94	21812.92
854.12	21806.77
854.29	21812.92
854.47	21749.43
854.64	21626.55
854.82	21581.49
854.99	21651.13
855.17	21563.06
855.34	21771.96
855.52	21687.99
855.69	21606.07
855.87	21442.23
856.04	21313.21
856.22	21411.51
856.39	21286.59
856.57	21333.69
856.74	21302.97
856.92	21055.17
857.09	21106.37
857.27	21292.73
857.44	21483.19
857.62	21200.57
857.79	21335.74
857.97	21147.33
858.14	21184.19
858.32	20899.52
858.49	21061.31
858.67	21059.26
858.84	21055.17
859.02	21270.20
859.19	21042.88
859.37	20758.21
859.54	20899.52
859.72	20999.87
859.89	20709.06
860.06	21049.02
860.24	20784.83
860.41	20649.67
860.59	20555.46
860.76	20809.41
860.94	20639.43
861.11	20516.55
861.29	20825.79
861.46	20686.53
861.64	20383.43
861.81	20307.66
861.98	20346.57
862.16	20133.58
862.33	20283.08
862.51	20369.10
862.68	20555.46
862.86	20072.14
863.03	20066.00
863.21	20035.28
863.38	20139.72
863.55	20049.61
863.73	19994.32
863.90	19881.68
864.08	20033.23
864.25	19941.07
864.43	20010.70
864.60	19869.39
864.77	19853.01
864.95	20135.63
865.12	19685.08
865.30	19775.19
865.47	19721.94
865.64	19812.05
865.82	20010.70
865.99	19824.34
866.17	19867.34
866.34	19711.70
866.51	19209.95
866.69	19664.60
866.86	19609.30
867.04	19498.71
867.21	19545.81
867.38	19295.96
867.56	19302.11
867.73	19486.42
867.91	19019.49
868.08	19013.34
868.25	19226.33
868.43	19187.42
868.60	19119.84
868.78	18986.72
868.95	19318.49
869.12	18886.37
869.30	18919.14
869.47	18865.89
869.64	18953.95
869.82	18829.02
869.99	19033.82
870.16	19027.68
870.34	18779.87
870.51	19013.34
870.69	18755.30
870.86	18710.24
871.03	18923.23
871.21	18736.87
871.38	18683.62
871.55	18562.79
871.73	18646.76
871.90	18489.06
872.07	18501.35
872.25	18247.40
872.42	18456.29
872.59	18294.50
872.77	18392.81
872.94	18310.89
873.11	18540.26
873.29	18478.82
873.46	18183.91
873.63	18280.17
873.81	18181.87
873.98	18056.94
874.15	18214.63
874.33	18063.08
874.50	17762.03
874.67	18020.08
874.85	17993.45
875.02	17778.42
875.19	17780.46
875.37	17741.55
875.54	17639.15
875.71	17483.51
875.88	17358.58
876.06	17678.07
876.23	17547.00
876.40	17567.48
876.58	17604.34
876.75	17565.43
876.92	17551.09
877.10	17624.82
877.27	17291.00
877.44	17211.13
877.61	17254.14
877.79	17444.60
877.96	17366.78
878.13	17153.79
878.31	17170.17
878.48	17188.60
878.65	17096.44
878.82	16695.04
879.00	17196.79
879.17	16998.14
879.34	17137.40
879.51	16856.83
879.69	16690.95
879.86	16555.78
880.03	16846.59
880.21	16719.62
880.38	16819.97
880.55	16721.66
880.72	16600.83
880.90	16574.21
881.07	16758.53
881.24	16819.97
881.41	16670.47
881.59	16744.19
881.76	16420.61
881.93	16860.93
882.10	16430.85
882.28	16350.98
882.45	16537.35
882.62	16420.61
882.79	16369.41
882.96	16269.06
883.14	16439.05
883.31	16461.57
883.48	16441.09
883.65	16160.52
883.83	16121.61
884.00	16051.98
884.17	16164.62
884.34	16201.48
884.51	15974.16
884.69	16267.02
884.86	16125.71
885.03	16164.62
885.20	15898.38
885.38	16072.46
885.55	16168.71
885.72	15941.39
885.89	16107.27
886.06	15943.44
886.24	16000.78
886.41	15824.65
886.58	16066.31
886.75	16178.95
886.92	15677.20
887.10	16049.93
887.27	15722.26
887.44	16131.85
887.61	15970.06
887.78	16019.21
887.95	15855.37
888.13	15992.59
888.30	15525.65
888.47	15603.47
888.64	15597.33
888.81	15585.04
888.99	15439.64
889.16	15378.20
889.33	15554.32
889.50	15388.44
889.67	15656.72
889.84	15384.34
890.01	15392.53
890.19	15421.20
890.36	15392.53
890.53	15443.73
890.70	15410.96
890.87	15451.92
891.04	15339.29
891.22	15271.70
891.39	15234.84
891.56	14999.32
891.73	15091.48
891.90	15134.49
892.07	15107.87
892.24	15177.50
892.42	14915.36
892.59	14810.91
892.76	14989.08
892.93	15036.19
893.10	14599.97
893.27	14901.02
893.44	14798.62
893.61	14978.84
893.79	14966.56
893.96	15071.00
894.13	14935.84
894.30	14903.07
894.47	15011.61
894.64	14968.60
894.81	15095.58
894.98	14968.60
895.15	14993.18
895.33	14815.01
895.50	14837.53
895.67	14931.74
895.84	14798.62
896.01	14819.10
896.18	14927.64
896.35	14862.11
896.52	14716.70
896.69	14749.47
896.86	14653.22
897.04	14747.42
897.21	14804.77
897.38	14855.97
897.55	14726.94
897.72	14896.92
897.89	14710.56
898.06	14884.64
898.23	14692.13
898.40	14872.35
898.57	14649.12
898.74	14702.37
898.91	14763.81
899.08	14694.18
899.26	14561.06
899.43	14556.96
899.60	14343.97
899.77	14559.01
899.94	14567.20
900.11	14413.60
900.28	14722.85
900.45	14563.11
900.62	14657.31
900.79	14778.14
900.96	14634.78
901.13	14835.49
901.30	14454.56
901.47	14581.54
901.64	14651.17
901.81	14683.94
901.98	14550.82
902.15	14638.88
902.32	14477.09
902.49	14602.02
902.66	14647.07
902.83	14638.88
903.01	14728.99
903.18	14681.89
903.35	14720.80
903.52	14534.43
903.69	14542.63
903.86	14833.44
904.03	14677.79
904.20	14542.63
904.37	14692.13
904.54	14642.98
904.71	14440.23
904.88	14581.54
905.05	14540.58
905.22	14688.03
905.39	14587.68
905.56	14571.30
905.73	14442.28
905.90	14692.13
906.07	14559.01
906.24	14616.35
906.41	14399.27
906.58	14538.53
906.75	14716.70
906.92	14268.20
907.09	14583.59
907.26	14509.86
907.43	14389.03
907.60	14538.53
907.77	14655.26
907.93	14401.32
908.10	14466.85
908.27	14464.80
908.44	14319.40
908.61	14446.37
908.78	14300.97
908.95	14599.97
909.12	14657.31
909.29	14528.29
909.46	14264.10
909.63	14749.47
909.80	14626.59
909.97	14479.14
910.14	14534.43
910.31	14520.10
910.48	14448.42
910.65	14495.52
910.82	14290.73
910.99	14305.06
911.16	14382.88
911.33	14454.56
911.50	14229.29
911.66	14118.70
911.83	14255.91
912.00	14212.90
912.17	13969.19
912.34	14194.47
912.51	14204.71
912.68	13997.87
912.85	14022.44
913.02	14098.22
913.19	14126.89
913.36	14128.94
913.53	14292.77
913.70	13823.79
913.86	14280.49
914.03	14151.46
914.20	13901.61
914.37	14028.59
914.54	14096.17
914.71	13961.00
914.88	13969.19
915.05	13954.86
915.22	13559.60
915.39	13879.08
915.55	14051.11
915.72	13741.87
915.89	13768.49
916.06	13545.27
916.23	13713.20
916.40	13616.94
916.57	13627.18
916.74	13461.30
916.91	13662.00
917.07	13307.70
917.24	13539.12
917.41	13307.70
917.58	13354.80
917.75	13360.95
917.92	13352.76
918.09	13389.62
918.26	13256.50
918.42	12994.36
918.59	13055.80
918.76	12928.83
918.93	12963.64
919.10	12853.05
919.27	13018.94
919.44	13238.07
919.60	13066.04
919.77	12975.93
919.94	12787.52
920.11	12736.32
920.28	12885.82
920.45	12851.00
920.61	12631.87
920.78	12590.91
920.95	12681.02
921.12	12601.15
921.29	12541.76
921.46	12539.71
921.62	12414.79
921.79	12537.66
921.96	12511.04
922.13	12492.61
922.30	12412.74
922.47	12310.34
922.63	12236.61
922.80	12166.98
922.97	12076.87
923.14	11968.33
923.31	12150.60
923.47	12009.29
923.64	12162.89
923.81	11906.89
923.98	12095.30
924.15	11827.02
924.32	11898.70
924.48	11902.79
924.65	11667.28
924.82	11673.42
924.99	11587.41
925.15	11603.79
925.32	11687.76
925.49	11372.37
925.66	11558.74
925.83	11560.78
925.99	11409.23
926.16	11456.34
926.33	11368.27
926.50	11181.91
926.67	11218.77
926.83	11282.26
927.00	11269.97
927.17	11149.14
927.34	11009.88
927.50	11020.12
927.67	11257.68
927.84	11118.42
928.01	10891.10
928.17	10977.11
928.34	10825.56
928.51	10667.87
928.68	10821.47
928.84	10889.05
929.01	10532.70
929.18	10534.75
929.35	10426.21
929.51	10332.00
929.68	10588.00
929.85	10102.63
930.02	10254.18
930.18	10366.82
930.35	10233.70
930.52	10280.80
930.69	10211.17
930.85	10256.23
931.02	10088.29
931.19	10170.21
931.36	10174.31
931.52	9965.42
931.69	10002.28
931.86	10012.52
932.02	9973.61
932.19	9824.11
932.36	9787.24
932.53	9983.85
932.69	9580.40
932.86	9783.15
933.03	9877.35
933.19	9496.43
933.36	9662.32
933.53	9627.50
933.70	9459.57
933.86	9326.45
934.03	9373.55
934.20	9215.86
934.36	9209.72
934.53	9226.10
934.70	9031.54
934.86	8918.90
935.03	8974.20
935.20	9025.40
935.36	8972.15
935.53	8879.99
935.70	8851.32
935.86	8734.59
936.03	8605.56
936.20	8497.02
936.36	8421.25
936.53	8624.00
936.70	8425.34
936.86	8667.00
937.03	8138.63
937.20	8083.33
937.36	8212.35
937.53	7790.47
937.70	7890.82
937.86	7874.44
938.03	7612.30
938.20	7782.28
938.36	7581.58
938.53	7657.36
938.70	7389.07
938.86	7430.03
939.03	7251.86
939.20	7188.37
939.36	7122.84
939.53	7026.58
939.70	7319.44
939.86	6889.37
940.03	6705.05
940.19	6768.54
940.36	6881.18
940.53	6705.05
940.69	6535.07
940.86	6639.51
941.03	6348.70
941.19	6352.80
941.36	6424.48
941.52	6317.98
941.69	6188.96
941.86	6211.49
942.02	6193.06
942.19	6172.58
942.35	6115.23
942.52	5906.34
942.69	6035.36
942.85	5744.55
943.02	5939.11
943.18	5801.90
943.35	5803.94
943.52	5814.18
943.68	5722.02
943.85	5777.32
944.01	5654.44
944.18	5545.90
944.35	5713.83
944.51	5451.69
944.68	5410.73
944.84	5527.47
945.01	5568.43
945.17	5322.67
945.34	5498.80
945.51	5353.39
945.67	5277.62
945.84	5308.34
946.00	5255.09
946.17	5334.96
946.33	5365.68
946.50	5177.26
946.67	5238.70
946.83	5253.04
947.00	5439.40
947.16	5240.75
947.33	5275.57
947.49	5162.93
947.66	5257.14
947.82	5328.81
947.99	5253.04
948.16	5248.94
948.32	5287.86
948.49	5322.67
948.65	5277.62
948.82	5244.85
948.98	5320.62
949.15	5144.50
949.31	5353.39
949.48	5300.14
949.64	5255.09
949.81	5416.88
949.97	5142.45
950.14	5250.99
950.30	5212.08
950.47	5373.87
950.63	5164.98
950.80	5269.42
950.96	5294.00
951.13	5312.43
951.30	5310.38
951.46	5427.12
951.63	5400.49
951.79	5279.66
951.96	5337.01
952.12	5218.22
952.29	5406.64
952.45	5238.70
952.62	5312.43
952.78	5328.81
952.94	5294.00
953.11	5298.10
953.27	5246.90
953.44	5550.00
953.60	5253.04
953.77	5371.82
953.93	5468.08
954.10	5439.40
954.26	5337.01
954.43	5435.31
954.59	5412.78
954.76	5521.32
954.92	5474.22
955.09	5392.30
955.25	5482.41
955.42	5382.06
955.58	5521.32
955.75	5494.70
955.91	5392.30
956.07	5506.99
956.24	5482.41
956.40	5476.27
956.57	5572.52
956.73	5334.96
956.90	5509.04
957.06	5386.16
957.23	5463.98
957.39	5343.15
957.56	5582.76
957.72	5304.24
957.88	5314.48
958.05	5523.37
958.21	5527.47
958.38	5517.23
958.54	5369.77
958.71	5531.56
958.87	5377.97
959.03	5511.08
959.20	5435.31
959.36	5423.02
959.53	5566.38
959.69	5408.69
959.85	5359.53
960.02	5388.21
960.18	5439.40
960.35	5525.42
960.51	5613.48
960.68	5320.62
960.84	5420.97
961.00	5488.56
961.17	5343.15
961.33	5337.01
961.50	5431.21
961.66	5468.08
961.82	5457.84
961.99	5484.46
962.15	5437.36
962.31	5486.51
962.48	5492.65
962.64	5484.46
962.81	5470.12
962.97	5511.08
963.13	5445.55
963.30	5558.19
963.46	5382.06
963.62	5369.77
963.79	5429.17
963.95	5472.17
964.12	5482.41
964.28	5390.25
964.44	5287.86
964.61	5304.24
964.77	5375.92
964.93	5545.90
965.10	5347.25
965.26	5355.44
965.42	5377.97
965.59	5205.94
965.75	5418.93
965.92	5365.68
966.08	5240.75
966.24	5279.66
966.41	5388.21
966.57	5369.77
966.73	5250.99
966.90	5447.60
967.06	5353.39
967.22	5283.76
967.39	5228.46
967.55	5210.03
967.71	5158.83
967.88	5222.32
968.04	5093.30
968.20	5326.77
968.37	5197.74
968.53	5142.45
968.69	5214.13
968.85	5205.94
969.02	5230.51
969.18	5105.59
969.34	5224.37
969.51	5285.81
969.67	5271.47
969.83	5048.24
970.00	5169.07
970.16	5126.07
970.32	5101.49
970.48	5175.22
970.65	5015.48
970.81	4982.71
970.97	4927.41
971.14	5007.28
971.30	5081.01
971.46	4933.56
971.63	4960.18
971.79	5124.02
971.95	4962.23
972.11	4954.04
972.28	5009.33
972.44	5111.73
972.60	4876.21
972.76	4986.80
972.93	4876.21
973.09	4892.60
973.25	4917.17
973.42	4786.10
973.58	4990.90
973.74	4911.03
973.90	4999.09
974.07	4769.72
974.23	4884.41
974.39	4984.76
974.55	4825.01
974.72	4906.93
974.88	4792.25
975.04	4951.99
975.20	4769.72
975.37	4874.17
975.53	4710.33
975.69	4739.00
975.85	4714.42
976.01	4773.82
976.18	4722.62
976.34	4788.15
976.50	4802.49
976.66	4679.61
976.83	4806.58
976.99	4708.28
977.15	4700.09
977.31	4515.77
977.47	4759.48
977.64	4736.95
977.80	4665.27
977.96	4712.38
978.12	4689.85
978.29	4677.56
978.45	4523.96
978.61	4487.10
978.77	4655.03
978.93	4487.10
979.10	4626.36
979.26	4483.00
979.42	4515.77
979.58	4435.90
979.74	4505.53
979.91	4540.35
980.07	4399.04
980.23	4519.87
980.39	4415.42
980.55	4474.81
980.71	4396.99
980.88	4540.35
981.04	4349.89
981.20	4429.76
981.36	4532.15
981.52	4378.56
981.68	4343.74
981.85	4384.70
982.01	4384.70
982.17	4169.66
982.33	4394.94
982.49	4413.37
982.65	4331.45
982.82	4265.92
982.98	4382.65
983.14	4276.16
983.30	4442.04
983.46	4351.93
983.62	4370.37
983.79	4214.72
983.95	4356.03
984.11	4140.99
984.27	4261.82
984.43	4290.49
984.59	4265.92
984.75	4257.73
984.91	4042.69
985.08	4149.18
985.24	4210.62
985.40	4108.23
985.56	4140.99
985.72	4175.81
985.88	4161.47
986.04	4075.46
986.20	4011.97
986.37	4136.90
986.53	4087.75
986.69	3975.11
986.85	3971.01
987.01	4097.99
987.17	4140.99
987.33	4014.02
987.49	4118.47
987.65	4130.75
987.82	4050.88
987.98	3913.67
988.14	3983.30
988.30	4018.11
988.46	3882.95
988.62	4005.83
988.78	3846.09
988.94	3936.20
989.10	3870.66
989.26	3876.80
989.42	3911.62
989.59	3841.99
989.75	3819.46
989.91	4042.69
990.07	3704.78
990.23	3786.69
990.39	3872.71
990.55	3860.42
990.71	3770.31
990.87	3735.50
991.03	3827.65
991.19	3690.44
991.35	3764.17
991.51	3712.97
991.67	3829.70
991.83	3719.11
992.00	3846.09
992.16	3770.31
992.32	3753.93
992.48	3680.20
992.64	3598.28
992.80	3696.58
992.96	3682.25
993.12	3719.11
993.28	3758.02
993.44	3717.06
993.60	3665.86
993.76	3710.92
993.92	3678.15
994.08	3790.79
994.24	3573.71
994.40	3618.76
994.56	3672.01
994.72	3579.85
994.88	3551.18
995.04	3641.29
995.20	3633.10
995.36	3559.37
995.52	3631.05
995.68	3549.13
995.84	3446.73
996.00	3635.14
996.16	3469.26
996.32	3491.79
996.48	3432.40
996.64	3530.70
996.80	3508.17
996.96	3585.99
997.12	3424.20
997.28	3461.07
997.44	3446.73
997.60	3385.29
997.76	3416.01
997.92	3428.30
998.08	3375.05
998.24	3280.85
998.40	3395.53
998.56	3346.38
998.72	3301.33
998.88	3272.65
999.04	3370.96
999.20	3497.93
999.36	3231.69
999.52	3411.92
999.68	3286.99
999.84	3350.48
1000.00	3377.10
1000.16	3362.76
1000.32	3301.33
1000.48	3321.81
1000.64	3340.24
1000.80	3229.65
1000.95	3237.84
1001.11	3233.74
1001.27	3162.06
1001.43	3200.98
1001.59	3190.74
1001.75	3182.54
1001.91	3151.82
1002.07	3153.87
1002.23	3121.10
1002.39	3203.02
1002.55	3151.82
1002.71	3145.68
1002.87	3067.86
1003.03	3123.15
1003.19	3133.39
1003.34	3112.91
1003.50	3047.38
1003.66	3190.74
1003.82	3063.76
1003.98	3127.25
1004.14	3078.10
1004.30	3057.62
1004.46	3057.62
1004.62	3108.82
1004.78	2998.23
1004.94	3082.19
1005.09	3117.01
1005.25	3051.47
1005.41	2967.51
1005.57	2959.31
1005.73	3020.75
1005.89	2930.64
1006.05	3010.51
1006.21	3049.43
1006.37	2924.50
1006.52	3008.47
1006.68	2914.26
1006.84	3037.14
1007.00	2934.74
1007.16	2881.49
1007.32	2861.01
1007.48	2906.07
1007.64	2983.89
1007.79	2891.73
1007.95	2789.33
1008.11	3051.47
1008.27	2830.29
1008.43	2869.20
1008.59	2877.40
1008.75	2861.01
1008.91	2830.29
1009.06	2879.44
1009.22	2895.83
1009.38	2863.06
1009.54	2834.39
1009.70	2850.77
1009.86	2762.71
1010.01	2803.67
1010.17	2758.61
1010.33	2826.20
1010.49	2781.14
1010.65	2891.73
1010.81	2717.65
1010.96	2664.41
1011.12	2682.84
1011.28	2691.03
1011.44	2738.13
1011.60	2766.81
1011.76	2711.51
1011.91	2750.42
1012.07	2553.82
1012.23	2691.03
1012.39	2621.40
1012.55	2633.69
1012.71	2645.98
1012.86	2641.88
1013.02	2564.06
1013.18	2494.43
1013.34	2668.50
1013.50	2678.74
1013.65	2717.65
1013.81	2645.98
1013.97	2539.48
1014.13	2641.88
1014.29	2658.26
1014.44	2617.30
1014.60	2553.82
1014.76	2426.84
1014.92	2611.16
1015.07	2553.82
1015.23	2623.45
1015.39	2582.49
1015.55	2502.62
1015.71	2625.50
1015.86	2531.29
1016.02	2463.71
1016.18	2430.94
1016.34	2547.67
1016.49	2633.69
1016.65	2572.25
1016.81	2490.33
1016.97	2568.15
1017.12	2590.68
1017.28	2416.60
1017.44	2426.84
1017.60	2486.23
1017.75	2389.98
1017.91	2435.03
1018.07	2496.47
1018.23	2527.19
1018.38	2404.32
1018.54	2455.51
1018.70	2510.81
1018.86	2422.75
1019.01	2451.42
1019.17	2420.70
1019.33	2367.45
1019.49	2355.16
1019.64	2502.62
1019.80	2451.42
1019.96	2404.32
1020.12	2437.08
1020.27	2334.68
1020.43	2349.02
1020.59	2392.03
1020.74	2469.85
1020.90	2375.64
1021.06	2271.20
1021.22	2328.54
1021.37	2363.36
1021.53	2412.51
1021.69	2441.18
1021.84	2254.81
1022.00	2312.16
1022.16	2297.82
1022.31	2273.25
1022.47	2346.97
1022.63	2342.88
1022.79	2207.71
1022.94	2234.33
1023.10	2355.16
1023.26	2346.97
1023.41	2238.43
1023.57	2232.29
1023.73	2340.83
1023.88	2379.74
1024.04	2306.01
1024.20	2215.90
1024.35	2240.48
1024.51	2293.72
1024.67	2275.29
1024.82	2320.35
1024.98	2103.26
1025.14	2285.53
1025.29	2181.09
1025.45	2203.61
1025.61	2187.23
1025.76	2197.47
1025.92	2164.70
1026.08	2207.71
1026.23	2131.94
1026.39	2215.90
1026.55	2244.57
1026.70	2133.98
1026.86	2080.74
1027.02	2238.43
1027.17	2166.75
1027.33	2201.57
1027.48	2088.93
1027.64	2109.41
1027.80	2084.83
1027.95	2156.51
1028.11	2058.21
1028.27	2121.70
1028.42	2197.47
1028.58	2084.83
1028.73	2002.91
1028.89	2101.22
1029.05	2203.61
1029.20	2101.22
>>>>>End Processed Spectral Data<<<<<
