SpectraSuite Data File
++++++++++++++++++++++++++++++++++++
Date: Fri Jun 02 14:51:07 CEST 2017
User: INFO_000
Dark Spectrum Present: No
Reference Spectrum Present: No
Number of Sampled Component Spectra: 1
Spectrometers: USB4H00879
Integration Time (usec): 80000 (USB4H00879)
Spectra Averaged: 1 (USB4H00879)
Boxcar Smoothing: 0 (USB4H00879)
Correct for Electrical Dark: No (USB4H00879)
Strobe/Lamp Enabled: No (USB4H00879)
Correct for Detector Non-linearity: No (USB4H00879)
Correct for Stray Light: No (USB4H00879)
Number of Pixels in Processed Spectrum: 3648
>>>>>Begin Processed Spectral Data<<<<<
345.13	1226.73
345.34	1226.73
345.56	1226.73
345.78	1292.27
345.99	1279.98
346.21	1720.29
346.42	1714.15
346.64	1583.08
346.86	1771.49
347.07	1736.68
347.29	1640.42
347.50	1615.85
347.72	1617.90
347.94	1726.44
348.15	1544.17
348.37	1667.05
348.59	1755.11
348.80	1720.29
349.02	1683.43
349.23	1871.84
349.45	1800.16
349.67	1906.66
349.88	1751.01
350.10	1937.38
350.31	1839.08
350.53	1796.07
350.75	2002.91
350.96	1726.44
351.18	1779.68
351.39	1849.32
351.61	1804.26
351.82	1871.84
352.04	1884.13
352.26	1789.92
352.47	1910.75
352.69	1851.36
352.90	1716.20
353.12	1855.46
353.34	1781.73
353.55	1916.90
353.77	1865.70
353.98	1853.41
354.20	1787.88
354.41	1839.08
354.63	2035.68
354.85	2025.44
355.06	1923.04
355.28	1789.92
355.49	1884.13
355.71	1871.84
355.92	1810.40
356.14	1839.08
356.35	1896.42
356.57	1857.51
356.79	1869.80
357.00	1834.98
357.22	1822.69
357.43	1875.94
357.65	1892.32
357.86	1914.85
358.08	1816.55
358.29	1900.52
358.51	1976.29
358.72	1910.75
358.94	1880.04
359.16	1929.19
359.37	1902.56
359.59	1974.24
359.80	1964.00
360.02	1933.28
360.23	1902.56
360.45	2050.02
360.66	1880.04
360.88	1880.04
361.09	1867.75
361.31	1968.10
361.52	2021.35
361.74	1957.86
361.95	2099.17
362.17	1959.91
362.38	2062.30
362.60	2033.63
362.81	2002.91
363.03	1888.23
363.24	2025.44
363.46	1998.82
363.67	1992.67
363.89	1949.67
364.10	1898.47
364.32	1961.95
364.53	2074.59
364.75	1941.47
364.96	1982.43
365.18	2035.68
365.39	1994.72
365.61	1937.38
365.82	2090.98
366.04	2002.91
366.25	1925.09
366.47	1984.48
366.68	1988.58
366.90	1931.23
367.11	2105.31
367.33	1992.67
367.54	2117.60
367.76	1996.77
367.97	2113.50
368.19	2043.87
368.40	2033.63
368.62	1961.95
368.83	2004.96
369.05	2015.20
369.26	2045.92
369.48	1900.52
369.69	1935.33
369.91	2078.69
370.12	2019.30
370.33	2121.70
370.55	1949.67
370.76	2041.82
370.98	2062.30
371.19	1992.67
371.41	2027.49
371.62	1990.63
371.84	2004.96
372.05	2154.46
372.27	2004.96
372.48	2043.87
372.69	2138.08
372.91	2084.83
373.12	2107.36
373.34	2033.63
373.55	2103.26
373.77	2142.18
373.98	1992.67
374.20	2133.98
374.41	2230.24
374.62	2074.59
374.84	2078.69
375.05	2142.18
375.27	2084.83
375.48	2152.42
375.70	2181.09
375.91	2127.84
376.12	2222.05
376.34	2076.64
376.55	2238.43
376.77	2203.61
376.98	2043.87
377.19	2078.69
377.41	2146.27
377.62	2068.45
377.84	2207.71
378.05	2346.97
378.27	2133.98
378.48	2381.79
378.69	2383.84
378.91	2330.59
379.12	2297.82
379.34	2207.71
379.55	2279.39
379.76	2234.33
379.98	2150.37
380.19	2271.20
380.41	2174.94
380.62	2252.77
380.83	2242.53
381.05	2162.66
381.26	2426.84
381.47	2187.23
381.69	2275.29
381.90	2422.75
382.12	2209.76
382.33	2191.33
382.54	2228.19
382.76	2254.81
382.97	2318.30
383.19	2256.86
383.40	2297.82
383.61	2234.33
383.83	2303.96
384.04	2318.30
384.25	2408.41
384.47	2408.41
384.68	2394.08
384.89	2242.53
385.11	2324.44
385.32	2269.15
385.54	2353.12
385.75	2351.07
385.96	2367.45
386.18	2342.88
386.39	2365.40
386.60	2375.64
386.82	2250.72
387.03	2369.50
387.24	2441.18
387.46	2349.02
387.67	2426.84
387.88	2463.71
388.10	2437.08
388.31	2484.19
388.52	2426.84
388.74	2545.63
388.95	2377.69
389.16	2408.41
389.38	2416.60
389.59	2443.23
389.80	2578.39
390.02	2510.81
390.23	2633.69
390.44	2502.62
390.66	2471.90
390.87	2381.79
391.08	2512.86
391.30	2590.68
391.51	2559.96
391.72	2607.06
391.94	2635.74
392.15	2580.44
392.36	2584.54
392.58	2629.59
392.79	2588.63
393.00	2605.02
393.22	2660.31
393.43	2766.81
393.64	2676.70
393.85	2691.03
394.07	2637.78
394.28	2691.03
394.49	2736.09
394.71	2748.37
394.92	2772.95
395.13	2648.02
395.35	2658.26
395.56	2627.54
395.77	2750.42
395.98	2715.61
396.20	2744.28
396.41	2840.53
396.62	2824.15
396.84	2789.33
397.05	2760.66
397.26	2848.72
397.47	2850.77
397.69	2711.51
397.90	2895.83
398.11	2789.33
398.32	2842.58
398.54	2842.58
398.75	2920.40
398.96	2856.92
399.18	2990.03
399.39	2895.83
399.60	2852.82
399.81	2918.36
400.03	2852.82
400.24	3143.63
400.45	2987.99
400.66	2977.75
400.88	2891.73
401.09	3131.34
401.30	2957.27
401.51	3129.30
401.73	3049.43
401.94	3026.90
402.15	2992.08
402.36	3012.56
402.58	3063.76
402.79	3088.34
403.00	3147.73
403.21	3129.30
403.43	3190.74
403.64	3182.54
403.85	2981.84
404.06	3235.79
404.27	3102.67
404.49	3209.17
404.70	3104.72
404.91	3301.33
405.12	3264.46
405.34	3246.03
405.55	3368.91
405.76	3170.26
405.97	3217.36
406.19	3262.41
406.40	3172.30
406.61	3221.45
406.82	3305.42
407.03	3256.27
407.25	3243.98
407.46	3295.18
407.67	3461.07
407.88	3403.72
408.09	3276.75
408.31	3276.75
408.52	3383.24
408.73	3375.05
408.94	3243.98
409.15	3407.82
409.37	3442.64
409.58	3385.29
409.79	3391.44
410.00	3573.71
410.21	3444.68
410.43	3504.07
410.64	3395.53
410.85	3442.64
411.06	3336.14
411.27	3516.36
411.48	3524.55
411.70	3477.45
411.91	3524.55
412.12	3657.67
412.33	3475.40
412.54	3540.94
412.76	3682.25
412.97	3684.30
413.18	3616.71
413.39	3635.14
413.60	3657.67
413.81	3647.43
414.03	3528.65
414.24	3585.99
414.45	3723.21
414.66	3540.94
414.87	3608.52
415.08	3555.27
415.30	3624.90
415.51	3745.73
415.72	3708.87
415.93	3690.44
416.14	3641.29
416.35	3780.55
416.56	3665.86
416.78	3780.55
416.99	3768.26
417.20	3688.39
417.41	3721.16
417.62	3794.89
417.83	3866.56
418.04	3786.69
418.26	3839.94
418.47	3893.19
418.68	3899.33
418.89	3823.56
419.10	4026.31
419.31	3907.52
419.52	4052.93
419.73	3866.56
419.95	3946.44
420.16	3835.85
420.37	3889.09
420.58	4001.73
420.79	3878.85
421.00	3860.42
421.21	4018.11
421.42	3868.61
421.63	3928.00
421.85	3825.61
422.06	4059.07
422.27	4026.31
422.48	3954.63
422.69	4241.34
422.90	4097.99
423.11	4120.51
423.32	4089.79
423.53	4224.96
423.75	4194.24
423.96	4321.21
424.17	4175.81
424.38	4319.17
424.59	4237.25
424.80	4454.33
425.01	4399.04
425.22	4306.88
425.43	4241.34
425.64	4530.11
425.85	4374.46
426.06	4464.57
426.28	4452.28
426.49	4382.65
426.70	4343.74
426.91	4556.73
427.12	4315.07
427.33	4558.78
427.54	4509.63
427.75	4384.70
427.96	4605.88
428.17	4566.97
428.38	4669.37
428.59	4724.66
428.80	4614.07
429.01	4761.53
429.23	4562.87
429.44	4759.48
429.65	4702.14
429.86	4868.02
430.07	4599.74
430.28	4661.18
430.49	4863.93
430.70	5081.01
430.91	4941.75
431.12	4974.52
431.33	4966.32
431.54	4827.06
431.75	4927.41
431.96	4954.04
432.17	5027.76
432.38	4812.73
432.59	5134.26
432.80	5035.96
433.01	5134.26
433.22	5136.31
433.43	5044.15
433.64	5003.19
433.85	5228.46
434.06	5253.04
434.27	5179.31
434.49	5177.26
434.70	5275.57
434.91	5244.85
435.12	5263.28
435.33	5289.90
435.54	5330.86
435.75	5195.70
435.96	5310.38
436.17	5154.74
436.38	5423.02
436.59	5547.95
436.80	5341.10
437.01	5693.35
437.22	5615.53
437.43	5494.70
437.64	5345.20
437.85	5676.97
438.06	5662.63
438.27	5488.56
438.48	5558.19
438.69	5705.64
438.90	5613.48
439.11	5527.47
439.32	5703.59
439.53	5697.45
439.74	5715.88
439.95	5767.08
440.16	5789.61
440.37	5838.76
440.57	5705.64
440.78	5918.63
440.99	5758.89
441.20	5666.73
441.41	5828.52
441.62	5849.00
441.83	5795.75
442.04	5959.59
442.25	6086.56
442.46	5949.35
442.67	6148.00
442.88	6270.88
443.09	6029.22
443.30	6102.95
443.51	6080.42
443.72	6289.31
443.93	6100.90
444.14	6379.42
444.35	6074.28
444.56	6127.52
444.77	6223.78
444.98	6303.65
445.19	6432.67
445.40	6277.02
445.61	6113.19
445.81	6377.37
446.02	6336.42
446.23	6332.32
446.44	6205.35
446.65	6465.44
446.86	6322.08
447.07	6410.14
447.28	6682.52
447.49	6578.08
447.70	6442.91
447.91	6659.99
448.12	6465.44
448.33	6713.24
448.54	6590.36
448.74	6590.36
448.95	6682.52
449.16	6559.64
449.37	6889.37
449.58	6729.63
449.79	6903.70
450.00	6686.62
450.21	6834.07
450.42	6877.08
450.63	6846.36
450.84	6834.07
451.05	6793.11
451.25	6838.17
451.46	6815.64
451.67	6938.52
451.88	7045.01
452.09	7063.44
452.30	6866.84
452.51	7053.20
452.72	7258.00
452.93	7399.31
453.13	6952.85
453.34	7022.48
453.55	7032.72
453.76	7131.03
453.97	7536.52
454.18	7325.58
454.39	7374.74
454.60	7178.13
454.81	7307.15
455.01	7409.55
455.22	7057.30
455.43	7409.55
455.64	7532.43
455.85	7475.09
456.06	7638.92
456.27	7514.00
456.48	7423.89
456.68	7581.58
456.89	7784.33
457.10	7647.12
457.31	7606.16
457.52	7720.84
457.73	7847.82
457.94	8144.77
458.14	7634.83
458.35	8273.79
458.56	7962.50
458.77	7911.30
458.98	8101.76
459.19	8001.41
459.39	8128.39
459.60	8116.10
459.81	7909.26
460.02	8128.39
460.23	8200.07
460.44	8198.02
460.65	8361.86
460.85	8335.23
461.06	8314.75
461.27	8261.51
461.48	8384.38
461.69	8683.39
461.89	8267.65
462.10	8456.06
462.31	8308.61
462.52	8511.36
462.73	8560.51
462.94	8775.55
463.14	8658.81
463.35	8484.73
463.56	9021.30
463.77	8994.68
463.98	8857.46
464.18	8875.90
464.39	8916.86
464.60	9097.08
464.81	9111.41
465.02	9025.40
465.23	9203.57
465.43	9129.84
465.64	9281.39
465.85	9183.09
466.06	9326.45
466.27	9553.77
466.47	9293.68
466.68	9600.88
466.89	9521.01
467.10	9652.08
467.30	9566.06
467.51	9537.39
467.72	9834.35
467.93	9607.02
468.14	9783.15
468.34	9971.56
468.55	9813.87
468.76	9922.41
468.97	9928.55
469.17	10166.12
469.38	10084.20
469.59	10235.75
469.80	10106.73
470.01	10192.74
470.21	10309.47
470.42	10526.56
470.63	10434.40
470.84	10360.67
471.04	10620.77
471.25	10645.34
471.46	10653.53
471.67	11011.93
471.87	10882.91
472.08	11003.74
472.29	11136.85
472.50	10878.81
472.70	10854.23
472.91	10964.82
473.12	10948.44
473.33	11550.54
473.53	11566.93
473.74	11616.08
473.95	11732.81
474.16	11892.55
474.36	11718.48
474.57	11933.51
474.78	12130.12
474.99	11689.81
475.19	11833.16
475.40	12382.02
475.61	12441.41
475.81	12289.86
476.02	12558.14
476.23	12543.81
476.44	12654.40
476.64	12744.51
476.85	12900.16
477.06	12900.16
477.27	13072.18
477.47	13094.71
477.68	13199.16
477.89	13168.44
478.09	13283.13
478.30	13287.22
478.51	13428.53
478.71	13438.77
478.92	13442.87
479.13	13813.55
479.34	14047.02
479.54	13694.77
479.75	14176.04
479.96	14292.77
480.16	14137.13
480.37	14186.28
480.58	14247.72
480.78	14681.89
480.99	14645.02
481.20	14892.83
481.41	14929.69
481.61	14759.71
481.82	15107.87
482.03	15124.25
482.23	15034.14
482.44	15175.45
482.65	15707.92
482.85	15427.35
483.06	15427.35
483.27	15808.27
483.47	15875.85
483.68	15867.66
483.89	16137.99
484.09	16025.36
484.30	16109.32
484.51	16361.22
484.71	16455.43
484.92	16312.07
485.13	16590.59
485.33	16482.05
485.54	16572.16
485.75	16948.99
485.95	17141.50
486.16	16951.04
486.37	17094.40
486.57	17383.16
486.78	17157.88
486.98	17350.39
487.19	17475.32
487.40	17559.28
487.60	17649.39
487.81	18120.43
488.02	17755.89
488.22	17524.47
488.43	18151.15
488.64	18030.32
488.84	18091.76
489.05	18468.58
489.25	18220.78
489.46	18915.04
489.67	18683.62
489.87	18880.22
490.08	18747.11
490.29	18792.16
490.49	19273.43
490.70	19056.35
490.90	19424.98
491.11	19193.56
491.32	19123.93
491.52	19320.54
491.73	19476.18
491.94	19597.01
492.14	19576.53
492.35	19877.58
492.55	19857.10
492.76	19998.41
492.97	20084.43
493.17	20055.76
493.38	20152.01
493.58	20604.61
493.79	20604.61
494.00	20434.63
494.20	20416.20
494.41	20502.22
494.61	21079.74
494.82	20627.14
495.02	20717.25
495.23	21014.21
495.44	20999.87
495.64	21044.93
495.85	21163.71
496.05	21219.00
496.26	21063.36
496.47	21442.23
496.67	21149.37
496.88	21788.34
497.08	21366.46
497.29	21804.72
497.49	21769.91
497.70	21784.24
497.91	21868.21
498.11	22099.63
498.32	22187.69
498.52	22247.08
498.73	22492.84
498.93	22275.76
499.14	22501.03
499.34	22738.60
499.55	22781.60
499.76	22288.04
499.96	22640.29
500.17	22924.96
500.37	22742.69
500.58	22787.75
500.78	22906.53
500.99	22918.82
501.19	23121.57
501.40	22945.44
501.60	23080.61
501.81	23137.95
502.02	23121.57
502.22	23064.22
502.43	23488.15
502.63	23602.84
502.84	23668.37
503.04	23639.70
503.25	23565.98
503.45	23459.48
503.66	23676.57
503.86	23809.68
504.07	24014.48
504.27	23815.83
504.48	23996.05
504.68	23903.89
504.89	24180.37
505.09	24100.50
505.30	24120.98
505.50	24288.91
505.71	24206.99
505.91	24080.02
506.12	24344.20
506.32	24383.12
506.53	24481.42
506.73	24397.45
506.94	24628.87
507.14	24585.86
507.35	24397.45
507.55	24694.41
507.76	24786.57
507.96	24600.20
508.17	24579.72
508.37	24225.42
508.58	24895.11
508.78	24934.02
508.99	25048.71
509.19	24977.03
509.40	25362.04
509.60	25163.39
509.81	25192.06
510.01	24841.86
510.22	25171.58
510.42	25353.85
510.63	25321.09
510.83	25050.75
511.04	24876.68
511.24	25552.51
511.44	25294.46
511.65	25618.04
511.85	25736.82
512.06	25769.59
512.26	25517.69
512.47	25708.15
512.67	25626.23
512.88	25812.60
513.08	25230.98
513.29	26072.69
513.49	25454.20
513.69	25724.54
513.90	26039.92
514.10	26031.73
514.31	25857.65
514.51	26224.24
514.72	26037.87
514.92	26199.66
515.13	26037.87
515.33	26046.07
515.53	26021.49
515.74	25869.94
515.94	26388.08
516.15	26304.11
516.35	26236.53
516.56	26556.01
516.76	26099.31
516.96	26590.83
517.17	26777.19
517.37	26486.38
517.58	26508.91
517.78	26756.71
517.99	26932.84
518.19	27027.04
518.39	27328.10
518.60	27022.95
518.80	26670.70
519.01	27174.50
519.21	27086.43
519.41	27025.00
519.62	27014.76
519.82	27647.58
520.03	27201.12
520.23	27278.94
520.43	27328.10
520.64	27876.95
520.84	27688.54
521.05	27647.58
521.25	27885.14
521.45	27962.97
521.66	27907.67
521.86	27825.75
522.07	27919.96
522.27	27969.11
522.47	28104.28
522.68	28335.70
522.88	28161.62
523.08	28569.16
523.29	28558.92
523.49	28741.19
523.70	28493.39
523.90	28544.59
524.10	28739.15
524.31	28880.46
524.51	28786.25
524.71	29079.11
524.92	28835.40
525.12	28941.89
525.33	29283.91
525.53	29494.85
525.73	29529.66
525.94	29589.05
526.14	29601.34
526.34	29292.10
526.55	29552.19
526.75	29754.94
526.95	30045.75
527.16	29802.04
527.36	29816.38
527.56	29939.26
527.77	30047.80
527.97	30289.46
528.17	30363.18
528.38	30686.76
528.58	30617.13
528.78	30740.01
528.99	30559.79
529.19	30961.19
529.39	30428.72
529.60	31059.49
529.80	30979.62
530.00	31036.97
530.21	31340.07
530.41	31446.56
530.61	31088.17
530.82	31524.38
531.02	31430.18
531.22	31907.35
531.43	31528.48
531.63	31882.78
531.83	32409.11
532.04	32196.12
532.24	32122.39
532.44	32529.94
532.64	32630.29
532.85	32577.04
533.05	32517.65
533.25	32882.19
533.46	32960.01
533.66	33168.90
533.86	32972.30
534.07	33287.68
534.27	33150.47
534.47	33453.57
534.67	33568.26
534.88	33463.81
535.08	33328.64
535.28	33656.32
535.49	33818.11
535.69	34305.52
535.89	34366.96
536.09	34037.24
536.30	34616.82
536.50	34475.51
536.70	34534.90
536.91	34627.06
537.11	34788.85
537.31	35057.13
537.51	35059.18
537.72	35036.65
537.92	35180.01
538.12	35503.59
538.32	35341.80
538.53	35237.35
538.73	35317.22
538.93	35370.47
539.13	35462.63
539.34	35939.80
539.54	35861.98
539.74	36128.22
539.94	35931.61
540.15	36089.31
540.35	36490.71
540.55	36355.54
540.75	36693.46
540.96	36453.84
541.16	36810.19
541.36	36591.06
541.56	37139.91
541.77	37256.65
541.97	36865.49
542.17	36707.79
542.37	36836.81
542.58	37184.97
542.78	37258.70
542.98	37260.74
543.18	37557.70
543.38	37688.77
543.59	37580.23
543.79	37766.59
543.99	37670.34
544.19	37983.68
544.40	37764.54
544.60	38049.21
544.80	37959.10
545.00	38245.82
545.20	38593.97
545.41	38467.00
545.61	38290.87
545.81	38682.03
546.01	38710.71
546.21	38602.16
546.42	38712.75
546.62	39024.04
546.82	38905.26
547.02	39177.64
547.22	38954.41
547.43	39026.09
547.63	39065.00
547.83	39056.81
548.03	39105.96
548.23	39507.37
548.44	39245.23
548.64	39673.25
548.84	39421.35
549.04	39914.91
549.24	39640.48
549.45	39755.17
549.65	39722.40
549.85	39970.21
550.05	40146.33
550.25	39861.66
550.45	40533.40
550.66	40037.79
550.86	39873.95
551.06	40533.40
551.26	40498.58
551.46	40431.00
551.66	40525.21
551.87	40209.82
552.07	40334.74
552.27	40224.15
552.47	40940.94
552.67	41104.78
552.87	40607.12
553.07	41002.38
553.28	40603.03
553.48	41127.31
553.68	41035.15
553.88	41348.49
554.08	41194.89
554.28	41174.41
554.48	41024.91
554.69	41131.40
554.89	41291.15
555.09	41061.77
555.29	40846.74
555.49	41373.06
555.69	41577.86
555.89	41268.62
556.10	41850.24
556.30	40928.66
556.50	41481.61
556.70	41414.02
556.90	41665.92
557.10	42126.72
557.30	41409.93
557.50	41727.36
557.70	41661.83
557.91	41848.19
558.11	42050.94
558.31	41979.26
558.51	42024.32
558.71	42186.11
558.91	42229.12
559.11	41563.53
559.31	41964.93
559.51	41618.82
559.72	42040.70
559.92	42296.70
560.12	42018.17
560.32	42290.55
560.52	41964.93
560.72	42235.26
560.92	42532.22
561.12	42235.26
561.32	43126.13
561.52	42521.98
561.72	42661.24
561.93	41923.97
562.13	42435.96
562.33	42050.94
562.53	42648.95
562.73	42169.72
562.93	42749.30
563.13	42550.65
563.33	42421.62
563.53	42739.06
563.73	42534.26
563.93	42694.00
564.13	43003.25
564.33	42827.12
564.53	42478.97
564.74	42622.33
564.94	42509.69
565.14	42569.08
565.34	42370.43
565.54	42521.98
565.74	42906.99
565.94	43079.02
566.14	42751.35
566.34	42974.58
566.54	42950.00
566.74	42526.07
566.94	43105.65
567.14	43021.68
567.34	42517.88
567.54	42538.36
567.74	42964.34
567.94	42939.76
568.14	43332.97
568.34	43224.43
568.54	43236.72
568.74	43341.16
568.94	43201.90
569.14	43398.51
569.34	43152.75
569.54	43443.56
569.75	42935.66
569.95	43232.62
570.15	43431.27
570.35	43425.13
570.55	43185.52
570.75	43031.92
570.95	43269.48
571.15	43464.04
571.35	43150.70
571.55	43586.92
571.75	43119.98
571.95	43621.73
572.15	43398.51
572.35	43797.86
572.55	43298.16
572.75	43363.69
572.95	43283.82
573.15	43593.06
573.35	43433.32
573.55	43206.00
573.75	43521.38
573.95	43709.80
574.15	43246.96
574.35	43822.44
574.55	43674.98
574.75	43783.52
574.95	43971.94
575.15	43228.52
575.34	43662.69
575.54	43726.18
575.74	44107.10
575.94	43820.39
576.14	43873.63
576.34	43892.07
576.54	44135.77
576.74	44193.12
576.94	43992.42
577.14	44318.04
577.34	44879.19
577.54	44107.10
577.74	44268.89
577.94	43822.44
578.14	44105.06
578.34	44254.56
578.54	44004.70
578.74	44225.89
578.94	44563.80
579.14	44260.70
579.34	44467.55
579.54	44342.62
579.74	44920.15
579.94	44496.22
580.13	44393.82
580.33	44967.25
580.53	44545.37
580.73	44635.48
580.93	44637.53
581.13	44877.14
581.33	44526.94
581.53	45110.61
581.73	44881.24
581.93	45081.94
582.13	45450.57
582.33	45290.83
582.53	45014.35
582.73	44950.87
582.92	45532.49
583.12	45258.06
583.32	45024.59
583.52	45208.91
583.72	45436.23
583.92	45094.22
584.12	45319.50
584.32	45589.83
584.52	45487.43
584.72	45374.80
584.92	45561.16
585.11	45804.87
585.31	45679.94
585.51	45587.78
585.71	45481.29
585.91	46146.88
586.11	45968.71
586.31	45962.56
586.51	45491.53
586.71	45833.54
586.91	45956.42
587.10	46093.63
587.30	46191.94
587.50	46028.10
587.70	46363.96
587.90	46118.21
588.10	46345.53
588.30	46097.73
588.50	45907.27
588.69	46122.30
588.89	46118.21
589.09	46579.00
589.29	46478.65
589.49	46804.28
589.69	46251.33
589.89	46716.22
590.08	46142.78
590.28	46888.24
590.48	46728.50
590.68	46544.19
590.88	46392.64
591.08	46769.46
591.28	46789.94
591.47	47082.80
591.67	46761.27
591.87	46775.61
592.07	46918.96
592.27	47183.15
592.47	46925.11
592.67	47193.39
592.86	46814.52
593.06	47461.68
593.26	47760.68
593.46	47154.48
593.66	47719.72
593.86	47463.72
594.05	47367.47
594.25	47932.71
594.45	47629.61
594.65	47160.62
594.85	47494.44
595.05	47901.99
595.24	47848.74
595.44	47635.75
595.64	48117.03
595.84	48123.17
596.04	48248.10
596.23	47938.85
596.43	48239.90
596.63	48129.31
596.83	48258.34
597.03	48837.91
597.22	48848.15
597.42	48356.64
597.62	48852.25
597.82	48506.14
598.02	48708.89
598.21	49124.63
598.41	48665.88
598.61	49370.38
598.81	48971.03
599.01	49120.53
599.20	49108.24
599.40	49011.99
599.60	49034.52
599.80	49175.83
600.00	49392.91
600.19	49136.91
600.39	49296.66
600.59	49906.95
600.79	49718.54
600.98	49476.88
601.18	49612.04
601.38	49857.80
601.58	49845.51
601.78	50504.96
601.97	49751.30
602.17	50607.36
602.37	50167.04
602.57	50388.22
602.76	50685.18
602.96	50105.60
603.16	50816.25
603.36	50533.63
603.55	50953.46
603.75	50318.59
603.95	50783.48
604.15	50935.03
604.34	50953.46
604.54	51166.45
604.74	50941.17
604.94	50969.85
605.13	51258.61
605.33	51049.72
605.53	50703.61
605.73	51715.31
605.92	51436.78
606.12	51547.37
606.32	51799.27
606.52	51373.30
606.71	51580.14
606.91	51897.58
607.11	51215.60
607.30	51602.67
607.50	52049.13
607.70	52073.70
607.90	52024.55
608.09	52073.70
608.29	52290.79
608.49	52827.35
608.68	52274.40
608.88	52432.10
609.08	52235.49
609.28	52899.03
609.47	51778.79
609.67	53064.92
609.87	52518.11
610.06	52378.85
610.26	52151.52
610.46	53421.26
610.66	52569.31
610.85	52983.00
611.05	52733.15
611.25	53058.77
611.44	52983.00
611.64	53357.78
611.84	52843.74
612.03	52894.94
612.23	53429.46
612.43	53112.02
612.62	52849.88
612.82	53318.87
613.02	52966.62
613.21	53777.61
613.41	52845.79
613.61	53777.61
613.80	53134.55
614.00	53531.86
614.20	53744.84
614.39	53501.14
614.59	53722.32
614.79	53490.90
614.98	53341.39
615.18	53640.40
615.38	53642.45
615.57	53449.94
615.77	53865.67
615.97	53466.32
616.16	53730.51
616.36	53576.91
616.56	53916.87
616.75	54367.43
616.95	53732.56
617.15	54025.42
617.34	53707.98
617.54	53978.31
617.74	54318.28
617.93	53937.35
618.13	53650.64
618.32	53908.68
618.52	53576.91
618.72	54064.33
618.91	54267.08
619.11	54019.27
619.31	54236.36
619.50	53728.46
619.70	53619.92
619.90	53900.49
620.09	53728.46
620.29	54355.14
620.48	53972.17
620.68	54684.86
620.88	53806.28
621.07	54154.44
621.27	54275.27
621.46	54144.20
621.66	54373.57
621.86	54066.38
622.05	54166.73
622.25	54713.53
622.44	54406.34
622.64	54580.42
622.84	54664.38
623.03	54324.42
623.23	54265.03
623.42	54103.24
623.62	54437.06
623.82	54320.32
624.01	54367.43
624.21	54777.02
624.40	54289.60
624.60	54461.63
624.80	54103.24
624.99	54271.17
625.19	54000.84
625.38	54568.13
625.58	54117.57
625.77	54234.31
625.97	54426.82
626.17	54467.78
626.36	54691.01
626.56	54555.84
626.75	53945.54
626.95	54510.78
627.14	54568.13
627.34	54795.45
627.54	54310.08
627.73	54338.75
627.93	54488.26
628.12	53963.98
628.32	54463.68
628.51	54308.04
628.71	54432.96
628.90	54742.20
629.10	54238.40
629.30	55045.30
629.49	54756.54
629.69	54539.46
629.88	54252.74
630.08	54645.95
630.27	55131.32
630.47	54678.72
630.66	54301.89
630.86	54822.08
631.05	53992.65
631.25	54774.97
631.44	54684.86
631.64	54453.44
631.84	54887.61
632.03	55041.21
632.23	54584.51
632.42	55157.94
632.62	54617.28
632.81	54555.84
633.01	54533.31
633.20	54531.26
633.40	54760.64
633.59	54701.25
633.79	54760.64
633.98	54699.20
634.18	54635.71
634.37	54731.96
634.57	54684.86
634.76	54830.27
634.96	54670.53
635.15	54838.46
635.35	54953.15
635.54	54324.42
635.74	54731.96
635.93	54146.25
636.13	55055.54
636.32	55104.70
636.52	54670.53
636.71	54357.19
636.91	54791.36
637.10	54621.37
637.30	54596.80
637.49	54328.52
637.69	54725.82
637.88	55131.32
638.08	54414.53
638.27	55172.28
638.46	54469.82
638.66	54357.19
638.85	54150.34
639.05	54338.75
639.24	54983.86
639.44	54432.96
639.63	54305.99
639.83	54820.03
640.02	54766.78
640.22	54832.32
640.41	55239.86
640.61	54504.64
640.80	54723.77
640.99	54631.61
641.19	54963.39
641.38	54482.11
641.58	55116.98
641.77	55059.64
641.97	54326.47
642.16	54367.43
642.36	54707.39
642.55	55319.73
642.74	54320.32
642.94	55174.33
643.13	54981.82
643.33	54645.95
643.52	55393.46
643.72	55006.39
643.91	54867.13
644.10	54914.23
644.30	54846.65
644.49	54488.26
644.69	55233.72
644.88	54854.84
645.08	54494.40
645.27	54611.13
645.46	54375.62
645.66	54695.10
645.85	54768.83
646.05	54879.42
646.24	54627.52
646.43	54635.71
646.63	55129.27
646.82	54891.71
647.02	54676.67
647.21	54852.80
647.40	54899.90
647.60	54854.84
647.79	55026.87
647.99	54801.60
648.18	54553.79
648.37	55043.26
648.57	54910.14
648.76	54826.17
648.96	54715.58
649.15	55301.30
649.34	55305.40
649.54	55035.06
649.73	54435.01
649.92	54484.16
650.12	54731.96
650.31	54971.58
650.51	54682.81
650.70	55440.56
650.89	54865.08
651.09	54977.72
651.28	54850.75
651.47	54693.05
651.67	55069.88
651.86	55289.01
652.06	54045.90
652.25	54908.09
652.44	54736.06
652.64	54547.65
652.83	54570.18
653.02	54158.53
653.22	54551.74
653.41	54549.70
653.60	54154.44
653.80	54301.89
653.99	54344.90
654.18	54494.40
654.38	54637.76
654.57	54656.19
654.76	54662.33
654.96	54572.22
655.15	54504.64
655.34	54199.49
655.54	54351.04
655.73	54154.44
655.92	54531.26
656.12	54611.13
656.31	54740.16
656.50	54279.36
656.70	54136.01
656.89	54592.70
657.08	54553.79
657.28	54822.08
657.47	54596.80
657.66	54353.09
657.86	54416.58
658.05	54457.54
658.24	54142.15
658.43	54254.79
658.63	54398.15
658.82	54748.35
659.01	54559.94
659.21	54531.26
659.40	54318.28
659.59	54326.47
659.79	54416.58
659.98	54688.96
660.17	54621.37
660.36	54383.81
660.56	54222.02
660.75	54392.00
660.94	54582.46
661.14	54668.48
661.33	53906.63
661.52	53730.51
661.71	54879.42
661.91	53830.86
662.10	53843.15
662.29	54332.61
662.49	54377.67
662.68	54574.27
662.87	54113.48
663.06	54400.19
663.26	54252.74
663.45	54432.96
663.64	54064.33
663.83	54895.80
664.03	54242.50
664.22	54084.81
664.41	54205.64
664.60	54107.33
664.80	54072.52
664.99	54113.48
665.18	54082.76
665.37	54049.99
665.57	54162.63
665.76	54025.42
665.95	54133.96
666.14	54011.08
666.34	54215.88
666.53	53894.35
666.72	54029.51
666.91	54144.20
667.11	54078.66
667.30	54285.51
667.49	53417.17
667.68	53789.90
667.87	53822.67
668.07	53845.19
668.26	53718.22
668.45	53984.46
668.64	53961.93
668.84	54203.59
669.03	54336.71
669.22	53941.45
669.41	53884.11
669.60	54396.10
669.80	53826.76
669.99	54275.27
670.18	53949.64
670.37	53908.68
670.57	54185.16
670.76	54312.13
670.95	54213.83
671.14	53765.32
671.33	53505.23
671.53	54056.14
671.72	54174.92
671.91	53583.05
672.10	53451.98
672.29	53380.31
672.48	53695.69
672.68	53994.70
672.87	53478.61
673.06	53794.00
673.25	53556.43
673.44	53398.74
673.64	53433.55
673.83	53814.47
674.02	53322.96
674.21	53408.98
674.40	53925.07
674.59	53486.80
674.79	53474.51
674.98	53155.03
675.17	53265.62
675.36	52864.22
675.55	53585.10
675.74	53253.33
675.94	53490.90
676.13	53464.27
676.32	53591.25
676.51	54203.59
676.70	53916.87
676.89	53738.70
677.08	53968.07
677.28	53189.84
677.47	53581.01
677.66	53671.12
677.85	53615.82
678.04	53425.36
678.23	54176.97
678.42	54021.32
678.62	53437.65
678.81	53769.42
679.00	53468.37
679.19	54189.25
679.38	53519.57
679.57	53494.99
679.76	53497.04
679.96	53757.13
680.15	53810.38
680.34	53458.13
680.53	53124.31
680.72	53466.32
680.91	53443.79
681.10	53525.71
681.29	53509.33
681.48	53589.20
681.68	53396.69
681.87	53257.43
682.06	53535.95
682.25	53304.53
682.44	53253.33
682.63	53034.20
682.82	53030.10
683.01	53347.54
683.20	52542.69
683.39	53112.02
683.59	52983.00
683.78	53277.91
683.97	53009.62
684.16	53128.41
684.35	53023.96
684.54	53191.89
684.73	53101.78
684.92	52888.79
685.11	53202.13
685.30	52896.98
685.49	53443.79
685.69	52843.74
685.88	52903.13
686.07	52980.95
686.26	53095.64
686.45	52776.15
686.64	52747.48
686.83	52849.88
687.02	53044.44
687.21	53216.47
687.40	53058.77
687.59	53175.51
687.78	53476.56
687.97	53417.17
688.16	52853.98
688.35	52901.08
688.54	53220.56
688.74	53015.77
688.93	52925.66
689.12	52995.29
689.31	52911.32
689.50	53335.25
689.69	52215.01
689.88	52952.28
690.07	53257.43
690.26	52761.82
690.45	53165.27
690.64	52983.00
690.83	53310.67
691.02	52821.21
691.21	52784.35
691.40	52567.26
691.59	52894.94
691.78	53011.67
691.97	53140.69
692.16	53376.21
692.35	53302.48
692.54	52597.98
692.73	52909.27
692.92	52937.94
693.11	52884.70
693.30	52911.32
693.49	53142.74
693.68	52825.31
693.87	52624.60
694.06	52847.83
694.25	52921.56
694.44	52569.31
694.63	53007.58
694.82	52710.62
695.01	52626.65
695.20	52810.97
695.39	52917.46
695.58	53023.96
695.77	52419.81
695.96	52643.04
696.15	52712.67
696.34	52573.41
696.53	52798.68
696.72	52856.03
696.91	52634.84
697.10	52868.31
697.29	52657.37
697.48	52790.49
697.67	52317.41
697.86	52034.79
698.05	52389.09
698.24	52708.57
698.43	52229.35
698.62	52239.59
698.81	52225.25
699.00	52565.21
699.19	52042.98
699.38	52753.63
699.57	52458.72
699.76	52937.94
699.95	52024.55
700.14	52294.88
700.32	52464.86
700.51	52286.69
700.70	52763.87
700.89	52167.91
701.08	52870.36
701.27	52180.20
701.46	52450.53
701.65	51729.64
701.84	52139.24
702.03	52505.82
702.22	52344.03
702.41	52253.92
702.60	52671.71
702.79	52040.93
702.98	52321.51
703.17	52638.94
703.35	52397.28
703.54	51795.18
703.73	52595.93
703.92	52081.89
704.11	52042.98
704.30	51827.95
704.49	52094.18
704.68	51983.59
704.87	52364.51
705.06	52235.49
705.25	51815.66
705.43	52100.32
705.62	52151.52
705.81	51987.69
706.00	51928.30
706.19	51680.49
706.38	51879.14
706.57	51942.63
706.76	51643.63
706.95	51942.63
707.14	51827.95
707.32	51502.32
707.51	51838.18
707.70	51580.14
707.89	51774.70
708.08	52262.11
708.27	51991.78
708.46	52673.76
708.65	51703.02
708.84	51893.48
709.02	51696.88
709.21	52059.37
709.40	52038.89
709.59	51926.25
709.78	51518.70
709.97	52198.63
710.16	51873.00
710.34	51655.92
710.53	51690.73
710.72	51334.38
710.91	51723.50
711.10	51543.28
711.29	51748.07
711.48	51774.70
711.66	51594.48
711.85	51565.81
712.04	51979.49
712.23	51893.48
712.42	51975.40
712.61	51651.82
712.80	51440.88
712.98	51870.95
713.17	50947.32
713.36	51631.34
713.55	51367.15
713.74	51436.78
713.93	51285.23
714.11	51254.51
714.30	51076.34
714.49	51086.58
714.68	51274.99
714.87	51709.16
715.06	51866.86
715.24	51033.33
715.43	50932.98
715.62	50732.28
715.81	51205.36
716.00	51004.66
716.18	51088.63
716.37	50789.62
716.56	50681.08
716.75	51444.98
716.94	51111.16
717.12	50797.82
717.31	51477.74
717.50	51080.44
717.69	50730.23
717.88	50509.05
718.06	51027.19
718.25	50715.90
718.44	50511.10
718.63	50615.55
718.82	50965.75
719.00	50494.72
719.19	50771.19
719.38	50840.82
719.57	50429.18
719.76	50091.27
719.94	49704.20
720.13	50439.42
720.32	50621.69
720.51	50248.96
720.69	50246.91
720.88	50369.79
721.07	50373.89
721.26	49487.12
721.44	50185.47
721.63	49784.07
721.82	49628.43
722.01	49710.35
722.20	49675.53
722.38	49542.41
722.57	49188.11
722.76	49452.30
722.95	49448.21
723.13	49507.60
723.32	49517.84
723.51	48907.54
723.70	49329.42
723.88	49216.78
724.07	49290.51
724.26	49138.96
724.44	48923.93
724.63	49323.28
724.82	49194.26
725.01	49202.45
725.19	49030.42
725.38	48776.47
725.57	49028.37
725.76	48876.82
725.94	49018.13
726.13	49317.14
726.32	48878.87
726.51	48811.29
726.69	49259.79
726.88	49120.53
727.07	48645.40
727.25	48592.15
727.44	48817.43
727.63	48895.25
727.82	48858.39
728.00	48839.96
728.19	48868.63
728.38	49128.72
728.56	48543.00
728.75	48549.15
728.94	48444.70
729.12	49143.06
729.31	48985.36
729.50	48600.35
729.69	48772.38
729.87	48839.96
730.06	48649.50
730.25	48964.88
730.43	48821.53
730.62	48411.93
730.81	48948.50
730.99	49116.43
731.18	48477.47
731.37	48710.94
731.55	48889.11
731.74	48784.66
731.93	48624.92
732.11	49028.37
732.30	48764.18
732.49	48461.08
732.67	48690.46
732.86	48758.04
733.05	48639.26
733.23	48434.46
733.42	48364.83
733.61	48278.82
733.79	48518.43
733.98	48930.07
734.17	48389.41
734.35	48854.29
734.54	48307.49
734.73	48674.07
734.91	48620.83
735.10	48332.06
735.29	48729.37
735.47	48006.44
735.66	47942.95
735.84	48282.91
736.03	47934.76
736.22	48534.81
736.40	47899.94
736.59	48270.62
736.78	48080.16
736.96	48264.48
737.15	48481.56
737.33	48131.36
737.52	48287.01
737.71	47625.51
737.89	47936.80
738.08	47783.21
738.27	47600.94
738.45	48287.01
738.64	47570.22
738.82	47871.27
739.01	47398.19
739.20	47596.84
739.38	48295.20
739.57	48043.30
739.75	48377.12
739.94	47496.49
740.13	47826.21
740.31	47564.07
740.50	47260.97
740.68	47322.41
740.87	47330.61
741.06	47742.25
741.24	47519.02
741.43	46777.65
741.61	47500.59
741.80	46951.73
741.99	47285.55
742.17	47080.75
742.36	47134.00
742.54	46843.19
742.73	46884.15
742.91	47056.18
743.10	46607.67
743.29	47295.79
743.47	46966.07
743.66	46904.63
743.84	46736.69
744.03	46783.80
744.21	46832.95
744.40	46630.20
744.59	46759.22
744.77	46511.42
744.96	46275.90
745.14	46644.54
745.33	46439.74
745.51	46421.31
745.70	46970.16
745.88	46267.71
746.07	46662.97
746.26	46249.28
746.44	46249.28
746.63	46349.63
746.81	46509.37
747.00	46161.22
747.18	46275.90
747.37	46775.61
747.55	46251.33
747.74	46531.90
747.92	45571.40
748.11	46028.10
748.29	46220.61
748.48	46193.98
748.66	45755.72
748.85	45626.70
749.03	45862.21
749.22	45677.90
749.41	45481.29
749.59	45669.70
749.78	45800.77
749.96	45296.97
750.15	45376.84
750.33	45694.28
750.52	45538.63
750.70	45217.10
750.89	44873.04
751.07	45094.22
751.26	45458.76
751.44	45622.60
751.63	45104.46
751.81	44944.72
752.00	45008.21
752.18	44965.20
752.37	44795.22
752.55	44803.41
752.74	44832.08
752.92	44426.59
753.10	44692.82
753.29	44971.35
753.47	44805.46
753.66	44125.53
753.84	44887.38
754.03	44178.78
754.21	44381.53
754.40	44402.01
754.58	44739.93
754.77	44578.14
754.95	44209.50
755.14	44320.09
755.32	44240.22
755.51	43670.89
755.69	43922.79
755.88	43791.72
756.06	44336.48
756.24	43816.29
756.43	43890.02
756.61	44025.18
756.80	43769.19
756.98	43717.99
757.17	43883.87
757.35	43799.91
757.54	43773.28
757.72	43726.18
757.90	43394.41
758.09	43492.71
758.27	43085.17
758.46	42890.61
758.64	43756.90
758.83	43464.04
759.01	43238.76
759.19	43586.92
759.38	43613.54
759.56	43302.25
759.75	43021.68
759.93	42763.64
760.12	42763.64
760.30	42945.90
760.48	42876.27
760.67	42765.68
760.85	43115.89
761.04	42956.14
761.22	43136.37
761.40	42935.66
761.59	42616.18
761.77	42669.43
761.96	42298.75
762.14	42632.57
762.32	42286.46
762.51	42270.08
762.69	42163.58
762.88	42067.33
763.06	42319.23
763.24	42155.39
763.43	42190.20
763.61	42225.02
763.80	41991.55
763.98	42300.79
764.16	42268.03
764.35	41694.60
764.53	41516.42
764.72	42028.41
764.90	41731.46
765.08	41379.21
765.27	41645.44
765.45	41473.42
765.63	41106.83
765.82	41618.82
766.00	41297.29
766.18	41526.66
766.37	41895.30
766.55	40899.98
766.74	41661.83
766.92	41483.66
767.10	41254.28
767.29	41479.56
767.47	40775.06
767.65	41072.01
767.84	40871.31
768.02	41385.35
768.20	40576.40
768.39	40760.72
768.57	41211.28
768.75	40748.43
768.94	40787.35
769.12	40783.25
769.30	40244.63
769.49	40480.15
769.67	40418.71
769.85	39634.34
770.04	40076.70
770.22	40449.43
770.40	40066.46
770.59	39798.18
770.77	40342.94
770.95	39957.92
771.14	40056.22
771.32	39734.69
771.50	39667.11
771.69	39533.99
771.87	40330.65
772.05	39691.68
772.24	39390.63
772.42	39509.41
772.60	39310.76
772.78	39359.91
772.97	38976.94
773.15	39519.65
773.33	39179.69
773.52	39216.55
773.70	39392.68
773.88	39683.49
774.07	39136.68
774.25	39474.60
774.43	39650.72
774.61	39253.42
774.80	39503.27
774.98	39067.05
775.16	38866.35
775.34	39114.16
775.53	38755.76
775.71	39351.72
775.89	39314.86
776.08	39351.72
776.26	39277.99
776.44	39230.89
776.62	39062.96
776.81	39065.00
776.99	39288.23
777.17	39179.69
777.35	39413.16
777.54	39687.59
777.72	39392.68
777.90	39433.64
778.08	39388.58
778.27	39538.08
778.45	39208.36
778.63	39671.20
778.81	39103.92
779.00	39652.77
779.18	39323.05
779.36	39484.84
779.54	39304.62
779.73	39228.84
779.91	39603.62
780.09	39624.10
780.27	39554.47
780.46	39888.29
780.64	39734.69
780.82	39648.68
781.00	39366.06
781.19	39906.72
781.37	39865.76
781.55	39812.51
781.73	39986.59
781.91	39753.12
782.10	39996.83
782.28	39853.47
782.46	39818.66
782.64	39855.52
782.82	39837.09
783.01	39765.41
783.19	39663.01
783.37	39898.53
783.55	39789.98
783.74	40177.05
783.92	39605.67
784.10	39937.44
784.28	40076.70
784.46	39617.96
784.64	39796.13
784.83	40111.52
785.01	39906.72
785.19	39486.89
785.37	39599.52
785.55	40056.22
785.74	39261.61
785.92	39366.06
786.10	39816.61
786.28	40019.36
786.46	39265.70
786.64	39251.37
786.83	39419.30
787.01	39259.56
787.19	39302.57
787.37	39460.26
787.55	39247.27
787.74	39048.62
787.92	39404.97
788.10	39044.52
788.28	39294.38
788.46	39097.77
788.64	38800.82
788.82	39544.23
789.01	38858.16
789.19	39105.96
789.37	39173.55
789.55	38761.90
789.73	38702.51
789.91	38395.32
790.09	38704.56
790.28	38688.18
790.46	38520.24
790.64	38505.91
790.82	38264.25
791.00	37926.33
791.18	38374.84
791.36	38469.04
791.55	38079.93
791.73	38192.57
791.91	37936.57
792.09	37739.97
792.27	37557.70
792.45	38026.68
792.63	37809.60
792.81	37633.47
793.00	37483.97
793.18	37352.90
793.36	37721.54
793.54	37414.34
793.72	37088.71
793.90	37486.02
794.08	37078.47
794.26	37395.91
794.44	36795.85
794.62	36947.40
794.81	37238.22
794.99	37066.19
795.17	36802.00
795.35	36675.02
795.53	36785.61
795.71	36904.40
795.89	36197.85
796.07	36476.37
796.25	36003.29
796.43	36056.54
796.61	36171.22
796.80	35997.15
796.98	36005.34
797.16	35739.10
797.34	35847.64
797.52	35659.23
797.70	36017.63
797.88	35692.00
798.06	35517.92
798.24	35440.10
798.42	35581.41
798.60	35263.97
798.78	35157.48
798.96	35157.48
799.14	34706.93
799.32	35423.72
799.51	35106.28
799.69	35079.66
799.87	35053.03
800.05	34608.62
800.23	34917.87
800.41	34631.15
800.59	34975.21
800.77	34393.59
800.95	34135.54
801.13	34616.82
801.31	34383.35
801.49	33873.40
801.67	34244.09
801.85	34369.01
802.03	33687.04
802.21	33601.02
802.39	33912.31
802.57	33494.53
802.75	33490.43
802.93	33508.86
803.11	33535.49
803.29	33840.64
803.47	33361.41
803.65	33224.20
803.83	33193.48
804.01	33353.22
804.19	32859.66
804.37	32951.82
804.55	33005.06
804.73	32728.59
804.91	32886.28
805.09	33304.07
805.27	33033.74
805.45	33060.36
805.63	32488.98
805.81	32611.85
805.99	32568.85
806.17	32892.43
806.35	32318.99
806.53	32448.02
806.71	32675.34
806.89	32470.54
807.07	32028.18
807.25	32273.94
807.43	31876.63
807.61	32316.95
807.79	31940.12
807.97	31653.40
808.15	31727.13
808.33	31675.93
808.51	31641.12
808.69	31544.86
808.87	31577.63
809.05	31749.66
809.23	31415.84
809.41	31274.53
809.59	31292.96
809.77	31254.05
809.95	31018.53
810.13	31286.82
810.31	31198.76
810.49	31039.01
810.67	31004.20
810.84	31217.19
811.02	30623.28
811.20	30672.43
811.38	30832.17
811.56	30752.30
811.74	30680.62
811.92	30252.59
812.10	30795.31
812.28	30588.46
812.46	30404.14
812.64	30455.34
812.82	30201.40
813.00	30205.49
813.18	30436.91
813.36	30346.80
813.53	30117.43
813.71	30242.35
813.89	30129.72
814.07	30246.45
814.25	30191.16
814.43	30113.33
814.61	29845.05
814.79	30037.56
814.97	29718.07
815.15	29814.33
815.33	29740.60
815.50	29625.92
815.68	29681.21
815.86	29777.47
816.04	29142.60
816.22	29457.98
816.40	29296.19
816.58	29201.99
816.76	29036.10
816.94	29093.44
817.11	29331.01
817.29	29204.03
817.47	29253.19
817.65	29089.35
817.83	29079.11
818.01	29001.29
818.19	28970.57
818.37	28778.06
818.54	28603.98
818.72	28624.46
818.90	28751.43
819.08	28649.03
819.26	28669.51
819.44	28835.40
819.62	28630.60
819.80	28614.22
819.97	28497.49
820.15	28108.37
820.33	28333.65
820.51	28587.60
820.69	28008.02
820.87	28044.88
821.05	28515.92
821.22	27969.11
821.40	28247.63
821.58	28089.94
821.76	27993.68
821.94	27887.19
822.12	28104.28
822.29	28151.38
822.47	27993.68
822.65	28186.19
822.83	27979.35
823.01	27534.94
823.19	27713.11
823.36	27600.47
823.54	27643.48
823.72	27547.23
823.90	27254.37
824.08	27422.30
824.25	27391.58
824.43	27555.42
824.61	27571.80
824.79	27450.97
824.97	27307.62
825.15	27342.43
825.32	27324.00
825.50	27053.67
825.68	27272.80
825.86	27522.65
826.04	27631.19
826.21	27346.53
826.39	27254.37
826.57	27225.70
826.75	26842.73
826.93	26936.93
827.10	26877.54
827.28	27354.72
827.46	27049.57
827.64	26754.66
827.81	26740.33
827.99	26836.58
828.17	26818.15
828.35	26717.80
828.53	26390.13
828.70	26746.47
828.88	26408.56
829.06	26820.20
829.24	26867.30
829.41	26693.22
829.59	27039.33
829.77	26648.17
829.95	26547.82
830.12	26541.68
830.30	26394.22
830.48	26625.64
830.66	26062.45
830.84	26363.50
831.01	26306.16
831.19	26320.49
831.37	26216.05
831.55	26214.00
831.72	26359.41
831.90	26322.54
832.08	26619.50
832.25	26089.07
832.43	26144.37
832.61	25783.93
832.79	25572.99
832.96	25755.26
833.14	25974.39
833.32	26021.49
833.50	26173.04
833.67	26105.46
833.85	25919.09
834.03	25382.52
834.20	25810.55
834.38	26076.79
834.56	25943.67
834.74	25808.50
834.91	25685.62
835.09	25992.82
835.27	25499.26
835.44	25511.55
835.62	25546.36
835.80	25208.45
835.98	25515.64
836.15	25345.66
836.33	25284.22
836.51	25562.75
836.68	25394.81
836.86	25349.76
837.04	25091.71
837.21	25142.91
837.39	25638.52
837.57	25515.64
837.75	25384.57
837.92	25128.58
838.10	24987.27
838.28	24974.98
838.45	25122.43
838.63	24768.13
838.81	25284.22
838.98	25175.68
839.16	24972.93
839.34	24907.40
839.51	24970.88
839.69	24520.33
839.87	24764.04
840.04	24854.15
840.22	24944.26
840.40	24839.81
840.57	24743.56
840.75	24798.85
840.93	24508.04
841.10	24626.82
841.28	24671.88
841.46	24802.95
841.63	24909.44
841.81	24426.12
841.98	24622.73
842.16	24794.76
842.34	24524.43
842.51	24598.15
842.69	24643.21
842.87	24403.60
843.04	24667.78
843.22	24170.13
843.40	24225.42
843.57	24321.68
843.75	24166.03
843.92	24137.36
844.10	24219.28
844.28	24311.44
844.45	23981.71
844.63	24028.82
844.81	24221.33
844.98	24290.96
845.16	24172.18
845.33	24315.53
845.51	24024.72
845.69	23969.43
845.86	23793.30
846.04	24094.35
846.21	24264.33
846.39	23672.47
846.57	23817.88
846.74	23860.88
846.92	23744.15
847.09	23707.29
847.27	23574.17
847.45	23893.65
847.62	24018.58
847.80	23873.17
847.97	23914.13
848.15	23643.80
848.32	23656.09
848.50	23482.01
848.68	23357.08
848.85	23486.11
849.03	23037.60
849.20	23457.43
849.38	23498.39
849.56	23420.57
849.73	23330.46
849.91	23525.02
850.08	23563.93
850.26	23256.73
850.43	23209.63
850.61	23447.19
850.78	22927.01
850.96	23088.80
851.14	22957.73
851.31	23146.14
851.49	23099.04
851.66	23287.45
851.84	22982.31
852.01	23070.37
852.19	23053.98
852.36	23035.55
852.54	23260.83
852.71	22970.02
852.89	23066.27
853.07	22992.55
853.24	22707.88
853.42	22963.87
853.59	23051.94
853.77	22955.68
853.94	22834.85
854.12	22927.01
854.29	22601.38
854.47	22623.91
854.64	22750.88
854.82	22554.28
854.99	22867.62
855.17	22539.94
855.34	22750.88
855.52	22556.33
855.69	22724.26
855.87	22513.32
856.04	22374.06
856.22	22664.87
856.39	22249.13
856.57	22337.20
856.74	22113.97
856.92	22519.46
857.09	22380.20
857.27	22279.85
857.44	22494.89
857.62	22185.65
857.79	22642.34
857.97	22210.22
858.14	22169.26
858.32	21984.94
858.49	22296.24
858.67	21898.93
858.84	22070.96
859.02	22009.52
859.19	21585.59
859.37	22040.24
859.54	21847.73
859.72	22288.04
859.89	21974.70
860.06	21997.23
860.24	21632.69
860.41	21845.68
860.59	21802.68
860.76	21794.48
860.94	21464.76
861.11	21653.17
861.29	21262.01
861.46	21640.89
861.64	21468.86
861.81	21388.99
861.98	21546.68
862.16	21491.38
862.33	21509.82
862.51	21612.21
862.68	21692.08
862.86	21341.88
863.03	21298.88
863.21	21538.49
863.38	21298.88
863.55	21366.46
863.73	21450.42
863.90	21225.15
864.08	20979.39
864.25	21190.33
864.43	21085.89
864.60	20989.63
864.77	20862.66
864.95	20879.04
865.12	20842.18
865.30	21171.90
865.47	20928.19
865.64	20653.76
865.82	20846.27
865.99	21051.07
866.17	20600.52
866.34	21096.13
866.51	20711.11
866.69	20801.22
866.86	20686.53
867.04	20768.45
867.21	20612.81
867.38	20403.91
867.56	20610.76
867.73	20600.52
867.91	20584.13
868.08	20342.47
868.25	20416.20
868.43	20365.00
868.60	20453.06
868.78	20084.43
868.95	20434.63
869.12	20377.29
869.30	20274.89
869.47	20467.40
869.64	19979.98
869.82	20051.66
869.99	20057.81
870.16	20154.06
870.34	20276.94
870.51	20121.29
870.69	20025.04
870.86	20088.53
871.03	19967.70
871.21	19865.30
871.38	20344.52
871.55	19752.66
871.73	19592.92
871.90	19242.71
872.07	19820.24
872.25	19449.56
872.42	19597.01
872.59	19554.01
872.77	19775.19
872.94	19377.88
873.11	19535.57
873.29	19590.87
873.46	19416.79
873.63	19498.71
873.81	19443.42
873.98	18951.90
874.15	19123.93
874.33	19197.66
874.50	19308.25
874.67	19064.54
874.85	18878.18
875.02	19130.08
875.19	19031.77
875.37	19062.49
875.54	18783.97
875.71	19054.30
875.88	18790.11
876.06	18915.04
876.23	18697.95
876.40	18757.35
876.58	18491.11
876.75	18783.97
876.92	18347.75
877.10	18558.69
877.27	18706.15
877.44	18566.88
877.61	18247.40
877.79	18435.81
877.96	18065.13
878.13	18290.41
878.31	18005.74
878.48	18206.44
878.65	18267.88
878.82	18153.20
879.00	18304.74
879.17	17993.45
879.34	18269.93
879.51	17798.90
879.69	17813.23
879.86	17991.41
880.03	17989.36
880.21	17735.41
880.38	17987.31
880.55	18007.79
880.72	17737.46
880.90	18048.75
881.07	17661.68
881.24	17723.12
881.41	17999.60
881.59	17667.83
881.76	17569.52
881.93	17706.74
882.10	17555.19
882.28	17534.71
882.45	17581.81
882.62	17491.70
882.79	17538.80
882.96	17293.05
883.14	17483.51
883.31	17630.96
883.48	17399.54
883.65	17633.01
883.83	17540.85
884.00	17270.52
884.17	17489.65
884.34	17288.95
884.51	17094.40
884.69	17157.88
884.86	17182.46
885.03	17192.70
885.20	16959.23
885.38	16875.26
885.55	17350.39
885.72	17202.94
885.89	16903.93
886.06	16983.80
886.24	17096.44
886.41	17073.92
886.58	16809.73
886.75	16987.90
886.92	16955.13
887.10	17051.39
887.27	16908.03
887.44	16699.14
887.61	17108.73
887.78	16971.52
887.95	16740.10
888.13	16574.21
888.30	16625.41
888.47	16539.40
888.64	16551.68
888.81	16330.50
888.99	16662.27
889.16	16469.76
889.33	16471.81
889.50	16506.63
889.67	16467.72
889.84	16279.30
890.01	16598.79
890.19	16322.31
890.36	16142.09
890.53	16152.33
890.70	16242.44
890.87	16027.40
891.04	16342.79
891.22	16293.64
891.39	16371.46
891.56	15875.85
891.73	16076.55
891.90	16084.75
892.07	15947.53
892.24	15783.70
892.42	15664.91
892.59	15855.37
892.76	15591.19
892.93	15636.24
893.10	15812.37
893.27	15875.85
893.44	15666.96
893.61	15529.75
893.79	15795.98
893.96	15818.51
894.13	15953.68
894.30	15986.44
894.47	15673.10
894.64	15886.09
894.81	15697.68
894.98	15830.80
895.15	15619.86
895.33	15795.98
895.50	15578.90
895.67	15744.78
895.84	15693.58
896.01	15494.93
896.18	15539.99
896.35	15812.37
896.52	15736.59
896.69	15533.84
896.86	15578.90
897.04	15709.97
897.21	15513.36
897.38	15613.71
897.55	15513.36
897.72	15511.32
897.89	15675.15
898.06	15511.32
898.23	15527.70
898.40	15417.11
898.57	15499.03
898.74	15386.39
898.91	15290.13
899.08	15359.77
899.26	15413.01
899.43	15566.61
899.60	15439.64
899.77	15642.39
899.94	15159.06
900.11	15163.16
900.28	15445.78
900.45	15363.86
900.62	15195.93
900.79	15771.41
900.96	15398.68
901.13	15245.08
901.30	15322.90
901.47	15251.22
901.64	15343.38
901.81	15376.15
901.98	15312.66
902.15	15419.16
902.32	15296.28
902.49	15501.08
902.66	15238.94
902.83	15157.02
903.01	15253.27
903.18	15091.48
903.35	15060.76
903.52	15220.50
903.69	15283.99
903.86	15365.91
904.03	15283.99
904.20	15329.05
904.37	15365.91
904.54	15243.03
904.71	15410.96
904.88	15064.86
905.05	15173.40
905.22	15216.41
905.39	14882.59
905.56	15324.95
905.73	15175.45
905.90	15130.39
906.07	15185.69
906.24	15128.35
906.41	15116.06
906.58	15273.75
906.75	15023.90
906.92	14870.30
907.09	15161.11
907.26	15298.33
907.43	15116.06
907.60	14898.97
907.77	14960.41
907.93	14956.32
908.10	14950.17
908.27	15054.62
908.44	14716.70
908.61	15058.71
908.78	15025.95
908.95	14941.98
909.12	14987.04
909.29	15114.01
909.46	15159.06
909.63	14995.23
909.80	15068.95
909.97	15064.86
910.14	14704.42
910.31	14948.12
910.48	14769.95
910.65	14921.50
910.82	14999.32
910.99	14913.31
911.16	14901.02
911.33	14954.27
911.50	14833.44
911.66	14786.33
911.83	14765.85
912.00	14702.37
912.17	14618.40
912.34	14464.80
912.51	14532.39
912.68	14532.39
912.85	14618.40
913.02	14636.83
913.19	14556.96
913.36	14397.22
913.53	14438.18
913.70	14270.25
913.86	14462.76
914.03	14370.60
914.20	14296.87
914.37	14403.36
914.54	14325.54
914.71	14311.21
914.88	14133.03
915.05	14368.55
915.22	14122.79
915.39	14200.62
915.55	14176.04
915.72	13975.34
915.89	13901.61
916.06	13905.71
916.23	13907.76
916.40	13850.41
916.57	13838.12
916.74	13795.12
916.91	13698.86
917.07	13555.51
917.24	13784.88
917.41	13678.38
917.58	13485.87
917.75	13518.64
917.92	13424.44
918.09	13612.85
918.26	13584.18
918.42	13535.03
918.59	13317.94
918.76	13383.48
918.93	13281.08
919.10	13184.82
919.27	13344.56
919.44	13315.89
919.60	13487.92
919.77	13281.08
919.94	13082.42
920.11	12982.07
920.28	13008.70
920.45	12975.93
920.61	12941.11
920.78	12873.53
920.95	12851.00
921.12	12840.76
921.29	12789.56
921.46	12779.32
921.62	12566.34
921.79	12562.24
921.96	12564.29
922.13	12631.87
922.30	12414.79
922.47	12476.23
922.63	12320.58
922.80	12242.76
922.97	12220.23
923.14	12085.06
923.31	12218.18
923.47	12226.37
923.64	12398.40
923.81	12083.02
923.98	12101.45
924.15	11910.99
924.32	11999.05
924.48	12027.72
924.65	12287.81
924.82	11777.87
924.99	11654.99
925.15	11730.76
925.32	11820.88
925.49	11446.10
925.66	11646.80
925.83	11558.74
925.99	11562.83
926.16	11413.33
926.33	11587.41
926.50	11454.29
926.67	11521.87
926.83	11265.88
927.00	11204.44
927.17	11388.75
927.34	11140.95
927.50	11007.83
927.67	11218.77
927.84	10999.64
928.01	10864.47
928.17	10866.52
928.34	10958.68
928.51	10913.63
928.68	10762.08
928.84	10757.98
929.01	10555.23
929.18	10622.81
929.35	10608.48
929.51	10237.80
929.68	10473.31
929.85	10356.58
930.02	10440.54
930.18	10381.15
930.35	10268.52
930.52	10350.43
930.69	10364.77
930.85	10188.64
931.02	10012.52
931.19	10135.40
931.36	10030.95
931.52	10039.14
931.69	10082.15
931.86	9969.51
932.02	9906.02
932.19	9731.95
932.36	9754.48
932.53	9897.83
932.69	9830.25
932.86	9764.72
933.03	9480.05
933.19	9480.05
933.36	9572.21
933.53	9543.53
933.70	9531.25
933.86	9373.55
934.03	9375.60
934.20	9230.20
934.36	9224.05
934.53	9043.83
934.70	9146.23
934.86	8945.53
935.03	9054.07
935.20	8892.28
935.36	8804.22
935.53	8726.39
935.70	8615.80
935.86	8535.93
936.03	8574.85
936.20	8368.00
936.36	8382.34
936.53	8204.16
936.70	8245.12
936.86	8259.46
937.03	8101.76
937.20	7935.88
937.36	8032.13
937.53	7729.03
937.70	7909.26
937.86	7679.88
938.03	7581.58
938.20	7612.30
938.36	7487.37
938.53	7473.04
938.70	7321.49
938.86	7307.15
939.03	7356.30
939.20	7098.26
939.36	7296.91
939.53	6893.46
939.70	7167.89
939.86	6754.20
940.03	6750.10
940.19	6635.42
940.36	6668.19
940.53	6545.31
940.69	6557.60
940.86	6389.66
941.03	6311.84
941.19	6240.16
941.36	6186.91
941.52	6277.02
941.69	6123.43
941.86	6164.39
942.02	6119.33
942.19	6053.80
942.35	5992.36
942.52	5906.34
942.69	5681.07
942.85	5707.69
943.02	5826.47
943.18	5785.51
943.35	5556.14
943.52	5697.45
943.68	5595.05
943.85	5593.00
944.01	5535.66
944.18	5371.82
944.35	5615.53
944.51	5506.99
944.68	5357.49
944.84	5248.94
945.01	5377.97
945.17	5283.76
945.34	5265.33
945.51	5390.25
945.67	5386.16
945.84	5156.79
946.00	5162.93
946.17	5195.70
946.33	5257.14
946.50	5277.62
946.67	5279.66
946.83	5201.84
947.00	5199.79
947.16	5142.45
947.33	5218.22
947.49	5197.74
947.66	5193.65
947.82	5164.98
947.99	5246.90
948.16	5283.76
948.32	5013.43
948.49	5373.87
948.65	5226.42
948.82	5289.90
948.98	5070.77
949.15	5119.92
949.31	5263.28
949.48	5183.41
949.64	5218.22
949.81	5025.72
949.97	5083.06
950.14	5183.41
950.30	4949.94
950.47	5220.27
950.63	5183.41
950.80	5091.25
950.96	5119.92
951.13	5195.70
951.30	5267.38
951.46	5136.31
951.63	5369.77
951.79	5193.65
951.96	5218.22
952.12	5197.74
952.29	5187.50
952.45	5074.87
952.62	5158.83
952.78	5320.62
952.94	5261.23
953.11	5099.44
953.27	5212.08
953.44	5306.29
953.60	5236.66
953.77	5242.80
953.93	5263.28
954.10	5253.04
954.26	5291.95
954.43	5109.68
954.59	5402.54
954.76	5310.38
954.92	5269.42
955.09	5425.07
955.25	5285.81
955.42	5281.71
955.58	5322.67
955.75	5296.05
955.91	5244.85
956.07	5177.26
956.24	5269.42
956.40	5232.56
956.57	5314.48
956.73	5074.87
956.90	5343.15
957.06	5459.88
957.23	5289.90
957.39	5337.01
957.56	5289.90
957.72	5201.84
957.88	5140.40
958.05	5455.79
958.21	5330.86
958.38	5259.18
958.54	5294.00
958.71	5359.53
958.87	5412.78
959.03	5042.10
959.20	5263.28
959.36	5238.70
959.53	5242.80
959.69	5160.88
959.85	5277.62
960.02	5285.81
960.18	5255.09
960.35	5283.76
960.51	5357.49
960.68	5244.85
960.84	5380.01
961.00	5275.57
961.17	5296.05
961.33	5156.79
961.50	5367.73
961.66	5441.45
961.82	5240.75
961.99	5210.03
962.15	5298.10
962.31	5121.97
962.48	5318.57
962.64	5404.59
962.81	5240.75
962.97	5246.90
963.13	5246.90
963.30	5183.41
963.46	5173.17
963.62	5218.22
963.79	5207.98
963.95	5226.42
964.12	5199.79
964.28	5179.31
964.44	5175.22
964.61	5343.15
964.77	5253.04
964.93	5363.63
965.10	5091.25
965.26	5171.12
965.42	5042.10
965.59	5171.12
965.75	5146.55
965.92	5046.20
966.08	5097.39
966.24	5207.98
966.41	4986.80
966.57	5162.93
966.73	5244.85
966.90	5218.22
967.06	5038.00
967.22	5013.43
967.39	5044.15
967.55	5046.20
967.71	5160.88
967.88	5111.73
968.04	4906.93
968.20	5038.00
968.37	5134.26
968.53	4919.22
968.69	5062.58
968.85	5005.24
969.02	5103.54
969.18	5121.97
969.34	5058.48
969.51	5068.72
969.67	5070.77
969.83	4751.29
970.00	5003.19
970.16	4779.96
970.32	4880.31
970.48	5009.33
970.65	4814.77
970.81	4782.01
970.97	4800.44
971.14	4724.66
971.30	4984.76
971.46	4847.54
971.63	4935.60
971.79	4923.32
971.95	4718.52
972.11	4767.67
972.28	4755.38
972.44	4933.56
972.60	4728.76
972.76	4794.29
972.93	4732.86
973.09	4853.69
973.25	4804.53
973.42	4886.45
973.58	4718.52
973.74	4636.60
973.90	4788.15
974.07	4599.74
974.23	4757.43
974.39	4620.22
974.55	4720.57
974.72	4556.73
974.88	4503.48
975.04	4745.14
975.20	4691.90
975.37	4630.46
975.53	4534.20
975.69	4597.69
975.85	4550.59
976.01	4671.42
976.18	4509.63
976.34	4394.94
976.50	4704.18
976.66	4673.46
976.83	4546.49
976.99	4554.68
977.15	4382.65
977.31	4304.83
977.47	4581.31
977.64	4618.17
977.80	4556.73
977.96	4566.97
978.12	4339.65
978.29	4493.24
978.45	4407.23
978.61	4308.93
978.77	4609.98
978.93	4331.45
979.10	4376.51
979.26	4378.56
979.42	4403.13
979.58	4239.30
979.74	4284.35
979.91	4476.86
980.07	4265.92
980.23	4368.32
980.39	4405.18
980.55	4429.76
980.71	4329.41
980.88	4370.37
981.04	4437.95
981.20	4356.03
981.36	4390.84
981.52	4394.94
981.68	4206.53
981.85	4378.56
982.01	4231.10
982.17	4100.03
982.33	4222.91
982.49	4247.49
982.65	4227.01
982.82	4145.09
982.98	4255.68
983.14	4155.33
983.30	4140.99
983.46	4300.73
983.62	4059.07
983.79	4116.42
983.95	4110.27
984.11	3968.96
984.27	3960.77
984.43	4114.37
984.59	4018.11
984.75	4128.70
984.91	4192.19
985.08	3968.96
985.24	3940.29
985.40	4030.40
985.56	4046.79
985.72	4032.45
985.88	4026.31
986.04	3985.35
986.20	3956.68
986.37	3934.15
986.53	3813.32
986.69	3919.81
986.85	3817.41
987.01	3860.42
987.17	4001.73
987.33	3833.80
987.49	3854.28
987.65	3907.52
987.82	3858.37
987.98	3819.46
988.14	3923.91
988.30	3813.32
988.46	3837.89
988.62	3807.17
988.78	3762.12
988.94	3782.60
989.10	3626.95
989.26	3672.01
989.42	3751.88
989.59	3792.84
989.75	3682.25
989.91	3827.65
990.07	3710.92
990.23	3665.86
990.39	3762.12
990.55	3764.17
990.71	3585.99
990.87	3725.26
991.03	3717.06
991.19	3637.19
991.35	3643.34
991.51	3624.90
991.67	3715.02
991.83	3592.14
992.00	3653.58
992.16	3839.94
992.32	3706.82
992.48	3581.90
992.64	3536.84
992.80	3491.79
992.96	3692.49
993.12	3555.27
993.28	3567.56
993.44	3645.38
993.60	3649.48
993.76	3649.48
993.92	3585.99
994.08	3467.21
994.24	3508.17
994.40	3454.92
994.56	3528.65
994.72	3491.79
994.88	3456.97
995.04	3461.07
995.20	3489.74
995.36	3532.75
995.52	3540.94
995.68	3405.77
995.84	3434.44
996.00	3659.72
996.16	3403.72
996.32	3411.92
996.48	3434.44
996.64	3532.75
996.80	3452.88
996.96	3461.07
997.12	3366.86
997.28	3237.84
997.44	3211.22
997.60	3430.35
997.76	3309.52
997.92	3399.63
998.08	3303.37
998.24	3295.18
998.40	3190.74
998.56	3420.11
998.72	3098.58
998.88	3256.27
999.04	3215.31
999.20	3377.10
999.36	3153.87
999.52	3391.44
999.68	3246.03
999.84	3166.16
1000.00	3217.36
1000.16	3252.17
1000.32	3100.62
1000.48	3215.31
1000.64	3121.10
1000.80	3100.62
1000.95	3147.73
1001.11	3215.31
1001.27	3078.10
1001.43	3035.09
1001.59	3018.71
1001.75	3133.39
1001.91	2994.13
1002.07	2971.60
1002.23	3102.67
1002.39	3000.27
1002.55	3229.65
1002.71	2990.03
1002.87	3006.42
1003.03	2965.46
1003.19	2998.23
1003.34	3094.48
1003.50	3117.01
1003.66	3088.34
1003.82	3147.73
1003.98	3014.61
1004.14	3076.05
1004.30	2969.55
1004.46	2926.55
1004.62	2940.88
1004.78	2969.55
1004.94	2987.99
1005.09	2940.88
1005.25	3043.28
1005.41	2885.59
1005.57	2897.88
1005.73	2979.79
1005.89	2818.00
1006.05	2897.88
1006.21	2844.63
1006.37	2912.21
1006.52	2813.91
1006.68	2789.33
1006.84	3002.32
1007.00	2887.64
1007.16	2854.87
1007.32	2815.96
1007.48	2840.53
1007.64	2772.95
1007.79	2844.63
1007.95	2846.68
1008.11	2908.12
1008.27	2822.10
1008.43	2789.33
1008.59	2791.38
1008.75	2785.24
1008.91	2867.16
1009.06	2795.48
1009.22	2787.29
1009.38	2809.81
1009.54	2818.00
1009.70	2674.65
1009.86	2715.61
1010.01	2803.67
1010.17	2648.02
1010.33	2836.44
1010.49	2748.37
1010.65	2840.53
1010.81	2707.41
1010.96	2822.10
1011.12	2721.75
1011.28	2609.11
1011.44	2670.55
1011.60	2777.05
1011.76	2574.30
1011.91	2631.64
1012.07	2555.86
1012.23	2598.87
1012.39	2547.67
1012.55	2590.68
1012.71	2566.10
1012.86	2645.98
1013.02	2551.77
1013.18	2598.87
1013.34	2521.05
1013.50	2650.07
1013.65	2617.30
1013.81	2519.00
1013.97	2619.35
1014.13	2549.72
1014.29	2564.06
1014.44	2709.46
1014.60	2551.77
1014.76	2494.43
1014.92	2559.96
1015.07	2547.67
1015.23	2555.86
1015.39	2523.10
1015.55	2512.86
1015.71	2482.14
1015.86	2523.10
1016.02	2441.18
1016.18	2371.55
1016.34	2519.00
1016.49	2447.32
1016.65	2508.76
1016.81	2435.03
1016.97	2389.98
1017.12	2455.51
1017.28	2377.69
1017.44	2328.54
1017.60	2389.98
1017.75	2396.12
1017.91	2404.32
1018.07	2414.56
1018.23	2441.18
1018.38	2392.03
1018.54	2365.40
1018.70	2408.41
1018.86	2336.73
1019.01	2361.31
1019.17	2420.70
1019.33	2531.29
1019.49	2465.75
1019.64	2306.01
1019.80	2334.68
1019.96	2443.23
1020.12	2396.12
1020.27	2306.01
1020.43	2322.40
1020.59	2385.88
1020.74	2334.68
1020.90	2353.12
1021.06	2385.88
1021.22	2361.31
1021.37	2279.39
1021.53	2306.01
1021.69	2314.20
1021.84	2273.25
1022.00	2287.58
1022.16	2213.85
1022.31	2326.49
1022.47	2299.87
1022.63	2361.31
1022.79	2222.05
1022.94	2260.96
1023.10	2283.49
1023.26	2238.43
1023.41	2273.25
1023.57	2168.80
1023.73	2269.15
1023.88	2258.91
1024.04	2207.71
1024.20	2142.18
1024.35	2230.24
1024.51	2303.96
1024.67	2172.89
1024.82	2344.92
1024.98	2164.70
1025.14	2224.09
1025.29	2160.61
1025.45	2344.92
1025.61	2138.08
1025.76	2228.19
1025.92	2146.27
1026.08	2303.96
1026.23	2189.28
1026.39	2238.43
1026.55	2240.48
1026.70	2181.09
1026.86	2213.85
1027.02	2199.52
1027.17	2228.19
1027.33	2142.18
1027.48	2158.56
1027.64	2129.89
1027.80	2058.21
1027.95	2158.56
1028.11	2060.26
1028.27	2086.88
1028.42	2164.70
1028.58	2107.36
1028.73	2121.70
1028.89	2060.26
1029.05	2109.41
1029.20	2070.50
>>>>>End Processed Spectral Data<<<<<
