SpectraSuite Data File
++++++++++++++++++++++++++++++++++++
Date: Fri Jun 02 14:51:10 CEST 2017
User: INFO_000
Dark Spectrum Present: No
Reference Spectrum Present: No
Number of Sampled Component Spectra: 1
Spectrometers: USB4H00879
Integration Time (usec): 80000 (USB4H00879)
Spectra Averaged: 1 (USB4H00879)
Boxcar Smoothing: 0 (USB4H00879)
Correct for Electrical Dark: No (USB4H00879)
Strobe/Lamp Enabled: No (USB4H00879)
Correct for Detector Non-linearity: No (USB4H00879)
Correct for Stray Light: No (USB4H00879)
Number of Pixels in Processed Spectrum: 3648
>>>>>Begin Processed Spectral Data<<<<<
345.13	1294.32
345.34	1294.32
345.56	1294.32
345.78	1249.26
345.99	1310.70
346.21	1769.44
346.42	1695.72
346.64	1681.38
346.86	1763.30
347.07	1677.29
347.29	1683.43
347.50	1581.03
347.72	1714.15
347.94	1779.68
348.15	1578.98
348.37	1636.33
348.59	1742.82
348.80	1691.62
349.02	1808.36
349.23	1781.73
349.45	1783.78
349.67	1791.97
349.88	1800.16
350.10	1968.10
350.31	1849.32
350.53	1875.94
350.75	1929.19
350.96	1724.39
351.18	1832.93
351.39	1869.80
351.61	1865.70
351.82	1908.71
352.04	1865.70
352.26	1837.03
352.47	1826.79
352.69	1923.04
352.90	1804.26
353.12	1804.26
353.34	1826.79
353.55	1906.66
353.77	1861.60
353.98	1810.40
354.20	1839.08
354.41	1937.38
354.63	1867.75
354.85	2074.59
355.06	1902.56
355.28	1753.06
355.49	1875.94
355.71	1873.89
355.92	1855.46
356.14	1857.51
356.35	1849.32
356.57	1880.04
356.79	1865.70
357.00	1845.22
357.22	1939.43
357.43	1875.94
357.65	1923.04
357.86	1894.37
358.08	1929.19
358.29	1929.19
358.51	2002.91
358.72	1953.76
358.94	1880.04
359.16	1880.04
359.37	1900.52
359.59	1945.57
359.80	1966.05
360.02	1943.52
360.23	1935.33
360.45	1994.72
360.66	1970.15
360.88	1851.36
361.09	1957.86
361.31	1957.86
361.52	1964.00
361.74	2019.30
361.95	2039.78
362.17	1939.43
362.38	1996.77
362.60	2066.40
362.81	2009.06
363.03	1908.71
363.24	2029.54
363.46	2097.12
363.67	2021.35
363.89	1961.95
364.10	2037.73
364.32	1994.72
364.53	2039.78
364.75	1937.38
364.96	1982.43
365.18	1996.77
365.39	2011.11
365.61	1980.39
365.82	2142.18
366.04	2017.25
366.25	1920.99
366.47	2015.20
366.68	1994.72
366.90	1959.91
367.11	2086.88
367.33	1998.82
367.54	2076.64
367.76	2023.39
367.97	2027.49
368.19	2019.30
368.40	2072.54
368.62	1970.15
368.83	1916.90
369.05	2072.54
369.26	1923.04
369.48	1972.19
369.69	1980.39
369.91	2037.73
370.12	1996.77
370.33	2181.09
370.55	1968.10
370.76	2019.30
370.98	2117.60
371.19	2056.16
371.41	1998.82
371.62	2021.35
371.84	2000.87
372.05	2125.79
372.27	2074.59
372.48	2013.15
372.69	2047.97
372.91	2109.41
373.12	2113.50
373.34	2123.74
373.55	2023.39
373.77	2136.03
373.98	2162.66
374.20	2148.32
374.41	2238.43
374.62	2111.46
374.84	2113.50
375.05	2181.09
375.27	2181.09
375.48	2131.94
375.70	2136.03
375.91	2185.18
376.12	2207.71
376.34	2101.22
376.55	2211.81
376.77	2133.98
376.98	2129.89
377.19	2193.37
377.41	2176.99
377.62	2172.89
377.84	2250.72
378.05	2346.97
378.27	2158.56
378.48	2310.11
378.69	2346.97
378.91	2320.35
379.12	2189.28
379.34	2277.34
379.55	2273.25
379.76	2230.24
379.98	2277.34
380.19	2224.09
380.41	2258.91
380.62	2271.20
380.83	2269.15
381.05	2158.56
381.26	2404.32
381.47	2246.62
381.69	2244.57
381.90	2379.74
382.12	2269.15
382.33	2267.10
382.54	2211.81
382.76	2248.67
382.97	2351.07
383.19	2291.68
383.40	2404.32
383.61	2310.11
383.83	2332.64
384.04	2265.05
384.25	2246.62
384.47	2365.40
384.68	2357.21
384.89	2367.45
385.11	2281.44
385.32	2324.44
385.54	2285.53
385.75	2435.03
385.96	2373.60
386.18	2443.23
386.39	2389.98
386.60	2353.12
386.82	2367.45
387.03	2428.89
387.24	2457.56
387.46	2430.94
387.67	2457.56
387.88	2473.95
388.10	2484.19
388.31	2478.04
388.52	2572.25
388.74	2478.04
388.95	2533.34
389.16	2463.71
389.38	2492.38
389.59	2645.98
389.80	2559.96
390.02	2471.90
390.23	2662.36
390.44	2594.78
390.66	2553.82
390.87	2535.39
391.08	2650.07
391.30	2707.41
391.51	2670.55
391.72	2717.65
391.94	2656.22
392.15	2641.88
392.36	2619.35
392.58	2605.02
392.79	2625.50
393.00	2705.37
393.22	2682.84
393.43	2766.81
393.64	2877.40
393.85	2863.06
394.07	2637.78
394.28	2693.08
394.49	2754.52
394.71	2787.29
394.92	2850.77
395.13	2729.94
395.35	2717.65
395.56	2740.18
395.77	2703.32
395.98	2725.85
396.20	2826.20
396.41	2805.72
396.62	2834.39
396.84	2928.60
397.05	2754.52
397.26	2879.44
397.47	2955.22
397.69	2879.44
397.90	3059.67
398.11	2916.31
398.32	2764.76
398.54	2824.15
398.75	2826.20
398.96	2867.16
399.18	2990.03
399.39	2969.55
399.60	2998.23
399.81	2992.08
400.03	2877.40
400.24	3180.50
400.45	3030.99
400.66	2992.08
400.88	2990.03
401.09	3160.02
401.30	2953.17
401.51	3057.62
401.73	3053.52
401.94	3131.34
402.15	3133.39
402.36	3059.67
402.58	3145.68
402.79	3084.24
403.00	3180.50
403.21	3192.78
403.43	3176.40
403.64	3268.56
403.85	3149.78
404.06	3221.45
404.27	3030.99
404.49	3151.82
404.70	3223.50
404.91	3293.13
405.12	3168.21
405.34	3196.88
405.55	3379.15
405.76	3170.26
405.97	3180.50
406.19	3405.77
406.40	3229.65
406.61	3325.90
406.82	3360.72
407.03	3321.81
407.25	3340.24
407.46	3391.44
407.67	3385.29
407.88	3438.54
408.09	3393.48
408.31	3256.27
408.52	3325.90
408.73	3293.13
408.94	3409.87
409.15	3366.86
409.37	3479.50
409.58	3463.12
409.79	3469.26
410.00	3559.37
410.21	3336.14
410.43	3497.93
410.64	3471.31
410.85	3518.41
411.06	3475.40
411.27	3440.59
411.48	3469.26
411.70	3590.09
411.91	3469.26
412.12	3612.62
412.33	3588.04
412.54	3608.52
412.76	3633.10
412.97	3710.92
413.18	3395.53
413.39	3655.62
413.60	3649.48
413.81	3641.29
414.03	3626.95
414.24	3557.32
414.45	3760.07
414.66	3491.79
414.87	3692.49
415.08	3735.50
415.30	3620.81
415.51	3770.31
415.72	3733.45
415.93	3764.17
416.14	3704.78
416.35	3811.27
416.56	3729.35
416.78	3821.51
416.99	3977.16
417.20	3895.24
417.41	3837.89
417.62	3962.82
417.83	3917.76
418.04	3971.01
418.26	3864.52
418.47	3895.24
418.68	3891.14
418.89	3825.61
419.10	4100.03
419.31	3968.96
419.52	4030.40
419.73	3907.52
419.95	4091.84
420.16	3882.95
420.37	4014.02
420.58	4136.90
420.79	3901.38
421.00	4161.47
421.21	4007.87
421.42	4030.40
421.63	4192.19
421.85	4024.26
422.06	4138.94
422.27	4042.69
422.48	4149.18
422.69	4181.95
422.90	4364.22
423.11	4153.28
423.32	4292.54
423.53	4435.90
423.75	4390.84
423.96	4425.66
424.17	4333.50
424.38	4515.77
424.59	4452.28
424.80	4526.01
425.01	4370.37
425.22	4394.94
425.43	4409.28
425.64	4597.69
425.85	4503.48
426.06	4497.34
426.28	4470.72
426.49	4423.61
426.70	4440.00
426.91	4493.24
427.12	4720.57
427.33	4757.43
427.54	4526.01
427.75	4747.19
427.96	4904.89
428.17	4716.47
428.38	4865.97
428.59	4876.21
428.80	4743.10
429.01	4804.53
429.23	4673.46
429.44	4902.84
429.65	5048.24
429.86	4859.83
430.07	4718.52
430.28	4769.72
430.49	4974.52
430.70	4892.60
430.91	4945.84
431.12	4919.22
431.33	5230.51
431.54	5185.46
431.75	5199.79
431.96	5009.33
432.17	4982.71
432.38	5126.07
432.59	5287.86
432.80	5144.50
433.01	5267.38
433.22	5238.70
433.43	5189.55
433.64	5351.34
433.85	5259.18
434.06	5289.90
434.27	5285.81
434.49	5339.05
434.70	5400.49
434.91	5398.45
435.12	5361.58
435.33	5429.17
435.54	5447.60
435.75	5416.88
435.96	5377.97
436.17	5300.14
436.38	5519.28
436.59	5638.06
436.80	5580.71
437.01	5681.07
437.22	5654.44
437.43	5576.62
437.64	5515.18
437.85	5654.44
438.06	5795.75
438.27	5517.23
438.48	5685.16
438.69	5808.04
438.90	5773.22
439.11	5605.29
439.32	5791.66
439.53	5728.17
439.74	5879.72
439.95	5863.33
440.16	5728.17
440.37	5781.42
440.57	5703.59
440.78	5922.73
440.99	5982.12
441.20	5814.18
441.41	5816.23
441.62	5965.73
441.83	5820.33
442.04	6139.81
442.25	5965.73
442.46	5996.45
442.67	6172.58
442.88	6457.25
443.09	5953.45
443.30	6102.95
443.51	6129.57
443.72	6408.09
443.93	6131.62
444.14	6404.00
444.35	6213.54
444.56	6274.98
444.77	6203.30
444.98	6270.88
445.19	6227.87
445.40	6354.85
445.61	6412.19
445.81	6348.70
446.02	6416.29
446.23	6463.39
446.44	6229.92
446.65	6504.35
446.86	6549.40
447.07	6547.36
447.28	6848.41
447.49	6606.75
447.70	6516.64
447.91	6645.66
448.12	6825.88
448.33	6705.05
448.54	6733.72
448.74	6614.94
448.95	6866.84
449.16	6829.98
449.37	7085.97
449.58	6729.63
449.79	7002.01
450.00	6686.62
450.21	6967.19
450.42	7008.15
450.63	6993.81
450.84	6883.22
451.05	6983.57
451.25	6795.16
451.46	6903.70
451.67	7030.68
451.88	7339.92
452.09	7120.79
452.30	7188.37
452.51	7169.94
452.72	7344.02
452.93	7557.00
453.13	7069.59
453.34	7196.56
453.55	7331.73
453.76	7223.19
453.97	7536.52
454.18	7423.89
454.39	7475.09
454.60	7352.21
454.81	7481.23
455.01	7569.29
455.22	7376.78
455.43	7620.49
455.64	7712.65
455.85	7802.76
456.06	7767.95
456.27	7776.14
456.48	7798.66
456.68	7755.66
456.89	7825.29
457.10	8120.20
457.31	7937.93
457.52	8015.75
457.73	7794.57
457.94	8128.39
458.14	8095.62
458.35	8396.67
458.56	8144.77
458.77	8210.31
458.98	8204.16
459.19	8238.98
459.39	8406.91
459.60	8421.25
459.81	8216.45
460.02	8570.75
460.23	8427.39
460.44	8693.63
460.65	8613.76
460.85	8707.96
461.06	8660.86
461.27	8484.73
461.48	8968.06
461.69	8920.95
461.89	8617.85
462.10	8802.17
462.31	8533.89
462.52	8822.65
462.73	8742.78
462.94	9398.13
463.14	9041.78
463.35	9019.25
463.56	9518.96
463.77	9404.27
463.98	9006.97
464.18	9314.16
464.39	9326.45
464.60	9674.60
464.81	9645.93
465.02	9328.50
465.23	9695.08
465.43	9451.38
465.64	9723.76
465.85	9711.47
466.06	9611.12
466.27	9942.89
466.47	9938.79
466.68	9844.59
466.89	9936.74
467.10	10080.10
467.30	9785.19
467.51	10202.98
467.72	10336.10
467.93	9955.18
468.14	10153.83
468.34	10514.27
468.55	10348.39
468.76	10518.37
468.97	10262.37
469.17	10577.76
469.38	10760.03
469.59	10809.18
469.80	10641.25
470.01	10872.67
470.21	10923.87
470.42	11077.46
470.63	11157.33
470.84	11161.43
471.04	11374.42
471.25	11155.29
471.46	11257.68
471.67	11540.30
471.87	11370.32
472.08	11544.40
472.29	11513.68
472.50	11415.38
472.70	11698.00
472.91	11640.65
473.12	11833.16
473.33	11978.57
473.53	11978.57
473.74	11945.80
473.95	12201.80
474.16	12336.96
474.36	12238.66
474.57	12369.73
474.78	12441.41
474.99	12408.64
475.19	12523.33
475.40	12879.68
475.61	12728.13
475.81	12916.54
476.02	12973.88
476.23	13139.77
476.44	12980.03
476.64	13297.46
476.85	13563.70
477.06	13264.69
477.27	13428.53
477.47	13864.75
477.68	13664.05
477.89	13799.21
478.09	13776.69
478.30	13889.32
478.51	13930.28
478.71	14032.68
478.92	14171.94
479.13	14255.91
479.34	14470.95
479.54	14477.09
479.75	14542.63
479.96	14563.11
480.16	14620.45
480.37	14868.25
480.58	14929.69
480.78	15281.94
480.99	14978.84
481.20	15464.21
481.41	15185.69
481.61	15472.40
481.82	15480.60
482.03	15392.53
482.23	15517.46
482.44	15736.59
482.65	15965.96
482.85	16150.28
483.06	15767.31
483.27	15730.45
483.47	16262.92
483.68	16008.97
483.89	16432.90
484.09	16443.14
484.30	16406.28
484.51	16496.39
484.71	16817.92
484.92	16594.69
485.13	17020.67
485.33	16836.35
485.54	17164.03
485.75	17346.30
485.95	17643.25
486.16	17288.95
486.37	17344.25
486.57	17250.04
486.78	17745.65
486.98	17618.68
487.19	17616.63
487.40	18065.13
487.60	18185.96
487.81	17942.25
488.02	17843.95
488.22	18065.13
488.43	18525.93
488.64	18347.75
488.84	18718.43
489.05	18691.81
489.25	18480.87
489.46	18511.59
489.67	18892.51
489.87	18861.79
490.08	18773.73
490.29	19103.45
490.49	19580.63
490.70	19291.87
490.90	19447.51
491.11	19334.87
491.32	19693.27
491.52	19467.99
491.73	19756.75
491.94	20045.52
492.14	19775.19
492.35	19795.67
492.55	19914.45
492.76	20057.81
492.97	20399.82
493.17	20543.17
493.38	20209.36
493.58	20448.97
493.79	20528.84
494.00	20571.85
494.20	20621.00
494.41	20854.47
494.61	21110.46
494.82	21096.13
495.02	21030.59
495.23	21280.44
495.44	20920.00
495.64	21325.50
495.85	21300.92
496.05	21431.99
496.26	21532.34
496.47	21814.96
496.67	21575.35
496.88	21956.27
497.08	21675.70
497.29	22081.20
497.49	21903.03
497.70	22329.00
497.91	22435.50
498.11	22175.41
498.32	22367.91
498.52	22292.14
498.73	22861.48
498.93	22836.90
499.14	23031.46
499.34	22619.81
499.55	22941.35
499.76	22871.72
499.96	23185.05
500.17	22900.39
500.37	23133.86
500.58	23123.62
500.78	23072.42
500.99	23369.37
501.19	23512.73
501.40	23565.98
501.60	23484.06
501.81	23445.15
502.02	23733.91
502.22	23469.72
502.43	23699.09
502.63	23836.31
502.84	23934.61
503.04	24114.83
503.25	24039.06
503.45	24374.92
503.66	24579.72
503.86	24307.34
504.07	24600.20
504.27	24315.53
504.48	24649.35
504.68	24436.36
504.89	24821.38
505.09	24704.65
505.30	24958.60
505.50	24964.74
505.71	24716.93
505.91	25030.27
506.12	24903.30
506.32	24684.17
506.53	25114.24
506.73	25349.76
506.94	25302.65
507.14	25085.57
507.35	25407.10
507.55	25378.43
507.76	25648.76
507.96	25411.20
508.17	25642.62
508.37	25792.12
508.58	25882.23
508.78	25882.23
508.99	26277.49
509.19	26234.48
509.40	26035.83
509.60	25749.11
509.81	26228.34
510.01	26267.25
510.22	26234.48
510.42	26097.27
510.63	26273.39
510.83	26545.77
511.04	26515.05
511.24	26306.16
511.44	26386.03
511.65	26474.09
511.85	26648.17
512.06	26676.84
512.26	26480.24
512.47	26762.86
512.67	26926.69
512.88	27006.56
513.08	26717.80
513.29	27346.53
513.49	26996.32
513.69	26990.18
513.90	27205.22
514.10	27430.49
514.31	27383.39
514.51	27401.82
514.72	27063.91
514.92	27362.91
515.13	27457.12
515.33	27768.41
515.53	27629.15
515.74	27674.20
515.94	27567.71
516.15	27686.49
516.35	27760.22
516.56	27840.09
516.76	27922.01
516.96	28124.75
517.17	28317.26
517.37	28053.08
517.58	27975.25
517.78	28337.74
517.99	28370.51
518.19	28589.64
518.39	28683.85
518.60	28628.56
518.80	28640.84
519.01	28511.82
519.21	28819.02
519.41	28769.86
519.62	28591.69
519.82	29120.07
520.03	29120.07
520.23	29048.39
520.43	29060.68
520.64	29408.83
520.84	29392.45
521.05	29269.57
521.25	29206.08
521.45	29476.41
521.66	29306.43
521.86	29605.44
522.07	29591.10
522.27	29490.75
522.47	29482.56
522.68	29840.95
522.88	29826.62
523.08	29998.65
523.29	30025.27
523.49	30398.00
523.70	30189.11
523.90	30690.86
524.10	30438.96
524.31	30379.57
524.51	30340.66
524.71	30981.67
524.92	30811.69
525.12	30762.54
525.33	30869.03
525.53	30969.38
525.73	31348.26
525.94	31139.36
526.14	31335.97
526.34	31442.46
526.55	31370.79
526.75	31323.68
526.95	31526.43
527.16	31524.38
527.36	31378.98
527.56	31620.64
527.77	31907.35
527.97	31888.92
528.17	32034.33
528.38	32142.87
528.58	32196.12
528.78	32189.97
528.99	32177.68
529.19	32497.17
529.39	31774.24
529.60	32597.52
529.80	32536.08
530.00	32744.97
530.21	33181.19
530.41	33086.98
530.61	32900.62
530.82	33314.31
531.02	33093.13
531.22	33310.21
531.43	33461.76
531.63	33355.27
531.83	33398.27
532.04	33652.22
532.24	33353.22
532.44	33754.62
532.64	33895.93
532.85	34340.34
533.05	33959.42
533.25	34123.26
533.46	33998.33
533.66	34133.50
533.86	34430.45
534.07	34756.08
534.27	34616.82
534.47	35040.75
534.67	34625.01
534.88	34727.41
535.08	35245.54
535.28	35147.24
535.49	35329.51
535.69	35683.81
535.89	35362.28
536.09	35683.81
536.30	35661.28
536.50	35646.94
536.70	35896.80
536.91	35550.69
537.11	36169.18
537.31	36070.87
537.51	35735.01
537.72	36087.26
537.92	36597.20
538.12	36498.90
538.32	36732.37
538.53	36720.08
538.73	36498.90
538.93	36566.48
539.13	37154.25
539.34	36726.22
539.54	36685.26
539.74	37082.57
539.94	37240.26
540.15	36779.47
540.35	37338.57
540.55	37434.82
540.75	37365.19
540.96	37608.90
541.16	37770.69
541.36	37701.06
541.56	37551.56
541.77	37836.22
541.97	37498.31
542.17	37905.85
542.37	37977.53
542.58	37879.23
542.78	38065.60
542.98	38034.88
543.18	38544.82
543.38	38679.99
543.59	38344.12
543.79	38436.28
543.99	38292.92
544.19	38763.95
544.40	38239.67
544.60	39189.93
544.80	38737.33
545.00	39062.96
545.20	38684.08
545.41	38665.65
545.61	38942.13
545.81	39022.00
546.01	39398.82
546.21	39083.44
546.42	39392.68
546.62	39325.10
546.82	39065.00
547.02	39568.80
547.22	39601.57
547.43	39708.07
547.63	39663.01
547.83	39787.94
548.03	39730.59
548.23	40252.83
548.44	39697.83
548.64	39925.15
548.84	39890.34
549.04	39773.60
549.24	40091.04
549.45	40584.60
549.65	40119.71
549.85	40340.89
550.05	40609.17
550.25	40203.67
550.45	40904.08
550.66	40545.69
550.86	40465.81
551.06	40646.04
551.26	40836.50
551.46	40822.16
551.66	40775.06
551.87	40816.02
552.07	40840.59
552.27	40705.43
552.47	40713.62
552.67	41045.39
552.87	41229.71
553.07	41084.30
553.28	41237.90
553.48	41358.73
553.68	41176.46
553.88	41792.90
554.08	41420.17
554.28	41567.62
554.48	41391.50
554.69	41244.04
554.89	41541.00
555.09	41745.80
555.29	41385.35
555.49	42091.90
555.69	41622.92
555.89	41823.62
556.10	42112.38
556.30	41840.00
556.50	41809.28
556.70	42136.96
556.90	42098.05
557.10	42399.10
557.30	41772.42
557.50	42149.24
557.70	42298.75
557.91	42419.58
558.11	42069.37
558.31	42581.37
558.51	42220.92
558.71	42319.23
558.91	42884.47
559.11	42427.77
559.31	42753.40
559.51	42239.36
559.72	42513.78
559.92	42732.92
560.12	42698.10
560.32	42927.47
560.52	42546.55
560.72	43074.93
560.92	43074.93
561.12	42597.75
561.32	43337.07
561.52	42950.00
561.72	43070.83
561.93	42734.96
562.13	43023.73
562.33	42685.81
562.53	43539.82
562.73	43265.39
562.93	43238.76
563.13	43111.79
563.33	43560.30
563.53	43388.27
563.73	43214.19
563.93	43468.14
564.13	43924.83
564.33	43570.54
564.53	43224.43
564.74	43580.78
564.94	43566.44
565.14	44103.01
565.34	43324.78
565.54	43871.59
565.74	43804.00
565.94	44123.49
566.14	43926.88
566.34	43611.49
566.54	44209.50
566.74	43650.41
566.94	44422.49
567.14	44270.94
567.34	43783.52
567.54	44496.22
567.74	43969.89
567.94	44131.68
568.14	44307.80
568.34	44307.80
568.54	44193.12
568.74	44143.97
568.94	44225.89
569.14	44547.42
569.34	44397.91
569.54	44635.48
569.75	44275.04
569.95	44795.22
570.15	44916.05
570.35	45014.35
570.55	44715.35
570.75	44674.39
570.95	44793.17
571.15	44774.74
571.35	45161.81
571.55	45194.57
571.75	45014.35
571.95	44932.43
572.15	44731.73
572.35	45004.11
572.55	45413.71
572.75	45307.21
572.95	45233.49
573.15	45196.62
573.35	45577.54
573.55	44827.99
573.75	44979.54
573.95	45411.66
574.15	45339.98
574.35	45321.55
574.55	45649.22
574.75	45765.96
574.95	45612.36
575.15	45495.63
575.34	45708.61
575.54	46024.00
575.74	45651.27
575.94	45753.67
576.14	45657.42
576.34	45864.26
576.54	46169.41
576.74	46167.36
576.94	45966.66
577.14	46390.59
577.34	46439.74
577.54	45862.21
577.74	46302.53
577.94	46632.25
578.14	46746.93
578.34	46802.23
578.54	46064.96
578.74	46249.28
578.94	46540.09
579.14	46667.06
579.34	46796.09
579.54	47123.76
579.74	47428.91
579.94	47019.31
580.13	47144.24
580.33	47203.63
580.53	46984.50
580.73	47181.10
580.93	47045.94
581.13	47080.75
581.33	47250.74
581.53	47414.57
581.73	47002.93
581.93	47719.72
582.13	47346.99
582.33	47543.59
582.53	47512.88
582.73	47801.64
582.92	48026.92
583.12	47992.10
583.32	47547.69
583.52	47486.25
583.72	47783.21
583.92	47670.57
584.12	48039.20
584.32	48180.51
584.52	48266.53
584.72	48059.68
584.92	48174.37
585.11	48790.81
585.31	48215.33
585.51	48344.35
585.71	48303.39
585.91	48618.78
586.11	48559.39
586.31	48168.22
586.51	48848.15
586.71	48995.60
586.91	49331.47
587.10	48995.60
587.30	49067.28
587.50	48600.35
587.70	48964.88
587.90	48645.40
588.10	49075.48
588.30	48878.87
588.50	49175.83
588.69	49442.06
588.89	49114.39
589.09	49548.56
589.29	49534.22
589.49	50048.26
589.69	49169.68
589.89	49915.14
590.08	49413.39
590.28	49493.26
590.48	49581.32
590.68	49499.40
590.88	49435.92
591.08	49382.67
591.28	49409.29
591.47	50017.54
591.67	50392.32
591.87	49642.76
592.07	50101.51
592.27	49886.47
592.47	49831.18
592.67	49882.37
592.86	49837.32
593.06	50103.56
593.26	50167.04
593.46	50167.04
593.66	50050.31
593.86	50427.13
594.05	50027.78
594.25	50717.95
594.45	50332.93
594.65	50681.08
594.85	50097.41
595.05	50660.60
595.24	50846.97
595.44	50623.74
595.64	50382.08
595.84	50627.84
596.04	50736.38
596.23	50707.71
596.43	50969.85
596.63	51086.58
596.83	50416.89
597.03	51178.74
597.22	51496.17
597.42	51352.82
597.62	51328.24
597.82	51678.44
598.02	51250.42
598.21	51432.69
598.41	51037.43
598.61	51582.19
598.81	51160.31
599.01	51320.05
599.20	51381.49
599.40	51801.32
599.60	51760.36
599.80	52079.85
600.00	51680.49
600.19	52075.75
600.39	51567.85
600.59	51846.38
600.79	51913.96
600.98	52077.80
601.18	52460.77
601.38	52120.80
601.58	52282.59
601.78	52499.68
601.97	52466.91
602.17	52667.61
602.37	52552.93
602.57	52690.14
602.76	52827.35
602.96	52079.85
603.16	52817.11
603.36	52942.04
603.55	53017.82
603.75	52743.39
603.95	53230.80
604.15	53109.97
604.34	53056.73
604.54	52888.79
604.74	53089.49
604.94	53191.89
605.13	53837.00
605.33	53794.00
605.53	53195.99
605.73	53433.55
605.92	53648.59
606.12	53601.49
606.32	53630.16
606.52	53560.53
606.71	53220.56
606.91	53847.24
607.11	53327.06
607.30	53298.39
607.50	53648.59
607.70	53976.26
607.90	53480.66
608.09	53859.53
608.29	53671.12
608.49	54256.84
608.68	53986.50
608.88	53761.23
609.08	54138.05
609.28	54047.94
609.47	54047.94
609.67	54764.73
609.87	54004.94
610.06	54441.15
610.26	54549.70
610.46	54447.30
610.66	53916.87
610.85	54277.32
611.05	53841.10
611.25	54392.00
611.44	54287.56
611.64	54400.19
611.84	54097.09
612.03	54322.37
612.23	54654.14
612.43	54119.62
612.62	54027.46
612.82	55065.78
613.02	54553.79
613.21	54928.57
613.41	54256.84
613.61	54699.20
613.80	54588.61
614.00	54623.42
614.20	54867.13
614.39	54387.91
614.59	54901.95
614.79	54017.22
614.98	54396.10
615.18	54768.83
615.38	54699.20
615.57	54736.06
615.77	54942.91
615.97	55002.30
616.16	54981.82
616.36	54435.01
616.56	55076.02
616.75	54596.80
616.95	54402.24
617.15	54852.80
617.34	54981.82
617.54	54752.44
617.74	55194.81
617.93	55059.64
618.13	54680.77
618.32	54903.99
618.52	54373.57
618.72	54951.10
618.91	54514.88
619.11	54676.67
619.31	54846.65
619.50	54449.35
619.70	54867.13
619.90	54883.51
620.09	54881.47
620.29	54551.74
620.48	54416.58
620.68	55303.35
620.88	54521.02
621.07	54725.82
621.27	54731.96
621.46	54351.04
621.66	54678.72
621.86	54723.77
622.05	54559.94
622.25	55194.81
622.44	54953.15
622.64	54678.72
622.84	54924.47
623.03	54545.60
623.23	54609.09
623.42	54707.39
623.62	54953.15
623.82	54926.52
624.01	54656.19
624.21	55037.11
624.40	55456.95
624.60	54854.84
624.80	54867.13
624.99	54949.05
625.19	54541.50
625.38	54815.93
625.58	55010.49
625.77	55020.73
625.97	54826.17
626.17	54570.18
626.36	55063.74
626.56	55094.46
626.75	54355.14
626.95	55114.94
627.14	54961.34
627.34	55145.65
627.54	54793.40
627.73	55409.84
627.93	54885.56
628.12	55043.26
628.32	55078.07
628.51	55211.19
628.71	54500.54
628.90	54963.39
629.10	55461.04
629.30	54908.09
629.49	54854.84
629.69	54963.39
629.88	55108.79
630.08	55133.37
630.27	55049.40
630.47	55297.20
630.66	54611.13
630.86	55020.73
631.05	54473.92
631.25	55207.09
631.44	55162.04
631.64	55168.18
631.84	54867.13
632.03	55909.55
632.23	55030.97
632.42	55149.75
632.62	55358.64
632.81	55024.82
633.01	55229.62
633.20	55350.45
633.40	55444.66
633.59	55125.17
633.79	55114.94
633.98	55317.68
634.18	54922.43
634.37	55049.40
634.57	55016.63
634.76	55497.91
634.96	55188.66
635.15	55530.67
635.35	54953.15
635.54	55006.39
635.74	55379.12
635.93	55096.50
636.13	55461.04
636.32	55223.48
636.52	54711.49
636.71	55080.12
636.91	55362.74
637.10	55405.75
637.30	55424.18
637.49	55039.16
637.69	55260.34
637.88	55588.02
638.08	55256.24
638.27	55534.77
638.46	55008.44
638.66	55178.42
638.85	55530.67
639.05	55504.05
639.24	55145.65
639.44	55305.40
639.63	55475.38
639.83	55405.75
640.02	55657.65
640.22	54992.06
640.41	55041.21
640.61	55024.82
640.80	55620.78
640.99	55205.05
641.19	56046.76
641.38	55870.64
641.58	55688.37
641.77	55268.53
641.97	55549.10
642.16	55274.68
642.36	55420.08
642.55	55907.50
642.74	55340.21
642.94	56155.30
643.13	55792.81
643.33	55768.24
643.52	55942.31
643.72	56468.64
643.91	55542.96
644.10	55706.80
644.30	55944.36
644.49	55540.91
644.69	55909.55
644.88	55778.48
645.08	56087.72
645.27	55833.77
645.46	55588.02
645.66	56122.54
645.85	55618.74
646.05	56011.95
646.24	55964.84
646.43	56018.09
646.63	56603.81
646.82	56267.94
647.02	56358.05
647.21	56704.16
647.40	56714.40
647.60	56548.51
647.79	56491.17
647.99	56458.40
648.18	56294.56
648.37	56710.30
648.57	56396.96
648.76	56198.31
648.96	56079.53
649.15	55891.12
649.34	56288.42
649.54	56530.08
649.73	55612.59
649.92	56681.63
650.12	56401.06
650.31	56794.27
650.51	56534.18
650.70	56976.54
650.89	56583.33
651.09	56784.03
651.28	56349.86
651.47	56568.99
651.67	56657.06
651.86	56997.02
652.06	56013.99
652.25	56632.48
652.44	56806.56
652.64	56300.71
652.83	56147.11
653.02	56663.20
653.22	56497.31
653.41	55887.02
653.60	56478.88
653.80	56566.94
653.99	56505.51
654.18	56132.78
654.38	56743.07
654.57	56448.16
654.76	56460.45
654.96	56284.33
655.15	56530.08
655.34	56501.41
655.54	56169.64
655.73	56665.25
655.92	56581.28
656.12	56536.23
656.31	56923.29
656.50	56538.27
656.70	56921.24
656.89	56741.02
657.08	56616.10
657.28	56880.28
657.47	56566.94
657.66	56839.32
657.86	56392.87
658.05	56552.61
658.24	57226.39
658.43	56925.34
658.63	56997.02
658.82	57156.76
659.01	57177.24
659.21	56921.24
659.40	57314.45
659.59	56489.12
659.79	57070.75
659.98	57042.07
660.17	56980.63
660.36	56771.74
660.56	57302.17
660.75	57269.40
660.94	56726.69
661.14	57261.21
661.33	57099.42
661.52	56630.43
661.71	57275.54
661.91	56538.27
662.10	56843.42
662.29	57367.70
662.49	57128.09
662.68	56792.22
662.87	57201.82
663.06	57404.56
663.26	56612.00
663.45	56982.68
663.64	56870.04
663.83	57707.66
664.03	57300.12
664.22	57066.65
664.41	56999.07
664.60	56927.39
664.80	56956.06
664.99	57298.07
665.18	57031.83
665.37	57105.56
665.57	57597.07
665.76	57224.34
665.95	57357.46
666.14	56978.59
666.34	57117.85
666.53	57226.39
666.72	56931.48
666.91	56913.05
667.11	56747.17
667.30	56822.94
667.49	56808.61
667.68	57341.08
667.87	56925.34
668.07	57253.01
668.26	56560.80
668.45	56849.56
668.64	57095.32
668.84	57611.41
669.03	57521.30
669.22	57429.14
669.41	57279.64
669.60	57023.64
669.80	56861.85
669.99	57578.64
670.18	56736.93
670.37	57578.64
670.57	57318.55
670.76	57001.11
670.95	57418.90
671.14	57625.74
671.33	57021.59
671.53	57414.80
671.72	57128.09
671.91	57083.03
672.10	56906.91
672.29	57003.16
672.48	56890.52
672.68	57154.71
672.87	56837.28
673.06	56849.56
673.25	56796.32
673.44	56984.73
673.64	57042.07
673.83	56962.20
674.02	56693.92
674.21	56843.42
674.40	57128.09
674.59	56534.18
674.79	56376.48
674.98	56351.91
675.17	56882.33
675.36	56628.38
675.55	56878.24
675.74	56865.95
675.94	56356.00
676.13	56612.00
676.32	57023.64
676.51	57033.88
676.70	56958.11
676.89	56777.89
677.08	57060.51
677.28	56558.75
677.47	57201.82
677.66	56999.07
677.85	56808.61
678.04	56917.15
678.23	57105.56
678.42	57150.62
678.62	56640.67
678.81	57103.51
679.00	56755.36
679.19	57040.03
679.38	56796.32
679.57	56394.92
679.76	56337.57
679.96	56980.63
680.15	56466.59
680.34	56796.32
680.53	56411.30
680.72	57052.31
680.91	56808.61
681.10	56659.10
681.29	56747.17
681.48	56444.07
681.68	56464.55
681.87	56542.37
682.06	56736.93
682.25	56464.55
682.44	56685.73
682.63	56849.56
682.82	56120.49
683.01	56372.39
683.20	56128.68
683.39	56587.42
683.59	55999.66
683.78	56382.63
683.97	56243.37
684.16	56360.10
684.35	56161.45
684.54	55993.51
684.73	56091.82
684.92	56110.25
685.11	56173.73
685.30	55944.36
685.49	56622.24
685.69	55680.17
685.88	55983.27
686.07	56081.58
686.26	55968.94
686.45	56155.30
686.64	56077.48
686.83	56007.85
687.02	56040.62
687.21	56265.89
687.40	56292.52
687.59	56179.88
687.78	56151.21
687.97	56497.31
688.16	56112.30
688.35	55731.37
688.54	55940.27
688.74	56030.38
688.93	55899.31
689.12	55702.70
689.31	55893.16
689.50	55788.72
689.69	55180.47
689.88	55063.74
690.07	55841.96
690.26	55813.29
690.45	56401.06
690.64	55579.82
690.83	55485.62
691.02	55575.73
691.21	55407.79
691.40	54834.36
691.59	55938.22
691.78	55375.03
691.97	55864.49
692.16	55702.70
692.35	55923.88
692.54	55706.80
692.73	55671.98
692.92	55792.81
693.11	55440.56
693.30	55471.28
693.49	55725.23
693.68	54990.01
693.87	55741.61
694.06	54781.12
694.25	55235.77
694.44	54893.75
694.63	55387.31
694.82	55477.43
695.01	55180.47
695.20	54611.13
695.39	55370.93
695.58	55338.16
695.77	54744.25
695.96	55184.57
696.15	55076.02
696.34	55094.46
696.53	54981.82
696.72	55360.69
696.91	54838.46
697.10	55073.98
697.29	54805.69
697.48	55172.28
697.67	54918.33
697.86	54785.21
698.05	54928.57
698.24	54899.90
698.43	54203.59
698.62	54746.30
698.81	54418.63
699.00	54705.34
699.19	54172.87
699.38	54596.80
699.57	54328.52
699.76	55014.58
699.95	54373.57
700.14	54498.50
700.32	54447.30
700.51	54584.51
700.70	54484.16
700.89	54637.76
701.08	54547.65
701.27	54383.81
701.46	54805.69
701.65	54093.00
701.84	54367.43
702.03	53976.26
702.22	54330.56
702.41	54004.94
702.60	53947.59
702.79	54475.97
702.98	53753.04
703.17	53757.13
703.35	54103.24
703.54	53806.28
703.73	54174.92
703.92	54039.75
704.11	54269.12
704.30	53771.47
704.49	53525.71
704.68	53464.27
704.87	54103.24
705.06	53771.47
705.25	53494.99
705.43	53798.09
705.62	53935.30
705.81	53695.69
706.00	53562.57
706.19	52841.69
706.38	53122.26
706.57	53198.04
706.76	53140.69
706.95	53376.21
707.14	53011.67
707.32	53101.78
707.51	52991.19
707.70	53175.51
707.89	53300.43
708.08	53091.54
708.27	53607.63
708.46	53998.79
708.65	53005.53
708.84	53382.35
709.02	53241.04
709.21	53230.80
709.40	53155.03
709.59	53337.30
709.78	52593.89
709.97	53232.85
710.16	52784.35
710.34	52573.41
710.53	53048.53
710.72	52618.46
710.91	53228.76
711.10	52741.34
711.29	52956.38
711.48	52804.83
711.66	52659.42
711.85	52673.76
712.04	53060.82
712.23	52561.12
712.42	52745.44
712.61	52632.80
712.80	52548.83
712.98	52860.12
713.17	52624.60
713.36	52296.93
713.55	52802.78
713.74	52116.71
713.93	52399.33
714.11	52204.77
714.30	52141.28
714.49	52366.56
714.68	52184.29
714.87	52501.73
715.06	52151.52
715.24	52315.36
715.43	52247.78
715.62	51492.08
715.81	51916.01
716.00	52458.72
716.18	52176.10
716.37	51772.65
716.56	51627.24
716.75	52180.20
716.94	51987.69
717.12	51191.03
717.31	52063.46
717.50	51555.57
717.69	51678.44
717.88	51279.09
718.06	51885.29
718.25	51647.72
718.44	51539.18
718.63	51774.70
718.82	51342.58
719.00	51496.17
719.19	51125.49
719.38	51393.78
719.57	50844.92
719.76	50894.07
719.94	50369.79
720.13	50978.04
720.32	50836.73
720.51	50562.30
720.69	50345.22
720.88	50740.47
721.07	50519.29
721.26	50384.13
721.44	50418.94
721.63	50453.76
721.82	50365.70
722.01	50226.43
722.20	50783.48
722.38	50146.56
722.57	49804.55
722.76	50300.16
722.95	49849.61
723.13	49952.01
723.32	49669.39
723.51	50148.61
723.70	49841.42
723.88	49929.48
724.07	49874.18
724.26	49804.55
724.44	49349.90
724.63	49894.66
724.82	49636.62
725.01	49351.95
725.19	49614.09
725.38	49503.50
725.57	49583.37
725.76	49263.89
725.94	49169.68
726.13	48979.22
726.32	49499.40
726.51	49378.57
726.69	49489.16
726.88	48962.84
727.07	49040.66
727.25	49255.70
727.44	48903.45
727.63	48964.88
727.82	48964.88
728.00	49100.05
728.19	49313.04
728.38	49657.10
728.56	48698.65
728.75	49116.43
728.94	49179.92
729.12	48637.21
729.31	49321.23
729.50	48653.59
729.69	49259.79
729.87	48678.17
730.06	48583.96
730.25	48973.08
730.43	49302.80
730.62	48348.45
730.81	49030.42
730.99	49362.19
731.18	48811.29
731.37	49075.48
731.55	49231.12
731.74	48944.41
731.93	48764.18
732.11	48567.58
732.30	48727.32
732.49	48287.01
732.67	48571.67
732.86	48903.45
733.05	48690.46
733.23	48661.79
733.42	48934.17
733.61	48555.29
733.79	49038.61
733.98	48887.06
734.17	48317.73
734.35	48432.41
734.54	48921.88
734.73	49181.97
734.91	48860.44
735.10	48444.70
735.29	48821.53
735.47	48301.34
735.66	48758.04
735.84	48872.73
736.03	48416.03
736.22	48657.69
736.40	48323.87
736.59	48837.91
736.78	48538.91
736.96	48069.92
737.15	48506.14
737.33	48123.17
737.52	48307.49
737.71	48297.25
737.89	47760.68
738.08	47596.84
738.27	47897.89
738.45	48420.13
738.64	48385.31
738.82	48004.39
739.01	47938.85
739.20	47813.93
739.38	48139.55
739.57	48379.17
739.75	48262.43
739.94	48028.96
740.13	47918.37
740.31	48006.44
740.50	48008.48
740.68	47914.28
740.87	47695.14
741.06	47844.65
741.24	47510.83
741.43	47469.87
741.61	47658.28
741.80	47519.02
741.99	47539.50
742.17	47402.28
742.36	47732.01
742.54	47232.30
742.73	47396.14
742.91	47908.13
743.10	47172.91
743.29	47867.17
743.47	47314.22
743.66	47555.88
743.84	47420.72
744.03	47484.20
744.21	47291.69
744.40	47717.67
744.59	47191.34
744.77	47293.74
744.96	47273.26
745.14	47246.64
745.33	47707.43
745.51	47611.18
745.70	47211.82
745.88	47240.50
746.07	47166.77
746.26	47129.90
746.44	46779.70
746.63	46914.87
746.81	47332.65
747.00	46665.02
747.18	47041.84
747.37	46906.68
747.55	47236.40
747.74	47097.14
747.92	46710.07
748.11	46912.82
748.29	46605.62
748.48	46466.36
748.66	46101.82
748.85	46548.28
749.03	46568.76
749.22	47002.93
749.41	46284.09
749.59	46474.55
749.78	46210.37
749.96	46036.29
750.15	46423.36
750.33	46366.01
750.52	46466.36
750.70	46394.68
750.89	45802.82
751.07	46323.01
751.26	46253.37
751.44	45765.96
751.63	45847.88
751.81	45806.92
752.00	45565.26
752.18	46247.23
752.37	45700.42
752.55	45755.72
752.74	45614.41
752.92	45733.19
753.10	45602.12
753.29	45845.83
753.47	45788.49
753.66	45614.41
753.84	45489.48
754.03	45456.71
754.21	45264.21
754.40	45573.45
754.58	45692.23
754.77	45677.90
754.95	45153.62
755.14	45323.60
755.32	45280.59
755.51	44819.80
755.69	45036.88
755.88	44948.82
756.06	45086.03
756.24	44957.01
756.43	44858.71
756.61	45083.98
756.80	44838.23
756.98	45110.61
757.17	45213.01
757.35	44963.15
757.54	44475.74
757.72	44850.52
757.90	44778.84
758.09	44631.38
758.27	44946.77
758.46	44711.25
758.64	44479.83
758.83	44873.04
759.01	44600.66
759.19	44539.22
759.38	44750.17
759.56	44445.02
759.75	44301.66
759.93	44213.60
760.12	44121.44
760.30	44322.14
760.48	44627.29
760.67	44193.12
760.85	44160.35
761.04	44492.12
761.22	44141.92
761.40	43980.13
761.59	44209.50
761.77	43955.55
761.96	44125.53
762.14	44060.00
762.32	44115.29
762.51	43584.87
762.69	43804.00
762.88	43887.97
763.06	43857.25
763.24	43926.88
763.43	43631.97
763.61	43566.44
763.80	43545.96
763.98	43521.38
764.16	43238.76
764.35	43289.96
764.53	43079.02
764.72	43601.25
764.90	43502.95
765.08	43824.48
765.27	43318.64
765.45	43173.23
765.63	42896.75
765.82	43414.89
766.00	42943.86
766.18	43165.04
766.37	43472.23
766.55	42831.22
766.74	42851.70
766.92	42780.02
767.10	42790.26
767.29	42890.61
767.47	42263.93
767.65	43044.21
767.84	42411.38
768.02	43076.97
768.20	42403.19
768.39	42644.85
768.57	42558.84
768.75	42374.52
768.94	42585.46
769.12	42517.88
769.30	42259.84
769.49	42087.81
769.67	42280.31
769.85	42165.63
770.04	41819.52
770.22	41805.19
770.40	42026.37
770.59	41659.78
770.77	41944.45
770.95	42098.05
771.14	41674.12
771.32	41391.50
771.50	41108.88
771.69	41581.96
771.87	41659.78
772.05	41518.47
772.24	41233.80
772.42	41670.02
772.60	41162.12
772.78	41411.98
772.97	40813.97
773.15	41151.88
773.33	41069.97
773.52	40850.83
773.70	41147.79
773.88	41346.44
774.07	40773.01
774.25	41137.55
774.43	41407.88
774.61	41235.85
774.80	41563.53
774.98	41129.36
775.16	41272.71
775.34	41293.19
775.53	40924.56
775.71	41962.88
775.89	41346.44
776.08	41278.86
776.26	41524.61
776.44	41606.53
776.62	40803.73
776.81	41170.32
776.99	41686.40
777.17	41029.01
777.35	41688.45
777.54	42061.18
777.72	41334.15
777.90	41409.93
778.08	41729.41
778.27	41323.91
778.45	41690.50
778.63	41704.84
778.81	41579.91
779.00	42046.85
779.18	41672.07
779.36	41796.99
779.54	41418.12
779.73	41686.40
779.91	41823.62
780.09	41923.97
780.27	41991.55
780.46	41897.34
780.64	42444.15
780.82	42083.71
781.00	41983.36
781.19	42382.71
781.37	42186.11
781.55	42079.61
781.73	42110.33
781.91	42085.76
782.10	41975.17
782.28	42038.65
782.46	42098.05
782.64	42507.64
782.82	42067.33
783.01	42464.63
783.19	42087.81
783.37	42302.84
783.55	41940.35
783.74	42315.13
783.92	42063.23
784.10	42448.25
784.28	41856.39
784.46	41823.62
784.64	41770.37
784.83	42329.47
785.01	42718.58
785.19	42214.78
785.37	42354.04
785.55	42450.30
785.74	41657.73
785.92	41708.93
786.10	41915.78
786.28	42001.79
786.46	41680.26
786.64	41579.91
786.83	41981.31
787.01	42423.67
787.19	42014.08
787.37	42022.27
787.55	41725.32
787.74	41710.98
787.92	42075.52
788.10	41440.65
788.28	41504.13
788.46	41852.29
788.64	41532.81
788.82	41739.65
789.01	41356.68
789.19	41688.45
789.37	41481.61
789.55	41743.75
789.73	41393.54
789.91	41231.75
790.09	41143.69
790.28	41024.91
790.46	40791.44
790.64	41209.23
790.82	40701.33
791.00	40623.51
791.18	40949.14
791.36	40658.32
791.55	40979.85
791.73	40437.14
791.91	40478.10
792.09	40654.23
792.27	40551.83
792.45	40156.57
792.63	39818.66
792.81	40314.26
793.00	39923.10
793.18	40060.32
793.36	39896.48
793.54	39720.35
793.72	39818.66
793.90	39679.39
794.08	39550.37
794.26	39736.74
794.44	39658.91
794.62	38960.56
794.81	39585.19
794.99	39009.71
795.17	39273.90
795.35	39001.52
795.53	39626.15
795.71	39531.94
795.89	38743.47
796.07	38925.74
796.25	38440.37
796.43	38409.65
796.61	38041.02
796.80	38448.57
796.98	38489.52
797.16	38129.08
797.34	38352.31
797.52	38258.10
797.70	38581.68
797.88	37860.80
798.06	37672.39
798.24	38198.71
798.42	37940.67
798.60	37393.86
798.78	37807.55
798.96	37574.08
799.14	37248.46
799.32	37426.63
799.51	37164.49
799.69	37590.47
799.87	37187.02
800.05	36928.97
800.23	36849.10
800.41	36877.77
800.59	37008.84
800.77	36765.14
800.95	36349.40
801.13	36519.38
801.31	36468.18
801.49	36593.11
801.67	36408.79
801.85	36392.40
802.03	36093.40
802.21	36206.04
802.39	36404.69
802.57	36210.14
802.75	35716.58
802.93	35491.30
803.11	35624.42
803.29	35685.86
803.47	35364.32
803.65	35499.49
803.83	35511.78
804.01	35261.93
804.19	34967.02
804.37	35476.96
804.55	35032.55
804.73	35038.70
804.91	34878.96
805.09	34729.45
805.27	35040.75
805.45	34852.33
805.63	35014.12
805.81	34967.02
805.99	34870.76
806.17	34870.76
806.35	34794.99
806.53	34160.12
806.71	34760.17
806.89	34405.88
807.07	34180.60
807.25	34479.60
807.43	34276.85
807.61	33947.13
807.79	33943.03
807.97	33801.72
808.15	33478.15
808.33	33691.13
808.51	33719.81
808.69	33689.09
808.87	33461.76
809.05	33463.81
809.23	33494.53
809.41	32978.44
809.59	33267.20
809.77	33310.21
809.95	33015.30
810.13	33365.51
810.31	33285.64
810.49	32747.02
810.67	33070.60
810.84	33318.40
811.02	32927.24
811.20	32650.77
811.38	32531.98
811.56	32677.39
811.74	32716.30
811.92	32292.37
812.10	32656.91
812.28	32486.93
812.46	32409.11
812.64	32615.95
812.82	32466.45
813.00	31874.59
813.18	32155.16
813.36	31782.43
813.53	31868.44
813.71	31759.90
813.89	31843.87
814.07	31788.57
814.25	32110.10
814.43	31958.55
814.61	31653.40
814.79	31630.88
814.97	31442.46
815.15	31671.84
815.33	31067.69
815.50	31329.83
815.68	31409.70
815.86	31327.78
816.04	31182.37
816.22	30998.06
816.40	30840.36
816.58	31051.30
816.76	30740.01
816.94	30670.38
817.11	30805.55
817.29	30647.85
817.47	30688.81
817.65	30670.38
817.83	30354.99
818.01	30584.37
818.19	30242.35
818.37	30416.43
818.54	30416.43
818.72	30246.45
818.90	30494.25
819.08	30086.71
819.26	30352.94
819.44	29961.78
819.62	30178.87
819.80	30240.31
819.97	29904.44
820.15	29582.91
820.33	29537.85
820.51	29787.71
820.69	29503.04
820.87	29910.58
821.05	30062.13
821.22	29722.17
821.40	29566.52
821.58	29271.62
821.76	29410.88
821.94	29230.66
822.12	29374.02
822.29	29398.59
822.47	29208.13
822.65	29918.78
822.83	29322.82
823.01	29355.58
823.19	29158.98
823.36	29109.83
823.54	28956.23
823.72	28782.15
823.90	29013.57
824.08	29003.33
824.25	29277.76
824.43	28999.24
824.61	28776.01
824.79	29048.39
824.97	28472.91
825.15	28706.38
825.32	28646.99
825.50	28622.41
825.68	28440.14
825.86	28614.22
826.04	28653.13
826.21	28495.44
826.39	28251.73
826.57	28173.91
826.75	28388.94
826.93	27774.55
827.10	28112.47
827.28	28114.52
827.46	28614.22
827.64	28100.18
827.81	28036.69
827.99	28128.85
828.17	27790.94
828.35	27903.57
828.53	28042.84
828.70	27782.74
828.88	27723.35
829.06	27811.42
829.24	27969.11
829.41	27528.80
829.59	27711.07
829.77	27475.55
829.95	27625.05
830.12	27463.26
830.30	27438.69
830.48	27616.86
830.66	27612.76
830.84	27586.14
831.01	27600.47
831.19	27295.33
831.37	27258.46
831.55	27137.63
831.72	27428.45
831.90	27133.54
832.08	26969.70
832.25	26951.27
832.43	27188.83
832.61	26836.58
832.79	26885.73
832.96	26998.37
833.14	27207.26
833.32	27237.98
833.50	26740.33
833.67	26758.76
833.85	26685.03
834.03	26371.69
834.20	26769.00
834.38	26652.27
834.56	26883.69
834.74	26396.27
834.91	26504.81
835.09	26549.87
835.27	26009.20
835.44	26318.45
835.62	26003.06
835.80	26160.75
835.98	26365.55
836.15	26625.64
836.33	26224.24
836.51	26461.80
836.68	26320.49
836.86	26343.02
837.04	26412.65
837.21	26246.77
837.39	26164.85
837.57	26332.78
837.75	26181.23
837.92	25955.96
838.10	25771.64
838.28	25716.34
838.45	25937.52
838.63	25605.75
838.81	25704.06
838.98	25482.88
839.16	25740.92
839.34	25491.07
839.51	25615.99
839.69	25325.18
839.87	25392.76
840.04	25269.89
840.22	25591.42
840.40	25446.01
840.57	25228.93
840.75	25446.01
840.93	25263.74
841.10	25386.62
841.28	25509.50
841.46	25233.02
841.63	25472.64
841.81	25337.47
841.98	25339.52
842.16	25110.14
842.34	25083.52
842.51	24983.17
842.69	25532.03
842.87	24964.74
843.04	25106.05
843.22	25054.85
843.40	24876.68
843.57	24833.67
843.75	24981.12
843.92	24872.58
844.10	24721.03
844.28	25273.98
844.45	24747.65
844.63	24737.41
844.81	24653.45
844.98	24637.06
845.16	24753.80
845.33	24649.35
845.51	24667.78
845.69	24469.13
845.86	24202.89
846.04	24227.47
846.21	24192.65
846.39	24157.84
846.57	24125.07
846.74	23950.99
846.92	24526.47
847.09	24229.52
847.27	23836.31
847.45	24231.57
847.62	24440.46
847.80	24018.58
847.97	24000.15
848.15	24254.09
848.32	23836.31
848.50	24211.09
848.68	23856.79
848.85	23836.31
849.03	23635.61
849.20	23776.92
849.38	23977.62
849.56	23848.60
849.73	23516.83
849.91	23703.19
850.08	23670.42
850.26	23559.83
850.43	23858.84
850.61	23486.11
850.78	23422.62
850.96	23404.19
851.14	23586.46
851.31	23436.95
851.49	23350.94
851.66	23783.06
851.84	23371.42
852.01	23402.14
852.19	23451.29
852.36	22963.87
852.54	23305.88
852.71	23369.37
852.89	23561.88
853.07	23084.70
853.24	23187.10
853.42	22965.92
853.59	23002.78
853.77	23178.91
853.94	23338.65
854.12	23105.18
854.29	22642.34
854.47	23140.00
854.64	23051.94
854.82	22771.36
854.99	23047.84
855.17	22908.58
855.34	22595.24
855.52	22877.86
855.69	23066.27
855.87	22611.62
856.04	22601.38
856.22	22527.66
856.39	22589.10
856.57	22709.93
856.74	22484.65
856.92	22312.62
857.09	22441.64
857.27	22466.22
857.44	22660.77
857.62	22560.42
857.79	22451.88
857.97	22501.03
858.14	22404.78
858.32	22247.08
858.49	22367.91
858.67	22320.81
858.84	22066.86
859.02	22400.68
859.19	22228.65
859.37	22204.08
859.54	22097.58
859.72	22267.56
859.89	22179.50
860.06	22245.04
860.24	21782.20
860.41	22054.58
860.59	21968.56
860.76	21860.02
860.94	21847.73
861.11	21943.99
861.29	22005.42
861.46	21741.24
861.64	21876.40
861.81	21692.08
861.98	21870.26
862.16	21683.89
862.33	21450.42
862.51	21196.48
862.68	21681.85
862.86	21561.02
863.03	21458.62
863.21	21431.99
863.38	21677.75
863.55	21145.28
863.73	21425.85
863.90	21311.16
864.08	21165.76
864.25	21259.96
864.43	21362.36
864.60	21376.70
864.77	20911.81
864.95	20993.73
865.12	20872.90
865.30	21108.41
865.47	21036.74
865.64	20952.77
865.82	21028.54
865.99	21296.83
866.17	20801.22
866.34	21006.02
866.51	20741.83
866.69	20881.09
866.86	21253.82
867.04	20790.98
867.21	20659.91
867.38	20725.44
867.56	20625.09
867.73	20334.28
867.91	20448.97
868.08	20506.31
868.25	20205.26
868.43	20197.07
868.60	20571.85
868.78	20121.29
868.95	20639.43
869.12	20455.11
869.30	20186.83
869.47	20051.66
869.64	20274.89
869.82	20020.94
869.99	19965.65
870.16	20537.03
870.34	20102.86
870.51	20223.69
870.69	19955.41
870.86	20422.34
871.03	20209.36
871.21	20250.32
871.38	20055.76
871.55	19824.34
871.73	19619.54
871.90	19803.86
872.07	19715.80
872.25	19793.62
872.42	19521.24
872.59	19756.75
872.77	19703.51
872.94	19715.80
873.11	19527.38
873.29	19584.73
873.46	19621.59
873.63	19517.14
873.81	19336.92
873.98	19283.67
874.15	19355.35
874.33	19162.84
874.50	19138.27
874.67	18992.86
874.85	19068.64
875.02	19168.99
875.19	19009.25
875.37	18697.95
875.54	18999.01
875.71	19103.45
875.88	18562.79
876.06	18876.13
876.23	18679.52
876.40	18878.18
876.58	18831.07
876.75	18788.07
876.92	18640.61
877.10	18679.52
877.27	18603.75
877.44	18583.27
877.61	18525.93
877.79	18349.80
877.96	18532.07
878.13	18335.46
878.31	18589.41
878.48	18237.16
878.65	18161.39
878.82	17972.97
879.00	18290.41
879.17	18093.80
879.34	18362.09
879.51	18294.50
879.69	17944.30
879.86	17950.45
880.03	18214.63
880.21	17985.26
880.38	18054.89
880.55	18124.52
880.72	17975.02
880.90	17868.53
881.07	17825.52
881.24	18013.93
881.41	17833.71
881.59	17870.58
881.76	17590.00
881.93	17653.49
882.10	17639.15
882.28	17344.25
882.45	17628.92
882.62	17491.70
882.79	17602.29
882.96	17278.71
883.14	17641.20
883.31	17438.45
883.48	17508.08
883.65	17553.14
883.83	17393.40
884.00	17354.49
884.17	17280.76
884.34	17528.56
884.51	17387.25
884.69	17250.04
884.86	17395.45
885.03	17102.59
885.20	16807.68
885.38	17145.59
885.55	17245.94
885.72	17049.34
885.89	16953.09
886.06	17202.94
886.24	17125.11
886.41	16779.01
886.58	17202.94
886.75	17264.38
886.92	17026.81
887.10	17129.21
887.27	16752.38
887.44	16977.66
887.61	17344.25
887.78	17123.07
887.95	16822.02
888.13	16731.90
888.30	16682.75
888.47	16867.07
888.64	16801.54
888.81	16811.78
888.99	16723.71
889.16	16604.93
889.33	16377.61
889.50	16559.88
889.67	16572.16
889.84	16459.52
890.01	16428.81
890.19	16563.97
890.36	16611.07
890.53	16318.22
890.70	16385.80
890.87	16451.33
891.04	16037.64
891.22	16277.26
891.39	16365.32
891.56	16295.69
891.73	16256.78
891.90	16056.08
892.07	16246.54
892.24	16127.75
892.42	15939.34
892.59	16203.53
892.76	15798.03
892.93	16111.37
893.10	16133.90
893.27	15947.53
893.44	15877.90
893.61	15791.89
893.79	16025.36
893.96	16037.64
894.13	16008.97
894.30	16080.65
894.47	15802.13
894.64	15918.86
894.81	15847.18
894.98	16017.16
895.15	15775.50
895.33	15726.35
895.50	15603.47
895.67	16199.43
895.84	15707.92
896.01	15802.13
896.18	15918.86
896.35	15855.37
896.52	15841.04
896.69	15646.48
896.86	15779.60
897.04	15499.03
897.21	15787.79
897.38	15716.11
897.55	15699.73
897.72	15761.17
897.89	15755.02
898.06	15761.17
898.23	15570.71
898.40	15617.81
898.57	15652.63
898.74	15533.84
898.91	15496.98
899.08	15795.98
899.26	15529.75
899.43	15769.36
899.60	15585.04
899.77	15621.91
899.94	15707.92
900.11	15613.71
900.28	15685.39
900.45	15511.32
900.62	15595.28
900.79	15666.96
900.96	15615.76
901.13	15634.19
901.30	15638.29
901.47	15718.16
901.64	15642.39
901.81	15261.46
901.98	15623.95
902.15	15615.76
902.32	15505.17
902.49	15572.75
902.66	15556.37
902.83	15591.19
903.01	15759.12
903.18	15554.32
903.35	15464.21
903.52	15572.75
903.69	15374.10
903.86	15838.99
904.03	15527.70
904.20	15617.81
904.37	15650.58
904.54	15453.97
904.71	15464.21
904.88	15585.04
905.05	15337.24
905.22	15779.60
905.39	15558.42
905.56	15611.67
905.73	15451.92
905.90	15425.30
906.07	15240.98
906.24	15619.86
906.41	15163.16
906.58	15474.45
906.75	15527.70
906.92	15343.38
907.09	15425.30
907.26	15576.85
907.43	15003.42
907.60	15212.31
907.77	15367.96
907.93	15451.92
908.10	15427.35
908.27	15443.73
908.44	15099.67
908.61	15283.99
908.78	15322.90
908.95	15496.98
909.12	15378.20
909.29	15429.40
909.46	15142.68
909.63	15281.94
909.80	15396.63
909.97	15349.53
910.14	15265.56
910.31	15351.57
910.48	15275.80
910.65	15406.87
910.82	15230.74
910.99	15324.95
911.16	15073.05
911.33	15097.63
911.50	15009.56
911.66	15132.44
911.83	15144.73
912.00	14821.15
912.17	14933.79
912.34	14849.82
912.51	14886.68
912.68	14802.72
912.85	15050.52
913.02	14776.09
913.19	14917.40
913.36	14909.21
913.53	14733.09
913.70	14608.16
913.86	14933.79
914.03	14497.57
914.20	14784.29
914.37	14802.72
914.54	14894.88
914.71	14677.79
914.88	14888.73
915.05	14432.04
915.22	14665.50
915.39	14645.02
915.55	14755.61
915.72	14483.24
915.89	14192.42
916.06	14325.54
916.23	14118.70
916.40	14343.97
916.57	14098.22
916.74	14309.16
916.91	14057.26
917.07	14079.79
917.24	14036.78
917.41	14110.50
917.58	13924.14
917.75	14151.46
917.92	13836.08
918.09	13963.05
918.26	13954.86
918.42	13946.67
918.59	14028.59
918.76	13768.49
918.93	13643.57
919.10	13629.23
919.27	13518.64
919.44	13618.99
919.60	13582.13
919.77	13743.92
919.94	13485.87
920.11	13547.31
920.28	13408.05
920.45	13492.02
920.61	13229.88
920.78	13344.56
920.95	13483.83
921.12	13297.46
921.29	13111.10
921.46	13141.82
921.62	13008.70
921.79	13100.86
921.96	12891.96
922.13	12955.45
922.30	12887.87
922.47	12949.31
922.63	12797.76
922.80	12808.00
922.97	12601.15
923.14	12431.17
923.31	12900.16
923.47	12511.04
923.64	12734.27
923.81	12394.31
923.98	12402.50
924.15	12429.12
924.32	12308.29
924.48	12179.27
924.65	12404.55
924.82	12136.26
924.99	12017.48
925.15	12050.25
925.32	12296.00
925.49	12029.77
925.66	11865.93
925.83	11976.52
925.99	11939.66
926.16	11910.99
926.33	11798.35
926.50	11528.02
926.67	11820.88
926.83	11607.89
927.00	11616.08
927.17	11605.84
927.34	11523.92
927.50	11577.17
927.67	11747.15
927.84	11417.43
928.01	11362.13
928.17	11382.61
928.34	11239.25
928.51	11364.18
928.68	11169.62
928.84	11257.68
929.01	11026.26
929.18	11018.07
929.35	10887.00
929.51	10936.15
929.68	10866.52
929.85	10704.73
930.02	10874.71
930.18	10921.82
930.35	10757.98
930.52	10690.40
930.69	10749.79
930.85	10600.29
931.02	10522.46
931.19	10483.55
931.36	10456.93
931.52	10585.95
931.69	10467.17
931.86	10399.59
932.02	10104.68
932.19	10106.73
932.36	10248.04
932.53	10389.35
932.69	10000.23
932.86	10235.75
933.03	10059.62
933.19	9848.68
933.36	9983.85
933.53	10018.66
933.70	9834.35
933.86	9932.65
934.03	9731.95
934.20	9545.58
934.36	9736.04
934.53	9420.66
934.70	9361.27
934.86	9537.39
935.03	9179.00
935.20	9095.03
935.36	9203.57
935.53	9142.13
935.70	9183.09
935.86	9179.00
936.03	9000.82
936.20	8785.79
936.36	8730.49
936.53	8734.59
936.70	8578.94
936.86	8869.75
937.03	8746.87
937.20	8245.12
937.36	8603.52
937.53	8114.05
937.70	8118.15
937.86	8001.41
938.03	8193.92
938.20	8109.96
938.36	7847.82
938.53	7917.45
938.70	7776.14
938.86	7638.92
939.03	7434.13
939.20	7411.60
939.36	7434.13
939.53	7303.06
939.70	7391.12
939.86	7110.55
940.03	7028.63
940.19	7008.15
940.36	6805.40
940.53	6774.68
940.69	6662.04
940.86	6877.08
941.03	6690.71
941.19	6637.47
941.36	6561.69
941.52	6557.60
941.69	6367.13
941.86	6336.42
942.02	6352.80
942.19	6211.49
942.35	6180.77
942.52	6229.92
942.69	6248.35
942.85	6098.85
943.02	6152.10
943.18	6072.23
943.35	6041.51
943.52	5789.61
943.68	5773.22
943.85	5732.26
944.01	5793.70
944.18	5681.07
944.35	5711.78
944.51	5517.23
944.68	5490.60
944.84	5564.33
945.01	5695.40
945.17	5496.75
945.34	5621.67
945.51	5482.41
945.67	5513.13
945.84	5380.01
946.00	5187.50
946.17	5369.77
946.33	5392.30
946.50	5351.34
946.67	5521.32
946.83	5459.88
947.00	5554.09
947.16	5386.16
947.33	5420.97
947.49	5433.26
947.66	5375.92
947.82	5355.44
947.99	5298.10
948.16	5478.32
948.32	5214.13
948.49	5375.92
948.65	5392.30
948.82	5480.36
948.98	5406.64
949.15	5427.12
949.31	5420.97
949.48	5334.96
949.64	5429.17
949.81	5459.88
949.97	5355.44
950.14	5427.12
950.30	5330.86
950.47	5480.36
950.63	5349.29
950.80	5541.80
950.96	5341.10
951.13	5337.01
951.30	5355.44
951.46	5490.60
951.63	5476.27
951.79	5416.88
951.96	5504.94
952.12	5412.78
952.29	5521.32
952.45	5496.75
952.62	5437.36
952.78	5568.43
952.94	5382.06
953.11	5296.05
953.27	5345.20
953.44	5470.12
953.60	5435.31
953.77	5513.13
953.93	5468.08
954.10	5623.72
954.26	5390.25
954.43	5580.71
954.59	5511.08
954.76	5652.39
954.92	5533.61
955.09	5521.32
955.25	5488.56
955.42	5521.32
955.58	5611.43
955.75	5656.49
955.91	5435.31
956.07	5459.88
956.24	5564.33
956.40	5455.79
956.57	5611.43
956.73	5519.28
956.90	5439.40
957.06	5433.26
957.23	5631.91
957.39	5480.36
957.56	5550.00
957.72	5558.19
957.88	5498.80
958.05	5535.66
958.21	5742.50
958.38	5539.76
958.54	5468.08
958.71	5623.72
958.87	5543.85
959.03	5582.76
959.20	5615.53
959.36	5533.61
959.53	5500.84
959.69	5556.14
959.85	5576.62
960.02	5445.55
960.18	5478.32
960.35	5418.93
960.51	5500.84
960.68	5451.69
960.84	5515.18
961.00	5568.43
961.17	5498.80
961.33	5498.80
961.50	5576.62
961.66	5576.62
961.82	5429.17
961.99	5537.71
962.15	5410.73
962.31	5388.21
962.48	5384.11
962.64	5550.00
962.81	5496.75
962.97	5435.31
963.13	5468.08
963.30	5662.63
963.46	5386.16
963.62	5373.87
963.79	5408.69
963.95	5392.30
964.12	5447.60
964.28	5554.09
964.44	5367.73
964.61	5459.88
964.77	5451.69
964.93	5484.46
965.10	5429.17
965.26	5457.84
965.42	5377.97
965.59	5322.67
965.75	5326.77
965.92	5377.97
966.08	5410.73
966.24	5337.01
966.41	5355.44
966.57	5431.21
966.73	5384.11
966.90	5496.75
967.06	5294.00
967.22	5375.92
967.39	5388.21
967.55	5343.15
967.71	5244.85
967.88	5261.23
968.04	5271.47
968.20	5273.52
968.37	5337.01
968.53	5162.93
968.69	5255.09
968.85	5234.61
969.02	5259.18
969.18	5187.50
969.34	5238.70
969.51	5158.83
969.67	5136.31
969.83	5148.59
970.00	5261.23
970.16	5210.03
970.32	5218.22
970.48	5330.86
970.65	5076.91
970.81	5105.59
970.97	5179.31
971.14	5138.35
971.30	5148.59
971.46	5132.21
971.63	5121.97
971.79	5158.83
971.95	5095.35
972.11	4908.98
972.28	5124.02
972.44	4966.32
972.60	4853.69
972.76	5013.43
972.93	4949.94
973.09	5160.88
973.25	4956.08
973.42	4970.42
973.58	5021.62
973.74	4915.12
973.90	5023.67
974.07	4853.69
974.23	4863.93
974.39	4884.41
974.55	4886.45
974.72	4884.41
974.88	4761.53
975.04	4943.80
975.20	4788.15
975.37	4829.11
975.53	4732.86
975.69	4755.38
975.85	4825.01
976.01	4695.99
976.18	4652.98
976.34	4677.56
976.50	4863.93
976.66	4937.65
976.83	4655.03
976.99	4755.38
977.15	4712.38
977.31	4591.55
977.47	4730.81
977.64	4693.94
977.80	4800.44
977.96	4564.92
978.12	4728.76
978.29	4755.38
978.45	4679.61
978.61	4562.87
978.77	4810.68
978.93	4538.30
979.10	4612.03
979.26	4554.68
979.42	4581.31
979.58	4489.15
979.74	4513.72
979.91	4612.03
980.07	4560.83
980.23	4480.96
980.39	4403.13
980.55	4534.20
980.71	4513.72
980.88	4487.10
981.04	4575.16
981.20	4542.39
981.36	4480.96
981.52	4405.18
981.68	4358.08
981.85	4411.32
982.01	4335.55
982.17	4323.26
982.33	4308.93
982.49	4351.93
982.65	4298.69
982.82	4218.82
982.98	4421.56
983.14	4315.07
983.30	4384.70
983.46	4448.19
983.62	4282.30
983.79	4288.45
983.95	4227.01
984.11	4202.43
984.27	4249.54
984.43	4378.56
984.59	4370.37
984.75	4448.19
984.91	4218.82
985.08	4214.72
985.24	4140.99
985.40	4173.76
985.56	4208.58
985.72	4251.58
985.88	4134.85
986.04	4077.51
986.20	4153.28
986.37	4188.10
986.53	4106.18
986.69	4114.37
986.85	3977.16
987.01	3975.11
987.17	4104.13
987.33	4005.83
987.49	3921.86
987.65	4018.11
987.82	3999.68
987.98	4048.83
988.14	4038.59
988.30	4050.88
988.46	3952.58
988.62	4040.64
988.78	3948.48
988.94	3899.33
989.10	3893.19
989.26	3934.15
989.42	3964.87
989.59	3923.91
989.75	3885.00
989.91	3983.30
990.07	3780.55
990.23	3782.60
990.39	3760.07
990.55	3833.80
990.71	3669.96
990.87	3741.64
991.03	3809.22
991.19	3801.03
991.35	3755.97
991.51	3823.56
991.67	3811.27
991.83	3778.50
992.00	3764.17
992.16	3796.93
992.32	3899.33
992.48	3753.93
992.64	3684.30
992.80	3706.82
992.96	3649.48
993.12	3700.68
993.28	3655.62
993.44	3637.19
993.60	3696.58
993.76	3637.19
993.92	3690.44
994.08	3639.24
994.24	3731.40
994.40	3592.14
994.56	3727.30
994.72	3471.31
994.88	3573.71
995.04	3661.77
995.20	3577.80
995.36	3489.74
995.52	3637.19
995.68	3747.78
995.84	3536.84
996.00	3557.32
996.16	3448.78
996.32	3479.50
996.48	3422.16
996.64	3600.33
996.80	3485.64
996.96	3485.64
997.12	3483.59
997.28	3459.02
997.44	3379.15
997.60	3459.02
997.76	3465.16
997.92	3428.30
998.08	3368.91
998.24	3254.22
998.40	3485.64
998.56	3395.53
998.72	3389.39
998.88	3321.81
999.04	3293.13
999.20	3422.16
999.36	3213.26
999.52	3389.39
999.68	3364.81
999.84	3393.48
1000.00	3360.72
1000.16	3418.06
1000.32	3370.96
1000.48	3323.85
1000.64	3239.89
1000.80	3237.84
1000.95	3219.41
1001.11	3221.45
1001.27	3106.77
1001.43	3303.37
1001.59	3160.02
1001.75	3180.50
1001.91	3305.42
1002.07	3176.40
1002.23	3246.03
1002.39	3311.57
1002.55	3196.88
1002.71	3117.01
1002.87	3049.43
1003.03	3078.10
1003.19	3100.62
1003.34	3151.82
1003.50	3155.92
1003.66	3198.93
1003.82	3215.31
1003.98	3045.33
1004.14	3117.01
1004.30	2996.18
1004.46	3143.63
1004.62	2992.08
1004.78	2983.89
1004.94	3086.29
1005.09	3114.96
1005.25	3104.72
1005.41	3008.47
1005.57	3018.71
1005.73	3014.61
1005.89	2920.40
1006.05	3041.23
1006.21	3010.51
1006.37	2879.44
1006.52	2973.65
1006.68	2891.73
1006.84	3004.37
1007.00	2875.35
1007.16	3020.75
1007.32	2830.29
1007.48	2908.12
1007.64	2983.89
1007.79	2953.17
1007.95	2932.69
1008.11	2965.46
1008.27	2844.63
1008.43	2865.11
1008.59	2912.21
1008.75	2871.25
1008.91	2897.88
1009.06	2873.30
1009.22	2990.03
1009.38	2809.81
1009.54	2885.59
1009.70	2822.10
1009.86	2762.71
1010.01	2822.10
1010.17	2736.09
1010.33	2811.86
1010.49	2793.43
1010.65	2822.10
1010.81	2672.60
1010.96	2703.32
1011.12	2777.05
1011.28	2734.04
1011.44	2793.43
1011.60	2791.38
1011.76	2742.23
1011.91	2783.19
1012.07	2539.48
1012.23	2719.70
1012.39	2613.21
1012.55	2666.46
1012.71	2711.51
1012.86	2713.56
1013.02	2633.69
1013.18	2602.97
1013.34	2717.65
1013.50	2719.70
1013.65	2723.80
1013.81	2621.40
1013.97	2521.05
1014.13	2664.41
1014.29	2584.54
1014.44	2680.79
1014.60	2594.78
1014.76	2519.00
1014.92	2531.29
1015.07	2625.50
1015.23	2463.71
1015.39	2455.51
1015.55	2576.34
1015.71	2543.58
1015.86	2537.43
1016.02	2502.62
1016.18	2486.23
1016.34	2592.73
1016.49	2525.15
1016.65	2582.49
1016.81	2475.99
1016.97	2562.01
1017.12	2557.91
1017.28	2521.05
1017.44	2365.40
1017.60	2402.27
1017.75	2521.05
1017.91	2492.38
1018.07	2486.23
1018.23	2435.03
1018.38	2435.03
1018.54	2459.61
1018.70	2418.65
1018.86	2465.75
1019.01	2410.46
1019.17	2379.74
1019.33	2543.58
1019.49	2469.85
1019.64	2420.70
1019.80	2451.42
1019.96	2523.10
1020.12	2392.03
1020.27	2377.69
1020.43	2435.03
1020.59	2445.27
1020.74	2371.55
1020.90	2447.32
1021.06	2281.44
1021.22	2398.17
1021.37	2312.16
1021.53	2283.49
1021.69	2301.92
1021.84	2256.86
1022.00	2371.55
1022.16	2271.20
1022.31	2295.77
1022.47	2398.17
1022.63	2394.08
1022.79	2250.72
1022.94	2306.01
1023.10	2293.72
1023.26	2312.16
1023.41	2269.15
1023.57	2357.21
1023.73	2349.02
1023.88	2338.78
1024.04	2240.48
1024.20	2213.85
1024.35	2308.06
1024.51	2342.88
1024.67	2215.90
1024.82	2310.11
1024.98	2117.60
1025.14	2324.44
1025.29	2224.09
1025.45	2353.12
1025.61	2119.65
1025.76	2267.10
1025.92	2142.18
1026.08	2244.57
1026.23	2179.04
1026.39	2256.86
1026.55	2170.85
1026.70	2207.71
1026.86	2189.28
1027.02	2154.46
1027.17	2080.74
1027.33	2228.19
1027.48	2097.12
1027.64	2086.88
1027.80	2076.64
1027.95	2142.18
1028.11	2123.74
1028.27	2148.32
1028.42	2211.81
1028.58	2140.13
1028.73	2158.56
1028.89	2009.06
1029.05	2250.72
1029.20	2183.13
>>>>>End Processed Spectral Data<<<<<
