SpectraSuite Data File
++++++++++++++++++++++++++++++++++++
Date: Fri Jun 02 14:51:10 CEST 2017
User: INFO_000
Dark Spectrum Present: No
Reference Spectrum Present: No
Number of Sampled Component Spectra: 1
Spectrometers: USB4H00879
Integration Time (usec): 80000 (USB4H00879)
Spectra Averaged: 1 (USB4H00879)
Boxcar Smoothing: 0 (USB4H00879)
Correct for Electrical Dark: No (USB4H00879)
Strobe/Lamp Enabled: No (USB4H00879)
Correct for Detector Non-linearity: No (USB4H00879)
Correct for Stray Light: No (USB4H00879)
Number of Pixels in Processed Spectrum: 3648
>>>>>Begin Processed Spectral Data<<<<<
345.13	1226.73
345.34	1226.73
345.56	1226.73
345.78	1282.03
345.99	1284.08
346.21	1679.33
346.42	1740.77
346.64	1662.95
346.86	1708.01
347.07	1648.61
347.29	1685.48
347.50	1603.56
347.72	1669.09
347.94	1708.01
348.15	1538.02
348.37	1615.85
348.59	1728.49
348.80	1603.56
349.02	1753.06
349.23	1916.90
349.45	1869.80
349.67	1877.99
349.88	1773.54
350.10	1937.38
350.31	1873.89
350.53	1804.26
350.75	1920.99
350.96	1722.34
351.18	1843.17
351.39	1937.38
351.61	1832.93
351.82	1925.09
352.04	1884.13
352.26	1791.97
352.47	1980.39
352.69	1988.58
352.90	1761.25
353.12	1794.02
353.34	1925.09
353.55	1902.56
353.77	1820.64
353.98	1902.56
354.20	1787.88
354.41	1912.80
354.63	1978.34
354.85	1986.53
355.06	1894.37
355.28	1820.64
355.49	1892.32
355.71	1972.19
355.92	1869.80
356.14	1953.76
356.35	1843.17
356.57	1918.95
356.79	1925.09
357.00	1847.27
357.22	1949.67
357.43	1880.04
357.65	1998.82
357.86	1830.88
358.08	1896.42
358.29	1900.52
358.51	1914.85
358.72	1939.43
358.94	1910.75
359.16	1933.28
359.37	1900.52
359.59	1959.91
359.80	1933.28
360.02	1937.38
360.23	1976.29
360.45	1992.67
360.66	1904.61
360.88	1865.70
361.09	1941.47
361.31	1953.76
361.52	1914.85
361.74	2052.06
361.95	2111.46
362.17	1974.24
362.38	2029.54
362.60	2000.87
362.81	1968.10
363.03	1941.47
363.24	2023.39
363.46	2052.06
363.67	2035.68
363.89	1970.15
364.10	2019.30
364.32	1906.66
364.53	2019.30
364.75	1949.67
364.96	2019.30
365.18	1968.10
365.39	2019.30
365.61	1970.15
365.82	2119.65
366.04	2029.54
366.25	2019.30
366.47	2017.25
366.68	2074.59
366.90	1984.48
367.11	1982.43
367.33	2138.08
367.54	2043.87
367.76	2043.87
367.97	2107.36
368.19	2072.54
368.40	2095.07
368.62	1951.71
368.83	1925.09
369.05	2050.02
369.26	1953.76
369.48	2009.06
369.69	2047.97
369.91	2068.45
370.12	2025.44
370.33	2136.03
370.55	1964.00
370.76	2029.54
370.98	2099.17
371.19	2097.12
371.41	2056.16
371.62	2093.02
371.84	1994.72
372.05	2246.62
372.27	2052.06
372.48	2107.36
372.69	2125.79
372.91	2181.09
373.12	2093.02
373.34	2021.35
373.55	2150.37
373.77	2156.51
373.98	2011.11
374.20	2144.22
374.41	2195.42
374.62	2121.70
374.84	2113.50
375.05	2207.71
375.27	2183.13
375.48	2127.84
375.70	2166.75
375.91	2273.25
376.12	2281.44
376.34	2084.83
376.55	2195.42
376.77	2174.94
376.98	2133.98
377.19	2164.70
377.41	2154.46
377.62	2164.70
377.84	2338.78
378.05	2387.93
378.27	2209.76
378.48	2367.45
378.69	2351.07
378.91	2301.92
379.12	2252.77
379.34	2230.24
379.55	2293.72
379.76	2252.77
379.98	2285.53
380.19	2303.96
380.41	2308.06
380.62	2318.30
380.83	2357.21
381.05	2199.52
381.26	2459.61
381.47	2279.39
381.69	2277.34
381.90	2502.62
382.12	2213.85
382.33	2287.58
382.54	2281.44
382.76	2330.59
382.97	2342.88
383.19	2269.15
383.40	2377.69
383.61	2232.29
383.83	2250.72
384.04	2314.20
384.25	2402.27
384.47	2330.59
384.68	2314.20
384.89	2306.01
385.11	2328.54
385.32	2373.60
385.54	2314.20
385.75	2308.06
385.96	2404.32
386.18	2455.51
386.39	2404.32
386.60	2381.79
386.82	2322.40
387.03	2443.23
387.24	2465.75
387.46	2439.13
387.67	2453.47
387.88	2459.61
388.10	2410.46
388.31	2469.85
388.52	2516.95
388.74	2523.10
388.95	2510.81
389.16	2551.77
389.38	2516.95
389.59	2611.16
389.80	2535.39
390.02	2541.53
390.23	2621.40
390.44	2559.96
390.66	2535.39
390.87	2387.93
391.08	2576.34
391.30	2717.65
391.51	2602.97
391.72	2668.50
391.94	2633.69
392.15	2688.98
392.36	2609.11
392.58	2559.96
392.79	2617.30
393.00	2703.32
393.22	2742.23
393.43	2715.61
393.64	2740.18
393.85	2695.13
394.07	2680.79
394.28	2719.70
394.49	2838.48
394.71	2813.91
394.92	2858.96
395.13	2627.54
395.35	2750.42
395.56	2709.46
395.77	2879.44
395.98	2828.24
396.20	2791.38
396.41	2815.96
396.62	2920.40
396.84	2777.05
397.05	2772.95
397.26	2877.40
397.47	2856.92
397.69	2738.13
397.90	2951.12
398.11	2863.06
398.32	2924.50
398.54	2940.88
398.75	2838.48
398.96	2994.13
399.18	3043.28
399.39	2938.84
399.60	2967.51
399.81	2895.83
400.03	2985.94
400.24	3280.85
400.45	2936.79
400.66	3041.23
400.88	3000.27
401.09	3198.93
401.30	3022.80
401.51	3108.82
401.73	3084.24
401.94	3196.88
402.15	3092.43
402.36	3082.19
402.58	2985.94
402.79	3237.84
403.00	3155.92
403.21	3131.34
403.43	3192.78
403.64	3207.12
403.85	3133.39
404.06	3239.89
404.27	3014.61
404.49	3174.35
404.70	3090.38
404.91	3307.47
405.12	3233.74
405.34	3241.93
405.55	3424.20
405.76	3106.77
405.97	3164.11
406.19	3321.81
406.40	3117.01
406.61	3340.24
406.82	3233.74
407.03	3385.29
407.25	3332.05
407.46	3379.15
407.67	3426.25
407.88	3538.89
408.09	3403.72
408.31	3403.72
408.52	3348.43
408.73	3315.66
408.94	3315.66
409.15	3360.72
409.37	3430.35
409.58	3456.97
409.79	3461.07
410.00	3483.59
410.21	3413.96
410.43	3375.05
410.64	3413.96
410.85	3565.51
411.06	3495.88
411.27	3612.62
411.48	3516.36
411.70	3506.12
411.91	3581.90
412.12	3565.51
412.33	3608.52
412.54	3497.93
412.76	3702.73
412.97	3782.60
413.18	3620.81
413.39	3649.48
413.60	3680.20
413.81	3583.95
414.03	3684.30
414.24	3629.00
414.45	3807.17
414.66	3491.79
414.87	3762.12
415.08	3731.40
415.30	3792.84
415.51	3676.10
415.72	3702.73
415.93	3698.63
416.14	3784.65
416.35	3919.81
416.56	3708.87
416.78	3833.80
416.99	3874.76
417.20	3823.56
417.41	3821.51
417.62	3852.23
417.83	4009.92
418.04	3860.42
418.26	3911.62
418.47	3897.28
418.68	3930.05
418.89	4032.45
419.10	4089.79
419.31	4112.32
419.52	4177.86
419.73	3966.92
419.95	4057.03
420.16	3954.63
420.37	4007.87
420.58	4048.83
420.79	3866.56
421.00	4028.35
421.21	4030.40
421.42	3968.96
421.63	4157.38
421.85	3940.29
422.06	4007.87
422.27	4184.00
422.48	4071.36
422.69	4134.85
422.90	4214.72
423.11	4208.58
423.32	4155.33
423.53	4431.80
423.75	4300.73
423.96	4452.28
424.17	4374.46
424.38	4472.76
424.59	4356.03
424.80	4353.98
425.01	4472.76
425.22	4378.56
425.43	4364.22
425.64	4554.68
425.85	4485.05
426.06	4575.16
426.28	4491.20
426.49	4581.31
426.70	4396.99
426.91	4517.82
427.12	4650.94
427.33	4550.59
427.54	4675.51
427.75	4753.34
427.96	4777.91
428.17	4714.42
428.38	4720.57
428.59	4825.01
428.80	4609.98
429.01	4984.76
429.23	4845.49
429.44	5081.01
429.65	4812.73
429.86	5023.67
430.07	4757.43
430.28	4870.07
430.49	4997.04
430.70	4935.60
430.91	5031.86
431.12	4974.52
431.33	5187.50
431.54	5279.66
431.75	5052.34
431.96	5013.43
432.17	5078.96
432.38	5015.48
432.59	5341.10
432.80	5253.04
433.01	5167.03
433.22	5334.96
433.43	5285.81
433.64	5130.16
433.85	5248.94
434.06	5406.64
434.27	5283.76
434.49	5339.05
434.70	5480.36
434.91	5377.97
435.12	5484.46
435.33	5474.22
435.54	5439.40
435.75	5343.15
435.96	5427.12
436.17	5216.18
436.38	5457.84
436.59	5601.19
436.80	5453.74
437.01	5670.83
437.22	5601.19
437.43	5705.64
437.64	5468.08
437.85	5812.14
438.06	5638.06
438.27	5437.36
438.48	5638.06
438.69	5685.16
438.90	5803.94
439.11	5595.05
439.32	5967.78
439.53	5726.12
439.74	5797.80
439.95	5996.45
440.16	5877.67
440.37	5957.54
440.57	5672.87
440.78	5812.14
440.99	5920.68
441.20	5935.01
441.41	5838.76
441.62	6082.47
441.83	5744.55
442.04	6191.01
442.25	6029.22
442.46	5943.21
442.67	6246.30
442.88	6434.72
443.09	6066.08
443.30	6004.64
443.51	6254.50
443.72	6320.03
443.93	6078.37
444.14	6477.73
444.35	6137.76
444.56	6287.26
444.77	6244.26
444.98	6334.37
445.19	6322.08
445.40	6463.39
445.61	6360.99
445.81	6444.96
446.02	6438.81
446.23	6416.29
446.44	6262.69
446.65	6360.99
446.86	6530.97
447.07	6487.96
447.28	6627.23
447.49	6651.80
447.70	6477.73
447.91	6596.51
448.12	6727.58
448.33	6645.66
448.54	6760.34
448.74	6801.30
448.95	6789.02
449.16	6686.62
449.37	6946.71
449.58	6690.71
449.79	6952.85
450.00	6688.67
450.21	6959.00
450.42	7151.51
450.63	6913.94
450.84	6893.46
451.05	7036.82
451.25	6858.65
451.46	6889.37
451.67	7057.30
451.88	7264.15
452.09	7227.28
452.30	7110.55
452.51	7141.27
452.72	7352.21
452.93	7677.83
453.13	7143.32
453.34	7126.93
453.55	7264.15
453.76	7393.17
453.97	7667.60
454.18	7309.20
454.39	7554.96
454.60	7395.22
454.81	7384.98
455.01	7802.76
455.22	7317.39
455.43	7624.59
455.64	7729.03
455.85	7933.83
456.06	7962.50
456.27	7737.23
456.48	7567.24
456.68	7776.14
456.89	7837.58
457.10	8195.97
457.31	7757.71
457.52	7845.77
457.73	7942.02
457.94	8081.28
458.14	7954.31
458.35	8419.20
458.56	8066.95
458.77	8112.00
458.98	8021.89
459.19	8257.41
459.39	8361.86
459.60	8376.19
459.81	8130.44
460.02	8505.21
460.23	8480.64
460.44	8679.29
460.65	8628.09
460.85	8740.73
461.06	8736.63
461.27	8537.98
461.48	8787.83
461.69	8900.47
461.89	8578.94
462.10	8910.71
462.31	8591.23
462.52	8832.89
462.73	8945.53
462.94	9084.79
463.14	9168.76
463.35	9058.17
463.56	9484.14
463.77	9291.63
463.98	9312.11
464.18	9199.48
464.39	9391.98
464.60	9801.58
464.81	9600.88
465.02	9367.41
465.23	9574.25
465.43	9490.29
465.64	9766.76
465.85	9641.84
466.06	9629.55
466.27	9832.30
466.47	9817.96
466.68	9928.55
466.89	9899.88
467.10	9967.46
467.30	9969.51
467.51	10221.41
467.72	10477.41
467.93	10049.38
468.14	10352.48
468.34	10397.54
468.55	10461.02
468.76	10485.60
468.97	10329.95
469.17	10465.12
469.38	10549.09
469.59	10864.47
469.80	10860.38
470.01	10622.81
470.21	10895.19
470.42	10989.40
470.63	11179.86
470.84	10776.41
471.04	11315.03
471.25	11216.72
471.46	11073.37
471.67	11372.37
471.87	11439.95
472.08	11628.37
472.29	11495.25
472.50	11280.21
472.70	11568.98
472.91	11732.81
473.12	11859.79
473.33	11933.51
473.53	12220.23
473.74	11781.96
473.95	12111.69
474.16	12298.05
474.36	12097.35
474.57	12455.75
474.78	12578.62
474.99	12572.48
475.19	12435.27
475.40	12797.76
475.61	12697.41
475.81	13072.18
476.02	13242.17
476.23	12971.83
476.44	13246.26
476.64	13203.25
476.85	13338.42
477.06	13152.06
477.27	13643.57
477.47	13764.40
477.68	13752.11
477.89	13610.80
478.09	13762.35
478.30	14096.17
478.51	13807.41
478.71	13995.82
478.92	14065.45
479.13	14389.03
479.34	14532.39
479.54	14452.52
479.75	14407.46
479.96	14626.59
480.16	14700.32
480.37	14591.78
480.58	14876.44
480.78	15191.83
480.99	15261.46
481.20	15150.87
481.41	15255.32
481.61	15410.96
481.82	15712.02
482.03	15499.03
482.23	15732.50
482.44	15734.54
482.65	15783.70
482.85	15912.72
483.06	15914.77
483.27	16023.31
483.47	15992.59
483.68	16312.07
483.89	16148.23
484.09	16551.68
484.30	16592.64
484.51	16656.13
484.71	16828.16
484.92	16860.93
485.13	17110.78
485.33	17112.83
485.54	16908.03
485.75	17344.25
485.95	17313.53
486.16	17344.25
486.37	17503.99
486.57	17256.18
486.78	17479.41
486.98	17581.81
487.19	17932.01
487.40	17884.91
487.60	17893.10
487.81	18054.89
488.02	18018.03
488.22	18321.13
488.43	18405.10
488.64	18104.04
488.84	18360.04
489.05	18456.29
489.25	18556.64
489.46	18646.76
489.67	18732.77
489.87	18812.64
490.08	19037.92
490.29	19410.65
490.49	19531.48
490.70	19441.37
490.90	19377.88
491.11	19330.78
491.32	19760.85
491.52	19545.81
491.73	19650.26
491.94	19631.83
492.14	20029.13
492.35	19953.36
492.55	20281.03
492.76	20141.77
492.97	20293.32
493.17	20514.50
493.38	20240.08
493.58	20645.57
493.79	20494.02
494.00	20612.81
494.20	20819.65
494.41	20756.16
494.61	20838.08
494.82	20965.06
495.02	21096.13
495.23	21130.94
495.44	21116.61
495.64	21231.29
495.85	21399.23
496.05	21397.18
496.26	21825.20
496.47	21731.00
496.67	21634.74
496.88	22365.87
497.08	21743.28
497.29	22040.24
497.49	21751.48
497.70	22083.25
497.91	22320.81
498.11	22214.32
498.32	22607.53
498.52	22324.91
498.73	22689.45
498.93	22570.66
499.14	22806.18
499.34	22816.42
499.55	23058.08
499.76	22830.76
499.96	22886.05
500.17	22935.20
500.37	23256.73
500.58	23223.97
500.78	23129.76
500.99	23023.26
501.19	23502.49
501.40	23410.33
501.60	23488.15
501.81	23432.86
502.02	23447.19
502.22	23338.65
502.43	23950.99
502.63	23764.63
502.84	23924.37
503.04	24137.36
503.25	24018.58
503.45	23887.51
503.66	24688.26
503.86	24151.70
504.07	24540.81
504.27	24180.37
504.48	24624.78
504.68	24710.79
504.89	24872.58
505.09	24659.59
505.30	24835.72
505.50	24866.44
505.71	25212.54
505.91	25163.39
506.12	25190.02
506.32	25163.39
506.53	25214.59
506.73	25194.11
506.94	25499.26
507.14	25194.11
507.35	25450.11
507.55	25527.93
507.76	25405.05
507.96	25290.37
508.17	25677.43
508.37	25636.47
508.58	25763.45
508.78	25970.29
508.99	26050.16
509.19	25798.26
509.40	25857.65
509.60	26023.54
509.81	25802.36
510.01	26123.89
510.22	26125.94
510.42	26320.49
510.63	26394.22
510.83	26357.36
511.04	26463.85
511.24	26586.73
511.44	26494.57
511.65	26525.29
511.85	26588.78
512.06	26611.31
512.26	26666.60
512.47	26936.93
512.67	26639.98
512.88	26572.39
513.08	26488.43
513.29	27072.10
513.49	27082.34
513.69	27381.34
513.90	27096.67
514.10	27324.00
514.31	27115.11
514.51	27338.33
514.72	27788.89
514.92	27262.56
515.13	27471.45
515.33	27758.17
515.53	27356.77
515.74	27467.36
515.94	27510.36
516.15	27881.05
516.35	27563.61
516.56	28206.67
516.76	27858.52
516.96	28085.84
517.17	28016.21
517.37	27852.38
517.58	28036.69
517.78	28128.85
517.99	28341.84
518.19	28282.45
518.39	28390.99
518.60	28610.12
518.80	28563.02
519.01	28507.72
519.21	28833.35
519.41	28759.63
519.62	28636.75
519.82	28798.54
520.03	29087.30
520.23	28876.36
520.43	28857.93
520.64	28974.66
520.84	29251.14
521.05	29367.87
521.25	29621.82
521.45	29206.08
521.66	29445.69
521.86	29980.21
522.07	29533.76
522.27	29476.41
522.47	29460.03
522.68	29822.52
522.88	29738.55
523.08	30195.25
523.29	30209.59
523.49	30166.58
523.70	30076.47
523.90	30441.01
524.10	29992.50
524.31	30692.91
524.51	30426.67
524.71	30770.73
524.92	30524.97
525.12	30797.35
525.33	30717.48
525.53	31157.80
525.73	31065.64
525.94	30961.19
526.14	31090.21
526.34	31196.71
526.55	31542.81
526.75	31415.84
526.95	31473.18
527.16	31733.28
527.36	31120.93
527.56	31735.32
527.77	32218.64
527.97	31876.63
528.17	31962.65
528.38	32347.67
528.58	32318.99
528.78	32450.06
528.99	32048.66
529.19	32400.91
529.39	32237.08
529.60	32609.81
529.80	32726.54
530.00	32495.12
530.21	32921.10
530.41	32716.30
530.61	32603.66
530.82	32869.90
531.02	33068.55
531.22	32902.67
531.43	33160.71
531.63	33418.75
531.83	34016.76
532.04	34196.98
532.24	33543.68
532.44	33961.47
532.64	34110.97
532.85	34352.63
533.05	34100.73
533.25	34057.72
533.46	34115.06
533.66	34323.96
533.86	34534.90
534.07	34663.92
534.27	34811.37
534.47	35151.34
534.67	34612.72
534.88	34582.00
535.08	35151.34
535.28	35362.28
535.49	35151.34
535.69	35808.73
535.89	35655.14
536.09	35329.51
536.30	35667.42
536.50	35829.21
536.70	35915.23
536.91	35540.45
537.11	35751.39
537.31	36290.01
537.51	35792.35
537.72	36474.32
537.92	36353.49
538.12	36664.78
538.32	36269.53
538.53	37002.70
538.73	36367.83
538.93	36435.41
539.13	36855.25
539.34	36433.36
539.54	36648.40
539.74	37371.33
539.94	37115.34
540.15	37209.54
540.35	37344.71
540.55	36888.01
540.75	37072.33
540.96	37103.05
541.16	37045.71
541.36	37342.66
541.56	37455.30
541.77	38022.59
541.97	37705.15
542.17	37725.63
542.37	37934.53
542.58	38268.34
542.78	38225.34
542.98	37995.96
543.18	38460.85
543.38	38538.68
543.59	38907.31
543.79	38507.96
543.99	38235.58
544.19	38768.05
544.40	38526.39
544.60	38929.84
544.80	38616.50
545.00	38671.79
545.20	39112.11
545.41	39335.34
545.61	38766.00
545.81	39306.66
546.01	39298.47
546.21	39404.97
546.42	38952.37
546.62	39523.75
546.82	39468.45
547.02	39484.84
547.22	39746.98
547.43	39253.42
547.63	39787.94
547.83	39525.80
548.03	39472.55
548.23	39679.39
548.44	40150.43
548.64	39835.04
548.84	40011.17
549.04	40113.56
549.24	40648.08
549.45	40324.50
549.65	40011.17
549.85	40404.38
550.05	40498.58
550.25	40105.37
550.45	40773.01
550.66	40383.90
550.86	40748.43
551.06	40555.93
551.26	40535.45
551.46	40578.45
551.66	40932.75
551.87	40859.02
552.07	40793.49
552.27	41045.39
552.47	40508.82
552.67	40998.29
552.87	41088.40
553.07	41508.23
553.28	41141.64
553.48	41352.58
553.68	40926.61
553.88	41639.30
554.08	41217.42
554.28	41065.87
554.48	41794.95
554.69	41819.52
554.89	41368.97
555.09	41665.92
555.29	41285.00
555.49	41665.92
555.69	41631.11
555.89	41450.89
556.10	41991.55
556.30	41207.18
556.50	41995.65
556.70	42327.42
556.90	42251.64
557.10	42331.51
557.30	41993.60
557.50	42421.62
557.70	42562.93
557.91	42419.58
558.11	42167.68
558.31	42343.80
558.51	42077.57
558.71	42272.12
558.91	42317.18
559.11	42423.67
559.31	42548.60
559.51	42624.37
559.72	42489.21
559.92	42691.96
560.12	42206.59
560.32	42468.73
560.52	42589.56
560.72	43044.21
560.92	42866.03
561.12	42820.98
561.32	43148.65
561.52	42544.50
561.72	43165.04
561.93	42792.31
562.13	43271.53
562.33	42913.14
562.53	43574.63
562.73	42956.14
562.93	42970.48
563.13	43359.59
563.33	43152.75
563.53	43685.22
563.73	43357.55
563.93	43543.91
564.13	43879.78
564.33	43357.55
564.53	43384.17
564.74	43367.79
564.94	43279.72
565.14	43750.76
565.34	43425.13
565.54	43677.03
565.74	43943.27
565.94	44291.42
566.14	43580.78
566.34	44074.34
566.54	44107.10
566.74	43992.42
566.94	43851.11
567.14	44381.53
567.34	44213.60
567.54	44559.70
567.74	43842.92
567.94	43955.55
568.14	44348.76
568.34	44461.40
568.54	44340.57
568.74	44479.83
568.94	44514.65
569.14	44598.62
569.34	44438.87
569.54	44184.93
569.75	44432.73
569.95	44270.94
570.15	45174.09
570.35	44510.55
570.55	44631.38
570.75	44877.14
570.95	44748.12
571.15	44918.10
571.35	44875.09
571.55	45200.72
571.75	44995.92
571.95	44768.60
572.15	44848.47
572.35	45147.47
572.55	45079.89
572.75	45342.03
572.95	45323.60
573.15	45327.69
573.35	45505.87
573.55	45323.60
573.75	45186.38
573.95	45374.80
574.15	44961.11
574.35	45714.76
574.55	45350.22
574.75	45303.12
574.95	45538.63
575.15	45653.32
575.34	45917.51
575.54	46083.39
575.74	45987.14
575.94	46103.87
576.14	45651.27
576.34	45948.23
576.54	46298.43
576.74	46464.32
576.94	46077.25
577.14	46316.86
577.34	46601.53
577.54	46105.92
577.74	46323.01
577.94	46232.89
578.14	46486.84
578.34	46480.70
578.54	45692.23
578.74	46343.48
578.94	46722.36
579.14	46482.75
579.34	46628.15
579.54	46683.45
579.74	47150.38
579.94	46873.91
580.13	47330.61
580.33	46845.24
580.53	46812.47
580.73	46900.53
580.93	47310.13
581.13	47375.66
581.33	47400.24
581.53	47301.93
581.73	47287.60
581.93	47543.59
582.13	47623.47
582.33	47992.10
582.53	47437.10
582.73	47557.93
582.92	47957.28
583.12	47848.74
583.32	47803.69
583.52	47725.86
583.72	48200.99
583.92	47848.74
584.12	48307.49
584.32	48182.56
584.52	48192.80
584.72	48358.69
584.92	48252.19
585.11	49046.80
585.31	48387.36
585.51	48129.31
585.71	48348.45
585.91	48723.22
586.11	48717.08
586.31	48471.32
586.51	48330.01
586.71	48760.09
586.91	48860.44
587.10	48809.24
587.30	49089.81
587.50	49009.94
587.70	48758.04
587.90	48866.58
588.10	49374.48
588.30	48913.69
588.50	48977.17
588.69	49407.25
588.89	49386.77
589.09	49419.53
589.29	49241.36
589.49	49267.98
589.69	49444.11
589.89	49888.52
590.08	49538.32
590.28	49650.95
590.48	49253.65
590.68	49538.32
590.88	49374.48
591.08	49517.84
591.28	49304.85
591.47	49894.66
591.67	49845.51
591.87	49607.95
592.07	49941.77
592.27	49665.29
592.47	49911.05
592.67	49911.05
592.86	49726.73
593.06	50185.47
593.26	50488.57
593.46	50429.18
593.66	50347.26
593.86	50474.24
594.05	50539.77
594.25	50574.59
594.45	49935.62
594.65	50275.58
594.85	50238.72
595.05	50869.50
595.24	50892.02
595.44	50468.09
595.64	50398.46
595.84	50431.23
596.04	50869.50
596.23	50595.07
596.43	51221.75
596.63	50537.72
596.83	51301.62
597.03	50980.09
597.22	51182.84
597.42	51295.47
597.62	51281.14
597.82	51274.99
598.02	51518.70
598.21	51293.43
598.41	51170.55
598.61	51205.36
598.81	51594.48
599.01	51518.70
599.20	51938.54
599.40	51481.84
599.60	51709.16
599.80	51893.48
600.00	52069.61
600.19	52290.79
600.39	51746.03
600.59	52104.42
600.79	52231.40
600.98	51801.32
601.18	52331.75
601.38	52370.66
601.58	52298.98
601.78	52364.51
601.97	52018.41
602.17	52591.84
602.37	52341.99
602.57	52382.94
602.76	52618.46
602.96	52540.64
603.16	52923.61
603.36	52708.57
603.55	53054.68
603.75	52872.41
603.95	52821.21
604.15	53015.77
604.34	52602.08
604.54	52958.42
604.74	53148.88
604.94	53017.82
605.13	52552.93
605.33	53413.07
605.53	53112.02
605.73	53351.63
605.92	53247.19
606.12	53490.90
606.32	53703.88
606.52	53505.23
606.71	53220.56
606.91	53585.10
607.11	53544.14
607.30	53775.56
607.50	53626.06
607.70	53767.37
607.90	53882.06
608.09	53699.79
608.29	54213.83
608.49	54193.35
608.68	53941.45
608.88	53902.54
609.08	53918.92
609.28	54119.62
609.47	53861.58
609.67	54232.26
609.87	54355.14
610.06	54299.84
610.26	54283.46
610.46	54371.52
610.66	54637.76
610.85	54445.25
611.05	54099.14
611.25	54576.32
611.44	54041.80
611.64	54367.43
611.84	54445.25
612.03	53986.50
612.23	55053.50
612.43	54994.10
612.62	54367.43
612.82	54598.85
613.02	54594.75
613.21	54588.61
613.41	54488.26
613.61	54875.32
613.80	54383.81
614.00	54828.22
614.20	54678.72
614.39	54639.81
614.59	54607.04
614.79	54875.32
614.98	54539.46
615.18	54916.28
615.38	55133.37
615.57	54500.54
615.77	54879.42
615.97	55016.63
616.16	54504.64
616.36	54834.36
616.56	54975.67
616.75	54844.60
616.95	54809.79
617.15	54873.27
617.34	54576.32
617.54	54809.79
617.74	55096.50
617.93	54852.80
618.13	54328.52
618.32	54746.30
618.52	54678.72
618.72	54854.84
618.91	54654.14
619.11	54740.16
619.31	54607.04
619.50	54768.83
619.70	54351.04
619.90	54301.89
620.09	55051.45
620.29	54480.06
620.48	55155.89
620.68	54981.82
620.88	54604.99
621.07	54752.44
621.27	55030.97
621.46	54918.33
621.66	55057.59
621.86	54844.60
622.05	54680.77
622.25	55313.59
622.44	54830.27
622.64	54906.04
622.84	55184.57
623.03	54889.66
623.23	54899.90
623.42	54815.93
623.62	55196.85
623.82	54846.65
624.01	54396.10
624.21	54969.53
624.40	55241.91
624.60	54224.07
624.80	54564.03
624.99	55016.63
625.19	54127.81
625.38	55080.12
625.58	55114.94
625.77	54473.92
625.97	54539.46
626.17	54809.79
626.36	54807.74
626.56	54899.90
626.75	54093.00
626.95	55461.04
627.14	55041.21
627.34	55415.99
627.54	54598.85
627.73	54959.29
627.93	55033.02
628.12	54658.24
628.32	54666.43
628.51	55061.69
628.71	54887.61
628.90	54781.12
629.10	54707.39
629.30	55502.00
629.49	54615.23
629.69	54906.04
629.88	54686.91
630.08	54895.80
630.27	54752.44
630.47	54539.46
630.66	54426.82
630.86	55008.44
631.05	54531.26
631.25	55262.39
631.44	55182.52
631.64	55184.57
631.84	55289.01
632.03	55350.45
632.23	54803.64
632.42	55563.44
632.62	55338.16
632.81	55114.94
633.01	55135.41
633.20	55131.32
633.40	55080.12
633.59	54996.15
633.79	54592.70
633.98	54502.59
634.18	55033.02
634.37	54869.18
634.57	55207.09
634.76	55350.45
634.96	55620.78
635.15	55145.65
635.35	55108.79
635.54	55192.76
635.74	55217.33
635.93	54879.42
636.13	55332.02
636.32	55837.87
636.52	54977.72
636.71	55192.76
636.91	55123.13
637.10	55155.89
637.30	55067.83
637.49	55090.36
637.69	55383.22
637.88	55342.26
638.08	54920.38
638.27	55350.45
638.46	55014.58
638.66	54883.51
638.85	55004.34
639.05	55458.99
639.24	55577.78
639.44	55428.27
639.63	55454.90
639.83	55661.74
640.02	55538.86
640.22	55428.27
640.41	55379.12
640.61	55213.24
640.80	55692.46
640.99	55657.65
641.19	55690.41
641.38	55370.93
641.58	55659.69
641.77	55356.60
641.97	55221.43
642.16	55958.70
642.36	55891.12
642.55	56059.05
642.74	55592.11
642.94	56310.95
643.13	55403.70
643.33	55942.31
643.52	55710.89
643.72	55993.51
643.91	55563.44
644.10	55588.02
644.30	55620.78
644.49	55817.39
644.69	55995.56
644.88	55698.61
645.08	55481.52
645.27	55739.57
645.46	55473.33
645.66	56091.82
645.85	56044.71
646.05	55811.24
646.24	56077.48
646.43	56169.64
646.63	56032.42
646.82	55968.94
647.02	56413.35
647.21	56392.87
647.40	55973.03
647.60	55674.03
647.79	56106.15
647.99	56378.53
648.18	56065.19
648.37	56652.96
648.57	56464.55
648.76	56370.34
648.96	55792.81
649.15	56165.54
649.34	56501.41
649.54	56722.59
649.73	56034.47
649.92	56382.63
650.12	56702.11
650.31	56634.53
650.51	56829.08
650.70	56472.74
650.89	56153.26
651.09	57105.56
651.28	56765.60
651.47	56587.42
651.67	56337.57
651.86	56747.17
652.06	56083.62
652.25	56272.04
652.44	56390.82
652.64	56315.04
652.83	56636.58
653.02	56681.63
653.22	56835.23
653.41	56261.80
653.60	56534.18
653.80	56423.59
653.99	56786.08
654.18	56616.10
654.38	56435.87
654.57	56712.35
654.76	56808.61
654.96	56282.28
655.15	56454.31
655.34	56417.44
655.54	55964.84
655.73	56513.70
655.92	56399.01
656.12	56384.68
656.31	56612.00
656.50	56675.49
656.70	56868.00
656.89	56679.58
657.08	56902.81
657.28	56853.66
657.47	56759.45
657.66	57281.69
657.86	56841.37
658.05	56876.19
658.24	56779.93
658.43	56399.01
658.63	56974.49
658.82	56779.93
659.01	56831.13
659.21	56759.45
659.40	56769.69
659.59	56513.70
659.79	57300.12
659.98	56951.96
660.17	57033.88
660.36	56646.82
660.56	56951.96
660.75	57152.66
660.94	57461.91
661.14	56665.25
661.33	56749.21
661.52	56403.11
661.71	57132.18
661.91	56349.86
662.10	56786.08
662.29	56990.87
662.49	56773.79
662.68	57001.11
662.87	57244.82
663.06	56812.70
663.26	57066.65
663.45	57234.58
663.64	57072.79
663.83	57552.02
664.03	57285.78
664.22	56935.58
664.41	56968.35
664.60	57107.61
664.80	56954.01
664.99	56747.17
665.18	56931.48
665.37	56927.39
665.57	57336.98
665.76	57054.36
665.95	57167.00
666.14	57158.81
666.34	56898.72
666.53	57058.46
666.72	56751.26
666.91	56820.89
667.11	57074.84
667.30	57285.78
667.49	57019.55
667.68	56753.31
667.87	56728.73
668.07	56947.87
668.26	57128.09
668.45	56968.35
668.64	57246.87
668.84	57390.23
669.03	57390.23
669.22	56896.67
669.41	57064.60
669.60	57341.08
669.80	56581.28
669.99	57242.77
670.18	57066.65
670.37	57281.69
670.57	57021.59
670.76	57332.89
670.95	56853.66
671.14	57291.93
671.33	56956.06
671.53	57627.79
671.72	57320.60
671.91	56636.58
672.10	56804.51
672.29	56833.18
672.48	56620.19
672.68	57070.75
672.87	56847.52
673.06	56747.17
673.25	57140.38
673.44	56759.45
673.64	57201.82
673.83	56712.35
674.02	57156.76
674.21	56673.44
674.40	57035.93
674.59	56964.25
674.79	56706.21
674.98	56646.82
675.17	56583.33
675.36	56644.77
675.55	56640.67
675.74	56229.03
675.94	56810.65
676.13	56763.55
676.32	56992.92
676.51	57377.94
676.70	56831.13
676.89	56796.32
677.08	56824.99
677.28	56591.52
677.47	56757.41
677.66	56577.18
677.85	56900.76
678.04	57052.31
678.23	57119.90
678.42	57052.31
678.62	56972.44
678.81	56890.52
679.00	56456.35
679.19	57414.80
679.38	56820.89
679.57	56818.84
679.76	56464.55
679.96	56939.68
680.15	56747.17
680.34	56749.21
680.53	56427.68
680.72	57210.01
680.91	57154.71
681.10	56464.55
681.29	56923.29
681.48	56487.07
681.68	56896.67
681.87	56120.49
682.06	56401.06
682.25	56034.47
682.44	56413.35
682.63	56587.42
682.82	55891.12
683.01	56284.33
683.20	56071.34
683.39	56343.72
683.59	56214.69
683.78	56204.45
683.97	56333.48
684.16	56030.38
684.35	56401.06
684.54	56212.65
684.73	56034.47
684.92	56218.79
685.11	56188.07
685.30	56054.95
685.49	56667.30
685.69	56280.23
685.88	56233.13
686.07	56267.94
686.26	56128.68
686.45	56204.45
686.64	56112.30
686.83	55731.37
687.02	55989.42
687.21	56640.67
687.40	56214.69
687.59	56007.85
687.78	56071.34
687.97	55923.88
688.16	56282.28
688.35	55837.87
688.54	55354.55
688.74	55891.12
688.93	55768.24
689.12	55399.60
689.31	56112.30
689.50	55409.84
689.69	55588.02
689.88	55321.78
690.07	55440.56
690.26	55471.28
690.45	56095.91
690.64	55583.92
690.83	55551.15
691.02	54828.22
691.21	55686.32
691.40	55317.68
691.59	55555.25
691.78	55260.34
691.97	55796.91
692.16	55719.09
692.35	55620.78
692.54	55962.79
692.73	55790.76
692.92	55403.70
693.11	54955.19
693.30	55366.84
693.49	55194.81
693.68	55123.13
693.87	55303.35
694.06	55096.50
694.25	55354.55
694.44	54627.52
694.63	55223.48
694.82	55110.84
695.01	55354.55
695.20	55110.84
695.39	55217.33
695.58	55000.25
695.77	54846.65
695.96	54662.33
696.15	54918.33
696.34	55086.26
696.53	54947.00
696.72	54678.72
696.91	54918.33
697.10	54936.76
697.29	54627.52
697.48	55301.30
697.67	54879.42
697.86	54359.23
698.05	54502.59
698.24	55178.42
698.43	54183.11
698.62	54527.17
698.81	54281.41
699.00	55065.78
699.19	54488.26
699.38	54981.82
699.57	54478.02
699.76	55061.69
699.95	54705.34
700.14	54443.20
700.32	54346.95
700.51	54543.55
700.70	54967.48
700.89	54957.24
701.08	55033.02
701.27	54166.73
701.46	54658.24
701.65	54052.04
701.84	53761.23
702.03	54611.13
702.22	54351.04
702.41	54129.86
702.60	54121.67
702.79	54244.55
702.98	53679.31
703.17	54097.09
703.35	53748.94
703.54	53748.94
703.73	53849.29
703.92	53630.16
704.11	53421.26
704.30	53638.35
704.49	53574.86
704.68	53720.27
704.87	53834.95
705.06	53490.90
705.25	53548.24
705.43	53544.14
705.62	53658.83
705.81	53789.90
706.00	53724.36
706.19	53462.22
706.38	52999.38
706.57	53253.33
706.76	53421.26
706.95	53388.50
707.14	53236.95
707.32	53028.05
707.51	53040.34
707.70	53476.56
707.89	53097.69
708.08	53232.85
708.27	53152.98
708.46	53609.68
708.65	52870.36
708.84	53404.88
709.02	53558.48
709.21	53210.32
709.40	53384.40
709.59	53486.80
709.78	52294.88
709.97	52933.85
710.16	52741.34
710.34	52954.33
710.53	52892.89
710.72	52747.48
710.91	53075.16
711.10	52886.74
711.29	52735.20
711.48	52753.63
711.66	52870.36
711.85	52659.42
712.04	52411.62
712.23	52368.61
712.42	52503.77
712.61	52348.13
712.80	52280.55
712.98	52810.97
713.17	52262.11
713.36	52772.06
713.55	51977.45
713.74	52450.53
713.93	52137.19
714.11	52614.37
714.30	52012.26
714.49	52098.28
714.68	52327.65
714.87	52208.87
715.06	52481.25
715.24	51891.43
715.43	51889.38
715.62	51166.45
715.81	51832.04
716.00	52258.02
716.18	51492.08
716.37	51637.48
716.56	51420.40
716.75	52208.87
716.94	51467.50
717.12	51545.33
717.31	51643.63
717.50	51475.69
717.69	51784.94
717.88	51508.46
718.06	51674.35
718.25	51672.30
718.44	51279.09
718.63	51094.77
718.82	51404.02
719.00	51066.10
719.19	51385.58
719.38	51250.42
719.57	51201.27
719.76	50797.82
719.94	50291.97
720.13	50644.22
720.32	50603.26
720.51	50447.61
720.69	50607.36
720.88	50978.04
721.07	50894.07
721.26	50257.15
721.44	50871.54
721.63	50095.36
721.82	50552.06
722.01	50152.71
722.20	50431.23
722.38	50267.39
722.57	49575.18
722.76	49974.53
722.95	50328.83
723.13	49493.26
723.32	50189.57
723.51	50001.16
723.70	49841.42
723.88	50275.58
724.07	49749.26
724.26	49935.62
724.44	49059.09
724.63	49734.92
724.82	49538.32
725.01	49356.05
725.19	49358.09
725.38	49267.98
725.57	49970.44
725.76	49390.86
725.94	48979.22
726.13	49388.81
726.32	48962.84
726.51	48956.69
726.69	49464.59
726.88	49306.90
727.07	49431.82
727.25	48928.02
727.44	49298.70
727.63	48823.58
727.82	49030.42
728.00	48794.90
728.19	48977.17
728.38	48874.77
728.56	48774.42
728.75	49034.52
728.94	48745.75
729.12	49104.15
729.31	49040.66
729.50	49253.65
729.69	49169.68
729.87	49128.72
730.06	49118.48
730.25	48946.45
730.43	48911.64
730.62	48741.66
730.81	48776.47
730.99	49102.10
731.18	48608.54
731.37	49249.55
731.55	49100.05
731.74	49327.38
731.93	49161.49
732.11	49007.89
732.30	48856.34
732.49	48700.70
732.67	48690.46
732.86	48698.65
733.05	49014.04
733.23	48362.78
733.42	48952.60
733.61	48655.64
733.79	49145.11
733.98	48915.73
734.17	48385.31
734.35	48508.19
734.54	48811.29
734.73	48485.66
734.91	48071.97
735.10	48397.60
735.29	48917.78
735.47	48092.45
735.66	48856.34
735.84	48651.55
736.03	48205.09
736.22	48551.20
736.40	48045.35
736.59	48448.80
736.78	48180.51
736.96	48299.30
737.15	48442.65
737.33	48217.38
737.52	48033.06
737.71	47762.73
737.89	48168.22
738.08	48039.20
738.27	47846.69
738.45	48368.93
738.64	47602.99
738.82	48227.62
739.01	47848.74
739.20	48268.58
739.38	47813.93
739.57	48350.49
739.75	48084.26
739.94	48028.96
740.13	47979.81
740.31	47842.60
740.50	47613.23
740.68	47711.53
740.87	47533.35
741.06	48174.37
741.24	47645.99
741.43	47342.89
741.61	47586.60
741.80	47199.54
741.99	47617.32
742.17	47441.20
742.36	47805.73
742.54	47078.71
742.73	47424.81
742.91	47562.03
743.10	47158.58
743.29	47777.06
743.47	47596.84
743.66	47473.96
743.84	47555.88
744.03	47441.20
744.21	47328.56
744.40	47734.06
744.59	47142.19
744.77	46748.98
744.96	47086.90
745.14	47373.61
745.33	47215.92
745.51	47013.17
745.70	47467.82
745.88	47183.15
746.07	47297.84
746.26	46822.71
746.44	46480.70
746.63	46898.48
746.81	47371.57
747.00	46935.35
747.18	47062.32
747.37	47357.23
747.55	46957.88
747.74	46953.78
747.92	46712.12
748.11	46921.01
748.29	46583.10
748.48	47068.47
748.66	46533.95
748.85	46384.44
749.03	46685.50
749.22	46619.96
749.41	46232.89
749.59	46449.98
749.78	46282.05
749.96	45956.42
750.15	46398.78
750.33	46513.47
750.52	45980.99
750.70	46030.15
750.89	46214.46
751.07	45892.93
751.26	45997.38
751.44	46110.02
751.63	46017.86
751.81	45612.36
752.00	45931.84
752.18	46028.10
752.37	46050.63
752.55	45638.98
752.74	45671.75
752.92	45638.98
753.10	45770.05
753.29	45708.61
753.47	45239.63
753.66	45266.25
753.84	45806.92
754.03	45694.28
754.21	45337.93
754.40	45745.48
754.58	45360.46
754.77	45299.02
754.95	45200.72
755.14	45301.07
755.32	45180.24
755.51	45178.19
755.69	44983.63
755.88	45270.35
756.06	45170.00
756.24	45102.42
756.43	44911.95
756.61	44758.36
756.80	45026.64
756.98	44883.28
757.17	44723.54
757.35	44627.29
757.54	44494.17
757.72	44844.37
757.90	44598.62
758.09	44825.94
758.27	44426.59
758.46	44555.61
758.64	44561.75
758.83	45145.42
759.01	44557.66
759.19	44483.93
759.38	44469.59
759.56	45067.60
759.75	44664.15
759.93	44299.61
760.12	44193.12
760.30	44295.52
760.48	44533.08
760.67	44150.11
760.85	44275.04
761.04	44291.42
761.22	44299.61
761.40	44086.62
761.59	44133.73
761.77	43795.81
761.96	44094.82
762.14	43883.87
762.32	43945.31
762.51	43619.69
762.69	43785.57
762.88	43746.66
763.06	43871.59
763.24	43722.08
763.43	44078.43
763.61	43570.54
763.80	43806.05
763.98	43806.05
764.16	43799.91
764.35	43564.39
764.53	43140.46
764.72	43509.10
764.90	43351.40
765.08	43394.41
765.27	43398.51
765.45	43130.22
765.63	43154.80
765.82	43261.29
766.00	42843.51
766.18	42706.29
766.37	43586.92
766.55	42847.60
766.74	42990.96
766.92	42726.77
767.10	42933.62
767.29	42743.16
767.47	42524.02
767.65	42728.82
767.84	42456.44
768.02	42890.61
768.20	42458.49
768.39	42548.60
768.57	42456.44
768.75	42442.10
768.94	41997.70
769.12	43079.02
769.30	42128.77
769.49	42212.73
769.67	41627.01
769.85	41825.67
770.04	42188.16
770.22	41690.50
770.40	42040.70
770.59	41829.76
770.77	41698.69
770.95	42122.62
771.14	41467.27
771.32	41602.44
771.50	41420.17
771.69	41487.75
771.87	41842.05
772.05	41577.86
772.24	40893.84
772.42	41221.52
772.60	40983.95
772.78	41098.64
772.97	40899.98
773.15	41274.76
773.33	41375.11
773.52	41192.84
773.70	41330.06
773.88	41551.24
774.07	41051.53
774.25	40904.08
774.43	41725.32
774.61	41174.41
774.80	41457.03
774.98	40959.38
775.16	41272.71
775.34	41194.89
775.53	41176.46
775.71	41639.30
775.89	41483.66
776.08	41416.07
776.26	41297.29
776.44	41432.46
776.62	41432.46
776.81	41354.63
776.99	41661.83
777.17	41315.72
777.35	41555.33
777.54	42087.81
777.72	40951.18
777.90	41610.63
778.08	41747.84
778.27	41602.44
778.45	41776.51
778.63	42118.53
778.81	41336.20
779.00	41991.55
779.18	41596.29
779.36	42059.13
779.54	41706.88
779.73	41801.09
779.91	42030.46
780.09	41796.99
780.27	42093.95
780.46	41831.81
780.64	41852.29
780.82	41659.78
781.00	41850.24
781.19	41678.21
781.37	42194.30
781.55	41831.81
781.73	42427.77
781.91	42038.65
782.10	42276.22
782.28	41641.35
782.46	42196.35
782.64	42272.12
782.82	42251.64
783.01	42528.12
783.19	42233.21
783.37	42263.93
783.55	42071.42
783.74	42499.45
783.92	41796.99
784.10	42497.40
784.28	42657.14
784.46	41960.83
784.64	42022.27
784.83	42145.15
785.01	42433.91
785.19	42255.74
785.37	42286.46
785.55	42182.01
785.74	41772.42
785.92	41721.22
786.10	42188.16
786.28	42018.17
786.46	42132.86
786.64	41747.84
786.83	42114.43
787.01	41862.53
787.19	41891.20
787.37	41899.39
787.55	42044.80
787.74	41624.96
787.92	41975.17
788.10	41397.64
788.28	41598.34
788.46	41633.16
788.64	41825.67
788.82	41987.46
789.01	41743.75
789.19	41741.70
789.37	41311.63
789.55	41719.17
789.73	41268.62
789.91	41135.50
790.09	41108.88
790.28	40955.28
790.46	40859.02
790.64	41274.76
790.82	41166.22
791.00	40762.77
791.18	40582.55
791.36	40687.00
791.55	40674.71
791.73	40465.81
791.91	40433.05
792.09	40285.59
792.27	40283.55
792.45	40433.05
792.63	40209.82
792.81	40009.12
793.00	40093.08
793.18	39685.54
793.36	39679.39
793.54	39957.92
793.72	39841.18
793.90	39781.79
794.08	39865.76
794.26	39691.68
794.44	39318.95
794.62	38886.83
794.81	39394.73
794.99	38987.18
795.17	39208.36
795.35	39417.25
795.53	39022.00
795.71	39361.96
795.89	38634.93
796.07	38434.23
796.25	38671.79
796.43	38307.26
796.61	38456.76
796.80	38186.43
796.98	38231.48
797.16	38147.51
797.34	38415.80
797.52	38163.90
797.70	38294.97
797.88	37928.38
798.06	37854.65
798.24	37754.30
798.42	37854.65
798.60	37590.47
798.78	37774.78
798.96	37561.79
799.14	37154.25
799.32	37369.29
799.51	37098.95
799.69	37512.64
799.87	37187.02
800.05	36963.79
800.23	36726.22
800.41	36615.63
800.59	36951.50
800.77	36853.20
800.95	36029.91
801.13	36820.43
801.31	36648.40
801.49	36468.18
801.67	36732.37
801.85	36281.81
802.03	36296.15
802.21	35825.12
802.39	35823.07
802.57	35896.80
802.75	35782.11
802.93	36013.53
803.11	35802.59
803.29	35603.94
803.47	35667.42
803.65	35272.17
803.83	35571.17
804.01	35747.29
804.19	35087.85
804.37	34924.01
804.55	34934.25
804.73	35286.50
804.91	34708.97
805.09	35100.14
805.27	34661.87
805.45	34983.40
805.63	35243.49
805.81	34870.76
805.99	34592.24
806.17	35065.32
806.35	34567.66
806.53	33996.28
806.71	34076.15
806.89	34340.34
807.07	34463.22
807.25	34579.95
807.43	34242.04
807.61	34465.27
807.79	34407.92
807.97	33404.42
808.15	33523.20
808.33	33449.47
808.51	33340.93
808.69	33668.61
808.87	33166.85
809.05	33166.85
809.23	33457.67
809.41	33064.46
809.59	33078.79
809.77	33490.43
809.95	32882.19
810.13	33433.09
810.31	33166.85
810.49	32761.36
810.67	32818.70
810.84	32960.01
811.02	32841.23
811.20	32445.97
811.38	32468.50
811.56	32269.84
811.74	32577.04
811.92	32611.85
812.10	32396.82
812.28	32814.60
812.46	32022.04
812.64	32501.26
812.82	32278.04
813.00	31919.64
813.18	32118.29
813.36	32179.73
813.53	31561.25
813.71	32226.84
813.89	31872.54
814.07	31649.31
814.25	32032.28
814.43	31727.13
814.61	31622.69
814.79	31454.75
814.97	31704.60
815.15	31421.98
815.33	31503.90
815.50	31249.96
815.68	31426.08
815.86	31129.12
816.04	31428.13
816.22	31016.49
816.40	31114.79
816.58	30850.60
816.76	30983.72
816.94	30905.90
817.11	30957.10
817.29	30674.48
817.47	30832.17
817.65	30320.18
817.83	30905.90
818.01	30443.06
818.19	30242.35
818.37	30676.52
818.54	30152.24
818.72	30103.09
818.90	30484.01
819.08	30232.11
819.26	30082.61
819.44	30199.35
819.62	29947.45
819.80	30168.63
819.97	30080.56
820.15	29691.45
820.33	29611.58
820.51	29873.72
820.69	29326.91
820.87	29890.10
821.05	29929.02
821.22	29550.14
821.40	29595.20
821.58	29109.83
821.76	29380.16
821.94	29193.79
822.12	29451.84
822.29	29486.65
822.47	29058.63
822.65	29308.48
822.83	29683.26
823.01	29105.73
823.19	29171.27
823.36	28790.34
823.54	28849.74
823.72	29152.84
823.90	29173.31
824.08	28810.82
824.25	28687.95
824.43	28618.32
824.61	28603.98
824.79	28796.49
824.97	28759.63
825.15	28915.27
825.32	28733.00
825.50	28700.23
825.68	28630.60
825.86	28675.66
826.04	28603.98
826.21	28446.29
826.39	28151.38
826.57	28173.91
826.75	28436.05
826.93	28001.88
827.10	28214.87
827.28	28122.71
827.46	28085.84
827.64	28190.29
827.81	27997.78
827.99	28128.85
828.17	27909.72
828.35	27764.31
828.53	28239.44
828.70	27580.00
828.88	27799.13
829.06	27651.67
829.24	28008.02
829.41	27649.63
829.59	27960.92
829.77	27885.14
829.95	27666.01
830.12	27584.09
830.30	27684.44
830.48	27590.24
830.66	27311.71
830.84	27403.87
831.01	27242.08
831.19	27039.33
831.37	27342.43
831.55	27137.63
831.72	27405.92
831.90	27139.68
832.08	27289.18
832.25	27051.62
832.43	26969.70
832.61	27065.96
832.79	26891.88
832.96	27029.09
833.14	26818.15
833.32	26957.41
833.50	27053.67
833.67	26769.00
833.85	26836.58
834.03	26457.71
834.20	26836.58
834.38	26584.68
834.56	26830.44
834.74	26492.52
834.91	26619.50
835.09	26422.89
835.27	26302.06
835.44	26144.37
835.62	26123.89
835.80	26273.39
835.98	26271.34
836.15	26310.25
836.33	26285.68
836.51	26472.04
836.68	26017.40
836.86	26136.18
837.04	26207.86
837.21	25890.42
837.39	26300.01
837.57	26433.13
837.75	26214.00
837.92	25738.87
838.10	25800.31
838.28	25609.85
838.45	25669.24
838.63	25785.97
838.81	25687.67
838.98	25464.44
839.16	25659.00
839.34	25333.37
839.51	25394.81
839.69	25360.00
839.87	25443.96
840.04	25341.57
840.22	25482.88
840.40	25411.20
840.57	25132.67
840.75	25804.41
840.93	25015.94
841.10	25282.17
841.28	25736.82
841.46	25069.19
841.63	25392.76
841.81	25194.11
841.98	24995.46
842.16	25261.69
842.34	25161.34
842.51	24815.24
842.69	25331.33
842.87	24925.83
843.04	25077.38
843.22	24569.48
843.40	24774.28
843.57	24960.64
843.75	25065.09
843.92	24821.38
844.10	24522.38
844.28	24737.41
844.45	24743.56
844.63	24780.42
844.81	24393.36
844.98	24700.55
845.16	24772.23
845.33	24731.27
845.51	24268.43
845.69	24528.52
845.86	24311.44
846.04	24682.12
846.21	24309.39
846.39	24391.31
846.57	24309.39
846.74	23991.95
846.92	24016.53
847.09	24327.82
847.27	24223.37
847.45	24264.33
847.62	24518.28
847.80	24206.99
847.97	24209.04
848.15	23994.00
848.32	23856.79
848.50	24069.78
848.68	23791.25
848.85	23877.27
849.03	23678.61
849.20	23948.95
849.38	23486.11
849.56	23907.99
849.73	23469.72
849.91	23606.94
850.08	24092.30
850.26	23525.02
850.43	23721.62
850.61	23432.86
850.78	23266.97
850.96	23447.19
851.14	23246.49
851.31	23498.39
851.49	23314.08
851.66	23406.23
851.84	23226.01
852.01	23451.29
852.19	23318.17
852.36	23473.82
852.54	23277.21
852.71	23418.52
852.89	23158.43
853.07	22982.31
853.24	23195.29
853.42	23107.23
853.59	23125.66
853.77	23127.71
853.94	23293.60
854.12	23260.83
854.29	22474.41
854.47	22924.96
854.64	22937.25
854.82	22941.35
854.99	22884.00
855.17	23006.88
855.34	23142.05
855.52	22994.59
855.69	22744.74
855.87	22742.69
856.04	22847.14
856.22	22673.06
856.39	22357.67
856.57	22496.94
856.74	22580.90
856.92	22568.62
857.09	22419.11
857.27	22597.29
857.44	22286.00
857.62	22359.72
857.79	22396.59
857.97	22535.85
858.14	22329.00
858.32	22199.98
858.49	22027.95
858.67	22343.34
858.84	22191.79
859.02	22441.64
859.19	22089.39
859.37	21925.55
859.54	22027.95
859.72	22222.51
859.89	22015.66
860.06	21997.23
860.24	22073.01
860.41	22066.86
860.59	21900.98
860.76	22134.45
860.94	22101.68
861.11	21872.31
861.29	21671.61
861.46	21980.85
861.64	21673.65
861.81	21771.96
861.98	21372.60
862.16	21593.78
862.33	21538.49
862.51	21528.25
862.68	21737.14
862.86	21393.08
863.03	21374.65
863.21	21292.73
863.38	21524.15
863.55	21339.83
863.73	21690.04
863.90	21239.48
864.08	21165.76
864.25	21089.98
864.43	21180.09
864.60	21374.65
864.77	20952.77
864.95	21235.39
865.12	20987.58
865.30	21059.26
865.47	20741.83
865.64	20645.57
865.82	21061.31
865.99	21083.84
866.17	20952.77
866.34	20952.77
866.51	20489.93
866.69	20913.86
866.86	20713.16
867.04	20838.08
867.21	20672.20
867.38	20739.78
867.56	20412.10
867.73	20592.33
867.91	20453.06
868.08	20604.61
868.25	20158.16
868.43	20389.58
868.60	20340.43
868.78	20502.22
868.95	20334.28
869.12	20365.00
869.30	20258.51
869.47	20453.06
869.64	20170.44
869.82	20063.95
869.99	19850.96
870.16	20225.74
870.34	20307.66
870.51	20356.81
870.69	20088.53
870.86	20338.38
871.03	19885.78
871.21	20000.46
871.38	20229.84
871.55	20025.04
871.73	19793.62
871.90	20068.05
872.07	19572.44
872.25	19666.64
872.42	19498.71
872.59	19564.25
872.77	19775.19
872.94	19320.54
873.11	19427.03
873.29	19605.20
873.46	19554.01
873.63	19392.22
873.81	19486.42
873.98	19095.26
874.15	19427.03
874.33	19304.15
874.50	19105.50
874.67	19130.08
874.85	19097.31
875.02	19232.47
875.19	18925.28
875.37	18974.43
875.54	18931.42
875.71	18990.81
875.88	18661.09
876.06	18884.32
876.23	18847.46
876.40	18740.96
876.58	18800.35
876.75	18753.25
876.92	18620.13
877.10	18661.09
877.27	18691.81
877.44	18665.19
877.61	18505.45
877.79	18642.66
877.96	18460.39
878.13	18605.80
878.31	18388.71
878.48	18312.94
878.65	18257.64
878.82	17985.26
879.00	18085.61
879.17	18247.40
879.34	18132.72
879.51	18140.91
879.69	18157.29
879.86	18231.02
880.03	17958.64
880.21	18046.70
880.38	17905.39
880.55	18009.84
880.72	18048.75
880.90	17647.35
881.07	17712.88
881.24	17766.13
881.41	17696.50
881.59	17696.50
881.76	17696.50
881.93	17563.38
882.10	17823.47
882.28	17358.58
882.45	17608.44
882.62	17430.26
882.79	17698.55
882.96	17170.17
883.14	17772.27
883.31	17444.60
883.48	17501.94
883.65	17503.99
883.83	17579.76
884.00	17497.84
884.17	17415.93
884.34	17270.52
884.51	17436.41
884.69	17362.68
884.86	17198.84
885.03	17127.16
885.20	17184.51
885.38	17291.00
885.55	16983.80
885.72	17223.42
885.89	17155.83
886.06	17121.02
886.24	17254.14
886.41	16887.55
886.58	17303.29
886.75	17356.54
886.92	16858.88
887.10	16891.65
887.27	17082.11
887.44	16731.90
887.61	17159.93
887.78	17166.07
887.95	17086.20
888.13	16959.23
888.30	16754.43
888.47	16830.21
888.64	16836.35
888.81	16793.34
888.99	16717.57
889.16	16707.33
889.33	16641.79
889.50	16533.25
889.67	16553.73
889.84	16318.22
890.01	16428.81
890.19	16641.79
890.36	16369.41
890.53	16516.87
890.70	16445.19
890.87	16283.40
891.04	16340.74
891.22	16166.67
891.39	16236.30
891.56	16264.97
891.73	16064.27
891.90	16078.60
892.07	15984.40
892.24	16129.80
892.42	16039.69
892.59	16097.03
892.76	16027.40
892.93	15902.48
893.10	16101.13
893.27	15724.30
893.44	15826.70
893.61	15814.41
893.79	16178.95
893.96	15968.01
894.13	16187.14
894.30	16051.98
894.47	15912.72
894.64	15884.05
894.81	15828.75
894.98	15716.11
895.15	16068.36
895.33	15626.00
895.50	15810.32
895.67	15855.37
895.84	15861.52
896.01	15802.13
896.18	15587.09
896.35	15949.58
896.52	15456.02
896.69	15669.01
896.86	15677.20
897.04	15576.85
897.21	15783.70
897.38	15685.39
897.55	15734.54
897.72	15781.65
897.89	15695.63
898.06	15623.95
898.23	15701.78
898.40	15499.03
898.57	15720.21
898.74	15650.58
898.91	15748.88
899.08	15843.09
899.26	15626.00
899.43	15466.26
899.60	15527.70
899.77	15806.22
899.94	15550.23
900.11	15296.28
900.28	15585.04
900.45	15460.12
900.62	15425.30
900.79	15716.11
900.96	15562.51
901.13	15699.73
901.30	15587.09
901.47	15527.70
901.64	15433.49
901.81	15523.60
901.98	15630.10
902.15	15632.15
902.32	15308.57
902.49	15572.75
902.66	15404.82
902.83	15658.77
903.01	15365.91
903.18	15746.83
903.35	15601.43
903.52	15603.47
903.69	15681.30
903.86	15419.16
904.03	15476.50
904.20	15533.84
904.37	15718.16
904.54	15421.20
904.71	15568.66
904.88	15388.44
905.05	15257.37
905.22	15476.50
905.39	15382.29
905.56	15511.32
905.73	15513.36
905.90	15445.78
906.07	15552.27
906.24	15468.31
906.41	15185.69
906.58	15535.89
906.75	15521.56
906.92	15181.59
907.09	15331.09
907.26	15474.45
907.43	15286.04
907.60	15460.12
907.77	15572.75
907.93	15408.92
908.10	15468.31
908.27	15503.12
908.44	15329.05
908.61	15288.09
908.78	15413.01
908.95	15511.32
909.12	15206.17
909.29	15460.12
909.46	15515.41
909.63	15513.36
909.80	15120.15
909.97	15353.62
910.14	15273.75
910.31	15306.52
910.48	15355.67
910.65	15226.65
910.82	15220.50
910.99	15011.61
911.16	15103.77
911.33	15255.32
911.50	15015.71
911.66	15208.22
911.83	15062.81
912.00	14819.10
912.17	15103.77
912.34	15150.87
912.51	14778.14
912.68	14929.69
912.85	14913.31
913.02	14841.63
913.19	14817.05
913.36	14860.06
913.53	14958.36
913.70	14911.26
913.86	14749.47
914.03	14728.99
914.20	14855.97
914.37	14599.97
914.54	14579.49
914.71	14880.54
914.88	14630.69
915.05	14475.04
915.22	14552.87
915.39	14602.02
915.55	14513.95
915.72	14604.07
915.89	14343.97
916.06	14092.07
916.23	14395.17
916.40	14305.06
916.57	14305.06
916.74	14210.86
916.91	14270.25
917.07	13846.32
917.24	14143.27
917.41	13989.67
917.58	13928.24
917.75	13905.71
917.92	13819.69
918.09	13870.89
918.26	13967.15
918.42	13741.87
918.59	13887.28
918.76	13735.73
918.93	13659.95
919.10	13485.87
919.27	13774.64
919.44	13741.87
919.60	13637.42
919.77	13567.79
919.94	13309.75
920.11	13668.14
920.28	13578.03
920.45	13131.58
920.61	13260.60
920.78	13469.49
920.95	13535.03
921.12	13150.01
921.29	13180.73
921.46	13199.16
921.62	13152.06
921.79	13147.96
921.96	12906.30
922.13	13008.70
922.30	12871.48
922.47	12863.29
922.63	12814.14
922.80	12920.63
922.97	12527.42
923.14	12539.71
923.31	12605.25
923.47	12494.66
923.64	12789.56
923.81	12543.81
923.98	12496.71
924.15	12441.41
924.32	12521.28
924.48	12142.41
924.65	12316.48
924.82	12248.90
924.99	12293.96
925.15	11986.76
925.32	12183.37
925.49	12052.30
925.66	12150.60
925.83	12060.49
925.99	12085.06
926.16	11958.09
926.33	11632.46
926.50	11562.83
926.67	11747.15
926.83	11769.68
927.00	11673.42
927.17	11556.69
927.34	11603.79
927.50	11454.29
927.67	11607.89
927.84	11505.49
928.01	11235.16
928.17	11278.16
928.34	11243.35
928.51	11157.33
928.68	11216.72
928.84	11298.64
929.01	10983.26
929.18	10882.91
929.35	11044.70
929.51	11102.04
929.68	10870.62
929.85	10755.93
930.02	10663.77
930.18	10764.12
930.35	10749.79
930.52	10624.86
930.69	10846.04
930.85	10784.60
931.02	10491.74
931.19	10618.72
931.36	10428.26
931.52	10532.70
931.69	10319.71
931.86	10399.59
932.02	10329.95
932.19	10360.67
932.36	10364.77
932.53	10145.64
932.69	10098.53
932.86	10172.26
933.03	10073.96
933.19	9721.71
933.36	9969.51
933.53	9938.79
933.70	9774.95
933.86	9867.11
934.03	9731.95
934.20	9643.88
934.36	9695.08
934.53	9502.58
934.70	9246.58
934.86	9498.48
935.03	9273.20
935.20	9328.50
935.36	9396.08
935.53	9164.66
935.70	8937.34
935.86	9025.40
936.03	8843.13
936.20	8769.40
936.36	8695.68
936.53	8660.86
936.70	8771.45
936.86	8961.91
937.03	8390.53
937.20	8390.53
937.36	8497.02
937.53	8085.38
937.70	8200.07
937.86	8124.29
938.03	8060.80
938.20	8107.91
938.36	7878.54
938.53	7946.12
938.70	7563.15
938.86	7675.79
939.03	7505.81
939.20	7464.85
939.36	7348.11
939.53	7288.72
939.70	7389.07
939.86	7110.55
940.03	7096.21
940.19	6915.99
940.36	6920.09
940.53	6948.76
940.69	6852.50
940.86	6750.10
941.03	6725.53
941.19	6569.88
941.36	6602.65
941.52	6549.40
941.69	6424.48
941.86	6438.81
942.02	6369.18
942.19	6197.15
942.35	6248.35
942.52	6102.95
942.69	6102.95
942.85	5988.26
943.02	6072.23
943.18	5924.77
943.35	5775.27
943.52	5769.13
943.68	5822.38
943.85	5744.55
944.01	5826.47
944.18	5607.34
944.35	5812.14
944.51	5699.50
944.68	5545.90
944.84	5603.24
945.01	5535.66
945.17	5609.39
945.34	5504.94
945.51	5527.47
945.67	5472.17
945.84	5517.23
946.00	5361.58
946.17	5525.42
946.33	5347.25
946.50	5439.40
946.67	5296.05
946.83	5328.81
947.00	5445.55
947.16	5425.07
947.33	5435.31
947.49	5367.73
947.66	5296.05
947.82	5339.05
947.99	5423.02
948.16	5289.90
948.32	5275.57
948.49	5334.96
948.65	5294.00
948.82	5384.11
948.98	5474.22
949.15	5382.06
949.31	5349.29
949.48	5171.12
949.64	5412.78
949.81	5296.05
949.97	5476.27
950.14	5355.44
950.30	5472.17
950.47	5463.98
950.63	5242.80
950.80	5455.79
950.96	5322.67
951.13	5451.69
951.30	5355.44
951.46	5347.25
951.63	5461.93
951.79	5423.02
951.96	5439.40
952.12	5420.97
952.29	5375.92
952.45	5357.49
952.62	5455.79
952.78	5590.95
952.94	5509.04
953.11	5355.44
953.27	5318.57
953.44	5636.01
953.60	5371.82
953.77	5502.89
953.93	5412.78
954.10	5445.55
954.26	5588.91
954.43	5558.19
954.59	5537.71
954.76	5631.91
954.92	5590.95
955.09	5496.75
955.25	5463.98
955.42	5517.23
955.58	5670.83
955.75	5683.11
955.91	5488.56
956.07	5631.91
956.24	5445.55
956.40	5572.52
956.57	5552.04
956.73	5541.80
956.90	5572.52
957.06	5388.21
957.23	5509.04
957.39	5513.13
957.56	5609.39
957.72	5392.30
957.88	5515.18
958.05	5742.50
958.21	5730.22
958.38	5654.44
958.54	5459.88
958.71	5670.83
958.87	5558.19
959.03	5484.46
959.20	5660.59
959.36	5480.36
959.53	5466.03
959.69	5439.40
959.85	5550.00
960.02	5498.80
960.18	5619.63
960.35	5523.37
960.51	5593.00
960.68	5486.51
960.84	5506.99
961.00	5468.08
961.17	5486.51
961.33	5650.35
961.50	5547.95
961.66	5502.89
961.82	5476.27
961.99	5451.69
962.15	5423.02
962.31	5574.57
962.48	5390.25
962.64	5597.10
962.81	5443.50
962.97	5615.53
963.13	5586.86
963.30	5601.19
963.46	5404.59
963.62	5459.88
963.79	5447.60
963.95	5455.79
964.12	5498.80
964.28	5334.96
964.44	5308.34
964.61	5429.17
964.77	5500.84
964.93	5597.10
965.10	5351.34
965.26	5367.73
965.42	5400.49
965.59	5427.12
965.75	5302.19
965.92	5414.83
966.08	5597.10
966.24	5226.42
966.41	5359.53
966.57	5343.15
966.73	5449.64
966.90	5310.38
967.06	5294.00
967.22	5414.83
967.39	5263.28
967.55	5242.80
967.71	5343.15
967.88	5269.42
968.04	5388.21
968.20	5347.25
968.37	5185.46
968.53	5089.20
968.69	5222.32
968.85	5306.29
969.02	5373.87
969.18	5197.74
969.34	5083.06
969.51	5191.60
969.67	5392.30
969.83	5136.31
970.00	5154.74
970.16	5191.60
970.32	5240.75
970.48	5119.92
970.65	5093.30
970.81	5066.67
970.97	5052.34
971.14	4956.08
971.30	5185.46
971.46	4972.47
971.63	5015.48
971.79	5140.40
971.95	5083.06
972.11	5031.86
972.28	5009.33
972.44	5121.97
972.60	4976.56
972.76	5128.11
972.93	5064.63
973.09	5156.79
973.25	5044.15
973.42	4960.18
973.58	4878.26
973.74	5023.67
973.90	5001.14
974.07	5009.33
974.23	4992.95
974.39	4874.17
974.55	5013.43
974.72	4722.62
974.88	4675.51
975.04	4890.55
975.20	4884.41
975.37	4962.23
975.53	4763.58
975.69	4872.12
975.85	4841.40
976.01	4722.62
976.18	4886.45
976.34	4712.38
976.50	4886.45
976.66	4839.35
976.83	4822.97
976.99	4841.40
977.15	4833.21
977.31	4648.89
977.47	4693.94
977.64	4683.70
977.80	4575.16
977.96	4716.47
978.12	4665.27
978.29	4687.80
978.45	4480.96
978.61	4644.79
978.77	4769.72
978.93	4579.26
979.10	4648.89
979.26	4556.73
979.42	4628.41
979.58	4509.63
979.74	4546.49
979.91	4526.01
980.07	4519.87
980.23	4392.89
980.39	4509.63
980.55	4546.49
980.71	4448.19
980.88	4440.00
981.04	4544.44
981.20	4353.98
981.36	4499.39
981.52	4425.66
981.68	4390.84
981.85	4417.47
982.01	4515.77
982.17	4315.07
982.33	4384.70
982.49	4476.86
982.65	4243.39
982.82	4523.96
982.98	4343.74
983.14	4358.08
983.30	4304.83
983.46	4243.39
983.62	4315.07
983.79	4263.87
983.95	4347.84
984.11	4126.66
984.27	4233.15
984.43	4290.49
984.59	4302.78
984.75	4333.50
984.91	4218.82
985.08	4186.05
985.24	4083.65
985.40	4140.99
985.56	4214.72
985.72	4257.73
985.88	4177.86
986.04	4093.89
986.20	4237.25
986.37	4194.24
986.53	4065.22
986.69	4177.86
986.85	4034.50
987.01	4034.50
987.17	4036.55
987.33	4116.42
987.49	4016.07
987.65	4022.21
987.82	4022.21
987.98	3985.35
988.14	3983.30
988.30	4095.94
988.46	3901.38
988.62	4005.83
988.78	4005.83
988.94	3891.14
989.10	3936.20
989.26	3903.43
989.42	3942.34
989.59	3864.52
989.75	3811.27
989.91	3819.46
990.07	3788.74
990.23	3823.56
990.39	3747.78
990.55	3876.80
990.71	3821.51
990.87	3788.74
991.03	3882.95
991.19	3868.61
991.35	3776.45
991.51	3772.36
991.67	3862.47
991.83	3796.93
992.00	3694.54
992.16	3829.70
992.32	3712.97
992.48	3735.50
992.64	3661.77
992.80	3678.15
992.96	3661.77
993.12	3690.44
993.28	3731.40
993.44	3647.43
993.60	3686.34
993.76	3682.25
993.92	3604.42
994.08	3606.47
994.24	3704.78
994.40	3659.72
994.56	3639.24
994.72	3592.14
994.88	3549.13
995.04	3606.47
995.20	3585.99
995.36	3516.36
995.52	3606.47
995.68	3456.97
995.84	3518.41
996.00	3672.01
996.16	3583.95
996.32	3581.90
996.48	3516.36
996.64	3649.48
996.80	3385.29
996.96	3518.41
997.12	3440.59
997.28	3436.49
997.44	3356.62
997.60	3440.59
997.76	3438.54
997.92	3413.96
998.08	3407.82
998.24	3325.90
998.40	3391.44
998.56	3497.93
998.72	3243.98
998.88	3239.89
999.04	3227.60
999.20	3379.15
999.36	3385.29
999.52	3448.78
999.68	3428.30
999.84	3370.96
1000.00	3368.91
1000.16	3307.47
1000.32	3289.04
1000.48	3362.76
1000.64	3192.78
1000.80	3387.34
1000.95	3131.34
1001.11	3268.56
1001.27	3198.93
1001.43	3198.93
1001.59	3160.02
1001.75	3213.26
1001.91	3223.50
1002.07	3147.73
1002.23	3123.15
1002.39	3084.24
1002.55	3293.13
1002.71	3057.62
1002.87	3117.01
1003.03	3133.39
1003.19	3010.51
1003.34	3149.78
1003.50	3082.19
1003.66	3215.31
1003.82	3145.68
1003.98	3051.47
1004.14	3149.78
1004.30	3078.10
1004.46	3024.85
1004.62	2969.55
1004.78	3045.33
1004.94	3086.29
1005.09	3168.21
1005.25	3041.23
1005.41	3014.61
1005.57	3102.67
1005.73	2928.60
1005.89	2934.74
1006.05	3014.61
1006.21	2973.65
1006.37	2904.02
1006.52	2846.68
1006.68	2899.92
1006.84	2959.31
1007.00	2873.30
1007.16	3082.19
1007.32	2934.74
1007.48	2932.69
1007.64	2885.59
1007.79	2901.97
1007.95	2953.17
1008.11	2977.75
1008.27	2865.11
1008.43	2867.16
1008.59	2779.09
1008.75	2944.98
1008.91	2901.97
1009.06	2828.24
1009.22	2865.11
1009.38	2807.77
1009.54	2881.49
1009.70	2775.00
1009.86	2830.29
1010.01	2836.44
1010.17	2781.14
1010.33	2787.29
1010.49	2828.24
1010.65	2912.21
1010.81	2650.07
1010.96	2721.75
1011.12	2752.47
1011.28	2670.55
1011.44	2789.33
1011.60	2717.65
1011.76	2635.74
1011.91	2789.33
1012.07	2670.55
1012.23	2672.60
1012.39	2621.40
1012.55	2648.02
1012.71	2584.54
1012.86	2656.22
1013.02	2633.69
1013.18	2656.22
1013.34	2615.26
1013.50	2707.41
1013.65	2666.46
1013.81	2557.91
1013.97	2584.54
1014.13	2639.83
1014.29	2666.46
1014.44	2721.75
1014.60	2609.11
1014.76	2582.49
1014.92	2598.87
1015.07	2697.17
1015.23	2623.45
1015.39	2584.54
1015.55	2519.00
1015.71	2488.28
1015.86	2545.63
1016.02	2564.06
1016.18	2414.56
1016.34	2586.58
1016.49	2498.52
1016.65	2650.07
1016.81	2469.85
1016.97	2521.05
1017.12	2596.82
1017.28	2443.23
1017.44	2486.23
1017.60	2478.04
1017.75	2498.52
1017.91	2432.99
1018.07	2482.14
1018.23	2512.86
1018.38	2455.51
1018.54	2469.85
1018.70	2418.65
1018.86	2412.51
1019.01	2418.65
1019.17	2414.56
1019.33	2480.09
1019.49	2467.80
1019.64	2408.41
1019.80	2383.84
1019.96	2406.36
1020.12	2377.69
1020.27	2392.03
1020.43	2363.36
1020.59	2322.40
1020.74	2455.51
1020.90	2475.99
1021.06	2312.16
1021.22	2392.03
1021.37	2336.73
1021.53	2252.77
1021.69	2471.90
1021.84	2312.16
1022.00	2334.68
1022.16	2310.11
1022.31	2424.80
1022.47	2406.36
1022.63	2367.45
1022.79	2252.77
1022.94	2248.67
1023.10	2310.11
1023.26	2332.64
1023.41	2326.49
1023.57	2240.48
1023.73	2318.30
1023.88	2213.85
1024.04	2224.09
1024.20	2179.04
1024.35	2240.48
1024.51	2332.64
1024.67	2265.05
1024.82	2260.96
1024.98	2199.52
1025.14	2242.53
1025.29	2205.66
1025.45	2308.06
1025.61	2191.33
1025.76	2289.63
1025.92	2273.25
1026.08	2322.40
1026.23	2254.81
1026.39	2207.71
1026.55	2179.04
1026.70	2265.05
1026.86	2150.37
1027.02	2230.24
1027.17	2103.26
1027.33	2236.38
1027.48	2258.91
1027.64	2129.89
1027.80	2117.60
1027.95	2252.77
1028.11	2154.46
1028.27	2142.18
1028.42	2205.66
1028.58	2111.46
1028.73	2101.22
1028.89	2072.54
1029.05	2158.56
1029.20	2117.60
>>>>>End Processed Spectral Data<<<<<
