SpectraSuite Data File
++++++++++++++++++++++++++++++++++++
Date: Fri Jun 02 14:53:30 CEST 2017
User: INFO_000
Dark Spectrum Present: No
Reference Spectrum Present: No
Number of Sampled Component Spectra: 1
Spectrometers: USB4H00879
Integration Time (usec): 80000 (USB4H00879)
Spectra Averaged: 1 (USB4H00879)
Boxcar Smoothing: 0 (USB4H00879)
Correct for Electrical Dark: No (USB4H00879)
Strobe/Lamp Enabled: No (USB4H00879)
Correct for Detector Non-linearity: No (USB4H00879)
Correct for Stray Light: No (USB4H00879)
Number of Pixels in Processed Spectrum: 3648
>>>>>Begin Processed Spectral Data<<<<<
345.13	1296.36
345.34	1296.36
345.56	1296.36
345.78	1279.98
345.99	1226.73
346.21	1693.67
346.42	1626.09
346.64	1583.08
346.86	1726.44
347.07	1617.90
347.29	1703.91
347.50	1642.47
347.72	1667.05
347.94	1767.40
348.15	1583.08
348.37	1574.89
348.59	1689.57
348.80	1632.23
349.02	1826.79
349.23	1865.70
349.45	1902.56
349.67	1896.42
349.88	1826.79
350.10	2052.06
350.31	1783.78
350.53	1802.21
350.75	1925.09
350.96	1787.88
351.18	1884.13
351.39	1804.26
351.61	1740.77
351.82	1910.75
352.04	1933.28
352.26	1775.59
352.47	1861.60
352.69	1892.32
352.90	1791.97
353.12	1882.08
353.34	1853.41
353.55	1957.86
353.77	1898.47
353.98	1914.85
354.20	1736.68
354.41	1914.85
354.63	1990.63
354.85	2027.49
355.06	1935.33
355.28	1802.21
355.49	1886.18
355.71	1783.78
355.92	1925.09
356.14	1984.48
356.35	1824.74
356.57	1908.71
356.79	1964.00
357.00	1912.80
357.22	1984.48
357.43	1869.80
357.65	1964.00
357.86	1789.92
358.08	1943.52
358.29	1918.95
358.51	1984.48
358.72	1980.39
358.94	1918.95
359.16	1904.61
359.37	2039.78
359.59	1861.60
359.80	2101.22
360.02	1843.17
360.23	1912.80
360.45	2050.02
360.66	1951.71
360.88	1929.19
361.09	1955.81
361.31	2041.82
361.52	1888.23
361.74	2029.54
361.95	2125.79
362.17	1986.53
362.38	2041.82
362.60	1996.77
362.81	2045.92
363.03	1986.53
363.24	1986.53
363.46	2035.68
363.67	2043.87
363.89	1898.47
364.10	2060.26
364.32	2000.87
364.53	2146.27
364.75	1978.34
364.96	2084.83
365.18	2054.11
365.39	2078.69
365.61	1990.63
365.82	2090.98
366.04	1953.76
366.25	1998.82
366.47	1972.19
366.68	2017.25
366.90	2029.54
367.11	2054.11
367.33	2045.92
367.54	2013.15
367.76	1992.67
367.97	2029.54
368.19	2086.88
368.40	2111.46
368.62	1902.56
368.83	2064.35
369.05	2045.92
369.26	2004.96
369.48	2007.01
369.69	1945.57
369.91	2082.78
370.12	2045.92
370.33	2119.65
370.55	1886.18
370.76	2072.54
370.98	2125.79
371.19	2054.11
371.41	2115.55
371.62	2031.58
371.84	2033.63
372.05	2240.48
372.27	2045.92
372.48	2099.17
372.69	2076.64
372.91	2162.66
373.12	2203.61
373.34	2162.66
373.55	2074.59
373.77	2138.08
373.98	2101.22
374.20	2158.56
374.41	2308.06
374.62	2093.02
374.84	2158.56
375.05	2125.79
375.27	2205.66
375.48	2107.36
375.70	2086.88
375.91	2283.49
376.12	2265.05
376.34	2160.61
376.55	2207.71
376.77	2308.06
376.98	2199.52
377.19	2062.30
377.41	2170.85
377.62	2193.37
377.84	2254.81
378.05	2283.49
378.27	2217.95
378.48	2353.12
378.69	2312.16
378.91	2289.63
379.12	2297.82
379.34	2189.28
379.55	2293.72
379.76	2338.78
379.98	2263.01
380.19	2250.72
380.41	2279.39
380.62	2303.96
380.83	2273.25
381.05	2172.89
381.26	2418.65
381.47	2228.19
381.69	2263.01
381.90	2312.16
382.12	2306.01
382.33	2254.81
382.54	2254.81
382.76	2328.54
382.97	2312.16
383.19	2324.44
383.40	2346.97
383.61	2314.20
383.83	2310.11
384.04	2357.21
384.25	2404.32
384.47	2422.75
384.68	2402.27
384.89	2353.12
385.11	2287.58
385.32	2297.82
385.54	2379.74
385.75	2449.37
385.96	2387.93
386.18	2340.83
386.39	2412.51
386.60	2353.12
386.82	2453.47
387.03	2467.80
387.24	2488.28
387.46	2486.23
387.67	2510.81
387.88	2543.58
388.10	2498.52
388.31	2465.75
388.52	2500.57
388.74	2547.67
388.95	2445.27
389.16	2482.14
389.38	2672.60
389.59	2633.69
389.80	2719.70
390.02	2621.40
390.23	2592.73
390.44	2525.15
390.66	2648.02
390.87	2457.56
391.08	2613.21
391.30	2795.48
391.51	2625.50
391.72	2715.61
391.94	2658.26
392.15	2590.68
392.36	2654.17
392.58	2613.21
392.79	2699.22
393.00	2664.41
393.22	2811.86
393.43	2766.81
393.64	2795.48
393.85	2803.67
394.07	2666.46
394.28	2770.90
394.49	2836.44
394.71	2756.57
394.92	2944.98
395.13	2729.94
395.35	2736.09
395.56	2781.14
395.77	2879.44
395.98	2893.78
396.20	2891.73
396.41	2914.26
396.62	2838.48
396.84	2881.49
397.05	2844.63
397.26	2885.59
397.47	2904.02
397.69	2813.91
397.90	3012.56
398.11	3014.61
398.32	2850.77
398.54	2863.06
398.75	2861.01
398.96	3008.47
399.18	3145.68
399.39	2955.22
399.60	3051.47
399.81	2985.94
400.03	2961.36
400.24	3336.14
400.45	3061.71
400.66	3030.99
400.88	3037.14
401.09	3233.74
401.30	3086.29
401.51	3160.02
401.73	3133.39
401.94	3133.39
402.15	3114.96
402.36	3100.62
402.58	3174.35
402.79	3155.92
403.00	3168.21
403.21	3162.06
403.43	3227.60
403.64	3252.17
403.85	3176.40
404.06	3172.30
404.27	3104.72
404.49	3149.78
404.70	3186.64
404.91	3307.47
405.12	3313.61
405.34	3160.02
405.55	3387.34
405.76	3200.98
405.97	3377.10
406.19	3434.44
406.40	3313.61
406.61	3370.96
406.82	3364.81
407.03	3434.44
407.25	3299.28
407.46	3362.76
407.67	3465.16
407.88	3467.21
408.09	3387.34
408.31	3463.12
408.52	3430.35
408.73	3469.26
408.94	3348.43
409.15	3489.74
409.37	3532.75
409.58	3575.75
409.79	3538.89
410.00	3553.23
410.21	3481.55
410.43	3606.47
410.64	3436.49
410.85	3520.46
411.06	3532.75
411.27	3532.75
411.48	3633.10
411.70	3465.16
411.91	3616.71
412.12	3647.43
412.33	3641.29
412.54	3483.59
412.76	3692.49
412.97	3768.26
413.18	3477.45
413.39	3694.54
413.60	3682.25
413.81	3686.34
414.03	3655.62
414.24	3672.01
414.45	3868.61
414.66	3653.58
414.87	3735.50
415.08	3657.67
415.30	3813.32
415.51	3770.31
415.72	3721.16
415.93	3702.73
416.14	3913.67
416.35	3837.89
416.56	3825.61
416.78	3856.33
416.99	3885.00
417.20	3889.09
417.41	3928.00
417.62	3923.91
417.83	4014.02
418.04	3868.61
418.26	3981.25
418.47	3956.68
418.68	3995.59
418.89	4016.07
419.10	4089.79
419.31	4132.80
419.52	4149.18
419.73	4095.94
419.95	4233.15
420.16	3960.77
420.37	3958.72
420.58	4278.21
420.79	4018.11
421.00	4083.65
421.21	4175.81
421.42	4106.18
421.63	4153.28
421.85	4132.80
422.06	4270.01
422.27	4173.76
422.48	4284.35
422.69	4286.40
422.90	4216.77
423.11	4376.51
423.32	4288.45
423.53	4468.67
423.75	4394.94
423.96	4501.44
424.17	4462.52
424.38	4638.65
424.59	4454.33
424.80	4624.31
425.01	4499.39
425.22	4485.05
425.43	4460.48
425.64	4687.80
425.85	4722.62
426.06	4669.37
426.28	4528.06
426.49	4462.52
426.70	4569.02
426.91	4777.91
427.12	4728.76
427.33	4896.69
427.54	4736.95
427.75	4835.25
427.96	4855.73
428.17	4765.62
428.38	4927.41
428.59	4878.26
428.80	4749.24
429.01	4851.64
429.23	4902.84
429.44	5152.69
429.65	5087.15
429.86	4958.13
430.07	4974.52
430.28	4870.07
430.49	5083.06
430.70	5230.51
430.91	5064.63
431.12	5035.96
431.33	5199.79
431.54	5236.66
431.75	5287.86
431.96	5156.79
432.17	5195.70
432.38	5257.14
432.59	5451.69
432.80	5361.58
433.01	5382.06
433.22	5351.34
433.43	5431.21
433.64	5324.72
433.85	5300.14
434.06	5509.04
434.27	5277.62
434.49	5570.48
434.70	5580.71
434.91	5435.31
435.12	5666.73
435.33	5513.13
435.54	5457.84
435.75	5343.15
435.96	5564.33
436.17	5545.90
436.38	5629.87
436.59	5685.16
436.80	5668.78
437.01	5818.28
437.22	5859.24
437.43	5631.91
437.64	5484.46
437.85	5797.80
438.06	5869.48
438.27	5685.16
438.48	5853.09
438.69	5967.78
438.90	5859.24
439.11	5775.27
439.32	5955.49
439.53	5871.53
439.74	6000.55
439.95	5951.40
440.16	5769.13
440.37	5914.53
440.57	5953.45
440.78	6049.70
440.99	6096.80
441.20	5998.50
441.41	5945.25
441.62	6033.32
441.83	5922.73
442.04	6150.05
442.25	6014.88
442.46	6111.14
442.67	6068.13
442.88	6494.11
443.09	5990.31
443.30	6100.90
443.51	6215.59
443.72	6457.25
443.93	6205.35
444.14	6410.14
444.35	6133.67
444.56	6262.69
444.77	6408.09
444.98	6518.68
445.19	6381.47
445.40	6387.61
445.61	6332.32
445.81	6487.96
446.02	6461.34
446.23	6512.54
446.44	6440.86
446.65	6592.41
446.86	6447.01
447.07	6592.41
447.28	6596.51
447.49	6653.85
447.70	6600.60
447.91	6762.39
448.12	6530.97
448.33	6692.76
448.54	6717.34
448.74	6725.53
448.95	6770.58
449.16	6807.45
449.37	7079.83
449.58	6717.34
449.79	7020.44
450.00	6682.52
450.21	7012.24
450.42	7186.32
450.63	6999.96
450.84	6924.18
451.05	7006.10
451.25	7128.98
451.46	6915.99
451.67	7153.55
451.88	7163.79
452.09	7032.72
452.30	7059.35
452.51	6991.77
452.72	7294.86
452.93	7600.01
453.13	7079.83
453.34	7241.62
453.55	7425.93
453.76	7544.72
453.97	7856.01
454.18	7298.96
454.39	7538.57
454.60	7608.20
454.81	7425.93
455.01	7708.55
455.22	7483.28
455.43	7696.27
455.64	7913.35
455.85	8056.71
456.06	7917.45
456.27	7739.27
456.48	7913.35
456.68	7972.74
456.89	7923.59
457.10	8091.52
457.31	8021.89
457.52	7868.30
457.73	8040.33
457.94	8234.88
458.14	7956.36
458.35	8548.22
458.56	8372.10
458.77	8286.08
458.98	8376.19
459.19	8589.18
459.39	8601.47
459.60	8484.73
459.81	8329.09
460.02	8621.95
460.23	8685.44
460.44	8859.51
460.65	8820.60
460.85	8796.03
461.06	8816.51
461.27	8425.34
461.48	8974.20
461.69	9260.91
461.89	8603.52
462.10	8902.52
462.31	8742.78
462.52	8916.86
462.73	8970.10
462.94	9310.07
463.14	9140.08
463.35	9043.83
463.56	9535.34
463.77	9475.95
463.98	9273.20
464.18	9295.73
464.39	9744.24
464.60	9510.77
464.81	9727.85
465.02	9500.53
465.23	9942.89
465.43	9824.11
465.64	9826.15
465.85	9885.55
466.06	9662.32
466.27	10176.36
466.47	10108.77
466.68	10260.32
466.89	10012.52
467.10	10268.52
467.30	10149.73
467.51	10364.77
467.72	10800.99
467.93	10170.21
468.14	10536.80
468.34	10647.39
468.55	10690.40
468.76	10800.99
468.97	10682.20
469.17	10850.14
469.38	10995.54
469.59	11071.32
469.80	10946.39
470.01	11046.74
470.21	10977.11
470.42	11310.93
470.63	11419.47
470.84	11290.45
471.04	11530.06
471.25	11515.73
471.46	11534.16
471.67	11646.80
471.87	11509.58
472.08	11867.98
472.29	12076.87
472.50	11671.37
472.70	11874.12
472.91	11853.64
473.12	12197.70
473.33	12123.98
473.53	12293.96
473.74	12220.23
473.95	12541.76
474.16	12549.95
474.36	12427.07
474.57	12652.35
474.78	12961.59
474.99	12789.56
475.19	12760.89
475.40	13012.79
475.61	13109.05
475.81	13430.58
476.02	13338.42
476.23	13317.94
476.44	13426.48
476.64	13674.29
476.85	14026.54
477.06	13639.47
477.27	14157.61
477.47	13897.52
477.68	14112.55
477.89	14266.15
478.09	14282.53
478.30	14493.47
478.51	14305.06
478.71	14491.43
478.92	14442.28
479.13	14651.17
479.34	15027.99
479.54	14823.20
479.75	14880.54
479.96	14907.16
480.16	15036.19
480.37	15302.42
480.58	15177.50
480.78	15623.95
480.99	15335.19
481.20	15597.33
481.41	15978.25
481.61	15781.65
481.82	16047.88
482.03	15773.46
482.23	16103.18
482.44	16074.51
482.65	16387.85
482.85	16422.66
483.06	16377.61
483.27	16199.43
483.47	16238.34
483.68	16856.83
483.89	16742.14
484.09	16592.64
484.30	16803.58
484.51	16918.27
484.71	17260.28
484.92	17223.42
485.13	17161.98
485.33	17409.78
485.54	17272.57
485.75	17276.66
485.95	17759.98
486.16	17573.62
486.37	17993.45
486.57	17921.77
486.78	17768.18
486.98	17934.06
487.19	18087.66
487.40	18173.67
487.60	18257.64
487.81	18487.01
488.02	18368.23
488.22	18548.45
488.43	18847.46
488.64	18470.63
488.84	18736.87
489.05	19148.51
489.25	18806.50
489.46	19230.43
489.67	18927.33
489.87	19181.28
490.08	19451.61
490.29	19547.86
490.49	19922.64
490.70	19916.50
490.90	19807.95
491.11	19730.13
491.32	19963.60
491.52	19877.58
491.73	20010.70
491.94	19969.74
492.14	20035.28
492.35	20184.78
492.55	20348.62
492.76	20489.93
492.97	20836.03
493.17	20430.54
493.38	20647.62
493.58	21075.65
493.79	20952.77
494.00	20958.91
494.20	20772.55
494.41	21096.13
494.61	21278.40
494.82	21331.64
495.02	21614.26
495.23	21679.80
495.44	21276.35
495.64	21935.79
495.85	21888.69
496.05	21919.41
496.26	21810.87
496.47	22171.31
496.67	22023.86
496.88	22365.87
497.08	22124.21
497.29	22462.12
497.49	22238.89
497.70	22525.61
497.91	22714.02
498.11	22498.98
498.32	22687.40
498.52	23119.52
498.73	23019.17
498.93	22714.02
499.14	22957.73
499.34	22943.39
499.55	23176.86
499.76	22976.16
499.96	23103.14
500.17	23219.87
500.37	23723.67
500.58	23297.69
500.78	23666.33
500.99	23561.88
501.19	23709.33
501.40	23633.56
501.60	23471.77
501.81	23891.60
502.02	23758.49
502.22	23891.60
502.43	23781.01
502.63	23846.55
502.84	24190.61
503.04	24149.65
503.25	24120.98
503.45	24383.12
503.66	24221.33
503.86	24331.92
504.07	24923.78
504.27	24372.88
504.48	24819.33
504.68	24624.78
504.89	24960.64
505.09	25015.94
505.30	25284.22
505.50	24948.36
505.71	25245.31
505.91	25208.45
506.12	24931.97
506.32	25450.11
506.53	25282.17
506.73	25575.03
506.94	25591.42
507.14	25695.86
507.35	25437.82
507.55	25695.86
507.76	25751.16
507.96	25654.90
508.17	25689.72
508.37	25577.08
508.58	25796.21
508.78	26119.79
508.99	26259.06
509.19	25865.85
509.40	26214.00
509.60	26183.28
509.81	26576.49
510.01	26226.29
510.22	26203.76
510.42	26107.51
510.63	26715.75
510.83	26340.97
511.04	26478.19
511.24	26556.01
511.44	26543.72
511.65	26721.90
511.85	26719.85
512.06	26871.40
512.26	27188.83
512.47	26941.03
512.67	26981.99
512.88	26832.49
513.08	26961.51
513.29	27242.08
513.49	26973.80
513.69	27463.26
513.90	27428.45
514.10	27387.49
514.31	27383.39
514.51	27524.70
514.72	27319.90
514.92	27674.20
515.13	27534.94
515.33	27647.58
515.53	27758.17
515.74	27526.75
515.94	28350.03
516.15	28001.88
516.35	27891.29
516.56	28114.52
516.76	27897.43
516.96	28241.49
517.17	28505.68
517.37	28270.16
517.58	28325.46
517.78	28630.60
517.99	28530.25
518.19	28446.29
518.39	28720.71
518.60	28829.26
518.80	28407.37
519.01	28950.09
519.21	29097.54
519.41	28812.87
519.62	28888.65
519.82	29310.53
520.03	29029.96
520.23	29447.74
520.43	29109.83
520.64	29529.66
520.84	29666.88
521.05	29253.19
521.25	29681.21
521.45	29695.55
521.66	30086.71
521.86	29898.30
522.07	29795.90
522.27	30164.53
522.47	29875.77
522.68	30158.39
522.88	30111.28
523.08	30426.67
523.29	30772.78
523.49	30381.62
523.70	30404.14
523.90	30828.07
524.10	30426.67
524.31	30641.71
524.51	30678.57
524.71	31290.91
524.92	31194.66
525.12	31284.77
525.33	31108.65
525.53	31206.95
525.73	31639.07
525.94	31673.88
526.14	31475.23
526.34	31733.28
526.55	31520.29
526.75	31888.92
526.95	32165.40
527.16	31653.40
527.36	31872.54
527.56	32110.10
527.77	32513.55
527.97	32673.29
528.17	32570.90
528.38	32681.49
528.58	32261.65
528.78	32546.32
528.99	32736.78
529.19	33142.28
529.39	32833.04
529.60	33287.68
529.80	33166.85
530.00	33127.94
530.21	33304.07
530.41	33576.45
530.61	33553.92
530.82	33613.31
531.02	33381.89
531.22	33977.85
531.43	33711.61
531.63	33875.45
531.83	34272.76
532.04	34600.43
532.24	34239.99
532.44	34530.80
532.64	34600.43
532.85	34682.35
533.05	34655.73
533.25	34659.82
533.46	34706.93
533.66	35151.34
533.86	35096.04
534.07	35321.32
534.27	35349.99
534.47	35800.54
534.67	35438.05
534.88	35462.63
535.08	35616.22
535.28	35728.86
535.49	35763.68
535.69	36261.33
535.89	35579.36
536.09	35950.04
536.30	36386.26
536.50	35984.86
536.70	36382.16
536.91	36599.25
537.11	36535.76
537.31	36222.42
537.51	36732.37
537.72	37012.94
537.92	36914.64
538.12	37410.25
538.32	37293.51
538.53	37559.75
538.73	37250.50
538.93	37078.47
539.13	37234.12
539.34	37731.78
539.54	37402.05
539.74	37785.02
539.94	37582.27
540.15	37852.61
540.35	38108.60
540.55	38028.73
540.75	38028.73
540.96	38188.47
541.16	38297.02
541.36	38172.09
541.56	38086.07
541.77	38794.67
541.97	38567.35
542.17	38702.51
542.37	38933.93
542.58	39095.72
542.78	38686.13
542.98	39183.79
543.18	39531.94
543.38	38917.55
543.59	39267.75
543.79	39323.05
543.99	38753.71
544.19	39245.23
544.40	39155.11
544.60	39450.02
544.80	39435.69
545.00	39744.93
545.20	39744.93
545.41	39759.27
545.61	39882.14
545.81	40185.24
546.01	40527.25
546.21	40310.17
546.42	39908.77
546.62	40357.27
546.82	39955.87
547.02	40066.46
547.22	40244.63
547.43	40246.68
547.63	40678.80
547.83	40787.35
548.03	40199.58
548.23	40877.46
548.44	40523.16
548.64	40801.68
548.84	40777.11
549.04	40920.46
549.24	40965.52
549.45	41196.94
549.65	40961.42
549.85	40752.53
550.05	41323.91
550.25	41166.22
550.45	41708.93
550.66	41145.74
550.86	41051.53
551.06	41522.57
551.26	41842.05
551.46	41792.90
551.66	41592.20
551.87	41616.77
552.07	41923.97
552.27	41665.92
552.47	42059.13
552.67	42130.81
552.87	41739.65
553.07	41991.55
553.28	41479.56
553.48	42087.81
553.68	42052.99
553.88	42282.36
554.08	41921.92
554.28	42153.34
554.48	42126.72
554.69	42343.80
554.89	42278.27
555.09	42501.50
555.29	42104.19
555.49	42308.99
555.69	42356.09
555.89	42450.30
556.10	42587.51
556.30	42415.48
556.50	42892.66
556.70	42569.08
556.90	42573.17
557.10	42931.57
557.30	42382.71
557.50	42966.38
557.70	43500.90
557.91	43431.27
558.11	42843.51
558.31	43064.69
558.51	42843.51
558.71	42945.90
558.91	42810.74
559.11	43054.45
559.31	43158.89
559.51	43238.76
559.72	43214.19
559.92	43332.97
560.12	43208.04
560.32	43375.98
560.52	43025.78
560.72	43382.12
560.92	43570.54
561.12	43373.93
561.32	44107.10
561.52	43713.89
561.72	43730.28
561.93	43320.68
562.13	43574.63
562.33	43445.61
562.53	44160.35
562.73	43283.82
562.93	43709.80
563.13	43779.43
563.33	44223.84
563.53	43801.96
563.73	43738.47
563.93	43517.29
564.13	44375.39
564.33	44250.46
564.53	44002.66
564.74	44129.63
564.94	43564.39
565.14	44014.94
565.34	44000.61
565.54	44004.70
565.74	44291.42
565.94	44062.05
566.14	44129.63
566.34	44256.60
566.54	44166.49
566.74	44479.83
566.94	44301.66
567.14	44309.85
567.34	43992.42
567.54	44827.99
567.74	44641.62
567.94	44236.12
568.14	44846.42
568.34	44721.49
568.54	44979.54
568.74	44606.81
568.94	44475.74
569.14	45094.22
569.34	44746.07
569.54	45061.46
569.75	44678.49
569.95	44619.10
570.15	45077.84
570.35	44797.27
570.55	45221.20
570.75	45387.08
570.95	45313.36
571.15	45227.34
571.35	45221.20
571.55	45423.95
571.75	45284.68
571.95	45327.69
572.15	45282.64
572.35	45153.62
572.55	45192.53
572.75	45415.76
572.95	45296.97
573.15	45610.31
573.35	45653.32
573.55	45161.81
573.75	45376.84
573.95	45862.21
574.15	44930.39
574.35	45888.84
574.55	45696.33
574.75	45600.07
574.95	45980.99
575.15	45684.04
575.34	45507.91
575.54	45923.65
575.74	46126.40
575.94	46167.36
576.14	46089.54
576.34	46497.08
576.54	46228.80
576.74	46161.22
576.94	46028.10
577.14	46923.06
577.34	46558.52
577.54	46265.66
577.74	46409.02
577.94	46732.60
578.14	46568.76
578.34	46904.63
578.54	46067.01
578.74	46603.58
578.94	47244.59
579.14	46464.32
579.34	46292.29
579.54	47021.36
579.74	46982.45
579.94	47246.64
580.13	47060.27
580.33	47672.62
580.53	46748.98
580.73	46832.95
580.93	47183.15
581.13	47179.06
581.33	47396.14
581.53	47398.19
581.73	47371.57
581.93	47734.06
582.13	47596.84
582.33	47693.10
582.53	47701.29
582.73	47967.52
582.92	47461.68
583.12	47754.54
583.32	47779.11
583.52	47766.82
583.72	48053.54
583.92	47994.15
584.12	47994.15
584.32	48483.61
584.52	48352.54
584.72	48178.46
584.92	48395.55
585.11	48405.79
585.31	47629.61
585.51	48444.70
585.71	47807.78
585.91	48758.04
586.11	47977.76
586.31	48131.36
586.51	48358.69
586.71	48465.18
586.91	48870.68
587.10	49194.26
587.30	48985.36
587.50	48848.15
587.70	49554.70
587.90	48809.24
588.10	49081.62
588.30	48710.94
588.50	48944.41
588.69	48739.61
588.89	48895.25
589.09	49394.96
589.29	49020.18
589.49	49673.48
589.69	49390.86
589.89	49562.89
590.08	49321.23
590.28	49136.91
590.48	49329.42
590.68	49304.85
590.88	49253.65
591.08	49442.06
591.28	49306.90
591.47	49997.06
591.67	50011.40
591.87	49763.59
592.07	49665.29
592.27	49872.14
592.47	49368.33
592.67	49837.32
592.86	49687.82
593.06	50091.27
593.26	50470.14
593.46	50513.15
593.66	49818.89
593.86	50095.36
594.05	50799.86
594.25	50404.61
594.45	49999.11
594.65	50541.82
594.85	50676.99
595.05	50785.53
595.24	50844.92
595.44	50470.14
595.64	50308.35
595.84	50697.47
596.04	50873.59
596.23	51227.89
596.43	51463.41
596.63	50951.41
596.83	50973.94
597.03	51557.61
597.22	51485.93
597.42	51188.98
597.62	51168.50
597.82	51172.60
598.02	51313.90
598.21	51455.21
598.41	51401.97
598.61	51848.42
598.81	51483.89
599.01	51827.95
599.20	51348.72
599.40	51567.85
599.60	51686.64
599.80	51858.66
600.00	51934.44
600.19	51856.62
600.39	51963.11
600.59	51983.59
600.79	51993.83
600.98	52098.28
601.18	52479.20
601.38	52428.00
601.58	52303.07
601.78	52475.10
601.97	52194.53
602.17	52909.27
602.37	52763.87
602.57	52597.98
602.76	52882.65
602.96	52239.59
603.16	52634.84
603.36	52700.38
603.55	53241.04
603.75	53171.41
603.95	53177.56
604.15	53073.11
604.34	52950.23
604.54	53384.40
604.74	53013.72
604.94	53271.76
605.13	53167.32
605.33	53408.98
605.53	53355.73
605.73	53677.26
605.92	53200.08
606.12	53710.03
606.32	53685.45
606.52	53814.47
606.71	53761.23
606.91	54056.14
607.11	53767.37
607.30	54037.70
607.50	54174.92
607.70	54152.39
607.90	54029.51
608.09	54138.05
608.29	53892.30
608.49	54359.23
608.68	54041.80
608.88	54158.53
609.08	54353.09
609.28	54564.03
609.47	53968.07
609.67	54654.14
609.87	54465.73
610.06	54854.84
610.26	54097.09
610.46	54574.27
610.66	54187.21
610.85	54670.53
611.05	54600.89
611.25	54740.16
611.44	54441.15
611.64	54371.52
611.84	54617.28
612.03	54604.99
612.23	54508.74
612.43	55006.39
612.62	54680.77
612.82	55086.26
613.02	54725.82
613.21	54895.80
613.41	54551.74
613.61	55121.08
613.80	54715.58
614.00	54926.52
614.20	55188.66
614.39	55137.46
614.59	55475.38
614.79	55088.31
614.98	55022.78
615.18	54777.02
615.38	55430.32
615.57	55225.53
615.77	55147.70
615.97	55530.67
616.16	55258.29
616.36	54981.82
616.56	55055.54
616.75	55035.06
616.95	55063.74
617.15	55284.92
617.34	55352.50
617.54	55039.16
617.74	55321.78
617.93	55186.61
618.13	54875.32
618.32	55411.89
618.52	54621.37
618.72	55110.84
618.91	55495.86
619.11	54979.77
619.31	55086.26
619.50	55430.32
619.70	54854.84
619.90	55696.56
620.09	55231.67
620.29	55323.83
620.48	55133.37
620.68	55530.67
620.88	54754.49
621.07	55481.52
621.27	55432.37
621.46	55131.32
621.66	55377.08
621.86	55588.02
622.05	55211.19
622.25	55559.34
622.44	55323.83
622.64	55145.65
622.84	55717.04
623.03	55094.46
623.23	55254.20
623.42	55207.09
623.62	55944.36
623.82	55704.75
624.01	55219.38
624.21	55461.04
624.40	55272.63
624.60	55479.47
624.80	55260.34
624.99	55135.41
625.19	55205.05
625.38	55653.55
625.58	55194.81
625.77	55246.00
625.97	55413.94
626.17	55420.08
626.36	55024.82
626.56	55434.42
626.75	55243.96
626.95	55817.39
627.14	55403.70
627.34	55770.28
627.54	55301.30
627.73	55395.51
627.93	55575.73
628.12	55141.56
628.32	55729.33
628.51	55475.38
628.71	55309.49
628.90	55186.61
629.10	55030.97
629.30	55801.00
629.49	55452.85
629.69	55159.99
629.88	55246.00
630.08	55458.99
630.27	55794.86
630.47	55671.98
630.66	55444.66
630.86	55645.36
631.05	55180.47
631.25	56001.71
631.44	55997.61
631.64	55260.34
631.84	55368.88
632.03	55827.63
632.23	55708.85
632.42	55694.51
632.62	55710.89
632.81	55571.63
633.01	55622.83
633.20	56061.10
633.40	55737.52
633.59	55577.78
633.79	55764.14
633.98	56073.38
634.18	56009.90
634.37	55557.30
634.57	55833.77
634.76	56161.45
634.96	56284.33
635.15	55973.03
635.35	55579.82
635.54	55725.23
635.74	56208.55
635.93	55553.20
636.13	56081.58
636.32	56171.69
636.52	55850.16
636.71	56138.92
636.91	55870.64
637.10	56206.50
637.30	55833.77
637.49	55868.59
637.69	55387.31
637.88	56177.83
638.08	56132.78
638.27	55915.69
638.46	56089.77
638.66	55882.92
638.85	55647.41
639.05	56226.98
639.24	56308.90
639.44	55678.13
639.63	56403.11
639.83	55747.76
640.02	56362.15
640.22	56124.58
640.41	56091.82
640.61	56013.99
640.80	56048.81
640.99	56181.93
641.19	56534.18
641.38	56304.80
641.58	56059.05
641.77	56005.80
641.97	56138.92
642.16	56108.20
642.36	56284.33
642.55	56439.97
642.74	56044.71
642.94	56673.44
643.13	56159.40
643.33	56687.78
643.52	56546.47
643.72	56628.38
643.91	56558.75
644.10	56718.49
644.30	56548.51
644.49	56331.43
644.69	56177.83
644.88	56253.61
645.08	56276.13
645.27	56237.22
645.46	56452.26
645.66	56773.79
645.85	56358.05
646.05	56061.10
646.24	56487.07
646.43	56620.19
646.63	56730.78
646.82	57011.35
647.02	56517.79
647.21	57054.36
647.40	56732.83
647.60	56620.19
647.79	57064.60
647.99	56685.73
648.18	56665.25
648.37	57013.40
648.57	56743.07
648.76	56542.37
648.96	56640.67
649.15	57228.44
649.34	57023.64
649.54	57242.77
649.73	56734.88
649.92	57171.10
650.12	56761.50
650.31	56919.20
650.51	57154.71
650.70	56855.71
650.89	56865.95
651.09	57283.73
651.28	57080.98
651.47	57177.24
651.67	57074.84
651.86	57160.86
652.06	56919.20
652.25	56898.72
652.44	56599.71
652.64	56462.50
652.83	56992.92
653.02	56927.39
653.22	57382.04
653.41	56743.07
653.60	56876.19
653.80	56863.90
653.99	57414.80
654.18	57222.29
654.38	56982.68
654.57	57111.70
654.76	57353.36
654.96	56988.83
655.15	56937.63
655.34	56642.72
655.54	56814.75
655.73	57013.40
655.92	57011.35
656.12	57207.96
656.31	57046.17
656.50	57152.66
656.70	57040.03
656.89	57369.75
657.08	56947.87
657.28	57343.12
657.47	57625.74
657.66	57416.85
657.86	56827.04
658.05	57205.91
658.24	57330.84
658.43	56757.41
658.63	57011.35
658.82	57023.64
659.01	57476.24
659.21	57461.91
659.40	57230.49
659.59	57210.01
659.79	57601.17
659.98	57556.11
660.17	57171.10
660.36	57222.29
660.56	57201.82
660.75	57195.67
660.94	56956.06
661.14	57001.11
661.33	57160.86
661.52	57017.50
661.71	57549.97
661.91	57011.35
662.10	57179.29
662.29	57179.29
662.49	57480.34
662.68	57169.05
662.87	57547.92
663.06	57132.18
663.26	57275.54
663.45	57492.63
663.64	57109.66
663.83	57572.50
664.03	57631.89
664.22	57334.93
664.41	56984.73
664.60	57185.43
664.80	57083.03
664.99	57345.17
665.18	57357.46
665.37	57347.22
665.57	57496.72
665.76	56902.81
665.95	57357.46
666.14	57547.92
666.34	57664.66
666.53	57126.04
666.72	56947.87
666.91	57132.18
667.11	57111.70
667.30	57324.69
667.49	56921.24
667.68	57136.28
667.87	56829.08
668.07	56941.72
668.26	57005.21
668.45	56990.87
668.64	57293.97
668.84	57498.77
669.03	57443.48
669.22	57443.48
669.41	57175.19
669.60	57050.27
669.80	57095.32
669.99	57373.84
670.18	57007.26
670.37	57144.47
670.57	57396.37
670.76	57283.73
670.95	56931.48
671.14	57386.13
671.33	56607.90
671.53	57517.20
671.72	57461.91
671.91	57171.10
672.10	56734.88
672.29	57408.66
672.48	57730.19
672.68	57558.16
672.87	57076.89
673.06	56849.56
673.25	56915.10
673.44	56804.51
673.64	57068.70
673.83	57029.79
674.02	56491.17
674.21	56784.03
674.40	57066.65
674.59	56501.41
674.79	56726.69
674.98	56476.83
675.17	56882.33
675.36	56558.75
675.55	56763.55
675.74	56360.10
675.94	56650.91
676.13	56452.26
676.32	57128.09
676.51	57334.93
676.70	57119.90
676.89	57052.31
677.08	57242.77
677.28	56612.00
677.47	57218.20
677.66	56638.62
677.85	56226.98
678.04	56726.69
678.23	56894.62
678.42	56423.59
678.62	56630.43
678.81	57015.45
679.00	56386.72
679.19	56947.87
679.38	56698.01
679.57	56687.78
679.76	56695.97
679.96	56726.69
680.15	56614.05
680.34	56667.30
680.53	56851.61
680.72	56499.36
680.91	56976.54
681.10	56437.92
681.29	56681.63
681.48	56380.58
681.68	56425.64
681.87	56419.49
682.06	56458.40
682.25	56349.86
682.44	56663.20
682.63	56233.13
682.82	56132.78
683.01	56374.44
683.20	56081.58
683.39	56292.52
683.59	55905.45
683.78	56087.72
683.97	55979.18
684.16	56378.53
684.35	55755.95
684.54	56030.38
684.73	55966.89
684.92	55954.60
685.11	55880.88
685.30	55837.87
685.49	56507.55
685.69	55962.79
685.88	56278.18
686.07	56046.76
686.26	55852.20
686.45	56226.98
686.64	56210.60
686.83	55659.69
687.02	55741.61
687.21	56001.71
687.40	56024.23
687.59	55706.80
687.78	56200.36
687.97	55966.89
688.16	56079.53
688.35	55741.61
688.54	56005.80
688.74	55880.88
688.93	55932.07
689.12	55985.32
689.31	55598.26
689.50	55829.68
689.69	55387.31
689.88	55377.08
690.07	55454.90
690.26	55129.27
690.45	55833.77
690.64	55465.14
690.83	55071.93
691.02	55391.41
691.21	55624.88
691.40	55436.47
691.59	55231.67
691.78	55364.79
691.97	55821.48
692.16	55076.02
692.35	55528.62
692.54	55608.50
692.73	55352.50
692.92	55530.67
693.11	55164.09
693.30	55096.50
693.49	55430.32
693.68	55133.37
693.87	55162.04
694.06	54717.63
694.25	55063.74
694.44	54998.20
694.63	54955.19
694.82	54865.08
695.01	54871.23
695.20	54613.18
695.39	54631.61
695.58	54727.87
695.77	54533.31
695.96	54805.69
696.15	54961.34
696.34	54604.99
696.53	54990.01
696.72	54955.19
696.91	54709.44
697.10	54451.39
697.29	54645.95
697.48	54891.71
697.67	54471.87
697.86	54639.81
698.05	54430.91
698.24	54453.44
698.43	54179.01
698.62	54633.66
698.81	54262.98
699.00	54729.92
699.19	54285.51
699.38	54236.36
699.57	54142.15
699.76	54965.43
699.95	54422.72
700.14	54289.60
700.32	53908.68
700.51	54174.92
700.70	54127.81
700.89	54672.57
701.08	54465.73
701.27	54021.32
701.46	54078.66
701.65	53417.17
701.84	54078.66
702.03	54336.71
702.22	53918.92
702.41	53888.20
702.60	53769.42
702.79	53591.25
702.98	53634.25
703.17	54195.40
703.35	53724.36
703.54	53617.87
703.73	53974.22
703.92	53474.51
704.11	53484.75
704.30	53384.40
704.49	53454.03
704.68	53277.91
704.87	53419.22
705.06	53566.67
705.25	53474.51
705.43	53202.13
705.62	53535.95
705.81	52870.36
706.00	53617.87
706.19	52825.31
706.38	52753.63
706.57	53155.03
706.76	52843.74
706.95	53054.68
707.14	52978.90
707.32	52960.47
707.51	53333.20
707.70	53210.32
707.89	52606.17
708.08	52991.19
708.27	53331.15
708.46	53429.46
708.65	53146.84
708.84	53077.21
709.02	53001.43
709.21	53181.65
709.40	53001.43
709.59	53040.34
709.78	52532.45
709.97	52933.85
710.16	52077.80
710.34	52853.98
710.53	52634.84
710.72	52376.80
710.91	52581.60
711.10	52810.97
711.29	52880.60
711.48	52552.93
711.66	52077.80
711.85	52329.70
712.04	52311.27
712.23	52276.45
712.42	52282.59
712.61	52337.89
712.80	52122.85
712.98	52303.07
713.17	51879.14
713.36	52372.70
713.55	52063.46
713.74	52018.41
713.93	52454.62
714.11	51811.56
714.30	51913.96
714.49	52002.02
714.68	52094.18
714.87	52057.32
715.06	52307.17
715.24	52157.67
715.43	51868.90
715.62	51596.52
715.81	51676.40
716.00	52178.15
716.18	51498.22
716.37	51154.16
716.56	51346.67
716.75	51780.84
716.94	51551.47
717.12	51629.29
717.31	51582.19
717.50	51039.48
717.69	51059.96
717.88	51686.64
718.06	51516.65
718.25	51530.99
718.44	50975.99
718.63	50937.08
718.82	51291.38
719.00	50980.09
719.19	51281.14
719.38	50857.21
719.57	50578.68
719.76	50277.63
719.94	50519.29
720.13	50550.01
720.32	50633.98
720.51	50664.70
720.69	50433.28
720.88	50330.88
721.07	50660.60
721.26	50386.18
721.44	50474.24
721.63	49816.84
721.82	50009.35
722.01	50156.80
722.20	50222.34
722.38	49831.18
722.57	49685.77
722.76	50017.54
722.95	49636.62
723.13	49984.77
723.32	49675.53
723.51	49878.28
723.70	49460.49
723.88	49763.59
724.07	49310.99
724.26	49566.99
724.44	49218.83
724.63	49814.79
724.82	49397.01
725.01	49194.26
725.19	49507.60
725.38	49233.17
725.57	49272.08
725.76	49026.32
725.94	49290.51
726.13	49169.68
726.32	49298.70
726.51	48764.18
726.69	49397.01
726.88	49394.96
727.07	49009.94
727.25	48686.36
727.44	49403.15
727.63	48710.94
727.82	48915.73
728.00	48747.80
728.19	49229.07
728.38	49485.07
728.56	48559.39
728.75	48870.68
728.94	48788.76
729.12	49005.84
729.31	48921.88
729.50	48516.38
729.69	48907.54
729.87	48999.70
730.06	49026.32
730.25	49007.89
730.43	49098.00
730.62	48348.45
730.81	49192.21
730.99	48772.38
731.18	48817.43
731.37	48657.69
731.55	48977.17
731.74	49161.49
731.93	48610.59
732.11	48915.73
732.30	48905.49
732.49	48495.90
732.67	48538.91
732.86	48768.28
733.05	48856.34
733.23	48104.74
733.42	48915.73
733.61	48395.55
733.79	48807.19
733.98	49143.06
734.17	48862.49
734.35	48600.35
734.54	49204.50
734.73	48778.52
734.91	48391.45
735.10	48473.37
735.29	48663.83
735.47	48045.35
735.66	48182.56
735.84	48622.87
736.03	48346.40
736.22	48831.77
736.40	48366.88
736.59	48411.93
736.78	47867.17
736.96	47940.90
737.15	48096.55
737.33	47877.41
737.52	47904.04
737.71	48092.45
737.89	48002.34
738.08	47713.58
738.27	47736.10
738.45	48461.08
738.64	47887.65
738.82	47920.42
739.01	48059.68
739.20	48108.83
739.38	48461.08
739.57	48416.03
739.75	48190.75
739.94	47781.16
740.13	47908.13
740.31	47555.88
740.50	47811.88
740.68	48157.99
740.87	47627.56
741.06	48291.10
741.24	47670.57
741.43	47478.06
741.61	47584.55
741.80	47566.12
741.99	47332.65
742.17	47166.77
742.36	47887.65
742.54	47226.16
742.73	47635.75
742.91	47811.88
743.10	47308.08
743.29	47977.76
743.47	47424.81
743.66	47471.92
743.84	47332.65
744.03	47215.92
744.21	46626.10
744.40	47621.42
744.59	47256.88
744.77	47414.57
744.96	47111.47
745.14	47109.43
745.33	47015.22
745.51	46966.07
745.70	47437.10
745.88	46832.95
746.07	47207.73
746.26	46767.41
746.44	47021.36
746.63	47062.32
746.81	46910.77
747.00	46724.41
747.18	46523.71
747.37	47084.85
747.55	46724.41
747.74	47193.39
747.92	46935.35
748.11	47093.04
748.29	46581.05
748.48	46423.36
748.66	46263.61
748.85	46785.85
749.03	46452.03
749.22	46593.34
749.41	46523.71
749.59	46376.25
749.78	46284.09
749.96	46036.29
750.15	46282.05
750.33	46136.64
750.52	46011.71
750.70	46359.87
750.89	45647.18
751.07	45876.55
751.26	46103.87
751.44	45976.90
751.63	46404.92
751.81	45475.15
752.00	46046.53
752.18	46159.17
752.37	45643.08
752.55	45544.78
752.74	45503.82
752.92	45354.32
753.10	45552.97
753.29	45823.30
753.47	45403.47
753.66	45557.06
753.84	45729.09
754.03	45149.52
754.21	45649.22
754.40	45456.71
754.58	45477.19
754.77	45272.40
754.95	45026.64
755.14	44887.38
755.32	45610.31
755.51	45202.77
755.69	44950.87
755.88	45217.10
756.06	45274.45
756.24	45331.79
756.43	44543.32
756.61	45178.19
756.80	44866.90
756.98	44653.91
757.17	44871.00
757.35	44952.91
757.54	44629.34
757.72	44647.77
757.90	44668.25
758.09	44410.20
758.27	45036.88
758.46	44553.56
758.64	44557.66
758.83	44926.29
759.01	44746.07
759.19	44645.72
759.38	44868.95
759.56	44983.63
759.75	44340.57
759.93	44236.12
760.12	44371.29
760.30	44508.50
760.48	44172.64
760.67	43978.08
760.85	44119.39
761.04	44221.79
761.22	44528.98
761.40	44268.89
761.59	44225.89
761.77	43853.15
761.96	43955.55
762.14	43959.65
762.32	43681.13
762.51	44008.80
762.69	43814.24
762.88	43963.75
763.06	43685.22
763.24	43773.28
763.43	44049.76
763.61	43742.56
763.80	43818.34
763.98	43513.19
764.16	43533.67
764.35	43746.66
764.53	43267.44
764.72	43218.28
764.90	43310.44
765.08	43615.59
765.27	43357.55
765.45	42866.03
765.63	43052.40
765.82	43191.66
766.00	43040.11
766.18	42868.08
766.37	43371.88
766.55	42939.76
766.74	43251.05
766.92	42876.27
767.10	42724.72
767.29	42915.19
767.47	42573.17
767.65	42861.94
767.84	42347.90
768.02	42503.54
768.20	42550.65
768.39	42704.24
768.57	42110.33
768.75	42513.78
768.94	42556.79
769.12	42231.16
769.30	42071.42
769.49	42231.16
769.67	42100.09
769.85	41610.63
770.04	41983.36
770.22	41608.58
770.40	41801.09
770.59	42034.56
770.77	42048.89
770.95	41801.09
771.14	41735.56
771.32	41784.71
771.50	41545.09
771.69	41680.26
771.87	41948.54
772.05	41278.86
772.24	41166.22
772.42	41436.55
772.60	41344.39
772.78	41424.26
772.97	41547.14
773.15	41297.29
773.33	41008.53
773.52	41371.02
773.70	41358.73
773.88	41416.07
774.07	41260.43
774.25	41575.81
774.43	41203.08
774.61	41635.20
774.80	41438.60
774.98	41235.85
775.16	41123.21
775.34	41162.12
775.53	41147.79
775.71	41846.15
775.89	41301.39
776.08	41268.62
776.26	41602.44
776.44	41416.07
776.62	41227.66
776.81	41024.91
776.99	41710.98
777.17	41465.22
777.35	41639.30
777.54	41489.80
777.72	41375.11
777.90	41858.43
778.08	41190.80
778.27	41278.86
778.45	41842.05
778.63	41776.51
778.81	41248.14
779.00	42239.36
779.18	41708.93
779.36	41332.11
779.54	41588.10
779.73	41645.44
779.91	41940.35
780.09	41684.36
780.27	41772.42
780.46	41749.89
780.64	41942.40
780.82	41633.16
781.00	41786.75
781.19	42165.63
781.37	42116.48
781.55	41917.82
781.73	42292.60
781.91	41815.43
782.10	41766.27
782.28	42253.69
782.46	42110.33
782.64	42194.30
782.82	41860.48
783.01	42157.44
783.19	42108.29
783.37	42399.10
783.55	41741.70
783.74	42190.20
783.92	42106.24
784.10	42485.11
784.28	42022.27
784.46	41987.46
784.64	42419.58
784.83	42204.54
785.01	42550.65
785.19	41725.32
785.37	42452.34
785.55	42098.05
785.74	41801.09
785.92	41856.39
786.10	42198.40
786.28	42171.77
786.46	41940.35
786.64	41561.48
786.83	41997.70
787.01	42175.87
787.19	41696.64
787.37	41602.44
787.55	41946.50
787.74	41649.54
787.92	41938.30
788.10	41614.72
788.28	41600.39
788.46	41667.97
788.64	41381.26
788.82	41713.03
789.01	41254.28
789.19	42124.67
789.37	41305.48
789.55	41563.53
789.73	41153.93
789.91	41233.80
790.09	41110.92
790.28	41194.89
790.46	40693.14
790.64	40715.67
790.82	40797.59
791.00	40625.56
791.18	40414.62
791.36	40836.50
791.55	40723.86
791.73	40701.33
791.91	40129.95
792.09	40334.74
792.27	39820.70
792.45	40205.72
792.63	40129.95
792.81	39456.17
793.00	39855.52
793.18	39656.87
793.36	39783.84
793.54	39486.89
793.72	39749.03
793.90	39585.19
794.08	39550.37
794.26	39396.77
794.44	38860.21
794.62	39173.55
794.81	39026.09
794.99	38938.03
795.17	38806.96
795.35	39167.40
795.53	39187.88
795.71	39542.18
795.89	38708.66
796.07	38450.61
796.25	38581.68
796.43	38380.98
796.61	38417.85
796.80	38284.73
796.98	38440.37
797.16	38008.25
797.34	38360.50
797.52	37854.65
797.70	38180.28
797.88	37938.62
798.06	37535.17
798.24	38139.32
798.42	37993.92
798.60	37400.01
798.78	37739.97
798.96	37895.61
799.14	37158.34
799.32	37260.74
799.51	36783.57
799.69	37541.32
799.87	37320.13
800.05	36558.29
800.23	36726.22
800.41	36689.36
800.59	36701.65
800.77	36443.60
800.95	36363.73
801.13	36576.72
801.31	36457.94
801.49	36459.99
801.67	35720.67
801.85	36181.46
802.03	35870.17
802.21	35841.50
802.39	36079.07
802.57	35849.69
802.75	35800.54
802.93	35509.73
803.11	35610.08
803.29	35206.63
803.47	35229.16
803.65	35423.72
803.83	35124.71
804.01	35229.16
804.19	34895.34
804.37	34838.00
804.55	34784.75
804.73	34903.53
804.91	34717.17
805.09	34743.79
805.27	34858.48
805.45	34756.08
805.63	34592.24
805.81	34895.34
805.99	34438.64
806.17	34686.45
806.35	34221.56
806.53	34153.97
806.71	34649.58
806.89	34035.19
807.07	33857.02
807.25	34096.63
807.43	34117.11
807.61	34278.90
807.79	33555.97
807.97	33822.20
808.15	33666.56
808.33	33238.53
808.51	33783.29
808.69	33660.41
808.87	33232.39
809.05	33252.87
809.23	33406.47
809.41	33107.46
809.59	32986.63
809.77	33168.90
809.95	33046.02
810.13	32923.15
810.31	32939.53
810.49	32560.66
810.67	32773.64
810.84	32495.12
811.02	32816.65
811.20	32466.45
811.38	32419.35
811.56	32241.17
811.74	32372.24
811.92	32036.38
812.10	32151.06
812.28	32593.42
812.46	32454.16
812.64	32204.31
812.82	31759.90
813.00	31948.31
813.18	32130.58
813.36	31620.64
813.53	31548.96
813.71	31671.84
813.89	31612.45
814.07	31882.78
814.25	31505.95
814.43	31555.10
814.61	31393.31
814.79	31522.34
814.97	31239.72
815.15	31260.20
815.33	30723.63
815.50	30979.62
815.68	31217.19
815.86	31131.17
816.04	30729.77
816.22	30901.80
816.40	30565.93
816.58	30803.50
816.76	30432.82
816.94	30705.20
817.11	30654.00
817.29	30209.59
817.47	30467.63
817.65	30559.79
817.83	30690.86
818.01	30215.73
818.19	30150.20
818.37	30092.85
818.54	30189.11
818.72	30037.56
818.90	30113.33
819.08	29681.21
819.26	29859.38
819.44	29847.10
819.62	29965.88
819.80	29924.92
819.97	29918.78
820.15	29972.02
820.33	29625.92
820.51	29572.67
820.69	29601.34
820.87	29838.90
821.05	29806.14
821.22	29320.77
821.40	29681.21
821.58	29496.89
821.76	29355.58
821.94	29374.02
822.12	29265.47
822.29	29204.03
822.47	29175.36
822.65	29337.15
822.83	29552.19
823.01	29007.43
823.19	28862.02
823.36	28806.73
823.54	28544.59
823.72	28823.11
823.90	28601.93
824.08	28624.46
824.25	28929.61
824.43	28464.72
824.61	28773.96
824.79	28685.90
824.97	28235.35
825.15	28782.15
825.32	28251.73
825.50	28409.42
825.68	28270.16
825.86	28292.69
826.04	28231.25
826.21	28307.02
826.39	27903.57
826.57	28673.61
826.75	27928.15
826.93	27879.00
827.10	28020.31
827.28	27997.78
827.46	28075.60
827.64	27993.68
827.81	27680.35
827.99	27909.72
828.17	27682.39
828.35	27842.14
828.53	27719.26
828.70	27868.76
828.88	27612.76
829.06	27698.78
829.24	27698.78
829.41	27217.50
829.59	27731.54
829.77	27647.58
829.95	27248.22
830.12	27227.74
830.30	27233.89
830.48	27438.69
830.66	27004.52
830.84	27315.81
831.01	27387.49
831.19	27397.73
831.37	27283.04
831.55	26766.95
831.72	27270.75
831.90	27244.13
832.08	26938.98
832.25	26658.41
832.43	27154.02
832.61	26725.99
832.79	26635.88
832.96	26832.49
833.14	26605.16
833.32	26752.62
833.50	26826.34
833.67	26740.33
833.85	26781.29
834.03	26082.93
834.20	26803.82
834.38	26484.33
834.56	26633.83
834.74	26410.60
834.91	26556.01
835.09	26447.47
835.27	25890.42
835.44	26170.99
835.62	25747.06
835.80	26250.86
835.98	26486.38
836.15	26191.47
836.33	26134.13
836.51	26513.00
836.68	25675.38
836.86	26003.06
837.04	26037.87
837.21	26146.42
837.39	26078.83
837.57	26003.06
837.75	26029.68
837.92	25726.58
838.10	25736.82
838.28	25255.55
838.45	25400.96
838.63	25761.40
838.81	25579.13
838.98	25327.23
839.16	25220.74
839.34	25620.09
839.51	25556.60
839.69	25562.75
839.87	25181.82
840.04	25241.21
840.22	25550.46
840.40	25251.45
840.57	25022.08
840.75	25067.14
840.93	24983.17
841.10	25071.23
841.28	24940.16
841.46	24938.12
841.63	25190.02
841.81	24907.40
841.98	24985.22
842.16	25077.38
842.34	25261.69
842.51	24866.44
842.69	24768.13
842.87	24891.01
843.04	25085.57
843.22	24438.41
843.40	24766.09
843.57	24557.19
843.75	24776.33
843.92	24712.84
844.10	24671.88
844.28	24630.92
844.45	24561.29
844.63	24635.02
844.81	24460.94
844.98	24403.60
845.16	24436.36
845.33	24071.82
845.51	24067.73
845.69	24446.60
845.86	24057.49
846.04	24096.40
846.21	24448.65
846.39	24333.96
846.57	24006.29
846.74	24274.57
846.92	23963.28
847.09	23981.71
847.27	23983.76
847.45	23969.43
847.62	24270.48
847.80	24110.74
847.97	23977.62
848.15	23969.43
848.32	23674.52
848.50	23725.72
848.68	23486.11
848.85	23475.87
849.03	23494.30
849.20	23752.34
849.38	23672.47
849.56	23799.44
849.73	23318.17
849.91	23568.02
850.08	23328.41
850.26	23381.66
850.43	23592.60
850.61	23389.85
850.78	23160.48
850.96	23414.43
851.14	23060.13
851.31	23291.55
851.49	23154.33
851.66	23631.51
851.84	23240.35
852.01	23162.53
852.19	23056.03
852.36	23242.40
852.54	23123.62
852.71	22922.91
852.89	23160.48
853.07	23137.95
853.24	23187.10
853.42	23037.60
853.59	22767.27
853.77	22617.77
853.94	23187.10
854.12	23008.93
854.29	22562.47
854.47	22787.75
854.64	22591.14
854.82	22965.92
854.99	22941.35
855.17	22613.67
855.34	22431.40
855.52	22775.46
855.69	22390.44
855.87	22619.81
856.04	22484.65
856.22	22568.62
856.39	22197.93
856.57	22564.52
856.74	22107.82
856.92	22240.94
857.09	22263.47
857.27	22187.69
857.44	22408.87
857.62	22300.33
857.79	22410.92
857.97	22331.05
858.14	22298.28
858.32	21970.61
858.49	22050.48
858.67	22036.14
858.84	21894.83
859.02	22113.97
859.19	21821.11
859.37	22269.61
859.54	21853.87
859.72	22050.48
859.89	21946.03
860.06	22021.81
860.24	21722.80
860.41	22040.24
860.59	21634.74
860.76	21894.83
860.94	21608.12
861.11	21763.76
861.29	21710.52
861.46	21456.57
861.64	21526.20
861.81	21685.94
861.98	21591.73
862.16	21212.86
862.33	21384.89
862.51	21450.42
862.68	21673.65
862.86	21554.87
863.03	21051.07
863.21	21243.58
863.38	21116.61
863.55	21184.19
863.73	21434.04
863.90	21221.05
864.08	21333.69
864.25	20762.31
864.43	21227.20
864.60	20924.10
864.77	20922.05
864.95	21141.18
865.12	20739.78
865.30	21077.69
865.47	20795.07
865.64	20989.63
865.82	20829.89
865.99	20930.24
866.17	20879.04
866.34	20639.43
866.51	20590.28
866.69	20631.24
866.86	20602.57
867.04	20713.16
867.21	20596.42
867.38	20647.62
867.56	20528.84
867.73	20180.68
867.91	20186.83
868.08	20502.22
868.25	20160.20
868.43	20182.73
868.60	20340.43
868.78	19844.82
868.95	20491.98
869.12	20293.32
869.30	20262.60
869.47	20225.74
869.64	20086.48
869.82	20123.34
869.99	20074.19
870.16	20162.25
870.34	20217.55
870.51	19920.59
870.69	19850.96
870.86	19853.01
871.03	19961.55
871.21	19810.00
871.38	19838.67
871.55	19781.33
871.73	19941.07
871.90	19582.68
872.07	19451.61
872.25	19302.11
872.42	19484.37
872.59	19545.81
872.77	19572.44
872.94	19248.86
873.11	19523.29
873.29	19523.29
873.46	19185.37
873.63	19164.89
873.81	19357.40
873.98	19011.29
874.15	19164.89
874.33	18802.40
874.50	19113.69
874.67	19175.13
874.85	18853.60
875.02	18773.73
875.19	18867.94
875.37	18939.62
875.54	18677.48
875.71	18579.17
875.88	18697.95
876.06	18685.67
876.23	18769.63
876.40	18734.82
876.58	18589.41
876.75	18525.93
876.92	18556.64
877.10	18544.36
877.27	18734.82
877.44	18433.77
877.61	18345.70
877.79	18728.67
877.96	18271.98
878.13	18257.64
878.31	18411.24
878.48	18034.41
878.65	17993.45
878.82	18034.41
879.00	18190.06
879.17	18063.08
879.34	18226.92
879.51	17905.39
879.69	18149.10
879.86	17716.98
880.03	17714.93
880.21	17837.81
880.38	18036.46
880.55	17843.95
880.72	17557.24
880.90	17946.35
881.07	17706.74
881.24	17772.27
881.41	17716.98
881.59	17757.94
881.76	17643.25
881.93	17579.76
882.10	17465.08
882.28	17555.19
882.45	17676.02
882.62	17661.68
882.79	17622.77
882.96	17112.83
883.14	17340.15
883.31	17577.72
883.48	17366.78
883.65	17479.41
883.83	17295.10
884.00	17200.89
884.17	17481.46
884.34	17170.17
884.51	17432.31
884.69	17002.24
884.86	17196.79
885.03	17161.98
885.20	16766.72
885.38	17125.11
885.55	17247.99
885.72	17125.11
885.89	17256.18
886.06	16928.51
886.24	16940.80
886.41	17030.91
886.58	17233.66
886.75	17059.58
886.92	16871.17
887.10	16895.74
887.27	16635.65
887.44	16948.99
887.61	16959.23
887.78	16842.50
887.95	16723.71
888.13	16652.03
888.30	16641.79
888.47	16885.50
888.64	16635.65
888.81	16473.86
888.99	16684.80
889.16	16492.29
889.33	16514.82
889.50	16482.05
889.67	16385.80
889.84	16500.48
890.01	16299.78
890.19	16412.42
890.36	16322.31
890.53	16303.88
890.70	16187.14
890.87	16348.93
891.04	16109.32
891.22	16187.14
891.39	15988.49
891.56	15929.10
891.73	16056.08
891.90	15890.19
892.07	15953.68
892.24	15994.64
892.42	15990.54
892.59	15953.68
892.76	15845.13
892.93	15755.02
893.10	16000.78
893.27	16144.14
893.44	15806.22
893.61	15642.39
893.79	15908.62
893.96	15716.11
894.13	15970.06
894.30	15773.46
894.47	15781.65
894.64	16127.75
894.81	15845.13
894.98	15918.86
895.15	15816.46
895.33	15501.08
895.50	15822.61
895.67	15798.03
895.84	15834.89
896.01	15658.77
896.18	15750.93
896.35	15785.74
896.52	15703.82
896.69	15417.11
896.86	15802.13
897.04	15501.08
897.21	16011.02
897.38	15742.74
897.55	15699.73
897.72	15658.77
897.89	15855.37
898.06	15511.32
898.23	15795.98
898.40	15513.36
898.57	15626.00
898.74	15361.81
898.91	15374.10
899.08	15675.15
899.26	15580.95
899.43	15533.84
899.60	15462.16
899.77	15597.33
899.94	15582.99
900.11	15310.61
900.28	15681.30
900.45	15370.01
900.62	15730.45
900.79	15658.77
900.96	15716.11
901.13	15398.68
901.30	15367.96
901.47	15240.98
901.64	15515.41
901.81	15415.06
901.98	15181.59
902.15	15607.57
902.32	15384.34
902.49	15216.41
902.66	15482.64
902.83	15685.39
903.01	15361.81
903.18	15642.39
903.35	15392.53
903.52	15202.07
903.69	15513.36
903.86	15351.57
904.03	15406.87
904.20	15632.15
904.37	15370.01
904.54	15423.25
904.71	15605.52
904.88	15220.50
905.05	15224.60
905.22	15372.05
905.39	15109.91
905.56	15318.81
905.73	15275.80
905.90	15265.56
906.07	15404.82
906.24	15228.70
906.41	15275.80
906.58	15468.31
906.75	15204.12
906.92	15228.70
907.09	15460.12
907.26	15097.63
907.43	14946.08
907.60	15277.85
907.77	15552.27
907.93	15234.84
908.10	15230.74
908.27	15370.01
908.44	15310.61
908.61	15249.18
908.78	15298.33
908.95	15191.83
909.12	15118.11
909.29	15150.87
909.46	15202.07
909.63	15353.62
909.80	15253.27
909.97	15435.54
910.14	15195.93
910.31	15263.51
910.48	15339.29
910.65	15251.22
910.82	14976.80
910.99	15142.68
911.16	15173.40
911.33	15118.11
911.50	15025.95
911.66	15038.23
911.83	15146.78
912.00	14685.98
912.17	14753.57
912.34	14880.54
912.51	14638.88
912.68	14749.47
912.85	14587.68
913.02	14763.81
913.19	14878.49
913.36	14890.78
913.53	14677.79
913.70	14700.32
913.86	14753.57
914.03	14909.21
914.20	14663.46
914.37	14618.40
914.54	14632.74
914.71	14614.30
914.88	14681.89
915.05	14501.67
915.22	14581.54
915.39	14544.67
915.55	14616.35
915.72	14462.76
915.89	14219.05
916.06	14360.36
916.23	14094.12
916.40	14348.07
916.57	14151.46
916.74	14272.29
916.91	14026.54
917.07	14044.97
917.24	13770.54
917.41	13924.14
917.58	13936.43
917.75	13868.84
917.92	13657.90
918.09	13836.08
918.26	13854.51
918.42	13649.71
918.59	13791.02
918.76	13588.27
918.93	13664.05
919.10	13479.73
919.27	13541.17
919.44	13854.51
919.60	13653.81
919.77	13668.14
919.94	13528.88
920.11	13381.43
920.28	13449.01
920.45	13528.88
920.61	13143.86
920.78	13190.97
920.95	13186.87
921.12	13229.88
921.29	13127.48
921.46	13139.77
921.62	13080.38
921.79	13027.13
921.96	13012.79
922.13	12844.86
922.30	12898.11
922.47	12912.44
922.63	12683.07
922.80	12586.82
922.97	12681.02
923.14	12502.85
923.31	12570.43
923.47	12343.11
923.64	12830.52
923.81	12437.31
923.98	12306.24
924.15	12326.72
924.32	12429.12
924.48	12111.69
924.65	12289.86
924.82	12199.75
924.99	12015.43
925.15	11851.60
925.32	12343.11
925.49	12150.60
925.66	12001.10
925.83	11880.27
925.99	11898.70
926.16	11933.51
926.33	11878.22
926.50	11654.99
926.67	11648.85
926.83	11593.55
927.00	11689.81
927.17	11638.61
927.34	11405.14
927.50	11302.74
927.67	11542.35
927.84	11530.06
928.01	11312.98
928.17	11243.35
928.34	11233.11
928.51	11173.72
928.68	11054.94
928.84	10927.96
929.01	11128.66
929.18	10934.11
929.35	10891.10
929.51	10841.95
929.68	10925.91
929.85	10866.52
930.02	10850.14
930.18	10739.55
930.35	10788.70
930.52	10489.70
930.69	10618.72
930.85	10504.03
931.02	10469.22
931.19	10549.09
931.36	10272.61
931.52	10325.86
931.69	10463.07
931.86	10340.19
932.02	10329.95
932.19	10309.47
932.36	9963.37
932.53	10149.73
932.69	9981.80
932.86	10094.44
933.03	10010.47
933.19	10055.53
933.36	9893.74
933.53	9625.45
933.70	9785.19
933.86	9895.78
934.03	9607.02
934.20	9437.04
934.36	9594.73
934.53	9301.87
934.70	9351.03
934.86	9465.71
935.03	9295.73
935.20	9168.76
935.36	9232.24
935.53	8826.75
935.70	9088.89
935.86	8906.62
936.03	8900.47
936.20	8857.46
936.36	8660.86
936.53	8550.27
936.70	8554.37
936.86	8728.44
937.03	8492.93
937.20	8357.76
937.36	8335.23
937.53	8079.24
937.70	8093.57
937.86	7960.45
938.03	7931.78
938.20	8007.56
938.36	7806.86
938.53	7761.80
938.70	7649.16
938.86	7718.79
939.03	7511.95
939.20	7503.76
939.36	7440.27
939.53	7149.46
939.70	7417.74
939.86	7147.41
940.03	7030.68
940.19	6840.22
940.36	7024.53
940.53	6901.65
940.69	6694.81
940.86	6696.86
941.03	6719.39
941.19	6584.22
941.36	6451.10
941.52	6520.73
941.69	6205.35
941.86	6354.85
942.02	6299.55
942.19	6141.86
942.35	6311.84
942.52	5994.40
942.69	6090.66
942.85	6014.88
943.02	5965.73
943.18	5982.12
943.35	5894.05
943.52	5832.62
943.68	5980.07
943.85	5767.08
944.01	5762.98
944.18	5633.96
944.35	5611.43
944.51	5730.22
944.68	5582.76
944.84	5533.61
945.01	5590.95
945.17	5668.78
945.34	5601.19
945.51	5570.48
945.67	5457.84
945.84	5375.92
946.00	5332.91
946.17	5382.06
946.33	5369.77
946.50	5384.11
946.67	5388.21
946.83	5349.29
947.00	5312.43
947.16	5234.61
947.33	5398.45
947.49	5416.88
947.66	5269.42
947.82	5427.12
947.99	5353.39
948.16	5271.47
948.32	5269.42
948.49	5494.70
948.65	5294.00
948.82	5271.47
948.98	5349.29
949.15	5285.81
949.31	5439.40
949.48	5365.68
949.64	5304.24
949.81	5289.90
949.97	5361.58
950.14	5343.15
950.30	5232.56
950.47	5384.11
950.63	5343.15
950.80	5316.53
950.96	5435.31
951.13	5449.64
951.30	5279.66
951.46	5474.22
951.63	5447.60
951.79	5341.10
951.96	5351.34
952.12	5369.77
952.29	5375.92
952.45	5320.62
952.62	5431.21
952.78	5337.01
952.94	5447.60
953.11	5457.84
953.27	5337.01
953.44	5384.11
953.60	5531.56
953.77	5449.64
953.93	5513.13
954.10	5433.26
954.26	5552.04
954.43	5502.89
954.59	5541.80
954.76	5640.11
954.92	5410.73
955.09	5566.38
955.25	5412.78
955.42	5629.87
955.58	5572.52
955.75	5521.32
955.91	5232.56
956.07	5441.45
956.24	5574.57
956.40	5496.75
956.57	5568.43
956.73	5439.40
956.90	5537.71
957.06	5400.49
957.23	5466.03
957.39	5431.21
957.56	5412.78
957.72	5435.31
957.88	5459.88
958.05	5550.00
958.21	5613.48
958.38	5568.43
958.54	5511.08
958.71	5691.31
958.87	5453.74
959.03	5445.55
959.20	5457.84
959.36	5375.92
959.53	5408.69
959.69	5427.12
959.85	5609.39
960.02	5425.07
960.18	5574.57
960.35	5621.67
960.51	5734.31
960.68	5500.84
960.84	5713.83
961.00	5593.00
961.17	5457.84
961.33	5486.51
961.50	5525.42
961.66	5420.97
961.82	5509.04
961.99	5361.58
962.15	5535.66
962.31	5353.39
962.48	5433.26
962.64	5509.04
962.81	5447.60
962.97	5515.18
963.13	5396.40
963.30	5461.93
963.46	5478.32
963.62	5384.11
963.79	5572.52
963.95	5361.58
964.12	5525.42
964.28	5375.92
964.44	5498.80
964.61	5369.77
964.77	5365.68
964.93	5443.50
965.10	5533.61
965.26	5386.16
965.42	5265.33
965.59	5265.33
965.75	5414.83
965.92	5296.05
966.08	5240.75
966.24	5349.29
966.41	5230.51
966.57	5367.73
966.73	5423.02
966.90	5263.28
967.06	5312.43
967.22	5130.16
967.39	5312.43
967.55	5201.84
967.71	5304.24
967.88	5203.89
968.04	5201.84
968.20	5173.17
968.37	5197.74
968.53	5201.84
968.69	5087.15
968.85	5259.18
969.02	5207.98
969.18	5300.14
969.34	5205.94
969.51	5167.03
969.67	5291.95
969.83	4990.90
970.00	5212.08
970.16	5083.06
970.32	5146.55
970.48	5148.59
970.65	4921.27
970.81	4941.75
970.97	4966.32
971.14	4855.73
971.30	5173.17
971.46	4960.18
971.63	4972.47
971.79	5070.77
971.95	5089.20
972.11	5031.86
972.28	4962.23
972.44	4974.52
972.60	4972.47
972.76	5023.67
972.93	4861.88
973.09	5048.24
973.25	4943.80
973.42	4980.66
973.58	5046.20
973.74	4956.08
973.90	5058.48
974.07	4765.62
974.23	4788.15
974.39	4808.63
974.55	4802.49
974.72	4853.69
974.88	4794.29
975.04	4829.11
975.20	4919.22
975.37	4827.06
975.53	4761.53
975.69	4747.19
975.85	4777.91
976.01	4718.52
976.18	4706.23
976.34	4749.24
976.50	4784.06
976.66	4796.34
976.83	4599.74
976.99	4571.07
977.15	4659.13
977.31	4638.65
977.47	4624.31
977.64	4659.13
977.80	4669.37
977.96	4581.31
978.12	4624.31
978.29	4665.27
978.45	4540.35
978.61	4513.72
978.77	4599.74
978.93	4526.01
979.10	4691.90
979.26	4542.39
979.42	4444.09
979.58	4413.37
979.74	4507.58
979.91	4517.82
980.07	4579.26
980.23	4392.89
980.39	4487.10
980.55	4415.42
980.71	4466.62
980.88	4427.71
981.04	4360.13
981.20	4446.14
981.36	4493.24
981.52	4425.66
981.68	4374.46
981.85	4349.89
982.01	4317.12
982.17	4364.22
982.33	4372.41
982.49	4333.50
982.65	4474.81
982.82	4325.31
982.98	4429.76
983.14	4196.29
983.30	4351.93
983.46	4319.17
983.62	4292.54
983.79	4222.91
983.95	4153.28
984.11	4149.18
984.27	4272.06
984.43	4247.49
984.59	4231.10
984.75	4278.21
984.91	4165.57
985.08	4190.14
985.24	4122.56
985.40	4026.31
985.56	4259.78
985.72	4190.14
985.88	4229.06
986.04	4116.42
986.20	4050.88
986.37	4116.42
986.53	4097.99
986.69	4020.16
986.85	4081.60
987.01	4040.64
987.17	4042.69
987.33	3950.53
987.49	4016.07
987.65	4016.07
987.82	3997.64
987.98	3954.63
988.14	4034.50
988.30	3999.68
988.46	3798.98
988.62	3932.10
988.78	3870.66
988.94	3919.81
989.10	3940.29
989.26	3866.56
989.42	3837.89
989.59	3788.74
989.75	3813.32
989.91	3854.28
990.07	3676.10
990.23	3837.89
990.39	3823.56
990.55	3887.04
990.71	3809.22
990.87	3751.88
991.03	3778.50
991.19	3749.83
991.35	3717.06
991.51	3764.17
991.67	3833.80
991.83	3751.88
992.00	3755.97
992.16	3721.16
992.32	3837.89
992.48	3604.42
992.64	3655.62
992.80	3764.17
992.96	3616.71
993.12	3657.67
993.28	3712.97
993.44	3678.15
993.60	3741.64
993.76	3612.62
993.92	3698.63
994.08	3674.06
994.24	3745.73
994.40	3616.71
994.56	3727.30
994.72	3598.28
994.88	3592.14
995.04	3604.42
995.20	3657.67
995.36	3430.35
995.52	3518.41
995.68	3485.64
995.84	3506.12
996.00	3672.01
996.16	3467.21
996.32	3485.64
996.48	3330.00
996.64	3557.32
996.80	3467.21
996.96	3606.47
997.12	3323.85
997.28	3448.78
997.44	3432.40
997.60	3469.26
997.76	3491.79
997.92	3473.36
998.08	3442.64
998.24	3323.85
998.40	3436.49
998.56	3368.91
998.72	3305.42
998.88	3241.93
999.04	3364.81
999.20	3403.72
999.36	3237.84
999.52	3383.24
999.68	3258.32
999.84	3321.81
1000.00	3327.95
1000.16	3299.28
1000.32	3153.87
1000.48	3497.93
1000.64	3092.43
1000.80	3200.98
1000.95	3305.42
1001.11	3248.08
1001.27	3141.58
1001.43	3229.65
1001.59	3067.86
1001.75	3194.83
1001.91	3196.88
1002.07	3080.14
1002.23	3157.97
1002.39	3160.02
1002.55	3219.41
1002.71	3182.54
1002.87	3121.10
1003.03	3074.00
1003.19	3223.50
1003.34	3149.78
1003.50	3176.40
1003.66	3186.64
1003.82	3057.62
1003.98	3026.90
1004.14	3170.26
1004.30	3108.82
1004.46	3063.76
1004.62	3092.43
1004.78	3037.14
1004.94	3059.67
1005.09	3108.82
1005.25	3078.10
1005.41	2981.84
1005.57	3069.91
1005.73	3071.95
1005.89	2934.74
1006.05	2957.27
1006.21	3014.61
1006.37	2961.36
1006.52	2951.12
1006.68	2858.96
1006.84	3088.34
1007.00	2824.15
1007.16	2977.75
1007.32	2912.21
1007.48	2846.68
1007.64	2887.64
1007.79	2873.30
1007.95	2848.72
1008.11	2873.30
1008.27	2858.96
1008.43	2840.53
1008.59	2856.92
1008.75	2832.34
1008.91	2854.87
1009.06	2738.13
1009.22	2856.92
1009.38	2793.43
1009.54	2807.77
1009.70	2836.44
1009.86	2848.72
1010.01	2775.00
1010.17	2744.28
1010.33	2791.38
1010.49	2709.46
1010.65	2879.44
1010.81	2721.75
1010.96	2754.52
1011.12	2727.89
1011.28	2688.98
1011.44	2727.89
1011.60	2721.75
1011.76	2717.65
1011.91	2824.15
1012.07	2746.33
1012.23	2611.16
1012.39	2684.89
1012.55	2707.41
1012.71	2590.68
1012.86	2590.68
1013.02	2701.27
1013.18	2627.54
1013.34	2676.70
1013.50	2750.42
1013.65	2682.84
1013.81	2637.78
1013.97	2553.82
1014.13	2666.46
1014.29	2531.29
1014.44	2611.16
1014.60	2641.88
1014.76	2584.54
1014.92	2611.16
1015.07	2574.30
1015.23	2594.78
1015.39	2400.22
1015.55	2514.91
1015.71	2580.44
1015.86	2553.82
1016.02	2473.95
1016.18	2516.95
1016.34	2494.43
1016.49	2525.15
1016.65	2498.52
1016.81	2490.33
1016.97	2525.15
1017.12	2553.82
1017.28	2510.81
1017.44	2441.18
1017.60	2432.99
1017.75	2430.94
1017.91	2523.10
1018.07	2531.29
1018.23	2396.12
1018.38	2502.62
1018.54	2420.70
1018.70	2443.23
1018.86	2387.93
1019.01	2379.74
1019.17	2410.46
1019.33	2498.52
1019.49	2471.90
1019.64	2379.74
1019.80	2334.68
1019.96	2418.65
1020.12	2396.12
1020.27	2330.59
1020.43	2424.80
1020.59	2365.40
1020.74	2381.79
1020.90	2406.36
1021.06	2211.81
1021.22	2351.07
1021.37	2355.16
1021.53	2224.09
1021.69	2318.30
1021.84	2230.24
1022.00	2328.54
1022.16	2242.53
1022.31	2285.53
1022.47	2310.11
1022.63	2297.82
1022.79	2246.62
1022.94	2244.57
1023.10	2285.53
1023.26	2277.34
1023.41	2312.16
1023.57	2242.53
1023.73	2228.19
1023.88	2332.64
1024.04	2125.79
1024.20	2183.13
1024.35	2383.84
1024.51	2176.99
1024.67	2127.84
1024.82	2361.31
1024.98	2193.37
1025.14	2213.85
1025.29	2199.52
1025.45	2297.82
1025.61	2158.56
1025.76	2189.28
1025.92	2201.57
1026.08	2295.77
1026.23	2228.19
1026.39	2162.66
1026.55	2203.61
1026.70	2191.33
1026.86	2205.66
1027.02	2123.74
1027.17	2244.57
1027.33	2248.67
1027.48	2203.61
1027.64	2127.84
1027.80	2150.37
1027.95	2213.85
1028.11	2050.02
1028.27	2248.67
1028.42	2238.43
1028.58	2058.21
1028.73	1992.67
1028.89	2138.08
1029.05	2252.77
1029.20	2115.55
>>>>>End Processed Spectral Data<<<<<
