SpectraSuite Data File
++++++++++++++++++++++++++++++++++++
Date: Fri Jun 02 14:53:31 CEST 2017
User: INFO_000
Dark Spectrum Present: No
Reference Spectrum Present: No
Number of Sampled Component Spectra: 1
Spectrometers: USB4H00879
Integration Time (usec): 80000 (USB4H00879)
Spectra Averaged: 1 (USB4H00879)
Boxcar Smoothing: 0 (USB4H00879)
Correct for Electrical Dark: No (USB4H00879)
Strobe/Lamp Enabled: No (USB4H00879)
Correct for Detector Non-linearity: No (USB4H00879)
Correct for Stray Light: No (USB4H00879)
Number of Pixels in Processed Spectrum: 3648
>>>>>Begin Processed Spectral Data<<<<<
345.13	1239.02
345.34	1239.02
345.56	1239.02
345.78	1206.25
345.99	1261.55
346.21	1753.06
346.42	1722.34
346.64	1669.09
346.86	1834.98
347.07	1603.56
347.29	1712.10
347.50	1691.62
347.72	1626.09
347.94	1771.49
348.15	1585.13
348.37	1611.75
348.59	1697.77
348.80	1708.01
349.02	1816.55
349.23	1894.37
349.45	1837.03
349.67	1859.56
349.88	1925.09
350.10	1945.57
350.31	1804.26
350.53	1863.65
350.75	1978.34
350.96	1779.68
351.18	1875.94
351.39	1869.80
351.61	1798.12
351.82	1966.05
352.04	1976.29
352.26	1869.80
352.47	1964.00
352.69	1912.80
352.90	1757.16
353.12	1826.79
353.34	1820.64
353.55	1939.43
353.77	1873.89
353.98	1877.99
354.20	1841.12
354.41	1855.46
354.63	1945.57
354.85	2000.87
355.06	1861.60
355.28	1867.75
355.49	1849.32
355.71	1964.00
355.92	1904.61
356.14	1961.95
356.35	1880.04
356.57	1802.21
356.79	1937.38
357.00	1785.83
357.22	1951.71
357.43	1904.61
357.65	2068.45
357.86	1892.32
358.08	1931.23
358.29	1978.34
358.51	1951.71
358.72	2021.35
358.94	1990.63
359.16	1902.56
359.37	1918.95
359.59	1986.53
359.80	2052.06
360.02	1988.58
360.23	1937.38
360.45	2039.78
360.66	1882.08
360.88	1882.08
361.09	1976.29
361.31	1968.10
361.52	2025.44
361.74	2058.21
361.95	2031.58
362.17	2009.06
362.38	2041.82
362.60	2074.59
362.81	1959.91
363.03	1978.34
363.24	1980.39
363.46	2095.07
363.67	1984.48
363.89	1957.86
364.10	1992.67
364.32	2031.58
364.53	2041.82
364.75	1937.38
364.96	2052.06
365.18	2050.02
365.39	1982.43
365.61	1982.43
365.82	2117.60
366.04	2031.58
366.25	1957.86
366.47	1920.99
366.68	2043.87
366.90	1984.48
367.11	2023.39
367.33	2099.17
367.54	2068.45
367.76	2050.02
367.97	2166.75
368.19	2062.30
368.40	2095.07
368.62	1966.05
368.83	2000.87
369.05	2127.84
369.26	1927.14
369.48	2037.73
369.69	2064.35
369.91	2068.45
370.12	2043.87
370.33	2154.46
370.55	1984.48
370.76	1959.91
370.98	2150.37
371.19	2047.97
371.41	1994.72
371.62	2170.85
371.84	2027.49
372.05	2142.18
372.27	2043.87
372.48	2068.45
372.69	2054.11
372.91	2224.09
373.12	2144.22
373.34	2107.36
373.55	2181.09
373.77	2199.52
373.98	2052.06
374.20	2220.00
374.41	2279.39
374.62	2226.14
374.84	2189.28
375.05	2193.37
375.27	2236.38
375.48	2199.52
375.70	2209.76
375.91	2287.58
376.12	2289.63
376.34	2144.22
376.55	2109.41
376.77	2215.90
376.98	2131.94
377.19	2166.75
377.41	2125.79
377.62	2181.09
377.84	2250.72
378.05	2387.93
378.27	2170.85
378.48	2355.16
378.69	2404.32
378.91	2310.11
379.12	2293.72
379.34	2238.43
379.55	2303.96
379.76	2297.82
379.98	2260.96
380.19	2338.78
380.41	2275.29
380.62	2314.20
380.83	2312.16
381.05	2287.58
381.26	2453.47
381.47	2207.71
381.69	2269.15
381.90	2441.18
382.12	2269.15
382.33	2371.55
382.54	2267.10
382.76	2346.97
382.97	2349.02
383.19	2275.29
383.40	2385.88
383.61	2322.40
383.83	2285.53
384.04	2359.26
384.25	2408.41
384.47	2363.36
384.68	2351.07
384.89	2379.74
385.11	2306.01
385.32	2410.46
385.54	2349.02
385.75	2340.83
385.96	2422.75
386.18	2406.36
386.39	2484.19
386.60	2394.08
386.82	2447.32
387.03	2410.46
387.24	2504.67
387.46	2502.62
387.67	2568.15
387.88	2600.92
388.10	2406.36
388.31	2486.23
388.52	2564.06
388.74	2551.77
388.95	2498.52
389.16	2654.17
389.38	2543.58
389.59	2523.10
389.80	2607.06
390.02	2525.15
390.23	2621.40
390.44	2572.25
390.66	2568.15
390.87	2498.52
391.08	2541.53
391.30	2664.41
391.51	2605.02
391.72	2635.74
391.94	2602.97
392.15	2600.92
392.36	2566.10
392.58	2602.97
392.79	2723.80
393.00	2691.03
393.22	2627.54
393.43	2658.26
393.64	2738.13
393.85	2772.95
394.07	2568.15
394.28	2723.80
394.49	2889.68
394.71	2779.09
394.92	2834.39
395.13	2658.26
395.35	2830.29
395.56	2693.08
395.77	2766.81
395.98	2789.33
396.20	2912.21
396.41	2887.64
396.62	2961.36
396.84	2830.29
397.05	2887.64
397.26	2879.44
397.47	2940.88
397.69	2758.61
397.90	3037.14
398.11	2899.92
398.32	2973.65
398.54	2879.44
398.75	2830.29
398.96	2992.08
399.18	3041.23
399.39	3000.27
399.60	2994.13
399.81	3033.04
400.03	2912.21
400.24	3123.15
400.45	2953.17
400.66	3022.80
400.88	2961.36
401.09	3180.50
401.30	3006.42
401.51	3108.82
401.73	3049.43
401.94	3147.73
402.15	3207.12
402.36	3088.34
402.58	3323.85
402.79	3205.07
403.00	3186.64
403.21	3239.89
403.43	3141.58
403.64	3190.74
403.85	3180.50
404.06	3321.81
404.27	3078.10
404.49	3223.50
404.70	3186.64
404.91	3262.41
405.12	3270.61
405.34	3264.46
405.55	3450.83
405.76	3108.82
405.97	3080.14
406.19	3465.16
406.40	3268.56
406.61	3381.20
406.82	3297.23
407.03	3270.61
407.25	3379.15
407.46	3479.50
407.67	3456.97
407.88	3424.20
408.09	3366.86
408.31	3442.64
408.52	3348.43
408.73	3401.68
408.94	3407.82
409.15	3430.35
409.37	3555.27
409.58	3510.22
409.79	3493.83
410.00	3557.32
410.21	3547.08
410.43	3442.64
410.64	3428.30
410.85	3536.84
411.06	3493.83
411.27	3567.56
411.48	3614.66
411.70	3616.71
411.91	3581.90
412.12	3624.90
412.33	3690.44
412.54	3657.67
412.76	3882.95
412.97	3786.69
413.18	3549.13
413.39	3645.38
413.60	3653.58
413.81	3723.21
414.03	3635.14
414.24	3657.67
414.45	3848.13
414.66	3690.44
414.87	3747.78
415.08	3727.30
415.30	3764.17
415.51	3897.28
415.72	3747.78
415.93	3717.06
416.14	3952.58
416.35	3782.60
416.56	3958.72
416.78	3774.41
416.99	3942.34
417.20	3893.19
417.41	3862.47
417.62	3805.13
417.83	4018.11
418.04	4018.11
418.26	4040.64
418.47	3985.35
418.68	4057.03
418.89	3966.92
419.10	4249.54
419.31	4138.94
419.52	4202.43
419.73	4095.94
419.95	4116.42
420.16	4050.88
420.37	4132.80
420.58	4155.33
420.79	4149.18
421.00	4130.75
421.21	4245.44
421.42	4106.18
421.63	4179.90
421.85	4218.82
422.06	4343.74
422.27	4265.92
422.48	4267.97
422.69	4286.40
422.90	4351.93
423.11	4337.60
423.32	4360.13
423.53	4558.78
423.75	4530.11
423.96	4487.10
424.17	4466.62
424.38	4665.27
424.59	4476.86
424.80	4630.46
425.01	4497.34
425.22	4444.09
425.43	4433.85
425.64	4636.60
425.85	4749.24
426.06	4657.08
426.28	4749.24
426.49	4575.16
426.70	4577.21
426.91	4597.69
427.12	4847.54
427.33	4784.06
427.54	4753.34
427.75	4675.51
427.96	4845.49
428.17	4796.34
428.38	4833.21
428.59	5040.05
428.80	4775.86
429.01	4827.06
429.23	4777.91
429.44	5064.63
429.65	5076.91
429.86	4976.56
430.07	4956.08
430.28	5042.10
430.49	5175.22
430.70	5162.93
430.91	5134.26
431.12	5119.92
431.33	5210.03
431.54	5291.95
431.75	5271.47
431.96	5177.26
432.17	5113.78
432.38	5171.12
432.59	5410.73
432.80	5396.40
433.01	5296.05
433.22	5441.45
433.43	5275.57
433.64	5373.87
433.85	5226.42
434.06	5408.69
434.27	5320.62
434.49	5298.10
434.70	5468.08
434.91	5402.54
435.12	5539.76
435.33	5418.93
435.54	5410.73
435.75	5238.70
435.96	5341.10
436.17	5441.45
436.38	5455.79
436.59	5726.12
436.80	5636.01
437.01	5855.14
437.22	5758.89
437.43	5713.83
437.64	5425.07
437.85	5867.43
438.06	5873.57
438.27	5656.49
438.48	5793.70
438.69	5904.29
438.90	5871.53
439.11	5748.65
439.32	5803.94
439.53	5801.90
439.74	5779.37
439.95	5851.05
440.16	6000.55
440.37	5980.07
440.57	5791.66
440.78	6064.04
440.99	5945.25
441.20	5754.79
441.41	5967.78
441.62	5957.54
441.83	5871.53
442.04	5990.31
442.25	5937.06
442.46	5928.87
442.67	6223.78
442.88	6324.13
443.09	5988.26
443.30	6082.47
443.51	6182.82
443.72	6322.08
443.93	6162.34
444.14	6371.23
444.35	5986.21
444.56	6262.69
444.77	6236.06
444.98	6211.49
445.19	6383.52
445.40	6305.70
445.61	6449.05
445.81	6475.68
446.02	6533.02
446.23	6416.29
446.44	6279.07
446.65	6494.11
446.86	6520.73
447.07	6543.26
447.28	6756.25
447.49	6698.91
447.70	6526.88
447.91	6678.43
448.12	6526.88
448.33	6789.02
448.54	6825.88
448.74	6571.93
448.95	6764.44
449.16	6526.88
449.37	7014.29
449.58	6746.01
449.79	7049.11
450.00	6713.24
450.21	6938.52
450.42	7014.29
450.63	7012.24
450.84	7051.16
451.05	6973.33
451.25	7022.48
451.46	6940.57
451.67	7286.67
451.88	7139.22
452.09	7047.06
452.30	7176.08
452.51	7204.75
452.72	7251.86
452.93	7518.09
453.13	7192.47
453.34	7169.94
453.55	7282.58
453.76	7356.30
453.97	7636.88
454.18	7362.45
454.39	7729.03
454.60	7548.81
454.81	7540.62
455.01	7653.26
455.22	7481.23
455.43	7645.07
455.64	7870.34
455.85	7929.74
456.06	8009.61
456.27	7827.34
456.48	7794.57
456.68	8044.42
456.89	7939.97
457.10	7962.50
457.31	8128.39
457.52	7901.06
457.73	8034.18
457.94	8380.29
458.14	7999.37
458.35	8499.07
458.56	8345.47
458.77	8253.31
458.98	8228.74
459.19	8439.68
459.39	8527.74
459.60	8578.94
459.81	8497.02
460.02	8875.90
460.23	8437.63
460.44	8767.35
460.65	8710.01
460.85	8732.54
461.06	8873.85
461.27	8796.03
461.48	9125.75
461.69	9174.90
461.89	8781.69
462.10	9189.24
462.31	9029.49
462.52	9027.45
462.73	8968.06
462.94	9394.03
463.14	9246.58
463.35	9320.31
463.56	9666.41
463.77	9443.18
463.98	9318.26
464.18	9504.62
464.39	9686.89
464.60	9719.66
464.81	9777.00
465.02	9703.28
465.23	10012.52
465.43	9693.04
465.64	10170.21
465.85	9785.19
466.06	9938.79
466.27	10223.46
466.47	10178.40
466.68	10116.97
466.89	10168.16
467.10	10354.53
467.30	10258.28
467.51	10264.42
467.72	10610.53
467.93	10491.74
468.14	10538.85
468.34	10694.49
468.55	10858.33
468.76	10751.84
468.97	10614.62
469.17	10866.52
469.38	11073.37
469.59	11306.84
469.80	11081.56
470.01	11083.61
470.21	11220.82
470.42	11442.00
470.63	11433.81
470.84	11335.51
471.04	11767.63
471.25	11667.28
471.46	11679.57
471.67	11827.02
471.87	12001.10
472.08	11972.43
472.29	12083.02
472.50	11865.93
472.70	11870.03
472.91	11972.43
473.12	12171.08
473.33	12236.61
473.53	12435.27
473.74	12246.85
473.95	12519.23
474.16	12611.39
474.36	12758.85
474.57	12810.04
474.78	13000.51
474.99	12914.49
475.19	12920.63
475.40	13213.49
475.61	13223.73
475.81	13184.82
476.02	13408.05
476.23	13291.32
476.44	13281.08
476.64	13901.61
476.85	13844.27
477.06	13997.87
477.27	14401.32
477.47	14260.01
477.68	14178.09
477.89	14180.14
478.09	14176.04
478.30	14137.13
478.51	14489.38
478.71	14571.30
478.92	14753.57
479.13	14714.66
479.34	14989.08
479.54	14886.68
479.75	14810.91
479.96	15054.62
480.16	15261.46
480.37	15437.59
480.58	15392.53
480.78	15386.39
480.99	15521.56
481.20	15634.19
481.41	15671.06
481.61	15793.94
481.82	15916.81
482.03	15863.57
482.23	16090.89
482.44	16181.00
482.65	16602.88
482.85	16535.30
483.06	16271.11
483.27	16557.83
483.47	16449.28
483.68	16582.40
483.89	16756.48
484.09	16631.55
484.30	16867.07
484.51	17192.70
484.71	17252.09
484.92	16969.47
485.13	17366.78
485.33	17532.66
485.54	17516.28
485.75	17757.94
485.95	17745.65
486.16	17821.42
486.37	17964.78
486.57	17659.63
486.78	17893.10
486.98	17932.01
487.19	18034.41
487.40	18310.89
487.60	18228.97
487.81	18570.98
488.02	18331.37
488.22	18525.93
488.43	18679.52
488.64	18501.35
488.84	18956.00
489.05	19048.16
489.25	18609.89
489.46	19171.04
489.67	19076.83
489.87	19238.62
490.08	19336.92
490.29	19515.09
490.49	19777.23
490.70	19590.87
490.90	19793.62
491.11	19709.65
491.32	19996.37
491.52	20049.61
491.73	19988.18
491.94	20180.68
492.14	20020.94
492.35	20428.49
492.55	20332.23
492.76	20369.10
492.97	20532.93
493.17	20709.06
493.38	20750.02
493.58	20729.54
493.79	20772.55
494.00	20688.58
494.20	21237.44
494.41	21284.54
494.61	21276.35
494.82	21294.78
495.02	21065.41
495.23	21624.50
495.44	21374.65
495.64	21649.08
495.85	21548.73
496.05	21698.23
496.26	21493.43
496.47	21880.50
496.67	21868.21
496.88	22189.74
497.08	21941.94
497.29	22509.22
497.49	22052.53
497.70	22195.89
497.91	22372.01
498.11	22503.08
498.32	22509.22
498.52	22724.26
498.73	22820.52
498.93	22658.73
499.14	23221.92
499.34	22875.81
499.55	22920.87
499.76	22892.19
499.96	22992.55
500.17	22896.29
500.37	23107.23
500.58	23072.42
500.78	23248.54
500.99	23248.54
501.19	23768.73
501.40	23350.94
501.60	23332.51
501.81	23809.68
502.02	23340.70
502.22	23711.38
502.43	23881.36
502.63	24116.88
502.84	24047.25
503.04	23950.99
503.25	24065.68
503.45	24141.46
503.66	24202.89
503.86	24184.46
504.07	24530.57
504.27	24323.72
504.48	24575.62
504.68	24135.31
504.89	24700.55
505.09	24630.92
505.30	24626.82
505.50	24694.41
505.71	24391.31
505.91	24739.46
506.12	24985.22
506.32	24911.49
506.53	25130.62
506.73	25183.87
506.94	25132.67
507.14	25077.38
507.35	25284.22
507.55	25527.93
507.76	25454.20
507.96	25448.06
508.17	25474.68
508.37	25581.18
508.58	25740.92
508.78	25542.27
508.99	26154.61
509.19	25732.73
509.40	26121.84
509.60	25888.37
509.81	25917.04
510.01	25679.48
510.22	26156.66
510.42	26048.11
510.63	26252.91
510.83	26273.39
511.04	26177.14
511.24	26455.66
511.44	26375.79
511.65	26345.07
511.85	26224.24
512.06	26484.33
512.26	26852.97
512.47	26719.85
512.67	26586.73
512.88	26973.80
513.08	26797.67
513.29	27158.11
513.49	26986.08
513.69	26801.77
513.90	26642.03
514.10	27319.90
514.31	27348.57
514.51	27463.26
514.72	27610.71
514.92	27190.88
515.13	27436.64
515.33	27659.87
515.53	27356.77
515.74	27096.67
515.94	27797.08
516.15	27618.91
516.35	27801.18
516.56	28118.61
516.76	27969.11
516.96	28313.17
517.17	27913.81
517.37	28233.30
517.58	28165.71
517.78	27821.66
517.99	27950.68
518.19	28352.08
518.39	28569.16
518.60	28560.97
518.80	28538.44
519.01	28667.47
519.21	28735.05
519.41	28728.91
519.62	28350.03
519.82	28814.92
520.03	28880.46
520.23	28630.60
520.43	28933.70
520.64	29267.52
520.84	29177.41
521.05	29134.40
521.25	29457.98
521.45	29961.78
521.66	29802.04
521.86	29519.42
522.07	29666.88
522.27	29703.74
522.47	29779.51
522.68	29988.41
522.88	29670.97
523.08	30053.94
523.29	30002.74
523.49	30484.01
523.70	30219.83
523.90	30725.68
524.10	30541.36
524.31	30766.63
524.51	30721.58
524.71	30942.76
524.92	30815.79
525.12	31108.65
525.33	31008.29
525.53	31165.99
525.73	31348.26
525.94	31481.38
526.14	31274.53
526.34	31415.84
526.55	31577.63
526.75	31551.01
526.95	32448.02
527.16	31481.38
527.36	32163.35
527.56	32466.45
527.77	32415.25
527.97	32374.29
528.17	32275.99
528.38	32634.38
528.58	32646.67
528.78	32933.39
528.99	32450.06
529.19	33017.35
529.39	32548.37
529.60	33080.84
529.80	32859.66
530.00	33062.41
530.21	33582.59
530.41	33385.99
530.61	33285.64
530.82	33601.02
531.02	33601.02
531.22	34022.90
531.43	33572.35
531.63	34067.96
531.83	34381.30
532.04	34315.76
532.24	34319.86
532.44	34645.49
532.64	34350.58
532.85	34860.52
533.05	34991.59
533.25	34878.96
533.46	34620.91
533.66	35204.58
533.86	34848.24
534.07	35157.48
534.27	35100.14
534.47	35718.62
534.67	35663.33
534.88	35612.13
535.08	35952.09
535.28	35927.52
535.49	35679.71
535.69	35974.62
535.89	36464.08
536.09	36619.73
536.30	36529.62
536.50	36421.08
536.70	36906.44
536.91	36763.09
537.11	36648.40
537.31	36959.69
537.51	36617.68
537.72	36959.69
537.92	37252.55
538.12	37641.67
538.32	37457.35
538.53	37606.85
538.73	37772.74
538.93	37643.71
539.13	37690.82
539.34	37463.49
539.54	37535.17
539.74	37860.80
539.94	38274.49
540.15	37832.13
540.35	38178.23
540.55	38727.09
540.75	38358.45
540.96	38688.18
541.16	38364.60
541.36	38225.34
541.56	38899.12
541.77	38759.86
541.97	38866.35
542.17	39249.32
542.37	39427.49
542.58	39009.71
542.78	38888.88
542.98	39249.32
543.18	39525.80
543.38	39794.08
543.59	39376.30
543.79	39249.32
543.99	39501.22
544.19	39800.22
544.40	39710.11
544.60	39964.06
544.80	39951.77
545.00	39912.86
545.20	40340.89
545.41	39992.73
545.61	40005.02
545.81	40160.67
546.01	40635.80
546.21	40324.50
546.42	40355.22
546.62	40910.22
546.82	40338.84
547.02	40906.13
547.22	40703.38
547.43	40908.18
547.63	40838.54
547.83	40951.18
548.03	41000.33
548.23	41041.29
548.44	40936.85
548.64	41067.92
548.84	41229.71
549.04	41090.44
549.24	41434.50
549.45	41706.88
549.65	41160.08
549.85	41532.81
550.05	41616.77
550.25	41616.77
550.45	42038.65
550.66	41956.74
550.86	41444.74
551.06	42032.51
551.26	41776.51
551.46	42292.60
551.66	41940.35
551.87	41889.15
552.07	42024.32
552.27	41821.57
552.47	42587.51
552.67	42186.11
552.87	42489.21
553.07	42290.55
553.28	42556.79
553.48	42591.61
553.68	42687.86
553.88	42710.39
554.08	42780.02
554.28	42857.84
554.48	42794.36
554.69	43007.34
554.89	42734.96
555.09	42939.76
555.29	42548.60
555.49	43021.68
555.69	43038.06
555.89	42890.61
556.10	43193.71
556.30	42780.02
556.50	43271.53
556.70	43003.25
556.90	43222.38
557.10	43892.07
557.30	43001.20
557.50	43365.74
557.70	43138.41
557.91	43726.18
558.11	43165.04
558.31	43570.54
558.51	43281.77
558.71	43529.58
558.91	43396.46
559.11	43187.56
559.31	43541.86
559.51	43373.93
559.72	43722.08
559.92	43681.13
560.12	43435.37
560.32	43808.10
560.52	43427.18
560.72	43914.59
560.92	43930.98
561.12	44107.10
561.32	44078.43
561.52	43930.98
561.72	44332.38
561.93	43826.53
562.13	44057.95
562.33	43763.04
562.53	44275.04
562.73	43994.46
562.93	44426.59
563.13	44045.66
563.33	44289.37
563.53	44571.99
563.73	44084.58
563.93	44316.00
564.13	44805.46
564.33	44045.66
564.53	44559.70
564.74	44727.64
564.94	43922.79
565.14	44373.34
565.34	44109.15
565.54	44160.35
565.74	44512.60
565.94	44934.48
566.14	44545.37
566.34	44629.34
566.54	44842.32
566.74	44299.61
566.94	44543.32
567.14	44889.43
567.34	44930.39
567.54	44893.52
567.74	44707.16
567.94	44490.07
568.14	45034.83
568.34	45512.01
568.54	44809.56
568.74	45223.25
568.94	44723.54
569.14	45040.98
569.34	44840.28
569.54	45178.19
569.75	44698.97
569.95	45098.32
570.15	45520.20
570.35	45454.67
570.55	45423.95
570.75	45057.36
570.95	45208.91
571.15	45436.23
571.35	45284.68
571.55	45344.08
571.75	45503.82
571.95	45262.16
572.15	45188.43
572.35	45411.66
572.55	45503.82
572.75	45296.97
572.95	45585.74
573.15	45552.97
573.35	45387.08
573.55	45348.17
573.75	45464.91
573.95	45475.15
574.15	45704.52
574.35	45909.32
574.55	45602.12
574.75	45610.31
574.95	45841.73
575.15	45432.14
575.34	45841.73
575.54	46015.81
575.74	46155.07
575.94	46222.65
576.14	45978.95
576.34	46380.35
576.54	45927.75
576.74	46392.64
576.94	45684.04
577.14	46478.65
577.34	46538.04
577.54	46406.97
577.74	46392.64
577.94	46472.51
578.14	46736.69
578.34	46927.16
578.54	46239.04
578.74	46263.61
578.94	46900.53
579.14	46601.53
579.34	46511.42
579.54	46662.97
579.74	46966.07
579.94	47045.94
580.13	46959.92
580.33	46644.54
580.53	46888.24
580.73	46884.15
580.93	46941.49
581.13	46968.12
581.33	47236.40
581.53	47076.66
581.73	46953.78
581.93	47273.26
582.13	47297.84
582.33	47353.13
582.53	47383.85
582.73	47346.99
582.92	47654.18
583.12	47531.31
583.32	47488.30
583.52	47224.11
583.72	47799.59
583.92	47596.84
584.12	47705.38
584.32	47899.94
584.52	47504.68
584.72	47619.37
584.92	47887.65
585.11	47996.20
585.31	48112.93
585.51	48149.79
585.71	47670.57
585.91	47828.26
586.11	47836.45
586.31	47887.65
586.51	48229.66
586.71	48160.03
586.91	48360.73
587.10	48346.40
587.30	48366.88
587.50	48493.85
587.70	48579.87
587.90	48456.99
588.10	48469.28
588.30	48436.51
588.50	48729.37
588.69	48467.23
588.89	48235.81
589.09	48626.97
589.29	48694.55
589.49	48807.19
589.69	48043.30
589.89	49018.13
590.08	48620.83
590.28	48665.88
590.48	49157.39
590.68	48733.46
590.88	48895.25
591.08	48813.34
591.28	48958.74
591.47	49354.00
591.67	48983.32
591.87	49206.55
592.07	49057.04
592.27	48956.69
592.47	49452.30
592.67	48997.65
592.86	49368.33
593.06	48891.16
593.26	49462.54
593.46	49614.09
593.66	49276.18
593.86	49661.19
594.05	49638.67
594.25	49837.32
594.45	49511.69
594.65	49575.18
594.85	49149.20
595.05	49378.57
595.24	49894.66
595.44	49288.46
595.64	49962.25
595.84	49763.59
596.04	50081.03
596.23	49775.88
596.43	50267.39
596.63	50197.76
596.83	50410.75
597.03	50588.92
597.22	50830.58
597.42	50126.08
597.62	50132.23
597.82	50240.77
598.02	50830.58
598.21	50724.09
598.41	50328.83
598.61	50916.60
598.81	50697.47
599.01	50738.43
599.20	50867.45
599.40	50523.39
599.60	50722.04
599.80	50930.93
600.00	50984.18
600.19	51082.48
600.39	50769.15
600.59	50988.28
600.79	51131.64
600.98	50717.95
601.18	51664.11
601.38	51715.31
601.58	51451.12
601.78	51420.40
601.97	51494.13
602.17	51993.83
602.37	51893.48
602.57	51682.54
602.76	51934.44
602.96	51737.83
603.16	51807.47
603.36	51922.15
603.55	51942.63
603.75	51821.80
603.95	52053.22
604.15	51873.00
604.34	52106.47
604.54	52442.34
604.74	52131.04
604.94	52292.83
605.13	52583.65
605.33	52434.14
605.53	52411.62
605.73	52755.68
605.92	52346.08
606.12	52872.41
606.32	52606.17
606.52	52737.24
606.71	52694.24
606.91	52866.27
607.11	52929.75
607.30	53265.62
607.50	53146.84
607.70	52776.15
607.90	52755.68
608.09	53044.44
608.29	53081.30
608.49	53265.62
608.68	53134.55
608.88	53200.08
609.08	53263.57
609.28	53814.47
609.47	52804.83
609.67	54133.96
609.87	53167.32
610.06	54000.84
610.26	53841.10
610.46	53712.08
610.66	53892.30
610.85	53363.92
611.05	53396.69
611.25	54371.52
611.44	53757.13
611.64	53927.11
611.84	53890.25
612.03	53834.95
612.23	54064.33
612.43	53740.75
612.62	53791.95
612.82	54097.09
613.02	54023.37
613.21	53726.41
613.41	53890.25
613.61	54195.40
613.80	53941.45
614.00	54148.29
614.20	54355.14
614.39	54117.57
614.59	54381.76
614.79	53914.83
614.98	53845.19
615.18	54312.13
615.38	54457.54
615.57	54631.61
615.77	54303.94
615.97	54064.33
616.16	54320.32
616.36	54508.74
616.56	54447.30
616.75	54396.10
616.95	54467.78
617.15	54740.16
617.34	54588.61
617.54	54588.61
617.74	55186.61
617.93	54535.36
618.13	54072.52
618.32	54981.82
618.52	54791.36
618.72	54342.85
618.91	54809.79
619.11	54254.79
619.31	54903.99
619.50	54455.49
619.70	54578.37
619.90	54799.55
620.09	54584.51
620.29	54785.21
620.48	54926.52
620.68	55129.27
620.88	54359.23
621.07	54901.95
621.27	55090.36
621.46	54351.04
621.66	54613.18
621.86	54842.56
622.05	54985.91
622.25	55047.35
622.44	54648.00
622.64	54981.82
622.84	55252.15
623.03	54629.57
623.23	55076.02
623.42	55309.49
623.62	54641.85
623.82	55047.35
624.01	54957.24
624.21	54889.66
624.40	55006.39
624.60	54863.03
624.80	55033.02
624.99	54920.38
625.19	54850.75
625.38	54899.90
625.58	55063.74
625.77	54992.06
625.97	54807.74
626.17	54772.92
626.36	54840.51
626.56	55768.24
626.75	54756.54
626.95	55723.18
627.14	54949.05
627.34	55522.48
627.54	54889.66
627.73	54983.86
627.93	55342.26
628.12	54752.44
628.32	55243.96
628.51	54967.48
628.71	55065.78
628.90	55053.50
629.10	55084.22
629.30	55651.50
629.49	55555.25
629.69	55153.85
629.88	55446.71
630.08	55620.78
630.27	55905.45
630.47	55616.69
630.66	55323.83
630.86	55874.73
631.05	55194.81
631.25	55811.24
631.44	55106.74
631.64	54903.99
631.84	55846.06
632.03	55977.13
632.23	55628.98
632.42	55872.68
632.62	55674.03
632.81	55588.02
633.01	55854.25
633.20	56186.02
633.40	56206.50
633.59	55856.30
633.79	55764.14
633.98	55628.98
634.18	56065.19
634.37	55968.94
634.57	55882.92
634.76	56292.52
634.96	56122.54
635.15	56100.01
635.35	55796.91
635.54	55889.07
635.74	56313.00
635.93	56065.19
636.13	56306.85
636.32	56501.41
636.52	55798.96
636.71	56155.30
636.91	56169.64
637.10	56317.09
637.30	56290.47
637.49	56048.81
637.69	56290.47
637.88	56951.96
638.08	56048.81
638.27	56612.00
638.46	56206.50
638.66	56046.76
638.85	56597.66
639.05	56374.44
639.24	56122.54
639.44	56489.12
639.63	56628.38
639.83	56575.14
640.02	56544.42
640.22	56597.66
640.41	56906.91
640.61	56331.43
640.80	56607.90
640.99	56112.30
641.19	57177.24
641.38	56587.42
641.58	56642.72
641.77	56845.47
641.97	56366.24
642.16	56804.51
642.36	57091.22
642.55	57037.98
642.74	56468.64
642.94	57322.65
643.13	56540.32
643.33	57285.78
643.52	57287.83
643.72	56931.48
643.91	56982.68
644.10	57169.05
644.30	57093.27
644.49	56835.23
644.69	56958.11
644.88	57496.72
645.08	56407.20
645.27	57105.56
645.46	56786.08
645.66	57177.24
645.85	57406.61
646.05	57339.03
646.24	56935.58
646.43	57332.89
646.63	57865.36
646.82	58098.83
647.02	57783.44
647.21	57611.41
647.40	57394.32
647.60	57648.27
647.79	57722.00
647.99	57746.57
648.18	57148.57
648.37	57900.17
648.57	57609.36
648.76	57861.26
648.96	57715.86
649.15	57988.24
649.34	58176.65
649.54	57787.53
649.73	57455.76
649.92	58023.05
650.12	57734.29
650.31	57767.05
650.51	58107.02
650.70	57945.23
650.89	57656.46
651.09	58717.31
651.28	57840.78
651.47	58119.31
651.67	58004.62
651.86	58070.15
652.06	57511.06
652.25	58471.56
652.44	57644.18
652.64	57670.80
652.83	57988.24
653.02	57920.65
653.22	58229.90
653.41	57726.10
653.60	57754.77
653.80	57910.41
653.99	58129.54
654.18	58029.19
654.38	58098.83
654.57	58610.82
654.76	58039.43
654.96	58033.29
655.15	58252.42
655.34	58012.81
655.54	57574.55
655.73	58100.87
655.92	58524.80
656.12	58242.18
656.31	57988.24
656.50	58207.37
656.70	58168.46
656.89	58168.46
657.08	58512.52
657.28	58197.13
657.47	58031.24
657.66	58147.98
657.86	58336.39
658.05	58492.04
658.24	58244.23
658.43	58061.96
658.63	58225.80
658.82	58309.77
659.01	58270.85
659.21	58934.40
659.40	58258.57
659.59	58121.35
659.79	58676.35
659.98	58326.15
660.17	58354.82
660.36	58541.19
660.56	58334.34
660.75	58285.19
660.94	58397.83
661.14	58485.89
661.33	58553.47
661.52	58135.69
661.71	58920.06
661.91	57885.84
662.10	58053.77
662.29	58594.43
662.49	58614.91
662.68	58504.32
662.87	58610.82
663.06	58580.10
663.26	58225.80
663.45	58553.47
663.64	58346.63
663.83	58629.25
664.03	58369.16
664.22	58363.01
664.41	58451.08
664.60	58059.91
664.80	58141.83
664.99	58508.42
665.18	58297.48
665.37	58322.05
665.57	58387.59
665.76	58248.33
665.95	58619.01
666.14	58719.36
666.34	58537.09
666.53	58270.85
666.72	58190.98
666.91	58139.78
667.11	58401.92
667.30	58590.34
667.49	57738.38
667.68	57914.51
667.87	58299.53
668.07	58336.39
668.26	58598.53
668.45	58213.51
668.64	57658.51
668.84	59145.34
669.03	58385.54
669.22	58326.15
669.41	58266.76
669.60	58348.68
669.80	57943.18
669.99	58240.14
670.18	57408.66
670.37	58246.28
670.57	58410.12
670.76	58139.78
670.95	58113.16
671.14	58094.73
671.33	58190.98
671.53	58498.18
671.72	58487.94
671.91	58303.62
672.10	57590.93
672.29	57963.66
672.48	57767.05
672.68	58436.74
672.87	57953.42
673.06	57717.90
673.25	57760.91
673.44	57803.92
673.64	57853.07
673.83	57595.03
674.02	57572.50
674.21	57410.71
674.40	57562.26
674.59	57322.65
674.79	57291.93
674.98	57664.66
675.17	57683.09
675.36	57666.70
675.55	57810.06
675.74	57482.39
675.94	57017.50
676.13	57484.43
676.32	57701.52
676.51	58217.61
676.70	57744.53
676.89	57425.04
677.08	57703.57
677.28	57289.88
677.47	58090.63
677.66	57748.62
677.85	57285.78
678.04	57832.59
678.23	57969.80
678.42	57693.33
678.62	57515.15
678.81	57715.86
679.00	57386.13
679.19	58039.43
679.38	57418.90
679.57	57353.36
679.76	57945.23
679.96	57326.74
680.15	57793.68
680.34	57459.86
680.53	57210.01
680.72	57623.70
680.91	57656.46
681.10	57365.65
681.29	57158.81
681.48	56939.68
681.68	57009.31
681.87	56937.63
682.06	56992.92
682.25	56775.84
682.44	56749.21
682.63	57025.69
682.82	56671.39
683.01	56947.87
683.20	56571.04
683.39	56796.32
683.59	56718.49
683.78	56472.74
683.97	56732.83
684.16	56786.08
684.35	56460.45
684.54	56679.58
684.73	56319.14
684.92	56624.29
685.11	56706.21
685.30	56331.43
685.49	57021.59
685.69	56372.39
685.88	56487.07
686.07	56388.77
686.26	55970.99
686.45	56767.65
686.64	56310.95
686.83	56046.76
687.02	56435.87
687.21	56120.49
687.40	56224.93
687.59	55997.61
687.78	55884.97
687.97	56272.04
688.16	56091.82
688.35	55458.99
688.54	56241.32
688.74	56089.77
688.93	55712.94
689.12	56038.57
689.31	55815.34
689.50	55753.90
689.69	55350.45
689.88	55497.91
690.07	55510.19
690.26	55415.99
690.45	56003.75
690.64	55760.05
690.83	55348.40
691.02	55129.27
691.21	55121.08
691.40	54961.34
691.59	55817.39
691.78	55256.24
691.97	55538.86
692.16	54938.81
692.35	55325.88
692.54	55215.29
692.73	55057.59
692.92	55280.82
693.11	54813.88
693.30	55508.14
693.49	55227.57
693.68	55030.97
693.87	55014.58
694.06	54596.80
694.25	55270.58
694.44	54602.94
694.63	54971.58
694.82	54869.18
695.01	54627.52
695.20	54650.05
695.39	54791.36
695.58	54873.27
695.77	54615.23
695.96	54353.09
696.15	54719.68
696.34	54246.60
696.53	54369.47
696.72	54230.21
696.91	54568.13
697.10	54422.72
697.29	54033.61
697.48	54576.32
697.67	54424.77
697.86	53724.36
698.05	53884.11
698.24	54467.78
698.43	53523.66
698.62	54013.13
698.81	53388.50
699.00	54363.33
699.19	54136.01
699.38	54136.01
699.57	53581.01
699.76	54428.87
699.95	54154.44
700.14	53824.71
700.32	53503.18
700.51	53564.62
700.70	54019.27
700.89	53961.93
701.08	53908.68
701.27	53884.11
701.46	53882.06
701.65	53083.35
701.84	53961.93
702.03	53632.21
702.22	53314.77
702.41	53464.27
702.60	53388.50
702.79	53187.80
702.98	53345.49
703.17	53163.22
703.35	53089.49
703.54	52735.20
703.73	53044.44
703.92	53046.49
704.11	52493.54
704.30	52409.57
704.49	52944.09
704.68	52884.70
704.87	52643.04
705.06	52372.70
705.25	52393.18
705.43	53130.45
705.62	52466.91
705.81	52509.92
706.00	52540.64
706.19	52092.13
706.38	52448.48
706.57	52675.80
706.76	52206.82
706.95	52434.14
707.14	51950.82
707.32	52561.12
707.51	51885.29
707.70	52249.83
707.89	52319.46
708.08	52475.10
708.27	52200.68
708.46	52749.53
708.65	52313.31
708.84	52591.84
709.02	52554.97
709.21	52473.06
709.40	51891.43
709.59	52200.68
709.78	51733.74
709.97	52192.48
710.16	51995.88
710.34	51741.93
710.53	51635.44
710.72	51399.92
710.91	51756.27
711.10	52026.60
711.29	51934.44
711.48	51676.40
711.66	51318.00
711.85	51496.17
712.04	51440.88
712.23	51567.85
712.42	50896.12
712.61	51277.04
712.80	51287.28
712.98	51494.13
713.17	51168.50
713.36	51363.06
713.55	51248.37
713.74	51270.90
713.93	51479.79
714.11	50640.12
714.30	50935.03
714.49	50975.99
714.68	50967.80
714.87	51057.91
715.06	51492.08
715.24	50822.39
715.43	50838.78
715.62	50347.26
715.81	50482.43
716.00	50593.02
716.18	50406.65
716.37	50705.66
716.56	50441.47
716.75	50756.86
716.94	50504.96
717.12	50128.13
717.31	50644.22
717.50	50431.23
717.69	50074.88
717.88	50246.91
718.06	50486.53
718.25	50615.55
718.44	49747.21
718.63	50240.77
718.82	49990.92
719.00	50394.37
719.19	49865.99
719.38	49638.67
719.57	49511.69
719.76	49483.02
719.94	49313.04
720.13	49671.43
720.32	49448.21
720.51	49513.74
720.69	49376.53
720.88	49175.83
721.07	49382.67
721.26	49374.48
721.44	49175.83
721.63	48975.12
721.82	48612.63
722.01	48741.66
722.20	49380.62
722.38	49083.67
722.57	48182.56
722.76	48962.84
722.95	48710.94
723.13	48360.73
723.32	48325.92
723.51	47988.00
723.70	48352.54
723.88	48504.09
724.07	48426.27
724.26	48346.40
724.44	47543.59
724.63	48362.78
724.82	48479.52
725.01	48061.73
725.19	48153.89
725.38	48190.75
725.57	47719.72
725.76	47979.81
725.94	47619.37
726.13	48035.11
726.32	47854.89
726.51	47428.91
726.69	47985.96
726.88	48037.16
727.07	47379.76
727.25	47777.06
727.44	47838.50
727.63	47756.58
727.82	47416.62
728.00	48053.54
728.19	47762.73
728.38	47879.46
728.56	47076.66
728.75	47807.78
728.94	47332.65
729.12	47582.51
729.31	47346.99
729.50	47504.68
729.69	47576.36
729.87	47172.91
730.06	47482.16
730.25	46961.97
730.43	47959.33
730.62	47228.21
730.81	47904.04
730.99	47551.79
731.18	47832.36
731.37	47607.08
731.55	47406.38
731.74	47525.16
731.93	47408.43
732.11	47437.10
732.30	47392.04
732.49	47263.02
732.67	47553.83
732.86	47310.13
733.05	46921.01
733.23	47277.36
733.42	47668.52
733.61	47127.86
733.79	47684.90
733.98	47764.78
734.17	47420.72
734.35	47244.59
734.54	47238.45
734.73	47658.28
734.91	47494.44
735.10	47635.75
735.29	47404.33
735.47	47023.41
735.66	47312.17
735.84	47111.47
736.03	47238.45
736.22	47705.38
736.40	46601.53
736.59	47105.33
736.78	47203.63
736.96	47158.58
737.15	46974.26
737.33	46904.63
737.52	46818.61
737.71	46554.43
737.89	46794.04
738.08	46646.58
738.27	46363.96
738.45	47332.65
738.64	46880.05
738.82	46986.55
739.01	47148.34
739.20	46961.97
739.38	46636.34
739.57	46972.21
739.75	46861.62
739.94	46658.87
740.13	46988.60
740.31	46480.70
740.50	46835.00
740.68	46761.27
740.87	46660.92
741.06	46839.09
741.24	46525.75
741.43	46392.64
741.61	46810.42
741.80	46306.62
741.99	46282.05
742.17	46388.54
742.36	46525.75
742.54	46261.57
742.73	46443.84
742.91	46437.69
743.10	46169.41
743.29	46376.25
743.47	46228.80
743.66	46021.95
743.84	46341.44
744.03	46265.66
744.21	46126.40
744.40	46609.72
744.59	45598.02
744.77	45995.33
744.96	46079.30
745.14	46189.89
745.33	46175.55
745.51	46198.08
745.70	46157.12
745.88	46021.95
746.07	46089.54
746.26	45980.99
746.44	45899.08
746.63	45968.71
746.81	46048.58
747.00	45608.26
747.18	45802.82
747.37	46091.58
747.55	46064.96
747.74	46261.57
747.92	45331.79
748.11	45550.92
748.29	45876.55
748.48	45706.57
748.66	45350.22
748.85	45710.66
749.03	45595.98
749.22	45460.81
749.41	45397.32
749.59	45741.38
749.78	45423.95
749.96	45278.54
750.15	45712.71
750.33	45366.60
750.52	45456.71
750.70	45131.09
750.89	45376.84
751.07	45192.53
751.26	44920.15
751.44	45165.90
751.63	45092.18
751.81	44979.54
752.00	45395.28
752.18	45270.35
752.37	45133.14
752.55	44774.74
752.74	44803.41
752.92	44864.85
753.10	44873.04
753.29	44971.35
753.47	44754.26
753.66	45063.50
753.84	45210.96
754.03	44617.05
754.21	44275.04
754.40	44625.24
754.58	44535.13
754.77	44479.83
754.95	44543.32
755.14	43967.84
755.32	44363.10
755.51	44311.90
755.69	44797.27
755.88	44191.07
756.06	44864.85
756.24	44426.59
756.43	44701.01
756.61	44461.40
756.80	44160.35
756.98	44078.43
757.17	44209.50
757.35	44043.62
757.54	43971.94
757.72	44082.53
757.90	44121.44
758.09	44166.49
758.27	43849.06
758.46	44070.24
758.64	44191.07
758.83	44162.40
759.01	44465.50
759.19	43973.98
759.38	44324.19
759.56	44055.90
759.75	44000.61
759.93	44268.89
760.12	43773.28
760.30	43885.92
760.48	43816.29
760.67	43849.06
760.85	43713.89
761.04	44143.97
761.22	44012.90
761.40	43988.32
761.59	43623.78
761.77	43326.83
761.96	43629.93
762.14	43699.56
762.32	43062.64
762.51	43206.00
762.69	43486.57
762.88	43554.15
763.06	43595.11
763.24	43775.33
763.43	43488.62
763.61	43304.30
763.80	43281.77
763.98	43537.77
764.16	43359.59
764.35	42962.29
764.53	42808.69
764.72	42935.66
764.90	42945.90
765.08	42747.25
765.27	42990.96
765.45	42540.41
765.63	42521.98
765.82	42964.34
766.00	42687.86
766.18	42843.51
766.37	43423.08
766.55	42761.59
766.74	42648.95
766.92	42669.43
767.10	43001.20
767.29	42515.83
767.47	42186.11
767.65	42216.83
767.84	42104.19
768.02	42890.61
768.20	42151.29
768.39	42431.86
768.57	42311.03
768.75	42526.07
768.94	42198.40
769.12	42210.68
769.30	41911.68
769.49	41885.06
769.67	42042.75
769.85	41811.33
770.04	41731.46
770.22	41667.97
770.40	41590.15
770.59	41999.74
770.77	42007.94
770.95	41796.99
771.14	41880.96
771.32	41440.65
771.50	41266.57
771.69	41006.48
771.87	41606.53
772.05	41360.78
772.24	40916.37
772.42	41414.02
772.60	41622.92
772.78	41246.09
772.97	40732.05
773.15	41454.98
773.33	41289.10
773.52	41321.87
773.70	41561.48
773.88	41508.23
774.07	41047.44
774.25	41520.52
774.43	41334.15
774.61	41151.88
774.80	41385.35
774.98	41084.30
775.16	41342.35
775.34	41198.99
775.53	41067.92
775.71	41549.19
775.89	41016.72
776.08	41280.91
776.26	41575.81
776.44	41840.00
776.62	41393.54
776.81	41354.63
776.99	41530.76
777.17	41776.51
777.35	41565.57
777.54	41944.45
777.72	41676.16
777.90	41788.80
778.08	41801.09
778.27	42091.90
778.45	42225.02
778.63	42194.30
778.81	41813.38
779.00	42372.47
779.18	42104.19
779.36	42368.38
779.54	41926.02
779.73	42012.03
779.91	42018.17
780.09	41979.26
780.27	42173.82
780.46	41842.05
780.64	42315.13
780.82	42126.72
781.00	42081.66
781.19	42478.97
781.37	42868.08
781.55	42624.37
781.73	42403.19
781.91	42509.69
782.10	42573.17
782.28	42380.67
782.46	42614.13
782.64	42626.42
782.82	42333.56
783.01	42567.03
783.19	42888.56
783.37	42622.33
783.55	42577.27
783.74	42612.09
783.92	42456.44
784.10	42990.96
784.28	42734.96
784.46	42810.74
784.64	42552.69
784.83	42823.03
785.01	43005.30
785.19	42630.52
785.37	42759.54
785.55	42540.41
785.74	42597.75
785.92	42470.78
786.10	42397.05
786.28	42892.66
786.46	42351.99
786.64	42274.17
786.83	42415.48
787.01	42466.68
787.19	42368.38
787.37	42485.11
787.55	42558.84
787.74	42286.46
787.92	42403.19
788.10	42220.92
788.28	41883.01
788.46	42265.98
788.64	42071.42
788.82	42575.22
789.01	42161.53
789.19	42018.17
789.37	42071.42
789.55	42042.75
789.73	41973.12
789.91	41874.82
790.09	41819.52
790.28	41682.31
790.46	41854.34
790.64	41459.08
790.82	41799.04
791.00	41653.64
791.18	41450.89
791.36	41137.55
791.55	41551.24
791.73	40955.28
791.91	40844.69
792.09	41129.36
792.27	41039.25
792.45	41434.50
792.63	40807.83
792.81	40510.87
793.00	40727.95
793.18	40424.86
793.36	40687.00
793.54	40498.58
793.72	40408.47
793.90	40459.67
794.08	39984.54
794.26	40646.04
794.44	40009.12
794.62	40250.78
794.81	40261.02
794.99	40119.71
795.17	39746.98
795.35	39929.25
795.53	39931.29
795.71	40105.37
795.89	39656.87
796.07	39447.97
796.25	39300.52
796.43	39067.05
796.61	39185.83
796.80	39312.81
796.98	38825.39
797.16	38976.94
797.34	39034.28
797.52	38872.49
797.70	38931.89
797.88	38532.53
798.06	38485.43
798.24	38784.43
798.42	38772.14
798.60	38393.27
798.78	38223.29
798.96	38258.10
799.14	38051.26
799.32	38423.99
799.51	37938.62
799.69	38110.65
799.87	37858.75
800.05	37514.69
800.23	37985.72
800.41	37524.93
800.59	37420.48
800.77	37361.09
800.95	37238.22
801.13	37533.12
801.31	37240.26
801.49	37285.32
801.67	37436.87
801.85	37279.18
802.03	36611.54
802.21	36892.11
802.39	36861.39
802.57	36838.86
802.75	36601.30
802.93	36724.18
803.11	36044.25
803.29	35970.52
803.47	36236.76
803.65	36425.17
803.83	35993.05
804.01	36203.99
804.19	35960.28
804.37	35562.98
804.55	35962.33
804.73	35931.61
804.91	35921.37
805.09	35687.90
805.27	35575.27
805.45	35812.83
805.63	35616.22
805.81	35454.44
805.99	35468.77
806.17	35638.75
806.35	35491.30
806.53	35249.64
806.71	35093.99
806.89	35173.86
807.07	34751.98
807.25	35261.93
807.43	34932.20
807.61	34747.89
807.79	34792.94
807.97	34622.96
808.15	34551.28
808.33	34461.17
808.51	34489.84
808.69	34729.45
808.87	33906.17
809.05	34164.21
809.23	34047.48
809.41	33771.00
809.59	33877.50
809.77	34227.70
809.95	33842.68
810.13	33893.88
810.31	33713.66
810.49	33893.88
810.67	33842.68
810.84	33891.83
811.02	33566.21
811.20	33240.58
811.38	33619.46
811.56	33035.78
811.74	33084.94
811.92	33304.07
812.10	33156.61
812.28	33078.79
812.46	33041.93
812.64	32935.43
812.82	32818.70
813.00	32972.30
813.18	32929.29
813.36	32531.98
813.53	32693.77
813.71	32636.43
813.89	32509.46
814.07	32491.02
814.25	32589.33
814.43	32169.49
814.61	32261.65
814.79	32235.03
814.97	31790.62
815.15	32237.08
815.33	31788.57
815.50	31436.32
815.68	31987.22
815.86	32083.48
816.04	31696.41
816.22	31606.30
816.40	31714.84
816.58	31426.08
816.76	31823.39
816.94	31350.31
817.11	31641.12
817.29	31534.62
817.47	31041.06
817.65	31282.72
817.83	31548.96
818.01	31657.50
818.19	31297.06
818.37	31315.49
818.54	31090.21
818.72	30973.48
818.90	31335.97
819.08	30795.31
819.26	30713.39
819.44	30838.31
819.62	30502.45
819.80	30780.97
819.97	30799.40
820.15	30336.56
820.33	30604.84
820.51	30393.90
820.69	30328.37
820.87	30131.76
821.05	30246.45
821.22	30340.66
821.40	30225.97
821.58	30125.62
821.76	30285.36
821.94	29795.90
822.12	30238.26
822.29	30199.35
822.47	29838.90
822.65	30154.29
822.83	29937.21
823.01	29814.33
823.19	29783.61
823.36	29621.82
823.54	29996.60
823.72	29513.28
823.90	29615.68
824.08	29617.72
824.25	29548.09
824.43	29648.44
824.61	29357.63
824.79	29138.50
824.97	29447.74
825.15	29455.93
825.32	29326.91
825.50	29097.54
825.68	28907.08
825.86	29359.68
826.04	29320.77
826.21	29075.01
826.39	28878.41
826.57	29023.81
826.75	28708.43
826.93	28595.79
827.10	28726.86
827.28	28845.64
827.46	28651.08
827.64	28563.02
827.81	28651.08
827.99	28825.16
828.17	28456.53
828.35	28210.77
828.53	28393.04
828.70	28477.01
828.88	28393.04
829.06	28460.62
829.24	28704.33
829.41	28157.52
829.59	28608.08
829.77	27747.93
829.95	28339.79
830.12	28243.54
830.30	28036.69
830.48	28298.83
830.66	28384.85
830.84	28122.71
831.01	27756.12
831.19	28104.28
831.37	28065.36
831.55	27706.97
831.72	27829.85
831.90	27573.85
832.08	27807.32
832.25	27600.47
832.43	27293.28
832.61	27354.72
832.79	27426.40
832.96	27213.41
833.14	27670.11
833.32	27473.50
833.50	27676.25
833.67	27233.89
833.85	27108.96
834.03	27131.49
834.20	27141.73
834.38	27330.14
834.56	27299.42
834.74	26828.39
834.91	26848.87
835.09	27053.67
835.27	26732.14
835.44	26744.42
835.62	26752.62
835.80	26545.77
835.98	26629.74
836.15	26908.26
836.33	26748.52
836.51	27037.28
836.68	26498.67
836.86	26484.33
837.04	26707.56
837.21	26750.57
837.39	26539.63
837.57	26676.84
837.75	26519.15
837.92	26543.72
838.10	26529.39
838.28	26058.35
838.45	26195.57
838.63	26267.25
838.81	26201.71
838.98	26183.28
839.16	25859.70
839.34	26125.94
839.51	25972.34
839.69	25802.36
839.87	25867.89
840.04	26003.06
840.22	25937.52
840.40	25783.93
840.57	25581.18
840.75	25753.21
840.93	25640.57
841.10	25769.59
841.28	25841.27
841.46	25636.47
841.63	25599.61
841.81	25208.45
841.98	25517.69
842.16	25656.95
842.34	25425.53
842.51	25550.46
842.69	25493.12
842.87	25294.46
843.04	25466.49
843.22	25169.54
843.40	24790.66
843.57	24798.85
843.75	25165.44
843.92	25153.15
844.10	25075.33
844.28	24882.82
844.45	25222.78
844.63	25122.43
844.81	25208.45
844.98	25003.65
845.16	24813.19
845.33	24907.40
845.51	24827.53
845.69	24872.58
845.86	24778.37
846.04	24716.93
846.21	24544.91
846.39	24622.73
846.57	24342.16
846.74	24725.13
846.92	24686.22
847.09	24342.16
847.27	24168.08
847.45	24604.30
847.62	24622.73
847.80	24266.38
847.97	24297.10
848.15	24440.46
848.32	24313.48
848.50	23979.67
848.68	24161.94
848.85	24071.82
849.03	24106.64
849.20	23875.22
849.38	23907.99
849.56	24024.72
849.73	23998.10
849.91	23774.87
850.08	23889.56
850.26	23623.32
850.43	23883.41
850.61	24057.49
850.78	23332.51
850.96	23621.27
851.14	23211.68
851.31	23834.26
851.49	23541.40
851.66	23631.51
851.84	23494.30
852.01	23613.08
852.19	23492.25
852.36	23213.73
852.54	23369.37
852.71	23363.23
852.89	23264.92
853.07	23226.01
853.24	23309.98
853.42	23305.88
853.59	23264.92
853.77	23117.47
853.94	23303.84
854.12	23330.46
854.29	23019.17
854.47	23359.13
854.64	23078.56
854.82	23023.26
854.99	22892.19
855.17	23090.85
855.34	23045.79
855.52	22781.60
855.69	22996.64
855.87	22740.64
856.04	22744.74
856.22	22574.76
856.39	22447.79
856.57	22685.35
856.74	22609.58
856.92	22691.49
857.09	22335.15
857.27	22480.55
857.44	22537.90
857.62	22693.54
857.79	22345.39
857.97	22505.13
858.14	22490.79
858.32	22455.98
858.49	22404.78
858.67	22378.15
858.84	22253.23
859.02	22496.94
859.19	22216.36
859.37	22283.95
859.54	22316.72
859.72	22324.91
859.89	22081.20
860.06	22353.58
860.24	21978.80
860.41	22150.83
860.59	21763.76
860.76	21935.79
860.94	21698.23
861.11	21630.65
861.29	21657.27
861.46	21622.45
861.64	21315.26
861.81	21604.02
861.98	21466.81
862.16	21302.97
862.33	21360.31
862.51	21442.23
862.68	21489.34
862.86	21143.23
863.03	21352.12
863.21	21188.28
863.38	21257.92
863.55	21284.54
863.73	21298.88
863.90	21501.62
864.08	21094.08
864.25	21137.09
864.43	21323.45
864.60	20942.53
864.77	20901.57
864.95	21024.45
865.12	21092.03
865.30	21214.91
865.47	20932.29
865.64	20774.60
865.82	20909.76
865.99	21044.93
866.17	21300.92
866.34	20889.28
866.51	20586.18
866.69	20737.73
866.86	20883.14
867.04	20610.76
867.21	20584.13
867.38	20432.58
867.56	20563.65
867.73	20438.73
867.91	20674.24
868.08	20254.41
868.25	20250.32
868.43	20266.70
868.60	19865.30
868.78	19918.54
868.95	20223.69
869.12	20100.81
869.30	20119.24
869.47	20129.48
869.64	19750.61
869.82	20002.51
869.99	20084.43
870.16	20115.15
870.34	20002.51
870.51	20373.19
870.69	19732.18
870.86	20018.89
871.03	19799.76
871.21	19807.95
871.38	20004.56
871.55	19789.52
871.73	19613.40
871.90	19418.84
872.07	19379.93
872.25	19857.10
872.42	19674.84
872.59	19435.22
872.77	19494.61
872.94	19482.33
873.11	19179.23
873.29	19367.64
873.46	19287.77
873.63	19242.71
873.81	19285.72
873.98	18880.22
874.15	19328.73
874.33	18904.80
874.50	18872.03
874.67	19078.88
874.85	18802.40
875.02	18953.95
875.19	18925.28
875.37	18689.76
875.54	18743.01
875.71	18697.95
875.88	18421.48
876.06	18599.65
876.23	18403.05
876.40	18466.53
876.58	18726.63
876.75	18419.43
876.92	18274.03
877.10	18652.90
877.27	18235.11
877.44	18302.70
877.61	18317.03
877.79	18177.77
877.96	18032.36
878.13	17874.67
878.31	18075.37
878.48	17968.88
878.65	17780.46
878.82	17848.05
879.00	17809.14
879.17	18192.11
879.34	17827.57
879.51	17848.05
879.69	17690.35
879.86	17817.33
880.03	17766.13
880.21	17802.99
880.38	17680.11
880.55	17929.97
880.72	17381.11
880.90	17657.59
881.07	17485.56
881.24	17526.52
881.41	17563.38
881.59	17442.55
881.76	17194.75
881.93	17430.26
882.10	17323.77
882.28	17270.52
882.45	17434.36
882.62	17227.51
882.79	17301.24
882.96	16805.63
883.14	17129.21
883.31	17284.86
883.48	16852.73
883.65	17004.28
883.83	17110.78
884.00	17006.33
884.17	16899.84
884.34	17051.39
884.51	17092.35
884.69	17073.92
884.86	16842.50
885.03	16928.51
885.20	16611.07
885.38	16815.87
885.55	16733.95
885.72	16748.29
885.89	16834.30
886.06	16754.43
886.24	16762.62
886.41	16596.74
886.58	16719.62
886.75	16914.17
886.92	16430.85
887.10	16807.68
887.27	16525.06
887.44	16441.09
887.61	16609.03
887.78	16664.32
887.95	16568.07
888.13	16344.84
888.30	16203.53
888.47	16193.29
888.64	16154.38
888.81	16205.58
888.99	16293.64
889.16	16121.61
889.33	15947.53
889.50	16189.19
889.67	16117.51
889.84	16011.02
890.01	16156.43
890.19	16103.18
890.36	16164.62
890.53	16058.12
890.70	15998.73
890.87	15994.64
891.04	15990.54
891.22	15591.19
891.39	15972.11
891.56	15648.53
891.73	15757.07
891.90	15771.41
892.07	15496.98
892.24	15746.83
892.42	15769.36
892.59	15660.82
892.76	15361.81
892.93	15582.99
893.10	15490.84
893.27	15617.81
893.44	15589.14
893.61	15466.26
893.79	15703.82
893.96	15357.72
894.13	15529.75
894.30	15570.71
894.47	15496.98
894.64	15523.60
894.81	15222.55
894.98	15587.09
895.15	15372.05
895.33	15437.59
895.50	15298.33
895.67	15443.73
895.84	15574.80
896.01	15523.60
896.18	15163.16
896.35	15542.03
896.52	15093.53
896.69	15404.82
896.86	15480.60
897.04	15255.32
897.21	15220.50
897.38	15204.12
897.55	15277.85
897.72	15408.92
897.89	15300.37
898.06	15429.40
898.23	15265.56
898.40	15294.23
898.57	14950.17
898.74	15277.85
898.91	15150.87
899.08	15333.14
899.26	15226.65
899.43	15216.41
899.60	15071.00
899.77	15085.34
899.94	15132.44
900.11	14872.35
900.28	15185.69
900.45	15251.22
900.62	15093.53
900.79	15181.59
900.96	14972.70
901.13	15124.25
901.30	15144.73
901.47	15038.23
901.64	15222.55
901.81	15027.99
901.98	15068.95
902.15	15050.52
902.32	14812.96
902.49	15001.37
902.66	15357.72
902.83	15091.48
903.01	15085.34
903.18	15101.72
903.35	15027.99
903.52	14968.60
903.69	14978.84
903.86	15189.78
904.03	15083.29
904.20	15126.30
904.37	15253.27
904.54	14862.11
904.71	14843.68
904.88	14915.36
905.05	14587.68
905.22	15048.47
905.39	14921.50
905.56	15019.80
905.73	15038.23
905.90	15060.76
906.07	14868.25
906.24	15230.74
906.41	15025.95
906.58	15159.06
906.75	14923.55
906.92	14962.46
907.09	14935.84
907.26	14870.30
907.43	14817.05
907.60	14739.23
907.77	15054.62
907.93	14984.99
908.10	14896.92
908.27	14907.16
908.44	14788.38
908.61	14806.81
908.78	14761.76
908.95	15027.99
909.12	14894.88
909.29	14929.69
909.46	15005.47
909.63	15001.37
909.80	15032.09
909.97	14982.94
910.14	14790.43
910.31	14606.11
910.48	14712.61
910.65	14728.99
910.82	14458.66
910.99	14675.74
911.16	14642.98
911.33	14645.02
911.50	14526.24
911.66	14497.57
911.83	14663.46
912.00	14552.87
912.17	14305.06
912.34	14417.70
912.51	14518.05
912.68	14548.77
912.85	14491.43
913.02	14409.51
913.19	14139.18
913.36	14200.62
913.53	14366.50
913.70	14161.70
913.86	14241.57
914.03	13999.91
914.20	13977.39
914.37	14151.46
914.54	14223.14
914.71	14157.61
914.88	14120.74
915.05	14047.02
915.22	14139.18
915.39	14303.01
915.55	14085.93
915.72	14030.63
915.89	13920.04
916.06	13864.75
916.23	13641.52
916.40	13696.82
916.57	13725.49
916.74	13823.79
916.91	13459.25
917.07	13500.21
917.24	13471.54
917.41	13596.46
917.58	13561.65
917.75	13625.14
917.92	13371.19
918.09	13502.26
918.26	13707.05
918.42	13356.85
918.59	13403.96
918.76	13119.29
918.93	13176.63
919.10	13301.56
919.27	13098.81
919.44	13127.48
919.60	13219.64
919.77	13100.86
919.94	12980.03
920.11	13193.01
920.28	13066.04
920.45	12877.63
920.61	12754.75
920.78	12971.83
920.95	12812.09
921.12	12732.22
921.29	12625.73
921.46	12793.66
921.62	12502.85
921.79	12625.73
921.96	12511.04
922.13	12408.64
922.30	12496.71
922.47	12453.70
922.63	12160.84
922.80	12449.60
922.97	12060.49
923.14	11937.61
923.31	12302.15
923.47	12093.26
923.64	12218.18
923.81	12103.50
923.98	11937.61
924.15	12042.06
924.32	12076.87
924.48	12035.91
924.65	11915.08
924.82	11700.05
924.99	11792.20
925.15	11732.81
925.32	11802.44
925.49	11491.15
925.66	11620.17
925.83	11517.78
925.99	11439.95
926.16	11501.39
926.33	11450.19
926.50	11220.82
926.67	11188.05
926.83	11206.48
927.00	11171.67
927.17	11378.51
927.34	11333.46
927.50	11206.48
927.67	11188.05
927.84	10854.23
928.01	10930.01
928.17	10891.10
928.34	10891.10
928.51	10905.43
928.68	10751.84
928.84	10766.17
929.01	10682.20
929.18	10549.09
929.35	10610.53
929.51	10631.01
929.68	10614.62
929.85	10612.57
930.02	10372.96
930.18	10379.11
930.35	10282.85
930.52	10223.46
930.69	10309.47
930.85	10245.99
931.02	10245.99
931.19	10350.43
931.36	10159.97
931.52	10039.14
931.69	10133.35
931.86	10051.43
932.02	9725.80
932.19	9973.61
932.36	9873.26
932.53	9850.73
932.69	9758.57
932.86	9932.65
933.03	9860.97
933.19	9625.45
933.36	9713.52
933.53	9594.73
933.70	9564.01
933.86	9518.96
934.03	9588.59
934.20	9326.45
934.36	9109.36
934.53	9125.75
934.70	9037.69
934.86	9191.28
935.03	8978.30
935.20	8818.55
935.36	8935.29
935.53	8810.36
935.70	8793.98
935.86	8812.41
936.03	8640.38
936.20	8451.97
936.36	8445.82
936.53	8611.71
936.70	8384.38
936.86	8654.72
937.03	8228.74
937.20	8050.57
937.36	8105.86
937.53	7911.30
937.70	7821.19
937.86	7702.41
938.03	7737.23
938.20	7860.10
938.36	7573.39
938.53	7628.68
938.70	7339.92
938.86	7391.12
939.03	7208.85
939.20	7301.01
939.36	7319.44
939.53	6967.19
939.70	7387.02
939.86	6842.26
940.03	6807.45
940.19	6715.29
940.36	6768.54
940.53	6623.13
940.69	6530.97
940.86	6690.71
941.03	6371.23
941.19	6328.22
941.36	6246.30
941.52	6328.22
941.69	6303.65
941.86	5998.50
942.02	6156.19
942.19	6098.85
942.35	6084.52
942.52	6107.04
942.69	5953.45
942.85	5808.04
943.02	5853.09
943.18	5859.24
943.35	5935.01
943.52	5648.30
943.68	5570.48
943.85	5633.96
944.01	5769.13
944.18	5431.21
944.35	5478.32
944.51	5547.95
944.68	5390.25
944.84	5511.08
945.01	5400.49
945.17	5435.31
945.34	5439.40
945.51	5384.11
945.67	5418.93
945.84	5431.21
946.00	5263.28
946.17	5375.92
946.33	5324.72
946.50	5357.49
946.67	5271.47
946.83	5439.40
947.00	5390.25
947.16	5298.10
947.33	5220.27
947.49	5164.98
947.66	5138.35
947.82	5308.34
947.99	5060.53
948.16	5160.88
948.32	5228.46
948.49	5136.31
948.65	5156.79
948.82	5316.53
948.98	5238.70
949.15	5093.30
949.31	5238.70
949.48	5259.18
949.64	5214.13
949.81	5310.38
949.97	5177.26
950.14	5222.32
950.30	5294.00
950.47	5296.05
950.63	5302.19
950.80	5183.41
950.96	5275.57
951.13	5185.46
951.30	5334.96
951.46	5369.77
951.63	5296.05
951.79	5410.73
951.96	5388.21
952.12	5240.75
952.29	5244.85
952.45	5146.55
952.62	5343.15
952.78	5441.45
952.94	5377.97
953.11	5296.05
953.27	5054.39
953.44	5384.11
953.60	5355.44
953.77	5416.88
953.93	5365.68
954.10	5337.01
954.26	5427.12
954.43	5160.88
954.59	5373.87
954.76	5500.84
954.92	5363.63
955.09	5402.54
955.25	5459.88
955.42	5363.63
955.58	5367.73
955.75	5449.64
955.91	5343.15
956.07	5380.01
956.24	5423.02
956.40	5480.36
956.57	5431.21
956.73	5345.20
956.90	5261.23
957.06	5365.68
957.23	5330.86
957.39	5314.48
957.56	5371.82
957.72	5222.32
957.88	5384.11
958.05	5478.32
958.21	5365.68
958.38	5482.41
958.54	5279.66
958.71	5523.37
958.87	5494.70
959.03	5455.79
959.20	5480.36
959.36	5296.05
959.53	5396.40
959.69	5314.48
959.85	5545.90
960.02	5355.44
960.18	5312.43
960.35	5334.96
960.51	5396.40
960.68	5283.76
960.84	5445.55
961.00	5382.06
961.17	5351.34
961.33	5431.21
961.50	5418.93
961.66	5377.97
961.82	5384.11
961.99	5377.97
962.15	5320.62
962.31	5595.05
962.48	5468.08
962.64	5492.65
962.81	5285.81
962.97	5437.36
963.13	5398.45
963.30	5418.93
963.46	5334.96
963.62	5410.73
963.79	5195.70
963.95	5431.21
964.12	5355.44
964.28	5365.68
964.44	5359.53
964.61	5412.78
964.77	5388.21
964.93	5306.29
965.10	5388.21
965.26	5226.42
965.42	5175.22
965.59	5220.27
965.75	5218.22
965.92	5328.81
966.08	5259.18
966.24	5261.23
966.41	5347.25
966.57	5240.75
966.73	5240.75
966.90	5312.43
967.06	5234.61
967.22	5195.70
967.39	5027.76
967.55	5304.24
967.71	5216.18
967.88	5164.98
968.04	5095.35
968.20	5187.50
968.37	5234.61
968.53	5132.21
968.69	5072.82
968.85	5136.31
969.02	5107.63
969.18	5158.83
969.34	5072.82
969.51	5130.16
969.67	5093.30
969.83	5074.87
970.00	5246.90
970.16	5001.14
970.32	5183.41
970.48	5083.06
970.65	4908.98
970.81	4949.94
970.97	5033.91
971.14	4937.65
971.30	5072.82
971.46	4997.04
971.63	4913.08
971.79	5011.38
971.95	4784.06
972.11	4919.22
972.28	4900.79
972.44	5005.24
972.60	4880.31
972.76	4980.66
972.93	4814.77
973.09	5011.38
973.25	4900.79
973.42	4802.49
973.58	4755.38
973.74	4796.34
973.90	5035.96
974.07	4814.77
974.23	4628.41
974.39	4919.22
974.55	4882.36
974.72	4769.72
974.88	4822.97
975.04	4831.16
975.20	4784.06
975.37	4870.07
975.53	4718.52
975.69	4796.34
975.85	4706.23
976.01	4726.71
976.18	4597.69
976.34	4747.19
976.50	4638.65
976.66	4771.77
976.83	4667.32
976.99	4689.85
977.15	4665.27
977.31	4634.55
977.47	4681.66
977.64	4593.59
977.80	4452.28
977.96	4530.11
978.12	4566.97
978.29	4435.90
978.45	4507.58
978.61	4640.70
978.77	4644.79
978.93	4446.14
979.10	4526.01
979.26	4530.11
979.42	4630.46
979.58	4313.02
979.74	4450.24
979.91	4562.87
980.07	4386.75
980.23	4487.10
980.39	4437.95
980.55	4333.50
980.71	4390.84
980.88	4411.32
981.04	4374.46
981.20	4337.60
981.36	4423.61
981.52	4405.18
981.68	4208.58
981.85	4419.52
982.01	4382.65
982.17	4212.67
982.33	4343.74
982.49	4491.20
982.65	4282.30
982.82	4378.56
982.98	4399.04
983.14	4270.01
983.30	4384.70
983.46	4382.65
983.62	4222.91
983.79	4157.38
983.95	4300.73
984.11	4208.58
984.27	4227.01
984.43	4288.45
984.59	4071.36
984.75	4169.66
984.91	4097.99
985.08	4204.48
985.24	4097.99
985.40	4140.99
985.56	4061.12
985.72	4192.19
985.88	4075.46
986.04	4067.27
986.20	3989.44
986.37	4091.84
986.53	3893.19
986.69	4030.40
986.85	3975.11
987.01	3993.54
987.17	4071.36
987.33	4044.74
987.49	4034.50
987.65	3991.49
987.82	3889.09
987.98	3915.72
988.14	4018.11
988.30	3895.24
988.46	3928.00
988.62	3882.95
988.78	3790.79
988.94	3872.71
989.10	3903.43
989.26	3745.73
989.42	3825.61
989.59	3792.84
989.75	3733.45
989.91	3903.43
990.07	3835.85
990.23	3821.51
990.39	3794.89
990.55	3966.92
990.71	3774.41
990.87	3780.55
991.03	3882.95
991.19	3692.49
991.35	3751.88
991.51	3870.66
991.67	3817.41
991.83	3727.30
992.00	3729.35
992.16	3735.50
992.32	3835.85
992.48	3751.88
992.64	3635.14
992.80	3674.06
992.96	3674.06
993.12	3735.50
993.28	3821.51
993.44	3592.14
993.60	3727.30
993.76	3661.77
993.92	3624.90
994.08	3672.01
994.24	3678.15
994.40	3594.19
994.56	3672.01
994.72	3614.66
994.88	3502.03
995.04	3604.42
995.20	3534.79
995.36	3551.18
995.52	3499.98
995.68	3497.93
995.84	3469.26
996.00	3534.79
996.16	3540.94
996.32	3411.92
996.48	3475.40
996.64	3493.83
996.80	3493.83
996.96	3473.36
997.12	3416.01
997.28	3446.73
997.44	3358.67
997.60	3489.74
997.76	3377.10
997.92	3448.78
998.08	3514.31
998.24	3278.80
998.40	3391.44
998.56	3465.16
998.72	3334.09
998.88	3286.99
999.04	3375.05
999.20	3434.44
999.36	3305.42
999.52	3391.44
999.68	3215.31
999.84	3325.90
1000.00	3262.41
1000.16	3346.38
1000.32	3276.75
1000.48	3454.92
1000.64	3211.22
1000.80	3280.85
1000.95	3219.41
1001.11	3280.85
1001.27	3123.15
1001.43	3266.51
1001.59	3112.91
1001.75	3143.63
1001.91	3291.09
1002.07	3160.02
1002.23	3041.23
1002.39	3067.86
1002.55	3164.11
1002.71	3157.97
1002.87	3188.69
1003.03	3076.05
1003.19	3035.09
1003.34	3170.26
1003.50	3051.47
1003.66	3143.63
1003.82	3092.43
1003.98	3094.48
1004.14	3198.93
1004.30	3002.32
1004.46	2979.79
1004.62	3121.10
1004.78	2957.27
1004.94	3151.82
1005.09	2967.51
1005.25	3059.67
1005.41	3078.10
1005.57	3035.09
1005.73	2961.36
1005.89	2887.64
1006.05	3002.32
1006.21	2965.46
1006.37	2949.08
1006.52	2899.92
1006.68	2856.92
1006.84	3018.71
1007.00	2916.31
1007.16	2871.25
1007.32	2852.82
1007.48	2973.65
1007.64	2963.41
1007.79	2906.07
1007.95	2906.07
1008.11	2987.99
1008.27	2951.12
1008.43	2957.27
1008.59	2871.25
1008.75	2848.72
1008.91	2850.77
1009.06	2885.59
1009.22	2867.16
1009.38	2820.05
1009.54	2928.60
1009.70	2830.29
1009.86	2809.81
1010.01	2822.10
1010.17	2787.29
1010.33	2801.62
1010.49	2848.72
1010.65	2891.73
1010.81	2721.75
1010.96	2793.43
1011.12	2740.18
1011.28	2650.07
1011.44	2650.07
1011.60	2801.62
1011.76	2664.41
1011.91	2727.89
1012.07	2633.69
1012.23	2613.21
1012.39	2668.50
1012.55	2686.94
1012.71	2670.55
1012.86	2664.41
1013.02	2570.20
1013.18	2639.83
1013.34	2664.41
1013.50	2756.57
1013.65	2670.55
1013.81	2629.59
1013.97	2566.10
1014.13	2715.61
1014.29	2672.60
1014.44	2631.64
1014.60	2627.54
1014.76	2559.96
1014.92	2570.20
1015.07	2576.34
1015.23	2605.02
1015.39	2490.33
1015.55	2553.82
1015.71	2592.73
1015.86	2570.20
1016.02	2562.01
1016.18	2473.95
1016.34	2478.04
1016.49	2525.15
1016.65	2541.53
1016.81	2492.38
1016.97	2469.85
1017.12	2600.92
1017.28	2465.75
1017.44	2533.34
1017.60	2480.09
1017.75	2459.61
1017.91	2465.75
1018.07	2478.04
1018.23	2508.76
1018.38	2469.85
1018.54	2379.74
1018.70	2480.09
1018.86	2377.69
1019.01	2387.93
1019.17	2359.26
1019.33	2451.42
1019.49	2320.35
1019.64	2490.33
1019.80	2412.51
1019.96	2418.65
1020.12	2346.97
1020.27	2344.92
1020.43	2349.02
1020.59	2381.79
1020.74	2353.12
1020.90	2400.22
1021.06	2365.40
1021.22	2377.69
1021.37	2355.16
1021.53	2301.92
1021.69	2328.54
1021.84	2340.83
1022.00	2322.40
1022.16	2287.58
1022.31	2299.87
1022.47	2400.22
1022.63	2383.84
1022.79	2340.83
1022.94	2267.10
1023.10	2459.61
1023.26	2289.63
1023.41	2332.64
1023.57	2334.68
1023.73	2373.60
1023.88	2209.76
1024.04	2271.20
1024.20	2246.62
1024.35	2252.77
1024.51	2297.82
1024.67	2230.24
1024.82	2293.72
1024.98	2136.03
1025.14	2322.40
1025.29	2183.13
1025.45	2299.87
1025.61	2248.67
1025.76	2303.96
1025.92	2162.66
1026.08	2285.53
1026.23	2234.33
1026.39	2256.86
1026.55	2105.31
1026.70	2174.94
1026.86	2107.36
1027.02	2236.38
1027.17	2166.75
1027.33	2213.85
1027.48	2142.18
1027.64	2158.56
1027.80	2109.41
1027.95	2287.58
1028.11	2080.74
1028.27	2195.42
1028.42	2142.18
1028.58	2168.80
1028.73	2152.42
1028.89	2035.68
1029.05	2256.86
1029.20	2113.50
>>>>>End Processed Spectral Data<<<<<
