SpectraSuite Data File
++++++++++++++++++++++++++++++++++++
Date: Fri Jun 02 14:53:32 CEST 2017
User: INFO_000
Dark Spectrum Present: No
Reference Spectrum Present: No
Number of Sampled Component Spectra: 1
Spectrometers: USB4H00879
Integration Time (usec): 80000 (USB4H00879)
Spectra Averaged: 1 (USB4H00879)
Boxcar Smoothing: 0 (USB4H00879)
Correct for Electrical Dark: No (USB4H00879)
Strobe/Lamp Enabled: No (USB4H00879)
Correct for Detector Non-linearity: No (USB4H00879)
Correct for Stray Light: No (USB4H00879)
Number of Pixels in Processed Spectrum: 3648
>>>>>Begin Processed Spectral Data<<<<<
345.13	1234.93
345.34	1234.93
345.56	1234.93
345.78	1339.37
345.99	1269.74
346.21	1634.28
346.42	1746.92
346.64	1638.38
346.86	1773.54
347.07	1648.61
347.29	1701.86
347.50	1695.72
347.72	1648.61
347.94	1748.97
348.15	1605.61
348.37	1615.85
348.59	1732.58
348.80	1673.19
349.02	1751.01
349.23	1959.91
349.45	1796.07
349.67	1837.03
349.88	1834.98
350.10	1992.67
350.31	1845.22
350.53	1843.17
350.75	2045.92
350.96	1853.41
351.18	1865.70
351.39	1892.32
351.61	1851.36
351.82	1918.95
352.04	1943.52
352.26	1859.56
352.47	1861.60
352.69	1955.81
352.90	1785.83
353.12	1839.08
353.34	1867.75
353.55	1929.19
353.77	1871.84
353.98	1824.74
354.20	1849.32
354.41	1873.89
354.63	1830.88
354.85	2011.11
355.06	1914.85
355.28	1785.83
355.49	1894.37
355.71	1890.28
355.92	1845.22
356.14	1925.09
356.35	1861.60
356.57	1908.71
356.79	1972.19
357.00	1800.16
357.22	1968.10
357.43	1855.46
357.65	1982.43
357.86	1863.65
358.08	1978.34
358.29	1939.43
358.51	1982.43
358.72	1976.29
358.94	1937.38
359.16	1937.38
359.37	1953.76
359.59	1957.86
359.80	1990.63
360.02	1910.75
360.23	1898.47
360.45	2021.35
360.66	1986.53
360.88	1900.52
361.09	1900.52
361.31	2037.73
361.52	1990.63
361.74	2019.30
361.95	2062.30
362.17	1968.10
362.38	2035.68
362.60	2000.87
362.81	1953.76
363.03	1949.67
363.24	1980.39
363.46	2033.63
363.67	2084.83
363.89	2039.78
364.10	2056.16
364.32	1972.19
364.53	2076.64
364.75	1937.38
364.96	2023.39
365.18	2052.06
365.39	1949.67
365.61	1945.57
365.82	2123.74
366.04	1994.72
366.25	1966.05
366.47	2101.22
366.68	2152.42
366.90	1988.58
367.11	2146.27
367.33	2138.08
367.54	2084.83
367.76	2039.78
367.97	2131.94
368.19	1990.63
368.40	2025.44
368.62	1974.24
368.83	1976.29
369.05	2117.60
369.26	1996.77
369.48	1908.71
369.69	2047.97
369.91	2078.69
370.12	1947.62
370.33	2070.50
370.55	1978.34
370.76	1988.58
370.98	2158.56
371.19	2070.50
371.41	2115.55
371.62	2111.46
371.84	2017.25
372.05	2148.32
372.27	2004.96
372.48	2070.50
372.69	2109.41
372.91	2125.79
373.12	2254.81
373.34	2056.16
373.55	2203.61
373.77	2148.32
373.98	2084.83
374.20	2164.70
374.41	2275.29
374.62	2154.46
374.84	2174.94
375.05	2123.74
375.27	2115.55
375.48	2168.80
375.70	2142.18
375.91	2244.57
376.12	2222.05
376.34	2097.12
376.55	2187.23
376.77	2199.52
376.98	2142.18
377.19	2187.23
377.41	2176.99
377.62	2238.43
377.84	2215.90
378.05	2394.08
378.27	2168.80
378.48	2326.49
378.69	2318.30
378.91	2248.67
379.12	2258.91
379.34	2306.01
379.55	2277.34
379.76	2301.92
379.98	2269.15
380.19	2301.92
380.41	2230.24
380.62	2248.67
380.83	2271.20
381.05	2220.00
381.26	2377.69
381.47	2289.63
381.69	2306.01
381.90	2361.31
382.12	2287.58
382.33	2269.15
382.54	2355.16
382.76	2344.92
382.97	2342.88
383.19	2209.76
383.40	2416.60
383.61	2310.11
383.83	2308.06
384.04	2275.29
384.25	2396.12
384.47	2420.70
384.68	2332.64
384.89	2330.59
385.11	2318.30
385.32	2318.30
385.54	2430.94
385.75	2355.16
385.96	2377.69
386.18	2445.27
386.39	2426.84
386.60	2340.83
386.82	2531.29
387.03	2432.99
387.24	2406.36
387.46	2531.29
387.67	2506.71
387.88	2541.53
388.10	2562.01
388.31	2471.90
388.52	2588.63
388.74	2529.24
388.95	2459.61
389.16	2580.44
389.38	2519.00
389.59	2596.82
389.80	2584.54
390.02	2576.34
390.23	2635.74
390.44	2519.00
390.66	2555.86
390.87	2498.52
391.08	2559.96
391.30	2711.51
391.51	2584.54
391.72	2734.04
391.94	2631.64
392.15	2621.40
392.36	2650.07
392.58	2609.11
392.79	2652.12
393.00	2738.13
393.22	2707.41
393.43	2832.34
393.64	2779.09
393.85	2836.44
394.07	2701.27
394.28	2662.36
394.49	2758.61
394.71	2828.24
394.92	2785.24
395.13	2705.37
395.35	2789.33
395.56	2707.41
395.77	2744.28
395.98	2805.72
396.20	2861.01
396.41	2861.01
396.62	2797.53
396.84	2885.59
397.05	2822.10
397.26	2889.68
397.47	3037.14
397.69	2863.06
397.90	3037.14
398.11	2959.31
398.32	2830.29
398.54	2877.40
398.75	2928.60
398.96	2932.69
399.18	3143.63
399.39	2965.46
399.60	3035.09
399.81	2961.36
400.03	2908.12
400.24	3317.71
400.45	2967.51
400.66	3102.67
400.88	3055.57
401.09	3256.27
401.30	3184.59
401.51	3164.11
401.73	3194.83
401.94	3211.22
402.15	3123.15
402.36	3168.21
402.58	3186.64
402.79	3196.88
403.00	3205.07
403.21	3182.54
403.43	3280.85
403.64	3338.19
403.85	3096.53
404.06	3317.71
404.27	3227.60
404.49	3256.27
404.70	3104.72
404.91	3411.92
405.12	3286.99
405.34	3256.27
405.55	3459.02
405.76	3203.02
405.97	3346.38
406.19	3481.55
406.40	3133.39
406.61	3428.30
406.82	3295.18
407.03	3225.55
407.25	3385.29
407.46	3254.22
407.67	3422.16
407.88	3518.41
408.09	3354.57
408.31	3407.82
408.52	3483.59
408.73	3295.18
408.94	3403.72
409.15	3456.97
409.37	3508.17
409.58	3506.12
409.79	3557.32
410.00	3561.42
410.21	3403.72
410.43	3633.10
410.64	3389.39
410.85	3516.36
411.06	3579.85
411.27	3747.78
411.48	3678.15
411.70	3655.62
411.91	3712.97
412.12	3639.24
412.33	3618.76
412.54	3688.39
412.76	3637.19
412.97	3696.58
413.18	3502.03
413.39	3616.71
413.60	3635.14
413.81	3827.65
414.03	3657.67
414.24	3753.93
414.45	3798.98
414.66	3639.24
414.87	3727.30
415.08	3741.64
415.30	3702.73
415.51	3794.89
415.72	3680.20
415.93	3833.80
416.14	3782.60
416.35	3768.26
416.56	3715.02
416.78	3774.41
416.99	3876.80
417.20	3899.33
417.41	3981.25
417.62	3850.18
417.83	3975.11
418.04	3889.09
418.26	4038.59
418.47	3919.81
418.68	3960.77
418.89	4034.50
419.10	4134.85
419.31	3925.96
419.52	4171.71
419.73	4005.83
419.95	4196.29
420.16	4016.07
420.37	4100.03
420.58	3989.44
420.79	3948.48
421.00	4147.14
421.21	4202.43
421.42	4046.79
421.63	4286.40
421.85	4163.52
422.06	4071.36
422.27	4237.25
422.48	4192.19
422.69	4112.32
422.90	4337.60
423.11	4319.17
423.32	4280.25
423.53	4325.31
423.75	4341.69
423.96	4466.62
424.17	4294.59
424.38	4634.55
424.59	4480.96
424.80	4599.74
425.01	4521.92
425.22	4411.32
425.43	4472.76
425.64	4454.33
425.85	4763.58
426.06	4704.18
426.28	4548.54
426.49	4452.28
426.70	4636.60
426.91	4673.46
427.12	4749.24
427.33	4609.98
427.54	4687.80
427.75	4810.68
427.96	4763.58
428.17	4808.63
428.38	4878.26
428.59	4863.93
428.80	4718.52
429.01	4951.99
429.23	4786.10
429.44	4976.56
429.65	5017.52
429.86	4870.07
430.07	4917.17
430.28	5046.20
430.49	4947.89
430.70	5076.91
430.91	5193.65
431.12	4966.32
431.33	5164.98
431.54	5203.89
431.75	5253.04
431.96	5062.58
432.17	5119.92
432.38	5160.88
432.59	5369.77
432.80	5207.98
433.01	5343.15
433.22	5345.20
433.43	5402.54
433.64	5351.34
433.85	5289.90
434.06	5408.69
434.27	5377.97
434.49	5560.24
434.70	5517.23
434.91	5431.21
435.12	5709.74
435.33	5494.70
435.54	5527.47
435.75	5377.97
435.96	5463.98
436.17	5515.18
436.38	5691.31
436.59	5769.13
436.80	5674.92
437.01	5846.95
437.22	5863.33
437.43	5679.02
437.64	5443.50
437.85	5830.57
438.06	5826.47
438.27	5664.68
438.48	5805.99
438.69	5758.89
438.90	5738.41
439.11	5754.79
439.32	6041.51
439.53	5924.77
439.74	5853.09
439.95	5873.57
440.16	5994.40
440.37	5932.97
440.57	5879.72
440.78	6008.74
440.99	5973.92
441.20	6133.67
441.41	5959.59
441.62	6102.95
441.83	5988.26
442.04	6277.02
442.25	6037.41
442.46	6129.57
442.67	6338.46
442.88	6457.25
443.09	6061.99
443.30	6152.10
443.51	6250.40
443.72	6492.06
443.93	6203.30
444.14	6485.92
444.35	6229.92
444.56	6346.66
444.77	6299.55
444.98	6467.49
445.19	6500.25
445.40	6461.34
445.61	6363.04
445.81	6487.96
446.02	6614.94
446.23	6463.39
446.44	6387.61
446.65	6485.92
446.86	6657.95
447.07	6553.50
447.28	6928.28
447.49	6758.30
447.70	6623.13
447.91	6795.16
448.12	6852.50
448.33	7016.34
448.54	6875.03
448.74	6760.34
448.95	6952.85
449.16	6727.58
449.37	7049.11
449.58	6887.32
449.79	7018.39
450.00	6864.79
450.21	7051.16
450.42	7026.58
450.63	7131.03
450.84	7083.92
451.05	7137.17
451.25	7124.88
451.46	7106.45
451.67	7225.23
451.88	7360.40
452.09	7327.63
452.30	7120.79
452.51	7239.57
452.72	7440.27
452.93	7520.14
453.13	7290.77
453.34	7391.12
453.55	7368.59
453.76	7438.22
453.97	7819.14
454.18	7458.70
454.39	7620.49
454.60	7591.82
454.81	7589.77
455.01	7923.59
455.22	7536.52
455.43	7634.83
455.64	7874.44
455.85	7851.91
456.06	8099.72
456.27	7792.52
456.48	7970.69
456.68	8028.04
456.89	7985.03
457.10	8169.35
457.31	8036.23
457.52	8134.53
457.73	8056.71
457.94	8300.42
458.14	7966.60
458.35	8406.91
458.56	8202.11
458.77	8245.12
458.98	8398.72
459.19	8423.30
459.39	8398.72
459.60	8540.03
459.81	8392.58
460.02	8609.66
460.23	8564.61
460.44	8945.53
460.65	8923.00
460.85	8834.94
461.06	8906.62
461.27	8753.02
461.48	8986.49
461.69	9113.46
461.89	8787.83
462.10	9052.02
462.31	8671.10
462.52	8834.94
462.73	9140.08
462.94	9115.51
463.14	9125.75
463.35	8834.94
463.56	9561.97
463.77	9492.34
463.98	9385.84
464.18	9387.89
464.39	9580.40
464.60	9717.61
464.81	9768.81
465.02	9680.75
465.23	9875.31
465.43	9709.42
465.64	9949.03
465.85	9924.46
466.06	9807.72
466.27	10129.25
466.47	10086.25
466.68	10168.16
466.89	10157.92
467.10	10301.28
467.30	9899.88
467.51	10340.19
467.72	10600.29
467.93	10399.59
468.14	10358.63
468.34	10508.13
468.55	10522.46
468.76	10489.70
468.97	10444.64
469.17	10811.23
469.38	10909.53
469.59	11069.27
469.80	10938.20
470.01	10956.63
470.21	10751.84
470.42	11099.99
470.63	11372.37
470.84	11022.17
471.04	11231.06
471.25	11222.87
471.46	11368.27
471.67	11679.57
471.87	11343.70
472.08	11661.13
472.29	11718.48
472.50	11521.87
472.70	11812.68
472.91	11886.41
473.12	12218.18
473.33	12023.62
473.53	12255.04
473.74	12191.56
473.95	12222.28
474.16	12369.73
474.36	12429.12
474.57	12574.53
474.78	12762.94
474.99	12318.53
475.19	12556.10
475.40	12980.03
475.61	12908.35
475.81	13086.52
476.02	13098.81
476.23	12883.77
476.44	13379.38
476.64	13442.87
476.85	13637.42
477.06	13598.51
477.27	13608.75
477.47	13803.31
477.68	13817.65
477.89	14229.29
478.09	13778.73
478.30	14106.41
478.51	13987.63
478.71	14405.41
478.92	14505.76
479.13	14718.75
479.34	14544.67
479.54	14671.65
479.75	14806.81
479.96	14798.62
480.16	14935.84
480.37	15001.37
480.58	15107.87
480.78	15318.81
480.99	15263.51
481.20	15191.83
481.41	15570.71
481.61	15849.23
481.82	15922.96
482.03	15421.20
482.23	15634.19
482.44	15896.33
482.65	16209.67
482.85	16314.12
483.06	16154.38
483.27	16318.22
483.47	16367.37
483.68	16226.06
483.89	16738.05
484.09	16414.47
484.30	16865.02
484.51	16957.18
484.71	16957.18
484.92	16795.39
485.13	16932.61
485.33	17190.65
485.54	17239.80
485.75	17446.65
485.95	17555.19
486.16	17571.57
486.37	17725.17
486.57	17594.10
486.78	17788.66
486.98	17864.43
487.19	18185.96
487.40	18192.11
487.60	18038.51
487.81	18544.36
488.02	18302.70
488.22	18228.97
488.43	18511.59
488.64	18482.92
488.84	18706.15
489.05	18951.90
489.25	18933.47
489.46	19066.59
489.67	18943.71
489.87	19322.59
490.08	19064.54
490.29	19152.60
490.49	19648.21
490.70	19644.12
490.90	19838.67
491.11	19414.74
491.32	19343.06
491.52	19936.98
491.73	19793.62
491.94	20086.48
492.14	20121.29
492.35	20246.22
492.55	20143.82
492.76	20580.04
492.97	20623.05
493.17	20543.17
493.38	20686.53
493.58	20897.47
493.79	20983.49
494.00	21014.21
494.20	21057.21
494.41	21071.55
494.61	21167.80
494.82	21374.65
495.02	21434.04
495.23	21460.66
495.44	21546.68
495.64	21823.16
495.85	21538.49
496.05	21843.63
496.26	21780.15
496.47	21833.39
496.67	21935.79
496.88	22197.93
497.08	22030.00
497.29	22380.20
497.49	22267.56
497.70	22363.82
497.91	22726.31
498.11	22648.49
498.32	22679.21
498.52	22881.95
498.73	22976.16
498.93	22967.97
499.14	23203.49
499.34	23043.74
499.55	23207.58
499.76	22959.78
499.96	23254.69
500.17	23283.36
500.37	23400.09
500.58	23600.79
500.78	23441.05
500.99	23735.96
501.19	23811.73
501.40	23647.90
501.60	23762.58
501.81	23813.78
502.02	23957.14
502.22	23975.57
502.43	24106.64
502.63	24405.64
502.84	24266.38
503.04	24231.57
503.25	24532.62
503.45	24491.66
503.66	24739.46
503.86	24864.39
504.07	25032.32
504.27	24565.39
504.48	25173.63
504.68	24880.77
504.89	25312.89
505.09	25110.14
505.30	25112.19
505.50	25099.90
505.71	25257.60
505.91	25388.67
506.12	25392.76
506.32	25536.12
506.53	25175.68
506.73	25564.79
506.94	25507.45
507.14	25790.07
507.35	25751.16
507.55	25724.54
507.76	25908.85
507.96	25871.99
508.17	25812.60
508.37	25990.77
508.58	25939.57
508.78	26031.73
508.99	26556.01
509.19	26173.04
509.40	26674.79
509.60	26482.28
509.81	26244.72
510.01	26291.82
510.22	26269.30
510.42	26551.91
510.63	26744.42
510.83	26637.93
511.04	26723.94
511.24	26822.25
511.44	27102.82
511.65	26947.17
511.85	26996.32
512.06	26859.11
512.26	27172.45
512.47	27121.25
512.67	27129.44
512.88	27375.20
513.08	26728.04
513.29	27270.75
513.49	27082.34
513.69	27389.53
513.90	27633.24
514.10	27252.32
514.31	27952.73
514.51	27823.70
514.72	27670.11
514.92	27672.15
515.13	28030.55
515.33	27946.58
515.53	28032.60
515.74	28116.56
515.94	27989.59
516.15	27956.82
516.35	27803.22
516.56	28319.31
516.76	28366.42
516.96	28376.66
517.17	28350.03
517.37	28626.51
517.58	28171.86
517.78	28583.50
517.99	28571.21
518.19	28989.00
518.39	29023.81
518.60	28970.57
518.80	28798.54
519.01	28696.14
519.21	28827.21
519.41	29146.69
519.62	29105.73
519.82	29318.72
520.03	29292.10
520.23	29066.82
520.43	29482.56
520.64	29750.84
520.84	29603.39
521.05	29515.33
521.25	29924.92
521.45	29761.08
521.66	30008.89
521.86	29814.33
522.07	29752.89
522.27	30029.37
522.47	30203.44
522.68	30301.75
522.88	30250.55
523.08	30752.30
523.29	30359.09
523.49	30649.90
523.70	30539.31
523.90	30627.37
524.10	30737.96
524.31	31133.22
524.51	30565.93
524.71	31170.08
524.92	31098.41
525.12	31467.04
525.33	31264.29
525.53	31358.50
525.73	31417.89
525.94	31514.14
526.14	31620.64
526.34	31671.84
526.55	31571.49
526.75	31610.40
526.95	32280.08
527.16	31968.79
527.36	31829.53
527.56	31995.42
527.77	32169.49
527.97	32378.39
528.17	32413.20
528.38	32628.24
528.58	32536.08
528.78	32779.79
528.99	32486.93
529.19	33101.32
529.39	32687.63
529.60	32964.10
529.80	33277.44
530.00	32906.76
530.21	33263.11
530.41	33066.50
530.61	33357.32
530.82	33259.01
531.02	33496.58
531.22	33383.94
531.43	33719.81
531.63	33988.09
531.83	34024.95
532.04	34399.73
532.24	33629.69
532.44	34248.18
532.64	34430.45
532.85	34186.74
533.05	34336.24
533.25	34612.72
533.46	34469.36
533.66	35022.31
533.86	34764.27
534.07	34989.55
534.27	35157.48
534.47	35266.02
534.67	35239.40
534.88	35311.08
535.08	35225.06
535.28	35534.31
535.49	35550.69
535.69	36021.72
535.89	35694.05
536.09	35939.80
536.30	36212.18
536.50	36410.84
536.70	36394.45
536.91	36271.57
537.11	36343.25
537.31	36077.02
537.51	36345.30
537.72	36494.80
537.92	36754.90
538.12	37047.75
538.32	36449.75
538.53	37219.78
538.73	36677.07
538.93	36996.56
539.13	37027.28
539.34	37031.37
539.54	37162.44
539.74	37346.76
539.94	37301.70
540.15	37275.08
540.35	37944.76
540.55	37744.06
540.75	37696.96
540.96	37995.96
541.16	37955.00
541.36	37805.50
541.56	37807.55
541.77	38403.51
541.97	38008.25
542.17	38297.02
542.37	37950.91
542.58	38297.02
542.78	38190.52
542.98	38559.16
543.18	38843.82
543.38	38866.35
543.59	39030.19
543.79	38718.90
543.99	38645.17
544.19	39159.21
544.40	38843.82
544.60	39347.62
544.80	38942.13
545.00	38987.18
545.20	39886.24
545.41	39316.90
545.61	39167.40
545.81	39824.80
546.01	39714.21
546.21	39574.95
546.42	39652.77
546.62	39777.70
546.82	39679.39
547.02	39806.37
547.22	39925.15
547.43	39939.49
547.63	40052.12
547.83	40170.91
548.03	39847.33
548.23	40367.51
548.44	40113.56
548.64	40787.35
548.84	40732.05
549.04	40111.52
549.24	40435.10
549.45	40754.58
549.65	40351.13
549.85	40799.63
550.05	40936.85
550.25	40584.60
550.45	41235.85
550.66	40836.50
550.86	40885.65
551.06	41358.73
551.26	41059.73
551.46	40623.51
551.66	41168.27
551.87	40877.46
552.07	41297.29
552.27	41307.53
552.47	41629.06
552.67	41325.96
552.87	41653.64
553.07	41452.94
553.28	41983.36
553.48	42040.70
553.68	41332.11
553.88	41983.36
554.08	41956.74
554.28	41762.18
554.48	41751.94
554.69	42030.46
554.89	41792.90
555.09	42030.46
555.29	42120.57
555.49	42249.60
555.69	42239.36
555.89	42165.63
556.10	42280.31
556.30	42382.71
556.50	42634.61
556.70	42313.08
556.90	42587.51
557.10	42718.58
557.30	42261.88
557.50	42638.71
557.70	42579.32
557.91	42866.03
558.11	42607.99
558.31	42698.10
558.51	43015.54
558.71	42702.20
558.91	42839.41
559.11	42372.47
559.31	42954.10
559.51	42628.47
559.72	42798.45
559.92	42966.38
560.12	42993.01
560.32	42964.34
560.52	42786.16
560.72	43187.56
560.92	43115.89
561.12	43111.79
561.32	43525.48
561.52	43242.86
561.72	43560.30
561.93	43509.10
562.13	43369.83
562.33	43478.38
562.53	43881.83
562.73	43214.19
562.93	43496.81
563.13	43847.01
563.33	43611.49
563.53	43527.53
563.73	43646.31
563.93	43894.11
564.13	44377.43
564.33	43541.86
564.53	43461.99
564.74	44051.81
564.94	43853.15
565.14	44012.90
565.34	43986.27
565.54	43967.84
565.74	43941.22
565.94	44412.25
566.14	44045.66
566.34	44176.73
566.54	44666.20
566.74	44133.73
566.94	44328.28
567.14	44367.20
567.34	44299.61
567.54	44725.59
567.74	44510.55
567.94	44600.66
568.14	44705.11
568.34	44467.55
568.54	44379.48
568.74	44776.79
568.94	44496.22
569.14	45053.26
569.34	44830.04
569.54	44844.37
569.75	44500.31
569.95	44318.04
570.15	45059.41
570.35	45176.14
570.55	44651.86
570.75	45290.83
570.95	45036.88
571.15	45450.57
571.35	45161.81
571.55	45223.25
571.75	44987.73
571.95	45325.64
572.15	45440.33
572.35	45559.11
572.55	45137.23
572.75	45610.31
572.95	45673.80
573.15	45768.01
573.35	45731.14
573.55	45761.86
573.75	45747.53
573.95	45579.59
574.15	45686.09
574.35	45686.09
574.55	45755.72
574.75	45868.36
574.95	45509.96
575.15	46036.29
575.34	45933.89
575.54	45997.38
575.74	46138.69
575.94	46058.82
576.14	46126.40
576.34	46282.05
576.54	46419.26
576.74	46253.37
576.94	46576.95
577.14	46740.79
577.34	47052.08
577.54	46576.95
577.74	46431.55
577.94	46497.08
578.14	46716.22
578.34	46789.94
578.54	46234.94
578.74	47029.55
578.94	47117.62
579.14	46724.41
579.34	46669.11
579.54	46802.23
579.74	47166.77
579.94	46943.54
580.13	47695.14
580.33	47576.36
580.53	47428.91
580.73	47246.64
580.93	47160.62
581.13	47107.38
581.33	47639.85
581.53	47684.90
581.73	47650.09
581.93	47854.89
582.13	47766.82
582.33	47641.90
582.53	47992.10
582.73	47783.21
582.92	47961.38
583.12	48051.49
583.32	47930.66
583.52	47793.45
583.72	48104.74
583.92	48176.42
584.12	48440.60
584.32	48530.72
584.52	48420.13
584.72	48387.36
584.92	48504.09
585.11	49110.29
585.31	48399.65
585.51	48522.52
585.71	48553.24
585.91	49278.22
586.11	48686.36
586.31	48672.03
586.51	48661.79
586.71	48864.53
586.91	49222.93
587.10	48755.99
587.30	49052.95
587.50	49034.52
587.70	49423.63
587.90	49218.83
588.10	48985.36
588.30	49405.20
588.50	49392.91
588.69	48932.12
588.89	49657.10
589.09	49132.82
589.29	49554.70
589.49	49669.39
589.69	49095.95
589.89	49718.54
590.08	49747.21
590.28	49898.76
590.48	49560.84
590.68	49603.85
590.88	49882.37
591.08	49657.10
591.28	49665.29
591.47	50208.00
591.67	49833.22
591.87	49925.38
592.07	50216.19
592.27	50371.84
592.47	49685.77
592.67	50361.60
592.86	50105.60
593.06	50203.91
593.26	50316.54
593.46	50107.65
593.66	50365.70
593.86	50566.40
594.05	50531.58
594.25	50965.75
594.45	50199.81
594.65	50599.16
594.85	50633.98
595.05	50631.93
595.24	51219.70
595.44	51008.76
595.64	51047.67
595.84	50908.41
596.04	50853.11
596.23	50943.22
596.43	51367.15
596.63	51311.86
596.83	51021.05
597.03	51467.50
597.22	51545.33
597.42	51311.86
597.62	51436.78
597.82	51414.26
598.02	51338.48
598.21	51557.61
598.41	51123.44
598.61	51623.15
598.81	51418.35
599.01	51705.07
599.20	51500.27
599.40	51387.63
599.60	51434.74
599.80	51723.50
600.00	52270.31
600.19	51907.82
600.39	52098.28
600.59	52090.09
600.79	52630.75
600.98	51780.84
601.18	52471.01
601.38	52462.82
601.58	52264.16
601.78	52761.82
601.97	52550.88
602.17	52874.46
602.37	52888.79
602.57	52624.60
602.76	53286.10
602.96	52780.25
603.16	53402.83
603.36	52747.48
603.55	53034.20
603.75	52841.69
603.95	52894.94
604.15	53646.54
604.34	53023.96
604.54	53210.32
604.74	53298.39
604.94	53347.54
605.13	53277.91
605.33	53574.86
605.53	53064.92
605.73	53658.83
605.92	53603.53
606.12	53873.87
606.32	53632.21
606.52	53621.97
606.71	53251.28
606.91	54013.13
607.11	53533.90
607.30	53853.39
607.50	53576.91
607.70	53861.58
607.90	53886.15
608.09	53718.22
608.29	54006.98
608.49	54181.06
608.68	53898.44
608.88	54291.65
609.08	54359.23
609.28	54183.11
609.47	54052.04
609.67	54572.22
609.87	54033.61
610.06	54351.04
610.26	54346.95
610.46	54711.49
610.66	54254.79
610.85	54648.00
611.05	54154.44
611.25	54594.75
611.44	54510.78
611.64	54285.51
611.84	54326.47
612.03	54486.21
612.23	54703.29
612.43	54836.41
612.62	54422.72
612.82	54869.18
613.02	55055.54
613.21	54676.67
613.41	54478.02
613.61	54729.92
613.80	54170.82
614.00	54320.32
614.20	54977.72
614.39	54822.08
614.59	55184.57
614.79	54703.29
614.98	54785.21
615.18	55030.97
615.38	54930.62
615.57	54734.01
615.77	54666.43
615.97	54875.32
616.16	54252.74
616.36	54318.28
616.56	55327.92
616.75	54899.90
616.95	54949.05
617.15	54617.28
617.34	54738.11
617.54	54961.34
617.74	55393.46
617.93	54981.82
618.13	55217.33
618.32	54973.63
618.52	54770.88
618.72	54934.71
618.91	54990.01
619.11	54953.15
619.31	54785.21
619.50	55186.61
619.70	54498.50
619.90	55016.63
620.09	54801.60
620.29	54807.74
620.48	54897.85
620.68	55334.07
620.88	54723.77
621.07	54672.57
621.27	55104.70
621.46	54508.74
621.66	54736.06
621.86	54817.98
622.05	54727.87
622.25	55192.76
622.44	54922.43
622.64	54777.02
622.84	55227.57
623.03	54863.03
623.23	54639.81
623.42	54795.45
623.62	55153.85
623.82	55049.40
624.01	55006.39
624.21	55289.01
624.40	55004.34
624.60	54584.51
624.80	54604.99
624.99	54742.20
625.19	54875.32
625.38	55442.61
625.58	55260.34
625.77	55043.26
625.97	55155.89
626.17	54971.58
626.36	54846.65
626.56	55100.60
626.75	54348.99
626.95	55178.42
627.14	54918.33
627.34	55235.77
627.54	54736.06
627.73	55153.85
627.93	54916.28
628.12	54600.89
628.32	55360.69
628.51	55215.29
628.71	54940.86
628.90	54953.15
629.10	55012.54
629.30	54891.71
629.49	55463.09
629.69	54789.31
629.88	55223.48
630.08	55514.29
630.27	55379.12
630.47	54912.19
630.66	54850.75
630.86	55278.77
631.05	54664.38
631.25	55315.64
631.44	54930.62
631.64	55284.92
631.84	55534.77
632.03	55534.77
632.23	55239.86
632.42	55858.35
632.62	55243.96
632.81	54844.60
633.01	55018.68
633.20	55186.61
633.40	55604.40
633.59	55409.84
633.79	54801.60
633.98	55196.85
634.18	55415.99
634.37	55481.52
634.57	55082.17
634.76	55813.29
634.96	55563.44
635.15	55600.30
635.35	55522.48
635.54	55358.64
635.74	55387.31
635.93	55092.41
636.13	55624.88
636.32	55690.41
636.52	54910.14
636.71	55481.52
636.91	55956.65
637.10	55432.37
637.30	55655.60
637.49	55588.02
637.69	55514.29
637.88	56013.99
638.08	55645.36
638.27	55549.10
638.46	55428.27
638.66	55231.67
638.85	55403.70
639.05	55151.80
639.24	55782.57
639.44	55313.59
639.63	55782.57
639.83	55809.20
640.02	55878.83
640.22	55573.68
640.41	55852.20
640.61	55383.22
640.80	55721.13
640.99	55743.66
641.19	56415.40
641.38	55897.26
641.58	55954.60
641.77	55751.85
641.97	55418.03
642.16	56071.34
642.36	55633.07
642.55	56466.59
642.74	55844.01
642.94	56233.13
643.13	55678.13
643.33	56278.18
643.52	56153.26
643.72	56046.76
643.91	56300.71
644.10	56206.50
644.30	56695.97
644.49	56329.38
644.69	56302.76
644.88	56276.13
645.08	55592.11
645.27	55827.63
645.46	55751.85
645.66	56378.53
645.85	56136.87
646.05	56589.47
646.24	56450.21
646.43	56425.64
646.63	56218.79
646.82	56689.82
647.02	56390.82
647.21	56204.45
647.40	56669.34
647.60	56509.60
647.79	56362.15
647.99	56800.41
648.18	56263.85
648.37	57183.38
648.57	56861.85
648.76	56513.70
648.96	56011.95
649.15	56771.74
649.34	56724.64
649.54	56347.81
649.73	56646.82
649.92	56693.92
650.12	56403.11
650.31	57136.28
650.51	56947.87
650.70	56661.15
650.89	56448.16
651.09	57527.44
651.28	56777.89
651.47	56794.27
651.67	56951.96
651.86	57195.67
652.06	56599.71
652.25	56958.11
652.44	56673.44
652.64	56970.39
652.83	56300.71
653.02	57089.18
653.22	56521.89
653.41	56505.51
653.60	56751.26
653.80	56546.47
653.99	57064.60
654.18	57201.82
654.38	57093.27
654.57	57244.82
654.76	56882.33
654.96	56544.42
655.15	56720.54
655.34	56829.08
655.54	56773.79
655.73	56442.02
655.92	57031.83
656.12	56997.02
656.31	57365.65
656.50	57111.70
656.70	57095.32
656.89	57046.17
657.08	57386.13
657.28	57054.36
657.47	57193.62
657.66	57490.58
657.86	56913.05
658.05	57185.43
658.24	57246.87
658.43	56988.83
658.63	57269.40
658.82	57042.07
659.01	57398.42
659.21	57212.06
659.40	57197.72
659.59	57341.08
659.79	57433.24
659.98	57369.75
660.17	57480.34
660.36	57359.51
660.56	57525.39
660.75	57119.90
660.94	57255.06
661.14	57281.69
661.33	57150.62
661.52	56655.01
661.71	57443.48
661.91	57390.23
662.10	56937.63
662.29	57533.59
662.49	57105.56
662.68	57509.01
662.87	57089.18
663.06	57230.49
663.26	56874.14
663.45	57527.44
663.64	57218.20
663.83	57513.11
664.03	57709.71
664.22	57230.49
664.41	57271.45
664.60	57021.59
664.80	57332.89
664.99	56992.92
665.18	56949.92
665.37	57363.60
665.57	57642.13
665.76	57574.55
665.95	57146.52
666.14	57074.84
666.34	57119.90
666.53	57255.06
666.72	57201.82
666.91	57130.14
667.11	57142.42
667.30	57218.20
667.49	57142.42
667.68	57310.36
667.87	57023.64
668.07	57201.82
668.26	57341.08
668.45	57498.77
668.64	57003.16
668.84	58055.82
669.03	57685.14
669.22	57357.46
669.41	57283.73
669.60	57201.82
669.80	57193.62
669.99	57879.69
670.18	56972.44
670.37	57228.44
670.57	57191.58
670.76	57255.06
670.95	57484.43
671.14	57498.77
671.33	57386.13
671.53	58139.78
671.72	57472.15
671.91	57261.21
672.10	57214.10
672.29	57277.59
672.48	57095.32
672.68	57777.29
672.87	57554.07
673.06	56884.38
673.25	57015.45
673.44	57179.29
673.64	57349.27
673.83	57160.86
674.02	57119.90
674.21	57293.97
674.40	57525.39
674.59	56816.80
674.79	56720.54
674.98	56908.96
675.17	57318.55
675.36	56857.76
675.55	57027.74
675.74	56810.65
675.94	57189.53
676.13	57023.64
676.32	57316.50
676.51	57185.43
676.70	57109.66
676.89	56868.00
677.08	57185.43
677.28	56904.86
677.47	57207.96
677.66	57480.34
677.85	56861.85
678.04	56824.99
678.23	57001.11
678.42	57441.43
678.62	56890.52
678.81	57189.53
679.00	56562.85
679.19	57287.83
679.38	57332.89
679.57	57158.81
679.76	56966.30
679.96	56947.87
680.15	57019.55
680.34	57142.42
680.53	56648.86
680.72	56781.98
680.91	56937.63
681.10	56671.39
681.29	56779.93
681.48	56720.54
681.68	56818.84
681.87	56779.93
682.06	56810.65
682.25	56390.82
682.44	56226.98
682.63	56499.36
682.82	56376.48
683.01	56358.05
683.20	56153.26
683.39	56714.40
683.59	56237.22
683.78	55923.88
683.97	56013.99
684.16	56257.70
684.35	56192.17
684.54	56407.20
684.73	56218.79
684.92	55917.74
685.11	56439.97
685.30	56036.52
685.49	56485.03
685.69	56104.10
685.88	56122.54
686.07	56044.71
686.26	56102.06
686.45	56206.50
686.64	55884.97
686.83	56093.86
687.02	56276.13
687.21	56290.47
687.40	56870.04
687.59	55880.88
687.78	55854.25
687.97	56226.98
688.16	55950.51
688.35	56343.72
688.54	55334.07
688.74	55768.24
688.93	55770.28
689.12	55418.03
689.31	56083.62
689.50	55905.45
689.69	55813.29
689.88	55583.92
690.07	55774.38
690.26	55321.78
690.45	56272.04
690.64	55725.23
690.83	55774.38
691.02	55940.27
691.21	55819.44
691.40	55645.36
691.59	55223.48
691.78	55516.34
691.97	55985.32
692.16	55393.46
692.35	56075.43
692.54	55504.05
692.73	55702.70
692.92	55139.51
693.11	55497.91
693.30	55596.21
693.49	55141.56
693.68	55080.12
693.87	55317.68
694.06	54820.03
694.25	55084.22
694.44	54975.67
694.63	55401.65
694.82	55274.68
695.01	55073.98
695.20	55219.38
695.39	54756.54
695.58	55100.60
695.77	54715.58
695.96	55213.24
696.15	55100.60
696.34	54779.07
696.53	54899.90
696.72	54734.01
696.91	54723.77
697.10	55395.51
697.29	54678.72
697.48	54680.77
697.67	54752.44
697.86	54256.84
698.05	54346.95
698.24	54553.79
698.43	54281.41
698.62	54613.18
698.81	54592.70
699.00	54764.73
699.19	54412.48
699.38	54265.03
699.57	53941.45
699.76	54891.71
699.95	54359.23
700.14	54449.35
700.32	54164.68
700.51	54674.62
700.70	54856.89
700.89	54416.58
701.08	54504.64
701.27	54039.75
701.46	54058.18
701.65	53673.16
701.84	54183.11
702.03	53968.07
702.22	53798.09
702.41	53327.06
702.60	53671.12
702.79	53712.08
702.98	53443.79
703.17	53886.15
703.35	53361.87
703.54	53632.21
703.73	54000.84
703.92	53658.83
704.11	53490.90
704.30	53482.70
704.49	53591.25
704.68	53294.29
704.87	53679.31
705.06	53802.19
705.25	53497.04
705.43	53202.13
705.62	53603.53
705.81	53519.57
706.00	53114.07
706.19	52905.18
706.38	52733.15
706.57	52843.74
706.76	52968.66
706.95	53128.41
707.14	53073.11
707.32	53052.63
707.51	52671.71
707.70	53052.63
707.89	52597.98
708.08	53083.35
708.27	52892.89
708.46	53433.55
708.65	52667.61
708.84	52995.29
709.02	53187.80
709.21	52868.31
709.40	52872.41
709.59	52761.82
709.78	52475.10
709.97	53159.12
710.16	52475.10
710.34	52714.72
710.53	53001.43
710.72	52112.61
710.91	52589.79
711.10	52286.69
711.29	52643.04
711.48	52241.63
711.66	52122.85
711.85	52458.72
712.04	52401.38
712.23	52593.89
712.42	52202.72
712.61	52528.35
712.80	51930.34
712.98	51731.69
713.17	51952.87
713.36	52219.11
713.55	52331.75
713.74	51606.76
713.93	52081.89
714.11	52016.36
714.30	51748.07
714.49	51903.72
714.68	52219.11
714.87	52012.26
715.06	51741.93
715.24	51336.43
715.43	51193.07
715.62	51277.04
715.81	51322.10
716.00	51592.43
716.18	51475.69
716.37	51465.45
716.56	51176.69
716.75	51641.58
716.94	51508.46
717.12	51078.39
717.31	51436.78
717.50	50836.73
717.69	51172.60
717.88	51094.77
718.06	51135.73
718.25	51227.89
718.44	51135.73
718.63	50750.71
718.82	50285.82
719.00	50795.77
719.19	50988.28
719.38	50791.67
719.57	50472.19
719.76	50226.43
719.94	50187.52
720.13	50562.30
720.32	50593.02
720.51	50185.47
720.69	50164.99
720.88	50263.30
721.07	49892.61
721.26	49693.96
721.44	49825.03
721.63	49886.47
721.82	49487.12
722.01	50322.69
722.20	50038.02
722.38	49941.77
722.57	49427.73
722.76	49544.46
722.95	49767.69
723.13	49321.23
723.32	49362.19
723.51	49231.12
723.70	49257.74
723.88	49282.32
724.07	48942.36
724.26	49386.77
724.44	48608.54
724.63	49181.97
724.82	48895.25
725.01	48989.46
725.19	49036.56
725.38	48999.70
725.57	49079.57
725.76	49190.16
725.94	48555.29
726.13	48672.03
726.32	48463.13
726.51	48807.19
726.69	48821.53
726.88	48835.86
727.07	48684.31
727.25	48534.81
727.44	48268.58
727.63	48502.04
727.82	48461.08
728.00	48559.39
728.19	48178.46
728.38	48862.49
728.56	47867.17
728.75	48751.90
728.94	48465.18
729.12	48510.24
729.31	49083.67
729.50	48416.03
729.69	48549.15
729.87	48323.87
730.06	47977.76
730.25	48469.28
730.43	48487.71
730.62	48174.37
730.81	48772.38
730.99	48491.80
731.18	48149.79
731.37	48203.04
731.55	48801.05
731.74	48190.75
731.93	48264.48
732.11	48366.88
732.30	48348.45
732.49	47912.23
732.67	48469.28
732.86	47926.56
733.05	48016.68
733.23	48147.75
733.42	48229.66
733.61	47967.52
733.79	48264.48
733.98	48516.38
734.17	48284.96
734.35	48176.42
734.54	48084.26
734.73	48172.32
734.91	48157.99
735.10	48110.88
735.29	48467.23
735.47	47887.65
735.66	47988.00
735.84	47942.95
736.03	48086.31
736.22	48784.66
736.40	47899.94
736.59	47885.61
736.78	48121.12
736.96	48051.49
737.15	47678.76
737.33	47617.32
737.52	47338.80
737.71	47314.22
737.89	47529.26
738.08	47099.19
738.27	47267.12
738.45	47893.80
738.64	47289.65
738.82	47732.01
739.01	47695.14
739.20	47738.15
739.38	47793.45
739.57	47404.33
739.75	47416.62
739.94	47168.82
740.13	47328.56
740.31	46880.05
740.50	47433.00
740.68	46726.46
740.87	47390.00
741.06	47228.21
741.24	47260.97
741.43	47158.58
741.61	47172.91
741.80	46953.78
741.99	47101.23
742.17	47076.66
742.36	46984.50
742.54	46740.79
742.73	47033.65
742.91	47117.62
743.10	47078.71
743.29	46746.93
743.47	47099.19
743.66	46818.61
743.84	46816.57
744.03	46720.31
744.21	46875.96
744.40	46875.96
744.59	46712.12
744.77	46634.30
744.96	46855.48
745.14	46665.02
745.33	47017.27
745.51	46533.95
745.70	46658.87
745.88	46503.23
746.07	46431.55
746.26	46495.03
746.44	46753.08
746.63	46384.44
746.81	46642.49
747.00	46607.67
747.18	46548.28
747.37	46404.92
747.55	46351.68
747.74	47093.04
747.92	46101.82
748.11	45937.99
748.29	46478.65
748.48	46619.96
748.66	45892.93
748.85	46198.08
749.03	46249.28
749.22	46150.98
749.41	45514.06
749.59	46126.40
749.78	45620.55
749.96	45782.34
750.15	45630.79
750.33	46064.96
750.52	46009.67
750.70	45745.48
750.89	45632.84
751.07	45499.72
751.26	45845.83
751.44	45593.93
751.63	45999.43
751.81	45335.88
752.00	45221.20
752.18	45847.88
752.37	45380.94
752.55	44950.87
752.74	45407.56
752.92	45221.20
753.10	44873.04
753.29	44903.76
753.47	44926.29
753.66	44893.52
753.84	45040.98
754.03	44983.63
754.21	44897.62
754.40	44995.92
754.58	45110.61
754.77	45280.59
754.95	44522.84
755.14	44977.49
755.32	44746.07
755.51	44504.41
755.69	44578.14
755.88	44555.61
756.06	45143.38
756.24	44541.27
756.43	44719.45
756.61	44397.91
756.80	44475.74
756.98	44182.88
757.17	44692.82
757.35	44373.34
757.54	44326.24
757.72	44418.39
757.90	44316.00
758.09	44430.68
758.27	44227.93
758.46	44051.81
758.64	44371.29
758.83	44205.41
759.01	44516.70
759.19	44328.28
759.38	44469.59
759.56	44293.47
759.75	43959.65
759.93	44301.66
760.12	44125.53
760.30	43771.24
760.48	43918.69
760.67	43867.49
760.85	43924.83
761.04	43885.92
761.22	43855.20
761.40	43804.00
761.59	43658.60
761.77	43615.59
761.96	43914.59
762.14	43830.63
762.32	43537.77
762.51	43318.64
762.69	43500.90
762.88	43513.19
763.06	43689.32
763.24	43711.84
763.43	43257.20
763.61	43298.16
763.80	43494.76
763.98	43144.56
764.16	43328.87
764.35	43023.73
764.53	42882.42
764.72	42884.47
764.90	42935.66
765.08	43203.95
765.27	42909.04
765.45	42950.00
765.63	42816.88
765.82	42825.07
766.00	42769.78
766.18	42825.07
766.37	43117.93
766.55	42794.36
766.74	42685.81
766.92	42896.75
767.10	42681.72
767.29	42898.80
767.47	41964.93
767.65	42513.78
767.84	42071.42
768.02	42466.68
768.20	41991.55
768.39	41932.16
768.57	42241.40
768.75	42282.36
768.94	42347.90
769.12	42233.21
769.30	41901.44
769.49	41977.22
769.67	41997.70
769.85	41215.37
770.04	41907.58
770.22	41717.12
770.40	41450.89
770.59	41293.19
770.77	41491.85
770.95	41723.27
771.14	41174.41
771.32	41311.63
771.50	41233.80
771.69	41135.50
771.87	41178.51
772.05	40949.14
772.24	41190.80
772.42	41043.34
772.60	40949.14
772.78	41041.29
772.97	40826.26
773.15	41074.06
773.33	41108.88
773.52	40881.55
773.70	40867.22
773.88	41356.68
774.07	40977.81
774.25	41239.95
774.43	41356.68
774.61	40750.48
774.80	41201.04
774.98	40897.94
775.16	41094.54
775.34	41209.23
775.53	40871.31
775.71	41135.50
775.89	40908.18
776.08	41285.00
776.26	41700.74
776.44	41274.76
776.62	41133.45
776.81	40842.64
776.99	41717.12
777.17	41098.64
777.35	41317.77
777.54	41825.67
777.72	41278.86
777.90	41485.70
778.08	41620.87
778.27	41452.94
778.45	41678.21
778.63	41852.29
778.81	41072.01
779.00	41858.43
779.18	41368.97
779.36	41788.80
779.54	41612.68
779.73	41809.28
779.91	41592.20
780.09	41481.61
780.27	41887.10
780.46	41819.52
780.64	41821.57
780.82	41956.74
781.00	41883.01
781.19	41919.87
781.37	41831.81
781.55	41966.98
781.73	42268.03
781.91	42073.47
782.10	42022.27
782.28	42179.96
782.46	42050.94
782.64	42173.82
782.82	41751.94
783.01	41989.50
783.19	42145.15
783.37	42446.20
783.55	42001.79
783.74	42116.48
783.92	41753.99
784.10	42648.95
784.28	41991.55
784.46	41465.22
784.64	42055.04
784.83	42128.77
785.01	42075.52
785.19	41940.35
785.37	42237.31
785.55	42186.11
785.74	42102.14
785.92	42016.13
786.10	41985.41
786.28	42163.58
786.46	41917.82
786.64	41588.10
786.83	41954.69
787.01	41911.68
787.19	42188.16
787.37	41780.61
787.55	41985.41
787.74	41557.38
787.92	41557.38
788.10	41788.80
788.28	41416.07
788.46	41356.68
788.64	41366.92
788.82	41694.60
789.01	41194.89
789.19	41729.41
789.37	41186.70
789.55	41704.84
789.73	41252.23
789.91	41424.26
790.09	41319.82
790.28	41092.49
790.46	40811.92
790.64	41231.75
790.82	40701.33
791.00	40936.85
791.18	40955.28
791.36	40752.53
791.55	40637.84
791.73	40533.40
791.91	40201.63
792.09	40263.07
792.27	40533.40
792.45	40408.47
792.63	40410.52
792.81	40027.55
793.00	39972.25
793.18	39945.63
793.36	39959.97
793.54	39951.77
793.72	39681.44
793.90	39613.86
794.08	39771.55
794.26	39562.66
794.44	39185.83
794.62	39353.77
794.81	39566.76
794.99	39198.12
795.17	39577.00
795.35	38684.08
795.53	39396.77
795.71	39003.56
795.89	39370.15
796.07	38714.80
796.25	38385.08
796.43	38847.92
796.61	38403.51
796.80	38167.99
796.98	38485.43
797.16	38131.13
797.34	38086.07
797.52	38194.62
797.70	38536.63
797.88	38073.79
798.06	37969.34
798.24	38094.27
798.42	37848.51
798.60	38106.55
798.78	37373.38
798.96	37823.93
799.14	37256.65
799.32	37862.85
799.51	37354.95
799.69	37537.22
799.87	37418.44
800.05	37166.54
800.23	36961.74
800.41	37012.94
800.59	37101.00
800.77	36703.70
800.95	36533.71
801.13	36554.19
801.31	36789.71
801.49	36652.50
801.67	36496.85
801.85	36206.04
802.03	36277.72
802.21	35978.72
802.39	36144.60
802.57	35972.57
802.75	36079.07
802.93	36120.02
803.11	35816.93
803.29	35618.27
803.47	35741.15
803.65	35728.86
803.83	35454.44
804.01	35087.85
804.19	35114.47
804.37	35171.82
804.55	34989.55
804.73	35227.11
804.91	34989.55
805.09	35022.31
805.27	35206.63
805.45	34829.80
805.63	34823.66
805.81	35034.60
805.99	35050.99
806.17	35083.75
806.35	34715.12
806.53	34620.91
806.71	34631.15
806.89	34444.79
807.07	34616.82
807.25	34170.36
807.43	34074.10
807.61	34219.51
807.79	34330.10
807.97	34010.62
808.15	33576.45
808.33	33816.06
808.51	33912.31
808.69	33629.69
808.87	33265.16
809.05	33564.16
809.23	33355.27
809.41	33043.98
809.59	32929.29
809.77	33379.84
809.95	33195.53
810.13	33412.61
810.31	33179.14
810.49	33218.05
810.67	33289.73
810.84	33132.04
811.02	33046.02
811.20	32808.46
811.38	32986.63
811.56	32222.74
811.74	32601.61
811.92	32462.35
812.10	32396.82
812.28	32742.92
812.46	32675.34
812.64	32648.72
812.82	32206.36
813.00	32159.25
813.18	32345.62
813.36	32081.43
813.53	32134.68
813.71	32042.52
813.89	32015.90
814.07	31944.22
814.25	32169.49
814.43	31747.61
814.61	31698.46
814.79	31651.36
814.97	31481.38
815.15	31876.63
815.33	31585.82
815.50	31221.28
815.68	31696.41
815.86	31649.31
816.04	31157.80
816.22	31206.95
816.40	31266.34
816.58	31002.15
816.76	30944.81
816.94	31108.65
817.11	30957.10
817.29	30963.24
817.47	30797.35
817.65	30428.72
817.83	30467.63
818.01	30676.52
818.19	30488.11
818.37	30885.42
818.54	30447.15
818.72	30330.42
818.90	30359.09
819.08	29974.07
819.26	30359.09
819.44	30408.24
819.62	29959.73
819.80	30420.53
819.97	30225.97
820.15	30156.34
820.33	29691.45
820.51	30033.46
820.69	29732.41
820.87	30240.31
821.05	30021.17
821.22	29789.75
821.40	29578.81
821.58	29877.82
821.76	29707.83
821.94	29333.06
822.12	29498.94
822.29	29511.23
822.47	29558.33
822.65	29869.62
822.83	29584.96
823.01	29408.83
823.19	29144.64
823.36	29103.68
823.54	29095.49
823.72	29015.62
823.90	29038.15
824.08	28872.26
824.25	29263.43
824.43	28927.56
824.61	29183.55
824.79	29158.98
824.97	29232.71
825.15	29161.03
825.32	28712.52
825.50	28798.54
825.68	28458.57
825.86	28714.57
826.04	28970.57
826.21	28567.12
826.39	28534.35
826.57	28180.05
826.75	28450.38
826.93	28180.05
827.10	28167.76
827.28	28354.13
827.46	28646.99
827.64	28399.18
827.81	28282.45
827.99	28100.18
828.17	28112.47
828.35	28110.42
828.53	27946.58
828.70	28065.36
828.88	27844.18
829.06	28214.87
829.24	28114.52
829.41	27643.48
829.59	27752.02
829.77	27522.65
829.95	27786.84
830.12	27573.85
830.30	27811.42
830.48	27641.43
830.66	27614.81
830.84	27670.11
831.01	27551.32
831.19	27694.68
831.37	27473.50
831.55	27006.56
831.72	27270.75
831.90	27315.81
832.08	27520.60
832.25	26949.22
832.43	27084.39
832.61	27051.62
832.79	26883.69
832.96	26998.37
833.14	26523.24
833.32	27145.83
833.50	27080.29
833.67	26900.07
833.85	27039.33
834.03	26799.72
834.20	26973.80
834.38	27227.74
834.56	26850.92
834.74	26562.15
834.91	26566.25
835.09	26750.57
835.27	26300.01
835.44	26265.20
835.62	26170.99
835.80	26594.92
835.98	26414.70
836.15	25943.67
836.33	26410.60
836.51	26660.46
836.68	26263.15
836.86	26404.46
837.04	26252.91
837.21	26257.01
837.39	26396.27
837.57	26191.47
837.75	26234.48
837.92	25904.76
838.10	25859.70
838.28	25771.64
838.45	25796.21
838.63	25859.70
838.81	25869.94
838.98	25837.17
839.16	25800.31
839.34	25620.09
839.51	25685.62
839.69	25360.00
839.87	25515.64
840.04	25663.10
840.22	25644.66
840.40	25411.20
840.57	25149.06
840.75	25347.71
840.93	25204.35
841.10	25337.47
841.28	25683.58
841.46	25106.05
841.63	25194.11
841.81	25443.96
841.98	24972.93
842.16	25085.57
842.34	25001.60
842.51	24852.10
842.69	25063.04
842.87	25054.85
843.04	25142.91
843.22	24751.75
843.40	24718.98
843.57	24901.25
843.75	24964.74
843.92	25065.09
844.10	24544.91
844.28	24809.09
844.45	24870.53
844.63	24759.94
844.81	24569.48
844.98	24686.22
845.16	24702.60
845.33	24946.31
845.51	24641.16
845.69	24272.53
845.86	24706.70
846.04	24321.68
846.21	24690.31
846.39	24319.63
846.57	24280.72
846.74	24362.64
846.92	24338.06
847.09	24485.51
847.27	24086.16
847.45	24467.08
847.62	24362.64
847.80	24290.96
847.97	24139.41
848.15	24125.07
848.32	24026.77
848.50	24065.68
848.68	23936.66
848.85	23860.88
849.03	23817.88
849.20	23938.71
849.38	23639.70
849.56	23912.08
849.73	23867.03
849.91	23676.57
850.08	23817.88
850.26	23426.71
850.43	23729.81
850.61	23791.25
850.78	23258.78
850.96	23793.30
851.14	23324.32
851.31	23428.76
851.49	23332.51
851.66	23781.01
851.84	23463.58
852.01	23312.03
852.19	23213.73
852.36	23377.56
852.54	23469.72
852.71	23369.37
852.89	23264.92
853.07	23084.70
853.24	23422.62
853.42	23115.42
853.59	23219.87
853.77	22900.39
853.94	23246.49
854.12	23271.07
854.29	23049.89
854.47	22812.32
854.64	23021.22
854.82	22924.96
854.99	23004.83
855.17	22931.11
855.34	22789.80
855.52	22738.60
855.69	22992.55
855.87	22802.08
856.04	22400.68
856.22	22646.44
856.39	22550.18
856.57	22431.40
856.74	22466.22
856.92	22464.17
857.09	22496.94
857.27	22707.88
857.44	22681.25
857.62	22560.42
857.79	22359.72
857.97	22501.03
858.14	22372.01
858.32	22249.13
858.49	22193.84
858.67	22245.04
858.84	21960.37
859.02	21872.31
859.19	22154.93
859.37	21884.59
859.54	22015.66
859.72	22062.77
859.89	22179.50
860.06	22193.84
860.24	21724.85
860.41	22001.33
860.59	21880.50
860.76	21561.02
860.94	21534.39
861.11	21890.74
861.29	21718.71
861.46	21550.78
861.64	21520.06
861.81	21558.97
861.98	21556.92
862.16	21472.95
862.33	21581.49
862.51	21208.76
862.68	21540.54
862.86	21335.74
863.03	21499.58
863.21	21165.76
863.38	21360.31
863.55	21262.01
863.73	21262.01
863.90	21438.14
864.08	21309.11
864.25	20913.86
864.43	21069.50
864.60	21247.68
864.77	21044.93
864.95	20993.73
865.12	21106.37
865.30	21145.28
865.47	21001.92
865.64	21014.21
865.82	20989.63
865.99	20911.81
866.17	20813.51
866.34	20811.46
866.51	20678.34
866.69	20795.07
866.86	20897.47
867.04	20739.78
867.21	20487.88
867.38	20688.58
867.56	20422.34
867.73	20338.38
867.91	20670.15
868.08	20369.10
868.25	20365.00
868.43	20057.81
868.60	20250.32
868.78	20104.91
868.95	20238.03
869.12	19836.63
869.30	20180.68
869.47	20276.94
869.64	20045.52
869.82	20338.38
869.99	19818.19
870.16	20215.50
870.34	20223.69
870.51	19955.41
870.69	19812.05
870.86	20133.58
871.03	19939.02
871.21	19787.47
871.38	19855.06
871.55	19619.54
871.73	19908.30
871.90	19611.35
872.07	19554.01
872.25	19443.42
872.42	19418.84
872.59	19766.99
872.77	19631.83
872.94	19470.04
873.11	19492.57
873.29	19459.80
873.46	19066.59
873.63	19246.81
873.81	19230.43
873.98	19029.73
874.15	18966.24
874.33	18894.56
874.50	19125.98
874.67	18904.80
874.85	18810.59
875.02	18888.42
875.19	18769.63
875.37	18925.28
875.54	18634.47
875.71	18953.95
875.88	18835.17
876.06	18906.85
876.23	18886.37
876.40	18659.04
876.58	18546.40
876.75	18745.06
876.92	18360.04
877.10	18597.60
877.27	18605.80
877.44	18306.79
877.61	18540.26
877.79	18177.77
877.96	18157.29
878.13	18153.20
878.31	18013.93
878.48	18257.64
878.65	18208.49
878.82	17903.34
879.00	18091.76
879.17	18138.86
879.34	18067.18
879.51	17796.85
879.69	17905.39
879.86	17975.02
880.03	17590.00
880.21	17571.57
880.38	17633.01
880.55	17948.40
880.72	17739.51
880.90	17608.44
881.07	17792.75
881.24	17772.27
881.41	17608.44
881.59	17590.00
881.76	17446.65
881.93	17301.24
882.10	17321.72
882.28	17497.84
882.45	17643.25
882.62	17417.97
882.79	17286.90
882.96	17217.27
883.14	17479.41
883.31	17528.56
883.48	17547.00
883.65	17247.99
883.83	17383.16
884.00	17307.38
884.17	17137.40
884.34	17227.51
884.51	17055.48
884.69	16893.69
884.86	17405.69
885.03	17016.57
885.20	16662.27
885.38	17073.92
885.55	16905.98
885.72	16893.69
885.89	17049.34
886.06	16875.26
886.24	17047.29
886.41	16824.06
886.58	16948.99
886.75	16955.13
886.92	16690.95
887.10	17004.28
887.27	16688.90
887.44	16781.06
887.61	16942.85
887.78	16690.95
887.95	16985.85
888.13	16584.45
888.30	16625.41
888.47	16727.81
888.64	16617.22
888.81	16504.58
888.99	16451.33
889.16	16443.14
889.33	16357.13
889.50	16187.14
889.67	16211.72
889.84	16295.69
890.01	16213.77
890.19	16379.65
890.36	16404.23
890.53	16168.71
890.70	16113.42
890.87	16406.28
891.04	16029.45
891.22	16080.65
891.39	15935.24
891.56	15927.05
891.73	15945.48
891.90	16000.78
892.07	15892.24
892.24	16097.03
892.42	15798.03
892.59	15859.47
892.76	15759.12
892.93	15642.39
893.10	15922.96
893.27	15900.43
893.44	15550.23
893.61	15664.91
893.79	15726.35
893.96	15767.31
894.13	15671.06
894.30	15570.71
894.47	15687.44
894.64	15798.03
894.81	15607.57
894.98	15714.06
895.15	15679.25
895.33	15486.74
895.50	15812.37
895.67	15632.15
895.84	15595.28
896.01	15466.26
896.18	15036.19
896.35	15681.30
896.52	15394.58
896.69	15318.81
896.86	15662.86
897.04	15507.22
897.21	15437.59
897.38	15310.61
897.55	15486.74
897.72	15658.77
897.89	15456.02
898.06	15306.52
898.23	15324.95
898.40	15345.43
898.57	15519.51
898.74	15494.93
898.91	15548.18
899.08	15281.94
899.26	15187.74
899.43	15392.53
899.60	15177.50
899.77	15382.29
899.94	15005.47
900.11	15413.01
900.28	15451.92
900.45	15048.47
900.62	15388.44
900.79	15431.44
900.96	15376.15
901.13	15234.84
901.30	15247.13
901.47	15150.87
901.64	15324.95
901.81	15445.78
901.98	15202.07
902.15	15261.46
902.32	15337.24
902.49	15290.13
902.66	15101.72
902.83	15228.70
903.01	15380.25
903.18	15075.10
903.35	15071.00
903.52	15408.92
903.69	15396.63
903.86	15300.37
904.03	15163.16
904.20	15382.29
904.37	15304.47
904.54	15290.13
904.71	15152.92
904.88	14950.17
905.05	15191.83
905.22	15171.35
905.39	15099.67
905.56	15218.46
905.73	15163.16
905.90	15423.25
906.07	15298.33
906.24	15208.22
906.41	15249.18
906.58	15071.00
906.75	15105.82
906.92	15040.28
907.09	15226.65
907.26	15118.11
907.43	14982.94
907.60	15050.52
907.77	15165.21
907.93	15234.84
908.10	15027.99
908.27	15126.30
908.44	15019.80
908.61	14868.25
908.78	14968.60
908.95	15107.87
909.12	15142.68
909.29	15134.49
909.46	14962.46
909.63	15167.26
909.80	14974.75
909.97	15091.48
910.14	14802.72
910.31	15152.92
910.48	14800.67
910.65	15079.19
910.82	14798.62
910.99	14911.26
911.16	14894.88
911.33	14819.10
911.50	15003.42
911.66	14896.92
911.83	14808.86
912.00	14726.94
912.17	14821.15
912.34	14577.44
912.51	14507.81
912.68	14339.88
912.85	14583.59
913.02	14743.33
913.19	14440.23
913.36	14657.31
913.53	14542.63
913.70	14282.53
913.86	14608.16
914.03	14413.60
914.20	14491.43
914.37	14274.34
914.54	14184.23
914.71	14292.77
914.88	14255.91
915.05	14315.30
915.22	14257.96
915.39	14192.42
915.55	14217.00
915.72	14149.42
915.89	14122.79
916.06	13827.88
916.23	14122.79
916.40	13864.75
916.57	13813.55
916.74	13946.67
916.91	13817.65
917.07	13705.01
917.24	13629.23
917.41	13637.42
917.58	13877.04
917.75	13498.16
917.92	13428.53
918.09	13397.81
918.26	13457.20
918.42	13592.37
918.59	13489.97
918.76	13573.94
918.93	13483.83
919.10	13455.15
919.27	13276.98
919.44	13506.35
919.60	13475.63
919.77	13332.28
919.94	13150.01
920.11	13279.03
920.28	13016.89
920.45	13016.89
920.61	13012.79
920.78	13121.34
920.95	13147.96
921.12	12879.68
921.29	12793.66
921.46	12713.79
921.62	12484.42
921.79	12840.76
921.96	12656.45
922.13	12851.00
922.30	12447.55
922.47	12588.86
922.63	12439.36
922.80	12609.34
922.97	12408.64
923.14	12345.16
923.31	12361.54
923.47	12414.79
923.64	12224.33
923.81	12332.87
923.98	12201.80
924.15	12160.84
924.32	12201.80
924.48	12134.21
924.65	12257.09
924.82	11923.27
924.99	11568.98
925.15	11919.18
925.32	11849.55
925.49	11773.77
925.66	11749.20
925.83	11741.00
925.99	11415.38
926.16	11646.80
926.33	11607.89
926.50	11622.22
926.67	11487.06
926.83	11415.38
927.00	11355.99
927.17	11329.36
927.34	11294.55
927.50	11374.42
927.67	11325.27
927.84	11210.58
928.01	11048.79
928.17	10839.90
928.34	10913.63
928.51	11009.88
928.68	10966.87
928.84	11046.74
929.01	10712.92
929.18	10766.17
929.35	10786.65
929.51	10688.35
929.68	10579.81
929.85	10608.48
930.02	10567.52
930.18	10583.90
930.35	10452.83
930.52	10557.28
930.69	10563.42
930.85	10325.86
931.02	10340.19
931.19	10166.12
931.36	10391.39
931.52	10319.71
931.69	10319.71
931.86	10162.02
932.02	9969.51
932.19	10080.10
932.36	9998.18
932.53	9985.90
932.69	9848.68
932.86	10018.66
933.03	9877.35
933.19	9660.27
933.36	9713.52
933.53	9645.93
933.70	9484.14
933.86	9428.85
934.03	9402.22
934.20	9465.71
934.36	9557.87
934.53	9199.48
934.70	9170.80
934.86	9293.68
935.03	9105.27
935.20	8898.42
935.36	8937.34
935.53	9092.98
935.70	8902.52
935.86	8834.94
936.03	8761.21
936.20	8525.69
936.36	8501.12
936.53	8685.44
936.70	8509.31
936.86	8408.96
937.03	8441.73
937.20	8128.39
937.36	8204.16
937.53	7929.74
937.70	7886.73
937.86	8005.51
938.03	7798.66
938.20	7757.71
938.36	7663.50
938.53	7688.07
938.70	7509.90
938.86	7655.31
939.03	7462.80
939.20	7352.21
939.36	7364.50
939.53	7290.77
939.70	7288.72
939.86	7032.72
940.03	6862.74
940.19	6821.78
940.36	6676.38
940.53	6797.21
940.69	6608.80
940.86	6748.06
941.03	6383.52
941.19	6426.53
941.36	6356.90
941.52	6348.70
941.69	6383.52
941.86	6287.26
942.02	6250.40
942.19	5943.21
942.35	6037.41
942.52	6016.93
942.69	5898.15
942.85	5906.34
943.02	5885.86
943.18	5967.78
943.35	5750.70
943.52	5713.83
943.68	5652.39
943.85	5724.07
944.01	5603.24
944.18	5593.00
944.35	5738.41
944.51	5509.04
944.68	5482.41
944.84	5599.15
945.01	5562.28
945.17	5451.69
945.34	5412.78
945.51	5466.03
945.67	5408.69
945.84	5443.50
946.00	5269.42
946.17	5394.35
946.33	5326.77
946.50	5388.21
946.67	5384.11
946.83	5298.10
947.00	5357.49
947.16	5279.66
947.33	5302.19
947.49	5339.05
947.66	5322.67
947.82	5332.91
947.99	5167.03
948.16	5275.57
948.32	5156.79
948.49	5345.20
948.65	5365.68
948.82	5283.76
948.98	5291.95
949.15	5205.94
949.31	5351.34
949.48	5318.57
949.64	5181.36
949.81	5345.20
949.97	5201.84
950.14	5304.24
950.30	5240.75
950.47	5246.90
950.63	5283.76
950.80	5334.96
950.96	5302.19
951.13	5212.08
951.30	5259.18
951.46	5334.96
951.63	5416.88
951.79	5443.50
951.96	5267.38
952.12	5193.65
952.29	5308.34
952.45	5408.69
952.62	5447.60
952.78	5398.45
952.94	5398.45
953.11	5294.00
953.27	5410.73
953.44	5388.21
953.60	5476.27
953.77	5521.32
953.93	5384.11
954.10	5420.97
954.26	5347.25
954.43	5332.91
954.59	5482.41
954.76	5533.61
954.92	5316.53
955.09	5408.69
955.25	5365.68
955.42	5406.64
955.58	5545.90
955.75	5439.40
955.91	5345.20
956.07	5478.32
956.24	5416.88
956.40	5490.60
956.57	5449.64
956.73	5414.83
956.90	5427.12
957.06	5339.05
957.23	5388.21
957.39	5392.30
957.56	5320.62
957.72	5418.93
957.88	5402.54
958.05	5652.39
958.21	5595.05
958.38	5527.47
958.54	5377.97
958.71	5578.67
958.87	5394.35
959.03	5312.43
959.20	5459.88
959.36	5330.86
959.53	5412.78
959.69	5273.52
959.85	5531.56
960.02	5394.35
960.18	5480.36
960.35	5326.77
960.51	5513.13
960.68	5420.97
960.84	5517.23
961.00	5410.73
961.17	5359.53
961.33	5509.04
961.50	5255.09
961.66	5474.22
961.82	5478.32
961.99	5500.84
962.15	5392.30
962.31	5396.40
962.48	5435.31
962.64	5437.36
962.81	5332.91
962.97	5425.07
963.13	5365.68
963.30	5394.35
963.46	5386.16
963.62	5281.71
963.79	5377.97
963.95	5416.88
964.12	5351.34
964.28	5300.14
964.44	5308.34
964.61	5408.69
964.77	5359.53
964.93	5361.58
965.10	5279.66
965.26	5320.62
965.42	5263.28
965.59	5142.45
965.75	5302.19
965.92	5234.61
966.08	5300.14
966.24	5439.40
966.41	5326.77
966.57	5285.81
966.73	5201.84
966.90	5195.70
967.06	5259.18
967.22	5255.09
967.39	5154.74
967.55	5236.66
967.71	5193.65
967.88	5130.16
968.04	5218.22
968.20	5242.80
968.37	5099.44
968.53	5083.06
968.69	5117.87
968.85	5214.13
969.02	5156.79
969.18	5214.13
969.34	5171.12
969.51	5054.39
969.67	5072.82
969.83	4984.76
970.00	5160.88
970.16	5040.05
970.32	5070.77
970.48	5212.08
970.65	4964.28
970.81	4827.06
970.97	5074.87
971.14	4917.17
971.30	5271.47
971.46	5099.44
971.63	5197.74
971.79	5101.49
971.95	5048.24
972.11	4872.12
972.28	5003.19
972.44	4968.37
972.60	4997.04
972.76	4908.98
972.93	4771.77
973.09	4990.90
973.25	4730.81
973.42	4861.88
973.58	4958.13
973.74	4888.50
973.90	4929.46
974.07	4833.21
974.23	4958.13
974.39	4779.96
974.55	4734.90
974.72	4784.06
974.88	4769.72
975.04	4786.10
975.20	4716.47
975.37	4951.99
975.53	4722.62
975.69	4714.42
975.85	4835.25
976.01	4849.59
976.18	4591.55
976.34	4812.73
976.50	4757.43
976.66	4782.01
976.83	4765.62
976.99	4614.07
977.15	4767.67
977.31	4564.92
977.47	4626.36
977.64	4607.93
977.80	4765.62
977.96	4624.31
978.12	4671.42
978.29	4487.10
978.45	4540.35
978.61	4382.65
978.77	4532.15
978.93	4542.39
979.10	4470.72
979.26	4491.20
979.42	4546.49
979.58	4466.62
979.74	4376.51
979.91	4450.24
980.07	4466.62
980.23	4548.54
980.39	4427.71
980.55	4347.84
980.71	4478.91
980.88	4452.28
981.04	4333.50
981.20	4280.25
981.36	4386.75
981.52	4222.91
981.68	4345.79
981.85	4374.46
982.01	4321.21
982.17	4323.26
982.33	4403.13
982.49	4370.37
982.65	4249.54
982.82	4315.07
982.98	4458.43
983.14	4167.62
983.30	4396.99
983.46	4237.25
983.62	4227.01
983.79	4247.49
983.95	4165.57
984.11	4130.75
984.27	4292.54
984.43	4227.01
984.59	4224.96
984.75	4227.01
984.91	4122.56
985.08	4278.21
985.24	4059.07
985.40	4075.46
985.56	4110.27
985.72	4157.38
985.88	4159.42
986.04	4089.79
986.20	4059.07
986.37	4159.42
986.53	3964.87
986.69	4075.46
986.85	4069.31
987.01	3964.87
987.17	3997.64
987.33	3997.64
987.49	3923.91
987.65	4052.93
987.82	4081.60
987.98	3897.28
988.14	3962.82
988.30	3950.53
988.46	3868.61
988.62	3858.37
988.78	3952.58
988.94	3928.00
989.10	3944.39
989.26	3821.51
989.42	3923.91
989.59	3723.21
989.75	3770.31
989.91	3850.18
990.07	3700.68
990.23	3770.31
990.39	3727.30
990.55	3864.52
990.71	3786.69
990.87	3710.92
991.03	3796.93
991.19	3782.60
991.35	3712.97
991.51	3766.21
991.67	3710.92
991.83	3827.65
992.00	3702.73
992.16	3760.07
992.32	3694.54
992.48	3719.11
992.64	3651.53
992.80	3647.43
992.96	3790.79
993.12	3647.43
993.28	3717.06
993.44	3588.04
993.60	3743.69
993.76	3577.80
993.92	3610.57
994.08	3712.97
994.24	3657.67
994.40	3633.10
994.56	3684.30
994.72	3579.85
994.88	3569.61
995.04	3467.21
995.20	3555.27
995.36	3499.98
995.52	3542.99
995.68	3594.19
995.84	3403.72
996.00	3583.95
996.16	3426.25
996.32	3489.74
996.48	3567.56
996.64	3526.60
996.80	3340.24
996.96	3485.64
997.12	3551.18
997.28	3422.16
997.44	3344.33
997.60	3319.76
997.76	3338.19
997.92	3444.68
998.08	3307.47
998.24	3387.34
998.40	3436.49
998.56	3479.50
998.72	3364.81
998.88	3270.61
999.04	3264.46
999.20	3293.13
999.36	3289.04
999.52	3282.89
999.68	3317.71
999.84	3352.52
1000.00	3303.37
1000.16	3260.37
1000.32	3231.69
1000.48	3305.42
1000.64	3182.54
1000.80	3188.69
1000.95	3139.54
1001.11	3203.02
1001.27	3178.45
1001.43	3248.08
1001.59	3098.58
1001.75	3147.73
1001.91	3133.39
1002.07	3112.91
1002.23	3117.01
1002.39	3112.91
1002.55	3108.82
1002.71	3215.31
1002.87	3117.01
1003.03	3164.11
1003.19	3069.91
1003.34	3129.30
1003.50	3104.72
1003.66	3143.63
1003.82	3186.64
1003.98	3080.14
1004.14	3127.25
1004.30	3006.42
1004.46	3055.57
1004.62	3076.05
1004.78	3102.67
1004.94	3041.23
1005.09	2971.60
1005.25	3127.25
1005.41	2992.08
1005.57	3010.51
1005.73	3006.42
1005.89	2928.60
1006.05	3049.43
1006.21	2922.45
1006.37	2822.10
1006.52	2938.84
1006.68	2844.63
1006.84	2926.55
1007.00	2906.07
1007.16	2981.84
1007.32	2901.97
1007.48	2967.51
1007.64	2885.59
1007.79	2912.21
1007.95	2858.96
1008.11	2965.46
1008.27	2789.33
1008.43	2811.86
1008.59	2883.54
1008.75	2861.01
1008.91	2944.98
1009.06	2818.00
1009.22	2865.11
1009.38	2901.97
1009.54	2795.48
1009.70	2770.90
1009.86	2916.31
1010.01	2850.77
1010.17	2750.42
1010.33	2713.56
1010.49	2842.58
1010.65	2815.96
1010.81	2746.33
1010.96	2670.55
1011.12	2795.48
1011.28	2613.21
1011.44	2752.47
1011.60	2746.33
1011.76	2693.08
1011.91	2744.28
1012.07	2586.58
1012.23	2656.22
1012.39	2600.92
1012.55	2682.84
1012.71	2637.78
1012.86	2738.13
1013.02	2607.06
1013.18	2668.50
1013.34	2580.44
1013.50	2713.56
1013.65	2629.59
1013.81	2594.78
1013.97	2588.63
1014.13	2621.40
1014.29	2564.06
1014.44	2623.45
1014.60	2541.53
1014.76	2510.81
1014.92	2537.43
1015.07	2629.59
1015.23	2648.02
1015.39	2648.02
1015.55	2525.15
1015.71	2469.85
1015.86	2535.39
1016.02	2566.10
1016.18	2486.23
1016.34	2535.39
1016.49	2568.15
1016.65	2605.02
1016.81	2439.13
1016.97	2447.32
1017.12	2508.76
1017.28	2420.70
1017.44	2469.85
1017.60	2406.36
1017.75	2449.37
1017.91	2469.85
1018.07	2508.76
1018.23	2510.81
1018.38	2420.70
1018.54	2426.84
1018.70	2455.51
1018.86	2381.79
1019.01	2400.22
1019.17	2449.37
1019.33	2457.56
1019.49	2492.38
1019.64	2404.32
1019.80	2398.17
1019.96	2435.03
1020.12	2428.89
1020.27	2365.40
1020.43	2361.31
1020.59	2363.36
1020.74	2510.81
1020.90	2449.37
1021.06	2312.16
1021.22	2402.27
1021.37	2295.77
1021.53	2387.93
1021.69	2361.31
1021.84	2209.76
1022.00	2303.96
1022.16	2285.53
1022.31	2312.16
1022.47	2299.87
1022.63	2310.11
1022.79	2240.48
1022.94	2166.75
1023.10	2346.97
1023.26	2234.33
1023.41	2260.96
1023.57	2344.92
1023.73	2351.07
1023.88	2312.16
1024.04	2187.23
1024.20	2197.47
1024.35	2213.85
1024.51	2273.25
1024.67	2263.01
1024.82	2299.87
1024.98	2287.58
1025.14	2222.05
1025.29	2211.81
1025.45	2240.48
1025.61	2279.39
1025.76	2226.14
1025.92	2236.38
1026.08	2332.64
1026.23	2265.05
1026.39	2256.86
1026.55	2136.03
1026.70	2168.80
1026.86	2168.80
1027.02	2299.87
1027.17	2166.75
1027.33	2183.13
1027.48	2189.28
1027.64	2162.66
1027.80	2156.51
1027.95	2193.37
1028.11	2101.22
1028.27	2129.89
1028.42	2129.89
1028.58	2129.89
1028.73	2101.22
1028.89	2066.40
1029.05	2236.38
1029.20	2179.04
>>>>>End Processed Spectral Data<<<<<
