SpectraSuite Data File
++++++++++++++++++++++++++++++++++++
Date: Fri Jun 02 14:53:35 CEST 2017
User: INFO_000
Dark Spectrum Present: No
Reference Spectrum Present: No
Number of Sampled Component Spectra: 1
Spectrometers: USB4H00879
Integration Time (usec): 80000 (USB4H00879)
Spectra Averaged: 1 (USB4H00879)
Boxcar Smoothing: 0 (USB4H00879)
Correct for Electrical Dark: No (USB4H00879)
Strobe/Lamp Enabled: No (USB4H00879)
Correct for Detector Non-linearity: No (USB4H00879)
Correct for Stray Light: No (USB4H00879)
Number of Pixels in Processed Spectrum: 3648
>>>>>Begin Processed Spectral Data<<<<<
345.13	1267.69
345.34	1267.69
345.56	1267.69
345.78	1288.17
345.99	1273.84
346.21	1697.77
346.42	1650.66
346.64	1673.19
346.86	1763.30
347.07	1587.18
347.29	1660.90
347.50	1624.04
347.72	1705.96
347.94	1775.59
348.15	1630.18
348.37	1628.14
348.59	1720.29
348.80	1638.38
349.02	1748.97
349.23	1914.85
349.45	1843.17
349.67	1877.99
349.88	1822.69
350.10	1892.32
350.31	1757.16
350.53	1814.50
350.75	1931.23
350.96	1728.49
351.18	1834.98
351.39	1832.93
351.61	1873.89
351.82	1861.60
352.04	1906.66
352.26	1812.45
352.47	1865.70
352.69	1931.23
352.90	1726.44
353.12	1861.60
353.34	1845.22
353.55	1904.61
353.77	1847.27
353.98	1853.41
354.20	1925.09
354.41	1877.99
354.63	1945.57
354.85	2035.68
355.06	1875.94
355.28	1828.84
355.49	1832.93
355.71	1880.04
355.92	1931.23
356.14	1871.84
356.35	1949.67
356.57	1783.78
356.79	1947.62
357.00	1904.61
357.22	1982.43
357.43	1777.64
357.65	1974.24
357.86	1873.89
358.08	1912.80
358.29	2047.97
358.51	1980.39
358.72	1937.38
358.94	1933.28
359.16	1990.63
359.37	1945.57
359.59	1941.47
359.80	1974.24
360.02	2007.01
360.23	1972.19
360.45	1970.15
360.66	1847.27
360.88	1953.76
361.09	1839.08
361.31	2011.11
361.52	1941.47
361.74	2072.54
361.95	2039.78
362.17	1978.34
362.38	2093.02
362.60	2066.40
362.81	1939.43
363.03	2015.20
363.24	1900.52
363.46	2136.03
363.67	2047.97
363.89	1988.58
364.10	1959.91
364.32	1978.34
364.53	2037.73
364.75	1900.52
364.96	2035.68
365.18	2056.16
365.39	2017.25
365.61	2107.36
365.82	2150.37
366.04	2021.35
366.25	1951.71
366.47	2029.54
366.68	2031.58
366.90	1949.67
367.11	2101.22
367.33	2093.02
367.54	2144.22
367.76	2064.35
367.97	2187.23
368.19	2011.11
368.40	1994.72
368.62	2019.30
368.83	1974.24
369.05	2070.50
369.26	1910.75
369.48	2023.39
369.69	2011.11
369.91	2031.58
370.12	2021.35
370.33	2086.88
370.55	1923.04
370.76	2093.02
370.98	2168.80
371.19	1994.72
371.41	2099.17
371.62	2058.21
371.84	2011.11
372.05	2234.33
372.27	2072.54
372.48	2185.18
372.69	2146.27
372.91	2160.61
373.12	2195.42
373.34	2156.51
373.55	2230.24
373.77	2209.76
373.98	2113.50
374.20	2203.61
374.41	2226.14
374.62	2084.83
374.84	2244.57
375.05	2215.90
375.27	2226.14
375.48	2215.90
375.70	2205.66
375.91	2281.44
376.12	2394.08
376.34	2256.86
376.55	2213.85
376.77	2201.57
376.98	2107.36
377.19	2172.89
377.41	2115.55
377.62	2232.29
377.84	2193.37
378.05	2365.40
378.27	2226.14
378.48	2318.30
378.69	2349.02
378.91	2359.26
379.12	2355.16
379.34	2273.25
379.55	2306.01
379.76	2371.55
379.98	2154.46
380.19	2236.38
380.41	2271.20
380.62	2324.44
380.83	2279.39
381.05	2189.28
381.26	2381.79
381.47	2252.77
381.69	2326.49
381.90	2496.47
382.12	2287.58
382.33	2222.05
382.54	2256.86
382.76	2400.22
382.97	2326.49
383.19	2199.52
383.40	2473.95
383.61	2359.26
383.83	2269.15
384.04	2310.11
384.25	2367.45
384.47	2461.66
384.68	2396.12
384.89	2387.93
385.11	2377.69
385.32	2377.69
385.54	2435.03
385.75	2387.93
385.96	2504.67
386.18	2459.61
386.39	2443.23
386.60	2312.16
386.82	2418.65
387.03	2484.19
387.24	2514.91
387.46	2512.86
387.67	2478.04
387.88	2488.28
388.10	2617.30
388.31	2392.03
388.52	2568.15
388.74	2523.10
388.95	2445.27
389.16	2535.39
389.38	2494.43
389.59	2533.34
389.80	2566.10
390.02	2537.43
390.23	2672.60
390.44	2588.63
390.66	2475.99
390.87	2557.91
391.08	2611.16
391.30	2656.22
391.51	2621.40
391.72	2576.34
391.94	2627.54
392.15	2650.07
392.36	2543.58
392.58	2645.98
392.79	2652.12
393.00	2697.17
393.22	2734.04
393.43	2713.56
393.64	2811.86
393.85	2813.91
394.07	2631.64
394.28	2795.48
394.49	2746.33
394.71	2871.25
394.92	2901.97
395.13	2779.09
395.35	2703.32
395.56	2736.09
395.77	2664.41
395.98	2858.96
396.20	2879.44
396.41	2863.06
396.62	2850.77
396.84	2793.43
397.05	2846.68
397.26	2834.39
397.47	3018.71
397.69	2805.72
397.90	3106.77
398.11	2985.94
398.32	2963.41
398.54	2889.68
398.75	2977.75
398.96	3026.90
399.18	3117.01
399.39	2920.40
399.60	2959.31
399.81	2985.94
400.03	2971.60
400.24	3254.22
400.45	2985.94
400.66	3008.47
400.88	3047.38
401.09	3209.17
401.30	3188.69
401.51	3172.30
401.73	3213.26
401.94	3243.98
402.15	3235.79
402.36	3149.78
402.58	3121.10
402.79	3149.78
403.00	3125.20
403.21	3264.46
403.43	3229.65
403.64	3344.33
403.85	3178.45
404.06	3211.22
404.27	3153.87
404.49	3203.02
404.70	3200.98
404.91	3192.78
405.12	3192.78
405.34	3162.06
405.55	3370.96
405.76	3125.20
405.97	3260.37
406.19	3432.40
406.40	3266.51
406.61	3383.24
406.82	3397.58
407.03	3297.23
407.25	3352.52
407.46	3330.00
407.67	3420.11
407.88	3528.65
408.09	3483.59
408.31	3340.24
408.52	3338.19
408.73	3499.98
408.94	3327.95
409.15	3456.97
409.37	3524.55
409.58	3526.60
409.79	3514.31
410.00	3579.85
410.21	3448.78
410.43	3563.47
410.64	3395.53
410.85	3524.55
411.06	3676.10
411.27	3575.75
411.48	3551.18
411.70	3393.48
411.91	3696.58
412.12	3696.58
412.33	3510.22
412.54	3557.32
412.76	3778.50
412.97	3727.30
413.18	3532.75
413.39	3608.52
413.60	3702.73
413.81	3663.82
414.03	3665.86
414.24	3790.79
414.45	3837.89
414.66	3585.99
414.87	3813.32
415.08	3712.97
415.30	3798.98
415.51	3825.61
415.72	3827.65
415.93	3741.64
416.14	3880.90
416.35	3870.66
416.56	3846.09
416.78	3891.14
416.99	3848.13
417.20	3776.45
417.41	4030.40
417.62	3874.76
417.83	3846.09
418.04	4065.22
418.26	3995.59
418.47	4003.78
418.68	4054.98
418.89	4011.97
419.10	4173.76
419.31	4009.92
419.52	4118.47
419.73	3987.40
419.95	4218.82
420.16	3977.16
420.37	4042.69
420.58	4214.72
420.79	4022.21
421.00	4126.66
421.21	4231.10
421.42	4138.94
421.63	4077.51
421.85	4210.62
422.06	4292.54
422.27	4161.47
422.48	4255.68
422.69	4341.69
422.90	4216.77
423.11	4325.31
423.32	4339.65
423.53	4347.84
423.75	4300.73
423.96	4464.57
424.17	4458.43
424.38	4575.16
424.59	4487.10
424.80	4640.70
425.01	4368.32
425.22	4489.15
425.43	4509.63
425.64	4706.23
425.85	4769.72
426.06	4607.93
426.28	4677.56
426.49	4603.83
426.70	4614.07
426.91	4495.29
427.12	4747.19
427.33	4708.28
427.54	4632.51
427.75	4661.18
427.96	4808.63
428.17	4773.82
428.38	4759.48
428.59	4976.56
428.80	4761.53
429.01	4865.97
429.23	4853.69
429.44	5072.82
429.65	5044.15
429.86	5099.44
430.07	4927.41
430.28	4962.23
430.49	4960.18
430.70	5103.54
430.91	5179.31
431.12	5081.01
431.33	5181.36
431.54	5187.50
431.75	5210.03
431.96	5109.68
432.17	5113.78
432.38	5222.32
432.59	5418.93
432.80	5353.39
433.01	5285.81
433.22	5322.67
433.43	5289.90
433.64	5341.10
433.85	5314.48
434.06	5425.07
434.27	5439.40
434.49	5423.02
434.70	5693.35
434.91	5455.79
435.12	5506.99
435.33	5412.78
435.54	5525.42
435.75	5238.70
435.96	5494.70
436.17	5449.64
436.38	5654.44
436.59	5736.36
436.80	5531.56
437.01	5781.42
437.22	5926.82
437.43	5779.37
437.64	5470.12
437.85	5695.40
438.06	5820.33
438.27	5625.77
438.48	5777.32
438.69	5840.81
438.90	5824.42
439.11	5681.07
439.32	5877.67
439.53	5973.92
439.74	5844.90
439.95	5984.16
440.16	5973.92
440.37	5898.15
440.57	5808.04
440.78	6000.55
440.99	6018.98
441.20	6016.93
441.41	6027.17
441.62	6064.04
441.83	6104.99
442.04	6076.32
442.25	6193.06
442.46	6145.95
442.67	6131.62
442.88	6475.68
443.09	5984.16
443.30	6223.78
443.51	6360.99
443.72	6490.01
443.93	6131.62
444.14	6367.13
444.35	6191.01
444.56	6281.12
444.77	6381.47
444.98	6342.56
445.19	6309.79
445.40	6287.26
445.61	6367.13
445.81	6369.18
446.02	6557.60
446.23	6582.17
446.44	6418.33
446.65	6475.68
446.86	6453.15
447.07	6500.25
447.28	6803.35
447.49	6676.38
447.70	6397.85
447.91	6825.88
448.12	6832.02
448.33	6868.89
448.54	6832.02
448.74	6741.91
448.95	6864.79
449.16	6690.71
449.37	7051.16
449.58	6838.17
449.79	6950.81
450.00	6827.93
450.21	6961.05
450.42	7204.75
450.63	6991.77
450.84	7020.44
451.05	6989.72
451.25	6977.43
451.46	6975.38
451.67	7243.67
451.88	7157.65
452.09	7188.37
452.30	7026.58
452.51	7247.76
452.72	7442.32
452.93	7585.68
453.13	7114.64
453.34	7237.52
453.55	7329.68
453.76	7374.74
453.97	7581.58
454.18	7456.65
454.39	7548.81
454.60	7499.66
454.81	7532.43
455.01	7673.74
455.22	7532.43
455.43	7663.50
455.64	7718.79
455.85	7958.41
456.06	8007.56
456.27	7837.58
456.48	7849.86
456.68	7823.24
456.89	7683.98
457.10	8134.53
457.31	8036.23
457.52	8048.52
457.73	8071.04
457.94	8378.24
458.14	8003.46
458.35	8642.43
458.56	8150.92
458.77	8044.42
458.98	8277.89
459.19	8497.02
459.39	8488.83
459.60	8497.02
459.81	8298.37
460.02	8736.63
460.23	8638.33
460.44	8861.56
460.65	8720.25
460.85	8767.35
461.06	8834.94
461.27	8658.81
461.48	8879.99
461.69	9160.56
461.89	8769.40
462.10	8912.76
462.31	8882.04
462.52	8949.62
462.73	9111.41
462.94	9164.66
463.14	9154.42
463.35	9170.80
463.56	9637.74
463.77	9582.45
463.98	9138.04
464.18	9385.84
464.39	9625.45
464.60	9781.10
464.81	9547.63
465.02	9611.12
465.23	9791.34
465.43	9785.19
465.64	9961.32
465.85	9783.15
466.06	9711.47
466.27	10112.87
466.47	10106.73
466.68	10250.08
466.89	9942.89
467.10	10276.71
467.30	10245.99
467.51	10383.20
467.72	10563.42
467.93	10284.90
468.14	10450.78
468.34	10796.89
468.55	10692.44
468.76	10721.12
468.97	10780.51
469.17	10768.22
469.38	10755.93
469.59	11155.29
469.80	10907.48
470.01	10987.35
470.21	10977.11
470.42	11437.91
470.63	11347.79
470.84	11462.48
471.04	11366.23
471.25	11423.57
471.46	11495.25
471.67	11450.19
471.87	11683.66
472.08	11788.11
472.29	11974.47
472.50	11882.31
472.70	11980.62
472.91	11767.63
473.12	12318.53
473.33	12349.25
473.53	12373.83
473.74	12195.65
473.95	12496.71
474.16	12578.62
474.36	12611.39
474.57	12588.86
474.78	12742.46
474.99	12896.06
475.19	12695.36
475.40	13156.15
475.61	13225.78
475.81	13086.52
476.02	13356.85
476.23	13258.55
476.44	13322.04
476.64	13397.81
476.85	13979.43
477.06	13547.31
477.27	13944.62
477.47	14051.11
477.68	13991.72
477.89	14239.53
478.09	14366.50
478.30	14337.83
478.51	14257.96
478.71	14411.56
478.92	14681.89
479.13	14642.98
479.34	14853.92
479.54	14876.44
479.75	14847.77
479.96	14864.16
480.16	15120.15
480.37	15077.15
480.58	15312.66
480.78	15574.80
480.99	15249.18
481.20	15585.04
481.41	15812.37
481.61	15681.30
481.82	15863.57
482.03	15920.91
482.23	15808.27
482.44	16275.21
482.65	16256.78
482.85	16359.17
483.06	16480.00
483.27	16420.61
483.47	16633.60
483.68	16531.20
483.89	16641.79
484.09	17018.62
484.30	16867.07
484.51	17223.42
484.71	17125.11
484.92	17067.77
485.13	17659.63
485.33	17557.24
485.54	17397.49
485.75	17436.41
485.95	17635.06
486.16	17825.52
486.37	17934.06
486.57	17860.34
486.78	17919.73
486.98	17862.38
487.19	18011.89
487.40	18159.34
487.60	18298.60
487.81	18509.54
488.02	18321.13
488.22	18429.67
488.43	18765.54
488.64	18843.36
488.84	19144.41
489.05	19078.88
489.25	18892.51
489.46	19037.92
489.67	19070.68
489.87	19308.25
490.08	19332.82
490.29	19398.36
490.49	19830.48
490.70	19838.67
490.90	19723.99
491.11	19971.79
491.32	19998.41
491.52	19969.74
491.73	19844.82
491.94	20178.64
492.14	19924.69
492.35	20250.32
492.55	20426.44
492.76	20543.17
492.97	20643.52
493.17	20551.37
493.38	20717.25
493.58	21020.35
493.79	20922.05
494.00	21153.47
494.20	21024.45
494.41	21200.57
494.61	21499.58
494.82	21223.10
495.02	21438.14
495.23	21460.66
495.44	21704.37
495.64	21526.20
495.85	21546.68
496.05	21952.18
496.26	21399.23
496.47	22423.21
496.67	21880.50
496.88	22384.30
497.08	22005.42
497.29	22443.69
497.49	22204.08
497.70	22329.00
497.91	22447.79
498.11	22601.38
498.32	22570.66
498.52	22548.14
498.73	23035.55
498.93	23072.42
499.14	23324.32
499.34	23064.22
499.55	23174.81
499.76	23219.87
499.96	23285.40
500.17	23209.63
500.37	23211.68
500.58	23512.73
500.78	23680.66
500.99	23492.25
501.19	23764.63
501.40	23639.70
501.60	23598.74
501.81	23879.32
502.02	23676.57
502.22	23574.17
502.43	24190.61
502.63	24243.85
502.84	24651.40
503.04	23897.75
503.25	24438.41
503.45	24462.99
503.66	24714.89
503.86	24575.62
504.07	24755.85
504.27	24293.01
504.48	24991.36
504.68	24870.53
504.89	25384.57
505.09	25060.99
505.30	25017.99
505.50	25013.89
505.71	24850.05
505.91	25325.18
506.12	25130.62
506.32	25120.38
506.53	25321.09
506.73	25378.43
506.94	25558.65
507.14	25331.33
507.35	25405.05
507.55	25718.39
507.76	25611.90
507.96	25433.72
508.17	25962.10
508.37	25917.04
508.58	25845.37
508.78	26029.68
508.99	26447.47
509.19	25785.97
509.40	25906.80
509.60	26371.69
509.81	26127.99
510.01	26175.09
510.22	25949.81
510.42	26064.50
510.63	26402.41
510.83	26377.84
511.04	26553.96
511.24	26404.46
511.44	26672.74
511.65	26650.22
511.85	26748.52
512.06	26623.59
512.26	26947.17
512.47	26822.25
512.67	26615.40
512.88	27072.10
513.08	26871.40
513.29	27162.21
513.49	27158.11
513.69	27043.43
513.90	27227.74
514.10	26975.84
514.31	27129.44
514.51	27252.32
514.72	27330.14
514.92	27326.05
515.13	27283.04
515.33	27844.18
515.53	27682.39
515.74	27661.91
515.94	27786.84
516.15	27623.00
516.35	27631.19
516.56	27942.49
516.76	27799.13
516.96	28063.32
517.17	28239.44
517.37	28223.06
517.58	28184.15
517.78	28202.58
517.99	28321.36
518.19	28597.84
518.39	28722.76
518.60	28438.09
518.80	28597.84
519.01	28874.31
519.21	28472.91
519.41	28679.75
519.62	28743.24
519.82	28927.56
520.03	28810.82
520.23	28841.54
520.43	28726.86
520.64	29283.91
520.84	29544.00
521.05	29296.19
521.25	29544.00
521.45	29781.56
521.66	29634.11
521.86	29834.81
522.07	29341.25
522.27	29677.12
522.47	29607.48
522.68	30037.56
522.88	29779.51
523.08	30217.78
523.29	30109.24
523.49	30293.55
523.70	30258.74
523.90	30432.82
524.10	30432.82
524.31	30899.75
524.51	30277.17
524.71	30996.01
524.92	30883.37
525.12	30852.65
525.33	30723.63
525.53	31290.91
525.73	31104.55
525.94	31174.18
526.14	31094.31
526.34	31495.71
526.55	31292.96
526.75	31186.47
526.95	31493.66
527.16	31608.35
527.36	31389.22
527.56	32005.66
527.77	32103.96
527.97	32048.66
528.17	32136.73
528.38	32339.47
528.58	32488.98
528.78	32079.38
528.99	32445.97
529.19	32749.07
529.39	32450.06
529.60	32613.90
529.80	32581.13
530.00	32921.10
530.21	33183.24
530.41	33404.42
530.61	33316.36
530.82	33385.99
531.02	33441.28
531.22	33684.99
531.43	33363.46
531.63	33932.79
531.83	34029.05
532.04	34444.79
532.24	33555.97
532.44	33936.89
532.64	34350.58
532.85	34512.37
533.05	34080.25
533.25	34498.03
533.46	34672.11
533.66	34881.00
533.86	34725.36
534.07	35010.03
534.27	34817.52
534.47	35384.80
534.67	35743.20
534.88	35126.76
535.08	35446.24
535.28	35595.74
535.49	35864.03
535.69	35855.84
535.89	35915.23
536.09	36060.63
536.30	36181.46
536.50	36160.98
536.70	36371.92
536.91	36494.80
537.11	36703.70
537.31	36371.92
537.51	36312.53
537.72	36797.90
537.92	36926.92
538.12	37420.48
538.32	36937.16
538.53	37041.61
538.73	36931.02
538.93	37350.85
539.13	37123.53
539.34	37553.60
539.54	37219.78
539.74	37877.18
539.94	37787.07
540.15	37217.74
540.35	37928.38
540.55	37465.54
540.75	37875.13
540.96	38086.07
541.16	38241.72
541.36	38305.21
541.56	38231.48
541.77	38167.99
541.97	38297.02
542.17	38718.90
542.37	38792.62
542.58	38657.46
542.78	38811.06
542.98	38886.83
543.18	39134.63
543.38	39450.02
543.59	39364.01
543.79	39110.06
543.99	39263.66
544.19	39411.11
544.40	39370.15
544.60	40013.21
544.80	39589.28
545.00	39720.35
545.20	39916.96
545.41	39783.84
545.61	39927.20
545.81	40039.84
546.01	40029.60
546.21	39732.64
546.42	40105.37
546.62	40566.16
546.82	40191.39
547.02	40252.83
547.22	40361.37
547.43	40600.98
547.63	40891.79
547.83	40881.55
548.03	40351.13
548.23	40924.56
548.44	40711.57
548.64	40756.63
548.84	41201.04
549.04	40740.24
549.24	41338.25
549.45	41057.68
549.65	41112.97
549.85	41029.01
550.05	41897.34
550.25	41248.14
550.45	41579.91
550.66	41219.47
550.86	41461.13
551.06	41780.61
551.26	41860.48
551.46	41854.34
551.66	41778.56
551.87	41457.03
552.07	41792.90
552.27	41874.82
552.47	41899.39
552.67	42110.33
552.87	42065.28
553.07	42196.35
553.28	42237.31
553.48	42169.72
553.68	41778.56
553.88	42196.35
554.08	42401.14
554.28	42231.16
554.48	42419.58
554.69	42792.31
554.89	42274.17
555.09	42706.29
555.29	42311.03
555.49	42775.92
555.69	42802.55
555.89	42687.86
556.10	43087.21
556.30	42374.52
556.50	42976.62
556.70	42853.75
556.90	43277.68
557.10	42685.81
557.30	43044.21
557.50	43001.20
557.70	42876.27
557.91	43740.52
558.11	43099.50
558.31	43650.41
558.51	42950.00
558.71	43494.76
558.91	43691.37
559.11	43668.84
559.31	43498.86
559.51	43238.76
559.72	43015.54
559.92	43513.19
560.12	43369.83
560.32	43967.84
560.52	43488.62
560.72	43543.91
560.92	43767.14
561.12	44094.82
561.32	43881.83
561.52	43484.52
561.72	43906.40
561.93	43568.49
562.13	44201.31
562.33	43804.00
562.53	44457.31
562.73	43924.83
562.93	44430.68
563.13	44168.54
563.33	44119.39
563.53	44528.98
563.73	44068.19
563.93	44254.56
564.13	44350.81
564.33	44428.63
564.53	44592.47
564.74	44514.65
564.94	44084.58
565.14	44584.28
565.34	44322.14
565.54	44850.52
565.74	44918.10
565.94	45063.50
566.14	44713.30
566.34	44449.11
566.54	44959.06
566.74	44858.71
566.94	44954.96
567.14	45309.26
567.34	44981.59
567.54	44971.35
567.74	44881.24
567.94	44655.96
568.14	45159.76
568.34	45483.34
568.54	45096.27
568.74	45149.52
568.94	45190.48
569.14	45155.66
569.34	45237.58
569.54	44920.15
569.75	44797.27
569.95	45129.04
570.15	45731.14
570.35	45186.38
570.55	45397.32
570.75	45456.71
570.95	45217.10
571.15	45555.02
571.35	45798.73
571.55	45839.68
571.75	45425.99
571.95	45575.50
572.15	45370.70
572.35	45591.88
572.55	45747.53
572.75	45962.56
572.95	45421.90
573.15	45927.75
573.35	45813.06
573.55	45540.68
573.75	45688.13
573.95	45937.99
574.15	45497.67
574.35	45761.86
574.55	46114.11
574.75	46052.67
574.95	46327.10
575.15	46062.91
575.34	46376.25
575.54	46828.85
575.74	46337.34
575.94	46585.15
576.14	46392.64
576.34	46492.99
576.54	46519.61
576.74	46507.32
576.94	46452.03
577.14	46519.61
577.34	47052.08
577.54	46724.41
577.74	46918.96
577.94	46880.05
578.14	46800.18
578.34	46982.45
578.54	46419.26
578.74	46646.58
578.94	47070.51
579.14	46658.87
579.34	46861.62
579.54	47043.89
579.74	47430.96
579.94	47093.04
580.13	47330.61
580.33	47152.43
580.53	47002.93
580.73	47377.71
580.93	47295.79
581.13	47185.20
581.33	47656.23
581.53	47592.75
581.73	47189.30
581.93	47940.90
582.13	47824.17
582.33	48002.34
582.53	47578.41
582.73	47670.57
582.92	47676.71
583.12	48203.04
583.32	48037.16
583.52	47672.62
583.72	47963.43
583.92	47758.63
584.12	48413.98
584.32	48731.42
584.52	48219.42
584.72	48143.65
584.92	48645.40
585.11	48991.51
585.31	48680.22
585.51	48827.67
585.71	48057.63
585.91	48866.58
586.11	48311.58
586.31	48438.56
586.51	48575.77
586.71	48600.35
586.91	49177.87
587.10	48653.59
587.30	48676.12
587.50	48778.52
587.70	49050.90
587.90	49362.19
588.10	49206.55
588.30	49057.04
588.50	48909.59
588.69	49364.24
588.89	48854.29
589.09	49401.10
589.29	49417.49
589.49	49906.95
589.69	49046.80
589.89	49005.84
590.08	49356.05
590.28	48880.92
590.48	49440.01
590.68	49243.41
590.88	49198.35
591.08	49319.18
591.28	49227.02
591.47	49347.86
591.67	49491.21
591.87	49786.12
592.07	49476.88
592.27	49509.64
592.47	49677.58
592.67	49978.63
592.86	49888.52
593.06	49898.76
593.26	50054.40
593.46	50099.46
593.66	49865.99
593.86	49843.46
594.05	49960.20
594.25	49968.39
594.45	49601.80
594.65	50085.12
594.85	50025.73
595.05	50179.33
595.24	50668.79
595.44	50078.98
595.64	50322.69
595.84	50584.83
596.04	49794.31
596.23	50613.50
596.43	50740.47
596.63	50672.89
596.83	50547.96
597.03	51041.53
597.22	51170.55
597.42	50615.55
597.62	50734.33
597.82	50930.93
598.02	50580.73
598.21	51365.10
598.41	50781.43
598.61	50818.30
598.81	51266.80
599.01	51395.82
599.20	51070.20
599.40	51051.76
599.60	51137.78
599.80	51131.64
600.00	51459.31
600.19	51705.07
600.39	51430.64
600.59	51633.39
600.79	51320.05
600.98	51356.91
601.18	51600.62
601.38	51797.23
601.58	51547.37
601.78	51883.24
601.97	52176.10
602.17	52229.35
602.37	51754.22
602.57	52102.37
602.76	51959.02
602.96	51920.10
603.16	52260.07
603.36	52059.37
603.55	52311.27
603.75	52002.02
603.95	52514.01
604.15	52471.01
604.34	52393.18
604.54	52651.23
604.74	52532.45
604.94	52729.05
605.13	52491.49
605.33	52729.05
605.53	52454.62
605.73	53083.35
605.92	52950.23
606.12	52565.21
606.32	52636.89
606.52	52980.95
606.71	53118.17
606.91	53079.25
607.11	52802.78
607.30	52962.52
607.50	52673.76
607.70	53077.21
607.90	53382.35
608.09	52976.86
608.29	53202.13
608.49	53494.99
608.68	53486.80
608.88	53314.77
609.08	53705.93
609.28	53464.27
609.47	52987.10
609.67	54129.86
609.87	53339.35
610.06	53982.41
610.26	53695.69
610.46	54019.27
610.66	53286.10
610.85	53722.32
611.05	53771.47
611.25	53720.27
611.44	53466.32
611.64	54099.14
611.84	53300.43
612.03	53224.66
612.23	54033.61
612.43	53996.74
612.62	53581.01
612.82	54244.55
613.02	53771.47
613.21	54330.56
613.41	53888.20
613.61	54019.27
613.80	53638.35
614.00	54191.30
614.20	54166.73
614.39	54346.95
614.59	54154.44
614.79	54006.98
614.98	54215.88
615.18	54318.28
615.38	54289.60
615.57	54463.68
615.77	54867.13
615.97	54271.17
616.16	54369.47
616.36	54211.78
616.56	54052.04
616.75	54238.40
616.95	54287.56
617.15	53896.39
617.34	54738.11
617.54	54592.70
617.74	54645.95
617.93	55073.98
618.13	54105.29
618.32	54539.46
618.52	54301.89
618.72	54250.69
618.91	54308.04
619.11	54211.78
619.31	54447.30
619.50	54193.35
619.70	54551.74
619.90	54060.23
620.09	54205.64
620.29	54637.76
620.48	54369.47
620.68	55239.86
620.88	54097.09
621.07	54539.46
621.27	54604.99
621.46	54047.94
621.66	54637.76
621.86	54392.00
622.05	54082.76
622.25	54834.36
622.44	54572.22
622.64	54715.58
622.84	54564.03
623.03	54277.32
623.23	54617.28
623.42	54154.44
623.62	54504.64
623.82	54797.50
624.01	54760.64
624.21	54676.67
624.40	54453.44
624.60	54449.35
624.80	54668.48
624.99	54797.50
625.19	54074.57
625.38	54588.61
625.58	54719.68
625.77	55014.58
625.97	54498.50
626.17	54748.35
626.36	54703.29
626.56	54961.34
626.75	54281.41
626.95	54752.44
627.14	54238.40
627.34	54865.08
627.54	54731.96
627.73	55159.99
627.93	54711.49
628.12	54611.13
628.32	54670.53
628.51	54926.52
628.71	54801.60
628.90	54791.36
629.10	55069.88
629.30	54990.01
629.49	54949.05
629.69	54619.33
629.88	54860.99
630.08	55047.35
630.27	54940.86
630.47	55286.96
630.66	54967.48
630.86	55309.49
631.05	54953.15
631.25	55669.93
631.44	55141.56
631.64	55022.78
631.84	55192.76
632.03	55657.65
632.23	54717.63
632.42	55432.37
632.62	55497.91
632.81	55014.58
633.01	55268.53
633.20	55573.68
633.40	55514.29
633.59	55319.73
633.79	54899.90
633.98	55401.65
634.18	55694.51
634.37	55235.77
634.57	55391.41
634.76	56069.29
634.96	55393.46
635.15	55549.10
635.35	55043.26
635.54	55047.35
635.74	55721.13
635.93	55403.70
636.13	55925.93
636.32	55555.25
636.52	55137.46
636.71	55721.13
636.91	55778.48
637.10	55727.28
637.30	55536.82
637.49	55827.63
637.69	55565.49
637.88	56145.06
638.08	55952.55
638.27	55581.87
638.46	55698.61
638.66	55651.50
638.85	55889.07
639.05	55833.77
639.24	56337.57
639.44	55465.14
639.63	56040.62
639.83	56476.83
640.02	55628.98
640.22	55833.77
640.41	56276.13
640.61	55829.68
640.80	56065.19
640.99	56313.00
641.19	56671.39
641.38	56147.11
641.58	55614.64
641.77	56087.72
641.97	56431.78
642.16	56263.85
642.36	56648.86
642.55	56816.80
642.74	55688.37
642.94	56728.73
643.13	56095.91
643.33	56865.95
643.52	56689.82
643.72	56464.55
643.91	56720.54
644.10	56659.10
644.30	56904.86
644.49	56497.31
644.69	56689.82
644.88	56745.12
645.08	56083.62
645.27	56587.42
645.46	56106.15
645.66	56663.20
645.85	56636.58
646.05	56505.51
646.24	56827.04
646.43	56581.28
646.63	57017.50
646.82	57007.26
647.02	57267.35
647.21	57275.54
647.40	56743.07
647.60	57369.75
647.79	56992.92
647.99	57216.15
648.18	56827.04
648.37	57926.80
648.57	57205.91
648.76	57351.32
648.96	56988.83
649.15	57472.15
649.34	57619.60
649.54	57386.13
649.73	56923.29
649.92	56958.11
650.12	57062.55
650.31	57502.87
650.51	57455.76
650.70	57607.31
650.89	56790.17
651.09	57973.90
651.28	57451.67
651.47	57472.15
651.67	57144.47
651.86	57453.72
652.06	57382.04
652.25	57103.51
652.44	57363.60
652.64	57570.45
652.83	57334.93
653.02	57654.42
653.22	57998.48
653.41	57273.49
653.60	56999.07
653.80	57359.51
653.99	57746.57
654.18	57324.69
654.38	57711.76
654.57	57799.82
654.76	57488.53
654.96	57203.86
655.15	57848.97
655.34	57607.31
655.54	57388.18
655.73	57504.91
655.92	57345.17
656.12	57785.49
656.31	57799.82
656.50	58072.20
656.70	57562.26
656.89	57926.80
657.08	58082.44
657.28	57971.85
657.47	57623.70
657.66	58107.02
657.86	57701.52
658.05	58201.22
658.24	57906.32
658.43	57898.12
658.63	57810.06
658.82	57939.08
659.01	57824.40
659.21	58080.39
659.40	57754.77
659.59	57904.27
659.79	58498.18
659.98	58162.31
660.17	58322.05
660.36	58074.25
660.56	57959.56
660.75	58139.78
660.94	58217.61
661.14	57744.53
661.33	57752.72
661.52	57734.29
661.71	58211.46
661.91	58031.24
662.10	57918.60
662.29	58332.29
662.49	57877.64
662.68	58186.89
662.87	58145.93
663.06	58182.79
663.26	58012.81
663.45	58760.32
663.64	57916.56
663.83	58608.77
664.03	58160.26
664.22	57959.56
664.41	58018.95
664.60	58137.74
664.80	58494.08
664.99	57793.68
665.18	57984.14
665.37	58348.68
665.57	58528.90
665.76	58293.38
665.95	57945.23
666.14	58385.54
666.34	58266.76
666.53	58252.42
666.72	58078.35
666.91	58115.21
667.11	58274.95
667.30	58039.43
667.49	58070.15
667.68	57928.84
667.87	58367.11
668.07	58277.00
668.26	58442.88
668.45	58348.68
668.64	57957.52
668.84	58397.83
669.03	58473.60
669.22	58277.00
669.41	57871.50
669.60	58205.32
669.80	57685.14
669.99	58201.22
670.18	58094.73
670.37	58111.11
670.57	58516.61
670.76	58039.43
670.95	58578.05
671.14	58000.52
671.33	57844.88
671.53	58469.51
671.72	58363.01
671.91	58031.24
672.10	58145.93
672.29	57955.47
672.48	57805.97
672.68	58246.28
672.87	57836.69
673.06	57793.68
673.25	57699.47
673.44	57808.01
673.64	57967.76
673.83	57906.32
674.02	57754.77
674.21	57549.97
674.40	57988.24
674.59	57734.29
674.79	57642.13
674.98	57312.41
675.17	57707.66
675.36	57418.90
675.55	57963.66
675.74	57406.61
675.94	57783.44
676.13	57681.04
676.32	58041.48
676.51	57945.23
676.70	57767.05
676.89	57914.51
677.08	57709.71
677.28	57511.06
677.47	58094.73
677.66	57644.18
677.85	57928.84
678.04	57658.51
678.23	57803.92
678.42	57672.85
678.62	57629.84
678.81	57705.62
679.00	57613.46
679.19	58240.14
679.38	57302.17
679.57	57535.63
679.76	57459.86
679.96	57523.35
680.15	57437.33
680.34	57476.24
680.53	57140.38
680.72	57379.99
680.91	57656.46
681.10	57271.45
681.29	57580.69
681.48	57590.93
681.68	57070.75
681.87	57476.24
682.06	57271.45
682.25	56870.04
682.44	57482.39
682.63	57719.95
682.82	57078.94
683.01	57537.68
683.20	56931.48
683.39	57480.34
683.59	56525.99
683.78	57171.10
683.97	56882.33
684.16	56870.04
684.35	56681.63
684.54	56796.32
684.73	57105.56
684.92	56728.73
685.11	56747.17
685.30	56972.44
685.49	57257.11
685.69	56540.32
685.88	56597.66
686.07	57021.59
686.26	56816.80
686.45	56990.87
686.64	56691.87
686.83	56341.67
687.02	56485.03
687.21	56571.04
687.40	56546.47
687.59	56620.19
687.78	56638.62
687.97	56556.70
688.16	56489.12
688.35	56464.55
688.54	56317.09
688.74	56538.27
688.93	56421.54
689.12	56229.03
689.31	56192.17
689.50	56317.09
689.69	55960.75
689.88	55975.08
690.07	56077.48
690.26	55884.97
690.45	56317.09
690.64	56300.71
690.83	55694.51
691.02	55598.26
691.21	55784.62
691.40	55866.54
691.59	56007.85
691.78	55678.13
691.97	55940.27
692.16	55839.92
692.35	55831.72
692.54	55350.45
692.73	55819.44
692.92	55612.59
693.11	55536.82
693.30	55555.25
693.49	55700.65
693.68	55377.08
693.87	55714.99
694.06	55227.57
694.25	55768.24
694.44	55327.92
694.63	55528.62
694.82	55725.23
695.01	55469.23
695.20	55155.89
695.39	55170.23
695.58	54850.75
695.77	55260.34
695.96	54719.68
696.15	55612.59
696.34	54410.43
696.53	55092.41
696.72	55133.37
696.91	54863.03
697.10	55186.61
697.29	54666.43
697.48	54621.37
697.67	54809.79
697.86	54817.98
698.05	54744.25
698.24	55002.30
698.43	54351.04
698.62	54901.95
698.81	54688.96
699.00	54596.80
699.19	54017.22
699.38	55125.17
699.57	54400.19
699.76	55102.65
699.95	54568.13
700.14	54121.67
700.32	54457.54
700.51	54482.11
700.70	54652.09
700.89	54727.87
701.08	54568.13
701.27	54072.52
701.46	54549.70
701.65	53687.50
701.84	53877.96
702.03	54129.86
702.22	53703.88
702.41	53546.19
702.60	54017.22
702.79	53943.50
702.98	53492.94
703.17	54029.51
703.35	53707.98
703.54	53482.70
703.73	53998.79
703.92	53820.62
704.11	53720.27
704.30	53007.58
704.49	53275.86
704.68	53140.69
704.87	53408.98
705.06	53585.10
705.25	53476.56
705.43	53220.56
705.62	53654.73
705.81	53294.29
706.00	53218.52
706.19	53318.87
706.38	53019.86
706.57	53335.25
706.76	52567.26
706.95	52612.32
707.14	52630.75
707.32	52552.93
707.51	52770.01
707.70	52712.67
707.89	52630.75
708.08	52524.25
708.27	53159.12
708.46	52770.01
708.65	52704.48
708.84	53134.55
709.02	52452.58
709.21	52647.13
709.40	52743.39
709.59	52438.24
709.78	51875.05
709.97	52647.13
710.16	52219.11
710.34	51920.10
710.53	52063.46
710.72	52026.60
710.91	52372.70
711.10	52278.50
711.29	52303.07
711.48	52333.79
711.66	52268.26
711.85	51690.73
712.04	51795.18
712.23	52112.61
712.42	51893.48
712.61	52059.37
712.80	51985.64
712.98	51940.58
713.17	51617.00
713.36	51567.85
713.55	51674.35
713.74	51512.56
713.93	51897.58
714.11	51592.43
714.30	51543.28
714.49	51442.93
714.68	51733.74
714.87	51399.92
715.06	51483.89
715.24	50943.22
715.43	51156.21
715.62	51016.95
715.81	51152.12
716.00	51197.17
716.18	51176.69
716.37	50715.90
716.56	50660.60
716.75	50814.20
716.94	51043.57
717.12	50640.12
717.31	51250.42
717.50	50975.99
717.69	50859.26
717.88	50570.49
718.06	50664.70
718.25	50953.46
718.44	50025.73
718.63	50406.65
718.82	50515.20
719.00	50482.43
719.19	50011.40
719.38	50224.39
719.57	49802.50
719.76	49767.69
719.94	49487.12
720.13	49702.15
720.32	50070.79
720.51	50038.02
720.69	49736.97
720.88	49419.53
721.07	49542.41
721.26	49446.16
721.44	49577.23
721.63	49556.75
721.82	49173.78
722.01	49179.92
722.20	49300.75
722.38	49224.98
722.57	48600.35
722.76	48903.45
722.95	49126.67
723.13	48747.80
723.32	48991.51
723.51	48786.71
723.70	48504.09
723.88	48829.72
724.07	48239.90
724.26	48483.61
724.44	47924.52
724.63	48694.55
724.82	48500.00
725.01	48411.93
725.19	48446.75
725.38	48147.75
725.57	48266.53
725.76	48522.52
725.94	47971.62
726.13	48301.34
726.32	47635.75
726.51	48117.03
726.69	48448.80
726.88	48348.45
727.07	48094.50
727.25	47973.67
727.44	48125.22
727.63	48151.84
727.82	48026.92
728.00	47764.78
728.19	47787.30
728.38	47959.33
728.56	47244.59
728.75	48311.58
728.94	47725.86
729.12	47691.05
729.31	47961.38
729.50	48012.58
729.69	48346.40
729.87	47566.12
730.06	47574.31
730.25	47916.32
730.43	48323.87
730.62	47637.80
730.81	47623.47
730.99	47836.45
731.18	47433.00
731.37	47748.39
731.55	47863.08
731.74	48035.11
731.93	47826.21
732.11	47609.13
732.30	48182.56
732.49	47750.44
732.67	47877.41
732.86	47707.43
733.05	47551.79
733.23	47181.10
733.42	47574.31
733.61	47461.68
733.79	47742.25
733.98	47998.24
734.17	47725.86
734.35	47297.84
734.54	47504.68
734.73	47689.00
734.91	47666.47
735.10	47060.27
735.29	47652.14
735.47	47117.62
735.66	47545.64
735.84	47398.19
736.03	46957.88
736.22	47316.27
736.40	47322.41
736.59	47543.59
736.78	47101.23
736.96	47420.72
737.15	47035.70
737.33	47000.88
737.52	46781.75
737.71	46630.20
737.89	46824.76
738.08	46677.30
738.27	46716.22
738.45	47160.62
738.64	46718.26
738.82	47224.11
739.01	47422.76
739.20	47009.07
739.38	46890.29
739.57	47254.83
739.75	46994.74
739.94	46640.44
740.13	46658.87
740.31	46595.38
740.50	46986.55
740.68	47093.04
740.87	46900.53
741.06	46808.37
741.24	46462.27
741.43	46566.71
741.61	46884.15
741.80	46409.02
741.99	46595.38
742.17	46241.09
742.36	46253.37
742.54	46003.52
742.73	46546.23
742.91	46544.19
743.10	46292.29
743.29	46212.41
743.47	46501.18
743.66	45991.23
743.84	46615.86
744.03	46146.88
744.21	46167.36
744.40	46654.78
744.59	46103.87
744.77	45544.78
744.96	46413.12
745.14	46363.96
745.33	46243.13
745.51	46089.54
745.70	46409.02
745.88	45972.80
746.07	46282.05
746.26	46110.02
746.44	45798.73
746.63	45585.74
746.81	45798.73
747.00	45417.80
747.18	46085.44
747.37	45729.09
747.55	45380.94
747.74	45958.47
747.92	45641.03
748.11	45661.51
748.29	45346.12
748.48	45811.01
748.66	45174.09
748.85	45598.02
749.03	45622.60
749.22	45841.73
749.41	45505.87
749.59	45401.42
749.78	45573.45
749.96	44805.46
750.15	45137.23
750.33	45225.29
750.52	45024.59
750.70	45352.27
750.89	45174.09
751.07	45018.45
751.26	44920.15
751.44	44631.38
751.63	44987.73
751.81	45022.54
752.00	45135.18
752.18	44987.73
752.37	44707.16
752.55	44561.75
752.74	44823.89
752.92	44631.38
753.10	44774.74
753.29	44539.22
753.47	44911.95
753.66	44504.41
753.84	45167.95
754.03	44500.31
754.21	44561.75
754.40	44479.83
754.58	44266.84
754.77	44440.92
754.95	44354.91
755.14	43943.27
755.32	44447.07
755.51	43894.11
755.69	44219.74
755.88	44266.84
756.06	44522.84
756.24	43873.63
756.43	44143.97
756.61	44189.02
756.80	44174.69
756.98	43849.06
757.17	43937.12
757.35	43988.32
757.54	44148.06
757.72	43865.44
757.90	44098.91
758.09	43830.63
758.27	44178.78
758.46	43521.38
758.64	44029.28
758.83	43906.40
759.01	43672.93
759.19	43722.08
759.38	44100.96
759.56	43830.63
759.75	43537.77
759.93	43828.58
760.12	43328.87
760.30	43517.29
760.48	43509.10
760.67	43482.47
760.85	43408.75
761.04	43464.04
761.22	43697.51
761.40	43310.44
761.59	43593.06
761.77	43136.37
761.96	43443.56
762.14	43095.41
762.32	43046.26
762.51	43054.45
762.69	43119.98
762.88	43079.02
763.06	43406.70
763.24	43369.83
763.43	43103.60
763.61	43054.45
763.80	43060.59
763.98	43156.85
764.16	43179.37
764.35	42896.75
764.53	42614.13
764.72	42876.27
764.90	42755.44
765.08	42483.06
765.27	42798.45
765.45	42368.38
765.63	42728.82
765.82	42952.05
766.00	42278.27
766.18	42493.30
766.37	42685.81
766.55	42665.33
766.74	42616.18
766.92	42466.68
767.10	42333.56
767.29	42399.10
767.47	42016.13
767.65	42169.72
767.84	41907.58
768.02	41987.46
768.20	42173.82
768.39	42339.71
768.57	41911.68
768.75	42065.28
768.94	41977.22
769.12	42145.15
769.30	41475.46
769.49	41661.83
769.67	41774.47
769.85	41551.24
770.04	41921.92
770.22	41530.76
770.40	41842.05
770.59	41215.37
770.77	41645.44
770.95	41506.18
771.14	40998.29
771.32	40965.52
771.50	40902.03
771.69	40629.65
771.87	41454.98
772.05	41000.33
772.24	40846.74
772.42	41330.06
772.60	40539.54
772.78	40707.47
772.97	40979.85
773.15	41350.54
773.33	40840.59
773.52	40564.12
773.70	40879.50
773.88	41145.74
774.07	40762.77
774.25	40940.94
774.43	41080.21
774.61	40838.54
774.80	40899.98
774.98	40934.80
775.16	40783.25
775.34	41053.58
775.53	40863.12
775.71	41004.43
775.89	41094.54
776.08	40875.41
776.26	41256.33
776.44	41203.08
776.62	41188.75
776.81	40904.08
776.99	41393.54
777.17	41254.28
777.35	41319.82
777.54	41651.59
777.72	41162.12
777.90	41280.91
778.08	41475.46
778.27	41063.82
778.45	41809.28
778.63	41833.86
778.81	41479.56
779.00	41962.88
779.18	41581.96
779.36	42356.09
779.54	41627.01
779.73	41768.32
779.91	41768.32
780.09	41823.62
780.27	42100.09
780.46	42022.27
780.64	41635.20
780.82	41702.79
781.00	41803.14
781.19	42128.77
781.37	42046.85
781.55	42472.82
781.73	42294.65
781.91	42100.09
782.10	41842.05
782.28	42188.16
782.46	41649.54
782.64	41969.02
782.82	41958.78
783.01	42521.98
783.19	42556.79
783.37	42345.85
783.55	41450.89
783.74	42413.43
783.92	42153.34
784.10	42433.91
784.28	42241.40
784.46	42173.82
784.64	42268.03
784.83	42446.20
785.01	42646.90
785.19	42526.07
785.37	42444.15
785.55	42487.16
785.74	41844.10
785.92	41866.63
786.10	42333.56
786.28	41956.74
786.46	42282.36
786.64	41835.91
786.83	41932.16
787.01	42179.96
787.19	42286.46
787.37	42055.04
787.55	41764.23
787.74	41637.25
787.92	42145.15
788.10	41690.50
788.28	41551.24
788.46	41700.74
788.64	41760.13
788.82	41973.12
789.01	41987.46
789.19	41616.77
789.37	41624.96
789.55	41592.20
789.73	41643.40
789.91	41135.50
790.09	41346.44
790.28	41248.14
790.46	41059.73
790.64	41735.56
790.82	40781.20
791.00	40912.27
791.18	41151.88
791.36	40840.59
791.55	41088.40
791.73	40891.79
791.91	40246.68
792.09	40834.45
792.27	40834.45
792.45	40730.00
792.63	40574.36
792.81	40240.54
793.00	40322.46
793.18	40289.69
793.36	39884.19
793.54	40060.32
793.72	39972.25
793.90	40002.97
794.08	39884.19
794.26	39898.53
794.44	39488.93
794.62	39671.20
794.81	39515.56
794.99	39566.76
795.17	39462.31
795.35	39450.02
795.53	39503.27
795.71	39765.41
795.89	39146.92
796.07	38798.77
796.25	38743.47
796.43	38800.82
796.61	38565.30
796.80	38815.15
796.98	38995.37
797.16	38440.37
797.34	38761.90
797.52	38548.92
797.70	38634.93
797.88	38806.96
798.06	38649.27
798.24	37834.17
798.42	38223.29
798.60	37889.47
798.78	37952.96
798.96	37873.09
799.14	37797.31
799.32	37719.49
799.51	37551.56
799.69	37823.93
799.87	37756.35
800.05	37234.12
800.23	37461.44
800.41	37324.23
800.59	37307.85
800.77	36838.86
800.95	36849.10
801.13	36988.36
801.31	36701.65
801.49	36988.36
801.67	36636.11
801.85	37053.90
802.03	36482.52
802.21	36668.88
802.39	36353.49
802.57	36371.92
802.75	36566.48
802.93	36244.95
803.11	36150.74
803.29	36027.87
803.47	35933.66
803.65	36273.62
803.83	35794.40
804.01	35915.23
804.19	35233.25
804.37	35714.53
804.55	35679.71
804.73	35526.11
804.91	35554.79
805.09	35505.63
805.27	35464.67
805.45	35341.80
805.63	35239.40
805.81	35452.39
805.99	35128.81
806.17	35407.33
806.35	34971.11
806.53	34885.10
806.71	34821.61
806.89	34706.93
807.07	34706.93
807.25	34700.78
807.43	34358.77
807.61	34846.19
807.79	34668.02
807.97	34256.37
808.15	34332.15
808.33	34457.07
808.51	33932.79
808.69	34209.27
808.87	33705.47
809.05	34151.93
809.23	33797.63
809.41	33768.96
809.59	33555.97
809.77	33603.07
809.95	33218.05
810.13	33805.82
810.31	33498.62
810.49	33426.95
810.67	33678.85
810.84	33213.96
811.02	33443.33
811.20	32912.91
811.38	32695.82
811.56	33095.18
811.74	33134.09
811.92	32884.23
812.10	32867.85
812.28	33099.27
812.46	32663.05
812.64	32730.64
812.82	32548.37
813.00	32974.34
813.18	32462.35
813.36	32349.71
813.53	32470.54
813.71	32638.48
813.89	32275.99
814.07	32140.82
814.25	32548.37
814.43	32097.81
814.61	32298.52
814.79	32179.73
814.97	31782.43
815.15	32396.82
815.33	31702.56
815.50	31874.59
815.68	32048.66
815.86	31813.15
816.04	31446.56
816.22	31620.64
816.40	31432.22
816.58	31311.39
816.76	31338.02
816.94	31202.85
817.11	31503.90
817.29	31493.66
817.47	31241.76
817.65	30828.07
817.83	30985.77
818.01	30858.79
818.19	30787.11
818.37	30928.42
818.54	30934.57
818.72	30914.09
818.90	30881.32
819.08	30737.96
819.26	30731.82
819.44	30441.01
819.62	30660.14
819.80	30709.29
819.97	30823.98
820.15	30320.18
820.33	30434.86
820.51	30484.01
820.69	30469.68
820.87	30244.40
821.05	30414.38
821.22	29873.72
821.40	30299.70
821.58	30285.36
821.76	29849.14
821.94	30209.59
822.12	30113.33
822.29	30010.93
822.47	29734.46
822.65	30158.39
822.83	29933.11
823.01	29748.79
823.19	29863.48
823.36	29457.98
823.54	29619.77
823.72	29713.98
823.90	29705.79
824.08	29144.64
824.25	29705.79
824.43	29417.02
824.61	28980.81
824.79	29552.19
824.97	29017.67
825.15	29079.11
825.32	28974.66
825.50	28812.87
825.68	29189.70
825.86	29185.60
826.04	28972.61
826.21	28720.71
826.39	28739.15
826.57	29115.97
826.75	28874.31
826.93	28765.77
827.10	28268.11
827.28	28917.32
827.46	28931.65
827.64	28925.51
827.81	28806.73
827.99	28700.23
828.17	28452.43
828.35	28204.63
828.53	28274.26
828.70	27803.22
828.88	28143.19
829.06	28208.72
829.24	28343.89
829.41	27807.32
829.59	28134.99
829.77	28364.37
829.95	27829.85
830.12	27817.56
830.30	28085.84
830.48	27989.59
830.66	27944.53
830.84	28182.10
831.01	27754.07
831.19	27881.05
831.37	27969.11
831.55	27510.36
831.72	27620.95
831.90	27332.19
832.08	27582.04
832.25	27438.69
832.43	27483.74
832.61	27289.18
832.79	27461.21
832.96	27244.13
833.14	27166.31
833.32	27446.88
833.50	27487.84
833.67	27115.11
833.85	27401.82
834.03	27100.77
834.20	27272.80
834.38	27305.57
834.56	27311.71
834.74	27115.11
834.91	26932.84
835.09	27186.79
835.27	26793.58
835.44	26785.38
835.62	26504.81
835.80	26795.62
835.98	26975.84
836.15	26582.63
836.33	26445.42
836.51	26721.90
836.68	26537.58
836.86	26390.13
837.04	26873.45
837.21	26312.30
837.39	26717.80
837.57	26756.71
837.75	26467.95
837.92	26187.38
838.10	26414.70
838.28	25943.67
838.45	26119.79
838.63	26166.90
838.81	26168.94
838.98	25910.90
839.16	26033.78
839.34	26027.63
839.51	25982.58
839.69	25726.58
839.87	25699.96
840.04	25896.56
840.22	26066.55
840.40	25888.37
840.57	25314.94
840.75	25831.03
840.93	25613.95
841.10	25659.00
841.28	25685.62
841.46	25677.43
841.63	25585.27
841.81	25685.62
841.98	25515.64
842.16	25642.62
842.34	25630.33
842.51	25427.58
842.69	25501.31
842.87	25163.39
843.04	25302.65
843.22	25486.97
843.40	25099.90
843.57	25097.86
843.75	25292.41
843.92	25128.58
844.10	24893.06
844.28	24868.48
844.45	25032.32
844.63	25366.14
844.81	25032.32
844.98	25259.65
845.16	25050.75
845.33	24962.69
845.51	24964.74
845.69	24778.37
845.86	24950.40
846.04	24471.18
846.21	24782.47
846.39	24516.23
846.57	24520.33
846.74	24594.06
846.92	24520.33
847.09	24555.15
847.27	24262.29
847.45	24204.94
847.62	24434.32
847.80	24256.14
847.97	24536.71
848.15	24178.32
848.32	24379.02
848.50	24565.39
848.68	23809.68
848.85	24204.94
849.03	23797.40
849.20	23975.57
849.38	24084.11
849.56	24065.68
849.73	23914.13
849.91	23996.05
850.08	24237.71
850.26	23500.44
850.43	23783.06
850.61	24186.51
850.78	23645.85
850.96	23946.90
851.14	23449.24
851.31	23907.99
851.49	23488.15
851.66	24243.85
851.84	23525.02
852.01	23496.35
852.19	23602.84
852.36	23404.19
852.54	23482.01
852.71	23506.59
852.89	23582.36
853.07	23496.35
853.24	23590.55
853.42	23811.73
853.59	23414.43
853.77	23396.00
853.94	23295.64
854.12	23385.76
854.29	23137.95
854.47	23076.51
854.64	23219.87
854.82	23285.40
854.99	23121.57
855.17	22908.58
855.34	22873.76
855.52	22757.03
855.69	23258.78
855.87	22865.57
856.04	22963.87
856.22	22881.95
856.39	22740.64
856.57	22775.46
856.74	22658.73
856.92	22711.97
857.09	22544.04
857.27	22580.90
857.44	22425.26
857.62	22541.99
857.79	22752.93
857.97	22679.21
858.14	22580.90
858.32	22650.53
858.49	22754.98
858.67	22423.21
858.84	22398.63
859.02	22552.23
859.19	22265.52
859.37	22163.12
859.54	22066.86
859.72	22353.58
859.89	22255.28
860.06	22103.73
860.24	22128.30
860.41	22267.56
860.59	22023.86
860.76	22124.21
860.94	21823.16
861.11	21862.07
861.29	21708.47
861.46	21927.60
861.64	21624.50
861.81	21313.21
861.98	21657.27
862.16	21403.32
862.33	21563.06
862.51	21606.07
862.68	21536.44
862.86	21481.14
863.03	21524.15
863.21	21778.10
863.38	21540.54
863.55	21472.95
863.73	21618.36
863.90	21243.58
864.08	21393.08
864.25	20946.62
864.43	21169.85
864.60	21442.23
864.77	21102.27
864.95	21184.19
865.12	20909.76
865.30	21421.75
865.47	21073.60
865.64	21077.69
865.82	21139.13
865.99	20971.20
866.17	20963.01
866.34	21024.45
866.51	20907.71
866.69	21112.51
866.86	20795.07
867.04	20801.22
867.21	20633.29
867.38	20823.75
867.56	20625.09
867.73	20502.22
867.91	20633.29
868.08	20551.37
868.25	20426.44
868.43	20367.05
868.60	20625.09
868.78	20160.20
868.95	20356.81
869.12	20192.97
869.30	20379.34
869.47	20522.69
869.64	19945.17
869.82	19992.27
869.99	20195.02
870.16	20135.63
870.34	20041.42
870.51	20246.22
870.69	19893.97
870.86	20168.40
871.03	20293.32
871.21	19848.91
871.38	20119.24
871.55	19728.08
871.73	19629.78
871.90	19887.82
872.07	19588.82
872.25	19662.55
872.42	19599.06
872.59	19719.89
872.77	19812.05
872.94	19582.68
873.11	19289.82
873.29	19523.29
873.46	19453.66
873.63	19562.20
873.81	19424.98
873.98	19123.93
874.15	19216.09
874.33	19224.28
874.50	19255.00
874.67	19080.92
874.85	18949.85
875.02	18947.81
875.19	18902.75
875.37	18886.37
875.54	18611.94
875.71	18720.48
875.88	18886.37
876.06	18802.40
876.23	18730.72
876.40	18794.21
876.58	18654.95
876.75	18489.06
876.92	18366.18
877.10	18796.26
877.27	18593.51
877.44	18546.40
877.61	18314.98
877.79	18341.61
877.96	18132.72
878.13	18284.26
878.31	17956.59
878.48	18308.84
878.65	18196.20
878.82	17964.78
879.00	18061.04
879.17	18028.27
879.34	18026.22
879.51	17999.60
879.69	17841.90
879.86	18024.17
880.03	17876.72
880.21	17764.08
880.38	17776.37
880.55	17841.90
880.72	17659.63
880.90	17477.37
881.07	17786.61
881.24	17778.42
881.41	17608.44
881.59	17434.36
881.76	17659.63
881.93	17551.09
882.10	17471.22
882.28	17639.15
882.45	17460.98
882.62	17485.56
882.79	17598.20
882.96	17227.51
883.14	17452.79
883.31	17481.46
883.48	17192.70
883.65	17413.88
883.83	16983.80
884.00	17110.78
884.17	17047.29
884.34	17245.94
884.51	17116.92
884.69	17090.30
884.86	17118.97
885.03	16809.73
885.20	16772.86
885.38	17241.85
885.55	17174.27
885.72	16922.37
885.89	17039.10
886.06	17020.67
886.24	16834.30
886.41	16961.28
886.58	16850.69
886.75	17112.83
886.92	16754.43
887.10	16707.33
887.27	16834.30
887.44	16776.96
887.61	16914.17
887.78	16725.76
887.95	17022.72
888.13	16570.12
888.30	16606.98
888.47	16600.83
888.64	16432.90
888.81	16570.12
888.99	16549.64
889.16	16359.17
889.33	16297.74
889.50	16307.98
889.67	16443.14
889.84	16150.28
890.01	16283.40
890.19	16039.69
890.36	16307.98
890.53	16191.24
890.70	15980.30
890.87	16142.09
891.04	16056.08
891.22	16162.57
891.39	15970.06
891.56	16000.78
891.73	15834.89
891.90	15716.11
892.07	15568.66
892.24	15953.68
892.42	15785.74
892.59	15922.96
892.76	15705.87
892.93	15718.16
893.10	15662.86
893.27	15445.78
893.44	15519.51
893.61	15496.98
893.79	15679.25
893.96	15699.73
894.13	15595.28
894.30	15554.32
894.47	15548.18
894.64	15851.28
894.81	15660.82
894.98	15765.26
895.15	15482.64
895.33	15486.74
895.50	15562.51
895.67	15507.22
895.84	15386.39
896.01	15546.13
896.18	15582.99
896.35	15734.54
896.52	15322.90
896.69	15357.72
896.86	15628.05
897.04	15466.26
897.21	15578.90
897.38	15435.54
897.55	15195.93
897.72	15542.03
897.89	15345.43
898.06	15324.95
898.23	15273.75
898.40	15503.12
898.57	15400.72
898.74	15378.20
898.91	15314.71
899.08	15259.42
899.26	15261.46
899.43	15470.36
899.60	15171.35
899.77	15247.13
899.94	15152.92
900.11	15128.35
900.28	15197.98
900.45	15167.26
900.62	15214.36
900.79	15390.49
900.96	15245.08
901.13	15281.94
901.30	15294.23
901.47	15083.29
901.64	15099.67
901.81	15212.31
901.98	15017.75
902.15	15126.30
902.32	14958.36
902.49	15042.33
902.66	15253.27
902.83	15226.65
903.01	15349.53
903.18	15415.06
903.35	15150.87
903.52	15202.07
903.69	15130.39
903.86	15308.57
904.03	15269.66
904.20	15320.85
904.37	15320.85
904.54	15085.34
904.71	15161.11
904.88	15148.82
905.05	15091.48
905.22	15025.95
905.39	14772.00
905.56	15159.06
905.73	15173.40
905.90	15183.64
906.07	15013.66
906.24	15212.31
906.41	15068.95
906.58	15302.42
906.75	14884.64
906.92	15005.47
907.09	15044.38
907.26	15011.61
907.43	14890.78
907.60	14890.78
907.77	15044.38
907.93	14980.89
908.10	14911.26
908.27	15107.87
908.44	14878.49
908.61	14765.85
908.78	14858.01
908.95	15136.54
909.12	14700.32
909.29	15001.37
909.46	14731.04
909.63	15042.33
909.80	14958.36
909.97	15046.43
910.14	14993.18
910.31	15181.59
910.48	14604.07
910.65	14976.80
910.82	14767.90
910.99	14923.55
911.16	14700.32
911.33	14810.91
911.50	14794.53
911.66	14802.72
911.83	14837.53
912.00	14665.50
912.17	14415.65
912.34	14479.14
912.51	14489.38
912.68	14503.71
912.85	14464.80
913.02	14602.02
913.19	14540.58
913.36	14354.21
913.53	14499.62
913.70	14333.73
913.86	14683.94
914.03	14331.69
914.20	14337.83
914.37	14300.97
914.54	14180.14
914.71	14282.53
914.88	14341.93
915.05	14225.19
915.22	14065.45
915.39	14243.62
915.55	14085.93
915.72	13995.82
915.89	14001.96
916.06	13905.71
916.23	13981.48
916.40	13872.94
916.57	13831.98
916.74	13803.31
916.91	13983.53
917.07	13580.08
917.24	13688.62
917.41	13760.30
917.58	13438.77
917.75	13567.79
917.92	13369.14
918.09	13500.21
918.26	13549.36
918.42	13377.33
918.59	13479.73
918.76	13440.82
918.93	13360.95
919.10	13309.75
919.27	13311.80
919.44	13309.75
919.60	13229.88
919.77	13346.61
919.94	13193.01
920.11	13137.72
920.28	12988.22
920.45	12982.07
920.61	12947.26
920.78	13041.46
920.95	12996.41
921.12	12758.85
921.29	12840.76
921.46	12726.08
921.62	12619.58
921.79	12658.49
921.96	12601.15
922.13	12517.18
922.30	12498.75
922.47	12388.16
922.63	12486.47
922.80	12371.78
922.97	12334.92
923.14	12287.81
923.31	12347.20
923.47	12203.85
923.64	12349.25
923.81	12027.72
923.98	12003.14
924.15	12140.36
924.32	11960.14
924.48	12054.34
924.65	11951.95
924.82	11839.31
924.99	11702.09
925.15	11659.09
925.32	11743.05
925.49	11675.47
925.66	11749.20
925.83	11708.24
925.99	11603.79
926.16	11622.22
926.33	11601.74
926.50	11276.12
926.67	11525.97
926.83	11439.95
927.00	11317.08
927.17	11312.98
927.34	11061.08
927.50	11198.29
927.67	11372.37
927.84	11214.68
928.01	11073.37
928.17	10977.11
928.34	11036.50
928.51	10968.92
928.68	10858.33
928.84	10870.62
929.01	10827.61
929.18	10561.37
929.35	10798.94
929.51	10577.76
929.68	10508.13
929.85	10452.83
930.02	10559.33
930.18	10555.23
930.35	10532.70
930.52	10426.21
930.69	10317.67
930.85	10231.65
931.02	10260.32
931.19	10319.71
931.36	10149.73
931.52	10200.93
931.69	10159.97
931.86	9951.08
932.02	9992.04
932.19	9875.31
932.36	10014.57
932.53	9992.04
932.69	9725.80
932.86	9846.63
933.03	9785.19
933.19	9533.29
933.36	9508.72
933.53	9564.01
933.70	9795.43
933.86	9525.10
934.03	9453.42
934.20	9320.31
934.36	9498.48
934.53	9117.56
934.70	9105.27
934.86	9201.52
935.03	9021.30
935.20	9045.88
935.36	8906.62
935.53	8892.28
935.70	8734.59
935.86	8730.49
936.03	8613.76
936.20	8548.22
936.36	8449.92
936.53	8413.06
936.70	8372.10
936.86	8472.45
937.03	8365.95
937.20	8089.48
937.36	8245.12
937.53	7976.84
937.70	7870.34
937.86	7763.85
938.03	7757.71
938.20	7847.82
938.36	7763.85
938.53	7565.20
938.70	7444.37
938.86	7419.79
939.03	7286.67
939.20	7280.53
939.36	7282.58
939.53	7118.74
939.70	7276.43
939.86	7018.39
940.03	6850.46
940.19	6737.82
940.36	6840.22
940.53	6696.86
940.69	6526.88
940.86	6621.08
941.03	6539.16
941.19	6297.50
941.36	6303.65
941.52	6234.02
941.69	6231.97
941.86	6207.39
942.02	6191.01
942.19	6078.37
942.35	6107.04
942.52	5906.34
942.69	5812.14
942.85	5832.62
943.02	5685.16
943.18	5865.38
943.35	5828.52
943.52	5808.04
943.68	5771.18
943.85	5676.97
944.01	5521.32
944.18	5621.67
944.35	5648.30
944.51	5517.23
944.68	5394.35
944.84	5433.26
945.01	5353.39
945.17	5345.20
945.34	5339.05
945.51	5398.45
945.67	5261.23
945.84	5279.66
946.00	5326.77
946.17	5330.86
946.33	5183.41
946.50	5441.45
946.67	5296.05
946.83	5334.96
947.00	5302.19
947.16	5361.58
947.33	5207.98
947.49	5105.59
947.66	5130.16
947.82	5246.90
947.99	5279.66
948.16	5318.57
948.32	5136.31
948.49	5263.28
948.65	5189.55
948.82	5162.93
948.98	5250.99
949.15	5164.98
949.31	5072.82
949.48	5142.45
949.64	5113.78
949.81	5162.93
949.97	5132.21
950.14	5246.90
950.30	5152.69
950.47	5326.77
950.63	5261.23
950.80	5296.05
950.96	5277.62
951.13	5310.38
951.30	5310.38
951.46	5214.13
951.63	5351.34
951.79	5304.24
951.96	5273.52
952.12	5291.95
952.29	5347.25
952.45	5214.13
952.62	5230.51
952.78	5343.15
952.94	5334.96
953.11	5435.31
953.27	5175.22
953.44	5490.60
953.60	5377.97
953.77	5361.58
953.93	5300.14
954.10	5355.44
954.26	5312.43
954.43	5320.62
954.59	5367.73
954.76	5429.17
954.92	5377.97
955.09	5277.62
955.25	5277.62
955.42	5380.01
955.58	5392.30
955.75	5275.57
955.91	5371.82
956.07	5347.25
956.24	5480.36
956.40	5461.93
956.57	5509.04
956.73	5179.31
956.90	5474.22
957.06	5363.63
957.23	5412.78
957.39	5154.74
957.56	5468.08
957.72	5222.32
957.88	5384.11
958.05	5394.35
958.21	5453.74
958.38	5453.74
958.54	5437.36
958.71	5541.80
958.87	5328.81
959.03	5316.53
959.20	5420.97
959.36	5230.51
959.53	5341.10
959.69	5326.77
959.85	5402.54
960.02	5404.59
960.18	5380.01
960.35	5439.40
960.51	5486.51
960.68	5287.86
960.84	5363.63
961.00	5294.00
961.17	5447.60
961.33	5416.88
961.50	5392.30
961.66	5482.41
961.82	5361.58
961.99	5459.88
962.15	5412.78
962.31	5449.64
962.48	5390.25
962.64	5480.36
962.81	5425.07
962.97	5431.21
963.13	5488.56
963.30	5433.26
963.46	5250.99
963.62	5314.48
963.79	5275.57
963.95	5345.20
964.12	5433.26
964.28	5361.58
964.44	5289.90
964.61	5345.20
964.77	5392.30
964.93	5316.53
965.10	5334.96
965.26	5199.79
965.42	5253.04
965.59	5150.64
965.75	5273.52
965.92	5236.66
966.08	5210.03
966.24	5316.53
966.41	5128.11
966.57	5326.77
966.73	5244.85
966.90	5277.62
967.06	5308.34
967.22	5189.55
967.39	5183.41
967.55	5291.95
967.71	5238.70
967.88	5220.27
968.04	5175.22
968.20	5087.15
968.37	5160.88
968.53	5181.36
968.69	5173.17
968.85	5250.99
969.02	5244.85
969.18	5144.50
969.34	5091.25
969.51	5185.46
969.67	5044.15
969.83	4941.75
970.00	5146.55
970.16	5085.11
970.32	5140.40
970.48	5244.85
970.65	4833.21
970.81	4992.95
970.97	4900.79
971.14	4917.17
971.30	5078.96
971.46	4960.18
971.63	4962.23
971.79	4972.47
971.95	4962.23
972.11	4843.45
972.28	4923.32
972.44	4956.08
972.60	4818.87
972.76	5101.49
972.93	4833.21
973.09	4970.42
973.25	5005.24
973.42	4820.92
973.58	4876.21
973.74	4786.10
973.90	4990.90
974.07	4896.69
974.23	4872.12
974.39	4954.04
974.55	4771.77
974.72	4753.34
974.88	4829.11
975.04	4739.00
975.20	4782.01
975.37	4837.30
975.53	4710.33
975.69	4796.34
975.85	4794.29
976.01	4534.20
976.18	4605.88
976.34	4560.83
976.50	4847.54
976.66	4796.34
976.83	4691.90
976.99	4612.03
977.15	4681.66
977.31	4401.08
977.47	4716.47
977.64	4542.39
977.80	4495.29
977.96	4556.73
978.12	4542.39
978.29	4452.28
978.45	4472.76
978.61	4476.86
978.77	4540.35
978.93	4450.24
979.10	4470.72
979.26	4450.24
979.42	4585.40
979.58	4255.68
979.74	4444.09
979.91	4499.39
980.07	4519.87
980.23	4413.37
980.39	4298.69
980.55	4333.50
980.71	4382.65
980.88	4474.81
981.04	4253.63
981.20	4456.38
981.36	4321.21
981.52	4233.15
981.68	4300.73
981.85	4411.32
982.01	4194.24
982.17	4347.84
982.33	4249.54
982.49	4374.46
982.65	4212.67
982.82	4450.24
982.98	4177.86
983.14	4214.72
983.30	4208.58
983.46	4278.21
983.62	4274.11
983.79	4132.80
983.95	4171.71
984.11	4163.52
984.27	4179.90
984.43	4140.99
984.59	4104.13
984.75	4210.62
984.91	4153.28
985.08	4136.90
985.24	4157.38
985.40	4157.38
985.56	4081.60
985.72	4157.38
985.88	4136.90
986.04	4050.88
986.20	3928.00
986.37	4077.51
986.53	4020.16
986.69	4106.18
986.85	3923.91
987.01	4153.28
987.17	3993.54
987.33	3977.16
987.49	4007.87
987.65	4104.13
987.82	4026.31
987.98	3835.85
988.14	4042.69
988.30	4018.11
988.46	3934.15
988.62	3946.44
988.78	3936.20
988.94	3909.57
989.10	3915.72
989.26	3841.99
989.42	3891.14
989.59	3688.39
989.75	3796.93
989.91	3944.39
990.07	3680.20
990.23	3807.17
990.39	3782.60
990.55	3901.38
990.71	3786.69
990.87	3727.30
991.03	3747.78
991.19	3764.17
991.35	3676.10
991.51	3760.07
991.67	3850.18
991.83	3751.88
992.00	3696.58
992.16	3657.67
992.32	3733.45
992.48	3682.25
992.64	3686.34
992.80	3674.06
992.96	3569.61
993.12	3667.91
993.28	3694.54
993.44	3567.56
993.60	3676.10
993.76	3739.59
993.92	3618.76
994.08	3602.38
994.24	3459.02
994.40	3629.00
994.56	3731.40
994.72	3510.22
994.88	3463.12
995.04	3434.44
995.20	3448.78
995.36	3446.73
995.52	3540.94
995.68	3540.94
995.84	3493.83
996.00	3682.25
996.16	3362.76
996.32	3461.07
996.48	3446.73
996.64	3516.36
996.80	3362.76
996.96	3463.12
997.12	3403.72
997.28	3479.50
997.44	3213.26
997.60	3276.75
997.76	3440.59
997.92	3387.34
998.08	3358.67
998.24	3237.84
998.40	3416.01
998.56	3327.95
998.72	3262.41
998.88	3356.62
999.04	3211.22
999.20	3446.73
999.36	3303.37
999.52	3327.95
999.68	3166.16
999.84	3280.85
1000.00	3235.79
1000.16	3334.09
1000.32	3192.78
1000.48	3418.06
1000.64	3205.07
1000.80	3258.32
1000.95	3145.68
1001.11	3188.69
1001.27	3219.41
1001.43	3239.89
1001.59	3090.38
1001.75	3088.34
1001.91	3237.84
1002.07	3182.54
1002.23	2998.23
1002.39	3059.67
1002.55	3104.72
1002.71	3180.50
1002.87	3141.58
1003.03	3114.96
1003.19	3030.99
1003.34	3157.97
1003.50	3170.26
1003.66	3153.87
1003.82	3090.38
1003.98	3067.86
1004.14	3078.10
1004.30	3065.81
1004.46	3033.04
1004.62	2987.99
1004.78	2973.65
1004.94	2934.74
1005.09	3096.53
1005.25	2983.89
1005.41	2953.17
1005.57	2990.03
1005.73	3028.95
1005.89	3069.91
1006.05	3010.51
1006.21	2899.92
1006.37	2883.54
1006.52	2873.30
1006.68	2932.69
1006.84	2965.46
1007.00	2838.48
1007.16	2973.65
1007.32	2889.68
1007.48	2930.64
1007.64	2998.23
1007.79	2856.92
1007.95	2785.24
1008.11	3014.61
1008.27	2818.00
1008.43	2879.44
1008.59	2822.10
1008.75	2885.59
1008.91	2871.25
1009.06	2883.54
1009.22	2863.06
1009.38	2826.20
1009.54	2772.95
1009.70	2668.50
1009.86	2822.10
1010.01	2875.35
1010.17	2699.22
1010.33	2848.72
1010.49	2715.61
1010.65	2822.10
1010.81	2623.45
1010.96	2731.99
1011.12	2680.79
1011.28	2666.46
1011.44	2682.84
1011.60	2762.71
1011.76	2719.70
1011.91	2713.56
1012.07	2664.41
1012.23	2660.31
1012.39	2625.50
1012.55	2682.84
1012.71	2576.34
1012.86	2631.64
1013.02	2680.79
1013.18	2670.55
1013.34	2580.44
1013.50	2707.41
1013.65	2592.73
1013.81	2629.59
1013.97	2580.44
1014.13	2715.61
1014.29	2682.84
1014.44	2639.83
1014.60	2615.26
1014.76	2596.82
1014.92	2506.71
1015.07	2574.30
1015.23	2596.82
1015.39	2586.58
1015.55	2543.58
1015.71	2500.57
1015.86	2531.29
1016.02	2531.29
1016.18	2453.47
1016.34	2551.77
1016.49	2414.56
1016.65	2537.43
1016.81	2463.71
1016.97	2443.23
1017.12	2529.24
1017.28	2453.47
1017.44	2361.31
1017.60	2467.80
1017.75	2428.89
1017.91	2490.33
1018.07	2387.93
1018.23	2457.56
1018.38	2527.19
1018.54	2398.17
1018.70	2437.08
1018.86	2455.51
1019.01	2465.75
1019.17	2408.41
1019.33	2525.15
1019.49	2453.47
1019.64	2459.61
1019.80	2359.26
1019.96	2496.47
1020.12	2494.43
1020.27	2346.97
1020.43	2420.70
1020.59	2432.99
1020.74	2463.71
1020.90	2377.69
1021.06	2349.02
1021.22	2334.68
1021.37	2322.40
1021.53	2285.53
1021.69	2349.02
1021.84	2222.05
1022.00	2377.69
1022.16	2332.64
1022.31	2322.40
1022.47	2330.59
1022.63	2422.75
1022.79	2299.87
1022.94	2258.91
1023.10	2404.32
1023.26	2238.43
1023.41	2185.18
1023.57	2256.86
1023.73	2334.68
1023.88	2254.81
1024.04	2209.76
1024.20	2318.30
1024.35	2367.45
1024.51	2226.14
1024.67	2236.38
1024.82	2351.07
1024.98	2215.90
1025.14	2303.96
1025.29	2213.85
1025.45	2289.63
1025.61	2170.85
1025.76	2207.71
1025.92	2193.37
1026.08	2275.29
1026.23	2238.43
1026.39	2260.96
1026.55	2115.55
1026.70	2205.66
1026.86	2127.84
1027.02	2279.39
1027.17	2183.13
1027.33	2277.34
1027.48	2136.03
1027.64	2095.07
1027.80	2199.52
1027.95	2230.24
1028.11	2054.11
1028.27	2133.98
1028.42	2156.51
1028.58	2058.21
1028.73	2109.41
1028.89	2056.16
1029.05	2277.34
1029.20	2111.46
>>>>>End Processed Spectral Data<<<<<
