SpectraSuite Data File
++++++++++++++++++++++++++++++++++++
Date: Fri Jun 02 14:53:29 CEST 2017
User: INFO_000
Dark Spectrum Present: No
Reference Spectrum Present: No
Number of Sampled Component Spectra: 1
Spectrometers: USB4H00879
Integration Time (usec): 80000 (USB4H00879)
Spectra Averaged: 1 (USB4H00879)
Boxcar Smoothing: 0 (USB4H00879)
Correct for Electrical Dark: No (USB4H00879)
Strobe/Lamp Enabled: No (USB4H00879)
Correct for Detector Non-linearity: No (USB4H00879)
Correct for Stray Light: No (USB4H00879)
Number of Pixels in Processed Spectrum: 3648
>>>>>Begin Processed Spectral Data<<<<<
345.13	1271.79
345.34	1271.79
345.56	1271.79
345.78	1288.17
345.99	1296.36
346.21	1724.39
346.42	1730.53
346.64	1691.62
346.86	1802.21
347.07	1726.44
347.29	1732.58
347.50	1685.48
347.72	1665.00
347.94	1712.10
348.15	1531.88
348.37	1591.27
348.59	1689.57
348.80	1626.09
349.02	1857.51
349.23	1923.04
349.45	1843.17
349.67	1873.89
349.88	1748.97
350.10	1978.34
350.31	1880.04
350.53	1865.70
350.75	1941.47
350.96	1839.08
351.18	1861.60
351.39	1837.03
351.61	1867.75
351.82	1888.23
352.04	1859.56
352.26	1810.40
352.47	1908.71
352.69	1871.84
352.90	1802.21
353.12	1785.83
353.34	1865.70
353.55	1910.75
353.77	1931.23
353.98	1830.88
354.20	1880.04
354.41	1929.19
354.63	1931.23
354.85	1970.15
355.06	1894.37
355.28	1834.98
355.49	1869.80
355.71	1912.80
355.92	1830.88
356.14	1972.19
356.35	1853.41
356.57	1871.84
356.79	1916.90
357.00	1880.04
357.22	1986.53
357.43	1933.28
357.65	1951.71
357.86	1847.27
358.08	1839.08
358.29	1937.38
358.51	2021.35
358.72	1906.66
358.94	2002.91
359.16	1929.19
359.37	1935.33
359.59	1974.24
359.80	1990.63
360.02	1904.61
360.23	1955.81
360.45	2011.11
360.66	1949.67
360.88	1918.95
361.09	1935.33
361.31	2000.87
361.52	1992.67
361.74	2007.01
361.95	2176.99
362.17	1986.53
362.38	2017.25
362.60	2052.06
362.81	1931.23
363.03	2017.25
363.24	2007.01
363.46	2064.35
363.67	2011.11
363.89	2017.25
364.10	1976.29
364.32	2015.20
364.53	2052.06
364.75	1890.28
364.96	1982.43
365.18	2033.63
365.39	2039.78
365.61	1980.39
365.82	2240.48
366.04	2074.59
366.25	1978.34
366.47	2045.92
366.68	2033.63
366.90	1961.95
367.11	2064.35
367.33	2078.69
367.54	2035.68
367.76	1984.48
367.97	2115.55
368.19	2039.78
368.40	2076.64
368.62	1974.24
368.83	2037.73
369.05	2080.74
369.26	2000.87
369.48	2039.78
369.69	2017.25
369.91	2066.40
370.12	2031.58
370.33	2015.20
370.55	1925.09
370.76	2068.45
370.98	2115.55
371.19	2172.89
371.41	1961.95
371.62	2035.68
371.84	1974.24
372.05	2195.42
372.27	2103.26
372.48	1976.29
372.69	2097.12
372.91	2121.70
373.12	2224.09
373.34	2166.75
373.55	2117.60
373.77	2258.91
373.98	2070.50
374.20	2174.94
374.41	2265.05
374.62	2117.60
374.84	2193.37
375.05	2133.98
375.27	2179.04
375.48	2187.23
375.70	2230.24
375.91	2144.22
376.12	2240.48
376.34	2162.66
376.55	2215.90
376.77	2232.29
376.98	2131.94
377.19	2183.13
377.41	2156.51
377.62	2215.90
377.84	2201.57
378.05	2379.74
378.27	2191.33
378.48	2306.01
378.69	2400.22
378.91	2312.16
379.12	2326.49
379.34	2271.20
379.55	2306.01
379.76	2342.88
379.98	2172.89
380.19	2314.20
380.41	2297.82
380.62	2273.25
380.83	2220.00
381.05	2156.51
381.26	2389.98
381.47	2295.77
381.69	2387.93
381.90	2443.23
382.12	2359.26
382.33	2338.78
382.54	2336.73
382.76	2334.68
382.97	2260.96
383.19	2367.45
383.40	2379.74
383.61	2320.35
383.83	2291.68
384.04	2365.40
384.25	2451.42
384.47	2377.69
384.68	2373.60
384.89	2349.02
385.11	2392.03
385.32	2340.83
385.54	2385.88
385.75	2361.31
385.96	2416.60
386.18	2475.99
386.39	2445.27
386.60	2275.29
386.82	2324.44
387.03	2365.40
387.24	2447.32
387.46	2516.95
387.67	2457.56
387.88	2543.58
388.10	2447.32
388.31	2533.34
388.52	2457.56
388.74	2572.25
388.95	2428.89
389.16	2521.05
389.38	2510.81
389.59	2654.17
389.80	2539.48
390.02	2607.06
390.23	2688.98
390.44	2535.39
390.66	2545.63
390.87	2498.52
391.08	2547.67
391.30	2680.79
391.51	2625.50
391.72	2731.99
391.94	2686.94
392.15	2635.74
392.36	2553.82
392.58	2559.96
392.79	2609.11
393.00	2787.29
393.22	2830.29
393.43	2836.44
393.64	2801.62
393.85	2783.19
394.07	2717.65
394.28	2705.37
394.49	2746.33
394.71	2779.09
394.92	2818.00
395.13	2719.70
395.35	2783.19
395.56	2836.44
395.77	2877.40
395.98	2715.61
396.20	2803.67
396.41	2772.95
396.62	2818.00
396.84	2842.58
397.05	2813.91
397.26	2895.83
397.47	2922.45
397.69	2846.68
397.90	2996.18
398.11	2936.79
398.32	2885.59
398.54	2854.87
398.75	2893.78
398.96	2912.21
399.18	3135.44
399.39	2983.89
399.60	3139.54
399.81	3033.04
400.03	2983.89
400.24	3176.40
400.45	3012.56
400.66	3153.87
400.88	2934.74
401.09	3200.98
401.30	3112.91
401.51	3178.45
401.73	3028.95
401.94	3198.93
402.15	3139.54
402.36	3141.58
402.58	3098.58
402.79	3311.57
403.00	3162.06
403.21	3119.06
403.43	3237.84
403.64	3286.99
403.85	3172.30
404.06	3330.00
404.27	3104.72
404.49	3211.22
404.70	3237.84
404.91	3272.65
405.12	3286.99
405.34	3305.42
405.55	3403.72
405.76	3084.24
405.97	3143.63
406.19	3426.25
406.40	3186.64
406.61	3256.27
406.82	3377.10
407.03	3375.05
407.25	3258.32
407.46	3352.52
407.67	3393.48
407.88	3479.50
408.09	3434.44
408.31	3387.34
408.52	3405.77
408.73	3397.58
408.94	3313.61
409.15	3338.19
409.37	3444.68
409.58	3563.47
409.79	3506.12
410.00	3581.90
410.21	3409.87
410.43	3471.31
410.64	3499.98
410.85	3614.66
411.06	3585.99
411.27	3678.15
411.48	3540.94
411.70	3594.19
411.91	3700.68
412.12	3725.26
412.33	3567.56
412.54	3665.86
412.76	3719.11
412.97	3741.64
413.18	3592.14
413.39	3665.86
413.60	3784.65
413.81	3592.14
414.03	3669.96
414.24	3545.03
414.45	3852.23
414.66	3700.68
414.87	3762.12
415.08	3794.89
415.30	3768.26
415.51	3786.69
415.72	3819.46
415.93	3821.51
416.14	3784.65
416.35	3893.19
416.56	3919.81
416.78	3909.57
416.99	3782.60
417.20	3794.89
417.41	3868.61
417.62	3925.96
417.83	4091.84
418.04	3897.28
418.26	3971.01
418.47	3868.61
418.68	4001.73
418.89	4059.07
419.10	4196.29
419.31	4005.83
419.52	4206.53
419.73	4124.61
419.95	4222.91
420.16	3985.35
420.37	4024.26
420.58	4071.36
420.79	4026.31
421.00	4112.32
421.21	4112.32
421.42	4145.09
421.63	4210.62
421.85	4204.48
422.06	4208.58
422.27	4353.98
422.48	4143.04
422.69	4288.45
422.90	4282.30
423.11	4317.12
423.32	4399.04
423.53	4351.93
423.75	4356.03
423.96	4558.78
424.17	4454.33
424.38	4554.68
424.59	4487.10
424.80	4595.64
425.01	4601.79
425.22	4472.76
425.43	4552.63
425.64	4630.46
425.85	4706.23
426.06	4558.78
426.28	4577.21
426.49	4575.16
426.70	4558.78
426.91	4577.21
427.12	4685.75
427.33	4669.37
427.54	4667.32
427.75	4736.95
427.96	4714.42
428.17	4857.78
428.38	4886.45
428.59	4972.47
428.80	4841.40
429.01	4935.60
429.23	5007.28
429.44	5019.57
429.65	5107.63
429.86	5033.91
430.07	5072.82
430.28	4812.73
430.49	5033.91
430.70	5097.39
430.91	5087.15
431.12	5162.93
431.33	5066.67
431.54	5121.97
431.75	5203.89
431.96	5095.35
432.17	5138.35
432.38	5136.31
432.59	5412.78
432.80	5353.39
433.01	5314.48
433.22	5318.57
433.43	5441.45
433.64	5416.88
433.85	5183.41
434.06	5330.86
434.27	5312.43
434.49	5474.22
434.70	5588.91
434.91	5527.47
435.12	5504.94
435.33	5404.59
435.54	5550.00
435.75	5334.96
435.96	5640.11
436.17	5386.16
436.38	5728.17
436.59	5760.94
436.80	5533.61
437.01	5869.48
437.22	5785.51
437.43	5709.74
437.64	5560.24
437.85	5648.30
438.06	5914.53
438.27	5636.01
438.48	5719.98
438.69	5988.26
438.90	5670.83
439.11	5824.42
439.32	5889.96
439.53	5750.70
439.74	5889.96
439.95	6049.70
440.16	5738.41
440.37	5898.15
440.57	5824.42
440.78	6076.32
440.99	5963.68
441.20	6098.85
441.41	5851.05
441.62	6092.71
441.83	5910.44
442.04	6215.59
442.25	6057.89
442.46	5965.73
442.67	6137.76
442.88	6508.44
443.09	6066.08
443.30	5980.07
443.51	6262.69
443.72	6346.66
443.93	6064.04
444.14	6492.06
444.35	6096.80
444.56	6414.24
444.77	6305.70
444.98	6307.74
445.19	6440.86
445.40	6369.18
445.61	6170.53
445.81	6440.86
446.02	6453.15
446.23	6496.16
446.44	6354.85
446.65	6623.13
446.86	6504.35
447.07	6614.94
447.28	6596.51
447.49	6754.20
447.70	6420.38
447.91	6651.80
448.12	6616.99
448.33	6868.89
448.54	6727.58
448.74	6774.68
448.95	6985.62
449.16	6827.93
449.37	6905.75
449.58	6717.34
449.79	7032.72
450.00	6829.98
450.21	7030.68
450.42	7053.20
450.63	7092.12
450.84	6952.85
451.05	7139.22
451.25	7239.57
451.46	6987.67
451.67	7298.96
451.88	7180.18
452.09	7251.86
452.30	7229.33
452.51	7239.57
452.72	7253.91
452.93	7569.29
453.13	7298.96
453.34	7206.80
453.55	7358.35
453.76	7315.34
453.97	7624.59
454.18	7475.09
454.39	7706.51
454.60	7759.75
454.81	7563.15
455.01	7835.53
455.22	7389.07
455.43	7692.17
455.64	7982.98
455.85	8015.75
456.06	7952.26
456.27	8025.99
456.48	7896.97
456.68	8056.71
456.89	7925.64
457.10	8218.50
457.31	8058.76
457.52	8054.66
457.73	8204.16
457.94	8406.91
458.14	8107.91
458.35	8599.42
458.56	8408.96
458.77	8204.16
458.98	8433.54
459.19	8298.37
459.39	8593.28
459.60	8591.23
459.81	8476.54
460.02	8621.95
460.23	8746.87
460.44	8871.80
460.65	8744.83
460.85	8869.75
461.06	8830.84
461.27	8580.99
461.48	9025.40
461.69	9074.55
461.89	8888.18
462.10	8986.49
462.31	8904.57
462.52	9117.56
462.73	9277.30
462.94	9275.25
463.14	9250.67
463.35	9133.94
463.56	9699.18
463.77	9789.29
463.98	9434.99
464.18	9609.07
464.39	9656.17
464.60	9924.46
464.81	9711.47
465.02	9785.19
465.23	10012.52
465.43	9688.94
465.64	10018.66
465.85	10049.38
466.06	9846.63
466.27	10463.07
466.47	10112.87
466.68	10168.16
466.89	10094.44
467.10	10524.51
467.30	10202.98
467.51	10317.67
467.72	10616.67
467.93	10350.43
468.14	10579.81
468.34	10637.15
468.55	10622.81
468.76	10800.99
468.97	10577.76
469.17	10882.91
469.38	11165.53
469.59	11022.17
469.80	10837.85
470.01	11038.55
470.21	10940.25
470.42	11157.33
470.63	11503.44
470.84	11165.53
471.04	11564.88
471.25	11583.31
471.46	11464.53
471.67	11738.96
471.87	11681.61
472.08	11988.81
472.29	11933.51
472.50	11732.81
472.70	11937.61
472.91	11835.21
473.12	12203.85
473.33	12029.77
473.53	12367.68
473.74	12185.41
473.95	12216.13
474.16	12570.43
474.36	12451.65
474.57	12615.49
474.78	12844.86
474.99	12701.50
475.19	12572.48
475.40	13027.13
475.61	13088.57
475.81	13162.30
476.02	13455.15
476.23	13258.55
476.44	13336.37
476.64	13551.41
476.85	13686.58
477.06	13324.08
477.27	13922.09
477.47	13829.93
477.68	13985.58
477.89	13811.50
478.09	13963.05
478.30	14321.45
478.51	13997.87
478.71	14413.60
478.92	14391.08
479.13	14470.95
479.34	14585.63
479.54	14602.02
479.75	14706.46
479.96	14749.47
480.16	14647.07
480.37	14810.91
480.58	15040.28
480.78	15378.20
480.99	15494.93
481.20	15425.30
481.41	15290.13
481.61	15271.70
481.82	15742.74
482.03	15716.11
482.23	15564.56
482.44	15972.11
482.65	15943.44
482.85	16035.60
483.06	16168.71
483.27	16144.14
483.47	16228.10
483.68	16406.28
483.89	16363.27
484.09	16402.18
484.30	16426.76
484.51	16617.22
484.71	16758.53
484.92	16850.69
485.13	17000.19
485.33	16959.23
485.54	17028.86
485.75	17325.82
485.95	17207.03
486.16	17288.95
486.37	17614.58
486.57	17549.04
486.78	17499.89
486.98	17501.94
487.19	18046.70
487.40	18022.12
487.60	17948.40
487.81	18347.75
488.02	17995.50
488.22	18042.60
488.43	18288.36
488.64	18296.55
488.84	18427.62
489.05	18530.02
489.25	18560.74
489.46	18910.94
489.67	18704.10
489.87	19148.51
490.08	18822.88
490.29	18872.03
490.49	19592.92
490.70	19211.99
490.90	19293.91
491.11	19416.79
491.32	19566.29
491.52	19601.11
491.73	19640.02
491.94	19885.78
492.14	19951.31
492.35	20045.52
492.55	19887.82
492.76	20203.21
492.97	20309.71
493.17	20231.88
493.38	20365.00
493.58	20745.92
493.79	20717.25
494.00	20977.34
494.20	20526.79
494.41	20846.27
494.61	21053.12
494.82	21053.12
495.02	20958.91
495.23	21251.77
495.44	21089.98
495.64	21259.96
495.85	21513.91
496.05	21616.31
496.26	21497.53
496.47	21915.31
496.67	21499.58
496.88	21814.96
497.08	21900.98
497.29	22064.82
497.49	21982.90
497.70	22206.13
497.91	22410.92
498.11	22423.21
498.32	22537.90
498.52	22861.48
498.73	22847.14
498.93	22816.42
499.14	22574.76
499.34	23078.56
499.55	23117.47
499.76	22787.75
499.96	23129.76
500.17	23254.69
500.37	23279.26
500.58	23400.09
500.78	23404.19
500.99	23672.47
501.19	23682.71
501.40	23529.11
501.60	23527.06
501.81	23858.84
502.02	23903.89
502.22	23676.57
502.43	24379.02
502.63	24174.22
502.84	24145.55
503.04	24336.01
503.25	24170.13
503.45	24411.79
503.66	24450.70
503.86	24344.20
504.07	24678.02
504.27	24669.83
504.48	24948.36
504.68	24843.91
504.89	25228.93
505.09	25239.17
505.30	24741.51
505.50	25163.39
505.71	25112.19
505.91	25529.98
506.12	25511.55
506.32	25538.17
506.53	25550.46
506.73	25513.59
506.94	25783.93
507.14	25675.38
507.35	26166.90
507.55	25587.32
507.76	26074.74
507.96	26029.68
508.17	25921.14
508.37	26347.12
508.58	25943.67
508.78	26252.91
508.99	26523.24
509.19	26668.65
509.40	26404.46
509.60	26302.06
509.81	26639.98
510.01	26803.82
510.22	26953.32
510.42	26830.44
510.63	26949.22
510.83	26709.61
511.04	27168.35
511.24	26830.44
511.44	27274.85
511.65	27244.13
511.85	27237.98
512.06	27356.77
512.26	27369.05
512.47	27453.02
512.67	27508.32
512.88	27668.06
513.08	27260.51
513.29	27979.35
513.49	27813.46
513.69	27760.22
513.90	27747.93
514.10	28030.55
514.31	28192.34
514.51	27911.77
514.72	27940.44
514.92	28145.23
515.13	28241.49
515.33	28255.82
515.53	28563.02
515.74	28005.97
515.94	28671.56
516.15	28425.81
516.35	28360.27
516.56	28755.53
516.76	28440.14
516.96	28624.46
517.17	29040.20
517.37	29134.40
517.58	29075.01
517.78	29048.39
517.99	29193.79
518.19	29425.22
518.39	29335.10
518.60	29353.54
518.80	29470.27
519.01	29546.05
519.21	29535.81
519.41	29783.61
519.62	29449.79
519.82	29865.53
520.03	29802.04
520.23	29857.34
520.43	29390.40
520.64	30242.35
520.84	29976.12
521.05	30060.09
521.25	30176.82
521.45	30350.90
521.66	30465.58
521.86	30338.61
522.07	30395.95
522.27	30795.31
522.47	30453.30
522.68	31030.82
522.88	30387.76
523.08	30918.18
523.29	30869.03
523.49	30721.58
523.70	30848.55
523.90	31198.76
524.10	30860.84
524.31	31374.88
524.51	31223.33
524.71	31608.35
524.92	31372.83
525.12	31893.02
525.33	31704.60
525.53	31766.04
525.73	31954.46
525.94	31637.02
526.14	31993.37
526.34	32347.67
526.55	31954.46
526.75	32222.74
526.95	32501.26
527.16	32241.17
527.36	32181.78
527.56	32867.85
527.77	32828.94
527.97	32658.96
528.17	32642.57
528.38	32923.15
528.58	33013.26
528.78	33035.78
528.99	32962.06
529.19	33248.77
529.39	32863.75
529.60	33404.42
529.80	33191.43
530.00	33220.10
530.21	33457.67
530.41	33512.96
530.61	33635.84
530.82	33879.55
531.02	33902.07
531.22	33746.43
531.43	33924.60
531.63	34176.50
531.83	34463.22
532.04	34430.45
532.24	34153.97
532.44	34663.92
532.64	34489.84
532.85	35010.03
533.05	34932.20
533.25	34645.49
533.46	34405.88
533.66	35139.05
533.86	34684.40
534.07	35159.53
534.27	35040.75
534.47	35358.18
534.67	35343.84
534.88	35276.26
535.08	35542.50
535.28	35587.55
535.49	35546.59
535.69	35806.69
535.89	36058.59
536.09	35818.97
536.30	36050.39
536.50	35954.14
536.70	36128.22
536.91	36156.89
537.11	36349.40
537.31	36263.38
537.51	36146.65
537.72	36578.77
537.92	36523.47
538.12	36720.08
538.32	36439.51
538.53	36941.26
538.73	36251.09
538.93	36427.22
539.13	36920.78
539.34	36574.67
539.54	37037.51
539.74	37166.54
539.94	37158.34
540.15	37270.98
540.35	37264.84
540.55	37350.85
540.75	37336.52
540.96	37615.04
541.16	37514.69
541.36	37793.22
541.56	37516.74
541.77	37840.32
541.97	37739.97
542.17	37901.76
542.37	37782.98
542.58	37744.06
542.78	37754.30
542.98	37901.76
543.18	38114.75
543.38	38442.42
543.59	38471.09
543.79	38139.32
543.99	38352.31
544.19	38278.58
544.40	38309.30
544.60	38720.95
544.80	38833.58
545.00	38776.24
545.20	38866.35
545.41	39069.10
545.61	38839.73
545.81	38794.67
546.01	39105.96
546.21	38956.46
546.42	38557.11
546.62	38952.37
546.82	38702.51
547.02	39308.71
547.22	38956.46
547.43	38919.60
547.63	39581.09
547.83	39552.42
548.03	39224.75
548.23	39675.30
548.44	39763.36
548.64	39370.15
548.84	39832.99
549.04	39253.42
549.24	39775.65
549.45	39779.74
549.65	39663.01
549.85	39916.96
550.05	40213.91
550.25	40215.96
550.45	40725.91
550.66	40578.45
550.86	40154.52
551.06	40125.85
551.26	40080.80
551.46	40113.56
551.66	40301.98
551.87	40256.92
552.07	40224.15
552.27	40549.78
552.47	40437.14
552.67	40514.97
552.87	40828.30
553.07	40336.79
553.28	40871.31
553.48	40652.18
553.68	40781.20
553.88	40924.56
554.08	41106.83
554.28	41219.47
554.48	40652.18
554.69	41352.58
554.89	41096.59
555.09	41147.79
555.29	41092.49
555.49	41344.39
555.69	41422.22
555.89	41399.69
556.10	41749.89
556.30	41411.98
556.50	41698.69
556.70	41565.57
556.90	41747.84
557.10	41686.40
557.30	41303.43
557.50	41915.78
557.70	41862.53
557.91	42091.90
558.11	41799.04
558.31	42040.70
558.51	42077.57
558.71	41975.17
558.91	42354.04
559.11	42089.85
559.31	42038.65
559.51	42038.65
559.72	42382.71
559.92	41932.16
560.12	42323.32
560.32	42515.83
560.52	42411.38
560.72	42308.99
560.92	42751.35
561.12	42153.34
561.32	42773.88
561.52	42519.93
561.72	42771.83
561.93	42894.71
562.13	42800.50
562.33	42579.32
562.53	43312.49
562.73	42644.85
562.93	42708.34
563.13	43220.33
563.33	42964.34
563.53	43193.71
563.73	42648.95
563.93	43001.20
564.13	43586.92
564.33	43189.61
564.53	43253.10
564.74	43576.68
564.94	43472.23
565.14	43642.21
565.34	43406.70
565.54	43400.55
565.74	43894.11
565.94	43638.12
566.14	43767.14
566.34	43713.89
566.54	44090.72
566.74	43660.65
566.94	44373.34
567.14	43984.22
567.34	44240.22
567.54	43781.48
567.74	44404.06
567.94	43898.21
568.14	44328.28
568.34	44655.96
568.54	44463.45
568.74	44320.09
568.94	44522.84
569.14	44625.24
569.34	44901.71
569.54	44584.28
569.75	44561.75
569.95	44920.15
570.15	45108.56
570.35	44610.90
570.55	44934.48
570.75	45356.36
570.95	45323.60
571.15	45106.51
571.35	45120.85
571.55	45081.94
571.75	45268.30
571.95	45610.31
572.15	45040.98
572.35	45550.92
572.55	45741.38
572.75	45653.32
572.95	45382.99
573.15	45825.35
573.35	45743.43
573.55	45798.73
573.75	45534.54
573.95	46206.27
574.15	45929.80
574.35	45970.75
574.55	46142.78
574.75	45696.33
574.95	46214.46
575.15	45874.50
575.34	45856.07
575.54	46431.55
575.74	46445.88
575.94	46499.13
576.14	46427.45
576.34	46753.08
576.54	47031.60
576.74	46959.92
576.94	47062.32
577.14	46857.52
577.34	47043.89
577.54	46943.54
577.74	47119.66
577.94	47144.24
578.14	47392.04
578.34	47322.41
578.54	47308.08
578.74	47181.10
578.94	47670.57
579.14	47076.66
579.34	47363.37
579.54	47633.71
579.74	47666.47
579.94	47807.78
580.13	47881.51
580.33	47822.12
580.53	47977.76
580.73	47822.12
580.93	47938.85
581.13	47930.66
581.33	48567.58
581.53	48469.28
581.73	48182.56
581.93	48602.39
582.13	48399.65
582.33	48639.26
582.53	48430.36
582.73	48819.48
582.92	48676.12
583.12	48991.51
583.32	48870.68
583.52	48502.04
583.72	49018.13
583.92	49040.66
584.12	49485.07
584.32	49878.28
584.52	49071.38
584.72	49157.39
584.92	49523.98
585.11	49820.94
585.31	49333.52
585.51	49849.61
585.71	49511.69
585.91	49915.14
586.11	49612.04
586.31	49829.13
586.51	50027.78
586.71	49728.78
586.91	50162.95
587.10	50158.85
587.30	50480.38
587.50	50044.16
587.70	50300.16
587.90	50490.62
588.10	50306.30
588.30	50007.30
588.50	50617.60
588.69	50427.13
588.89	50175.23
589.09	50617.60
589.29	50261.25
589.49	50836.73
589.69	50517.25
589.89	50763.00
590.08	50627.84
590.28	50838.78
590.48	50367.74
590.68	50574.59
590.88	50582.78
591.08	51168.50
591.28	50586.88
591.47	51494.13
591.67	50742.52
591.87	51119.35
592.07	51125.49
592.27	51053.81
592.47	51389.68
592.67	51418.35
592.86	51369.20
593.06	51453.17
593.26	51436.78
593.46	51846.38
593.66	51737.83
593.86	52085.99
594.05	51504.37
594.25	52049.13
594.45	51909.86
594.65	51903.72
594.85	51574.00
595.05	51729.64
595.24	52139.24
595.44	51832.04
595.64	52069.61
595.84	51772.65
596.04	51942.63
596.23	52135.14
596.43	52384.99
596.63	52083.94
596.83	52114.66
597.03	52557.02
597.22	52831.45
597.42	52612.32
597.62	52561.12
597.82	52516.06
598.02	52610.27
598.21	52874.46
598.41	52079.85
598.61	52522.21
598.81	52647.13
599.01	52839.64
599.20	52782.30
599.40	52446.43
599.60	52858.07
599.80	53208.28
600.00	53337.30
600.19	53269.72
600.39	52909.27
600.59	52948.18
600.79	53212.37
600.98	52827.35
601.18	53099.73
601.38	53292.24
601.58	53015.77
601.78	53443.79
601.97	53046.49
602.17	53986.50
602.37	53408.98
602.57	53556.43
602.76	53593.29
602.96	53347.54
603.16	54174.92
603.36	53462.22
603.55	54285.51
603.75	53683.40
603.95	53990.60
604.15	53994.70
604.34	53896.39
604.54	54381.76
604.74	53691.60
604.94	54004.94
605.13	53476.56
605.33	54426.82
605.53	54078.66
605.73	54441.15
605.92	54142.15
606.12	54279.36
606.32	53937.35
606.52	53937.35
606.71	54430.91
606.91	54248.64
607.11	54125.77
607.30	54514.88
607.50	54660.29
607.70	54346.95
607.90	54234.31
608.09	54523.07
608.29	54564.03
608.49	54635.71
608.68	54473.92
608.88	54469.82
609.08	54535.36
609.28	54232.26
609.47	54570.18
609.67	54793.40
609.87	54768.83
610.06	54768.83
610.26	54731.96
610.46	54781.12
610.66	55157.94
610.85	54346.95
611.05	54660.29
611.25	55143.61
611.44	54850.75
611.64	54588.61
611.84	54940.86
612.03	54475.97
612.23	55295.16
612.43	54758.59
612.62	54351.04
612.82	54772.92
613.02	54924.47
613.21	54768.83
613.41	54684.86
613.61	54940.86
613.80	55102.65
614.00	55086.26
614.20	54899.90
614.39	54484.16
614.59	55092.41
614.79	54500.54
614.98	54742.20
615.18	54901.95
615.38	55059.64
615.57	53929.16
615.77	55096.50
615.97	54795.45
616.16	54559.94
616.36	54539.46
616.56	54834.36
616.75	54873.27
616.95	54422.72
617.15	54572.22
617.34	54940.86
617.54	54334.66
617.74	54975.67
617.93	54371.52
618.13	54115.53
618.32	54498.50
618.52	54604.99
618.72	54166.73
618.91	54342.85
619.11	54346.95
619.31	54846.65
619.50	54453.44
619.70	54361.28
619.90	54363.33
620.09	54549.70
620.29	54279.36
620.48	54058.18
620.68	54813.88
620.88	54305.99
621.07	54709.44
621.27	54244.55
621.46	53847.24
621.66	54424.77
621.86	53914.83
622.05	54170.82
622.25	54701.25
622.44	54127.81
622.64	54183.11
622.84	54478.02
623.03	54394.05
623.23	54334.66
623.42	54422.72
623.62	54039.75
623.82	54588.61
624.01	54379.71
624.21	54002.89
624.40	54246.60
624.60	54246.60
624.80	53730.51
624.99	53726.41
625.19	53509.33
625.38	54377.67
625.58	54011.08
625.77	54432.96
625.97	54543.55
626.17	53990.60
626.36	53634.25
626.56	54250.69
626.75	53501.14
626.95	54260.93
627.14	53996.74
627.34	54195.40
627.54	53867.72
627.73	53968.07
627.93	53867.72
628.12	53853.39
628.32	53923.02
628.51	53902.54
628.71	53935.30
628.90	53986.50
629.10	54082.76
629.30	53697.74
629.49	54011.08
629.69	54271.17
629.88	53720.27
630.08	54123.72
630.27	54480.06
630.47	54131.91
630.66	53701.84
630.86	54189.25
631.05	53851.34
631.25	54121.67
631.44	54039.75
631.64	53634.25
631.84	54430.91
632.03	54326.47
632.23	53748.94
632.42	53949.64
632.62	54287.56
632.81	53564.62
633.01	54146.25
633.20	54035.66
633.40	54004.94
633.59	53925.07
633.79	53912.78
633.98	54207.68
634.18	54158.53
634.37	54070.47
634.57	54441.15
634.76	54602.94
634.96	53824.71
635.15	54508.74
635.35	54189.25
635.54	53927.11
635.74	54236.36
635.93	54017.22
636.13	54588.61
636.32	54516.93
636.52	53884.11
636.71	53974.22
636.91	54115.53
637.10	54262.98
637.30	54340.80
637.49	54103.24
637.69	54127.81
637.88	54822.08
638.08	53796.04
638.27	54518.98
638.46	54060.23
638.66	54183.11
638.85	54236.36
639.05	54195.40
639.24	54338.75
639.44	54314.18
639.63	54392.00
639.83	54179.01
640.02	54367.43
640.22	54258.88
640.41	54801.60
640.61	53996.74
640.80	54822.08
640.99	54394.05
641.19	54795.45
641.38	54453.44
641.58	54373.57
641.77	54453.44
641.97	54484.16
642.16	54664.38
642.36	54844.60
642.55	54955.19
642.74	54127.81
642.94	55432.37
643.13	54572.22
643.33	55016.63
643.52	55313.59
643.72	54961.34
643.91	54631.61
644.10	55129.27
644.30	54973.63
644.49	54762.68
644.69	55450.80
644.88	55143.61
645.08	54686.91
645.27	54897.85
645.46	54803.64
645.66	55174.33
645.85	54498.50
646.05	55295.16
646.24	55143.61
646.43	55495.86
646.63	55393.46
646.82	55409.84
647.02	55522.48
647.21	55618.74
647.40	55272.63
647.60	55497.91
647.79	55272.63
647.99	55585.97
648.18	54961.34
648.37	55981.23
648.57	55704.75
648.76	55637.17
648.96	55694.51
649.15	55477.43
649.34	55841.96
649.54	55661.74
649.73	55604.40
649.92	55600.30
650.12	55788.72
650.31	56106.15
650.51	55921.83
650.70	56212.65
650.89	55846.06
651.09	56325.28
651.28	56077.48
651.47	56036.52
651.67	56251.56
651.86	56685.73
652.06	55444.66
652.25	56259.75
652.44	55841.96
652.64	55899.31
652.83	56018.09
653.02	55506.10
653.22	56468.64
653.41	55960.75
653.60	55700.65
653.80	56100.01
653.99	56542.37
654.18	56018.09
654.38	56116.39
654.57	56661.15
654.76	56528.03
654.96	56718.49
655.15	56104.10
655.34	56583.33
655.54	56267.94
655.73	56677.54
655.92	56532.13
656.12	56317.09
656.31	56534.18
656.50	56200.36
656.70	56251.56
656.89	56104.10
657.08	56702.11
657.28	56554.66
657.47	56603.81
657.66	56679.58
657.86	56794.27
658.05	56820.89
658.24	56960.15
658.43	56231.08
658.63	56554.66
658.82	56771.74
659.01	57334.93
659.21	57046.17
659.40	56908.96
659.59	56954.01
659.79	57273.49
659.98	57175.19
660.17	57154.71
660.36	56896.67
660.56	56960.15
660.75	57291.93
660.94	57730.19
661.14	57504.91
661.33	57210.01
661.52	56781.98
661.71	57457.81
661.91	56956.06
662.10	56935.58
662.29	57302.17
662.49	56923.29
662.68	57431.19
662.87	56994.97
663.06	57435.28
663.26	57582.74
663.45	57255.06
663.64	57341.08
663.83	57767.05
664.03	57912.46
664.22	57271.45
664.41	57769.10
664.60	57939.08
664.80	57597.07
664.99	57379.99
665.18	57599.12
665.37	57459.86
665.57	57738.38
665.76	57271.45
665.95	57742.48
666.14	57687.18
666.34	57670.80
666.53	57463.96
666.72	57216.15
666.91	57277.59
667.11	57105.56
667.30	57752.72
667.49	57459.86
667.68	57539.73
667.87	57377.94
668.07	57586.83
668.26	57406.61
668.45	57867.40
668.64	57291.93
668.84	58100.87
669.03	57758.86
669.22	58111.11
669.41	58375.30
669.60	57971.85
669.80	57597.07
669.99	57752.72
670.18	57846.93
670.37	57547.92
670.57	58100.87
670.76	58078.35
670.95	57908.36
671.14	57918.60
671.33	57603.22
671.53	58023.05
671.72	57513.11
671.91	58029.19
672.10	57441.43
672.29	58260.62
672.48	57910.41
672.68	58434.69
672.87	57797.77
673.06	57554.07
673.25	57543.83
673.44	57840.78
673.64	57851.02
673.83	57412.76
674.02	57711.76
674.21	57554.07
674.40	57619.60
674.59	57556.11
674.79	57687.18
674.98	57498.77
675.17	57812.11
675.36	57414.80
675.55	58102.92
675.74	57758.86
675.94	57693.33
676.13	57693.33
676.32	58274.95
676.51	58061.96
676.70	58156.17
676.89	58446.98
677.08	58164.36
677.28	57640.08
677.47	58053.77
677.66	58520.71
677.85	58025.10
678.04	58102.92
678.23	58018.95
678.42	57930.89
678.62	58135.69
678.81	58483.84
679.00	58014.86
679.19	58629.25
679.38	57975.95
679.57	58311.81
679.76	58076.30
679.96	58176.65
680.15	57877.64
680.34	57736.34
680.53	58000.52
680.72	58213.51
680.91	58029.19
681.10	57760.91
681.29	58156.17
681.48	57826.45
681.68	57640.08
681.87	58268.81
682.06	57556.11
682.25	57457.81
682.44	57738.38
682.63	57728.14
682.82	57666.70
683.01	57894.03
683.20	57500.82
683.39	57638.03
683.59	57521.30
683.78	57158.81
683.97	57840.78
684.16	57525.39
684.35	57390.23
684.54	57453.72
684.73	57519.25
684.92	57222.29
685.11	57429.14
685.30	57351.32
685.49	57724.05
685.69	57519.25
685.88	57490.58
686.07	57173.14
686.26	57382.04
686.45	57388.18
686.64	57289.88
686.83	57373.84
687.02	57439.38
687.21	57738.38
687.40	57406.61
687.59	57906.32
687.78	57543.83
687.97	57423.00
688.16	57414.80
688.35	57144.47
688.54	57359.51
688.74	57263.25
688.93	56698.01
689.12	57291.93
689.31	57644.18
689.50	56859.80
689.69	56874.14
689.88	56577.18
690.07	57283.73
690.26	56976.54
690.45	57234.58
690.64	56571.04
690.83	56992.92
691.02	55993.51
691.21	56779.93
691.40	56110.25
691.59	57171.10
691.78	56607.90
691.97	57119.90
692.16	56820.89
692.35	56851.61
692.54	56868.00
692.73	56812.70
692.92	56427.68
693.11	56528.03
693.30	56450.21
693.49	56763.55
693.68	56566.94
693.87	56341.67
694.06	56204.45
694.25	56366.24
694.44	56308.90
694.63	56343.72
694.82	56190.12
695.01	56396.96
695.20	56503.46
695.39	56206.50
695.58	56163.50
695.77	56011.95
695.96	55798.96
696.15	56419.49
696.34	55735.47
696.53	55985.32
696.72	56280.23
696.91	56247.46
697.10	56009.90
697.29	55831.72
697.48	56499.36
697.67	55534.77
697.86	55452.85
698.05	55477.43
698.24	56122.54
698.43	55342.26
698.62	55458.99
698.81	54932.67
699.00	56134.82
699.19	55178.42
699.38	55286.96
699.57	55235.77
699.76	55825.58
699.95	55389.36
700.14	55538.86
700.32	55391.41
700.51	55303.35
700.70	55712.94
700.89	54881.47
701.08	54805.69
701.27	55293.11
701.46	55458.99
701.65	54527.17
701.84	55104.70
702.03	55039.16
702.22	55006.39
702.41	55039.16
702.60	55379.12
702.79	54537.41
702.98	54547.65
703.17	55229.62
703.35	54303.94
703.54	54463.68
703.73	54731.96
703.92	54674.62
704.11	54875.32
704.30	54314.18
704.49	54416.58
704.68	54295.75
704.87	54531.26
705.06	54625.47
705.25	53871.82
705.43	54271.17
705.62	54228.16
705.81	54236.36
706.00	54113.48
706.19	53830.86
706.38	53644.49
706.57	54338.75
706.76	53785.80
706.95	53920.97
707.14	53763.28
707.32	53845.19
707.51	53404.88
707.70	53847.24
707.89	53818.57
708.08	54017.22
708.27	53843.15
708.46	54222.02
708.65	53277.91
708.84	53908.68
709.02	53843.15
709.21	53363.92
709.40	53730.51
709.59	53535.95
709.78	52780.25
709.97	53523.66
710.16	53126.36
710.34	53523.66
710.53	53234.90
710.72	53312.72
710.91	52886.74
711.10	53085.40
711.29	53189.84
711.48	52710.62
711.66	53265.62
711.85	52692.19
712.04	52704.48
712.23	52524.25
712.42	52911.32
712.61	52706.52
712.80	52522.21
712.98	52694.24
713.17	52421.86
713.36	52065.51
713.55	52583.65
713.74	52090.09
713.93	52188.39
714.11	53015.77
714.30	52126.95
714.49	52665.56
714.68	52518.11
714.87	52196.58
715.06	52491.49
715.24	51709.16
715.43	51967.21
715.62	51524.85
715.81	51657.96
716.00	51606.76
716.18	51385.58
716.37	51498.22
716.56	51326.19
716.75	51655.92
716.94	51551.47
717.12	51295.47
717.31	51305.71
717.50	51442.93
717.69	51004.66
717.88	50953.46
718.06	51205.36
718.25	51389.68
718.44	50652.41
718.63	51119.35
718.82	50824.44
719.00	51475.69
719.19	50666.75
719.38	50754.81
719.57	50074.88
719.76	50224.39
719.94	50447.61
720.13	50500.86
720.32	50732.28
720.51	50148.61
720.69	50081.03
720.88	50504.96
721.07	50203.91
721.26	49970.44
721.44	49984.77
721.63	50107.65
721.82	49546.51
722.01	49919.24
722.20	50189.57
722.38	50033.92
722.57	49243.41
722.76	49335.57
722.95	49937.67
723.13	49198.35
723.32	48954.64
723.51	48856.34
723.70	49290.51
723.88	49044.76
724.07	48993.56
724.26	49112.34
724.44	48317.73
724.63	49202.45
724.82	48823.58
725.01	48944.41
725.19	48610.59
725.38	48741.66
725.57	48561.44
725.76	49011.99
725.94	48393.50
726.13	48485.66
726.32	48352.54
726.51	48432.41
726.69	48633.11
726.88	48526.62
727.07	48276.77
727.25	48149.79
727.44	48643.35
727.63	48067.87
727.82	48000.29
728.00	48477.47
728.19	48330.01
728.38	48495.90
728.56	47734.06
728.75	48299.30
728.94	47904.04
729.12	48188.70
729.31	48162.08
729.50	48356.64
729.69	47916.32
729.87	48293.15
730.06	48254.24
730.25	47822.12
730.43	47961.38
730.62	47668.52
730.81	48076.07
730.99	48244.00
731.18	47602.99
731.37	48373.02
731.55	48352.54
731.74	47938.85
731.93	47908.13
732.11	48088.35
732.30	48184.61
732.49	47519.02
732.67	47818.02
732.86	47568.17
733.05	47705.38
733.23	47312.17
733.42	47691.05
733.61	47732.01
733.79	47605.03
733.98	47873.32
734.17	47234.35
734.35	47570.22
734.54	47695.14
734.73	47729.96
734.91	47805.73
735.10	47656.23
735.29	47815.97
735.47	47152.43
735.66	47519.02
735.84	47226.16
736.03	47232.30
736.22	47568.17
736.40	46996.79
736.59	47523.11
736.78	47631.66
736.96	47291.69
737.15	47080.75
737.33	47047.99
737.52	46789.94
737.71	46796.09
737.89	47021.36
738.08	46832.95
738.27	46634.30
738.45	47027.51
738.64	46929.20
738.82	46851.38
739.01	46822.71
739.20	46558.52
739.38	46906.68
739.57	47142.19
739.75	46896.44
739.94	46193.98
740.13	47000.88
740.31	46091.58
740.50	47064.37
740.68	46515.51
740.87	46601.53
741.06	46726.46
741.24	46198.08
741.43	46224.70
741.61	46791.99
741.80	46181.70
741.99	46232.89
742.17	46206.27
742.36	46093.63
742.54	45952.32
742.73	46157.12
742.91	46404.92
743.10	45677.90
743.29	46234.94
743.47	46366.01
743.66	45991.23
743.84	45720.90
744.03	46359.87
744.21	45706.57
744.40	46474.55
744.59	45880.64
744.77	45823.30
744.96	45897.03
745.14	46116.16
745.33	46099.78
745.51	45522.25
745.70	45669.70
745.88	45843.78
746.07	45849.92
746.26	45421.90
746.44	45866.31
746.63	45999.43
746.81	45696.33
747.00	45372.75
747.18	45870.40
747.37	45655.37
747.55	45870.40
747.74	45499.72
747.92	45147.47
748.11	45544.78
748.29	45174.09
748.48	45356.36
748.66	45413.71
748.85	45520.20
749.03	45202.77
749.22	45575.50
749.41	45022.54
749.59	45380.94
749.78	45030.74
749.96	44825.94
750.15	45069.65
750.33	45524.30
750.52	45450.57
750.70	44707.16
750.89	44827.99
751.07	44424.54
751.26	44983.63
751.44	44578.14
751.63	45141.33
751.81	44311.90
752.00	44662.10
752.18	44690.77
752.37	44975.44
752.55	44430.68
752.74	44066.14
752.92	44303.71
753.10	43775.33
753.29	44346.72
753.47	44541.27
753.66	44143.97
753.84	44979.54
754.03	44459.35
754.21	43996.51
754.40	44580.18
754.58	44524.89
754.77	44330.33
754.95	44047.71
755.14	43789.67
755.32	44078.43
755.51	43978.08
755.69	43541.86
755.88	43709.80
756.06	43918.69
756.24	43797.86
756.43	43752.80
756.61	44127.58
756.80	43550.06
756.98	43584.87
757.17	43867.49
757.35	43761.00
757.54	43550.06
757.72	43750.76
757.90	43189.61
758.09	43302.25
758.27	43554.15
758.46	43652.45
758.64	43668.84
758.83	43447.66
759.01	43631.97
759.19	43634.02
759.38	43529.58
759.56	43689.32
759.75	43386.22
759.93	43914.59
760.12	43261.29
760.30	43242.86
760.48	43097.45
760.67	43162.99
760.85	43191.66
761.04	43249.00
761.22	43087.21
761.40	43179.37
761.59	43132.27
761.77	42755.44
761.96	42939.76
762.14	42646.90
762.32	42870.13
762.51	42366.33
762.69	42554.74
762.88	42874.23
763.06	43349.35
763.24	42319.23
763.43	42820.98
763.61	42280.31
763.80	42737.01
763.98	42546.55
764.16	42687.86
764.35	42612.09
764.53	42136.96
764.72	42900.85
764.90	42007.94
765.08	42161.53
765.27	42247.55
765.45	41885.06
765.63	42284.41
765.82	42096.00
766.00	42069.37
766.18	42018.17
766.37	42317.18
766.55	42032.51
766.74	41883.01
766.92	41944.45
767.10	42167.68
767.29	42472.82
767.47	41719.17
767.65	42052.99
767.84	41667.97
768.02	41819.52
768.20	41702.79
768.39	41825.67
768.57	41956.74
768.75	41651.59
768.94	41612.68
769.12	41893.25
769.30	41287.05
769.49	41411.98
769.67	41307.53
769.85	41155.98
770.04	41405.83
770.22	41110.92
770.40	41266.57
770.59	40744.34
770.77	41297.29
770.95	41213.32
771.14	41102.73
771.32	41215.37
771.50	40387.99
771.69	41049.49
771.87	41164.17
772.05	40764.82
772.24	40781.20
772.42	40859.02
772.60	40637.84
772.78	40543.64
772.97	40314.26
773.15	40809.87
773.33	40508.82
773.52	40899.98
773.70	40623.51
773.88	41076.11
774.07	40580.50
774.25	41026.96
774.43	41033.10
774.61	40639.89
774.80	41059.73
774.98	40684.95
775.16	41059.73
775.34	41268.62
775.53	40732.05
775.71	40791.44
775.89	40859.02
776.08	40977.81
776.26	40961.42
776.44	40947.09
776.62	40846.74
776.81	40760.72
776.99	41004.43
777.17	40990.09
777.35	41067.92
777.54	40938.90
777.72	40775.06
777.90	40979.85
778.08	41454.98
778.27	41158.03
778.45	41473.42
778.63	41457.03
778.81	41022.86
779.00	41614.72
779.18	41307.53
779.36	41833.86
779.54	41129.36
779.73	41274.76
779.91	41768.32
780.09	41489.80
780.27	41684.36
780.46	41500.04
780.64	41770.37
780.82	41409.93
781.00	41250.19
781.19	41997.70
781.37	41831.81
781.55	42044.80
781.73	42290.55
781.91	41559.43
782.10	41770.37
782.28	41868.67
782.46	41883.01
782.64	42139.00
782.82	42071.42
783.01	42050.94
783.19	42300.79
783.37	42188.16
783.55	41860.48
783.74	42395.00
783.92	41749.89
784.10	42526.07
784.28	42151.29
784.46	42214.78
784.64	41903.49
784.83	42196.35
785.01	42511.74
785.19	42184.06
785.37	42593.65
785.55	42284.41
785.74	41944.45
785.92	42061.18
786.10	42558.84
786.28	41831.81
786.46	41700.74
786.64	41833.86
786.83	41792.90
787.01	42259.84
787.19	41930.11
787.37	41932.16
787.55	42294.65
787.74	41581.96
787.92	41923.97
788.10	42077.57
788.28	41862.53
788.46	41416.07
788.64	41379.21
788.82	41950.59
789.01	41743.75
789.19	41917.82
789.37	41555.33
789.55	41479.56
789.73	41532.81
789.91	41536.90
790.09	41375.11
790.28	41231.75
790.46	41211.28
790.64	41301.39
790.82	41846.15
791.00	40783.25
791.18	40465.81
791.36	40463.77
791.55	40719.76
791.73	40840.59
791.91	41000.33
792.09	40777.11
792.27	41055.63
792.45	40994.19
792.63	40330.65
792.81	40172.96
793.00	40082.84
793.18	40025.50
793.36	40383.90
793.54	39925.15
793.72	40336.79
793.90	40136.09
794.08	39863.71
794.26	39771.55
794.44	39515.56
794.62	39490.98
794.81	39720.35
794.99	39540.13
795.17	39224.75
795.35	39294.38
795.53	39482.79
795.71	39951.77
795.89	39460.26
796.07	39097.77
796.25	38854.06
796.43	38929.84
796.61	38651.31
796.80	38598.07
796.98	38831.54
797.16	38667.70
797.34	38966.70
797.52	38327.74
797.70	38872.49
797.88	38401.46
798.06	38217.14
798.24	38098.36
798.42	38415.80
798.60	38167.99
798.78	37979.58
798.96	38024.64
799.14	37567.94
799.32	38006.20
799.51	37443.01
799.69	37952.96
799.87	37348.81
800.05	37281.22
800.23	37324.23
800.41	37117.39
800.59	37307.85
800.77	37346.76
800.95	36750.80
801.13	36865.49
801.31	36474.32
801.49	36994.51
801.67	36857.29
801.85	36922.83
802.03	36449.75
802.21	36734.42
802.39	36550.10
802.57	36443.60
802.75	36376.02
802.93	36601.30
803.11	36314.58
803.29	36036.06
803.47	36077.02
803.65	36244.95
803.83	36263.38
804.01	35780.06
804.19	35720.67
804.37	35704.29
804.55	35481.06
804.73	35538.40
804.91	35419.62
805.09	35788.25
805.27	35474.91
805.45	35266.02
805.63	35352.04
805.81	35261.93
805.99	35321.32
806.17	35386.85
806.35	35177.96
806.53	34938.35
806.71	35306.98
806.89	34725.36
807.07	34422.26
807.25	35024.36
807.43	34721.26
807.61	34917.87
807.79	34504.18
807.97	34254.33
808.15	34283.00
808.33	34518.51
808.51	33912.31
808.69	34459.12
808.87	33830.40
809.05	34125.30
809.23	33887.74
809.41	33689.09
809.59	33988.09
809.77	33969.66
809.95	33807.87
810.13	33867.26
810.31	33656.32
810.49	33684.99
810.67	33455.62
810.84	33883.64
811.02	33357.32
811.20	33129.99
811.38	33138.18
811.56	32996.87
811.74	33000.97
811.92	32859.66
812.10	33256.96
812.28	33107.46
812.46	33287.68
812.64	32972.30
812.82	32835.08
813.00	32749.07
813.18	32622.09
813.36	32392.72
813.53	32517.65
813.71	32734.73
813.89	32196.12
814.07	32288.28
814.25	32736.78
814.43	32216.60
814.61	32458.26
814.79	31847.96
814.97	32296.47
815.15	32167.45
815.33	31809.05
815.50	31897.11
815.68	32222.74
815.86	31794.71
816.04	31794.71
816.22	31690.27
816.40	31415.84
816.58	31571.49
816.76	31342.11
816.94	31397.41
817.11	31577.63
817.29	31458.85
817.47	31364.64
817.65	31192.61
817.83	31069.73
818.01	31143.46
818.19	31573.53
818.37	31217.19
818.54	30731.82
818.72	30682.67
818.90	31067.69
819.08	30799.40
819.26	30682.67
819.44	30524.97
819.62	30862.89
819.80	30617.13
819.97	30625.32
820.15	30537.26
820.33	30465.58
820.51	30641.71
820.69	30281.27
820.87	30576.17
821.05	30574.13
821.22	30604.84
821.40	30230.07
821.58	30307.89
821.76	30154.29
821.94	30045.75
822.12	29836.86
822.29	30275.12
822.47	29945.40
822.65	30148.15
822.83	30041.65
823.01	29939.26
823.19	29767.23
823.36	29808.19
823.54	29857.34
823.72	29519.42
823.90	29720.12
824.08	29298.24
824.25	29742.65
824.43	29216.32
824.61	29222.47
824.79	29447.74
824.97	29128.26
825.15	29679.16
825.32	29101.64
825.50	28876.36
825.68	29050.44
825.86	29095.49
826.04	29351.49
826.21	29365.82
826.39	29226.56
826.57	29146.69
826.75	28626.51
826.93	28921.41
827.10	28612.17
827.28	28694.09
827.46	28821.06
827.64	28481.10
827.81	28603.98
827.99	28628.56
828.17	28288.59
828.35	28317.26
828.53	28628.56
828.70	27922.01
828.88	28161.62
829.06	28124.75
829.24	28497.49
829.41	28231.25
829.59	28423.76
829.77	27995.73
829.95	28276.30
830.12	28034.64
830.30	27917.91
830.48	28053.08
830.66	27756.12
830.84	28186.19
831.01	28077.65
831.19	27868.76
831.37	27512.41
831.55	27760.22
831.72	27790.94
831.90	27672.15
832.08	27465.31
832.25	27420.25
832.43	27643.48
832.61	27614.81
832.79	27391.58
832.96	27471.45
833.14	27467.36
833.32	27397.73
833.50	27455.07
833.67	27354.72
833.85	27536.99
834.03	26846.82
834.20	27225.70
834.38	27197.02
834.56	27209.31
834.74	26943.08
834.91	27008.61
835.09	26824.29
835.27	26490.48
835.44	26814.05
835.62	26568.30
835.80	26447.47
835.98	26785.38
836.15	26558.06
836.33	26580.59
836.51	26822.25
836.68	26293.87
836.86	26521.20
837.04	26617.45
837.21	26695.27
837.39	26439.28
837.57	26601.07
837.75	26535.53
837.92	26218.10
838.10	26097.27
838.28	25738.87
838.45	26574.44
838.63	25974.39
838.81	26320.49
838.98	25962.10
839.16	25902.71
839.34	26097.27
839.51	25880.18
839.69	25665.14
839.87	25624.18
840.04	25777.78
840.22	25968.24
840.40	25613.95
840.57	25224.83
840.75	25788.02
840.93	25679.48
841.10	25552.51
841.28	25695.86
841.46	25691.77
841.63	25550.46
841.81	25534.07
841.98	25689.72
842.16	25185.92
842.34	25394.81
842.51	25300.61
842.69	25372.28
842.87	24946.31
843.04	25577.08
843.22	24706.70
843.40	24878.72
843.57	25048.71
843.75	25198.21
843.92	25009.79
844.10	25015.94
844.28	25116.29
844.45	25134.72
844.63	25147.01
844.81	24764.04
844.98	25058.95
845.16	24886.92
845.33	24919.68
845.51	24798.85
845.69	24764.04
845.86	24583.82
846.04	24612.49
846.21	24790.66
846.39	24477.32
846.57	24415.88
846.74	24669.83
846.92	24639.11
847.09	24409.74
847.27	24211.09
847.45	24264.33
847.62	24311.44
847.80	24438.41
847.97	24323.72
848.15	24258.19
848.32	24151.70
848.50	24172.18
848.68	24104.59
848.85	24118.93
849.03	23598.74
849.20	24321.68
849.38	23885.46
849.56	23760.53
849.73	24008.34
849.91	24137.36
850.08	24045.20
850.26	23572.12
850.43	23598.74
850.61	23695.00
850.78	23359.13
850.96	23576.22
851.14	23314.08
851.31	23766.68
851.49	23434.91
851.66	23512.73
851.84	23688.85
852.01	23367.32
852.19	23408.28
852.36	23217.82
852.54	23246.49
852.71	23146.14
852.89	23092.90
853.07	23137.95
853.24	23373.47
853.42	23236.25
853.59	23496.35
853.77	23303.84
853.94	22922.91
854.12	23443.10
854.29	22877.86
854.47	23064.22
854.64	22763.17
854.82	22685.35
854.99	22718.12
855.17	22511.27
855.34	22912.67
855.52	22877.86
855.69	22976.16
855.87	22615.72
856.04	22707.88
856.22	22357.67
856.39	22423.21
856.57	22564.52
856.74	22560.42
856.92	22482.60
857.09	22361.77
857.27	22615.72
857.44	22441.64
857.62	22646.44
857.79	22415.02
857.97	22175.41
858.14	22683.30
858.32	22130.35
858.49	22425.26
858.67	22075.06
858.84	21984.94
859.02	22154.93
859.19	21868.21
859.37	21956.27
859.54	21780.15
859.72	22038.19
859.89	21827.25
860.06	22316.72
860.24	21900.98
860.41	21888.69
860.59	21753.52
860.76	21771.96
860.94	21708.47
861.11	21792.44
861.29	21882.55
861.46	21380.79
861.64	21429.94
861.81	21634.74
861.98	21399.23
862.16	21421.75
862.33	21257.92
862.51	21425.85
862.68	21515.96
862.86	21425.85
863.03	21042.88
863.21	21128.89
863.38	21104.32
863.55	21290.68
863.73	21104.32
863.90	21089.98
864.08	20926.14
864.25	20979.39
864.43	21139.13
864.60	20979.39
864.77	20872.90
864.95	21051.07
865.12	20831.94
865.30	20985.54
865.47	20831.94
865.64	20864.71
865.82	21018.30
865.99	20901.57
866.17	20428.49
866.34	20823.75
866.51	20225.74
866.69	20704.96
866.86	20485.83
867.04	20491.98
867.21	20541.13
867.38	20272.84
867.56	20383.43
867.73	20319.95
867.91	20233.93
868.08	20315.85
868.25	20233.93
868.43	20012.75
868.60	20336.33
868.78	19883.73
868.95	20403.91
869.12	20125.39
869.30	20106.96
869.47	19928.78
869.64	19967.70
869.82	19957.46
869.99	19711.70
870.16	20076.24
870.34	19990.22
870.51	20170.44
870.69	19842.77
870.86	19853.01
871.03	19781.33
871.21	19730.13
871.38	19556.05
871.55	19488.47
871.73	19324.63
871.90	19404.50
872.07	19343.06
872.25	19275.48
872.42	19216.09
872.59	19322.59
872.77	19373.78
872.94	19252.95
873.11	19228.38
873.29	19101.40
873.46	19222.23
873.63	19107.55
873.81	19005.15
873.98	18794.21
874.15	18757.35
874.33	18800.35
874.50	18675.43
874.67	18869.98
874.85	18800.35
875.02	18601.70
875.19	18534.12
875.37	18411.24
875.54	18525.93
875.71	18468.58
875.88	18290.41
876.06	18677.48
876.23	18732.77
876.40	18116.33
876.58	18421.48
876.75	18228.97
876.92	18083.56
877.10	18128.62
877.27	18351.85
877.44	18108.14
877.61	18151.15
877.79	18083.56
877.96	17770.22
878.13	17995.50
878.31	17880.82
878.48	17667.83
878.65	17614.58
878.82	17737.46
879.00	17702.64
879.17	17825.52
879.34	17700.59
879.51	17671.92
879.69	17430.26
879.86	17559.28
880.03	17493.75
880.21	17481.46
880.38	17495.80
880.55	17516.28
880.72	17196.79
880.90	17432.31
881.07	17288.95
881.24	17499.89
881.41	17176.31
881.59	17403.64
881.76	17374.97
881.93	17415.93
882.10	16951.04
882.28	17327.86
882.45	17231.61
882.62	17315.58
882.79	17207.03
882.96	16932.61
883.14	16953.09
883.31	16844.54
883.48	16879.36
883.65	17084.16
883.83	17043.20
884.00	16940.80
884.17	16928.51
884.34	16639.75
884.51	16969.47
884.69	16668.42
884.86	17020.67
885.03	16840.45
885.20	16729.86
885.38	16930.56
885.55	16576.26
885.72	16449.28
885.89	16422.66
886.06	16533.25
886.24	16582.40
886.41	16432.90
886.58	16619.27
886.75	16668.42
886.92	16539.40
887.10	16719.62
887.27	16297.74
887.44	16385.80
887.61	16258.82
887.78	16580.36
887.95	16523.01
888.13	16203.53
888.30	16219.91
888.47	16465.67
888.64	16215.82
888.81	16348.93
888.99	16019.21
889.16	16336.65
889.33	16047.88
889.50	16068.36
889.67	16148.23
889.84	16189.19
890.01	16105.23
890.19	15992.59
890.36	15957.77
890.53	15943.44
890.70	15849.23
890.87	15726.35
891.04	15775.50
891.22	15681.30
891.39	15775.50
891.56	15673.10
891.73	15683.34
891.90	15664.91
892.07	15521.56
892.24	15468.31
892.42	15539.99
892.59	15396.63
892.76	15558.42
892.93	15402.77
893.10	15603.47
893.27	15496.98
893.44	15261.46
893.61	15343.38
893.79	15537.94
893.96	15494.93
894.13	15349.53
894.30	15546.13
894.47	15333.14
894.64	15566.61
894.81	15222.55
894.98	15308.57
895.15	15421.20
895.33	15281.94
895.50	15324.95
895.67	15511.32
895.84	15419.16
896.01	15316.76
896.18	15118.11
896.35	15394.58
896.52	15124.25
896.69	15099.67
896.86	15351.57
897.04	15243.03
897.21	15273.75
897.38	15335.19
897.55	15128.35
897.72	15314.71
897.89	15099.67
898.06	15273.75
898.23	15101.72
898.40	15351.57
898.57	15296.28
898.74	15281.94
898.91	14886.68
899.08	15087.39
899.26	14962.46
899.43	15230.74
899.60	15021.85
899.77	15349.53
899.94	15068.95
900.11	14909.21
900.28	15142.68
900.45	14808.86
900.62	14894.88
900.79	15015.71
900.96	15181.59
901.13	15097.63
901.30	15005.47
901.47	14767.90
901.64	15056.67
901.81	15200.02
901.98	14776.09
902.15	15361.81
902.32	15044.38
902.49	15212.31
902.66	15124.25
902.83	15173.40
903.01	15064.86
903.18	15136.54
903.35	14972.70
903.52	14851.87
903.69	14884.64
903.86	14960.41
904.03	14903.07
904.20	15071.00
904.37	15105.82
904.54	14921.50
904.71	15046.43
904.88	14731.04
905.05	14972.70
905.22	14997.28
905.39	14894.88
905.56	14798.62
905.73	14800.67
905.90	15081.24
906.07	14946.08
906.24	14894.88
906.41	15048.47
906.58	15066.91
906.75	15011.61
906.92	14864.16
907.09	15066.91
907.26	14931.74
907.43	14823.20
907.60	14665.50
907.77	14901.02
907.93	14599.97
908.10	14733.09
908.27	14901.02
908.44	14804.77
908.61	14784.29
908.78	14671.65
908.95	14919.45
909.12	14651.17
909.29	14720.80
909.46	14739.23
909.63	14890.78
909.80	14927.64
909.97	14991.13
910.14	14804.77
910.31	14638.88
910.48	14810.91
910.65	14671.65
910.82	14661.41
910.99	14823.20
911.16	14571.30
911.33	14845.73
911.50	14532.39
911.66	14454.56
911.83	14810.91
912.00	14429.99
912.17	14499.62
912.34	14423.84
912.51	14661.41
912.68	14206.76
912.85	14468.90
913.02	14413.60
913.19	14321.45
913.36	14544.67
913.53	14405.41
913.70	14083.88
913.86	14559.01
914.03	14022.44
914.20	14397.22
914.37	14069.55
914.54	14077.74
914.71	14364.45
914.88	14429.99
915.05	13907.76
915.22	13854.51
915.39	13930.28
915.55	14184.23
915.72	13854.51
915.89	13971.24
916.06	14034.73
916.23	13709.10
916.40	13883.18
916.57	13743.92
916.74	13664.05
916.91	13813.55
917.07	13522.74
917.24	13487.92
917.41	13625.14
917.58	13668.14
917.75	13526.83
917.92	13215.54
918.09	13498.16
918.26	13457.20
918.42	13414.20
918.59	13358.90
918.76	13242.17
918.93	13250.36
919.10	13180.73
919.27	13285.17
919.44	13354.80
919.60	13100.86
919.77	13057.85
919.94	13012.79
920.11	12832.57
920.28	13000.51
920.45	12617.54
920.61	13016.89
920.78	12851.00
920.95	13004.60
921.12	12805.95
921.29	12699.45
921.46	12795.71
921.62	12750.65
921.79	12615.49
921.96	12595.01
922.13	12707.65
922.30	12441.41
922.47	12640.06
922.63	12390.21
922.80	12367.68
922.97	12398.40
923.14	12109.64
923.31	12310.34
923.47	12117.83
923.64	12328.77
923.81	12091.21
923.98	12177.22
924.15	11992.90
924.32	12017.48
924.48	12089.16
924.65	12019.53
924.82	11765.58
924.99	11749.20
925.15	11540.30
925.32	11790.16
925.49	11663.18
925.66	11558.74
925.83	11380.56
925.99	11644.75
926.16	11487.06
926.33	11585.36
926.50	11257.68
926.67	11583.31
926.83	11292.50
927.00	11132.76
927.17	11218.77
927.34	11278.16
927.50	11151.19
927.67	11093.85
927.84	10923.87
928.01	11188.05
928.17	11056.98
928.34	10858.33
928.51	10981.21
928.68	10829.66
928.84	10661.73
929.01	10674.01
929.18	10692.44
929.35	10551.14
929.51	10393.44
929.68	10471.26
929.85	10542.94
930.02	10426.21
930.18	10469.22
930.35	10258.28
930.52	10471.26
930.69	10454.88
930.85	10182.50
931.02	9994.09
931.19	10286.95
931.36	10037.09
931.52	10053.48
931.69	10250.08
931.86	10276.71
932.02	9891.69
932.19	9820.01
932.36	9953.13
932.53	10092.39
932.69	9873.26
932.86	9887.59
933.03	9842.54
933.19	9602.93
933.36	9623.41
933.53	9705.32
933.70	9539.44
933.86	9547.63
934.03	9377.65
934.20	9234.29
934.36	9555.82
934.53	9271.15
934.70	9082.74
934.86	9273.20
935.03	9068.41
935.20	8955.77
935.36	8900.47
935.53	8890.23
935.70	8818.55
935.86	8916.86
936.03	8632.19
936.20	8601.47
936.36	8611.71
936.53	8429.44
936.70	8552.32
936.86	8511.36
937.03	8435.58
937.20	8290.18
937.36	8175.49
937.53	7974.79
937.70	7901.06
937.86	7800.71
938.03	7806.86
938.20	7925.64
938.36	7501.71
938.53	7739.27
938.70	7470.99
938.86	7522.19
939.03	7325.58
939.20	7182.23
939.36	7151.51
939.53	7116.69
939.70	7311.25
939.86	7049.11
940.03	6784.92
940.19	6741.91
940.36	6795.16
940.53	6803.35
940.69	6543.26
940.86	6733.72
941.03	6449.05
941.19	6229.92
941.36	6268.83
941.52	6451.10
941.69	6246.30
941.86	6293.41
942.02	6096.80
942.19	5945.25
942.35	6201.25
942.52	6098.85
942.69	5963.68
942.85	5912.49
943.02	5889.96
943.18	5834.66
943.35	5750.70
943.52	5760.94
943.68	5564.33
943.85	5789.61
944.01	5670.83
944.18	5615.53
944.35	5683.11
944.51	5494.70
944.68	5420.97
944.84	5539.76
945.01	5437.36
945.17	5423.02
945.34	5545.90
945.51	5562.28
945.67	5447.60
945.84	5459.88
946.00	5189.55
946.17	5363.63
946.33	5359.53
946.50	5427.12
946.67	5425.07
946.83	5228.46
947.00	5435.31
947.16	5287.86
947.33	5406.64
947.49	5296.05
947.66	5263.28
947.82	5345.20
947.99	5310.38
948.16	5267.38
948.32	5230.51
948.49	5248.94
948.65	5382.06
948.82	5164.98
948.98	5296.05
949.15	5222.32
949.31	5320.62
949.48	5228.46
949.64	5326.77
949.81	5337.01
949.97	5314.48
950.14	5273.52
950.30	5263.28
950.47	5308.34
950.63	5429.17
950.80	5361.58
950.96	5341.10
951.13	5265.33
951.30	5394.35
951.46	5369.77
951.63	5439.40
951.79	5318.57
951.96	5431.21
952.12	5402.54
952.29	5265.33
952.45	5277.62
952.62	5402.54
952.78	5431.21
952.94	5375.92
953.11	5359.53
953.27	5345.20
953.44	5504.94
953.60	5455.79
953.77	5498.80
953.93	5398.45
954.10	5439.40
954.26	5463.98
954.43	5449.64
954.59	5447.60
954.76	5443.50
954.92	5529.52
955.09	5543.85
955.25	5423.02
955.42	5402.54
955.58	5470.12
955.75	5597.10
955.91	5392.30
956.07	5509.04
956.24	5482.41
956.40	5476.27
956.57	5597.10
956.73	5406.64
956.90	5519.28
957.06	5529.52
957.23	5318.57
957.39	5343.15
957.56	5488.56
957.72	5375.92
957.88	5402.54
958.05	5521.32
958.21	5521.32
958.38	5588.91
958.54	5468.08
958.71	5525.42
958.87	5437.36
959.03	5509.04
959.20	5425.07
959.36	5416.88
959.53	5449.64
959.69	5402.54
959.85	5468.08
960.02	5476.27
960.18	5414.83
960.35	5412.78
960.51	5517.23
960.68	5496.75
960.84	5353.39
961.00	5474.22
961.17	5492.65
961.33	5431.21
961.50	5416.88
961.66	5539.76
961.82	5427.12
961.99	5365.68
962.15	5502.89
962.31	5441.45
962.48	5541.80
962.64	5654.44
962.81	5513.13
962.97	5558.19
963.13	5492.65
963.30	5492.65
963.46	5408.69
963.62	5316.53
963.79	5488.56
963.95	5527.47
964.12	5484.46
964.28	5459.88
964.44	5472.17
964.61	5476.27
964.77	5472.17
964.93	5506.99
965.10	5228.46
965.26	5279.66
965.42	5275.57
965.59	5384.11
965.75	5275.57
965.92	5369.77
966.08	5457.84
966.24	5418.93
966.41	5328.81
966.57	5445.55
966.73	5312.43
966.90	5533.61
967.06	5205.94
967.22	5257.14
967.39	5351.34
967.55	5124.02
967.71	5294.00
967.88	5275.57
968.04	5232.56
968.20	5312.43
968.37	5294.00
968.53	5152.69
968.69	5205.94
968.85	5476.27
969.02	5173.17
969.18	5201.84
969.34	5230.51
969.51	5177.26
969.67	5359.53
969.83	5265.33
970.00	5210.03
970.16	5222.32
970.32	5140.40
970.48	5160.88
970.65	5093.30
970.81	5121.97
970.97	5207.98
971.14	5044.15
971.30	5212.08
971.46	5109.68
971.63	5146.55
971.79	5095.35
971.95	5017.52
972.11	4933.56
972.28	5007.28
972.44	5042.10
972.60	4917.17
972.76	4988.85
972.93	5009.33
973.09	4999.09
973.25	4949.94
973.42	4972.47
973.58	4988.85
973.74	5048.24
973.90	4927.41
974.07	4882.36
974.23	4941.75
974.39	4976.56
974.55	4843.45
974.72	4890.55
974.88	4839.35
975.04	4825.01
975.20	4712.38
975.37	5033.91
975.53	4788.15
975.69	4919.22
975.85	4820.92
976.01	4818.87
976.18	4751.29
976.34	4829.11
976.50	4853.69
976.66	4857.78
976.83	4763.58
976.99	4732.86
977.15	4741.05
977.31	4698.04
977.47	4761.53
977.64	4769.72
977.80	4798.39
977.96	4693.94
978.12	4734.90
978.29	4661.18
978.45	4585.40
978.61	4560.83
978.77	4636.60
978.93	4657.08
979.10	4573.11
979.26	4710.33
979.42	4548.54
979.58	4485.05
979.74	4577.21
979.91	4521.92
980.07	4554.68
980.23	4540.35
980.39	4411.32
980.55	4646.84
980.71	4546.49
980.88	4483.00
981.04	4511.68
981.20	4399.04
981.36	4444.09
981.52	4349.89
981.68	4435.90
981.85	4376.51
982.01	4485.05
982.17	4276.16
982.33	4341.69
982.49	4440.00
982.65	4259.78
982.82	4452.28
982.98	4466.62
983.14	4263.87
983.30	4526.01
983.46	4407.23
983.62	4417.47
983.79	4270.01
983.95	4343.74
984.11	4220.86
984.27	4337.60
984.43	4353.98
984.59	4333.50
984.75	4224.96
984.91	4272.06
985.08	4278.21
985.24	4151.23
985.40	4261.82
985.56	4255.68
985.72	4247.49
985.88	4327.36
986.04	4108.23
986.20	4106.18
986.37	4102.08
986.53	4112.32
986.69	4100.03
986.85	4130.75
987.01	4067.27
987.17	4046.79
987.33	4073.41
987.49	4046.79
987.65	4132.80
987.82	4024.26
987.98	4083.65
988.14	3968.96
988.30	3991.49
988.46	3956.68
988.62	4075.46
988.78	3981.25
988.94	3938.24
989.10	3919.81
989.26	3860.42
989.42	3860.42
989.59	3850.18
989.75	3882.95
989.91	3862.47
990.07	3712.97
990.23	3819.46
990.39	3809.22
990.55	3923.91
990.71	3717.06
990.87	3782.60
991.03	3844.04
991.19	3821.51
991.35	3866.56
991.51	3925.96
991.67	3866.56
991.83	3751.88
992.00	3749.83
992.16	3782.60
992.32	3801.03
992.48	3743.69
992.64	3612.62
992.80	3704.78
992.96	3678.15
993.12	3776.45
993.28	3776.45
993.44	3788.74
993.60	3704.78
993.76	3753.93
993.92	3641.29
994.08	3690.44
994.24	3762.12
994.40	3612.62
994.56	3745.73
994.72	3563.47
994.88	3514.31
995.04	3590.09
995.20	3534.79
995.36	3590.09
995.52	3682.25
995.68	3569.61
995.84	3569.61
996.00	3702.73
996.16	3540.94
996.32	3473.36
996.48	3540.94
996.64	3575.75
996.80	3606.47
996.96	3485.64
997.12	3485.64
997.28	3551.18
997.44	3499.98
997.60	3483.59
997.76	3438.54
997.92	3424.20
998.08	3418.06
998.24	3342.28
998.40	3416.01
998.56	3534.79
998.72	3416.01
998.88	3360.72
999.04	3297.23
999.20	3467.21
999.36	3299.28
999.52	3463.12
999.68	3348.43
999.84	3368.91
1000.00	3442.64
1000.16	3313.61
1000.32	3252.17
1000.48	3391.44
1000.64	3188.69
1000.80	3303.37
1000.95	3217.36
1001.11	3299.28
1001.27	3205.07
1001.43	3205.07
1001.59	3215.31
1001.75	3141.58
1001.91	3215.31
1002.07	3119.06
1002.23	3102.67
1002.39	3229.65
1002.55	3149.78
1002.71	3071.95
1002.87	3229.65
1003.03	3065.81
1003.19	3213.26
1003.34	3112.91
1003.50	3080.14
1003.66	3170.26
1003.82	3223.50
1003.98	3067.86
1004.14	3088.34
1004.30	3092.43
1004.46	3100.62
1004.62	3037.14
1004.78	3108.82
1004.94	3108.82
1005.09	3123.15
1005.25	3094.48
1005.41	2981.84
1005.57	3020.75
1005.73	2930.64
1005.89	3063.76
1006.05	3082.19
1006.21	3090.38
1006.37	2969.55
1006.52	3026.90
1006.68	2830.29
1006.84	3102.67
1007.00	2852.82
1007.16	2887.64
1007.32	2930.64
1007.48	2944.98
1007.64	2887.64
1007.79	2920.40
1007.95	2912.21
1008.11	3008.47
1008.27	2901.97
1008.43	2981.84
1008.59	2887.64
1008.75	2932.69
1008.91	2908.12
1009.06	2772.95
1009.22	2863.06
1009.38	2879.44
1009.54	2861.01
1009.70	2910.16
1009.86	2830.29
1010.01	2820.05
1010.17	2789.33
1010.33	2783.19
1010.49	2803.67
1010.65	2842.58
1010.81	2731.99
1010.96	2762.71
1011.12	2760.66
1011.28	2668.50
1011.44	2746.33
1011.60	2664.41
1011.76	2715.61
1011.91	2838.48
1012.07	2711.51
1012.23	2635.74
1012.39	2777.05
1012.55	2742.23
1012.71	2631.64
1012.86	2740.18
1013.02	2605.02
1013.18	2645.98
1013.34	2617.30
1013.50	2768.85
1013.65	2643.93
1013.81	2572.25
1013.97	2699.22
1014.13	2551.77
1014.29	2588.63
1014.44	2744.28
1014.60	2650.07
1014.76	2605.02
1014.92	2607.06
1015.07	2623.45
1015.23	2605.02
1015.39	2555.86
1015.55	2478.04
1015.71	2467.80
1015.86	2535.39
1016.02	2494.43
1016.18	2492.38
1016.34	2615.26
1016.49	2578.39
1016.65	2609.11
1016.81	2549.72
1016.97	2543.58
1017.12	2539.48
1017.28	2564.06
1017.44	2494.43
1017.60	2463.71
1017.75	2480.09
1017.91	2619.35
1018.07	2443.23
1018.23	2467.80
1018.38	2506.71
1018.54	2447.32
1018.70	2437.08
1018.86	2404.32
1019.01	2473.95
1019.17	2451.42
1019.33	2467.80
1019.49	2445.27
1019.64	2500.57
1019.80	2451.42
1019.96	2467.80
1020.12	2398.17
1020.27	2418.65
1020.43	2406.36
1020.59	2482.14
1020.74	2355.16
1020.90	2387.93
1021.06	2383.84
1021.22	2396.12
1021.37	2387.93
1021.53	2258.91
1021.69	2369.50
1021.84	2211.81
1022.00	2303.96
1022.16	2297.82
1022.31	2363.36
1022.47	2355.16
1022.63	2443.23
1022.79	2238.43
1022.94	2324.44
1023.10	2357.21
1023.26	2277.34
1023.41	2195.42
1023.57	2244.57
1023.73	2338.78
1023.88	2256.86
1024.04	2213.85
1024.20	2291.68
1024.35	2318.30
1024.51	2248.67
1024.67	2334.68
1024.82	2334.68
1024.98	2179.04
1025.14	2160.61
1025.29	2213.85
1025.45	2265.05
1025.61	2168.80
1025.76	2150.37
1025.92	2211.81
1026.08	2230.24
1026.23	2209.76
1026.39	2252.77
1026.55	2179.04
1026.70	2164.70
1026.86	2209.76
1027.02	2199.52
1027.17	2168.80
1027.33	2209.76
1027.48	2166.75
1027.64	2299.87
1027.80	2181.09
1027.95	2150.37
1028.11	2084.83
1028.27	2181.09
1028.42	2146.27
1028.58	2121.70
1028.73	2107.36
1028.89	2093.02
1029.05	2183.13
1029.20	2154.46
>>>>>End Processed Spectral Data<<<<<
