SpectraSuite Data File
++++++++++++++++++++++++++++++++++++
Date: Fri Jun 02 14:53:31 CEST 2017
User: INFO_000
Dark Spectrum Present: No
Reference Spectrum Present: No
Number of Sampled Component Spectra: 1
Spectrometers: USB4H00879
Integration Time (usec): 80000 (USB4H00879)
Spectra Averaged: 1 (USB4H00879)
Boxcar Smoothing: 0 (USB4H00879)
Correct for Electrical Dark: No (USB4H00879)
Strobe/Lamp Enabled: No (USB4H00879)
Correct for Detector Non-linearity: No (USB4H00879)
Correct for Stray Light: No (USB4H00879)
Number of Pixels in Processed Spectrum: 3648
>>>>>Begin Processed Spectral Data<<<<<
345.13	1288.17
345.34	1288.17
345.56	1288.17
345.78	1298.41
345.99	1230.83
346.21	1697.77
346.42	1710.05
346.64	1654.76
346.86	1744.87
347.07	1593.32
347.29	1748.97
347.50	1593.32
347.72	1689.57
347.94	1769.44
348.15	1519.59
348.37	1566.70
348.59	1740.77
348.80	1662.95
349.02	1716.20
349.23	1902.56
349.45	1771.49
349.67	1787.88
349.88	1738.73
350.10	1970.15
350.31	1929.19
350.53	1839.08
350.75	2000.87
350.96	1820.64
351.18	1832.93
351.39	1892.32
351.61	1787.88
351.82	1902.56
352.04	1904.61
352.26	1804.26
352.47	1886.18
352.69	1937.38
352.90	1720.29
353.12	1843.17
353.34	1873.89
353.55	1939.43
353.77	1902.56
353.98	1894.37
354.20	1802.21
354.41	1902.56
354.63	1847.27
354.85	2039.78
355.06	1914.85
355.28	1898.47
355.49	1949.67
355.71	1847.27
355.92	1933.28
356.14	1986.53
356.35	1839.08
356.57	1832.93
356.79	1871.84
357.00	1818.60
357.22	1982.43
357.43	1920.99
357.65	1955.81
357.86	1820.64
358.08	1947.62
358.29	1925.09
358.51	1906.66
358.72	1961.95
358.94	1972.19
359.16	1961.95
359.37	2011.11
359.59	1933.28
359.80	1961.95
360.02	1908.71
360.23	1941.47
360.45	2015.20
360.66	1923.04
360.88	1888.23
361.09	1834.98
361.31	1970.15
361.52	1888.23
361.74	2064.35
361.95	2095.07
362.17	1970.15
362.38	2052.06
362.60	2078.69
362.81	2045.92
363.03	1925.09
363.24	2052.06
363.46	2066.40
363.67	2035.68
363.89	1994.72
364.10	2047.97
364.32	1974.24
364.53	1988.58
364.75	1929.19
364.96	2023.39
365.18	2093.02
365.39	2023.39
365.61	2027.49
365.82	2140.13
366.04	2054.11
366.25	2025.44
366.47	2068.45
366.68	2115.55
366.90	1994.72
367.11	2185.18
367.33	2133.98
367.54	2129.89
367.76	2000.87
367.97	2080.74
368.19	2002.91
368.40	2133.98
368.62	1978.34
368.83	1992.67
369.05	2109.41
369.26	1994.72
369.48	2043.87
369.69	2023.39
369.91	2007.01
370.12	2002.91
370.33	2093.02
370.55	2019.30
370.76	2043.87
370.98	2162.66
371.19	1947.62
371.41	2115.55
371.62	2097.12
371.84	2019.30
372.05	2242.53
372.27	2090.98
372.48	2052.06
372.69	2113.50
372.91	2166.75
373.12	2232.29
373.34	2181.09
373.55	2125.79
373.77	2166.75
373.98	2107.36
374.20	2166.75
374.41	2250.72
374.62	2127.84
374.84	2252.77
375.05	2267.10
375.27	2232.29
375.48	2254.81
375.70	2248.67
375.91	2263.01
376.12	2320.35
376.34	2140.13
376.55	2121.70
376.77	2236.38
376.98	2111.46
377.19	2213.85
377.41	2187.23
377.62	2234.33
377.84	2297.82
378.05	2430.94
378.27	2207.71
378.48	2314.20
378.69	2459.61
378.91	2344.92
379.12	2236.38
379.34	2234.33
379.55	2349.02
379.76	2265.05
379.98	2228.19
380.19	2342.88
380.41	2320.35
380.62	2301.92
380.83	2418.65
381.05	2228.19
381.26	2396.12
381.47	2207.71
381.69	2314.20
381.90	2428.89
382.12	2328.54
382.33	2295.77
382.54	2291.68
382.76	2369.50
382.97	2381.79
383.19	2242.53
383.40	2355.16
383.61	2265.05
383.83	2314.20
384.04	2322.40
384.25	2379.74
384.47	2324.44
384.68	2437.08
384.89	2269.15
385.11	2330.59
385.32	2336.73
385.54	2410.46
385.75	2404.32
385.96	2404.32
386.18	2445.27
386.39	2455.51
386.60	2285.53
386.82	2457.56
387.03	2379.74
387.24	2531.29
387.46	2412.51
387.67	2478.04
387.88	2463.71
388.10	2543.58
388.31	2584.54
388.52	2635.74
388.74	2549.72
388.95	2600.92
389.16	2545.63
389.38	2541.53
389.59	2553.82
389.80	2662.36
390.02	2531.29
390.23	2648.02
390.44	2516.95
390.66	2582.49
390.87	2508.76
391.08	2619.35
391.30	2721.75
391.51	2605.02
391.72	2668.50
391.94	2729.94
392.15	2629.59
392.36	2627.54
392.58	2600.92
392.79	2756.57
393.00	2662.36
393.22	2740.18
393.43	2729.94
393.64	2746.33
393.85	2795.48
394.07	2729.94
394.28	2637.78
394.49	2715.61
394.71	2727.89
394.92	2779.09
395.13	2627.54
395.35	2840.53
395.56	2834.39
395.77	2787.29
395.98	2775.00
396.20	2826.20
396.41	2836.44
396.62	3016.66
396.84	2752.47
397.05	2842.58
397.26	2867.16
397.47	2955.22
397.69	2938.84
397.90	3043.28
398.11	2834.39
398.32	2928.60
398.54	2912.21
398.75	2793.43
398.96	2832.34
399.18	3200.98
399.39	2977.75
399.60	2957.27
399.81	3037.14
400.03	2914.26
400.24	3264.46
400.45	3035.09
400.66	3131.34
400.88	2955.22
401.09	3196.88
401.30	3063.76
401.51	3213.26
401.73	3289.04
401.94	3121.10
402.15	3170.26
402.36	3155.92
402.58	3129.30
402.79	3248.08
403.00	3203.02
403.21	3225.55
403.43	3299.28
403.64	3272.65
403.85	3127.25
404.06	3364.81
404.27	3108.82
404.49	3254.22
404.70	3121.10
404.91	3315.66
405.12	3362.76
405.34	3264.46
405.55	3452.88
405.76	3155.92
405.97	3205.07
406.19	3383.24
406.40	3293.13
406.61	3393.48
406.82	3301.33
407.03	3405.77
407.25	3235.79
407.46	3456.97
407.67	3385.29
407.88	3489.74
408.09	3526.60
408.31	3370.96
408.52	3479.50
408.73	3338.19
408.94	3450.83
409.15	3463.12
409.37	3434.44
409.58	3530.70
409.79	3633.10
410.00	3665.86
410.21	3485.64
410.43	3395.53
410.64	3416.01
410.85	3639.24
411.06	3637.19
411.27	3692.49
411.48	3786.69
411.70	3557.32
411.91	3688.39
412.12	3698.63
412.33	3626.95
412.54	3739.59
412.76	3803.08
412.97	3762.12
413.18	3620.81
413.39	3633.10
413.60	3647.43
413.81	3725.26
414.03	3723.21
414.24	3715.02
414.45	3870.66
414.66	3629.00
414.87	3764.17
415.08	3760.07
415.30	3768.26
415.51	3825.61
415.72	3825.61
415.93	3807.17
416.14	3981.25
416.35	3919.81
416.56	3925.96
416.78	3848.13
416.99	3911.62
417.20	3960.77
417.41	3989.44
417.62	3858.37
417.83	4001.73
418.04	3983.30
418.26	4032.45
418.47	4097.99
418.68	4046.79
418.89	3973.06
419.10	4186.05
419.31	4026.31
419.52	4239.30
419.73	4204.48
419.95	4163.52
420.16	4009.92
420.37	4136.90
420.58	4136.90
420.79	3909.57
421.00	4124.61
421.21	4218.82
421.42	4140.99
421.63	4233.15
421.85	4149.18
422.06	4216.77
422.27	4093.89
422.48	4349.89
422.69	4341.69
422.90	4380.61
423.11	4296.64
423.32	4460.48
423.53	4511.68
423.75	4317.12
423.96	4483.00
424.17	4386.75
424.38	4661.18
424.59	4491.20
424.80	4609.98
425.01	4378.56
425.22	4440.00
425.43	4458.43
425.64	4782.01
425.85	4712.38
426.06	4550.59
426.28	4614.07
426.49	4614.07
426.70	4493.24
426.91	4677.56
427.12	4683.70
427.33	4724.66
427.54	4587.45
427.75	4673.46
427.96	4933.56
428.17	4708.28
428.38	4890.55
428.59	4878.26
428.80	4851.64
429.01	4917.17
429.23	4816.82
429.44	4964.28
429.65	4859.83
429.86	4956.08
430.07	4829.11
430.28	4919.22
430.49	5031.86
430.70	4980.66
430.91	5117.87
431.12	4915.12
431.33	5179.31
431.54	5214.13
431.75	5171.12
431.96	5064.63
432.17	5087.15
432.38	5177.26
432.59	5414.83
432.80	5339.05
433.01	5285.81
433.22	5316.53
433.43	5232.56
433.64	5455.79
433.85	5253.04
434.06	5466.03
434.27	5332.91
434.49	5506.99
434.70	5492.65
434.91	5380.01
435.12	5470.12
435.33	5558.19
435.54	5498.80
435.75	5328.81
435.96	5519.28
436.17	5449.64
436.38	5556.14
436.59	5613.48
436.80	5529.52
437.01	5638.06
437.22	5740.46
437.43	5666.73
437.64	5402.54
437.85	5679.02
438.06	5742.50
438.27	5568.43
438.48	5795.75
438.69	5595.05
438.90	5656.49
439.11	5550.00
439.32	5982.12
439.53	5814.18
439.74	5746.60
439.95	5922.73
440.16	6014.88
440.37	5822.38
440.57	5646.25
440.78	6004.64
440.99	5908.39
441.20	5875.62
441.41	5844.90
441.62	6057.89
441.83	5705.64
442.04	6090.66
442.25	5988.26
442.46	5980.07
442.67	6080.42
442.88	6545.31
443.09	5945.25
443.30	6096.80
443.51	6115.23
443.72	6465.44
443.93	6025.12
444.14	6401.95
444.35	6104.99
444.56	6305.70
444.77	6344.61
444.98	6373.28
445.19	6461.34
445.40	6428.57
445.61	6297.50
445.81	6424.48
446.02	6598.56
446.23	6426.53
446.44	6274.98
446.65	6483.87
446.86	6490.01
447.07	6594.46
447.28	6692.76
447.49	6549.40
447.70	6469.53
447.91	6553.50
448.12	6705.05
448.33	6901.65
448.54	6748.06
448.74	6680.47
448.95	6659.99
449.16	6647.71
449.37	6969.24
449.58	6856.60
449.79	7028.63
450.00	6789.02
450.21	7032.72
450.42	6911.89
450.63	7081.88
450.84	6999.96
451.05	7145.36
451.25	7028.63
451.46	7057.30
451.67	7147.41
451.88	7284.62
452.09	7206.80
452.30	7131.03
452.51	7114.64
452.72	7339.92
452.93	7636.88
453.13	7358.35
453.34	7239.57
453.55	7413.65
453.76	7450.51
453.97	7604.11
454.18	7501.71
454.39	7671.69
454.60	7581.58
454.81	7524.24
455.01	7708.55
455.22	7489.42
455.43	7835.53
455.64	7866.25
455.85	7985.03
456.06	8042.37
456.27	7860.10
456.48	7798.66
456.68	7982.98
456.89	8073.09
457.10	8091.52
457.31	8038.28
457.52	8218.50
457.73	8224.64
457.94	8537.98
458.14	8052.61
458.35	8361.86
458.56	8339.33
458.77	8398.72
458.98	8310.66
459.19	8447.87
459.39	8636.28
459.60	8662.91
459.81	8540.03
460.02	8687.48
460.23	8664.96
460.44	8945.53
460.65	8851.32
460.85	8822.65
461.06	9064.31
461.27	8761.21
461.48	9115.51
461.69	9287.54
461.89	8736.63
462.10	9203.57
462.31	9031.54
462.52	9181.04
462.73	9252.72
462.94	9359.22
463.14	9480.05
463.35	9385.84
463.56	9760.62
463.77	9703.28
463.98	9475.95
464.18	9400.18
464.39	9746.28
464.60	9977.70
464.81	9774.95
465.02	9674.60
465.23	10157.92
465.43	10010.47
465.64	10252.13
465.85	9973.61
466.06	9846.63
466.27	10205.03
466.47	10071.91
466.68	10323.81
466.89	10381.15
467.10	10424.16
467.30	10432.35
467.51	10501.98
467.72	10596.19
467.93	10465.12
468.14	10559.33
468.34	10872.67
468.55	10880.86
468.76	10682.20
468.97	10753.88
469.17	10960.73
469.38	11204.44
469.59	11147.09
469.80	11059.03
470.01	11155.29
470.21	11261.78
470.42	11433.81
470.63	11857.74
470.84	11364.18
471.04	11659.09
471.25	11575.12
471.46	11513.68
471.67	11886.41
471.87	11882.31
472.08	11841.36
472.29	12119.88
472.50	11681.61
472.70	12054.34
472.91	12166.98
473.12	12054.34
473.33	12238.66
473.53	12371.78
473.74	12433.22
473.95	12644.16
474.16	12785.47
474.36	12822.33
474.57	13002.55
474.78	12951.35
474.99	13014.84
475.19	12750.65
475.40	13276.98
475.61	13031.23
475.81	13416.24
476.02	13805.36
476.23	13262.65
476.44	13676.34
476.64	13737.77
476.85	13881.13
477.06	13922.09
477.27	14337.83
477.47	14081.83
477.68	14139.18
477.89	14143.27
478.09	14307.11
478.30	14442.28
478.51	14464.80
478.71	14550.82
478.92	14624.54
479.13	14655.26
479.34	15056.67
479.54	14866.21
479.75	15032.09
479.96	14845.73
480.16	15114.01
480.37	15046.43
480.58	15200.02
480.78	15623.95
480.99	15613.71
481.20	15517.46
481.41	15623.95
481.61	15521.56
481.82	15957.77
482.03	15853.33
482.23	15982.35
482.44	16289.54
482.65	16582.40
482.85	16441.09
483.06	16277.26
483.27	16506.63
483.47	16416.52
483.68	16789.25
483.89	16731.90
484.09	16768.77
484.30	16764.67
484.51	17092.35
484.71	17028.86
484.92	17237.75
485.13	17233.66
485.33	17286.90
485.54	17358.58
485.75	17522.42
485.95	17456.89
486.16	17741.55
486.37	17772.27
486.57	17817.33
486.78	17997.55
486.98	17911.53
487.19	18114.28
487.40	18231.02
487.60	17946.35
487.81	18665.19
488.02	18179.82
488.22	18454.25
488.43	18550.50
488.64	18388.71
488.84	18554.60
489.05	18996.96
489.25	18650.85
489.46	19226.33
489.67	18923.23
489.87	19310.30
490.08	19191.52
490.29	19068.64
490.49	19480.28
490.70	19611.35
490.90	19498.71
491.11	19822.29
491.32	19771.09
491.52	19867.34
491.73	19762.90
491.94	19982.03
492.14	20111.05
492.35	20041.42
492.55	20377.29
492.76	20235.98
492.97	20657.86
493.17	20281.03
493.38	20602.57
493.58	20555.46
493.79	20815.55
494.00	20530.89
494.20	20512.46
494.41	20842.18
494.61	21124.80
494.82	20999.87
495.02	20952.77
495.23	21110.46
495.44	21397.18
495.64	21388.99
495.85	21120.70
496.05	21667.51
496.26	21395.13
496.47	21677.75
496.67	21759.67
496.88	21825.20
497.08	21747.38
497.29	21862.07
497.49	22265.52
497.70	22288.04
497.91	22097.58
498.11	22167.21
498.32	22470.31
498.52	22265.52
498.73	22927.01
498.93	22660.77
499.14	22480.55
499.34	22767.27
499.55	23078.56
499.76	22535.85
499.96	22470.31
500.17	22961.83
500.37	22814.37
500.58	23197.34
500.78	22955.68
500.99	23344.80
501.19	23303.84
501.40	23121.57
501.60	23352.99
501.81	23406.23
502.02	23275.16
502.22	23402.14
502.43	23606.94
502.63	23701.14
502.84	23752.34
503.04	24049.30
503.25	23852.69
503.45	23883.41
503.66	24299.15
503.86	24211.09
504.07	24256.14
504.27	24161.94
504.48	24637.06
504.68	24465.03
504.89	24805.00
505.09	24465.03
505.30	24645.26
505.50	24610.44
505.71	24688.26
505.91	24768.13
506.12	24788.61
506.32	24788.61
506.53	24983.17
506.73	24899.20
506.94	25126.53
507.14	25194.11
507.35	25147.01
507.55	25308.80
507.76	25079.43
507.96	25220.74
508.17	25570.94
508.37	25429.63
508.58	25519.74
508.78	25646.71
508.99	25835.13
509.19	25751.16
509.40	25810.55
509.60	26105.46
509.81	25908.85
510.01	25861.75
510.22	25876.09
510.42	26035.83
510.63	26121.84
510.83	26216.05
511.04	25953.91
511.24	26506.86
511.44	26508.91
511.65	26572.39
511.85	26416.75
512.06	26353.26
512.26	26938.98
512.47	27084.39
512.67	26824.29
512.88	27121.25
513.08	26699.37
513.29	27197.02
513.49	26758.76
513.69	27051.62
513.90	26902.12
514.10	27178.59
514.31	27248.22
514.51	27223.65
514.72	27612.76
514.92	27330.14
515.13	27403.87
515.33	27180.64
515.53	27795.03
515.74	27604.57
515.94	27848.28
516.15	27766.36
516.35	27844.18
516.56	28044.88
516.76	27700.83
516.96	28165.71
517.17	28509.77
517.37	27971.16
517.58	27967.06
517.78	28431.95
517.99	28290.64
518.19	28616.27
518.39	28454.48
518.60	28497.49
518.80	28403.28
519.01	28792.39
519.21	28995.14
519.41	28870.22
519.62	28966.47
519.82	29101.64
520.03	29163.08
520.23	28952.13
520.43	29271.62
520.64	29292.10
520.84	29822.52
521.05	29208.13
521.25	29613.63
521.45	29587.00
521.66	30045.75
521.86	29609.53
522.07	29748.79
522.27	30168.63
522.47	30076.47
522.68	30434.86
522.88	30152.24
523.08	30447.15
523.29	30578.22
523.49	30445.10
523.70	30678.57
523.90	30748.20
524.10	30754.35
524.31	31020.58
524.51	30907.94
524.71	31442.46
524.92	30961.19
525.12	31266.34
525.33	31505.95
525.53	31573.53
525.73	31997.46
525.94	31704.60
526.14	31546.91
526.34	31741.47
526.55	31778.33
526.75	32003.61
526.95	32302.61
527.16	32048.66
527.36	32521.74
527.56	32394.77
527.77	32806.41
527.97	32421.39
528.17	32570.90
528.38	32759.31
528.58	32779.79
528.78	33156.61
528.99	33013.26
529.19	33406.47
529.39	32775.69
529.60	33465.86
529.80	33578.50
530.00	33250.82
530.21	33707.52
530.41	34020.86
530.61	33648.13
530.82	33869.31
531.02	33871.36
531.22	34110.97
531.43	34285.04
531.63	34190.84
531.83	34651.63
532.04	35093.99
532.24	34694.64
532.44	35069.42
532.64	35126.76
532.85	35055.08
533.05	35063.27
533.25	35366.37
533.46	35513.83
533.66	35976.67
533.86	35669.47
534.07	35628.51
534.27	35665.38
534.47	35861.98
534.67	36150.74
534.88	35677.66
535.08	35970.52
535.28	36316.63
535.49	36251.09
535.69	37146.06
535.89	36685.26
536.09	36660.69
536.30	37088.71
536.50	36795.85
536.70	37074.38
536.91	37133.77
537.11	37191.11
537.31	37232.07
537.51	37385.67
537.72	37604.80
537.92	37537.22
538.12	37717.44
538.32	37600.71
538.53	37823.93
538.73	37537.22
538.93	38016.44
539.13	38198.71
539.34	38032.83
539.54	38249.91
539.74	38225.34
539.94	38456.76
540.15	38176.19
540.35	38639.03
540.55	38978.99
540.75	38909.36
540.96	38929.84
541.16	39130.54
541.36	38821.30
541.56	39087.53
541.77	39769.51
541.97	39148.97
542.17	39245.23
542.37	39308.71
542.58	39527.84
542.78	39501.22
542.98	39642.53
543.18	39892.38
543.38	40021.41
543.59	40078.75
543.79	39724.45
543.99	40056.22
544.19	39941.53
544.40	40170.91
544.60	40471.96
544.80	40316.31
545.00	40523.16
545.20	40627.60
545.41	40480.15
545.61	40279.45
545.81	40754.58
546.01	40719.76
546.21	40910.22
546.42	40666.52
546.62	41035.15
546.82	40899.98
547.02	40805.78
547.22	40871.31
547.43	40619.41
547.63	41407.88
547.83	41457.03
548.03	40711.57
548.23	41541.00
548.44	41598.34
548.64	41264.52
548.84	41244.04
549.04	41532.81
549.24	41366.92
549.45	42063.23
549.65	41319.82
549.85	41741.70
550.05	41950.59
550.25	41874.82
550.45	42530.17
550.66	41936.26
550.86	41639.30
551.06	42304.89
551.26	42091.90
551.46	41946.50
551.66	42495.35
551.87	42042.75
552.07	42048.89
552.27	41915.78
552.47	42665.33
552.67	42370.43
552.87	42519.93
553.07	42415.48
553.28	42554.74
553.48	42595.70
553.68	42759.54
553.88	43179.37
554.08	42503.54
554.28	43038.06
554.48	42497.40
554.69	42788.21
554.89	43048.30
555.09	42669.43
555.29	42644.85
555.49	43017.58
555.69	43289.96
555.89	42769.78
556.10	43418.99
556.30	42816.88
556.50	43038.06
556.70	43136.37
556.90	43455.85
557.10	42997.10
557.30	42892.66
557.50	43586.92
557.70	43128.17
557.91	43769.19
558.11	43361.64
558.31	43429.23
558.51	43373.93
558.71	43556.20
558.91	43361.64
559.11	43140.46
559.31	43289.96
559.51	43558.25
559.72	43513.19
559.92	43375.98
560.12	43384.17
560.32	43482.47
560.52	43232.62
560.72	43658.60
560.92	43937.12
561.12	43890.02
561.32	43885.92
561.52	43883.87
561.72	43937.12
561.93	43783.52
562.13	43857.25
562.33	43449.70
562.53	44326.24
562.73	43941.22
562.93	43820.39
563.13	44354.91
563.33	43912.55
563.53	44416.35
563.73	43795.81
563.93	44133.73
564.13	44758.36
564.33	44479.83
564.53	43941.22
564.74	44238.17
564.94	44397.91
565.14	44483.93
565.34	44209.50
565.54	44553.56
565.74	44279.13
565.94	44729.69
566.14	44461.40
566.34	44316.00
566.54	44647.77
566.74	44275.04
566.94	44963.15
567.14	44455.26
567.34	44227.93
567.54	44451.16
567.74	44336.48
567.94	44449.11
568.14	45069.65
568.34	45145.42
568.54	44680.53
568.74	44670.29
568.94	44455.26
569.14	44664.15
569.34	44997.97
569.54	44954.96
569.75	44569.94
569.95	44770.64
570.15	45681.99
570.35	45071.70
570.55	44694.87
570.75	44993.87
570.95	44983.63
571.15	45008.21
571.35	44879.19
571.55	45278.54
571.75	44653.91
571.95	45315.40
572.15	44827.99
572.35	45186.38
572.55	44604.76
572.75	45053.26
572.95	45143.38
573.15	45395.28
573.35	45331.79
573.55	45077.84
573.75	45385.04
573.95	45397.32
574.15	45008.21
574.35	45331.79
574.55	44926.29
574.75	45292.88
574.95	45182.29
575.15	45284.68
575.34	45643.08
575.54	45671.75
575.74	45884.74
575.94	45667.66
576.14	45630.79
576.34	45917.51
576.54	45841.73
576.74	45931.84
576.94	45630.79
577.14	46103.87
577.34	46474.55
577.54	45624.65
577.74	46015.81
577.94	45970.75
578.14	45886.79
578.34	46452.03
578.54	45518.15
578.74	45622.60
578.94	46112.06
579.14	46077.25
579.34	45714.76
579.54	46538.04
579.74	46497.08
579.94	46226.75
580.13	46241.09
580.33	45946.18
580.53	46515.51
580.73	46822.71
580.93	46216.51
581.13	46439.74
581.33	46413.12
581.53	46933.30
581.73	46914.87
581.93	46894.39
582.13	46757.17
582.33	46587.19
582.53	46626.10
582.73	46875.96
582.92	47246.64
583.12	47545.64
583.32	47031.60
583.52	46902.58
583.72	47648.04
583.92	47174.96
584.12	47252.78
584.32	47609.13
584.52	47281.45
584.72	47365.42
584.92	47463.72
585.11	48078.11
585.31	47723.82
585.51	47871.27
585.71	47379.76
585.91	47852.84
586.11	47375.66
586.31	47619.37
586.51	47856.93
586.71	47684.90
586.91	47940.90
587.10	48129.31
587.30	48119.07
587.50	48014.63
587.70	48172.32
587.90	47772.97
588.10	48745.75
588.30	48205.09
588.50	48473.37
588.69	48373.02
588.89	48098.59
589.09	48530.72
589.29	48108.83
589.49	48446.75
589.69	48452.89
589.89	48551.20
590.08	48444.70
590.28	48332.06
590.48	48596.25
590.68	48618.78
590.88	48610.59
591.08	48510.24
591.28	48551.20
591.47	49329.42
591.67	48782.62
591.87	48715.03
592.07	48809.24
592.27	49214.74
592.47	48979.22
592.67	49063.19
592.86	48471.32
593.06	48905.49
593.26	49440.01
593.46	49276.18
593.66	49452.30
593.86	49485.07
594.05	49630.47
594.25	49550.60
594.45	49368.33
594.65	49421.58
594.85	49526.03
595.05	49720.59
595.24	50029.83
595.44	49765.64
595.64	49886.47
595.84	49935.62
596.04	50029.83
596.23	49818.89
596.43	50144.51
596.63	49667.34
596.83	50009.35
597.03	50453.76
597.22	50504.96
597.42	50279.68
597.62	50267.39
597.82	50345.22
598.02	50773.24
598.21	50679.03
598.41	50509.05
598.61	51033.33
598.81	50633.98
599.01	50685.18
599.20	50576.64
599.40	50566.40
599.60	50963.70
599.80	51082.48
600.00	50808.06
600.19	51614.96
600.39	50640.12
600.59	51047.67
600.79	50971.89
600.98	50930.93
601.18	51811.56
601.38	51262.71
601.58	51705.07
601.78	51336.43
601.97	51361.01
602.17	51860.71
602.37	51672.30
602.57	52311.27
602.76	52163.81
602.96	51739.88
603.16	52362.46
603.36	52024.55
603.55	52180.20
603.75	52114.66
603.95	52552.93
604.15	52190.44
604.34	52092.13
604.54	52255.97
604.74	52497.63
604.94	52761.82
605.13	52907.22
605.33	52212.96
605.53	52471.01
605.73	52989.14
605.92	52843.74
606.12	53036.25
606.32	52923.61
606.52	53126.36
606.71	52839.64
606.91	52917.46
607.11	52774.11
607.30	53247.19
607.50	53236.95
607.70	53451.98
607.90	53234.90
608.09	53284.05
608.29	53394.64
608.49	53837.00
608.68	53435.60
608.88	53814.47
609.08	53851.34
609.28	53884.11
609.47	53701.84
609.67	54105.29
609.87	53697.74
610.06	54052.04
610.26	53669.07
610.46	53851.34
610.66	54191.30
610.85	53990.60
611.05	54121.67
611.25	54115.53
611.44	54109.38
611.64	54080.71
611.84	54404.29
612.03	54392.00
612.23	54305.99
612.43	54551.74
612.62	53736.65
612.82	54766.78
613.02	54584.51
613.21	54404.29
613.41	54277.32
613.61	54604.99
613.80	54160.58
614.00	54836.41
614.20	54576.32
614.39	54889.66
614.59	55170.23
614.79	54498.50
614.98	54797.50
615.18	54789.31
615.38	54392.00
615.57	54535.36
615.77	55045.30
615.97	54725.82
616.16	54342.85
616.36	54777.02
616.56	54981.82
616.75	55262.39
616.95	54826.17
617.15	54826.17
617.34	55129.27
617.54	55026.87
617.74	55203.00
617.93	55653.55
618.13	54836.41
618.32	55149.75
618.52	55166.13
618.72	55479.47
618.91	55295.16
619.11	55106.74
619.31	55116.98
619.50	55096.50
619.70	55002.30
619.90	55280.82
620.09	55452.85
620.29	55203.00
620.48	55413.94
620.68	55499.95
620.88	54623.42
621.07	55579.82
621.27	55504.05
621.46	54985.91
621.66	55260.34
621.86	55157.94
622.05	55168.18
622.25	55698.61
622.44	55510.19
622.64	55219.38
622.84	55786.67
623.03	55108.79
623.23	55473.33
623.42	55645.36
623.62	55516.34
623.82	55893.16
624.01	55383.22
624.21	55514.29
624.40	55618.74
624.60	55596.21
624.80	55755.95
624.99	55399.60
625.19	54961.34
625.38	55801.00
625.58	55375.03
625.77	56102.06
625.97	55764.14
626.17	55231.67
626.36	55747.76
626.56	56124.58
626.75	55581.87
626.95	56261.80
627.14	55391.41
627.34	56087.72
627.54	55536.82
627.73	55882.92
627.93	55792.81
628.12	55733.42
628.32	55776.43
628.51	55948.46
628.71	55821.48
628.90	55626.93
629.10	56110.25
629.30	55948.46
629.49	56251.56
629.69	55823.53
629.88	56147.11
630.08	56081.58
630.27	56374.44
630.47	56005.80
630.66	56077.48
630.86	56474.79
631.05	55764.14
631.25	56505.51
631.44	56505.51
631.64	56222.89
631.84	56405.16
632.03	56777.89
632.23	56304.80
632.42	56132.78
632.62	56349.86
632.81	55680.17
633.01	56087.72
633.20	56317.09
633.40	56370.34
633.59	56390.82
633.79	56030.38
633.98	56566.94
634.18	56456.35
634.37	56728.73
634.57	56546.47
634.76	56732.83
634.96	56886.43
635.15	56673.44
635.35	56403.11
635.54	56337.57
635.74	56505.51
635.93	56874.14
636.13	56685.73
636.32	56736.93
636.52	56665.25
636.71	56646.82
636.91	56874.14
637.10	56802.46
637.30	56939.68
637.49	56618.14
637.69	57070.75
637.88	57048.22
638.08	56833.18
638.27	57025.69
638.46	57001.11
638.66	56607.90
638.85	57062.55
639.05	56728.73
639.24	57257.11
639.44	56587.42
639.63	57044.12
639.83	57431.19
640.02	56876.19
640.22	56921.24
640.41	57343.12
640.61	56720.54
640.80	57017.50
640.99	56984.73
641.19	57420.95
641.38	56939.68
641.58	57136.28
641.77	56931.48
641.97	57373.84
642.16	57318.55
642.36	57377.94
642.55	58152.07
642.74	57207.96
642.94	57689.23
643.13	57396.37
643.33	57670.80
643.52	57848.97
643.72	57889.93
643.91	57316.50
644.10	57619.60
644.30	58141.83
644.49	57697.42
644.69	57967.76
644.88	57678.99
645.08	57537.68
645.27	57244.82
645.46	57234.58
645.66	57744.53
645.85	57289.88
646.05	57988.24
646.24	58150.02
646.43	58170.50
646.63	57869.45
646.82	57816.21
647.02	57871.50
647.21	58012.81
647.40	57742.48
647.60	58043.53
647.79	57678.99
647.99	58086.54
648.18	57861.26
648.37	58262.66
648.57	58135.69
648.76	58457.22
648.96	57814.16
649.15	58489.99
649.34	58147.98
649.54	57791.63
649.73	57896.08
649.92	57611.41
650.12	58021.00
650.31	58246.28
650.51	58356.87
650.70	58430.60
650.89	57894.03
651.09	58473.60
651.28	58225.80
651.47	58371.21
651.67	58868.86
651.86	58446.98
652.06	57961.61
652.25	58592.39
652.44	57914.51
652.64	57758.86
652.83	58014.86
653.02	58123.40
653.22	58543.23
653.41	58053.77
653.60	57961.61
653.80	58111.11
653.99	58713.22
654.18	58000.52
654.38	58229.90
654.57	58336.39
654.76	58451.08
654.96	58543.23
655.15	58111.11
655.34	57943.18
655.54	57947.28
655.73	58367.11
655.92	58576.00
656.12	58543.23
656.31	58672.26
656.50	58365.06
656.70	58010.76
656.89	58197.13
657.08	58223.75
657.28	58039.43
657.47	58442.88
657.66	57975.95
657.86	57758.86
658.05	58240.14
658.24	58143.88
658.43	58471.56
658.63	58385.54
658.82	58406.02
659.01	58532.99
659.21	58522.76
659.40	58649.73
659.59	58201.22
659.79	58645.63
659.98	58612.87
660.17	58115.21
660.36	58309.77
660.56	58508.42
660.75	58399.88
660.94	58414.21
661.14	58233.99
661.33	58555.52
661.52	57861.26
661.71	58688.64
661.91	57889.93
662.10	58571.91
662.29	58711.17
662.49	58272.90
662.68	58242.18
662.87	58582.15
663.06	58467.46
663.26	58530.95
663.45	58715.26
663.64	58143.88
663.83	58670.21
664.03	58510.47
664.22	58627.20
664.41	58455.17
664.60	58070.15
664.80	58293.38
664.99	58023.05
665.18	58596.48
665.37	58641.54
665.57	58741.89
665.76	58426.50
665.95	58369.16
666.14	58537.09
666.34	58236.04
666.53	57920.65
666.72	58233.99
666.91	57799.82
667.11	58039.43
667.30	58287.24
667.49	57732.24
667.68	57922.70
667.87	57912.46
668.07	58424.45
668.26	57818.25
668.45	58274.95
668.64	57953.42
668.84	58358.92
669.03	58684.54
669.22	58397.83
669.41	57834.64
669.60	57963.66
669.80	57689.23
669.99	58156.17
670.18	57949.32
670.37	58014.86
670.57	57980.04
670.76	58166.41
670.95	58172.55
671.14	57891.98
671.33	57478.29
671.53	58111.11
671.72	58344.58
671.91	58418.31
672.10	57646.22
672.29	58260.62
672.48	57906.32
672.68	58594.43
672.87	57529.49
673.06	57627.79
673.25	57713.81
673.44	57689.23
673.64	57517.20
673.83	57474.20
674.02	57003.16
674.21	57185.43
674.40	57588.88
674.59	57324.69
674.79	57535.63
674.98	57373.84
675.17	57549.97
675.36	57134.23
675.55	57509.01
675.74	57017.50
675.94	57580.69
676.13	57293.97
676.32	57226.39
676.51	57914.51
676.70	57343.12
676.89	57083.03
677.08	57214.10
677.28	57103.51
677.47	57613.46
677.66	57750.67
677.85	57013.40
678.04	57158.81
678.23	57226.39
678.42	57119.90
678.62	57293.97
678.81	57353.36
679.00	56927.39
679.19	57492.63
679.38	57379.99
679.57	57230.49
679.76	57136.28
679.96	57558.16
680.15	57474.20
680.34	57005.21
680.53	56634.53
680.72	57365.65
680.91	57138.33
681.10	56718.49
681.29	57017.50
681.48	56958.11
681.68	56603.81
681.87	56388.77
682.06	56620.19
682.25	56636.58
682.44	56814.75
682.63	56429.73
682.82	56300.71
683.01	56894.62
683.20	56603.81
683.39	56558.75
683.59	55891.12
683.78	56280.23
683.97	55583.92
684.16	55776.43
684.35	56005.80
684.54	56272.04
684.73	56038.57
684.92	55551.15
685.11	56190.12
685.30	56171.69
685.49	56149.16
685.69	56237.22
685.88	56186.02
686.07	55917.74
686.26	55823.53
686.45	56126.63
686.64	55872.68
686.83	55647.41
687.02	55950.51
687.21	55893.16
687.40	55997.61
687.59	55631.02
687.78	55583.92
687.97	55827.63
688.16	55768.24
688.35	55448.75
688.54	55975.08
688.74	55719.09
688.93	55516.34
689.12	55203.00
689.31	55563.44
689.50	55305.40
689.69	54482.11
689.88	55246.00
690.07	55454.90
690.26	54944.95
690.45	55295.16
690.64	55295.16
690.83	54580.42
691.02	54779.07
691.21	54738.11
691.40	54672.57
691.59	55444.66
691.78	54957.24
691.97	55336.12
692.16	54691.01
692.35	55151.80
692.54	54940.86
692.73	54748.35
692.92	54785.21
693.11	54652.09
693.30	54635.71
693.49	54930.62
693.68	54742.20
693.87	54240.45
694.06	54250.69
694.25	54596.80
694.44	53683.40
694.63	54604.99
694.82	54670.53
695.01	54959.29
695.20	54359.23
695.39	54179.01
695.58	54791.36
695.77	54101.19
695.96	53673.16
696.15	54336.71
696.34	54129.86
696.53	54064.33
696.72	54269.12
696.91	54455.49
697.10	54426.82
697.29	54160.58
697.48	54465.73
697.67	54287.56
697.86	53507.28
698.05	53132.50
698.24	54154.44
698.43	53101.78
698.62	53556.43
698.81	53097.69
699.00	53269.72
699.19	53232.85
699.38	53806.28
699.57	53339.35
699.76	54156.49
699.95	53578.96
700.14	53441.74
700.32	53394.64
700.51	53298.39
700.70	53562.57
700.89	53710.03
701.08	53525.71
701.27	53007.58
701.46	53370.07
701.65	53421.26
701.84	53128.41
702.03	52843.74
702.22	53054.68
702.41	52942.04
702.60	53478.61
702.79	52716.76
702.98	52925.66
703.17	53157.08
703.35	53005.53
703.54	52536.54
703.73	52999.38
703.92	52274.40
704.11	52458.72
704.30	52450.53
704.49	52559.07
704.68	52018.41
704.87	52841.69
705.06	52126.95
705.25	52045.03
705.43	52178.15
705.62	52270.31
705.81	52344.03
706.00	52440.29
706.19	52202.72
706.38	51678.44
706.57	51766.51
706.76	51770.60
706.95	51959.02
707.14	51983.59
707.32	52098.28
707.51	51770.60
707.70	52018.41
707.89	51979.49
708.08	51698.92
708.27	52190.44
708.46	51852.52
708.65	51610.86
708.84	51768.55
709.02	51743.98
709.21	52196.58
709.40	51840.23
709.59	51610.86
709.78	51131.64
709.97	51895.53
710.16	51195.12
710.34	51512.56
710.53	51436.78
710.72	50830.58
710.91	51614.96
711.10	51586.28
711.29	51461.36
711.48	51752.17
711.66	51078.39
711.85	51295.47
712.04	51152.12
712.23	51141.88
712.42	51326.19
712.61	51145.97
712.80	51592.43
712.98	51039.48
713.17	51010.81
713.36	51096.82
713.55	50631.93
713.74	51141.88
713.93	51129.59
714.11	51037.43
714.30	50500.86
714.49	50943.22
714.68	50676.99
714.87	50701.56
715.06	50849.02
715.24	50502.91
715.43	50541.82
715.62	50103.56
715.81	49919.24
716.00	50500.86
716.18	50234.63
716.37	50175.23
716.56	50046.21
716.75	50695.42
716.94	50042.12
717.12	50328.83
717.31	50564.35
717.50	50048.26
717.69	50138.37
717.88	49845.51
718.06	50130.18
718.25	50287.87
718.44	49863.94
718.63	49607.95
718.82	49599.76
719.00	49497.36
719.19	49423.63
719.38	50218.24
719.57	49681.67
719.76	49730.83
719.94	48995.60
720.13	49327.38
720.32	49190.16
720.51	49007.89
720.69	49009.94
720.88	49267.98
721.07	49077.52
721.26	48823.58
721.44	48932.12
721.63	48862.49
721.82	48690.46
722.01	48870.68
722.20	49181.97
722.38	48461.08
722.57	48321.82
722.76	48696.60
722.95	48608.54
723.13	48321.82
723.32	48473.37
723.51	47795.49
723.70	48127.27
723.88	48479.52
724.07	48383.26
724.26	48358.69
724.44	47809.83
724.63	48260.38
724.82	48143.65
725.01	47469.87
725.19	48227.62
725.38	48024.87
725.57	48334.11
725.76	47777.06
725.94	48049.44
726.13	48028.96
726.32	47797.54
726.51	47498.54
726.69	48092.45
726.88	48168.22
727.07	47895.85
727.25	47621.42
727.44	47613.23
727.63	47633.71
727.82	47725.86
728.00	47365.42
728.19	47697.19
728.38	47592.75
728.56	47277.36
728.75	47940.90
728.94	47662.38
729.12	47916.32
729.31	47668.52
729.50	47660.33
729.69	47668.52
729.87	47666.47
730.06	47709.48
730.25	47586.60
730.43	48067.87
730.62	47600.94
730.81	47842.60
730.99	48110.88
731.18	47478.06
731.37	47668.52
731.55	47799.59
731.74	47660.33
731.93	47568.17
732.11	47367.47
732.30	47351.09
732.49	47297.84
732.67	47678.76
732.86	47226.16
733.05	47828.26
733.23	47107.38
733.42	47715.62
733.61	47230.26
733.79	47809.83
733.98	47953.19
734.17	47449.39
734.35	47537.45
734.54	47439.15
734.73	47535.40
734.91	47338.80
735.10	46933.30
735.29	47547.69
735.47	47537.45
735.66	47637.80
735.84	46970.16
736.03	47150.38
736.22	47668.52
736.40	47494.44
736.59	47473.96
736.78	47322.41
736.96	47322.41
737.15	46970.16
737.33	47232.30
737.52	46939.44
737.71	46986.55
737.89	47275.31
738.08	46835.00
738.27	46800.18
738.45	47166.77
738.64	47326.51
738.82	46863.67
739.01	47119.66
739.20	47009.07
739.38	46978.36
739.57	46810.42
739.75	46814.52
739.94	46921.01
740.13	47228.21
740.31	46744.89
740.50	46818.61
740.68	46794.04
740.87	46896.44
741.06	46996.79
741.24	46789.94
741.43	46533.95
741.61	46546.23
741.80	46572.86
741.99	46734.65
742.17	46312.77
742.36	46511.42
742.54	46501.18
742.73	46468.41
742.91	47002.93
743.10	46667.06
743.29	47031.60
743.47	46722.36
743.66	46585.15
743.84	46615.86
744.03	46710.07
744.21	46740.79
744.40	46632.25
744.59	46482.75
744.77	46366.01
744.96	46746.93
745.14	46396.73
745.33	46374.20
745.51	46415.16
745.70	46392.64
745.88	46757.17
746.07	46568.76
746.26	46003.52
746.44	46337.34
746.63	46712.12
746.81	46492.99
747.00	46083.39
747.18	46282.05
747.37	45899.08
747.55	46507.32
747.74	45993.28
747.92	45958.47
748.11	46116.16
748.29	46503.23
748.48	45882.69
748.66	45921.60
748.85	45698.37
749.03	46220.61
749.22	46447.93
749.41	45935.94
749.59	46083.39
749.78	45520.20
749.96	45423.95
750.15	45966.66
750.33	45956.42
750.52	45626.70
750.70	45925.70
750.89	45579.59
751.07	45012.31
751.26	45469.00
751.44	45475.15
751.63	45507.91
751.81	45000.02
752.00	45417.80
752.18	45477.19
752.37	45389.13
752.55	45223.25
752.74	45241.68
752.92	45198.67
753.10	45462.86
753.29	45120.85
753.47	44932.43
753.66	44877.14
753.84	45190.48
754.03	45266.25
754.21	44883.28
754.40	45200.72
754.58	45309.26
754.77	44848.47
754.95	44627.29
755.14	44629.34
755.32	44832.08
755.51	44537.18
755.69	44653.91
755.88	45204.81
756.06	44946.77
756.24	44817.75
756.43	44533.08
756.61	44283.23
756.80	44596.57
756.98	44373.34
757.17	44342.62
757.35	44311.90
757.54	44799.32
757.72	45163.85
757.90	44492.12
758.09	44203.36
758.27	44762.45
758.46	44356.96
758.64	44692.82
758.83	44668.25
759.01	44524.89
759.19	44457.31
759.38	44424.54
759.56	44479.83
759.75	44780.88
759.93	44139.87
760.12	44260.70
760.30	44404.06
760.48	44060.00
760.67	44326.24
760.85	44229.98
761.04	44557.66
761.22	44014.94
761.40	44266.84
761.59	43910.50
761.77	43804.00
761.96	44113.25
762.14	43980.13
762.32	43754.85
762.51	43691.37
762.69	43894.11
762.88	43992.42
763.06	43890.02
763.24	44012.90
763.43	44100.96
763.61	43840.87
763.80	43738.47
763.98	43615.59
764.16	43363.69
764.35	43593.06
764.53	43150.70
764.72	43558.25
764.90	43984.22
765.08	43656.55
765.27	43369.83
765.45	43384.17
765.63	42812.79
765.82	43545.96
766.00	43101.55
766.18	43302.25
766.37	43511.14
766.55	42972.53
766.74	43275.63
766.92	43117.93
767.10	42995.06
767.29	43048.30
767.47	42493.30
767.65	42972.53
767.84	42806.64
768.02	42820.98
768.20	42716.53
768.39	43128.17
768.57	43029.87
768.75	43124.08
768.94	42954.10
769.12	42919.28
769.30	42419.58
769.49	42519.93
769.67	42503.54
769.85	42249.60
770.04	42438.01
770.22	41962.88
770.40	42204.54
770.59	42376.57
770.77	42403.19
770.95	42339.71
771.14	41942.40
771.32	41809.28
771.50	41608.58
771.69	42169.72
771.87	41934.21
772.05	41555.33
772.24	41575.81
772.42	42194.30
772.60	41880.96
772.78	41794.95
772.97	41461.13
773.15	42050.94
773.33	41633.16
773.52	41809.28
773.70	42063.23
773.88	42331.51
774.07	41823.62
774.25	41842.05
774.43	41809.28
774.61	41964.93
774.80	41610.63
774.98	41708.93
775.16	41788.80
775.34	41786.75
775.53	41500.04
775.71	42024.32
775.89	41751.94
776.08	41911.68
776.26	41866.63
776.44	41942.40
776.62	41432.46
776.81	41592.20
776.99	42151.29
777.17	41923.97
777.35	42403.19
777.54	42351.99
777.72	41723.27
777.90	41907.58
778.08	42474.87
778.27	42153.34
778.45	42407.29
778.63	42564.98
778.81	42159.48
779.00	42775.92
779.18	42184.06
779.36	42653.05
779.54	42284.41
779.73	42075.52
779.91	42732.92
780.09	42505.59
780.27	42681.72
780.46	42622.33
780.64	42960.24
780.82	42538.36
781.00	42726.77
781.19	42732.92
781.37	42917.23
781.55	42820.98
781.73	43097.45
781.91	42481.02
782.10	42718.58
782.28	42777.97
782.46	42972.53
782.64	43089.26
782.82	42773.88
783.01	43337.07
783.19	43013.49
783.37	43400.55
783.55	42685.81
783.74	43279.72
783.92	42573.17
784.10	43613.54
784.28	43464.04
784.46	43025.78
784.64	42726.77
784.83	42837.36
785.01	43066.73
785.19	43228.52
785.37	42937.71
785.55	42820.98
785.74	42863.99
785.92	42370.43
786.10	43099.50
786.28	42913.14
786.46	42665.33
786.64	42413.43
786.83	42847.60
787.01	42960.24
787.19	42921.33
787.37	42681.72
787.55	42784.12
787.74	42655.09
787.92	42593.65
788.10	42485.11
788.28	42333.56
788.46	42562.93
788.64	42468.73
788.82	42538.36
789.01	42714.48
789.19	42626.42
789.37	42087.81
789.55	42411.38
789.73	42253.69
789.91	41813.38
790.09	42030.46
790.28	42073.47
790.46	41555.33
790.64	41977.22
790.82	41774.47
791.00	41688.45
791.18	41989.50
791.36	41885.06
791.55	41819.52
791.73	41565.57
791.91	41074.06
792.09	41670.02
792.27	41461.13
792.45	41252.23
792.63	41350.54
792.81	41174.41
793.00	41012.62
793.18	41125.26
793.36	40824.21
793.54	41387.40
793.72	40791.44
793.90	40762.77
794.08	40512.92
794.26	40879.50
794.44	40281.50
794.62	40244.63
794.81	40285.59
794.99	40244.63
795.17	40498.58
795.35	40076.70
795.53	40387.99
795.71	40261.02
795.89	39988.64
796.07	40068.51
796.25	39699.87
796.43	39777.70
796.61	39415.21
796.80	39366.06
796.98	39048.62
797.16	39263.66
797.34	39241.13
797.52	39091.63
797.70	39298.47
797.88	38870.45
798.06	38657.46
798.24	38675.89
798.42	38694.32
798.60	38991.28
798.78	38636.98
798.96	38868.40
799.14	38630.83
799.32	38561.20
799.51	37864.89
799.69	38438.33
799.87	38303.16
800.05	38213.05
800.23	37932.48
800.41	37901.76
800.59	37801.41
800.77	37862.85
800.95	37434.82
801.13	37332.42
801.31	37647.81
801.49	37547.46
801.67	37344.71
801.85	37557.70
802.03	37246.41
802.21	37074.38
802.39	36799.95
802.57	37242.31
802.75	36656.59
802.93	36865.49
803.11	36775.37
803.29	36599.25
803.47	35964.38
803.65	36380.12
803.83	36148.70
804.01	36416.98
804.19	36265.43
804.37	36226.52
804.55	36142.55
804.73	35956.19
804.91	36156.89
805.09	35579.36
805.27	35321.32
805.45	35655.14
805.63	35818.97
805.81	35925.47
805.99	35685.86
806.17	35622.37
806.35	35450.34
806.53	35554.79
806.71	35659.23
806.89	35429.86
807.07	35169.77
807.25	35130.86
807.43	34919.92
807.61	35558.88
807.79	34940.39
807.97	34665.97
808.15	34631.15
808.33	34491.89
808.51	34706.93
808.69	34508.27
808.87	34561.52
809.05	34536.94
809.23	34063.86
809.41	33914.36
809.59	34213.37
809.77	34260.47
809.95	33506.82
810.13	33830.40
810.31	34088.44
810.49	33859.07
810.67	33592.83
810.84	33740.29
811.02	33936.89
811.20	33523.20
811.38	34051.58
811.56	33420.80
811.74	33416.71
811.92	33402.37
812.10	33510.91
812.28	33654.27
812.46	33553.92
812.64	33472.00
812.82	32675.34
813.00	33013.26
813.18	33068.55
813.36	32806.41
813.53	32861.71
813.71	32665.10
813.89	32978.44
814.07	32392.72
814.25	32855.56
814.43	32507.41
814.61	32587.28
814.79	32464.40
814.97	32630.29
815.15	32697.87
815.33	31997.46
815.50	32091.67
815.68	32474.64
815.86	32466.45
816.04	32175.64
816.22	31731.23
816.40	31614.49
816.58	32003.61
816.76	31432.22
816.94	31503.90
817.11	31311.39
817.29	31708.70
817.47	31383.07
817.65	31630.88
817.83	31403.55
818.01	31346.21
818.19	31153.70
818.37	31018.53
818.54	30924.33
818.72	30774.83
818.90	31065.64
819.08	30651.95
819.26	31047.21
819.44	31036.97
819.62	30830.12
819.80	30469.68
819.97	30709.29
820.15	30549.55
820.33	30457.39
820.51	30668.33
820.69	30109.24
820.87	30672.43
821.05	30783.02
821.22	30543.41
821.40	30221.87
821.58	30043.70
821.76	30359.09
821.94	30293.55
822.12	30209.59
822.29	30199.35
822.47	30127.67
822.65	30137.91
822.83	30135.86
823.01	29849.14
823.19	29886.01
823.36	29627.96
823.54	29398.59
823.72	29675.07
823.90	29421.12
824.08	29361.73
824.25	29673.02
824.43	29390.40
824.61	29519.42
824.79	29638.20
824.97	29523.52
825.15	29294.14
825.32	29505.09
825.50	29050.44
825.68	29318.72
825.86	29576.76
826.04	29128.26
826.21	28841.54
826.39	28898.89
826.57	29056.58
826.75	29046.34
826.93	29001.29
827.10	28857.93
827.28	28907.08
827.46	29040.20
827.64	28759.63
827.81	28436.05
827.99	28434.00
828.17	28452.43
828.35	28407.37
828.53	28298.83
828.70	28196.43
828.88	28139.09
829.06	28159.57
829.24	28431.95
829.41	28399.18
829.59	28423.76
829.77	28245.58
829.95	28178.00
830.12	27809.37
830.30	28229.20
830.48	28065.36
830.66	28008.02
830.84	28098.13
831.01	27551.32
831.19	27592.28
831.37	27668.06
831.55	27547.23
831.72	27713.11
831.90	27819.61
832.08	27532.89
832.25	27117.15
832.43	27561.56
832.61	27330.14
832.79	27231.84
832.96	27123.30
833.14	27086.43
833.32	27418.21
833.50	27330.14
833.67	27352.67
833.85	27254.37
834.03	27242.08
834.20	27272.80
834.38	27117.15
834.56	27235.94
834.74	26861.16
834.91	26918.50
835.09	26838.63
835.27	26517.10
835.44	26791.53
835.62	26429.04
835.80	26635.88
835.98	26881.64
836.15	26945.12
836.33	26558.06
836.51	26787.43
836.68	26373.74
836.86	26662.51
837.04	26660.46
837.21	26381.93
837.39	26504.81
837.57	26635.88
837.75	26203.76
837.92	26312.30
838.10	26386.03
838.28	26123.89
838.45	26037.87
838.63	26197.62
838.81	26273.39
838.98	25777.78
839.16	25935.48
839.34	25781.88
839.51	25802.36
839.69	25706.10
839.87	25699.96
840.04	25699.96
840.22	25859.70
840.40	25536.12
840.57	25429.63
840.75	25808.50
840.93	25515.64
841.10	25507.45
841.28	25665.14
841.46	25560.70
841.63	25904.76
841.81	25538.17
841.98	25419.39
842.16	25329.28
842.34	25493.12
842.51	25202.30
842.69	25392.76
842.87	25200.26
843.04	25257.60
843.22	24704.65
843.40	25058.95
843.57	24917.64
843.75	25306.75
843.92	25034.37
844.10	24891.01
844.28	25087.62
844.45	24655.50
844.63	25009.79
844.81	24821.38
844.98	25087.62
845.16	24835.72
845.33	24788.61
845.51	24807.05
845.69	24680.07
845.86	24540.81
846.04	24272.53
846.21	24393.36
846.39	24696.46
846.57	24317.58
846.74	24501.90
846.92	24297.10
847.09	24245.90
847.27	24272.53
847.45	24309.39
847.62	24372.88
847.80	24479.37
847.97	24432.27
848.15	24004.24
848.32	23641.75
848.50	24104.59
848.68	23760.53
848.85	23957.14
849.03	23762.58
849.20	24077.97
849.38	23598.74
849.56	23801.49
849.73	23864.98
849.91	23813.78
850.08	23985.81
850.26	23516.83
850.43	23666.33
850.61	23520.92
850.78	23307.93
850.96	23506.59
851.14	23195.29
851.31	23752.34
851.49	23586.46
851.66	23391.90
851.84	23387.80
852.01	23463.58
852.19	23545.50
852.36	23244.45
852.54	23162.53
852.71	23058.08
852.89	23223.97
853.07	23223.97
853.24	23248.54
853.42	23324.32
853.59	22959.78
853.77	23277.21
853.94	23000.74
854.12	23123.62
854.29	22615.72
854.47	23142.05
854.64	23131.81
854.82	22898.34
854.99	23209.63
855.17	22607.53
855.34	22726.31
855.52	22628.01
855.69	23174.81
855.87	22525.61
856.04	22476.46
856.22	22568.62
856.39	22298.28
856.57	22521.51
856.74	22458.03
856.92	22453.93
857.09	22236.84
857.27	22279.85
857.44	22523.56
857.62	22347.44
857.79	22351.53
857.97	22507.18
858.14	22296.24
858.32	22402.73
858.49	22273.71
858.67	22015.66
858.84	22165.17
859.02	22021.81
859.19	21851.83
859.37	22034.10
859.54	22060.72
859.72	22380.20
859.89	21743.28
860.06	22062.77
860.24	21784.24
860.41	22050.48
860.59	21472.95
860.76	21804.72
860.94	21458.62
861.11	22277.80
861.29	21714.61
861.46	21784.24
861.64	21628.60
861.81	21116.61
861.98	21542.58
862.16	21360.31
862.33	21606.07
862.51	21526.20
862.68	21382.84
862.86	21397.18
863.03	21143.23
863.21	21366.46
863.38	21143.23
863.55	21290.68
863.73	21169.85
863.90	20958.91
864.08	21046.97
864.25	20987.58
864.43	21085.89
864.60	20864.71
864.77	20993.73
864.95	20809.41
865.12	20801.22
865.30	20924.10
865.47	20889.28
865.64	20692.68
865.82	20842.18
865.99	20719.30
866.17	20700.87
866.34	20936.38
866.51	20457.16
866.69	20657.86
866.86	20915.90
867.04	20289.23
867.21	20459.21
867.38	20379.34
867.56	20299.47
867.73	20070.09
867.91	20217.55
868.08	20209.36
868.25	20156.11
868.43	20012.75
868.60	19848.91
868.78	20006.61
868.95	20408.01
869.12	20076.24
869.30	19828.43
869.47	19998.41
869.64	19918.54
869.82	19793.62
869.99	19873.49
870.16	19898.06
870.34	19644.12
870.51	19900.11
870.69	19762.90
870.86	19728.08
871.03	19807.95
871.21	19275.48
871.38	19756.75
871.55	19707.60
871.73	19367.64
871.90	19494.61
872.07	19203.80
872.25	19228.38
872.42	19410.65
872.59	19267.29
872.77	19433.18
872.94	19298.01
873.11	19351.26
873.29	19347.16
873.46	19228.38
873.63	18798.31
873.81	19189.47
873.98	18923.23
874.15	19132.12
874.33	18652.90
874.50	18816.74
874.67	19132.12
874.85	18730.72
875.02	19015.39
875.19	18491.11
875.37	18679.52
875.54	18319.08
875.71	18511.59
875.88	18620.13
876.06	18587.36
876.23	18298.60
876.40	18401.00
876.58	18570.98
876.75	18353.90
876.92	18171.63
877.10	18104.04
877.27	18093.80
877.44	18099.95
877.61	18054.89
877.79	17948.40
877.96	17807.09
878.13	17950.45
878.31	17905.39
878.48	17770.22
878.65	18114.28
878.82	17710.83
879.00	17565.43
879.17	17721.07
879.34	17796.85
879.51	17555.19
879.69	17600.24
879.86	17413.88
880.03	17862.38
880.21	17618.68
880.38	17551.09
880.55	17501.94
880.72	17665.78
880.90	17426.17
881.07	17186.55
881.24	17512.18
881.41	17585.91
881.59	17166.07
881.76	17321.72
881.93	17186.55
882.10	17071.87
882.28	17071.87
882.45	17243.90
882.62	17159.93
882.79	17303.29
882.96	17047.29
883.14	16869.12
883.31	17026.81
883.48	16998.14
883.65	16946.94
883.83	17131.26
884.00	16760.58
884.17	16932.61
884.34	17067.77
884.51	16705.28
884.69	16852.73
884.86	16776.96
885.03	16946.94
885.20	16576.26
885.38	16768.77
885.55	16807.68
885.72	16715.52
885.89	16488.20
886.06	16660.23
886.24	16699.14
886.41	16398.09
886.58	16688.90
886.75	16703.23
886.92	16463.62
887.10	16510.72
887.27	16236.30
887.44	16328.45
887.61	16484.10
887.78	16355.08
887.95	16654.08
888.13	16469.76
888.30	16451.33
888.47	16461.57
888.64	16267.02
888.81	16299.78
888.99	16203.53
889.16	16076.55
889.33	16353.03
889.50	16099.08
889.67	16084.75
889.84	16054.03
890.01	15922.96
890.19	16240.39
890.36	16117.51
890.53	15867.66
890.70	15716.11
890.87	15888.14
891.04	15832.85
891.22	15615.76
891.39	15814.41
891.56	15693.58
891.73	15615.76
891.90	15529.75
892.07	15464.21
892.24	15542.03
892.42	15533.84
892.59	15425.30
892.76	15439.64
892.93	15382.29
893.10	15496.98
893.27	15593.23
893.44	15167.26
893.61	15267.61
893.79	15415.06
893.96	15499.03
894.13	15585.04
894.30	15353.62
894.47	15320.85
894.64	15562.51
894.81	15415.06
894.98	15525.65
895.15	15453.97
895.33	15413.01
895.50	15152.92
895.67	15507.22
895.84	15286.04
896.01	15075.10
896.18	15181.59
896.35	15245.08
896.52	15193.88
896.69	15189.78
896.86	15378.20
897.04	15380.25
897.21	15060.76
897.38	14903.07
897.55	15175.45
897.72	15034.14
897.89	15105.82
898.06	15173.40
898.23	15294.23
898.40	15202.07
898.57	15118.11
898.74	15062.81
898.91	15068.95
899.08	15159.06
899.26	14894.88
899.43	14987.04
899.60	14970.65
899.77	15077.15
899.94	14960.41
900.11	14960.41
900.28	14802.72
900.45	14915.36
900.62	14806.81
900.79	15236.89
900.96	14825.25
901.13	15066.91
901.30	14987.04
901.47	14966.56
901.64	15081.24
901.81	14997.28
901.98	14993.18
902.15	15021.85
902.32	14954.27
902.49	14976.80
902.66	14995.23
902.83	15083.29
903.01	15025.95
903.18	14976.80
903.35	15134.49
903.52	14984.99
903.69	15157.02
903.86	15052.57
904.03	14798.62
904.20	15167.26
904.37	15105.82
904.54	15107.87
904.71	14870.30
904.88	14825.25
905.05	14997.28
905.22	14984.99
905.39	14993.18
905.56	14929.69
905.73	14974.75
905.90	14782.24
906.07	15021.85
906.24	14765.85
906.41	14772.00
906.58	14984.99
906.75	14966.56
906.92	14948.12
907.09	14862.11
907.26	14821.15
907.43	14767.90
907.60	14739.23
907.77	14905.12
907.93	14919.45
908.10	14690.08
908.27	14847.77
908.44	14663.46
908.61	14743.33
908.78	14724.90
908.95	14728.99
909.12	14673.70
909.29	14569.25
909.46	14671.65
909.63	14651.17
909.80	14716.70
909.97	14679.84
910.14	14677.79
910.31	14739.23
910.48	14657.31
910.65	14657.31
910.82	14628.64
910.99	14786.33
911.16	14833.44
911.33	14737.18
911.50	14610.21
911.66	14681.89
911.83	14638.88
912.00	14454.56
912.17	14233.38
912.34	14352.16
912.51	14290.73
912.68	14266.15
912.85	14268.20
913.02	14384.93
913.19	14223.14
913.36	14356.26
913.53	14251.81
913.70	14210.86
913.86	14356.26
914.03	14239.53
914.20	14217.00
914.37	14399.27
914.54	14202.66
914.71	14186.28
914.88	14233.38
915.05	14114.60
915.22	14135.08
915.39	13834.03
915.55	13934.38
915.72	13909.80
915.89	13834.03
916.06	13659.95
916.23	13846.32
916.40	13713.20
916.57	13598.51
916.74	13717.29
916.91	13717.29
917.07	13498.16
917.24	13410.10
917.41	13420.34
917.58	13602.61
917.75	13410.10
917.92	13457.20
918.09	13307.70
918.26	13442.87
918.42	13498.16
918.59	13477.68
918.76	13240.12
918.93	13006.65
919.10	13119.29
919.27	13123.38
919.44	13199.16
919.60	13381.43
919.77	13041.46
919.94	12904.25
920.11	13078.33
920.28	12904.25
920.45	12904.25
920.61	12859.20
920.78	12840.76
920.95	12814.14
921.12	12885.82
921.29	12654.40
921.46	12715.84
921.62	12623.68
921.79	12713.79
921.96	12668.73
922.13	12521.28
922.30	12521.28
922.47	12273.48
922.63	12468.03
922.80	12277.57
922.97	12156.74
923.14	11962.19
923.31	11982.67
923.47	12099.40
923.64	12220.23
923.81	11906.89
923.98	12107.59
924.15	11851.60
924.32	12021.58
924.48	12029.77
924.65	12037.96
924.82	11724.62
924.99	11708.24
925.15	11644.75
925.32	11722.57
925.49	11544.40
925.66	11476.82
925.83	11564.88
925.99	11349.84
926.16	11427.67
926.33	11517.78
926.50	11247.44
926.67	11304.79
926.83	11302.74
927.00	11325.27
927.17	11140.95
927.34	11147.09
927.50	11132.76
927.67	11288.40
927.84	11085.65
928.01	10985.30
928.17	10893.15
928.34	10856.28
928.51	10829.66
928.68	10973.02
928.84	10858.33
929.01	10604.38
929.18	10446.69
929.35	10571.61
929.51	10712.92
929.68	10504.03
929.85	10485.60
930.02	10471.26
930.18	10346.34
930.35	10381.15
930.52	10440.54
930.69	10172.26
930.85	10239.84
931.02	10164.07
931.19	10047.33
931.36	10016.62
931.52	10016.62
931.69	9910.12
931.86	10026.86
932.02	9944.94
932.19	9760.62
932.36	10045.29
932.53	9754.48
932.69	9787.24
932.86	9805.67
933.03	9766.76
933.19	9619.31
933.36	9738.09
933.53	9664.36
933.70	9449.33
933.86	9451.38
934.03	9344.88
934.20	9348.98
934.36	9402.22
934.53	9144.18
934.70	8978.30
934.86	9211.76
935.03	8933.24
935.20	8931.19
935.36	8847.22
935.53	8691.58
935.70	8765.31
935.86	8755.07
936.03	8554.37
936.20	8533.89
936.36	8267.65
936.53	8447.87
936.70	8548.22
936.86	8466.30
937.03	8267.65
937.20	8210.31
937.36	8277.89
937.53	7894.92
937.70	7978.89
937.86	7841.67
938.03	7862.15
938.20	7835.53
938.36	7538.57
938.53	7417.74
938.70	7192.47
938.86	7427.98
939.03	7292.82
939.20	7249.81
939.36	7171.99
939.53	6934.42
939.70	7262.10
939.86	6811.54
940.03	6684.57
940.19	6692.76
940.36	6731.67
940.53	6641.56
940.69	6647.71
940.86	6705.05
941.03	6383.52
941.19	6334.37
941.36	6348.70
941.52	6350.75
941.69	6109.09
941.86	6150.05
942.02	6352.80
942.19	6234.02
942.35	6123.43
942.52	5953.45
942.69	5801.90
942.85	5799.85
943.02	5812.14
943.18	5808.04
943.35	5771.18
943.52	5599.15
943.68	5672.87
943.85	5656.49
944.01	5744.55
944.18	5529.52
944.35	5525.42
944.51	5504.94
944.68	5355.44
944.84	5388.21
945.01	5406.64
945.17	5400.49
945.34	5285.81
945.51	5388.21
945.67	5386.16
945.84	5367.73
946.00	5218.22
946.17	5294.00
946.33	5279.66
946.50	5345.20
946.67	5263.28
946.83	5212.08
947.00	5265.33
947.16	5296.05
947.33	5255.09
947.49	5330.86
947.66	5371.82
947.82	5294.00
947.99	5216.18
948.16	5269.42
948.32	5160.88
948.49	5218.22
948.65	5291.95
948.82	5281.71
948.98	5269.42
949.15	5343.15
949.31	5339.05
949.48	5242.80
949.64	5193.65
949.81	5226.42
949.97	5240.75
950.14	5420.97
950.30	5142.45
950.47	5277.62
950.63	5167.03
950.80	5414.83
950.96	5302.19
951.13	5257.14
951.30	5294.00
951.46	5164.98
951.63	5416.88
951.79	5337.01
951.96	5404.59
952.12	5365.68
952.29	5275.57
952.45	5396.40
952.62	5525.42
952.78	5408.69
952.94	5283.76
953.11	5277.62
953.27	5160.88
953.44	5558.19
953.60	5386.16
953.77	5375.92
953.93	5285.81
954.10	5404.59
954.26	5396.40
954.43	5375.92
954.59	5363.63
954.76	5558.19
954.92	5447.60
955.09	5486.51
955.25	5314.48
955.42	5375.92
955.58	5486.51
955.75	5451.69
955.91	5347.25
956.07	5564.33
956.24	5429.17
956.40	5572.52
956.57	5443.50
956.73	5459.88
956.90	5386.16
957.06	5369.77
957.23	5390.25
957.39	5353.39
957.56	5461.93
957.72	5382.06
957.88	5246.90
958.05	5595.05
958.21	5550.00
958.38	5474.22
958.54	5369.77
958.71	5441.45
958.87	5412.78
959.03	5445.55
959.20	5509.04
959.36	5201.84
959.53	5429.17
959.69	5300.14
959.85	5345.20
960.02	5355.44
960.18	5433.26
960.35	5373.87
960.51	5554.09
960.68	5384.11
960.84	5457.84
961.00	5334.96
961.17	5318.57
961.33	5302.19
961.50	5504.94
961.66	5435.31
961.82	5418.93
961.99	5355.44
962.15	5443.50
962.31	5443.50
962.48	5326.77
962.64	5373.87
962.81	5515.18
962.97	5416.88
963.13	5541.80
963.30	5275.57
963.46	5267.38
963.62	5377.97
963.79	5341.10
963.95	5420.97
964.12	5261.23
964.28	5369.77
964.44	5328.81
964.61	5328.81
964.77	5250.99
964.93	5375.92
965.10	5314.48
965.26	5230.51
965.42	5359.53
965.59	5255.09
965.75	5298.10
965.92	5330.86
966.08	5302.19
966.24	5337.01
966.41	5308.34
966.57	5273.52
966.73	5388.21
966.90	5353.39
967.06	5175.22
967.22	5355.44
967.39	5132.21
967.55	5341.10
967.71	5207.98
967.88	5300.14
968.04	5138.35
968.20	5109.68
968.37	5130.16
968.53	5193.65
968.69	5087.15
968.85	5189.55
969.02	5105.59
969.18	5142.45
969.34	5083.06
969.51	5103.54
969.67	5269.42
969.83	5195.70
970.00	5003.19
970.16	5101.49
970.32	5033.91
970.48	5130.16
970.65	5007.28
970.81	4949.94
970.97	5066.67
971.14	4853.69
971.30	5064.63
971.46	4992.95
971.63	5103.54
971.79	5187.50
971.95	4843.45
972.11	4892.60
972.28	4951.99
972.44	5113.78
972.60	4958.13
972.76	4931.51
972.93	4908.98
973.09	5056.43
973.25	5009.33
973.42	4837.30
973.58	4988.85
973.74	5015.48
973.90	4937.65
974.07	4888.50
974.23	4808.63
974.39	4941.75
974.55	4763.58
974.72	5025.72
974.88	4765.62
975.04	4847.54
975.20	4761.53
975.37	5072.82
975.53	4743.10
975.69	4765.62
975.85	4753.34
976.01	4779.96
976.18	4763.58
976.34	4765.62
976.50	4702.14
976.66	4667.32
976.83	4771.77
976.99	4798.39
977.15	4665.27
977.31	4665.27
977.47	4681.66
977.64	4532.15
977.80	4624.31
977.96	4704.18
978.12	4515.77
978.29	4603.83
978.45	4585.40
978.61	4632.51
978.77	4585.40
978.93	4577.21
979.10	4595.64
979.26	4483.00
979.42	4505.53
979.58	4388.80
979.74	4429.76
979.91	4569.02
980.07	4509.63
980.23	4378.56
980.39	4493.24
980.55	4411.32
980.71	4407.23
980.88	4413.37
981.04	4521.92
981.20	4358.08
981.36	4433.85
981.52	4403.13
981.68	4327.36
981.85	4390.84
982.01	4284.35
982.17	4319.17
982.33	4423.61
982.49	4523.96
982.65	4292.54
982.82	4411.32
982.98	4265.92
983.14	4306.88
983.30	4308.93
983.46	4378.56
983.62	4323.26
983.79	4179.90
983.95	4132.80
984.11	4200.38
984.27	4304.83
984.43	4241.34
984.59	4202.43
984.75	4192.19
984.91	4138.94
985.08	4243.39
985.24	4089.79
985.40	4128.70
985.56	4079.55
985.72	4036.55
985.88	4288.45
986.04	4036.55
986.20	4087.75
986.37	4114.37
986.53	3997.64
986.69	4208.58
986.85	3891.14
987.01	4065.22
987.17	4106.18
987.33	3991.49
987.49	4048.83
987.65	4071.36
987.82	3985.35
987.98	3971.01
988.14	3928.00
988.30	3968.96
988.46	3964.87
988.62	3993.54
988.78	3839.94
988.94	3946.44
989.10	3993.54
989.26	3833.80
989.42	3792.84
989.59	3946.44
989.75	3923.91
989.91	3956.68
990.07	3725.26
990.23	3786.69
990.39	3854.28
990.55	3835.85
990.71	3831.75
990.87	3827.65
991.03	3755.97
991.19	3766.21
991.35	3737.54
991.51	3768.26
991.67	3899.33
991.83	3801.03
992.00	3782.60
992.16	3731.40
992.32	3743.69
992.48	3696.58
992.64	3579.85
992.80	3764.17
992.96	3860.42
993.12	3569.61
993.28	3780.55
993.44	3508.17
993.60	3626.95
993.76	3665.86
993.92	3669.96
994.08	3698.63
994.24	3663.82
994.40	3684.30
994.56	3688.39
994.72	3575.75
994.88	3581.90
995.04	3608.52
995.20	3510.22
995.36	3661.77
995.52	3614.66
995.68	3436.49
995.84	3502.03
996.00	3571.66
996.16	3559.37
996.32	3360.72
996.48	3391.44
996.64	3594.19
996.80	3403.72
996.96	3446.73
997.12	3534.79
997.28	3481.55
997.44	3391.44
997.60	3477.45
997.76	3395.53
997.92	3547.08
998.08	3508.17
998.24	3295.18
998.40	3379.15
998.56	3477.45
998.72	3284.94
998.88	3420.11
999.04	3358.67
999.20	3444.68
999.36	3276.75
999.52	3510.22
999.68	3356.62
999.84	3350.48
1000.00	3264.46
1000.16	3368.91
1000.32	3182.54
1000.48	3459.02
1000.64	3284.94
1000.80	3149.78
1000.95	3176.40
1001.11	3317.71
1001.27	3272.65
1001.43	3260.37
1001.59	3131.34
1001.75	3293.13
1001.91	3184.59
1002.07	3190.74
1002.23	3182.54
1002.39	3074.00
1002.55	3209.17
1002.71	3215.31
1002.87	3057.62
1003.03	3186.64
1003.19	3076.05
1003.34	3200.98
1003.50	3071.95
1003.66	3178.45
1003.82	3172.30
1003.98	3108.82
1004.14	3076.05
1004.30	3166.16
1004.46	3117.01
1004.62	3022.80
1004.78	3071.95
1004.94	3033.04
1005.09	3082.19
1005.25	2957.27
1005.41	3026.90
1005.57	3076.05
1005.73	3119.06
1005.89	2924.50
1006.05	2996.18
1006.21	2990.03
1006.37	2953.17
1006.52	2987.99
1006.68	2973.65
1006.84	3049.43
1007.00	2867.16
1007.16	2973.65
1007.32	2904.02
1007.48	3002.32
1007.64	2979.79
1007.79	2922.45
1007.95	2813.91
1008.11	2906.07
1008.27	2953.17
1008.43	2795.48
1008.59	2885.59
1008.75	2942.93
1008.91	2869.20
1009.06	2820.05
1009.22	2801.62
1009.38	2795.48
1009.54	2770.90
1009.70	2752.47
1009.86	2772.95
1010.01	2967.51
1010.17	2762.71
1010.33	2873.30
1010.49	2865.11
1010.65	2854.87
1010.81	2684.89
1010.96	2795.48
1011.12	2754.52
1011.28	2643.93
1011.44	2797.53
1011.60	2793.43
1011.76	2650.07
1011.91	2772.95
1012.07	2744.28
1012.23	2623.45
1012.39	2693.08
1012.55	2715.61
1012.71	2670.55
1012.86	2668.50
1013.02	2658.26
1013.18	2543.58
1013.34	2736.09
1013.50	2666.46
1013.65	2703.32
1013.81	2650.07
1013.97	2502.62
1014.13	2715.61
1014.29	2615.26
1014.44	2758.61
1014.60	2643.93
1014.76	2570.20
1014.92	2592.73
1015.07	2627.54
1015.23	2639.83
1015.39	2559.96
1015.55	2572.25
1015.71	2580.44
1015.86	2566.10
1016.02	2486.23
1016.18	2475.99
1016.34	2572.25
1016.49	2559.96
1016.65	2617.30
1016.81	2592.73
1016.97	2400.22
1017.12	2590.68
1017.28	2465.75
1017.44	2463.71
1017.60	2465.75
1017.75	2410.46
1017.91	2490.33
1018.07	2531.29
1018.23	2576.34
1018.38	2506.71
1018.54	2371.55
1018.70	2488.28
1018.86	2435.03
1019.01	2428.89
1019.17	2467.80
1019.33	2502.62
1019.49	2437.08
1019.64	2398.17
1019.80	2471.90
1019.96	2430.94
1020.12	2432.99
1020.27	2328.54
1020.43	2392.03
1020.59	2381.79
1020.74	2426.84
1020.90	2437.08
1021.06	2314.20
1021.22	2332.64
1021.37	2338.78
1021.53	2301.92
1021.69	2418.65
1021.84	2295.77
1022.00	2334.68
1022.16	2263.01
1022.31	2346.97
1022.47	2371.55
1022.63	2389.98
1022.79	2205.66
1022.94	2279.39
1023.10	2396.12
1023.26	2297.82
1023.41	2197.47
1023.57	2301.92
1023.73	2303.96
1023.88	2351.07
1024.04	2240.48
1024.20	2277.34
1024.35	2215.90
1024.51	2273.25
1024.67	2308.06
1024.82	2293.72
1024.98	2246.62
1025.14	2287.58
1025.29	2285.53
1025.45	2179.04
1025.61	2226.14
1025.76	2117.60
1025.92	2170.85
1026.08	2267.10
1026.23	2260.96
1026.39	2252.77
1026.55	2232.29
1026.70	2133.98
1026.86	2133.98
1027.02	2263.01
1027.17	2154.46
1027.33	2297.82
1027.48	2199.52
1027.64	2203.61
1027.80	2156.51
1027.95	2181.09
1028.11	2148.32
1028.27	2119.65
1028.42	2207.71
1028.58	2142.18
1028.73	2144.22
1028.89	2125.79
1029.05	2197.47
1029.20	2164.70
>>>>>End Processed Spectral Data<<<<<
