SpectraSuite Data File
++++++++++++++++++++++++++++++++++++
Date: Fri Jun 02 14:53:31 CEST 2017
User: INFO_000
Dark Spectrum Present: No
Reference Spectrum Present: No
Number of Sampled Component Spectra: 1
Spectrometers: USB4H00879
Integration Time (usec): 80000 (USB4H00879)
Spectra Averaged: 1 (USB4H00879)
Boxcar Smoothing: 0 (USB4H00879)
Correct for Electrical Dark: No (USB4H00879)
Strobe/Lamp Enabled: No (USB4H00879)
Correct for Detector Non-linearity: No (USB4H00879)
Correct for Stray Light: No (USB4H00879)
Number of Pixels in Processed Spectrum: 3648
>>>>>Begin Processed Spectral Data<<<<<
345.13	1296.36
345.34	1296.36
345.56	1296.36
345.78	1245.16
345.99	1386.47
346.21	1646.57
346.42	1611.75
346.64	1609.70
346.86	1755.11
347.07	1654.76
347.29	1712.10
347.50	1589.22
347.72	1673.19
347.94	1748.97
348.15	1517.54
348.37	1642.47
348.59	1708.01
348.80	1679.33
349.02	1812.45
349.23	1920.99
349.45	1834.98
349.67	1914.85
349.88	1794.02
350.10	1918.95
350.31	1855.46
350.53	1755.11
350.75	1949.67
350.96	1789.92
351.18	1935.33
351.39	1826.79
351.61	1794.02
351.82	1933.28
352.04	1884.13
352.26	1894.37
352.47	1972.19
352.69	1966.05
352.90	1771.49
353.12	1886.18
353.34	1843.17
353.55	1933.28
353.77	1959.91
353.98	1865.70
354.20	1867.75
354.41	1931.23
354.63	1966.05
354.85	2080.74
355.06	1847.27
355.28	1853.41
355.49	2011.11
355.71	1925.09
355.92	1920.99
356.14	1953.76
356.35	1935.33
356.57	1871.84
356.79	1937.38
357.00	1773.54
357.22	1992.67
357.43	1802.21
357.65	1953.76
357.86	1896.42
358.08	1968.10
358.29	1972.19
358.51	2011.11
358.72	1996.77
358.94	1980.39
359.16	1920.99
359.37	1904.61
359.59	1990.63
359.80	2009.06
360.02	1935.33
360.23	1951.71
360.45	2009.06
360.66	1974.24
360.88	1869.80
361.09	1877.99
361.31	2037.73
361.52	1927.14
361.74	2021.35
361.95	2074.59
362.17	1931.23
362.38	2088.93
362.60	2072.54
362.81	2000.87
363.03	2011.11
363.24	2029.54
363.46	2080.74
363.67	2011.11
363.89	2056.16
364.10	2031.58
364.32	1992.67
364.53	1980.39
364.75	1900.52
364.96	2074.59
365.18	2017.25
365.39	2019.30
365.61	1957.86
365.82	2064.35
366.04	2050.02
366.25	1988.58
366.47	2027.49
366.68	2088.93
366.90	1957.86
367.11	2035.68
367.33	2133.98
367.54	2052.06
367.76	2031.58
367.97	2129.89
368.19	2078.69
368.40	2041.82
368.62	1959.91
368.83	1988.58
369.05	2093.02
369.26	1992.67
369.48	2074.59
369.69	2058.21
369.91	2068.45
370.12	2086.88
370.33	2097.12
370.55	1984.48
370.76	2070.50
370.98	2156.51
371.19	2035.68
371.41	2070.50
371.62	2027.49
371.84	2023.39
372.05	2228.19
372.27	2043.87
372.48	2062.30
372.69	2179.04
372.91	2121.70
373.12	2162.66
373.34	2181.09
373.55	2072.54
373.77	2263.01
373.98	2099.17
374.20	2156.51
374.41	2226.14
374.62	2127.84
374.84	2101.22
375.05	2230.24
375.27	2179.04
375.48	2168.80
375.70	2133.98
375.91	2250.72
376.12	2242.53
376.34	2078.69
376.55	2228.19
376.77	2211.81
376.98	2121.70
377.19	2181.09
377.41	2082.78
377.62	2279.39
377.84	2303.96
378.05	2396.12
378.27	2205.66
378.48	2367.45
378.69	2439.13
378.91	2330.59
379.12	2283.49
379.34	2279.39
379.55	2281.44
379.76	2310.11
379.98	2232.29
380.19	2222.05
380.41	2232.29
380.62	2338.78
380.83	2328.54
381.05	2191.33
381.26	2375.64
381.47	2222.05
381.69	2254.81
381.90	2447.32
382.12	2303.96
382.33	2260.96
382.54	2258.91
382.76	2303.96
382.97	2371.55
383.19	2332.64
383.40	2392.03
383.61	2340.83
383.83	2279.39
384.04	2346.97
384.25	2418.65
384.47	2514.91
384.68	2375.64
384.89	2336.73
385.11	2299.87
385.32	2314.20
385.54	2412.51
385.75	2359.26
385.96	2394.08
386.18	2346.97
386.39	2406.36
386.60	2308.06
386.82	2392.03
387.03	2349.02
387.24	2496.47
387.46	2535.39
387.67	2449.37
387.88	2541.53
388.10	2478.04
388.31	2461.66
388.52	2580.44
388.74	2547.67
388.95	2508.76
389.16	2519.00
389.38	2564.06
389.59	2586.58
389.80	2574.30
390.02	2576.34
390.23	2631.64
390.44	2580.44
390.66	2514.91
390.87	2412.51
391.08	2586.58
391.30	2723.80
391.51	2607.06
391.72	2693.08
391.94	2637.78
392.15	2549.72
392.36	2564.06
392.58	2566.10
392.79	2750.42
393.00	2637.78
393.22	2691.03
393.43	2764.76
393.64	2748.37
393.85	2740.18
394.07	2785.24
394.28	2764.76
394.49	2832.34
394.71	2758.61
394.92	2820.05
395.13	2713.56
395.35	2701.27
395.56	2805.72
395.77	2797.53
395.98	2899.92
396.20	2938.84
396.41	2830.29
396.62	2881.49
396.84	2877.40
397.05	2854.87
397.26	2908.12
397.47	2981.84
397.69	2803.67
397.90	2897.88
398.11	2918.36
398.32	2867.16
398.54	2873.30
398.75	2793.43
398.96	2891.73
399.18	3051.47
399.39	2990.03
399.60	3039.19
399.81	2992.08
400.03	2922.45
400.24	3182.54
400.45	2897.88
400.66	3059.67
400.88	3033.04
401.09	3143.63
401.30	3153.87
401.51	3149.78
401.73	3069.91
401.94	3164.11
402.15	3088.34
402.36	3213.26
402.58	3127.25
402.79	3278.80
403.00	3176.40
403.21	3149.78
403.43	3139.54
403.64	3305.42
403.85	3135.44
404.06	3321.81
404.27	3143.63
404.49	3194.83
404.70	3182.54
404.91	3295.18
405.12	3258.32
405.34	3332.05
405.55	3442.64
405.76	3137.49
405.97	3153.87
406.19	3461.07
406.40	3225.55
406.61	3311.57
406.82	3413.96
407.03	3411.92
407.25	3342.28
407.46	3516.36
407.67	3436.49
407.88	3479.50
408.09	3370.96
408.31	3289.04
408.52	3456.97
408.73	3399.63
408.94	3434.44
409.15	3532.75
409.37	3604.42
409.58	3444.68
409.79	3542.99
410.00	3696.58
410.21	3463.12
410.43	3461.07
410.64	3481.55
410.85	3585.99
411.06	3672.01
411.27	3612.62
411.48	3631.05
411.70	3526.60
411.91	3612.62
412.12	3753.93
412.33	3692.49
412.54	3717.06
412.76	3725.26
412.97	3829.70
413.18	3561.42
413.39	3731.40
413.60	3665.86
413.81	3739.59
414.03	3710.92
414.24	3688.39
414.45	3825.61
414.66	3727.30
414.87	3760.07
415.08	3784.65
415.30	3782.60
415.51	3921.86
415.72	3737.54
415.93	3944.39
416.14	3848.13
416.35	3827.65
416.56	3891.14
416.78	3858.37
416.99	3909.57
417.20	3805.13
417.41	4042.69
417.62	3983.30
417.83	3948.48
418.04	3899.33
418.26	4036.55
418.47	3930.05
418.68	4089.79
418.89	3995.59
419.10	4216.77
419.31	4005.83
419.52	4169.66
419.73	4134.85
419.95	4083.65
420.16	4036.55
420.37	4140.99
420.58	4161.47
420.79	3962.82
421.00	4173.76
421.21	4126.66
421.42	4026.31
421.63	4255.68
421.85	4089.79
422.06	4259.78
422.27	4288.45
422.48	4138.94
422.69	4278.21
422.90	4366.27
423.11	4440.00
423.32	4296.64
423.53	4380.61
423.75	4384.70
423.96	4515.77
424.17	4474.81
424.38	4609.98
424.59	4503.48
424.80	4603.83
425.01	4538.30
425.22	4542.39
425.43	4501.44
425.64	4763.58
425.85	4693.94
426.06	4605.88
426.28	4601.79
426.49	4505.53
426.70	4558.78
426.91	4597.69
427.12	4704.18
427.33	4837.30
427.54	4777.91
427.75	4786.10
427.96	4943.80
428.17	4702.14
428.38	4845.49
428.59	4892.60
428.80	4775.86
429.01	4925.36
429.23	4982.71
429.44	4968.37
429.65	5005.24
429.86	4995.00
430.07	4960.18
430.28	4917.17
430.49	5031.86
430.70	5046.20
430.91	5087.15
431.12	5031.86
431.33	5201.84
431.54	5279.66
431.75	5199.79
431.96	5193.65
432.17	5201.84
432.38	5205.94
432.59	5396.40
432.80	5255.09
433.01	5248.94
433.22	5343.15
433.43	5369.77
433.64	5259.18
433.85	5244.85
434.06	5466.03
434.27	5345.20
434.49	5402.54
434.70	5445.55
434.91	5375.92
435.12	5414.83
435.33	5382.06
435.54	5369.77
435.75	5367.73
435.96	5490.60
436.17	5470.12
436.38	5550.00
436.59	5609.39
436.80	5531.56
437.01	5771.18
437.22	5724.07
437.43	5705.64
437.64	5459.88
437.85	5805.99
438.06	5879.72
438.27	5535.66
438.48	5726.12
438.69	5668.78
438.90	5709.74
439.11	5730.22
439.32	5892.01
439.53	5795.75
439.74	5885.86
439.95	5869.48
440.16	5754.79
440.37	5840.81
440.57	5861.29
440.78	5975.97
440.99	5879.72
441.20	5857.19
441.41	5781.42
441.62	6031.27
441.83	5765.03
442.04	6014.88
442.25	5879.72
442.46	5922.73
442.67	6119.33
442.88	6510.49
443.09	6107.04
443.30	6131.62
443.51	6205.35
443.72	6262.69
443.93	6283.17
444.14	6424.48
444.35	6148.00
444.56	6352.80
444.77	6313.89
444.98	6334.37
445.19	6416.29
445.40	6373.28
445.61	6385.57
445.81	6424.48
446.02	6561.69
446.23	6477.73
446.44	6256.54
446.65	6520.73
446.86	6418.33
447.07	6723.48
447.28	6621.08
447.49	6586.27
447.70	6514.59
447.91	6643.61
448.12	6637.47
448.33	6860.70
448.54	6840.22
448.74	6705.05
448.95	6670.23
449.16	6768.54
449.37	6909.85
449.58	6860.70
449.79	7071.64
450.00	6786.97
450.21	6911.89
450.42	7053.20
450.63	7026.58
450.84	6897.56
451.05	7040.92
451.25	6922.13
451.46	7053.20
451.67	7208.85
451.88	7249.81
452.09	7231.38
452.30	7165.84
452.51	7253.91
452.72	7448.46
452.93	7532.43
453.13	7186.32
453.34	7184.27
453.55	7434.13
453.76	7413.65
453.97	7712.65
454.18	7589.77
454.39	7542.67
454.60	7507.85
454.81	7479.18
455.01	7870.34
455.22	7583.63
455.43	7782.28
455.64	8017.80
455.85	7890.82
456.06	7970.69
456.27	7829.38
456.48	7876.49
456.68	8019.85
456.89	8062.85
457.10	7866.25
457.31	8200.07
457.52	7987.08
457.73	8021.89
457.94	8370.05
458.14	8044.42
458.35	8376.19
458.56	8423.30
458.77	8335.23
458.98	8359.81
459.19	8361.86
459.39	8499.07
459.60	8540.03
459.81	8521.60
460.02	8720.25
460.23	8691.58
460.44	8918.90
460.65	8998.77
460.85	8988.53
461.06	9101.17
461.27	8824.70
461.48	9066.36
461.69	9115.51
461.89	8701.82
462.10	8955.77
462.31	8990.58
462.52	8986.49
462.73	9146.23
462.94	9240.44
463.14	9193.33
463.35	9144.18
463.56	9660.27
463.77	9574.25
463.98	9471.86
464.18	9586.54
464.39	9748.33
464.60	9758.57
464.81	9703.28
465.02	9848.68
465.23	10159.97
465.43	9760.62
465.64	9998.18
465.85	10047.33
466.06	9938.79
466.27	10178.40
466.47	10317.67
466.68	10303.33
466.89	10315.62
467.10	10506.08
467.30	10297.19
467.51	10620.77
467.72	10807.13
467.93	10504.03
468.14	10581.85
468.34	10854.23
468.55	10860.38
468.76	10835.80
468.97	10692.44
469.17	11192.15
469.38	11018.07
469.59	11392.85
469.80	10989.40
470.01	10917.72
470.21	11183.96
470.42	11562.83
470.63	11442.00
470.84	11556.69
471.04	11554.64
471.25	11530.06
471.46	11468.62
471.67	11773.77
471.87	11915.08
472.08	12152.65
472.29	12244.81
472.50	11851.60
472.70	11798.35
472.91	12007.24
473.12	12345.16
473.33	12291.91
473.53	12224.33
473.74	12261.19
473.95	12840.76
474.16	12584.77
474.36	12689.21
474.57	12742.46
474.78	13115.19
474.99	12943.16
475.19	13037.37
475.40	13303.60
475.61	13158.20
475.81	13535.03
476.02	13543.22
476.23	13365.04
476.44	13475.63
476.64	13786.93
476.85	13877.04
477.06	13782.83
477.27	14126.89
477.47	14067.50
477.68	14237.48
477.89	14149.42
478.09	14284.58
478.30	14249.77
478.51	14536.48
478.71	14688.03
478.92	14677.79
479.13	14798.62
479.34	14749.47
479.54	14726.94
479.75	14749.47
479.96	15060.76
480.16	15195.93
480.37	15300.37
480.58	15515.41
480.78	15630.10
480.99	15589.14
481.20	15574.80
481.41	15814.41
481.61	15865.61
481.82	16082.70
482.03	15728.40
482.23	15658.77
482.44	16181.00
482.65	16338.69
482.85	16512.77
483.06	16260.87
483.27	16318.22
483.47	16377.61
483.68	16604.93
483.89	16682.75
484.09	16774.91
484.30	16666.37
484.51	16961.28
484.71	16998.14
484.92	16842.50
485.13	17143.55
485.33	17385.21
485.54	17215.23
485.75	17542.90
485.95	17680.11
486.16	17688.31
486.37	17915.63
486.57	17682.16
486.78	17755.89
486.98	17868.53
487.19	18005.74
487.40	18284.26
487.60	18114.28
487.81	18368.23
488.02	18530.02
488.22	18290.41
488.43	18546.40
488.64	18554.60
488.84	18671.33
489.05	18941.66
489.25	18826.98
489.46	18910.94
489.67	18761.44
489.87	18966.24
490.08	19306.20
490.29	19334.87
490.49	19605.20
490.70	19621.59
490.90	19652.31
491.11	19570.39
491.32	19752.66
491.52	19703.51
491.73	20176.59
491.94	19818.19
492.14	19904.21
492.35	20096.72
492.55	20369.10
492.76	20444.87
492.97	20653.76
493.17	20354.76
493.38	20850.37
493.58	20756.16
493.79	20666.05
494.00	20698.82
494.20	20948.67
494.41	20985.54
494.61	20852.42
494.82	21153.47
495.02	20756.16
495.23	21161.66
495.44	21214.91
495.64	21388.99
495.85	21231.29
496.05	21634.74
496.26	21761.72
496.47	21673.65
496.67	21604.02
496.88	21954.22
497.08	21341.88
497.29	22279.85
497.49	22027.95
497.70	22140.59
497.91	22179.50
498.11	22232.75
498.32	22523.56
498.52	22439.59
498.73	22779.56
498.93	22603.43
499.14	22863.52
499.34	22779.56
499.55	22664.87
499.76	22757.03
499.96	23113.38
500.17	22961.83
500.37	23258.78
500.58	23051.94
500.78	23000.74
500.99	23279.26
501.19	23570.07
501.40	23385.76
501.60	23115.42
501.81	23230.11
502.02	23537.30
502.22	23254.69
502.43	23889.56
502.63	23813.78
502.84	23641.75
503.04	24088.21
503.25	23762.58
503.45	24137.36
503.66	24088.21
503.86	24022.67
504.07	24278.67
504.27	24290.96
504.48	24620.68
504.68	24342.16
504.89	24616.58
505.09	24581.77
505.30	24409.74
505.50	24608.39
505.71	24725.13
505.91	25228.93
506.12	24628.87
506.32	24833.67
506.53	24729.22
506.73	25247.36
506.94	25028.23
507.14	25118.34
507.35	25382.52
507.55	25286.27
507.76	25368.19
507.96	25386.62
508.17	25716.34
508.37	25560.70
508.58	25708.15
508.78	25665.14
508.99	25628.28
509.19	25706.10
509.40	25912.95
509.60	25771.64
509.81	25626.23
510.01	26115.70
510.22	25863.80
510.42	26220.14
510.63	26379.89
510.83	26007.16
511.04	26386.03
511.24	26336.88
511.44	26553.96
511.65	26455.66
511.85	26437.23
512.06	26531.44
512.26	26496.62
512.47	26703.46
512.67	26869.35
512.88	27113.06
513.08	26560.11
513.29	27068.00
513.49	27000.42
513.69	27084.39
513.90	26908.26
514.10	27125.35
514.31	26998.37
514.51	27285.09
514.72	27338.33
514.92	27367.01
515.13	27735.64
515.33	27493.98
515.53	27477.60
515.74	27410.01
515.94	27926.10
516.15	27639.39
516.35	27657.82
516.56	27899.48
516.76	27817.56
516.96	27926.10
517.17	27997.78
517.37	28094.04
517.58	28044.88
517.78	28276.30
517.99	28167.76
518.19	28763.72
518.39	28739.15
518.60	28886.60
518.80	28495.44
519.01	28718.67
519.21	28685.90
519.41	28763.72
519.62	29011.53
519.82	28845.64
520.03	28896.84
520.23	29027.91
520.43	28884.55
520.64	29355.58
520.84	29609.53
521.05	29521.47
521.25	29611.58
521.45	29756.99
521.66	29892.15
521.86	29609.53
522.07	29787.71
522.27	29922.87
522.47	29797.95
522.68	30772.78
522.88	30096.95
523.08	30393.90
523.29	30643.76
523.49	30400.05
523.70	30348.85
523.90	30506.54
524.10	30891.56
524.31	30543.41
524.51	30567.98
524.71	31264.29
524.92	30877.22
525.12	31098.41
525.33	31344.16
525.53	31219.24
525.73	31663.64
525.94	31350.31
526.14	31770.14
526.34	31438.37
526.55	31825.43
526.75	32085.53
526.95	32314.90
527.16	31901.21
527.36	32116.25
527.56	32413.20
527.77	32321.04
527.97	32067.09
528.17	32343.57
528.38	33080.84
528.58	32497.17
528.78	33031.69
528.99	32980.49
529.19	33420.80
529.39	32593.42
529.60	33211.91
529.80	33297.92
530.00	33426.95
530.21	33748.48
530.41	33584.64
530.61	33517.06
530.82	33791.48
531.02	33983.99
531.22	34246.13
531.43	33918.46
531.63	34131.45
531.83	34694.64
532.04	34838.00
532.24	34690.54
532.44	35050.99
532.64	35208.68
532.85	34866.67
533.05	34977.26
533.25	35200.49
533.46	35014.12
533.66	35683.81
533.86	35417.57
534.07	35880.41
534.27	35571.17
534.47	35751.39
534.67	35800.54
534.88	35775.97
535.08	35773.92
535.28	36283.86
535.49	36150.74
535.69	36730.32
535.89	36478.42
536.09	36298.20
536.30	37053.90
536.50	36480.47
536.70	36572.63
536.91	36851.15
537.11	36935.12
537.31	37176.78
537.51	37115.34
537.72	37348.81
537.92	37590.47
538.12	37938.62
538.32	37504.45
538.53	38118.84
538.73	37551.56
538.93	37631.43
539.13	37852.61
539.34	37500.36
539.54	37830.08
539.74	38565.30
539.94	38022.59
540.15	38118.84
540.35	38356.41
540.55	38401.46
540.75	38401.46
540.96	38495.67
541.16	38921.65
541.36	38661.55
541.56	39009.71
541.77	39122.35
541.97	39138.73
542.17	39411.11
542.37	38995.37
542.58	39632.29
542.78	39069.10
542.98	39665.06
543.18	39617.96
543.38	40011.17
543.59	39931.29
543.79	39097.77
543.99	39425.45
544.19	39720.35
544.40	39722.40
544.60	40195.48
544.80	40037.79
545.00	39744.93
545.20	40164.76
545.41	40254.87
545.61	40318.36
545.81	40316.31
546.01	40580.50
546.21	40529.30
546.42	40383.90
546.62	40977.81
546.82	40756.63
547.02	40820.11
547.22	40838.54
547.43	41127.31
547.63	41004.43
547.83	41078.16
548.03	41233.80
548.23	41418.12
548.44	41274.76
548.64	41315.72
548.84	41201.04
549.04	41440.65
549.24	41239.95
549.45	41637.25
549.65	41387.40
549.85	41670.02
550.05	41792.90
550.25	41328.01
550.45	41854.34
550.66	42147.20
550.86	41401.74
551.06	42200.44
551.26	42124.67
551.46	41883.01
551.66	42030.46
551.87	41956.74
552.07	42247.55
552.27	41917.82
552.47	42268.03
552.67	42423.67
552.87	42108.29
553.07	42878.32
553.28	42331.51
553.48	42444.15
553.68	42636.66
553.88	42843.51
554.08	42134.91
554.28	42673.52
554.48	42319.23
554.69	42607.99
554.89	43029.87
555.09	42788.21
555.29	42843.51
555.49	42884.47
555.69	43005.30
555.89	42747.25
556.10	43019.63
556.30	43048.30
556.50	43013.49
556.70	42810.74
556.90	43048.30
557.10	43156.85
557.30	42642.81
557.50	43574.63
557.70	43173.23
557.91	43273.58
558.11	43023.73
558.31	43355.50
558.51	43394.41
558.71	43214.19
558.91	43662.69
559.11	43357.55
559.31	43523.43
559.51	43212.14
559.72	43517.29
559.92	43623.78
560.12	43187.56
560.32	43873.63
560.52	43795.81
560.72	43873.63
560.92	43777.38
561.12	43545.96
561.32	44295.52
561.52	43830.63
561.72	44098.91
561.93	43717.99
562.13	43699.56
562.33	43529.58
562.53	44459.35
562.73	43636.07
562.93	43943.27
563.13	44191.07
563.33	43824.48
563.53	44143.97
563.73	43984.22
563.93	44135.77
564.13	44502.36
564.33	44533.08
564.53	44117.34
564.74	44479.83
564.94	44168.54
565.14	44303.71
565.34	44238.17
565.54	44137.82
565.74	44076.38
565.94	44713.30
566.14	44062.05
566.34	44365.15
566.54	44475.74
566.74	44229.98
566.94	44375.39
567.14	44303.71
567.34	44223.84
567.54	45045.07
567.74	44440.92
567.94	44426.59
568.14	44322.14
568.34	44764.50
568.54	44594.52
568.74	44989.78
568.94	44811.60
569.14	44770.64
569.34	44647.77
569.54	45028.69
569.75	44569.94
569.95	44969.30
570.15	44834.13
570.35	44774.74
570.55	44615.00
570.75	45217.10
570.95	44985.68
571.15	45012.31
571.35	45049.17
571.55	45385.04
571.75	44987.73
571.95	45024.59
572.15	45137.23
572.35	45352.27
572.55	45282.64
572.75	45339.98
572.95	45225.29
573.15	45350.22
573.35	45079.89
573.55	45116.75
573.75	45393.23
573.95	45573.45
574.15	45659.46
574.35	45860.16
574.55	45600.07
574.75	45436.23
574.95	45423.95
575.15	45487.43
575.34	45704.52
575.54	45727.05
575.74	45782.34
575.94	45923.65
576.14	45518.15
576.34	45872.45
576.54	46079.30
576.74	45598.02
576.94	45528.39
577.14	46288.19
577.34	46290.24
577.54	45831.49
577.74	45999.43
577.94	46091.58
578.14	45714.76
578.34	46306.62
578.54	46212.41
578.74	46320.96
578.94	46513.47
579.14	46218.56
579.34	46075.20
579.54	46550.33
579.74	46765.37
579.94	46415.16
580.13	46699.83
580.33	46490.94
580.53	46423.36
580.73	47117.62
580.93	46808.37
581.13	46771.51
581.33	46921.01
581.53	46914.87
581.73	47019.31
581.93	47031.60
582.13	47197.49
582.33	47031.60
582.53	47093.04
582.73	47213.87
582.92	47072.56
583.12	47240.50
583.32	47119.66
583.52	46867.76
583.72	47236.40
583.92	47215.92
584.12	47351.09
584.32	47910.18
584.52	47191.34
584.72	47449.39
584.92	47627.56
585.11	48035.11
585.31	47719.72
585.51	47738.15
585.71	47602.99
585.91	48155.94
586.11	47361.33
586.31	47988.00
586.51	47662.38
586.71	47826.21
586.91	48145.70
587.10	47920.42
587.30	48436.51
587.50	48076.07
587.70	48526.62
587.90	48133.41
588.10	48387.36
588.30	48231.71
588.50	48368.93
588.69	48411.93
588.89	47861.03
589.09	48669.98
589.29	48360.73
589.49	48780.57
589.69	48233.76
589.89	48469.28
590.08	48444.70
590.28	48375.07
590.48	48856.34
590.68	48583.96
590.88	48837.91
591.08	48809.24
591.28	48512.28
591.47	49134.87
591.67	49085.72
591.87	48700.70
592.07	49003.80
592.27	48809.24
592.47	48872.73
592.67	49005.84
592.86	49061.14
593.06	49444.11
593.26	49591.56
593.46	49165.59
593.66	49329.42
593.86	49702.15
594.05	49550.60
594.25	49782.02
594.45	49085.72
594.65	49325.33
594.85	49198.35
595.05	49911.05
595.24	50154.75
595.44	49577.23
595.64	49767.69
595.84	49489.16
596.04	49767.69
596.23	49896.71
596.43	50042.12
596.63	49988.87
596.83	50126.08
597.03	50193.67
597.22	50273.54
597.42	50226.43
597.62	50373.89
597.82	50631.93
598.02	49935.62
598.21	50648.32
598.41	50130.18
598.61	50441.47
598.81	50423.04
599.01	51373.30
599.20	50576.64
599.40	50683.13
599.60	50957.56
599.80	50558.20
600.00	50699.51
600.19	51383.54
600.39	51346.67
600.59	51180.79
600.79	51379.44
600.98	51479.79
601.18	51657.96
601.38	51332.34
601.58	51584.24
601.78	51557.61
601.97	51524.85
602.17	51778.79
602.37	51721.45
602.57	51819.75
602.76	52172.00
602.96	51385.58
603.16	51891.43
603.36	52077.80
603.55	52184.29
603.75	52055.27
603.95	52888.79
604.15	52221.16
604.34	52172.00
604.54	52438.24
604.74	52360.42
604.94	52505.82
605.13	52708.57
605.33	52612.32
605.53	52180.20
605.73	52739.29
605.92	53107.93
606.12	52923.61
606.32	52659.42
606.52	53195.99
606.71	53069.01
606.91	53142.74
607.11	53026.01
607.30	52958.42
607.50	52995.29
607.70	53157.08
607.90	53548.24
608.09	53191.89
608.29	53787.85
608.49	53220.56
608.68	53251.28
608.88	53458.13
609.08	54054.09
609.28	53443.79
609.47	53630.16
609.67	54281.41
609.87	53707.98
610.06	54037.70
610.26	53783.76
610.46	54179.01
610.66	53765.32
610.85	53845.19
611.05	53957.83
611.25	54127.81
611.44	53822.67
611.64	54332.61
611.84	54049.99
612.03	53888.20
612.23	54228.16
612.43	53961.93
612.62	54070.47
612.82	54674.62
613.02	54549.70
613.21	54564.03
613.41	54179.01
613.61	54822.08
613.80	54238.40
614.00	54637.76
614.20	54658.24
614.39	54498.50
614.59	54723.77
614.79	54621.37
614.98	54283.46
615.18	54955.19
615.38	54545.60
615.57	54365.38
615.77	54869.18
615.97	54719.68
616.16	54537.41
616.36	54607.04
616.56	54785.21
616.75	54975.67
616.95	54420.67
617.15	54613.18
617.34	54699.20
617.54	54959.29
617.74	55155.89
617.93	55151.80
618.13	54342.85
618.32	55375.03
618.52	55057.59
618.72	54844.60
618.91	55258.29
619.11	55037.11
619.31	54842.56
619.50	55205.05
619.70	54703.29
619.90	55125.17
620.09	54809.79
620.29	54908.09
620.48	55043.26
620.68	55604.40
620.88	54387.91
621.07	55213.24
621.27	55233.72
621.46	55151.80
621.66	55176.37
621.86	55248.05
622.05	55391.41
622.25	55661.74
622.44	55227.57
622.64	55276.72
622.84	55880.88
623.03	55489.71
623.23	55635.12
623.42	55477.43
623.62	55764.14
623.82	55737.52
624.01	55393.46
624.21	55497.91
624.40	55364.79
624.60	55311.54
624.80	55180.47
624.99	55434.42
625.19	54998.20
625.38	55610.54
625.58	55717.04
625.77	55256.24
625.97	55633.07
626.17	55598.26
626.36	55456.95
626.56	55854.25
626.75	55321.78
626.95	55639.22
627.14	55311.54
627.34	56147.11
627.54	55297.20
627.73	55551.15
627.93	55551.15
628.12	55231.67
628.32	55442.61
628.51	55680.17
628.71	55592.11
628.90	55973.03
629.10	55749.81
629.30	55821.48
629.49	55925.93
629.69	55968.94
629.88	56143.02
630.08	55932.07
630.27	55950.51
630.47	55528.62
630.66	55491.76
630.86	56028.33
631.05	55420.08
631.25	56067.24
631.44	56155.30
631.64	55710.89
631.84	56253.61
632.03	56628.38
632.23	56104.10
632.42	56507.55
632.62	56145.06
632.81	55690.41
633.01	56417.44
633.20	56689.82
633.40	56194.21
633.59	56222.89
633.79	56329.38
633.98	56108.20
634.18	56360.10
634.37	56253.61
634.57	56269.99
634.76	56446.11
634.96	56259.75
635.15	56962.20
635.35	56399.01
635.54	56220.84
635.74	56497.31
635.93	56212.65
636.13	56401.06
636.32	56521.89
636.52	56308.90
636.71	56720.54
636.91	56552.61
637.10	56929.44
637.30	56259.75
637.49	56452.26
637.69	56366.24
637.88	57087.13
638.08	56878.24
638.27	56882.33
638.46	56657.06
638.66	56206.50
638.85	56468.64
639.05	56620.19
639.24	56751.26
639.44	56419.49
639.63	57160.86
639.83	57240.73
640.02	56870.04
640.22	57011.35
640.41	57017.50
640.61	56714.40
640.80	56935.58
640.99	56636.58
641.19	57474.20
641.38	56786.08
641.58	57093.27
641.77	56833.18
641.97	56849.56
642.16	56964.25
642.36	57101.46
642.55	57326.74
642.74	56949.92
642.94	57633.94
643.13	57066.65
643.33	57384.08
643.52	57844.88
643.72	57285.78
643.91	57177.24
644.10	57316.50
644.30	57615.50
644.49	57142.42
644.69	57408.66
644.88	57445.52
645.08	57123.99
645.27	57355.41
645.46	57296.02
645.66	57562.26
645.85	57334.93
646.05	57453.72
646.24	57113.75
646.43	57693.33
646.63	58041.48
646.82	58053.77
647.02	57627.79
647.21	57898.12
647.40	57889.93
647.60	57656.46
647.79	57801.87
647.99	57988.24
648.18	57529.49
648.37	58360.97
648.57	57922.70
648.76	57955.47
648.96	57769.10
649.15	58154.12
649.34	58244.23
649.54	57949.32
649.73	57427.09
649.92	58465.41
650.12	57769.10
650.31	57750.67
650.51	58139.78
650.70	58233.99
650.89	58373.25
651.09	58498.18
651.28	58016.91
651.47	58537.09
651.67	58293.38
651.86	58188.94
652.06	57638.03
652.25	58082.44
652.44	57894.03
652.64	57711.76
652.83	57799.82
653.02	57969.80
653.22	58217.61
653.41	57851.02
653.60	57783.44
653.80	57971.85
653.99	58139.78
654.18	58262.66
654.38	57930.89
654.57	58131.59
654.76	58313.86
654.96	58694.78
655.15	58008.71
655.34	58223.75
655.54	57771.15
655.73	58215.56
655.92	58436.74
656.12	58117.26
656.31	58391.68
656.50	58168.46
656.70	58102.92
656.89	58094.73
657.08	58211.46
657.28	58057.87
657.47	58090.63
657.66	58549.38
657.86	58164.36
658.05	58588.29
658.24	58074.25
658.43	57760.91
658.63	58532.99
658.82	58205.32
659.01	58342.53
659.21	58446.98
659.40	57996.43
659.59	58172.55
659.79	58483.84
659.98	58467.46
660.17	58561.67
660.36	58449.03
660.56	58690.69
660.75	58352.77
660.94	58797.18
661.14	58358.92
661.33	58023.05
661.52	57973.90
661.71	58860.67
661.91	57719.95
662.10	57711.76
662.29	58612.87
662.49	58184.84
662.68	58152.07
662.87	58078.35
663.06	58207.37
663.26	58410.12
663.45	58403.97
663.64	58395.78
663.83	58569.86
664.03	58578.05
664.22	57943.18
664.41	58291.33
664.60	57750.67
664.80	58528.90
664.99	58139.78
665.18	58152.07
665.37	58225.80
665.57	58180.74
665.76	58201.22
665.95	58236.04
666.14	58553.47
666.34	58295.43
666.53	58078.35
666.72	58016.91
666.91	57527.44
667.11	58045.58
667.30	58033.29
667.49	57762.96
667.68	57939.08
667.87	57828.49
668.07	58066.06
668.26	57988.24
668.45	57939.08
668.64	57492.63
668.84	58489.99
669.03	58442.88
669.22	58152.07
669.41	58018.95
669.60	57982.09
669.80	57742.48
669.99	57588.88
670.18	57545.87
670.37	58061.96
670.57	58018.95
670.76	57789.58
670.95	57726.10
671.14	58086.54
671.33	57382.04
671.53	58496.13
671.72	57863.31
671.91	57861.26
672.10	57717.90
672.29	57693.33
672.48	57478.29
672.68	58111.11
672.87	57670.80
673.06	57986.19
673.25	57701.52
673.44	57441.43
673.64	57795.73
673.83	57635.98
674.02	57191.58
674.21	57095.32
674.40	57611.41
674.59	56992.92
674.79	57412.76
674.98	57275.54
675.17	57592.98
675.36	57283.73
675.55	57105.56
675.74	57062.55
675.94	57062.55
676.13	57312.41
676.32	57877.64
676.51	57224.34
676.70	56964.25
676.89	57423.00
677.08	57484.43
677.28	56890.52
677.47	57963.66
677.66	57855.12
677.85	57070.75
678.04	57291.93
678.23	57439.38
678.42	57351.32
678.62	57427.09
678.81	57607.31
679.00	56763.55
679.19	57566.35
679.38	57060.51
679.57	56999.07
679.76	57242.77
679.96	57267.35
680.15	56509.60
680.34	57064.60
680.53	56931.48
680.72	57255.06
680.91	57379.99
681.10	56784.03
681.29	56853.66
681.48	56652.96
681.68	56923.29
681.87	56796.32
682.06	56710.30
682.25	56106.15
682.44	56741.02
682.63	56837.28
682.82	56634.53
683.01	56382.63
683.20	55731.37
683.39	56386.72
683.59	56077.48
683.78	55807.15
683.97	55727.28
684.16	56261.80
684.35	56439.97
684.54	56218.79
684.73	56136.87
684.92	55839.92
685.11	56132.78
685.30	56235.17
685.49	56370.34
685.69	56194.21
685.88	55956.65
686.07	55973.03
686.26	55573.68
686.45	56003.75
686.64	55815.34
686.83	56177.83
687.02	56110.25
687.21	55940.27
687.40	56091.82
687.59	55860.40
687.78	55637.17
687.97	55940.27
688.16	55776.43
688.35	55903.40
688.54	55383.22
688.74	55803.05
688.93	55612.59
689.12	55555.25
689.31	55524.53
689.50	55549.10
689.69	55286.96
689.88	54893.75
690.07	55491.76
690.26	55317.68
690.45	55512.24
690.64	55192.76
690.83	55231.67
691.02	54887.61
691.21	54979.77
691.40	55248.05
691.59	55620.78
691.78	54975.67
691.97	55180.47
692.16	55098.55
692.35	55198.90
692.54	55018.68
692.73	54781.12
692.92	54779.07
693.11	54801.60
693.30	54557.89
693.49	54951.10
693.68	54469.82
693.87	54789.31
694.06	53927.11
694.25	54410.43
694.44	54426.82
694.63	54596.80
694.82	54779.07
695.01	54056.14
695.20	54514.88
695.39	54551.74
695.58	54277.32
695.77	54424.77
695.96	54324.42
696.15	54813.88
696.34	54058.18
696.53	54355.14
696.72	54219.97
696.91	53765.32
697.10	54000.84
697.29	54150.34
697.48	54068.42
697.67	53642.45
697.86	53505.23
698.05	53855.43
698.24	54004.94
698.43	53769.42
698.62	53992.65
698.81	53947.59
699.00	53980.36
699.19	53351.63
699.38	53820.62
699.57	53193.94
699.76	53906.63
699.95	53492.94
700.14	53392.59
700.32	53353.68
700.51	53761.23
700.70	53748.94
700.89	53716.17
701.08	53310.67
701.27	53019.86
701.46	53464.27
701.65	52591.84
701.84	53230.80
702.03	52905.18
702.22	53183.70
702.41	53173.46
702.60	53085.40
702.79	53021.91
702.98	52532.45
703.17	52956.38
703.35	52729.05
703.54	52772.06
703.73	52808.92
703.92	52468.96
704.11	52423.90
704.30	52714.72
704.49	52294.88
704.68	52438.24
704.87	52718.81
705.06	52329.70
705.25	52411.62
705.43	52020.45
705.62	52460.77
705.81	52329.70
706.00	52442.34
706.19	52251.87
706.38	51885.29
706.57	51983.59
706.76	51715.31
706.95	52077.80
707.14	52059.37
707.32	52057.32
707.51	51860.71
707.70	52126.95
707.89	51913.96
708.08	52188.39
708.27	51856.62
708.46	51981.54
708.65	52204.77
708.84	51971.30
709.02	51877.10
709.21	52190.44
709.40	51842.28
709.59	51430.64
709.78	51219.70
709.97	51768.55
710.16	51590.38
710.34	51580.14
710.53	51528.94
710.72	51346.67
710.91	51977.45
711.10	51924.20
711.29	51905.77
711.48	51492.08
711.66	51137.78
711.85	51209.46
712.04	50920.70
712.23	51512.56
712.42	51182.84
712.61	50963.70
712.80	51008.76
712.98	51545.33
713.17	50820.34
713.36	51053.81
713.55	50975.99
713.74	50683.13
713.93	51008.76
714.11	50957.56
714.30	50771.19
714.49	50586.88
714.68	51031.29
714.87	50719.99
715.06	50705.66
715.24	50754.81
715.43	50523.39
715.62	50447.61
715.81	50097.41
716.00	50840.82
716.18	50892.02
716.37	50242.82
716.56	50320.64
716.75	50490.62
716.94	50361.60
717.12	50382.08
717.31	50478.33
717.50	50156.80
717.69	50136.32
717.88	50306.30
718.06	50201.86
718.25	50289.92
718.44	49767.69
718.63	50169.09
718.82	49710.35
719.00	49732.87
719.19	49218.83
719.38	50058.50
719.57	49583.37
719.76	49296.66
719.94	49349.90
720.13	49188.11
720.32	49153.30
720.51	49120.53
720.69	49200.40
720.88	49605.90
721.07	49114.39
721.26	49007.89
721.44	49401.10
721.63	48862.49
721.82	48971.03
722.01	48645.40
722.20	48979.22
722.38	48583.96
722.57	48444.70
722.76	48854.29
722.95	48287.01
723.13	48491.80
723.32	48631.07
723.51	48549.15
723.70	48235.81
723.88	48450.84
724.07	48090.40
724.26	48463.13
724.44	47824.17
724.63	48520.48
724.82	48139.55
725.01	48469.28
725.19	47998.24
725.38	48053.54
725.57	47740.20
725.76	48219.42
725.94	47824.17
726.13	47777.06
726.32	47930.66
726.51	47777.06
726.69	48102.69
726.88	47867.17
727.07	47707.43
727.25	47981.86
727.44	47785.25
727.63	47742.25
727.82	47580.46
728.00	47883.56
728.19	47136.05
728.38	47916.32
728.56	47031.60
728.75	48026.92
728.94	47506.73
729.12	47531.31
729.31	47609.13
729.50	47549.74
729.69	47930.66
729.87	47455.53
730.06	47260.97
730.25	47498.54
730.43	48006.44
730.62	47535.40
730.81	47717.67
730.99	47725.86
731.18	47809.83
731.37	47951.14
731.55	47678.76
731.74	47793.45
731.93	47760.68
732.11	47670.57
732.30	47486.25
732.49	47537.45
732.67	47131.95
732.86	47332.65
733.05	47512.88
733.23	47492.40
733.42	47353.13
733.61	47584.55
733.79	47574.31
733.98	47523.11
734.17	47238.45
734.35	47611.18
734.54	47297.84
734.73	47732.01
734.91	47506.73
735.10	47047.99
735.29	47461.68
735.47	46912.82
735.66	47340.85
735.84	47381.80
736.03	47119.66
736.22	47650.09
736.40	47361.33
736.59	47220.02
736.78	47215.92
736.96	47148.34
737.15	47252.78
737.33	46871.86
737.52	47377.71
737.71	47170.86
737.89	47082.80
738.08	47203.63
738.27	46961.97
738.45	47469.87
738.64	46841.14
738.82	47052.08
739.01	46878.00
739.20	46970.16
739.38	46884.15
739.57	47205.68
739.75	46796.09
739.94	47011.12
740.13	46703.93
740.31	47097.14
740.50	46773.56
740.68	46908.72
740.87	47152.43
741.06	46906.68
741.24	46544.19
741.43	46636.34
741.61	46984.50
741.80	46335.29
741.99	46810.42
742.17	46572.86
742.36	46937.40
742.54	46445.88
742.73	46533.95
742.91	46613.82
743.10	46605.62
743.29	46835.00
743.47	46687.54
743.66	46384.44
743.84	46511.42
744.03	46259.52
744.21	46204.22
744.40	46769.46
744.59	46667.06
744.77	46474.55
744.96	46171.46
745.14	46744.89
745.33	46810.42
745.51	46429.50
745.70	46378.30
745.88	45978.95
746.07	46007.62
746.26	46435.64
746.44	46265.66
746.63	46263.61
746.81	46069.06
747.00	46552.38
747.18	45923.65
747.37	45974.85
747.55	45999.43
747.74	46241.09
747.92	45808.96
748.11	46294.33
748.29	46073.15
748.48	46124.35
748.66	45755.72
748.85	45808.96
749.03	45763.91
749.22	46085.44
749.41	45634.89
749.59	45901.12
749.78	45315.40
749.96	45487.43
750.15	45845.83
750.33	45747.53
750.52	45604.17
750.70	45419.85
750.89	45276.49
751.07	45243.73
751.26	45491.53
751.44	45215.05
751.63	45747.53
751.81	45112.66
752.00	45352.27
752.18	45612.36
752.37	45137.23
752.55	45071.70
752.74	44764.50
752.92	44918.10
753.10	44756.31
753.29	45208.91
753.47	44930.39
753.66	44404.06
753.84	45061.46
754.03	45350.22
754.21	44858.71
754.40	45264.21
754.58	44901.71
754.77	44844.37
754.95	45088.08
755.14	44754.26
755.32	44649.81
755.51	44393.82
755.69	44584.28
755.88	44993.87
756.06	44858.71
756.24	44539.22
756.43	44754.26
756.61	44395.87
756.80	44440.92
756.98	44391.77
757.17	44455.26
757.35	44692.82
757.54	44518.74
757.72	44713.30
757.90	44488.03
758.09	44359.00
758.27	44258.65
758.46	44039.52
758.64	44209.50
758.83	44244.32
759.01	44307.80
759.19	44303.71
759.38	44139.87
759.56	44586.33
759.75	44432.73
759.93	44234.08
760.12	43963.75
760.30	44420.44
760.48	44025.18
760.67	43763.04
760.85	44258.65
761.04	44254.56
761.22	43869.54
761.40	44330.33
761.59	44148.06
761.77	43593.06
761.96	44213.60
762.14	43636.07
762.32	43578.73
762.51	43613.54
762.69	43564.39
762.88	43615.59
763.06	43832.68
763.24	43742.56
763.43	43709.80
763.61	43554.15
763.80	43799.91
763.98	43601.25
764.16	43447.66
764.35	43281.77
764.53	43181.42
764.72	43296.11
764.90	43451.75
765.08	43461.99
765.27	43251.05
765.45	43169.13
765.63	43046.26
765.82	43443.56
766.00	43013.49
766.18	42628.47
766.37	43453.80
766.55	43242.86
766.74	42902.90
766.92	42857.84
767.10	43011.44
767.29	42845.55
767.47	42526.07
767.65	42888.56
767.84	42620.28
768.02	42603.89
768.20	42415.48
768.39	42620.28
768.57	42636.66
768.75	42714.48
768.94	42562.93
769.12	42517.88
769.30	42294.65
769.49	42208.64
769.67	42216.83
769.85	42126.72
770.04	42333.56
770.22	41956.74
770.40	41960.83
770.59	42198.40
770.77	42333.56
770.95	42243.45
771.14	41608.58
771.32	41549.19
771.50	41827.71
771.69	41860.48
771.87	42022.27
772.05	41665.92
772.24	41526.66
772.42	41690.50
772.60	41678.21
772.78	41571.72
772.97	41594.25
773.15	41833.86
773.33	41649.54
773.52	41317.77
773.70	41706.88
773.88	41962.88
774.07	41477.51
774.25	41522.57
774.43	41411.98
774.61	41753.99
774.80	41661.83
774.98	41383.30
775.16	41667.97
775.34	41811.33
775.53	41723.27
775.71	41844.10
775.89	41670.02
776.08	41784.71
776.26	42114.43
776.44	41794.95
776.62	41299.34
776.81	41731.46
776.99	41909.63
777.17	41874.82
777.35	41725.32
777.54	41760.13
777.72	42089.85
777.90	42147.20
778.08	42220.92
778.27	42261.88
778.45	42016.13
778.63	42435.96
778.81	41911.68
779.00	42771.83
779.18	42012.03
779.36	42702.20
779.54	42130.81
779.73	42214.78
779.91	42489.21
780.09	42552.69
780.27	42263.93
780.46	42470.78
780.64	42513.78
780.82	42417.53
781.00	42521.98
781.19	42607.99
781.37	42827.12
781.55	43038.06
781.73	43259.24
781.91	42685.81
782.10	42745.20
782.28	42800.50
782.46	42831.22
782.64	43103.60
782.82	42519.93
783.01	42747.25
783.19	42982.77
783.37	43181.42
783.55	42630.52
783.74	42835.31
783.92	43060.59
784.10	43193.71
784.28	42857.84
784.46	42628.47
784.64	43005.30
784.83	42861.94
785.01	43300.20
785.19	42831.22
785.37	42962.29
785.55	43111.79
785.74	42814.83
785.92	42491.26
786.10	42964.34
786.28	42790.26
786.46	42775.92
786.64	42515.83
786.83	42511.74
787.01	42638.71
787.19	43044.21
787.37	42745.20
787.55	42392.95
787.74	42442.10
787.92	42782.07
788.10	42431.86
788.28	42044.80
788.46	42280.31
788.64	42208.64
788.82	42659.19
789.01	42386.81
789.19	42237.31
789.37	42253.69
789.55	42098.05
789.73	41817.47
789.91	41885.06
790.09	41928.06
790.28	41575.81
790.46	41479.56
790.64	41872.77
790.82	41923.97
791.00	41842.05
791.18	41530.76
791.36	41375.11
791.55	41588.10
791.73	41430.41
791.91	41420.17
792.09	41504.13
792.27	41080.21
792.45	41153.93
792.63	41229.71
792.81	41112.97
793.00	41024.91
793.18	40930.70
793.36	40850.83
793.54	40623.51
793.72	40543.64
793.90	40576.40
794.08	40697.24
794.26	40740.24
794.44	39667.11
794.62	39669.15
794.81	40281.50
794.99	40123.80
795.17	40058.27
795.35	40134.04
795.53	40349.08
795.71	39953.82
795.89	39824.80
796.07	39663.01
796.25	39400.87
796.43	39597.48
796.61	39024.04
796.80	39351.72
796.98	39284.14
797.16	38917.55
797.34	39179.69
797.52	39075.24
797.70	39220.65
797.88	38698.42
798.06	38825.39
798.24	39112.11
798.42	38880.69
798.60	38634.93
798.78	38880.69
798.96	38604.21
799.14	38133.18
799.32	38198.71
799.51	38073.79
799.69	38215.10
799.87	38202.81
800.05	37576.13
800.23	38002.11
800.41	37762.50
800.59	37565.89
800.77	37672.39
800.95	37332.42
801.13	37250.50
801.31	37471.68
801.49	37559.75
801.67	37490.12
801.85	37428.68
802.03	36869.58
802.21	36826.57
802.39	36689.36
802.57	36820.43
802.75	36865.49
802.93	36728.27
803.11	36543.95
803.29	36521.43
803.47	36281.81
803.65	36443.60
803.83	36439.51
804.01	36173.27
804.19	36181.46
804.37	35821.02
804.55	35950.04
804.73	35751.39
804.91	35894.75
805.09	35677.66
805.27	35874.27
805.45	35841.50
805.63	35923.42
805.81	35501.54
805.99	35593.70
806.17	35436.00
806.35	35595.74
806.53	34954.73
806.71	35034.60
806.89	34954.73
807.07	35003.88
807.25	35161.58
807.43	34807.28
807.61	35190.25
807.79	34805.23
807.97	34313.72
808.15	34678.25
808.33	34401.78
808.51	34895.34
808.69	34559.47
808.87	34475.51
809.05	34053.62
809.23	34129.40
809.41	33969.66
809.59	34127.35
809.77	34160.12
809.95	34250.23
810.13	34094.58
810.31	33453.57
810.49	33908.22
810.67	33760.76
810.84	33410.56
811.02	33410.56
811.20	33496.58
811.38	33330.69
811.56	32970.25
811.74	33173.00
811.92	33101.32
812.10	33029.64
812.28	33543.68
812.46	33455.62
812.64	32824.84
812.82	33109.51
813.00	33230.34
813.18	32794.12
813.36	32994.82
813.53	32570.90
813.71	32626.19
813.89	32611.85
814.07	32488.98
814.25	32394.77
814.43	32546.32
814.61	32505.36
814.79	32495.12
814.97	32355.86
815.15	32413.20
815.33	31946.26
815.50	31868.44
815.68	32073.24
815.86	32189.97
816.04	31778.33
816.22	31622.69
816.40	31884.83
816.58	31850.01
816.76	31403.55
816.94	31575.58
817.11	31168.04
817.29	31739.42
817.47	31505.95
817.65	31006.25
817.83	31510.05
818.01	31573.53
818.19	30871.08
818.37	31233.57
818.54	30928.42
818.72	30744.11
818.90	31233.57
819.08	30688.81
819.26	30914.09
819.44	30815.79
819.62	30694.96
819.80	30981.67
819.97	30629.42
820.15	30481.97
820.33	30441.01
820.51	30809.64
820.69	30228.02
820.87	30447.15
821.05	30684.72
821.22	30344.75
821.40	30303.79
821.58	30164.53
821.76	30178.87
821.94	30234.16
822.12	30092.85
822.29	30174.77
822.47	29992.50
822.65	30144.05
822.83	29951.54
823.01	30107.19
823.19	30084.66
823.36	29722.17
823.54	29570.62
823.72	29402.69
823.90	29589.05
824.08	29251.14
824.25	29361.73
824.43	29343.30
824.61	29716.03
824.79	29515.33
824.97	29218.37
825.15	29300.29
825.32	29390.40
825.50	29052.48
825.68	28800.58
825.86	29314.62
826.04	29374.02
826.21	29206.08
826.39	29275.71
826.57	29005.38
826.75	28577.36
826.93	28755.53
827.10	28771.91
827.28	28612.17
827.46	28747.34
827.64	28423.76
827.81	28573.26
827.99	28651.08
828.17	28411.47
828.35	28016.21
828.53	28399.18
828.70	28257.87
828.88	28341.84
829.06	28188.24
829.24	28231.25
829.41	27856.47
829.59	28569.16
829.77	28055.12
829.95	27958.87
830.12	27776.60
830.30	27926.10
830.48	27905.62
830.66	27846.23
830.84	27965.01
831.01	27661.91
831.19	27799.13
831.37	27723.35
831.55	27788.89
831.72	27606.62
831.90	27885.14
832.08	27381.34
832.25	27553.37
832.43	27506.27
832.61	27227.74
832.79	27242.08
832.96	27369.05
833.14	27438.69
833.32	27604.57
833.50	27639.39
833.67	27387.49
833.85	27027.04
834.03	26838.63
834.20	26859.11
834.38	27113.06
834.56	27149.92
834.74	27270.75
834.91	27047.52
835.09	26945.12
835.27	26619.50
835.44	26809.96
835.62	26244.72
835.80	26648.17
835.98	26449.52
836.15	26474.09
836.33	26588.78
836.51	26873.45
836.68	26467.95
836.86	26510.96
837.04	26357.36
837.21	26474.09
837.39	26324.59
837.57	26486.38
837.75	26629.74
837.92	26173.04
838.10	26226.29
838.28	26060.40
838.45	26189.42
838.63	25912.95
838.81	25849.46
838.98	25906.80
839.16	25679.48
839.34	25876.09
839.51	25896.56
839.69	25628.28
839.87	25540.22
840.04	25620.09
840.22	25812.60
840.40	25800.31
840.57	25222.78
840.75	25583.23
840.93	25476.73
841.10	25761.40
841.28	25845.37
841.46	25646.71
841.63	25611.90
841.81	25564.79
841.98	25335.42
842.16	25810.55
842.34	25581.18
842.51	25122.43
842.69	25327.23
842.87	25200.26
843.04	25314.94
843.22	24786.57
843.40	25083.52
843.57	24770.18
843.75	25273.98
843.92	25112.19
844.10	24821.38
844.28	24903.30
844.45	25077.38
844.63	24993.41
844.81	24766.09
844.98	24923.78
845.16	24690.31
845.33	24997.51
845.51	24628.87
845.69	24526.47
845.86	24745.61
846.04	24741.51
846.21	24675.98
846.39	24614.54
846.57	24358.54
846.74	24411.79
846.92	24127.12
847.09	24391.31
847.27	24118.93
847.45	24297.10
847.62	24315.53
847.80	24295.05
847.97	24479.37
848.15	24483.47
848.32	23979.67
848.50	24106.64
848.68	23731.86
848.85	24043.15
849.03	23928.47
849.20	23703.19
849.38	23971.47
849.56	24012.43
849.73	23326.36
849.91	23705.24
850.08	23805.59
850.26	23400.09
850.43	23875.22
850.61	23738.01
850.78	23455.39
850.96	23664.28
851.14	23731.86
851.31	23561.88
851.49	23332.51
851.66	23578.26
851.84	23578.26
852.01	23357.08
852.19	23330.46
852.36	23336.60
852.54	23090.85
852.71	23219.87
852.89	23176.86
853.07	23473.82
853.24	23316.12
853.42	23281.31
853.59	23234.21
853.77	23240.35
853.94	22998.69
854.12	22992.55
854.29	22752.93
854.47	22781.60
854.64	22646.44
854.82	22705.83
854.99	22726.31
855.17	22679.21
855.34	22679.21
855.52	22718.12
855.69	23023.26
855.87	22810.28
856.04	22556.33
856.22	22630.05
856.39	22226.60
856.57	22707.88
856.74	22552.23
856.92	22505.13
857.09	22367.91
857.27	22345.39
857.44	22836.90
857.62	22388.39
857.79	22439.59
857.97	22333.10
858.14	22064.82
858.32	22206.13
858.49	22261.42
858.67	22118.06
858.84	22052.53
859.02	21937.84
859.19	21989.04
859.37	21970.61
859.54	21900.98
859.72	21952.18
859.89	21808.82
860.06	21960.37
860.24	21962.42
860.41	21900.98
860.59	21796.53
860.76	21673.65
860.94	21653.17
861.11	21616.31
861.29	21616.31
861.46	21393.08
861.64	21388.99
861.81	21675.70
861.98	21497.53
862.16	21288.64
862.33	21343.93
862.51	21149.37
862.68	21300.92
862.86	21335.74
863.03	21196.48
863.21	21421.75
863.38	21243.58
863.55	21104.32
863.73	21194.43
863.90	21337.79
864.08	21141.18
864.25	21024.45
864.43	20780.74
864.60	20776.64
864.77	20733.64
864.95	20772.55
865.12	20610.76
865.30	21053.12
865.47	20666.05
865.64	20731.59
865.82	20627.14
865.99	21032.64
866.17	20829.89
866.34	20815.55
866.51	20195.02
866.69	20780.74
866.86	20598.47
867.04	20508.36
867.21	20281.03
867.38	20266.70
867.56	20336.33
867.73	20512.46
867.91	20258.51
868.08	20250.32
868.25	20332.23
868.43	20106.96
868.60	20211.40
868.78	20170.44
868.95	20405.96
869.12	19965.65
869.30	20104.91
869.47	19961.55
869.64	19547.86
869.82	19877.58
869.99	19861.20
870.16	20190.92
870.34	19949.26
870.51	20061.90
870.69	19619.54
870.86	19797.71
871.03	20039.37
871.21	19533.53
871.38	19855.06
871.55	19494.61
871.73	19486.42
871.90	19533.53
872.07	19265.24
872.25	19222.23
872.42	19601.11
872.59	19150.56
872.77	19152.60
872.94	19300.06
873.11	19472.09
873.29	19140.32
873.46	19300.06
873.63	19181.28
873.81	19320.54
873.98	18999.01
874.15	18869.98
874.33	18716.39
874.50	18910.94
874.67	18831.07
874.85	18663.14
875.02	18568.93
875.19	18530.02
875.37	18501.35
875.54	18245.35
875.71	18640.61
875.88	18431.72
876.06	18464.49
876.23	18421.48
876.40	18392.81
876.58	18345.70
876.75	18405.10
876.92	18210.54
877.10	18140.91
877.27	18253.55
877.44	18294.50
877.61	17962.73
877.79	18007.79
877.96	17927.92
878.13	17731.31
878.31	18095.85
878.48	17733.36
878.65	17743.60
878.82	17764.08
879.00	17839.86
879.17	17784.56
879.34	17981.17
879.51	17653.49
879.69	17643.25
879.86	17428.21
880.03	17518.32
880.21	17481.46
880.38	17608.44
880.55	17620.72
880.72	17370.87
880.90	17329.91
881.07	17393.40
881.24	17475.32
881.41	17540.85
881.59	17301.24
881.76	17366.78
881.93	17430.26
882.10	17237.75
882.28	16928.51
882.45	17178.36
882.62	17235.70
882.79	17291.00
882.96	16910.08
883.14	17022.72
883.31	17258.23
883.48	17098.49
883.65	17092.35
883.83	17100.54
884.00	16971.52
884.17	17014.52
884.34	16836.35
884.51	16762.62
884.69	16895.74
884.86	16948.99
885.03	16846.59
885.20	16676.61
885.38	16815.87
885.55	16764.67
885.72	16682.75
885.89	16801.54
886.06	16899.84
886.24	16801.54
886.41	16744.19
886.58	16754.43
886.75	16697.09
886.92	16451.33
887.10	16434.95
887.27	16224.01
887.44	16461.57
887.61	16629.51
887.78	16594.69
887.95	16586.50
888.13	16142.09
888.30	16563.97
888.47	16455.43
888.64	16350.98
888.81	16150.28
888.99	16238.34
889.16	16049.93
889.33	15902.48
889.50	15957.77
889.67	15955.72
889.84	15718.16
890.01	16221.96
890.19	15959.82
890.36	15990.54
890.53	15910.67
890.70	15712.02
890.87	15994.64
891.04	15736.59
891.22	15935.24
891.39	15603.47
891.56	15669.01
891.73	15965.96
891.90	15626.00
892.07	15394.58
892.24	15705.87
892.42	15611.67
892.59	15621.91
892.76	15476.50
892.93	15671.06
893.10	15570.71
893.27	15605.52
893.44	15271.70
893.61	15355.67
893.79	15714.06
893.96	15425.30
894.13	15453.97
894.30	15296.28
894.47	15650.58
894.64	15552.27
894.81	15519.51
894.98	15443.73
895.15	15179.54
895.33	15271.70
895.50	15445.78
895.67	15562.51
895.84	15431.44
896.01	15290.13
896.18	15116.06
896.35	15214.36
896.52	15269.66
896.69	15165.21
896.86	15292.18
897.04	15259.42
897.21	15290.13
897.38	14966.56
897.55	15146.78
897.72	15187.74
897.89	15050.52
898.06	15255.32
898.23	15191.83
898.40	15220.50
898.57	15251.22
898.74	15279.89
898.91	14999.32
899.08	15165.21
899.26	15126.30
899.43	15181.59
899.60	14898.97
899.77	15150.87
899.94	15042.33
900.11	14982.94
900.28	15105.82
900.45	14886.68
900.62	14974.75
900.79	15052.57
900.96	15240.98
901.13	14800.67
901.30	14892.83
901.47	15048.47
901.64	15071.00
901.81	15195.93
901.98	14898.97
902.15	15050.52
902.32	14911.26
902.49	15148.82
902.66	15148.82
902.83	14827.29
903.01	14894.88
903.18	14944.03
903.35	14882.59
903.52	15007.52
903.69	15087.39
903.86	15154.97
904.03	15068.95
904.20	14960.41
904.37	14855.97
904.54	14823.20
904.71	14860.06
904.88	14974.75
905.05	14898.97
905.22	14933.79
905.39	14864.16
905.56	15021.85
905.73	14954.27
905.90	14784.29
906.07	14853.92
906.24	14898.97
906.41	14755.61
906.58	14995.23
906.75	14929.69
906.92	14874.40
907.09	14847.77
907.26	15034.14
907.43	14561.06
907.60	14866.21
907.77	14880.54
907.93	14855.97
908.10	15101.72
908.27	14929.69
908.44	14706.46
908.61	14626.59
908.78	14653.22
908.95	14880.54
909.12	14886.68
909.29	14677.79
909.46	14784.29
909.63	14829.34
909.80	14839.58
909.97	14911.26
910.14	14731.04
910.31	14772.00
910.48	14728.99
910.65	14692.13
910.82	14610.21
910.99	14737.18
911.16	14634.78
911.33	14487.33
911.50	14374.69
911.66	14495.52
911.83	14546.72
912.00	14647.07
912.17	14473.00
912.34	14532.39
912.51	14366.50
912.68	14315.30
912.85	14513.95
913.02	14386.98
913.19	14133.03
913.36	14200.62
913.53	14251.81
913.70	14251.81
913.86	14528.29
914.03	14180.14
914.20	14063.40
914.37	14126.89
914.54	13971.24
914.71	14167.85
914.88	13928.24
915.05	14217.00
915.22	13961.00
915.39	13805.36
915.55	14251.81
915.72	13971.24
915.89	13827.88
916.06	13823.79
916.23	13750.06
916.40	13727.53
916.57	13623.09
916.74	13645.62
916.91	13780.78
917.07	13655.86
917.24	13485.87
917.41	13408.05
917.58	13410.10
917.75	13594.42
917.92	13434.68
918.09	13440.82
918.26	13465.39
918.42	13397.81
918.59	13352.76
918.76	13125.43
918.93	13033.27
919.10	12953.40
919.27	13295.41
919.44	13127.48
919.60	13104.95
919.77	13135.67
919.94	12875.58
920.11	13025.08
920.28	13010.75
920.45	12869.44
920.61	12767.04
920.78	12934.97
920.95	12830.52
921.12	12822.33
921.29	12482.37
921.46	12654.40
921.62	12558.14
921.79	12769.09
921.96	12474.18
922.13	12365.64
922.30	12564.29
922.47	12431.17
922.63	12259.14
922.80	12513.09
922.97	12455.75
923.14	12308.29
923.31	12588.86
923.47	12001.10
923.64	12326.72
923.81	11958.09
923.98	11972.43
924.15	12011.34
924.32	12095.30
924.48	11831.12
924.65	11843.40
924.82	11835.21
924.99	11816.78
925.15	11605.84
925.32	11743.05
925.49	11544.40
925.66	11710.29
925.83	11448.15
925.99	11353.94
926.16	11487.06
926.33	11616.08
926.50	11294.55
926.67	11442.00
926.83	11327.32
927.00	11147.09
927.17	11067.22
927.34	11149.14
927.50	11251.54
927.67	11200.34
927.84	11134.81
928.01	11011.93
928.17	10979.16
928.34	10747.74
928.51	10686.30
928.68	10831.71
928.84	10653.53
929.01	10528.61
929.18	10489.70
929.35	10643.29
929.51	10522.46
929.68	10524.51
929.85	10510.18
930.02	10413.92
930.18	10446.69
930.35	10442.59
930.52	10223.46
930.69	10418.02
930.85	10305.38
931.02	9994.09
931.19	10258.28
931.36	9998.18
931.52	10053.48
931.69	10041.19
931.86	9949.03
932.02	10053.48
932.19	9854.83
932.36	9803.63
932.53	9795.43
932.69	9924.46
932.86	9676.65
933.03	9539.44
933.19	9482.10
933.36	9662.32
933.53	9471.86
933.70	9516.91
933.86	9535.34
934.03	9537.39
934.20	9209.72
934.36	9416.56
934.53	8990.58
934.70	8941.43
934.86	9088.89
935.03	9043.83
935.20	8896.38
935.36	8748.92
935.53	8585.08
935.70	8738.68
935.86	8851.32
936.03	8499.07
936.20	8480.64
936.36	8451.97
936.53	8589.18
936.70	8351.62
936.86	8568.70
937.03	8417.15
937.20	8060.80
937.36	8064.90
937.53	7935.88
937.70	7905.16
937.86	7712.65
938.03	7831.43
938.20	8081.28
938.36	7565.20
938.53	7495.57
938.70	7370.64
938.86	7501.71
939.03	7212.95
939.20	7251.86
939.36	7188.37
939.53	7126.93
939.70	7458.70
939.86	7028.63
940.03	6834.07
940.19	6786.97
940.36	6733.72
940.53	6737.82
940.69	6600.60
940.86	6633.37
941.03	6377.37
941.19	6397.85
941.36	6399.90
941.52	6393.76
941.69	6229.92
941.86	6254.50
942.02	6094.76
942.19	6053.80
942.35	6223.78
942.52	5922.73
942.69	5914.53
942.85	5822.38
943.02	5724.07
943.18	5924.77
943.35	5732.26
943.52	5689.26
943.68	5676.97
943.85	5699.50
944.01	5564.33
944.18	5517.23
944.35	5578.67
944.51	5500.84
944.68	5347.25
944.84	5390.25
945.01	5320.62
945.17	5537.71
945.34	5433.26
945.51	5502.89
945.67	5390.25
945.84	5437.36
946.00	5345.20
946.17	5345.20
946.33	5289.90
946.50	5380.01
946.67	5222.32
946.83	5289.90
947.00	5380.01
947.16	5281.71
947.33	5261.23
947.49	5201.84
947.66	5263.28
947.82	5214.13
947.99	5119.92
948.16	5312.43
948.32	5255.09
948.49	5431.21
948.65	5238.70
948.82	5164.98
948.98	5263.28
949.15	5076.91
949.31	5144.50
949.48	5171.12
949.64	5363.63
949.81	5205.94
949.97	5218.22
950.14	5339.05
950.30	5207.98
950.47	5408.69
950.63	5115.83
950.80	5294.00
950.96	5300.14
951.13	5332.91
951.30	5193.65
951.46	5386.16
951.63	5359.53
951.79	5418.93
951.96	5298.10
952.12	5238.70
952.29	5334.96
952.45	5246.90
952.62	5316.53
952.78	5287.86
952.94	5310.38
953.11	5283.76
953.27	5220.27
953.44	5525.42
953.60	5316.53
953.77	5218.22
953.93	5332.91
954.10	5386.16
954.26	5347.25
954.43	5345.20
954.59	5402.54
954.76	5478.32
954.92	5384.11
955.09	5451.69
955.25	5285.81
955.42	5423.02
955.58	5359.53
955.75	5394.35
955.91	5310.38
956.07	5509.04
956.24	5414.83
956.40	5502.89
956.57	5437.36
956.73	5384.11
956.90	5386.16
957.06	5423.02
957.23	5351.34
957.39	5457.84
957.56	5447.60
957.72	5330.86
957.88	5380.01
958.05	5468.08
958.21	5523.37
958.38	5375.92
958.54	5310.38
958.71	5455.79
958.87	5283.76
959.03	5423.02
959.20	5498.80
959.36	5392.30
959.53	5408.69
959.69	5394.35
959.85	5423.02
960.02	5402.54
960.18	5433.26
960.35	5406.64
960.51	5554.09
960.68	5474.22
960.84	5410.73
961.00	5490.60
961.17	5328.81
961.33	5371.82
961.50	5369.77
961.66	5433.26
961.82	5263.28
961.99	5328.81
962.15	5470.12
962.31	5410.73
962.48	5412.78
962.64	5463.98
962.81	5347.25
962.97	5259.18
963.13	5382.06
963.30	5427.12
963.46	5380.01
963.62	5367.73
963.79	5339.05
963.95	5357.49
964.12	5300.14
964.28	5224.37
964.44	5271.47
964.61	5328.81
964.77	5259.18
964.93	5353.39
965.10	5433.26
965.26	5224.37
965.42	5341.10
965.59	5351.34
965.75	5300.14
965.92	5433.26
966.08	5400.49
966.24	5283.76
966.41	5222.32
966.57	5234.61
966.73	5294.00
966.90	5322.67
967.06	5269.42
967.22	5324.72
967.39	5250.99
967.55	5220.27
967.71	5246.90
967.88	5111.73
968.04	5197.74
968.20	5203.89
968.37	5181.36
968.53	5152.69
968.69	5152.69
968.85	5130.16
969.02	5177.26
969.18	5095.35
969.34	5072.82
969.51	5185.46
969.67	5093.30
969.83	4999.09
970.00	5242.80
970.16	5007.28
970.32	5101.49
970.48	5078.96
970.65	4968.37
970.81	4976.56
970.97	5046.20
971.14	4999.09
971.30	5121.97
971.46	5074.87
971.63	4958.13
971.79	4941.75
971.95	4925.36
972.11	4968.37
972.28	4984.76
972.44	4978.61
972.60	4947.89
972.76	4888.50
972.93	4906.93
973.09	4951.99
973.25	5025.72
973.42	4902.84
973.58	4995.00
973.74	4857.78
973.90	5005.24
974.07	4812.73
974.23	4865.97
974.39	4886.45
974.55	4745.14
974.72	4798.39
974.88	4779.96
975.04	4868.02
975.20	4765.62
975.37	4777.91
975.53	4831.16
975.69	4906.93
975.85	4818.87
976.01	4818.87
976.18	4648.89
976.34	4603.83
976.50	4802.49
976.66	4771.77
976.83	4665.27
976.99	4601.79
977.15	4616.12
977.31	4640.70
977.47	4679.61
977.64	4677.56
977.80	4583.35
977.96	4530.11
978.12	4591.55
978.29	4575.16
978.45	4487.10
978.61	4761.53
978.77	4622.27
978.93	4528.06
979.10	4573.11
979.26	4532.15
979.42	4503.48
979.58	4513.72
979.74	4472.76
979.91	4595.64
980.07	4462.52
980.23	4452.28
980.39	4401.08
980.55	4550.59
980.71	4462.52
980.88	4356.03
981.04	4358.08
981.20	4409.28
981.36	4509.63
981.52	4288.45
981.68	4325.31
981.85	4480.96
982.01	4403.13
982.17	4372.41
982.33	4380.61
982.49	4497.34
982.65	4218.82
982.82	4427.71
982.98	4298.69
983.14	4267.97
983.30	4300.73
983.46	4263.87
983.62	4323.26
983.79	4202.43
983.95	4378.56
984.11	4227.01
984.27	4149.18
984.43	4161.47
984.59	4222.91
984.75	4263.87
984.91	4124.61
985.08	4149.18
985.24	4376.51
985.40	4083.65
985.56	4188.10
985.72	4167.62
985.88	4214.72
986.04	4122.56
986.20	4079.55
986.37	4050.88
986.53	4054.98
986.69	4097.99
986.85	4081.60
987.01	3942.34
987.17	4065.22
987.33	3944.39
987.49	4046.79
987.65	3973.06
987.82	3958.72
987.98	3858.37
988.14	3960.77
988.30	3948.48
988.46	4030.40
988.62	4009.92
988.78	3923.91
988.94	3823.56
989.10	3798.98
989.26	3815.37
989.42	3854.28
989.59	3821.51
989.75	3870.66
989.91	3856.33
990.07	3839.94
990.23	3882.95
990.39	3854.28
990.55	3762.12
990.71	3852.23
990.87	3774.41
991.03	3862.47
991.19	3737.54
991.35	3778.50
991.51	3770.31
991.67	3841.99
991.83	3780.55
992.00	3737.54
992.16	3862.47
992.32	3708.87
992.48	3645.38
992.64	3665.86
992.80	3690.44
992.96	3729.35
993.12	3727.30
993.28	3665.86
993.44	3719.11
993.60	3692.49
993.76	3631.05
993.92	3688.39
994.08	3639.24
994.24	3727.30
994.40	3696.58
994.56	3649.48
994.72	3545.03
994.88	3624.90
995.04	3565.51
995.20	3567.56
995.36	3493.83
995.52	3575.75
995.68	3504.07
995.84	3575.75
996.00	3557.32
996.16	3420.11
996.32	3485.64
996.48	3551.18
996.64	3538.89
996.80	3483.59
996.96	3485.64
997.12	3467.21
997.28	3409.87
997.44	3364.81
997.60	3538.89
997.76	3370.96
997.92	3571.66
998.08	3506.12
998.24	3319.76
998.40	3571.66
998.56	3450.83
998.72	3280.85
998.88	3401.68
999.04	3360.72
999.20	3442.64
999.36	3321.81
999.52	3440.59
999.68	3248.08
999.84	3348.43
1000.00	3364.81
1000.16	3438.54
1000.32	3282.89
1000.48	3393.48
1000.64	3209.17
1000.80	3188.69
1000.95	3178.45
1001.11	3286.99
1001.27	3049.43
1001.43	3248.08
1001.59	3164.11
1001.75	3137.49
1001.91	3200.98
1002.07	3178.45
1002.23	3119.06
1002.39	3162.06
1002.55	3194.83
1002.71	3125.20
1002.87	3088.34
1003.03	3055.57
1003.19	3106.77
1003.34	3127.25
1003.50	3143.63
1003.66	3180.50
1003.82	3147.73
1003.98	3119.06
1004.14	3026.90
1004.30	3121.10
1004.46	3022.80
1004.62	3092.43
1004.78	3033.04
1004.94	3059.67
1005.09	3016.66
1005.25	3033.04
1005.41	3039.19
1005.57	3024.85
1005.73	2965.46
1005.89	2971.60
1006.05	3000.27
1006.21	3049.43
1006.37	2949.08
1006.52	2895.83
1006.68	2807.77
1006.84	2969.55
1007.00	2910.16
1007.16	3039.19
1007.32	2850.77
1007.48	2885.59
1007.64	2994.13
1007.79	2803.67
1007.95	2901.97
1008.11	2944.98
1008.27	2916.31
1008.43	2942.93
1008.59	2865.11
1008.75	2815.96
1008.91	2881.49
1009.06	2861.01
1009.22	2830.29
1009.38	2916.31
1009.54	2895.83
1009.70	2793.43
1009.86	2762.71
1010.01	2785.24
1010.17	2828.24
1010.33	2818.00
1010.49	2752.47
1010.65	2848.72
1010.81	2672.60
1010.96	2787.29
1011.12	2719.70
1011.28	2613.21
1011.44	2719.70
1011.60	2705.37
1011.76	2682.84
1011.91	2906.07
1012.07	2645.98
1012.23	2658.26
1012.39	2699.22
1012.55	2674.65
1012.71	2635.74
1012.86	2631.64
1013.02	2598.87
1013.18	2684.89
1013.34	2598.87
1013.50	2637.78
1013.65	2584.54
1013.81	2617.30
1013.97	2580.44
1014.13	2660.31
1014.29	2598.87
1014.44	2605.02
1014.60	2639.83
1014.76	2588.63
1014.92	2559.96
1015.07	2572.25
1015.23	2666.46
1015.39	2525.15
1015.55	2519.00
1015.71	2566.10
1015.86	2605.02
1016.02	2559.96
1016.18	2285.53
1016.34	2559.96
1016.49	2588.63
1016.65	2580.44
1016.81	2408.41
1016.97	2432.99
1017.12	2588.63
1017.28	2469.85
1017.44	2463.71
1017.60	2549.72
1017.75	2453.47
1017.91	2465.75
1018.07	2494.43
1018.23	2580.44
1018.38	2353.12
1018.54	2508.76
1018.70	2527.19
1018.86	2418.65
1019.01	2437.08
1019.17	2437.08
1019.33	2508.76
1019.49	2457.56
1019.64	2488.28
1019.80	2523.10
1019.96	2416.60
1020.12	2324.44
1020.27	2383.84
1020.43	2410.46
1020.59	2396.12
1020.74	2502.62
1020.90	2422.75
1021.06	2381.79
1021.22	2389.98
1021.37	2439.13
1021.53	2314.20
1021.69	2432.99
1021.84	2400.22
1022.00	2328.54
1022.16	2283.49
1022.31	2267.10
1022.47	2191.33
1022.63	2330.59
1022.79	2318.30
1022.94	2336.73
1023.10	2353.12
1023.26	2346.97
1023.41	2271.20
1023.57	2336.73
1023.73	2273.25
1023.88	2361.31
1024.04	2224.09
1024.20	2301.92
1024.35	2299.87
1024.51	2367.45
1024.67	2185.18
1024.82	2287.58
1024.98	2226.14
1025.14	2299.87
1025.29	2263.01
1025.45	2263.01
1025.61	2187.23
1025.76	2310.11
1025.92	2275.29
1026.08	2258.91
1026.23	2265.05
1026.39	2297.82
1026.55	2160.61
1026.70	2230.24
1026.86	2162.66
1027.02	2252.77
1027.17	2191.33
1027.33	2172.89
1027.48	2217.95
1027.64	2133.98
1027.80	2121.70
1027.95	2240.48
1028.11	2107.36
1028.27	2201.57
1028.42	2146.27
1028.58	2172.89
1028.73	2099.17
1028.89	2090.98
1029.05	2263.01
1029.20	2097.12
>>>>>End Processed Spectral Data<<<<<
