SpectraSuite Data File
++++++++++++++++++++++++++++++++++++
Date: Fri Jun 02 14:53:31 CEST 2017
User: INFO_000
Dark Spectrum Present: No
Reference Spectrum Present: No
Number of Sampled Component Spectra: 1
Spectrometers: USB4H00879
Integration Time (usec): 80000 (USB4H00879)
Spectra Averaged: 1 (USB4H00879)
Boxcar Smoothing: 0 (USB4H00879)
Correct for Electrical Dark: No (USB4H00879)
Strobe/Lamp Enabled: No (USB4H00879)
Correct for Detector Non-linearity: No (USB4H00879)
Correct for Stray Light: No (USB4H00879)
Number of Pixels in Processed Spectrum: 3648
>>>>>Begin Processed Spectral Data<<<<<
345.13	1331.18
345.34	1331.18
345.56	1331.18
345.78	1269.74
345.99	1337.32
346.21	1722.34
346.42	1716.20
346.64	1615.85
346.86	1775.59
347.07	1689.57
347.29	1701.86
347.50	1591.27
347.72	1648.61
347.94	1781.73
348.15	1593.32
348.37	1570.79
348.59	1681.38
348.80	1632.23
349.02	1759.21
349.23	1869.80
349.45	1806.31
349.67	1925.09
349.88	1806.31
350.10	1900.52
350.31	1839.08
350.53	1798.12
350.75	1927.14
350.96	1773.54
351.18	1906.66
351.39	1920.99
351.61	1853.41
351.82	1855.46
352.04	1947.62
352.26	1808.36
352.47	1916.90
352.69	1951.71
352.90	1746.92
353.12	1859.56
353.34	1857.51
353.55	1976.29
353.77	1845.22
353.98	1908.71
354.20	1818.60
354.41	1871.84
354.63	1953.76
354.85	2002.91
355.06	1904.61
355.28	1716.20
355.49	1957.86
355.71	1794.02
355.92	1886.18
356.14	1863.65
356.35	1886.18
356.57	1896.42
356.79	2045.92
357.00	1955.81
357.22	1945.57
357.43	1810.40
357.65	2002.91
357.86	1787.88
358.08	2025.44
358.29	2007.01
358.51	1951.71
358.72	1935.33
358.94	1984.48
359.16	1957.86
359.37	2002.91
359.59	2007.01
359.80	1966.05
360.02	1945.57
360.23	1841.12
360.45	1896.42
360.66	1923.04
360.88	1800.16
361.09	1912.80
361.31	2027.49
361.52	2002.91
361.74	1966.05
361.95	2136.03
362.17	1972.19
362.38	2101.22
362.60	1970.15
362.81	1968.10
363.03	2031.58
363.24	2004.96
363.46	2056.16
363.67	2027.49
363.89	2000.87
364.10	1998.82
364.32	2007.01
364.53	2066.40
364.75	1941.47
364.96	2084.83
365.18	2070.50
365.39	2058.21
365.61	1978.34
365.82	2127.84
366.04	2011.11
366.25	1976.29
366.47	2019.30
366.68	2082.78
366.90	1986.53
367.11	2138.08
367.33	2035.68
367.54	2109.41
367.76	2064.35
367.97	2086.88
368.19	2017.25
368.40	2176.99
368.62	1935.33
368.83	2004.96
369.05	2076.64
369.26	2007.01
369.48	2066.40
369.69	2011.11
369.91	2027.49
370.12	2072.54
370.33	2142.18
370.55	1966.05
370.76	2109.41
370.98	2119.65
371.19	2047.97
371.41	2074.59
371.62	2056.16
371.84	2076.64
372.05	2217.95
372.27	2060.26
372.48	2084.83
372.69	2125.79
372.91	2158.56
373.12	2176.99
373.34	2117.60
373.55	2113.50
373.77	2303.96
373.98	2148.32
374.20	2174.94
374.41	2230.24
374.62	2142.18
374.84	2142.18
375.05	2207.71
375.27	2158.56
375.48	2174.94
375.70	2215.90
375.91	2301.92
376.12	2222.05
376.34	2133.98
376.55	2230.24
376.77	2275.29
376.98	2117.60
377.19	2156.51
377.41	2117.60
377.62	2199.52
377.84	2295.77
378.05	2332.64
378.27	2195.42
378.48	2281.44
378.69	2357.21
378.91	2377.69
379.12	2310.11
379.34	2191.33
379.55	2287.58
379.76	2355.16
379.98	2213.85
380.19	2279.39
380.41	2293.72
380.62	2357.21
380.83	2299.87
381.05	2222.05
381.26	2379.74
381.47	2215.90
381.69	2318.30
381.90	2400.22
382.12	2289.63
382.33	2303.96
382.54	2267.10
382.76	2306.01
382.97	2303.96
383.19	2279.39
383.40	2287.58
383.61	2334.68
383.83	2222.05
384.04	2338.78
384.25	2400.22
384.47	2318.30
384.68	2375.64
384.89	2336.73
385.11	2344.92
385.32	2318.30
385.54	2303.96
385.75	2244.57
385.96	2428.89
386.18	2465.75
386.39	2418.65
386.60	2351.07
386.82	2482.14
387.03	2406.36
387.24	2508.76
387.46	2443.23
387.67	2465.75
387.88	2500.57
388.10	2508.76
388.31	2576.34
388.52	2570.20
388.74	2600.92
388.95	2418.65
389.16	2486.23
389.38	2437.08
389.59	2688.98
389.80	2521.05
390.02	2519.00
390.23	2686.94
390.44	2521.05
390.66	2602.97
390.87	2488.28
391.08	2545.63
391.30	2650.07
391.51	2631.64
391.72	2676.70
391.94	2678.74
392.15	2654.17
392.36	2637.78
392.58	2451.42
392.79	2693.08
393.00	2691.03
393.22	2715.61
393.43	2789.33
393.64	2869.20
393.85	2844.63
394.07	2650.07
394.28	2746.33
394.49	2758.61
394.71	2717.65
394.92	2828.24
395.13	2717.65
395.35	2756.57
395.56	2697.17
395.77	2738.13
395.98	2777.05
396.20	2789.33
396.41	2809.81
396.62	2871.25
396.84	2895.83
397.05	2844.63
397.26	2893.78
397.47	2977.75
397.69	2842.58
397.90	2998.23
398.11	2811.86
398.32	2910.16
398.54	2981.84
398.75	2899.92
398.96	2869.20
399.18	3098.58
399.39	2979.79
399.60	3100.62
399.81	2967.51
400.03	3035.09
400.24	3260.37
400.45	2977.75
400.66	3119.06
400.88	3104.72
401.09	3211.22
401.30	3080.14
401.51	3106.77
401.73	3153.87
401.94	3117.01
402.15	3162.06
402.36	3082.19
402.58	3084.24
402.79	3211.22
403.00	3190.74
403.21	3215.31
403.43	3223.50
403.64	3327.95
403.85	3137.49
404.06	3274.70
404.27	3176.40
404.49	3196.88
404.70	3098.58
404.91	3319.76
405.12	3235.79
405.34	3235.79
405.55	3540.94
405.76	3223.50
405.97	3340.24
406.19	3424.20
406.40	3286.99
406.61	3299.28
406.82	3344.33
407.03	3348.43
407.25	3301.33
407.46	3469.26
407.67	3573.71
407.88	3528.65
408.09	3434.44
408.31	3432.40
408.52	3485.64
408.73	3438.54
408.94	3370.96
409.15	3516.36
409.37	3565.51
409.58	3575.75
409.79	3553.23
410.00	3616.71
410.21	3504.07
410.43	3534.79
410.64	3428.30
410.85	3581.90
411.06	3657.67
411.27	3647.43
411.48	3782.60
411.70	3565.51
411.91	3622.86
412.12	3839.94
412.33	3686.34
412.54	3741.64
412.76	3694.54
412.97	3655.62
413.18	3715.02
413.39	3702.73
413.60	3704.78
413.81	3717.06
414.03	3704.78
414.24	3663.82
414.45	3772.36
414.66	3649.48
414.87	3794.89
415.08	3682.25
415.30	3778.50
415.51	3721.16
415.72	3833.80
415.93	3835.85
416.14	3971.01
416.35	3964.87
416.56	3852.23
416.78	3831.75
416.99	3868.61
417.20	3989.44
417.41	4122.56
417.62	3874.76
417.83	3975.11
418.04	3852.23
418.26	4034.50
418.47	3872.71
418.68	4040.64
418.89	4114.37
419.10	4245.44
419.31	4120.51
419.52	4071.36
419.73	4067.27
419.95	4085.70
420.16	4100.03
420.37	4104.13
420.58	4220.86
420.79	3977.16
421.00	4212.67
421.21	4194.24
421.42	4237.25
421.63	4251.58
421.85	4157.38
422.06	4272.06
422.27	4190.14
422.48	4272.06
422.69	4198.34
422.90	4362.17
423.11	4491.20
423.32	4296.64
423.53	4503.48
423.75	4446.14
423.96	4507.58
424.17	4394.94
424.38	4499.39
424.59	4564.92
424.80	4571.07
425.01	4657.08
425.22	4540.35
425.43	4620.22
425.64	4759.48
425.85	4630.46
426.06	4683.70
426.28	4607.93
426.49	4536.25
426.70	4493.24
426.91	4526.01
427.12	4675.51
427.33	4761.53
427.54	4661.18
427.75	4736.95
427.96	4843.45
428.17	4695.99
428.38	4747.19
428.59	4984.76
428.80	4763.58
429.01	4784.06
429.23	4868.02
429.44	5054.39
429.65	5013.43
429.86	4992.95
430.07	4847.54
430.28	4999.09
430.49	4947.89
430.70	5089.20
430.91	5054.39
431.12	4999.09
431.33	5181.36
431.54	5171.12
431.75	5074.87
431.96	5228.46
432.17	5210.03
432.38	5175.22
432.59	5437.36
432.80	5294.00
433.01	5341.10
433.22	5279.66
433.43	5242.80
433.64	5197.74
433.85	5228.46
434.06	5353.39
434.27	5175.22
434.49	5310.38
434.70	5427.12
434.91	5332.91
435.12	5474.22
435.33	5328.81
435.54	5484.46
435.75	5408.69
435.96	5355.44
436.17	5431.21
436.38	5601.19
436.59	5490.60
436.80	5611.43
437.01	5664.68
437.22	5765.03
437.43	5652.39
437.64	5476.27
437.85	5713.83
438.06	5762.98
438.27	5703.59
438.48	5613.48
438.69	5838.76
438.90	5560.24
439.11	5588.91
439.32	5871.53
439.53	5803.94
439.74	5951.40
439.95	5883.81
440.16	5754.79
440.37	5773.22
440.57	5699.50
440.78	5959.59
440.99	6082.47
441.20	5857.19
441.41	5961.64
441.62	5945.25
441.83	5808.04
442.04	5996.45
442.25	5982.12
442.46	5947.30
442.67	6176.67
442.88	6277.02
443.09	6078.37
443.30	6180.77
443.51	6092.71
443.72	6281.12
443.93	6088.61
444.14	6545.31
444.35	6080.42
444.56	6399.90
444.77	6227.87
444.98	6438.81
445.19	6377.37
445.40	6387.61
445.61	6393.76
445.81	6504.35
446.02	6535.07
446.23	6381.47
446.44	6434.72
446.65	6547.36
446.86	6565.79
447.07	6520.73
447.28	6674.33
447.49	6713.24
447.70	6698.91
447.91	6606.75
448.12	6608.80
448.33	6887.32
448.54	6897.56
448.74	6614.94
448.95	6688.67
449.16	6649.75
449.37	7036.82
449.58	6883.22
449.79	6911.89
450.00	6678.43
450.21	7077.78
450.42	7161.75
450.63	7010.20
450.84	7065.49
451.05	6928.28
451.25	7024.53
451.46	7114.64
451.67	7157.65
451.88	7204.75
452.09	7255.95
452.30	7167.89
452.51	7407.50
452.72	7458.70
452.93	7675.79
453.13	7331.73
453.34	7253.91
453.55	7413.65
453.76	7413.65
453.97	7774.09
454.18	7557.00
454.39	7651.21
454.60	7436.17
454.81	7593.87
455.01	7724.94
455.22	7393.17
455.43	7866.25
455.64	8023.94
455.85	7966.60
456.06	8073.09
456.27	8077.19
456.48	7759.75
456.68	8073.09
456.89	8144.77
457.10	8157.06
457.31	8048.52
457.52	8058.76
457.73	8277.89
457.94	8486.78
458.14	8130.44
458.35	8533.89
458.56	8265.60
458.77	8365.95
458.98	8476.54
459.19	8365.95
459.39	8476.54
459.60	8654.72
459.81	8505.21
460.02	8818.55
460.23	8716.16
460.44	9009.01
460.65	8757.11
460.85	8832.89
461.06	9140.08
461.27	8626.04
461.48	9168.76
461.69	9197.43
461.89	8826.75
462.10	8959.86
462.31	8990.58
462.52	9111.41
462.73	9205.62
462.94	9480.05
463.14	9236.34
463.35	9518.96
463.56	9836.39
463.77	9641.84
463.98	9578.35
464.18	9439.09
464.39	9678.70
464.60	9813.87
464.81	10028.90
465.02	9873.26
465.23	10022.76
465.43	9979.75
465.64	10202.98
465.85	10135.40
466.06	9883.50
466.27	10311.52
466.47	10436.45
466.68	10202.98
466.89	10430.30
467.10	10495.84
467.30	10258.28
467.51	10618.72
467.72	10862.43
467.93	10497.89
468.14	10657.63
468.34	10921.82
468.55	10997.59
468.76	11102.04
468.97	10979.16
469.17	11188.05
469.38	11116.37
469.59	11276.12
469.80	11075.42
470.01	11120.47
470.21	11337.56
470.42	11501.39
470.63	11620.17
470.84	11353.94
471.04	11603.79
471.25	11710.29
471.46	11704.14
471.67	11953.99
471.87	11759.44
472.08	11876.17
472.29	12025.67
472.50	11814.73
472.70	11997.00
472.91	12074.82
473.12	12357.44
473.33	12498.75
473.53	12721.98
473.74	12271.43
473.95	12619.58
474.16	12793.66
474.36	12930.87
474.57	12808.00
474.78	12969.79
474.99	12898.11
475.19	12967.74
475.40	13311.80
475.61	13543.22
475.81	13578.03
476.02	13559.60
476.23	13365.04
476.44	13565.74
476.64	13709.10
476.85	13877.04
477.06	13913.90
477.27	14186.28
477.47	13905.71
477.68	14100.26
477.89	14284.58
478.09	14378.79
478.30	14554.91
478.51	14518.05
478.71	14556.96
478.92	14884.64
479.13	14948.12
479.34	14827.29
479.54	14884.64
479.75	15097.63
479.96	15138.58
480.16	14987.04
480.37	15236.89
480.58	15314.71
480.78	15587.09
480.99	15644.43
481.20	15558.42
481.41	15988.49
481.61	15634.19
481.82	16015.12
482.03	15787.79
482.23	15984.40
482.44	16230.15
482.65	16293.64
482.85	16348.93
483.06	16205.58
483.27	16148.23
483.47	16512.77
483.68	16561.92
483.89	16688.90
484.09	16537.35
484.30	16914.17
484.51	16930.56
484.71	17241.85
484.92	17237.75
485.13	17340.15
485.33	17094.40
485.54	17383.16
485.75	17354.49
485.95	17753.84
486.16	17618.68
486.37	17598.20
486.57	17690.35
486.78	17686.26
486.98	17798.90
487.19	17852.14
487.40	18470.63
487.60	18165.48
487.81	18300.65
488.02	18401.00
488.22	18300.65
488.43	18681.57
488.64	18681.57
488.84	18491.11
489.05	18738.91
489.25	18671.33
489.46	19152.60
489.67	18972.38
489.87	19003.10
490.08	18898.66
490.29	19046.11
490.49	19554.01
490.70	19586.77
490.90	19621.59
491.11	19453.66
491.32	19564.25
491.52	19574.49
491.73	19662.55
491.94	19795.67
492.14	19842.77
492.35	20358.86
492.55	20223.69
492.76	20416.20
492.97	20274.89
493.17	20575.94
493.38	20698.82
493.58	20680.39
493.79	20672.20
494.00	20653.76
494.20	20715.20
494.41	21001.92
494.61	21188.28
494.82	20954.82
495.02	20829.89
495.23	21026.50
495.44	21122.75
495.64	21411.51
495.85	21327.55
496.05	21354.17
496.26	21130.94
496.47	21507.77
496.67	21597.88
496.88	21812.92
497.08	21583.54
497.29	22130.35
497.49	21737.14
497.70	22027.95
497.91	22085.30
498.11	22302.38
498.32	22075.06
498.52	22095.53
498.73	22810.28
498.93	22498.98
499.14	22763.17
499.34	22539.94
499.55	23002.78
499.76	22728.36
499.96	22980.26
500.17	22650.53
500.37	22859.43
500.58	22869.67
500.78	23283.36
500.99	23010.98
501.19	23391.90
501.40	23312.03
501.60	22990.50
501.81	23262.88
502.02	23113.38
502.22	23359.13
502.43	23588.50
502.63	23625.37
502.84	23977.62
503.04	24086.16
503.25	23852.69
503.45	23897.75
503.66	24168.08
503.86	23940.75
504.07	24237.71
504.27	24247.95
504.48	24237.71
504.68	24395.40
504.89	24805.00
505.09	24866.44
505.30	24278.67
505.50	24665.74
505.71	24751.75
505.91	24811.14
506.12	24620.68
506.32	24606.34
506.53	24970.88
506.73	24948.36
506.94	25046.66
507.14	25038.47
507.35	25325.18
507.55	25341.57
507.76	25173.63
507.96	25247.36
508.17	25589.37
508.37	25298.56
508.58	25556.60
508.78	25806.45
508.99	25642.62
509.19	25732.73
509.40	25869.94
509.60	25550.46
509.81	26138.23
510.01	26039.92
510.22	25611.90
510.42	26009.20
510.63	26187.38
510.83	25980.53
511.04	25962.10
511.24	26383.98
511.44	26197.62
511.65	26451.56
511.85	26725.99
512.06	26371.69
512.26	26480.24
512.47	26654.31
512.67	26594.92
512.88	26883.69
513.08	26799.72
513.29	26967.65
513.49	27008.61
513.69	27012.71
513.90	27147.87
514.10	27149.92
514.31	27385.44
514.51	27563.61
514.72	27182.69
514.92	27446.88
515.13	27530.84
515.33	27594.33
515.53	27354.72
515.74	27674.20
515.94	27915.86
516.15	27627.10
516.35	27684.44
516.56	27977.30
516.76	28042.84
516.96	27846.23
517.17	28036.69
517.37	28243.54
517.58	28307.02
517.78	28126.80
517.99	28257.87
518.19	28403.28
518.39	28556.88
518.60	28966.47
518.80	28886.60
519.01	28857.93
519.21	28943.94
519.41	28790.34
519.62	28761.67
519.82	29156.93
520.03	29177.41
520.23	29222.47
520.43	29132.36
520.64	29582.91
520.84	29697.59
521.05	29556.28
521.25	29754.94
521.45	29914.68
521.66	30023.22
521.86	29750.84
522.07	29756.99
522.27	29941.30
522.47	30176.82
522.68	30236.21
522.88	30441.01
523.08	30619.18
523.29	30463.54
523.49	30580.27
523.70	30498.35
523.90	30817.83
524.10	30942.76
524.31	30926.38
524.51	31235.62
524.71	31450.66
524.92	31178.28
525.12	31557.15
525.33	31538.72
525.53	31413.79
525.73	31759.90
525.94	31845.91
526.14	31464.99
526.34	32099.86
526.55	31768.09
526.75	32138.77
526.95	32290.32
527.16	32169.49
527.36	32157.21
527.56	32677.39
527.77	32724.49
527.97	32794.12
528.17	32818.70
528.38	32699.92
528.58	33224.20
528.78	32890.38
528.99	33138.18
529.19	33226.24
529.39	33113.61
529.60	33381.89
529.80	33457.67
530.00	33496.58
530.21	33820.16
530.41	33830.40
530.61	33707.52
530.82	34024.95
531.02	33875.45
531.22	34424.31
531.43	34360.82
531.63	34409.97
531.83	34596.34
532.04	34926.06
532.24	34631.15
532.44	35249.64
532.64	34756.08
532.85	35329.51
533.05	35030.51
533.25	35311.08
533.46	35231.21
533.66	35571.17
533.86	35507.68
534.07	35818.97
534.27	35857.88
534.47	36365.78
534.67	35935.71
534.88	36009.43
535.08	35929.56
535.28	36304.34
535.49	36537.81
535.69	36881.87
535.89	36763.09
536.09	36865.49
536.30	36924.88
536.50	36986.32
536.70	37195.21
536.91	37193.16
537.11	37070.28
537.31	37696.96
537.51	37268.94
537.72	37637.57
537.92	37967.29
538.12	38071.74
538.32	37451.20
538.53	38018.49
538.73	38380.98
538.93	38188.47
539.13	38190.52
539.34	38280.63
539.54	38405.56
539.74	38780.34
539.94	38303.16
540.15	38223.29
540.35	38892.97
540.55	38544.82
540.75	38919.60
540.96	39181.74
541.16	38968.75
541.36	39429.54
541.56	39204.27
541.77	39300.52
541.97	39429.54
542.17	39677.35
542.37	39540.13
542.58	39830.94
542.78	39415.21
542.98	39574.95
543.18	39888.29
543.38	40431.00
543.59	40072.60
543.79	39454.12
543.99	40011.17
544.19	40291.74
544.40	40066.46
544.60	40201.63
544.80	40105.37
545.00	40654.23
545.20	40533.40
545.41	40326.55
545.61	40680.85
545.81	40826.26
546.01	40672.66
546.21	40627.60
546.42	40678.80
546.62	40951.18
546.82	40957.33
547.02	41049.49
547.22	41428.36
547.43	41217.42
547.63	41022.86
547.83	41184.65
548.03	41090.44
548.23	41371.02
548.44	41244.04
548.64	41297.29
548.84	41264.52
549.04	42075.52
549.24	41817.47
549.45	42089.85
549.65	41371.02
549.85	41706.88
550.05	42173.82
550.25	41788.80
550.45	42550.65
550.66	42108.29
550.86	42263.93
551.06	42397.05
551.26	41989.50
551.46	42173.82
551.66	42356.09
551.87	42806.64
552.07	42474.87
552.27	42368.38
552.47	42691.96
552.67	42493.30
552.87	42597.75
553.07	42491.26
553.28	42438.01
553.48	42780.02
553.68	42718.58
553.88	43400.55
554.08	42704.24
554.28	42999.15
554.48	42513.78
554.69	42882.42
554.89	43249.00
555.09	42886.51
555.29	42614.13
555.49	42931.57
555.69	43183.47
555.89	43031.92
556.10	43191.66
556.30	42515.83
556.50	43369.83
556.70	43107.69
556.90	43533.67
557.10	43734.37
557.30	42798.45
557.50	43478.38
557.70	43416.94
557.91	43677.03
558.11	43480.42
558.31	43810.15
558.51	43758.95
558.71	43701.61
558.91	43787.62
559.11	43134.32
559.31	43779.43
559.51	43480.42
559.72	43128.17
559.92	43853.15
560.12	43472.23
560.32	44006.75
560.52	43744.61
560.72	43408.75
560.92	44170.59
561.12	44055.90
561.32	44125.53
561.52	43670.89
561.72	44135.77
561.93	44074.34
562.13	43677.03
562.33	43437.42
562.53	44522.84
562.73	43588.97
562.93	44160.35
563.13	44197.21
563.33	44066.14
563.53	44363.10
563.73	43976.03
563.93	44559.70
564.13	44627.29
564.33	44211.55
564.53	44234.08
564.74	44569.94
564.94	44037.47
565.14	44186.97
565.34	44324.19
565.54	44279.13
565.74	44602.71
565.94	44551.51
566.14	44066.14
566.34	44254.56
566.54	44283.23
566.74	44047.71
566.94	44205.41
567.14	44598.62
567.34	44387.67
567.54	44768.60
567.74	44479.83
567.94	44412.25
568.14	44629.34
568.34	45024.59
568.54	44606.81
568.74	44907.86
568.94	44619.10
569.14	44848.47
569.34	44746.07
569.54	44440.92
569.75	44418.39
569.95	44737.88
570.15	44928.34
570.35	44662.10
570.55	44557.66
570.75	44815.70
570.95	44766.55
571.15	45040.98
571.35	44856.66
571.55	45356.36
571.75	45014.35
571.95	44844.37
572.15	44473.69
572.35	45057.36
572.55	44977.49
572.75	45483.34
572.95	44940.63
573.15	45038.93
573.35	45675.85
573.55	44799.32
573.75	44950.87
573.95	45413.71
574.15	45272.40
574.35	45294.92
574.55	45296.97
574.75	45382.99
574.95	45145.42
575.15	45100.37
575.34	45755.72
575.54	45544.78
575.74	45630.79
575.94	45618.50
576.14	45167.95
576.34	46159.17
576.54	46347.58
576.74	45725.00
576.94	45559.11
577.14	45782.34
577.34	46062.91
577.54	45790.53
577.74	45802.82
577.94	45817.16
578.14	45694.28
578.34	46406.97
578.54	45790.53
578.74	46316.86
578.94	46454.08
579.14	45725.00
579.34	46462.27
579.54	46388.54
579.74	46693.69
579.94	46292.29
580.13	46566.71
580.33	46988.60
580.53	46519.61
580.73	46239.04
580.93	46634.30
581.13	46683.45
581.33	46798.13
581.53	46769.46
581.73	46761.27
581.93	46808.37
582.13	46994.74
582.33	47129.90
582.53	47162.67
582.73	46708.02
582.92	46880.05
583.12	46796.09
583.32	47203.63
583.52	46806.33
583.72	47525.16
583.92	46982.45
584.12	46818.61
584.32	47830.31
584.52	47559.98
584.72	47476.01
584.92	47822.12
585.11	47617.32
585.31	47111.47
585.51	47355.18
585.71	47678.76
585.91	47856.93
586.11	47584.55
586.31	47480.11
586.51	47772.97
586.71	47645.99
586.91	48117.03
587.10	48014.63
587.30	48155.94
587.50	47842.60
587.70	47881.51
587.90	48225.57
588.10	48096.55
588.30	47938.85
588.50	48168.22
588.69	48235.81
588.89	48082.21
589.09	48074.02
589.29	48405.79
589.49	48799.00
589.69	48385.31
589.89	48444.70
590.08	48264.48
590.28	48837.91
590.48	48297.25
590.68	48461.08
590.88	48119.07
591.08	48375.07
591.28	48680.22
591.47	49255.70
591.67	48563.48
591.87	49505.55
592.07	48805.14
592.27	48952.60
592.47	48925.97
592.67	49091.86
592.86	49073.43
593.06	49186.07
593.26	49259.79
593.46	48973.08
593.66	49143.06
593.86	49364.24
594.05	49397.01
594.25	50081.03
594.45	49214.74
594.65	49394.96
594.85	49259.79
595.05	49558.80
595.24	49528.08
595.44	49509.64
595.64	49435.92
595.84	49659.15
596.04	49583.37
596.23	49919.24
596.43	50330.88
596.63	49585.42
596.83	49509.64
597.03	50191.62
597.22	50353.41
597.42	50310.40
597.62	50509.05
597.82	50357.50
598.02	50349.31
598.21	51012.85
598.41	50224.39
598.61	50330.88
598.81	50582.78
599.01	50746.62
599.20	50382.08
599.40	50402.56
599.60	50763.00
599.80	51193.07
600.00	51090.68
600.19	50889.98
600.39	50443.52
600.59	51166.45
600.79	51379.44
600.98	51019.00
601.18	50961.65
601.38	51750.12
601.58	51246.32
601.78	51322.10
601.97	51406.06
602.17	51952.87
602.37	52231.40
602.57	51827.95
602.76	52337.89
602.96	51840.23
603.16	51522.80
603.36	51852.52
603.55	52249.83
603.75	52180.20
603.95	52278.50
604.15	52327.65
604.34	52323.55
604.54	52501.73
604.74	52759.77
604.94	52772.06
605.13	52608.22
605.33	52356.32
605.53	52169.96
605.73	52733.15
605.92	52866.27
606.12	53013.72
606.32	52565.21
606.52	52825.31
606.71	53040.34
606.91	53437.65
607.11	52770.01
607.30	53142.74
607.50	53259.48
607.70	53392.59
607.90	53136.60
608.09	53331.15
608.29	53458.13
608.49	53662.93
608.68	53370.07
608.88	53605.58
609.08	53787.85
609.28	53675.21
609.47	53392.59
609.67	54248.64
609.87	53654.73
610.06	54197.44
610.26	53761.23
610.46	54181.06
610.66	53621.97
610.85	53908.68
611.05	53884.11
611.25	53525.71
611.44	53912.78
611.64	54080.71
611.84	53957.83
612.03	53822.67
612.23	54621.37
612.43	53900.49
612.62	53970.12
612.82	54414.53
613.02	54367.43
613.21	54375.62
613.41	53779.66
613.61	54400.19
613.80	54056.14
614.00	54754.49
614.20	54787.26
614.39	54580.42
614.59	54951.10
614.79	54588.61
614.98	54387.91
615.18	54254.79
615.38	54836.41
615.57	54580.42
615.77	55215.29
615.97	54973.63
616.16	54639.81
616.36	54736.06
616.56	55094.46
616.75	54717.63
616.95	54678.72
617.15	54764.73
617.34	55344.31
617.54	54670.53
617.74	55526.58
617.93	55182.52
618.13	54830.27
618.32	55502.00
618.52	54869.18
618.72	55563.44
618.91	55063.74
619.11	55020.73
619.31	55141.56
619.50	55096.50
619.70	54666.43
619.90	55372.98
620.09	55094.46
620.29	55458.99
620.48	54990.01
620.68	55518.38
620.88	55162.04
621.07	55073.98
621.27	55583.92
621.46	55073.98
621.66	54856.89
621.86	55393.46
622.05	55071.93
622.25	55811.24
622.44	55577.78
622.64	55454.90
622.84	55710.89
623.03	55289.01
623.23	55475.38
623.42	55755.95
623.62	55360.69
623.82	55889.07
624.01	55438.51
624.21	55815.34
624.40	55753.90
624.60	55950.51
624.80	55391.41
624.99	55403.70
625.19	55059.64
625.38	55733.42
625.58	56112.30
625.77	55823.53
625.97	55760.05
626.17	55671.98
626.36	55837.87
626.56	56183.97
626.75	55381.17
626.95	55884.97
627.14	55678.13
627.34	56341.67
627.54	55712.94
627.73	56530.08
627.93	55780.52
628.12	55917.74
628.32	56032.42
628.51	55540.91
628.71	55827.63
628.90	56249.51
629.10	55854.25
629.30	56353.96
629.49	56163.50
629.69	55960.75
629.88	56126.63
630.08	55993.51
630.27	56265.89
630.47	55999.66
630.66	56161.45
630.86	56112.30
631.05	55915.69
631.25	56546.47
631.44	56009.90
631.64	56487.07
631.84	56339.62
632.03	56720.54
632.23	56429.73
632.42	56806.56
632.62	56888.48
632.81	56200.36
633.01	56423.59
633.20	56439.97
633.40	56679.58
633.59	56399.01
633.79	55993.51
633.98	57009.31
634.18	56962.20
634.37	56927.39
634.57	56728.73
634.76	56949.92
634.96	57021.59
635.15	57058.46
635.35	56716.45
635.54	56585.38
635.74	57324.69
635.93	56781.98
636.13	56814.75
636.32	56874.14
636.52	56652.96
636.71	56824.99
636.91	56755.36
637.10	56886.43
637.30	57058.46
637.49	57302.17
637.69	56591.52
637.88	57318.55
638.08	56906.91
638.27	57308.31
638.46	56845.47
638.66	56464.55
638.85	56781.98
639.05	57048.22
639.24	57506.96
639.44	57103.51
639.63	57386.13
639.83	57070.75
640.02	57234.58
640.22	56994.97
640.41	57570.45
640.61	57007.26
640.80	57210.01
640.99	57326.74
641.19	57611.41
641.38	57187.48
641.58	57435.28
641.77	57064.60
641.97	57476.24
642.16	57627.79
642.36	57783.44
642.55	58021.00
642.74	57404.56
642.94	57494.67
643.13	57136.28
643.33	57902.22
643.52	57576.59
643.72	58033.29
643.91	57644.18
644.10	57906.32
644.30	57619.60
644.49	57646.22
644.69	57793.68
644.88	57799.82
645.08	57592.98
645.27	57666.70
645.46	57556.11
645.66	57988.24
645.85	57623.70
646.05	58299.53
646.24	57736.34
646.43	57863.31
646.63	58475.65
646.82	58295.43
647.02	58307.72
647.21	58090.63
647.40	58113.16
647.60	58326.15
647.79	58033.29
647.99	58543.23
648.18	57816.21
648.37	58709.12
648.57	58074.25
648.76	58188.94
648.96	57789.58
649.15	58324.10
649.34	58336.39
649.54	58117.26
649.73	58176.65
649.92	58205.32
650.12	58385.54
650.31	58602.63
650.51	58506.37
650.70	58545.28
650.89	58049.67
651.09	58995.84
651.28	58684.54
651.47	58727.55
651.67	58360.97
651.86	58836.09
652.06	58256.52
652.25	58492.04
652.44	58131.59
652.64	58596.48
652.83	58465.41
653.02	58283.14
653.22	58373.25
653.41	58195.08
653.60	58029.19
653.80	58383.49
653.99	58440.84
654.18	58410.12
654.38	57928.84
654.57	58383.49
654.76	58793.09
654.96	58442.88
655.15	58135.69
655.34	58315.91
655.54	58502.28
655.73	58614.91
655.92	58668.16
656.12	58360.97
656.31	58463.36
656.50	58334.34
656.70	58328.20
656.89	58313.86
657.08	58309.77
657.28	58328.20
657.47	58543.23
657.66	59042.94
657.86	58395.78
658.05	58528.90
658.24	58522.76
658.43	58160.26
658.63	58514.56
658.82	58438.79
659.01	58823.81
659.21	58797.18
659.40	58864.77
659.59	58143.88
659.79	58915.96
659.98	58561.67
660.17	58692.74
660.36	58428.55
660.56	58522.76
660.75	59040.89
660.94	58860.67
661.14	58514.56
661.33	58629.25
661.52	57914.51
661.71	58758.27
661.91	58098.83
662.10	58473.60
662.29	58758.27
662.49	58289.29
662.68	58569.86
662.87	58576.00
663.06	58643.59
663.26	58324.10
663.45	58590.34
663.64	58905.73
663.83	58686.59
664.03	58657.92
664.22	58717.31
664.41	58813.57
664.60	58268.81
664.80	58383.49
664.99	58920.06
665.18	58508.42
665.37	58254.47
665.57	58745.98
665.76	58025.10
665.95	58803.33
666.14	58477.70
666.34	58277.00
666.53	58264.71
666.72	58532.99
666.91	58266.76
667.11	58129.54
667.30	58303.62
667.49	58096.78
667.68	57980.04
667.87	58152.07
668.07	58805.37
668.26	57990.28
668.45	58158.22
668.64	58008.71
668.84	58920.06
669.03	58287.24
669.22	58397.83
669.41	58072.20
669.60	57973.90
669.80	58068.11
669.99	58295.43
670.18	57990.28
670.37	57898.12
670.57	58463.36
670.76	58242.18
670.95	58295.43
671.14	58037.39
671.33	57830.54
671.53	58498.18
671.72	58623.11
671.91	57894.03
672.10	57947.28
672.29	57881.74
672.48	57662.61
672.68	58176.65
672.87	57937.04
673.06	58324.10
673.25	57767.05
673.44	57738.38
673.64	57300.12
673.83	57930.89
674.02	57367.70
674.21	57136.28
674.40	57498.77
674.59	57605.26
674.79	57308.31
674.98	57091.22
675.17	57324.69
675.36	57355.41
675.55	57578.64
675.74	57117.85
675.94	56997.02
676.13	57273.49
676.32	57816.21
676.51	57646.22
676.70	57480.34
676.89	57238.68
677.08	57881.74
677.28	57095.32
677.47	57756.81
677.66	57810.06
677.85	57279.64
678.04	57369.75
678.23	57443.48
678.42	57556.11
678.62	57193.62
678.81	57447.57
679.00	57533.59
679.19	57736.34
679.38	56702.11
679.57	57076.89
679.76	57003.16
679.96	57255.06
680.15	56839.32
680.34	57177.24
680.53	57029.79
680.72	57185.43
680.91	57242.77
681.10	56503.46
681.29	57300.12
681.48	56558.75
681.68	56661.15
681.87	57060.51
682.06	57080.98
682.25	56435.87
682.44	56812.70
682.63	56726.69
682.82	56452.26
683.01	56413.35
683.20	56323.24
683.39	56370.34
683.59	56644.77
683.78	56065.19
683.97	56245.41
684.16	56679.58
684.35	56018.09
684.54	56351.91
684.73	55608.50
684.92	55997.61
685.11	56022.19
685.30	56050.86
685.49	56464.55
685.69	56079.53
685.88	55923.88
686.07	55792.81
686.26	55919.79
686.45	55975.08
686.64	55981.23
686.83	55702.70
687.02	55628.98
687.21	56075.43
687.40	55868.59
687.59	56018.09
687.78	55743.66
687.97	56237.22
688.16	55588.02
688.35	55932.07
688.54	55454.90
688.74	55674.03
688.93	55612.59
689.12	55407.79
689.31	55096.50
689.50	55661.74
689.69	55143.61
689.88	54887.61
690.07	55485.62
690.26	55276.72
690.45	55499.95
690.64	55121.08
690.83	54932.67
691.02	54881.47
691.21	55141.56
691.40	54824.12
691.59	55291.06
691.78	55090.36
691.97	55422.13
692.16	55102.65
692.35	55022.78
692.54	55071.93
692.73	54803.64
692.92	54701.25
693.11	54752.44
693.30	54344.90
693.49	54553.79
693.68	54557.89
693.87	54467.78
694.06	54240.45
694.25	54527.17
694.44	54273.22
694.63	54412.48
694.82	54529.22
695.01	54424.77
695.20	54109.38
695.39	54275.27
695.58	54615.23
695.77	54117.57
695.96	54133.96
696.15	54377.67
696.34	53937.35
696.53	54250.69
696.72	54160.58
696.91	53935.30
697.10	54115.53
697.29	53667.02
697.48	54146.25
697.67	53687.50
697.86	53736.65
698.05	53671.12
698.24	54017.22
698.43	53351.63
698.62	53456.08
698.81	53523.66
699.00	53535.95
699.19	53296.34
699.38	53861.58
699.57	53236.95
699.76	54056.14
699.95	53413.07
700.14	53396.69
700.32	53626.06
700.51	52643.04
700.70	53753.04
700.89	53578.96
701.08	53834.95
701.27	53308.63
701.46	53351.63
701.65	53069.01
701.84	52743.39
702.03	53150.93
702.22	52743.39
702.41	52925.66
702.60	53040.34
702.79	52833.50
702.98	52892.89
703.17	52813.02
703.35	52710.62
703.54	52061.41
703.73	52991.19
703.92	52069.61
704.11	52888.79
704.30	52116.71
704.49	52112.61
704.68	52227.30
704.87	52317.41
705.06	52268.26
705.25	52157.67
705.43	52485.34
705.62	52145.38
705.81	52253.92
706.00	52526.30
706.19	51911.91
706.38	52018.41
706.57	52327.65
706.76	51881.19
706.95	51901.67
707.14	51815.66
707.32	51811.56
707.51	51481.84
707.70	51772.65
707.89	51877.10
708.08	51950.82
708.27	51758.31
708.46	52110.56
708.65	51840.23
708.84	52174.05
709.02	51711.21
709.21	51655.92
709.40	51993.83
709.59	51625.20
709.78	51129.59
709.97	51680.49
710.16	51594.48
710.34	51459.31
710.53	51565.81
710.72	51051.76
710.91	51598.57
711.10	51422.45
711.29	51467.50
711.48	51182.84
711.66	51164.40
711.85	51041.53
712.04	51121.40
712.23	51168.50
712.42	51324.14
712.61	51199.22
712.80	50781.43
712.98	51262.71
713.17	50924.79
713.36	51008.76
713.55	50787.58
713.74	50783.48
713.93	50713.85
714.11	50478.33
714.30	50398.46
714.49	50437.37
714.68	50644.22
714.87	50980.09
715.06	50971.89
715.24	50224.39
715.43	50550.01
715.62	50208.00
715.81	50119.94
716.00	50504.96
716.18	50433.28
716.37	49927.43
716.56	49831.18
716.75	50361.60
716.94	50578.68
717.12	50124.04
717.31	50408.70
717.50	49909.00
717.69	49972.49
717.88	49986.82
718.06	50189.57
718.25	49714.44
718.44	49667.34
718.63	49902.85
718.82	49941.77
719.00	49638.67
719.19	49368.33
719.38	49403.15
719.57	49001.75
719.76	49208.59
719.94	49179.92
720.13	49446.16
720.32	49257.74
720.51	48981.27
720.69	49249.55
720.88	49145.11
721.07	48880.92
721.26	48850.20
721.44	49134.87
721.63	48522.52
721.82	48784.66
722.01	48698.65
722.20	49022.23
722.38	48377.12
722.57	48024.87
722.76	48737.56
722.95	48471.32
723.13	48086.31
723.32	48493.85
723.51	48069.92
723.70	48067.87
723.88	48418.08
724.07	48203.04
724.26	48248.10
724.44	47936.80
724.63	47830.31
724.82	48127.27
725.01	47922.47
725.19	48149.79
725.38	48053.54
725.57	48235.81
725.76	48231.71
725.94	47586.60
726.13	47535.40
726.32	47600.94
726.51	47467.82
726.69	48047.39
726.88	47645.99
727.07	47674.66
727.25	48008.48
727.44	47537.45
727.63	47138.10
727.82	47488.30
728.00	47732.01
728.19	47426.86
728.38	47785.25
728.56	47361.33
728.75	47412.52
728.94	47109.43
729.12	47519.02
729.31	47564.07
729.50	47451.44
729.69	47879.46
729.87	47668.52
730.06	47709.48
730.25	47355.18
730.43	47863.08
730.62	47318.32
730.81	47207.73
730.99	47781.16
731.18	47228.21
731.37	47408.43
731.55	47559.98
731.74	47830.31
731.93	47533.35
732.11	47568.17
732.30	47512.88
732.49	47412.52
732.67	47803.69
732.86	47621.42
733.05	47592.75
733.23	47134.00
733.42	47379.76
733.61	47641.90
733.79	47676.71
733.98	47346.99
734.17	47762.73
734.35	47242.54
734.54	47666.47
734.73	47703.34
734.91	47568.17
735.10	47062.32
735.29	47570.22
735.47	47123.76
735.66	47152.43
735.84	47445.29
736.03	47093.04
736.22	47240.50
736.40	47088.95
736.59	47199.54
736.78	47379.76
736.96	46808.37
737.15	46822.71
737.33	46769.46
737.52	46708.02
737.71	46972.21
737.89	46896.44
738.08	46812.47
738.27	46800.18
738.45	47013.17
738.64	47105.33
738.82	46755.13
739.01	47103.28
739.20	46853.43
739.38	47420.72
739.57	47168.82
739.75	46554.43
739.94	46918.96
740.13	46757.17
740.31	46753.08
740.50	46691.64
740.68	46937.40
740.87	47039.79
741.06	46787.89
741.24	46458.17
741.43	46624.06
741.61	46718.26
741.80	46544.19
741.99	46388.54
742.17	46660.92
742.36	46456.12
742.54	46013.76
742.73	46574.91
742.91	46585.15
743.10	46454.08
743.29	46454.08
743.47	46495.03
743.66	46302.53
743.84	46210.37
744.03	46349.63
744.21	46048.58
744.40	46761.27
744.59	46490.94
744.77	46142.78
744.96	46327.10
745.14	46681.40
745.33	46343.48
745.51	46323.01
745.70	46675.26
745.88	46343.48
746.07	46259.52
746.26	45819.20
746.44	46298.43
746.63	45972.80
746.81	46282.05
747.00	45739.33
747.18	46382.40
747.37	46355.77
747.55	46085.44
747.74	46021.95
747.92	45937.99
748.11	45854.02
748.29	45790.53
748.48	46183.74
748.66	46290.24
748.85	45770.05
749.03	45917.51
749.22	46015.81
749.41	45577.54
749.59	46212.41
749.78	45681.99
749.96	45450.57
750.15	45382.99
750.33	46007.62
750.52	45272.40
750.70	45434.19
750.89	45362.51
751.07	45624.65
751.26	45405.52
751.44	45471.05
751.63	45337.93
751.81	45389.13
752.00	45290.83
752.18	45319.50
752.37	45290.83
752.55	44842.32
752.74	45079.89
752.92	44832.08
753.10	44868.95
753.29	45565.26
753.47	45147.47
753.66	45215.05
753.84	45186.38
754.03	44864.85
754.21	44744.02
754.40	45022.54
754.58	45292.88
754.77	45120.85
754.95	44729.69
755.14	44782.93
755.32	45161.81
755.51	44537.18
755.69	44701.01
755.88	44846.42
756.06	44715.35
756.24	44668.25
756.43	44479.83
756.61	44701.01
756.80	44930.39
756.98	44680.53
757.17	44766.55
757.35	45088.08
757.54	44383.58
757.72	44694.87
757.90	44623.19
758.09	44340.57
758.27	44268.89
758.46	44090.72
758.64	44420.44
758.83	44520.79
759.01	44303.71
759.19	44242.27
759.38	44369.24
759.56	44504.41
759.75	44453.21
759.93	44338.52
760.12	43847.01
760.30	44191.07
760.48	44285.28
760.67	44186.97
760.85	44254.56
761.04	44389.72
761.22	44277.08
761.40	44389.72
761.59	43885.92
761.77	43961.70
761.96	44158.30
762.14	44238.17
762.32	43894.11
762.51	43605.35
762.69	43959.65
762.88	43742.56
763.06	43689.32
763.24	43804.00
763.43	43758.95
763.61	43517.29
763.80	43656.55
763.98	43912.55
764.16	43621.73
764.35	43435.37
764.53	43140.46
764.72	43529.58
764.90	43447.66
765.08	43351.40
765.27	43212.14
765.45	42868.08
765.63	42898.80
765.82	43539.82
766.00	43031.92
766.18	43220.33
766.37	43375.98
766.55	43408.75
766.74	43236.72
766.92	43183.47
767.10	42792.31
767.29	43009.39
767.47	42585.46
767.65	42739.06
767.84	42661.24
768.02	43246.96
768.20	42675.57
768.39	42880.37
768.57	42911.09
768.75	42818.93
768.94	42835.31
769.12	43007.34
769.30	42648.95
769.49	42626.42
769.67	42651.00
769.85	42222.97
770.04	42597.75
770.22	41977.22
770.40	42317.18
770.59	42036.61
770.77	42550.65
770.95	42118.53
771.14	41897.34
771.32	41948.54
771.50	41923.97
771.69	41602.44
771.87	41901.44
772.05	41971.07
772.24	41309.58
772.42	41792.90
772.60	41856.39
772.78	41850.24
772.97	41502.09
773.15	42292.60
773.33	41524.61
773.52	41442.70
773.70	41973.12
773.88	42042.75
774.07	41489.80
774.25	41801.09
774.43	42278.27
774.61	41602.44
774.80	42012.03
774.98	41559.43
775.16	41713.03
775.34	41981.31
775.53	41526.66
775.71	41833.86
775.89	41801.09
776.08	41846.15
776.26	41993.60
776.44	41713.03
776.62	41776.51
776.81	41872.77
776.99	42036.61
777.17	42532.22
777.35	41977.22
777.54	42517.88
777.72	41647.49
777.90	42055.04
778.08	42456.44
778.27	42063.23
778.45	42339.71
778.63	42671.48
778.81	42231.16
779.00	42712.44
779.18	42349.95
779.36	42351.99
779.54	42661.24
779.73	42265.98
779.91	42882.42
780.09	42345.85
780.27	42810.74
780.46	42812.79
780.64	42845.55
780.82	42675.57
781.00	42513.78
781.19	43181.42
781.37	43066.73
781.55	42950.00
781.73	42939.76
781.91	42823.03
782.10	42892.66
782.28	43294.06
782.46	42909.04
782.64	43289.96
782.82	42636.66
783.01	43224.43
783.19	43345.26
783.37	43048.30
783.55	42927.47
783.74	43201.90
783.92	42784.12
784.10	43541.86
784.28	43199.85
784.46	42782.07
784.64	42788.21
784.83	42886.51
785.01	43289.96
785.19	43482.47
785.37	43109.74
785.55	43144.56
785.74	42577.27
785.92	42837.36
786.10	42765.68
786.28	42976.62
786.46	42675.57
786.64	42030.46
786.83	42808.69
787.01	42911.09
787.19	43130.22
787.37	42444.15
787.55	42751.35
787.74	42489.21
787.92	42851.70
788.10	42947.95
788.28	42288.51
788.46	42483.06
788.64	42378.62
788.82	42593.65
789.01	42607.99
789.19	42849.65
789.37	42059.13
789.55	42853.75
789.73	41909.63
789.91	42376.57
790.09	42241.40
790.28	41983.36
790.46	41842.05
790.64	42098.05
790.82	42038.65
791.00	42009.98
791.18	41420.17
791.36	41768.32
791.55	41799.04
791.73	41639.30
791.91	41991.55
792.09	41508.23
792.27	41289.10
792.45	41207.18
792.63	41186.70
792.81	41203.08
793.00	41354.63
793.18	40875.41
793.36	41117.07
793.54	40828.30
793.72	40889.74
793.90	40717.71
794.08	40502.68
794.26	40426.90
794.44	40166.81
794.62	40230.30
794.81	40779.15
794.99	40383.90
795.17	40029.60
795.35	40166.81
795.53	39828.90
795.71	40256.92
795.89	39683.49
796.07	39785.89
796.25	39490.98
796.43	39687.59
796.61	39929.25
796.80	39609.76
796.98	39568.80
797.16	39302.57
797.34	39083.44
797.52	39052.72
797.70	39468.45
797.88	39040.43
798.06	38802.86
798.24	38921.65
798.42	38944.17
798.60	38632.88
798.78	38759.86
798.96	38811.06
799.14	38319.54
799.32	38720.95
799.51	37950.91
799.69	38692.27
799.87	38647.22
800.05	38131.13
800.23	38237.62
800.41	37967.29
800.59	37877.18
800.77	38000.06
800.95	37473.73
801.13	37828.03
801.31	37434.82
801.49	37694.91
801.67	37471.68
801.85	37537.22
802.03	37088.71
802.21	37133.77
802.39	36992.46
802.57	36834.77
802.75	37068.23
802.93	36869.58
803.11	36879.82
803.29	36707.79
803.47	36634.06
803.65	36546.00
803.83	36496.85
804.01	36300.25
804.19	36087.26
804.37	36095.45
804.55	36107.74
804.73	36136.41
804.91	36095.45
805.09	35980.76
805.27	36132.31
805.45	35546.59
805.63	36267.48
805.81	35446.24
805.99	35614.18
806.17	35995.10
806.35	35683.81
806.53	35337.70
806.71	35427.81
806.89	35349.99
807.07	35093.99
807.25	35386.85
807.43	35083.75
807.61	35296.74
807.79	35034.60
807.97	34702.83
808.15	34749.93
808.33	35157.48
808.51	34782.70
808.69	34825.71
808.87	34233.85
809.05	34450.93
809.23	34493.94
809.41	34274.80
809.59	34108.92
809.77	34495.99
809.95	34164.21
810.13	34297.33
810.31	34053.62
810.49	34088.44
810.67	33637.89
810.84	33951.23
811.02	33828.35
811.20	33463.81
811.38	33867.26
811.56	33545.73
811.74	33224.20
811.92	33506.82
812.10	33105.41
812.28	33947.13
812.46	33385.99
812.64	33441.28
812.82	33216.01
813.00	33023.50
813.18	32839.18
813.36	32984.58
813.53	32767.50
813.71	32873.99
813.89	32730.64
814.07	33179.14
814.25	33023.50
814.43	32321.04
814.61	32296.47
814.79	32433.68
814.97	32267.80
815.15	32552.46
815.33	32435.73
815.50	31909.40
815.68	32417.30
815.86	32380.43
816.04	31854.11
816.22	31542.81
816.40	31667.74
816.58	31825.43
816.76	31692.32
816.94	31696.41
817.11	31708.70
817.29	31383.07
817.47	31557.15
817.65	31579.68
817.83	31448.61
818.01	31514.14
818.19	31364.64
818.37	31639.07
818.54	31567.39
818.72	31063.59
818.90	30953.00
819.08	31010.34
819.26	30811.69
819.44	31020.58
819.62	30737.96
819.80	30961.19
819.97	30953.00
820.15	30883.37
820.33	30787.11
820.51	30643.76
820.69	30459.44
820.87	30869.03
821.05	30991.91
821.22	30432.82
821.40	30563.89
821.58	30383.66
821.76	30111.28
821.94	30342.70
822.12	30109.24
822.29	30445.10
822.47	30019.13
822.65	30275.12
822.83	30486.06
823.01	29980.21
823.19	29742.65
823.36	29787.71
823.54	29349.44
823.72	29795.90
823.90	30119.48
824.08	29595.20
824.25	29855.29
824.43	29490.75
824.61	29529.66
824.79	29781.56
824.97	29390.40
825.15	29556.28
825.32	29431.36
825.50	28851.78
825.68	29085.25
825.86	29537.85
826.04	29414.98
826.21	29353.54
826.39	28974.66
826.57	29091.40
826.75	28671.56
826.93	28802.63
827.10	28671.56
827.28	29079.11
827.46	28890.70
827.64	29152.84
827.81	28638.80
827.99	28810.82
828.17	28395.09
828.35	28421.71
828.53	28608.08
828.70	28401.23
828.88	28214.87
829.06	28591.69
829.24	28685.90
829.41	28153.43
829.59	28481.10
829.77	28124.75
829.95	28022.36
830.12	28323.41
830.30	28016.21
830.48	28132.95
830.66	28151.38
830.84	28438.09
831.01	27680.35
831.19	27569.76
831.37	27872.85
831.55	27534.94
831.72	27684.44
831.90	28026.45
832.08	27874.90
832.25	27749.98
832.43	27534.94
832.61	27309.66
832.79	27397.73
832.96	27502.17
833.14	27471.45
833.32	27661.91
833.50	27539.04
833.67	27289.18
833.85	27518.56
834.03	27399.77
834.20	26893.93
834.38	27364.96
834.56	27285.09
834.74	27344.48
834.91	27209.31
835.09	27045.48
835.27	26615.40
835.44	26437.23
835.62	26519.15
835.80	26678.89
835.98	26908.26
836.15	26721.90
836.33	26609.26
836.51	26844.77
836.68	26775.14
836.86	26441.32
837.04	26580.59
837.21	26553.96
837.39	26666.60
837.57	26562.15
837.75	26576.49
837.92	26101.36
838.10	26314.35
838.28	25747.06
838.45	26205.81
838.63	25904.76
838.81	26029.68
838.98	25777.78
839.16	26084.98
839.34	25800.31
839.51	26009.20
839.69	25667.19
839.87	25720.44
840.04	25796.21
840.22	25849.46
840.40	25718.39
840.57	25540.22
840.75	25507.45
840.93	25609.85
841.10	25491.07
841.28	25982.58
841.46	25507.45
841.63	25663.10
841.81	25183.87
841.98	25538.17
842.16	25562.75
842.34	25142.91
842.51	25101.95
842.69	25480.83
842.87	25405.05
843.04	25341.57
843.22	25020.03
843.40	25423.48
843.57	25050.75
843.75	25339.52
843.92	24946.31
844.10	25142.91
844.28	25267.84
844.45	25028.23
844.63	25038.47
844.81	24950.40
844.98	25163.39
845.16	24985.22
845.33	24837.76
845.51	24878.72
845.69	24845.96
845.86	24702.60
846.04	24620.68
846.21	24428.17
846.39	24485.51
846.57	24405.64
846.74	24346.25
846.92	24245.90
847.09	24186.51
847.27	24215.18
847.45	24475.27
847.62	24616.58
847.80	24534.67
847.97	24299.15
848.15	24163.98
848.32	24219.28
848.50	24331.92
848.68	23934.61
848.85	24129.17
849.03	23662.23
849.20	24006.29
849.38	24147.60
849.56	23934.61
849.73	23631.51
849.91	23791.25
850.08	24166.03
850.26	23731.86
850.43	23828.12
850.61	23400.09
850.78	23508.63
850.96	23682.71
851.14	23555.74
851.31	23772.82
851.49	23428.76
851.66	23559.83
851.84	23527.06
852.01	23318.17
852.19	23439.00
852.36	23512.73
852.54	23248.54
852.71	23099.04
852.89	23398.04
853.07	23443.10
853.24	23121.57
853.42	23197.34
853.59	23289.50
853.77	23348.89
853.94	23381.66
854.12	23125.66
854.29	22924.96
854.47	23021.22
854.64	22898.34
854.82	22953.63
854.99	22898.34
855.17	22671.01
855.34	22888.10
855.52	22628.01
855.69	22857.38
855.87	22683.30
856.04	22505.13
856.22	22765.22
856.39	22636.20
856.57	22662.82
856.74	22699.69
856.92	22408.87
857.09	22474.41
857.27	22634.15
857.44	22869.67
857.62	22408.87
857.79	22544.04
857.97	22501.03
858.14	22398.63
858.32	22083.25
858.49	22505.13
858.67	21999.28
858.84	22298.28
859.02	21976.75
859.19	22052.53
859.37	21640.89
859.54	21946.03
859.72	22021.81
859.89	21960.37
860.06	22146.73
860.24	21716.66
860.41	21876.40
860.59	21597.88
860.76	21964.46
860.94	21526.20
861.11	21837.49
861.29	21778.10
861.46	21767.86
861.64	21415.61
861.81	21341.88
861.98	21497.53
862.16	21720.76
862.33	21329.59
862.51	21472.95
862.68	21505.72
862.86	21376.70
863.03	21393.08
863.21	21300.92
863.38	21245.63
863.55	21110.46
863.73	21421.75
863.90	21161.66
864.08	20987.58
864.25	21214.91
864.43	20836.03
864.60	21270.20
864.77	20823.75
864.95	20950.72
865.12	20924.10
865.30	21161.66
865.47	20790.98
865.64	20840.13
865.82	20565.70
865.99	21094.08
866.17	20661.96
866.34	20725.44
866.51	20231.88
866.69	20874.95
866.86	20784.83
867.04	20580.04
867.21	20299.47
867.38	20506.31
867.56	20217.55
867.73	20348.62
867.91	20229.84
868.08	20027.09
868.25	20319.95
868.43	20133.58
868.60	20174.54
868.78	20278.99
868.95	20231.88
869.12	20098.77
869.30	20094.67
869.47	20059.85
869.64	19943.12
869.82	19883.73
869.99	19908.30
870.16	19869.39
870.34	19959.50
870.51	19939.02
870.69	19666.64
870.86	19654.36
871.03	19781.33
871.21	19928.78
871.38	19744.47
871.55	19564.25
871.73	19480.28
871.90	19519.19
872.07	19326.68
872.25	19341.02
872.42	19328.73
872.59	19381.98
872.77	19500.76
872.94	19306.20
873.11	19168.99
873.29	19177.18
873.46	19283.67
873.63	19109.60
873.81	18970.33
873.98	19013.34
874.15	18878.18
874.33	18552.55
874.50	18597.60
874.67	18933.47
874.85	19039.97
875.02	18720.48
875.19	18435.81
875.37	18515.69
875.54	18560.74
875.71	18671.33
875.88	18616.04
876.06	18714.34
876.23	18460.39
876.40	18317.03
876.58	18620.13
876.75	18499.30
876.92	18282.22
877.10	18401.00
877.27	18296.55
877.44	18245.35
877.61	17823.47
877.79	18020.08
877.96	18112.24
878.13	17995.50
878.31	17932.01
878.48	18124.52
878.65	17884.91
878.82	17878.77
879.00	17616.63
879.17	17764.08
879.34	17942.25
879.51	17569.52
879.69	17684.21
879.86	17331.96
880.03	17397.49
880.21	17374.97
880.38	17460.98
880.55	17626.87
880.72	17411.83
880.90	17633.01
881.07	17368.82
881.24	17291.00
881.41	17231.61
881.59	17141.50
881.76	17350.39
881.93	17391.35
882.10	17114.87
882.28	17051.39
882.45	17268.47
882.62	17045.24
882.79	17084.16
882.96	16838.40
883.14	17151.74
883.31	17057.53
883.48	17088.25
883.65	17020.67
883.83	17006.33
884.00	16914.17
884.17	16910.08
884.34	17225.47
884.51	17053.44
884.69	16918.27
884.86	16844.54
885.03	16905.98
885.20	16494.34
885.38	16850.69
885.55	16484.10
885.72	16924.41
885.89	16686.85
886.06	16713.47
886.24	16443.14
886.41	16523.01
886.58	16625.41
886.75	16600.83
886.92	16439.05
887.10	16621.31
887.27	16348.93
887.44	16510.72
887.61	16566.02
887.78	16568.07
887.95	16609.03
888.13	16318.22
888.30	16373.51
888.47	16484.10
888.64	16324.36
888.81	16125.71
888.99	16449.28
889.16	16047.88
889.33	16017.16
889.50	16131.85
889.67	16183.05
889.84	15943.44
890.01	16084.75
890.19	15953.68
890.36	16008.97
890.53	15984.40
890.70	15564.56
890.87	15720.21
891.04	15906.57
891.22	15916.81
891.39	15836.94
891.56	15613.71
891.73	15550.23
891.90	15701.78
892.07	15312.66
892.24	15605.52
892.42	15578.90
892.59	15476.50
892.76	15427.35
892.93	15312.66
893.10	15636.24
893.27	15292.18
893.44	15374.10
893.61	15251.22
893.79	15638.29
893.96	15478.55
894.13	15509.27
894.30	15466.26
894.47	15263.51
894.64	15679.25
894.81	15255.32
894.98	15394.58
895.15	15408.92
895.33	15478.55
895.50	15144.73
895.67	15478.55
895.84	15558.42
896.01	15374.10
896.18	14972.70
896.35	15558.42
896.52	15154.97
896.69	14976.80
896.86	15300.37
897.04	15275.80
897.21	15281.94
897.38	15335.19
897.55	15146.78
897.72	15230.74
897.89	15030.04
898.06	15216.41
898.23	15001.37
898.40	15081.24
898.57	15058.71
898.74	15114.01
898.91	15339.29
899.08	15159.06
899.26	15146.78
899.43	15218.46
899.60	15099.67
899.77	14964.51
899.94	15081.24
900.11	14796.57
900.28	14911.26
900.45	14948.12
900.62	14735.14
900.79	15177.50
900.96	15075.10
901.13	15050.52
901.30	14755.61
901.47	14929.69
901.64	15056.67
901.81	14964.51
901.98	14831.39
902.15	15271.70
902.32	14888.73
902.49	15056.67
902.66	15089.43
902.83	14960.41
903.01	14896.92
903.18	14933.79
903.35	14966.56
903.52	14982.94
903.69	15081.24
903.86	15005.47
904.03	15005.47
904.20	15111.96
904.37	15144.73
904.54	15068.95
904.71	14978.84
904.88	14993.18
905.05	14835.49
905.22	15167.26
905.39	14847.77
905.56	14845.73
905.73	14984.99
905.90	14835.49
906.07	15109.91
906.24	15083.29
906.41	15099.67
906.58	14884.64
906.75	14829.34
906.92	14913.31
907.09	14876.44
907.26	14698.27
907.43	14642.98
907.60	14890.78
907.77	15087.39
907.93	14718.75
908.10	14878.49
908.27	15099.67
908.44	14597.92
908.61	14630.69
908.78	14403.36
908.95	14573.35
909.12	14638.88
909.29	14673.70
909.46	14591.78
909.63	14853.92
909.80	14786.33
909.97	14741.28
910.14	14964.51
910.31	14417.70
910.48	14815.01
910.65	14645.02
910.82	14706.46
910.99	14778.14
911.16	14610.21
911.33	14726.94
911.50	14384.93
911.66	14614.30
911.83	14745.38
912.00	14423.84
912.17	14456.61
912.34	14540.58
912.51	14286.63
912.68	14487.33
912.85	14528.29
913.02	14280.49
913.19	14454.56
913.36	14405.41
913.53	14294.82
913.70	14321.45
913.86	14487.33
914.03	14149.42
914.20	14173.99
914.37	14231.33
914.54	14061.35
914.71	14020.39
914.88	14061.35
915.05	14149.42
915.22	14006.06
915.39	13895.47
915.55	14163.75
915.72	13979.43
915.89	13893.42
916.06	13911.85
916.23	13774.64
916.40	13780.78
916.57	13741.87
916.74	13627.18
916.91	13631.28
917.07	13485.87
917.24	13449.01
917.41	13514.55
917.58	13651.76
917.75	13430.58
917.92	13332.28
918.09	13180.73
918.26	13397.81
918.42	13274.93
918.59	13459.25
918.76	13256.50
918.93	13201.21
919.10	13256.50
919.27	12949.31
919.44	13150.01
919.60	12990.27
919.77	12853.05
919.94	13012.79
920.11	12805.95
920.28	13086.52
920.45	12674.88
920.61	12554.05
920.78	12861.24
920.95	12824.38
921.12	12529.47
921.29	12840.76
921.46	12496.71
921.62	12506.95
921.79	12781.37
921.96	12322.63
922.13	12390.21
922.30	12515.14
922.47	12246.85
922.63	12441.41
922.80	12339.01
922.97	12205.89
923.14	12009.29
923.31	12097.35
923.47	12181.32
923.64	12291.91
923.81	11999.05
923.98	12173.13
924.15	12146.50
924.32	11837.26
924.48	12044.10
924.65	11925.32
924.82	11710.29
924.99	11663.18
925.15	11419.47
925.32	11685.71
925.49	11611.98
925.66	11542.35
925.83	11497.30
925.99	11544.40
926.16	11411.28
926.33	11337.56
926.50	11222.87
926.67	11439.95
926.83	11323.22
927.00	11278.16
927.17	11241.30
927.34	10962.78
927.50	11212.63
927.67	11263.83
927.84	10987.35
928.01	10944.34
928.17	10692.44
928.34	10979.16
928.51	10856.28
928.68	10860.38
928.84	10710.88
929.01	10702.68
929.18	10510.18
929.35	10428.26
929.51	10684.25
929.68	10426.21
929.85	10422.11
930.02	10399.59
930.18	10536.80
930.35	10268.52
930.52	10329.95
930.69	10428.26
930.85	10274.66
931.02	10129.25
931.19	10172.26
931.36	10002.28
931.52	10045.29
931.69	10026.86
931.86	9977.70
932.02	9777.00
932.19	9873.26
932.36	9740.14
932.53	9801.58
932.69	9846.63
932.86	9893.74
933.03	9652.08
933.19	9602.93
933.36	9697.13
933.53	9713.52
933.70	9353.07
933.86	9545.58
934.03	9434.99
934.20	9260.91
934.36	9508.72
934.53	9060.21
934.70	9078.65
934.86	9101.17
935.03	8933.24
935.20	8851.32
935.36	8945.53
935.53	8845.18
935.70	8810.36
935.86	8865.66
936.03	8724.35
936.20	8429.44
936.36	8411.01
936.53	8441.73
936.70	8363.90
936.86	8451.97
937.03	8296.32
937.20	7892.87
937.36	8097.67
937.53	8046.47
937.70	7872.39
937.86	7935.88
938.03	7810.95
938.20	7880.58
938.36	7468.94
938.53	7671.69
938.70	7503.76
938.86	7270.29
939.03	7286.67
939.20	7276.43
939.36	7284.62
939.53	7002.01
939.70	7309.20
939.86	6846.36
940.03	6815.64
940.19	6703.00
940.36	6711.19
940.53	6856.60
940.69	6485.92
940.86	6547.36
941.03	6463.39
941.19	6416.29
941.36	6381.47
941.52	6369.18
941.69	6358.94
941.86	6188.96
942.02	6102.95
942.19	5957.54
942.35	6184.87
942.52	6000.55
942.69	5857.19
942.85	5867.43
943.02	5789.61
943.18	5842.85
943.35	5793.70
943.52	5883.81
943.68	5619.63
943.85	5679.02
944.01	5648.30
944.18	5531.56
944.35	5648.30
944.51	5547.95
944.68	5470.12
944.84	5406.64
945.01	5394.35
945.17	5300.14
945.34	5296.05
945.51	5380.01
945.67	5377.97
945.84	5392.30
946.00	5160.88
946.17	5320.62
946.33	5279.66
946.50	5285.81
946.67	5384.11
946.83	5314.48
947.00	5392.30
947.16	5205.94
947.33	5248.94
947.49	5273.52
947.66	5164.98
947.82	5279.66
947.99	5171.12
948.16	5277.62
948.32	5150.64
948.49	5287.86
948.65	5181.36
948.82	5310.38
948.98	5291.95
949.15	5031.86
949.31	5248.94
949.48	5298.10
949.64	5095.35
949.81	5207.98
949.97	5093.30
950.14	5228.46
950.30	5013.43
950.47	5431.21
950.63	5203.89
950.80	5281.71
950.96	5193.65
951.13	5197.74
951.30	5285.81
951.46	5316.53
951.63	5382.06
951.79	5277.62
951.96	5386.16
952.12	5222.32
952.29	5373.87
952.45	5345.20
952.62	5281.71
952.78	5425.07
952.94	5406.64
953.11	5257.14
953.27	5214.13
953.44	5392.30
953.60	5341.10
953.77	5351.34
953.93	5320.62
954.10	5341.10
954.26	5337.01
954.43	5373.87
954.59	5484.46
954.76	5556.14
954.92	5511.08
955.09	5570.48
955.25	5316.53
955.42	5447.60
955.58	5328.81
955.75	5353.39
955.91	5351.34
956.07	5453.74
956.24	5486.51
956.40	5371.82
956.57	5484.46
956.73	5328.81
956.90	5423.02
957.06	5357.49
957.23	5363.63
957.39	5504.94
957.56	5443.50
957.72	5279.66
957.88	5244.85
958.05	5660.59
958.21	5595.05
958.38	5511.08
958.54	5410.73
958.71	5515.18
958.87	5384.11
959.03	5402.54
959.20	5416.88
959.36	5353.39
959.53	5298.10
959.69	5328.81
959.85	5435.31
960.02	5287.86
960.18	5410.73
960.35	5443.50
960.51	5418.93
960.68	5420.97
960.84	5402.54
961.00	5265.33
961.17	5382.06
961.33	5361.58
961.50	5332.91
961.66	5517.23
961.82	5337.01
961.99	5388.21
962.15	5470.12
962.31	5386.16
962.48	5384.11
962.64	5394.35
962.81	5384.11
962.97	5402.54
963.13	5369.77
963.30	5371.82
963.46	5396.40
963.62	5314.48
963.79	5377.97
963.95	5408.69
964.12	5304.24
964.28	5447.60
964.44	5367.73
964.61	5361.58
964.77	5279.66
964.93	5447.60
965.10	5304.24
965.26	5416.88
965.42	5316.53
965.59	5308.34
965.75	5265.33
965.92	5312.43
966.08	5316.53
966.24	5152.69
966.41	5298.10
966.57	5169.07
966.73	5472.17
966.90	5265.33
967.06	5054.39
967.22	5162.93
967.39	5162.93
967.55	5093.30
967.71	5136.31
967.88	5205.94
968.04	5115.83
968.20	5132.21
968.37	5132.21
968.53	5083.06
968.69	5164.98
968.85	5193.65
969.02	5072.82
969.18	5154.74
969.34	5021.62
969.51	5126.07
969.67	5195.70
969.83	4931.51
970.00	5195.70
970.16	5060.53
970.32	5095.35
970.48	5250.99
970.65	5097.39
970.81	4937.65
970.97	4960.18
971.14	4954.04
971.30	4995.00
971.46	4857.78
971.63	4962.23
971.79	5023.67
971.95	4863.93
972.11	4980.66
972.28	5007.28
972.44	5095.35
972.60	4822.97
972.76	4902.84
972.93	4845.49
973.09	4982.71
973.25	4958.13
973.42	4882.36
973.58	5015.48
973.74	5005.24
973.90	4900.79
974.07	4878.26
974.23	4868.02
974.39	4845.49
974.55	4849.59
974.72	4820.92
974.88	4614.07
975.04	4870.07
975.20	4806.58
975.37	4851.64
975.53	4683.70
975.69	4767.67
975.85	4700.09
976.01	4773.82
976.18	4700.09
976.34	4716.47
976.50	4786.10
976.66	4906.93
976.83	4603.83
976.99	4784.06
977.15	4650.94
977.31	4515.77
977.47	4837.30
977.64	4607.93
977.80	4636.60
977.96	4616.12
978.12	4501.44
978.29	4607.93
978.45	4548.54
978.61	4509.63
978.77	4708.28
978.93	4546.49
979.10	4564.92
979.26	4478.91
979.42	4530.11
979.58	4370.37
979.74	4341.69
979.91	4519.87
980.07	4405.18
980.23	4417.47
980.39	4472.76
980.55	4417.47
980.71	4362.17
980.88	4491.20
981.04	4413.37
981.20	4310.97
981.36	4444.09
981.52	4390.84
981.68	4284.35
981.85	4321.21
982.01	4433.85
982.17	4270.01
982.33	4413.37
982.49	4501.44
982.65	4317.12
982.82	4255.68
982.98	4319.17
983.14	4200.38
983.30	4282.30
983.46	4263.87
983.62	4274.11
983.79	4302.78
983.95	4224.96
984.11	4065.22
984.27	4218.82
984.43	4171.71
984.59	4306.88
984.75	4222.91
984.91	4093.89
985.08	4229.06
985.24	4071.36
985.40	4046.79
985.56	4050.88
985.72	4145.09
985.88	4175.81
986.04	4138.94
986.20	4040.64
986.37	4036.55
986.53	4083.65
986.69	4120.51
986.85	3944.39
987.01	4171.71
987.17	4140.99
987.33	3952.58
987.49	3944.39
987.65	4097.99
987.82	4020.16
987.98	3905.48
988.14	4040.64
988.30	3928.00
988.46	3911.62
988.62	3907.52
988.78	3893.19
988.94	3897.28
989.10	3864.52
989.26	3915.72
989.42	3885.00
989.59	3780.55
989.75	3891.14
989.91	3911.62
990.07	3778.50
990.23	3760.07
990.39	3768.26
990.55	3885.00
990.71	3751.88
990.87	3796.93
991.03	3831.75
991.19	3796.93
991.35	3710.92
991.51	3727.30
991.67	3782.60
991.83	3807.17
992.00	3764.17
992.16	3739.59
992.32	3749.83
992.48	3796.93
992.64	3674.06
992.80	3813.32
992.96	3667.91
993.12	3741.64
993.28	3727.30
993.44	3710.92
993.60	3649.48
993.76	3719.11
993.92	3712.97
994.08	3692.49
994.24	3696.58
994.40	3682.25
994.56	3694.54
994.72	3590.09
994.88	3631.05
995.04	3590.09
995.20	3604.42
995.36	3440.59
995.52	3499.98
995.68	3536.84
995.84	3354.57
996.00	3569.61
996.16	3479.50
996.32	3442.64
996.48	3436.49
996.64	3526.60
996.80	3475.40
996.96	3360.72
997.12	3471.31
997.28	3368.91
997.44	3418.06
997.60	3477.45
997.76	3377.10
997.92	3350.48
998.08	3354.57
998.24	3360.72
998.40	3319.76
998.56	3348.43
998.72	3260.37
998.88	3416.01
999.04	3411.92
999.20	3387.34
999.36	3276.75
999.52	3499.98
999.68	3379.15
999.84	3272.65
1000.00	3422.16
1000.16	3352.52
1000.32	3305.42
1000.48	3444.68
1000.64	3252.17
1000.80	3078.10
1000.95	3186.64
1001.11	3215.31
1001.27	3233.74
1001.43	3340.24
1001.59	3192.78
1001.75	3147.73
1001.91	3121.10
1002.07	3155.92
1002.23	3153.87
1002.39	3098.58
1002.55	3141.58
1002.71	3196.88
1002.87	3104.72
1003.03	3139.54
1003.19	3057.62
1003.34	3133.39
1003.50	3051.47
1003.66	3092.43
1003.82	3121.10
1003.98	3082.19
1004.14	3205.07
1004.30	3039.19
1004.46	2979.79
1004.62	2928.60
1004.78	3024.85
1004.94	3094.48
1005.09	2985.94
1005.25	3037.14
1005.41	2959.31
1005.57	3002.32
1005.73	3000.27
1005.89	2936.79
1006.05	2983.89
1006.21	3022.80
1006.37	2967.51
1006.52	2873.30
1006.68	2869.20
1006.84	2940.88
1007.00	2873.30
1007.16	3008.47
1007.32	2873.30
1007.48	2912.21
1007.64	2895.83
1007.79	2904.02
1007.95	2842.58
1008.11	2928.60
1008.27	2883.54
1008.43	2912.21
1008.59	2842.58
1008.75	2854.87
1008.91	2885.59
1009.06	2770.90
1009.22	2828.24
1009.38	2752.47
1009.54	2893.78
1009.70	2793.43
1009.86	2846.68
1010.01	2811.86
1010.17	2770.90
1010.33	2836.44
1010.49	2885.59
1010.65	2854.87
1010.81	2682.84
1010.96	2760.66
1011.12	2699.22
1011.28	2795.48
1011.44	2818.00
1011.60	2725.85
1011.76	2682.84
1011.91	2813.91
1012.07	2539.48
1012.23	2742.23
1012.39	2674.65
1012.55	2725.85
1012.71	2676.70
1012.86	2680.79
1013.02	2725.85
1013.18	2676.70
1013.34	2676.70
1013.50	2736.09
1013.65	2727.89
1013.81	2588.63
1013.97	2666.46
1014.13	2711.51
1014.29	2539.48
1014.44	2664.41
1014.60	2631.64
1014.76	2633.69
1014.92	2678.74
1015.07	2664.41
1015.23	2613.21
1015.39	2535.39
1015.55	2537.43
1015.71	2553.82
1015.86	2613.21
1016.02	2568.15
1016.18	2408.41
1016.34	2541.53
1016.49	2588.63
1016.65	2555.86
1016.81	2480.09
1016.97	2549.72
1017.12	2508.76
1017.28	2478.04
1017.44	2449.37
1017.60	2465.75
1017.75	2516.95
1017.91	2453.47
1018.07	2379.74
1018.23	2516.95
1018.38	2441.18
1018.54	2416.60
1018.70	2535.39
1018.86	2379.74
1019.01	2424.80
1019.17	2498.52
1019.33	2541.53
1019.49	2469.85
1019.64	2459.61
1019.80	2492.38
1019.96	2408.41
1020.12	2404.32
1020.27	2418.65
1020.43	2392.03
1020.59	2480.09
1020.74	2432.99
1020.90	2396.12
1021.06	2389.98
1021.22	2381.79
1021.37	2322.40
1021.53	2295.77
1021.69	2326.49
1021.84	2303.96
1022.00	2308.06
1022.16	2410.46
1022.31	2340.83
1022.47	2357.21
1022.63	2346.97
1022.79	2215.90
1022.94	2338.78
1023.10	2373.60
1023.26	2344.92
1023.41	2234.33
1023.57	2293.72
1023.73	2260.96
1023.88	2252.77
1024.04	2232.29
1024.20	2254.81
1024.35	2275.29
1024.51	2265.05
1024.67	2220.00
1024.82	2191.33
1024.98	2215.90
1025.14	2310.11
1025.29	2275.29
1025.45	2279.39
1025.61	2131.94
1025.76	2279.39
1025.92	2176.99
1026.08	2228.19
1026.23	2240.48
1026.39	2281.44
1026.55	2115.55
1026.70	2158.56
1026.86	2131.94
1027.02	2189.28
1027.17	2168.80
1027.33	2164.70
1027.48	2109.41
1027.64	2174.94
1027.80	2144.22
1027.95	2189.28
1028.11	2111.46
1028.27	2179.04
1028.42	2164.70
1028.58	2129.89
1028.73	2238.43
1028.89	2007.01
1029.05	2242.53
1029.20	2156.51
>>>>>End Processed Spectral Data<<<<<
