SpectraSuite Data File
++++++++++++++++++++++++++++++++++++
Date: Fri Jun 02 14:53:34 CEST 2017
User: INFO_000
Dark Spectrum Present: No
Reference Spectrum Present: No
Number of Sampled Component Spectra: 1
Spectrometers: USB4H00879
Integration Time (usec): 80000 (USB4H00879)
Spectra Averaged: 1 (USB4H00879)
Boxcar Smoothing: 0 (USB4H00879)
Correct for Electrical Dark: No (USB4H00879)
Strobe/Lamp Enabled: No (USB4H00879)
Correct for Detector Non-linearity: No (USB4H00879)
Correct for Stray Light: No (USB4H00879)
Number of Pixels in Processed Spectrum: 3648
>>>>>Begin Processed Spectral Data<<<<<
345.13	1273.84
345.34	1273.84
345.56	1273.84
345.78	1269.74
345.99	1230.83
346.21	1687.53
346.42	1718.25
346.64	1630.18
346.86	1814.50
347.07	1648.61
347.29	1699.81
347.50	1644.52
347.72	1673.19
347.94	1748.97
348.15	1581.03
348.37	1652.71
348.59	1677.29
348.80	1640.42
349.02	1767.40
349.23	1826.79
349.45	1916.90
349.67	1855.46
349.88	1787.88
350.10	2017.25
350.31	1851.36
350.53	1763.30
350.75	1865.70
350.96	1716.20
351.18	1851.36
351.39	1906.66
351.61	1834.98
351.82	1914.85
352.04	1923.04
352.26	1845.22
352.47	1923.04
352.69	1888.23
352.90	1796.07
353.12	1880.04
353.34	1925.09
353.55	1937.38
353.77	1857.51
353.98	1869.80
354.20	1830.88
354.41	1920.99
354.63	1986.53
354.85	2029.54
355.06	1927.14
355.28	1777.64
355.49	1875.94
355.71	1894.37
355.92	1894.37
356.14	1994.72
356.35	1908.71
356.57	1871.84
356.79	1906.66
357.00	1875.94
357.22	1955.81
357.43	1777.64
357.65	1959.91
357.86	1886.18
358.08	1865.70
358.29	1957.86
358.51	1964.00
358.72	2041.82
358.94	1861.60
359.16	1961.95
359.37	1966.05
359.59	1927.14
359.80	1976.29
360.02	2033.63
360.23	2009.06
360.45	2039.78
360.66	1888.23
360.88	1853.41
361.09	1875.94
361.31	1998.82
361.52	1925.09
361.74	2113.50
361.95	2088.93
362.17	1947.62
362.38	2123.74
362.60	2082.78
362.81	2064.35
363.03	1961.95
363.24	1953.76
363.46	2115.55
363.67	2041.82
363.89	1990.63
364.10	2054.11
364.32	2060.26
364.53	2123.74
364.75	1923.04
364.96	2033.63
365.18	2090.98
365.39	2015.20
365.61	1898.47
365.82	2121.70
366.04	1986.53
366.25	1974.24
366.47	2027.49
366.68	2027.49
366.90	1943.52
367.11	2021.35
367.33	2002.91
367.54	2142.18
367.76	2099.17
367.97	2076.64
368.19	1945.57
368.40	2101.22
368.62	2019.30
368.83	2031.58
369.05	2037.73
369.26	1998.82
369.48	2011.11
369.69	1970.15
369.91	2068.45
370.12	2072.54
370.33	2207.71
370.55	2025.44
370.76	2011.11
370.98	2150.37
371.19	2033.63
371.41	2045.92
371.62	2072.54
371.84	2054.11
372.05	2158.56
372.27	2013.15
372.48	2152.42
372.69	2158.56
372.91	2123.74
373.12	2076.64
373.34	2064.35
373.55	2043.87
373.77	2170.85
373.98	2156.51
374.20	2187.23
374.41	2308.06
374.62	2103.26
374.84	2148.32
375.05	2181.09
375.27	2217.95
375.48	2250.72
375.70	2224.09
375.91	2232.29
376.12	2322.40
376.34	2162.66
376.55	2144.22
376.77	2260.96
376.98	2131.94
377.19	2093.02
377.41	2144.22
377.62	2228.19
377.84	2273.25
378.05	2359.26
378.27	2152.42
378.48	2312.16
378.69	2463.71
378.91	2344.92
379.12	2240.48
379.34	2248.67
379.55	2349.02
379.76	2123.74
379.98	2308.06
380.19	2242.53
380.41	2338.78
380.62	2318.30
380.83	2283.49
381.05	2156.51
381.26	2373.60
381.47	2189.28
381.69	2283.49
381.90	2498.52
382.12	2283.49
382.33	2279.39
382.54	2355.16
382.76	2340.83
382.97	2338.78
383.19	2217.95
383.40	2320.35
383.61	2344.92
383.83	2295.77
384.04	2273.25
384.25	2318.30
384.47	2346.97
384.68	2359.26
384.89	2392.03
385.11	2353.12
385.32	2439.13
385.54	2332.64
385.75	2443.23
385.96	2451.42
386.18	2451.42
386.39	2330.59
386.60	2394.08
386.82	2416.60
387.03	2445.27
387.24	2527.19
387.46	2455.51
387.67	2531.29
387.88	2488.28
388.10	2529.24
388.31	2453.47
388.52	2588.63
388.74	2492.38
388.95	2535.39
389.16	2549.72
389.38	2523.10
389.59	2715.61
389.80	2688.98
390.02	2674.65
390.23	2652.12
390.44	2521.05
390.66	2586.58
390.87	2566.10
391.08	2576.34
391.30	2607.06
391.51	2758.61
391.72	2672.60
391.94	2611.16
392.15	2645.98
392.36	2580.44
392.58	2674.65
392.79	2701.27
393.00	2740.18
393.22	2758.61
393.43	2772.95
393.64	2852.82
393.85	2813.91
394.07	2740.18
394.28	2727.89
394.49	2781.14
394.71	2697.17
394.92	2891.73
395.13	2756.57
395.35	2752.47
395.56	2734.04
395.77	2729.94
395.98	2818.00
396.20	2893.78
396.41	2899.92
396.62	2904.02
396.84	2850.77
397.05	2891.73
397.26	2838.48
397.47	2981.84
397.69	2836.44
397.90	2981.84
398.11	2916.31
398.32	2951.12
398.54	2840.53
398.75	2906.07
398.96	2858.96
399.18	3166.16
399.39	3033.04
399.60	3098.58
399.81	3004.37
400.03	2871.25
400.24	3207.12
400.45	3026.90
400.66	3131.34
400.88	3016.66
401.09	3262.41
401.30	3055.57
401.51	3188.69
401.73	3211.22
401.94	3172.30
402.15	3182.54
402.36	3127.25
402.58	3110.86
402.79	3188.69
403.00	3104.72
403.21	3170.26
403.43	3200.98
403.64	3338.19
403.85	3145.68
404.06	3301.33
404.27	3063.76
404.49	3311.57
404.70	3182.54
404.91	3262.41
405.12	3252.17
405.34	3291.09
405.55	3456.97
405.76	3280.85
405.97	3307.47
406.19	3463.12
406.40	3239.89
406.61	3286.99
406.82	3338.19
407.03	3231.69
407.25	3313.61
407.46	3448.78
407.67	3485.64
407.88	3481.55
408.09	3428.30
408.31	3473.36
408.52	3428.30
408.73	3305.42
408.94	3436.49
409.15	3559.37
409.37	3502.03
409.58	3514.31
409.79	3456.97
410.00	3588.04
410.21	3524.55
410.43	3422.16
410.64	3387.34
410.85	3532.75
411.06	3588.04
411.27	3645.38
411.48	3749.83
411.70	3604.42
411.91	3551.18
412.12	3680.20
412.33	3635.14
412.54	3618.76
412.76	3618.76
412.97	3704.78
413.18	3651.53
413.39	3571.66
413.60	3698.63
413.81	3622.86
414.03	3659.72
414.24	3569.61
414.45	3760.07
414.66	3583.95
414.87	3731.40
415.08	3731.40
415.30	3710.92
415.51	3809.22
415.72	3790.79
415.93	3788.74
416.14	3743.69
416.35	3833.80
416.56	3852.23
416.78	3858.37
416.99	3835.85
417.20	3850.18
417.41	3913.67
417.62	3878.85
417.83	3921.86
418.04	3807.17
418.26	3887.04
418.47	4034.50
418.68	3944.39
418.89	4065.22
419.10	4128.70
419.31	3968.96
419.52	4030.40
419.73	4040.64
419.95	4079.55
420.16	4003.78
420.37	4085.70
420.58	4036.55
420.79	3991.49
421.00	3987.40
421.21	4132.80
421.42	3991.49
421.63	4179.90
421.85	4212.67
422.06	4085.70
422.27	4134.85
422.48	4231.10
422.69	4325.31
422.90	4321.21
423.11	4255.68
423.32	4257.73
423.53	4442.04
423.75	4276.16
423.96	4435.90
424.17	4429.76
424.38	4521.92
424.59	4454.33
424.80	4640.70
425.01	4495.29
425.22	4392.89
425.43	4454.33
425.64	4816.82
425.85	4710.33
426.06	4569.02
426.28	4628.41
426.49	4546.49
426.70	4501.44
426.91	4691.90
427.12	4714.42
427.33	4648.89
427.54	4630.46
427.75	4691.90
427.96	4859.83
428.17	4804.53
428.38	4935.60
428.59	4939.70
428.80	4829.11
429.01	4880.31
429.23	5046.20
429.44	5019.57
429.65	5001.14
429.86	5021.62
430.07	4966.32
430.28	4999.09
430.49	5152.69
430.70	5240.75
430.91	5113.78
431.12	5060.53
431.33	5269.42
431.54	5107.63
431.75	5248.94
431.96	5218.22
432.17	5218.22
432.38	5197.74
432.59	5406.64
432.80	5234.61
433.01	5441.45
433.22	5312.43
433.43	5472.17
433.64	5398.45
433.85	5339.05
434.06	5535.66
434.27	5353.39
434.49	5556.14
434.70	5584.81
434.91	5423.02
435.12	5623.72
435.33	5529.52
435.54	5605.29
435.75	5496.75
435.96	5621.67
436.17	5545.90
436.38	5695.40
436.59	5679.02
436.80	5543.85
437.01	5961.64
437.22	5836.71
437.43	5777.32
437.64	5656.49
437.85	5803.94
438.06	5914.53
438.27	5656.49
438.48	5801.90
438.69	5920.68
438.90	5986.21
439.11	5863.33
439.32	6174.63
439.53	6121.38
439.74	5959.59
439.95	5900.20
440.16	6000.55
440.37	5996.45
440.57	5808.04
440.78	6201.25
440.99	5982.12
441.20	6115.23
441.41	5908.39
441.62	6029.22
441.83	6016.93
442.04	6113.19
442.25	6115.23
442.46	6164.39
442.67	6404.00
442.88	6637.47
443.09	6012.84
443.30	6115.23
443.51	6301.60
443.72	6598.56
443.93	6231.97
444.14	6500.25
444.35	6221.73
444.56	6424.48
444.77	6383.52
444.98	6459.29
445.19	6408.09
445.40	6602.65
445.61	6508.44
445.81	6651.80
446.02	6657.95
446.23	6530.97
446.44	6399.90
446.65	6510.49
446.86	6659.99
447.07	6479.77
447.28	6659.99
447.49	6739.87
447.70	6707.10
447.91	6856.60
448.12	6725.53
448.33	6746.01
448.54	6672.28
448.74	6817.69
448.95	6893.46
449.16	6715.29
449.37	6993.81
449.58	6733.72
449.79	7171.99
450.00	6801.30
450.21	6971.29
450.42	7120.79
450.63	7135.12
450.84	7030.68
451.05	7278.48
451.25	7012.24
451.46	6928.28
451.67	7126.93
451.88	7364.50
452.09	7192.47
452.30	7110.55
452.51	7393.17
452.72	7384.98
452.93	7686.03
453.13	7178.13
453.34	7237.52
453.55	7397.26
453.76	7366.54
453.97	7540.62
454.18	7372.69
454.39	7552.91
454.60	7430.03
454.81	7632.78
455.01	7655.31
455.22	7368.59
455.43	7669.64
455.64	7872.39
455.85	7892.87
456.06	7923.59
456.27	7907.21
456.48	7903.11
456.68	7819.14
456.89	7958.41
457.10	7948.17
457.31	7851.91
457.52	7976.84
457.73	8091.52
457.94	8466.30
458.14	7919.50
458.35	8470.40
458.56	8322.94
458.77	8144.77
458.98	8286.08
459.19	8075.14
459.39	8398.72
459.60	8417.15
459.81	8400.77
460.02	8624.00
460.23	8587.13
460.44	8742.78
460.65	8548.22
460.85	8734.59
461.06	8734.59
461.27	8525.69
461.48	9082.74
461.69	9078.65
461.89	8470.40
462.10	8761.21
462.31	8824.70
462.52	8923.00
462.73	8871.80
462.94	9097.08
463.14	9160.56
463.35	9164.66
463.56	9449.33
463.77	9367.41
463.98	9019.25
464.18	9275.25
464.39	9473.90
464.60	9582.45
464.81	9674.60
465.02	9504.62
465.23	9590.64
465.43	9613.17
465.64	9815.91
465.85	9883.50
466.06	9918.31
466.27	10221.41
466.47	9766.76
466.68	10090.34
466.89	10137.45
467.10	9959.27
467.30	9981.80
467.51	9996.14
467.72	10360.67
467.93	10155.88
468.14	10334.05
468.34	10602.33
468.55	10477.41
468.76	10518.37
468.97	10450.78
469.17	10714.97
469.38	10807.13
469.59	10989.40
469.80	10682.20
470.01	10884.95
470.21	10852.19
470.42	11302.74
470.63	11032.41
470.84	11122.52
471.04	11124.57
471.25	11358.03
471.46	11366.23
471.67	11579.22
471.87	11528.02
472.08	11476.82
472.29	11597.65
472.50	11601.74
472.70	11743.05
472.91	11755.34
473.12	11917.13
473.33	12013.38
473.53	12152.65
473.74	11892.55
473.95	12298.05
474.16	12209.99
474.36	12560.19
474.57	12416.83
474.78	12525.38
474.99	12726.08
475.19	12508.99
475.40	12959.55
475.61	12816.19
475.81	13020.99
476.02	13418.29
476.23	13100.86
476.44	13074.23
476.64	13266.74
476.85	13557.55
477.06	13594.42
477.27	13705.01
477.47	13975.34
477.68	13834.03
477.89	13819.69
478.09	14116.65
478.30	14100.26
478.51	14102.31
478.71	14425.89
478.92	14343.97
479.13	14520.10
479.34	14604.07
479.54	14735.14
479.75	14585.63
479.96	14935.84
480.16	14907.16
480.37	15126.30
480.58	15243.03
480.78	15423.25
480.99	15503.12
481.20	15439.64
481.41	15709.97
481.61	15730.45
481.82	15845.13
482.03	15619.86
482.23	15818.51
482.44	15955.72
482.65	16197.38
482.85	16168.71
483.06	16142.09
483.27	16516.87
483.47	16467.72
483.68	16461.57
483.89	16676.61
484.09	16688.90
484.30	16873.21
484.51	16908.03
484.71	17051.39
484.92	17129.21
485.13	17200.89
485.33	17254.14
485.54	17186.55
485.75	17503.99
485.95	17786.61
486.16	17708.79
486.37	17782.51
486.57	17813.23
486.78	17821.42
486.98	17987.31
487.19	18183.91
487.40	18509.54
487.60	18175.72
487.81	18497.25
488.02	18439.91
488.22	18751.20
488.43	18718.43
488.64	18714.34
488.84	19064.54
489.05	18861.79
489.25	19027.68
489.46	19336.92
489.67	19347.16
489.87	19637.97
490.08	19390.17
490.29	19533.53
490.49	19971.79
490.70	20027.09
490.90	20113.10
491.11	19871.44
491.32	19916.50
491.52	20125.39
491.73	20168.40
491.94	20393.67
492.14	20213.45
492.35	20461.26
492.55	20700.87
492.76	20735.68
492.97	20629.19
493.17	20883.14
493.38	21008.06
493.58	21190.33
493.79	21003.97
494.00	21345.98
494.20	21286.59
494.41	21190.33
494.61	21442.23
494.82	21477.05
495.02	21370.55
495.23	21714.61
495.44	21724.85
495.64	22048.43
495.85	21999.28
496.05	22048.43
496.26	21751.48
496.47	22234.80
496.67	22265.52
496.88	22361.77
497.08	22468.27
497.29	22257.32
497.49	22238.89
497.70	22797.99
497.91	22945.44
498.11	22920.87
498.32	22937.25
498.52	22881.95
498.73	23252.64
498.93	22867.62
499.14	23369.37
499.34	23297.69
499.55	23162.53
499.76	23463.58
499.96	23770.77
500.17	23465.63
500.37	23533.21
500.58	23490.20
500.78	23672.47
500.99	23672.47
501.19	24059.54
501.40	23889.56
501.60	23756.44
501.81	24055.44
502.02	24047.25
502.22	24151.70
502.43	24569.48
502.63	24540.81
502.84	24686.22
503.04	24454.79
503.25	24512.14
503.45	24608.39
503.66	24950.40
503.86	24579.72
504.07	24772.23
504.27	24739.46
504.48	25226.88
504.68	24860.29
504.89	25165.44
505.09	25087.62
505.30	25298.56
505.50	25020.03
505.71	25370.24
505.91	25677.43
506.12	24950.40
506.32	25360.00
506.53	25450.11
506.73	25335.42
506.94	25917.04
507.14	25441.92
507.35	25851.51
507.55	25665.14
507.76	25814.65
507.96	25747.06
508.17	25968.24
508.37	25968.24
508.58	25816.69
508.78	26312.30
508.99	25968.24
509.19	26263.15
509.40	26099.31
509.60	26142.32
509.81	26271.34
510.01	26486.38
510.22	26670.70
510.42	26517.10
510.63	26525.29
510.83	26330.73
511.04	26533.48
511.24	26840.68
511.44	26750.57
511.65	26830.44
511.85	26883.69
512.06	26914.41
512.26	27104.87
512.47	27086.43
512.67	26818.15
512.88	27039.33
513.08	26895.97
513.29	27022.95
513.49	27180.64
513.69	27342.43
513.90	27133.54
514.10	27397.73
514.31	27330.14
514.51	27350.62
514.72	27440.73
514.92	27385.44
515.13	27453.02
515.33	28038.74
515.53	27702.87
515.74	27698.78
515.94	27936.34
516.15	27764.31
516.35	27856.47
516.56	28612.17
516.76	28100.18
516.96	27962.97
517.17	28091.99
517.37	28036.69
517.58	27922.01
517.78	28194.39
517.99	28221.01
518.19	28001.88
518.39	28386.89
518.60	28747.34
518.80	28599.88
519.01	28515.92
519.21	28804.68
519.41	28614.22
519.62	28339.79
519.82	28968.52
520.03	29027.91
520.23	29208.13
520.43	29138.50
520.64	29439.55
520.84	29492.80
521.05	29535.81
521.25	29513.28
521.45	29163.08
521.66	29738.55
521.86	29697.59
522.07	29615.68
522.27	29574.72
522.47	29791.80
522.68	30113.33
522.88	29740.60
523.08	30537.26
523.29	29902.39
523.49	30060.09
523.70	30221.87
523.90	30279.22
524.10	30469.68
524.31	30086.71
524.51	30207.54
524.71	30772.78
524.92	30342.70
525.12	30918.18
525.33	30760.49
525.53	31090.21
525.73	31151.65
525.94	31165.99
526.14	30973.48
526.34	31034.92
526.55	31352.35
526.75	31280.67
526.95	31383.07
527.16	31462.94
527.36	31600.16
527.56	31809.05
527.77	31860.25
527.97	31921.69
528.17	31774.24
528.38	32275.99
528.58	32282.13
528.78	32075.29
528.99	32157.21
529.19	32581.13
529.39	32185.88
529.60	32763.40
529.80	32468.50
530.00	32927.24
530.21	32749.07
530.41	33125.89
530.61	32964.10
530.82	32841.23
531.02	32974.34
531.22	33457.67
531.43	33271.30
531.63	33431.04
531.83	33607.17
532.04	33699.33
532.24	33584.64
532.44	34227.70
532.64	34004.47
532.85	34366.96
533.05	34051.58
533.25	34184.69
533.46	34125.30
533.66	34749.93
533.86	34526.71
534.07	34924.01
534.27	34858.48
534.47	35214.82
534.67	35175.91
534.88	34924.01
535.08	35085.80
535.28	35403.24
535.49	35270.12
535.69	35526.11
535.89	35634.66
536.09	35612.13
536.30	35972.57
536.50	35964.38
536.70	36089.31
536.91	35972.57
537.11	36181.46
537.31	36373.97
537.51	36171.22
537.72	36519.38
537.92	36378.07
538.12	36957.64
538.32	36580.82
538.53	36812.24
538.73	36449.75
538.93	36951.50
539.13	36978.12
539.34	37027.28
539.54	36949.45
539.74	37221.83
539.94	37406.15
540.15	37348.81
540.35	37502.40
540.55	37584.32
540.75	37815.74
540.96	37821.89
541.16	37531.08
541.36	38090.17
541.56	37905.85
541.77	38350.26
541.97	38067.64
542.17	38577.59
542.37	38245.82
542.58	38458.81
542.78	38251.96
542.98	38311.35
543.18	38905.26
543.38	38798.77
543.59	39052.72
543.79	38780.34
543.99	38985.13
544.19	39052.72
544.40	38630.83
544.60	39245.23
544.80	39306.66
545.00	39329.19
545.20	39486.89
545.41	39462.31
545.61	39519.65
545.81	39736.74
546.01	39943.58
546.21	39728.55
546.42	39484.84
546.62	39953.82
546.82	40215.96
547.02	39712.16
547.22	39814.56
547.43	40113.56
547.63	40107.42
547.83	40496.53
548.03	40314.26
548.23	40695.19
548.44	40619.41
548.64	40725.91
548.84	40484.25
549.04	40433.05
549.24	40455.57
549.45	40961.42
549.65	40787.35
549.85	40744.34
550.05	41237.90
550.25	40990.09
550.45	41375.11
550.66	41465.22
550.86	40801.68
551.06	41321.87
551.26	41422.22
551.46	41368.97
551.66	41522.57
551.87	41684.36
552.07	41680.26
552.27	41395.59
552.47	41880.96
552.67	42083.71
552.87	41899.39
553.07	41661.83
553.28	42055.04
553.48	41989.50
553.68	42132.86
553.88	42311.03
554.08	42143.10
554.28	42435.96
554.48	42169.72
554.69	41848.19
554.89	42333.56
555.09	42198.40
555.29	42233.21
555.49	42571.13
555.69	42464.63
555.89	42392.95
556.10	42728.82
556.30	42464.63
556.50	42689.91
556.70	42485.11
556.90	42513.78
557.10	43533.67
557.30	42708.34
557.50	43267.44
557.70	43226.48
557.91	43136.37
558.11	43255.15
558.31	42812.79
558.51	43173.23
558.71	43017.58
558.91	43242.86
559.11	42976.62
559.31	43066.73
559.51	42968.43
559.72	43318.64
559.92	43468.14
560.12	43408.75
560.32	43646.31
560.52	43304.30
560.72	43685.22
560.92	43674.98
561.12	43695.46
561.32	43795.81
561.52	43625.83
561.72	43959.65
561.93	43285.87
562.13	43851.11
562.33	43423.08
562.53	44006.75
562.73	43906.40
562.93	43771.24
563.13	43953.51
563.33	43963.75
563.53	44334.43
563.73	43701.61
563.93	44543.32
564.13	44578.14
564.33	44451.16
564.53	44242.27
564.74	44586.33
564.94	43949.41
565.14	44485.98
565.34	44182.88
565.54	44416.35
565.74	44395.87
565.94	44645.72
566.14	44236.12
566.34	44371.29
566.54	44629.34
566.74	44633.43
566.94	44922.19
567.14	44987.73
567.34	44678.49
567.54	44737.88
567.74	44764.50
567.94	44803.41
568.14	44995.92
568.34	45020.50
568.54	45122.90
568.74	45147.47
568.94	45143.38
569.14	45440.33
569.34	45178.19
569.54	45172.05
569.75	45034.83
569.95	45063.50
570.15	45690.18
570.35	44879.19
570.55	45329.74
570.75	44973.39
570.95	45114.70
571.15	45491.53
571.35	45440.33
571.55	45544.78
571.75	45458.76
571.95	45319.50
572.15	45440.33
572.35	45671.75
572.55	45616.46
572.75	45686.09
572.95	45655.37
573.15	45712.71
573.35	45802.82
573.55	45473.10
573.75	45694.28
573.95	45942.08
574.15	45811.01
574.35	45665.61
574.55	45903.17
574.75	45774.15
574.95	46208.32
575.15	45905.22
575.34	45970.75
575.54	46302.53
575.74	46325.05
575.94	46386.49
576.14	46011.71
576.34	46198.08
576.54	46665.02
576.74	46376.25
576.94	46392.64
577.14	46269.76
577.34	46974.26
577.54	46875.96
577.74	46771.51
577.94	46601.53
578.14	46593.34
578.34	47150.38
578.54	46286.14
578.74	46742.84
578.94	46716.22
579.14	46882.10
579.34	46802.23
579.54	46880.05
579.74	47146.29
579.94	47134.00
580.13	47209.78
580.33	47025.46
580.53	47367.47
580.73	47275.31
580.93	47605.03
581.13	47064.37
581.33	47260.97
581.53	47756.58
581.73	47805.73
581.93	48127.27
582.13	47983.91
582.33	47588.65
582.53	47664.42
582.73	47998.24
582.92	47766.82
583.12	48250.14
583.32	47940.90
583.52	47887.65
583.72	47965.48
583.92	48198.94
584.12	47938.85
584.32	48772.38
584.52	48213.28
584.72	48047.39
584.92	48456.99
585.11	48641.31
585.31	48127.27
585.51	48473.37
585.71	48127.27
585.91	48999.70
586.11	48067.87
586.31	48407.84
586.51	48383.26
586.71	48577.82
586.91	48780.57
587.10	48823.58
587.30	48393.50
587.50	49296.66
587.70	49124.63
587.90	49210.64
588.10	49091.86
588.30	49046.80
588.50	49372.43
588.69	49452.30
588.89	49112.34
589.09	48907.54
589.29	49505.55
589.49	49747.21
589.69	49190.16
589.89	49288.46
590.08	49339.66
590.28	49435.92
590.48	49665.29
590.68	49562.89
590.88	49685.77
591.08	49610.00
591.28	48915.73
591.47	49825.03
591.67	49429.77
591.87	49585.42
592.07	50027.78
592.27	49696.01
592.47	49558.80
592.67	50101.51
592.86	49976.58
593.06	50089.22
593.26	49796.36
593.46	50050.31
593.66	49601.80
593.86	50253.06
594.05	50031.88
594.25	50423.04
594.45	49685.77
594.65	50189.57
594.85	50523.39
595.05	50484.48
595.24	50564.35
595.44	50253.06
595.64	50218.24
595.84	50365.70
596.04	50928.89
596.23	50742.52
596.43	51041.53
596.63	50971.89
596.83	50615.55
597.03	50633.98
597.22	51279.09
597.42	51162.36
597.62	51080.44
597.82	51002.61
598.02	50996.47
598.21	51442.93
598.41	51240.18
598.61	51272.95
598.81	51485.93
599.01	51686.64
599.20	51379.44
599.40	51569.90
599.60	51811.56
599.80	51746.03
600.00	51401.97
600.19	52065.51
600.39	51326.19
600.59	51610.86
600.79	52163.81
600.98	51221.75
601.18	52278.50
601.38	52567.26
601.58	51889.38
601.78	52255.97
601.97	52100.32
602.17	52479.20
602.37	52491.49
602.57	52585.69
602.76	52884.70
602.96	51975.40
603.16	52518.11
603.36	52696.28
603.55	52831.45
603.75	52284.64
603.95	52374.75
604.15	52567.26
604.34	52473.06
604.54	53071.06
604.74	52761.82
604.94	52901.08
605.13	52786.39
605.33	53380.31
605.53	53075.16
605.73	52862.17
605.92	53273.81
606.12	53435.60
606.32	53521.62
606.52	53269.72
606.71	53662.93
606.91	53990.60
607.11	53271.76
607.30	53492.94
607.50	53470.42
607.70	53898.44
607.90	53279.96
608.09	53470.42
608.29	54019.27
608.49	54172.87
608.68	53933.26
608.88	53822.67
609.08	53847.24
609.28	53927.11
609.47	53814.47
609.67	54363.33
609.87	54400.19
610.06	54490.30
610.26	53830.86
610.46	54480.06
610.66	54043.85
610.85	54117.57
611.05	54187.21
611.25	54471.87
611.44	54195.40
611.64	54242.50
611.84	54099.14
612.03	53898.44
612.23	54604.99
612.43	54633.66
612.62	53818.57
612.82	54768.83
613.02	54430.91
613.21	54129.86
613.41	54752.44
613.61	54779.07
613.80	54248.64
614.00	54684.86
614.20	54650.05
614.39	54574.27
614.59	54875.32
614.79	54293.70
614.98	54918.33
615.18	54936.76
615.38	54727.87
615.57	54367.43
615.77	55170.23
615.97	54834.36
616.16	54691.01
616.36	54752.44
616.56	54897.85
616.75	54709.44
616.95	54215.88
617.15	55047.35
617.34	55030.97
617.54	55033.02
617.74	55151.80
617.93	54949.05
618.13	54817.98
618.32	55069.88
618.52	54758.59
618.72	54740.16
618.91	55026.87
619.11	54820.03
619.31	55231.67
619.50	54506.69
619.70	54584.51
619.90	55129.27
620.09	54709.44
620.29	55000.25
620.48	54987.96
620.68	55305.40
620.88	54621.37
621.07	55286.96
621.27	55098.55
621.46	54783.16
621.66	55170.23
621.86	55192.76
622.05	54516.93
622.25	55246.00
622.44	55041.21
622.64	55061.69
622.84	55026.87
623.03	55006.39
623.23	55198.90
623.42	55315.64
623.62	55110.84
623.82	55198.90
624.01	55274.68
624.21	55403.70
624.40	54723.77
624.60	55098.55
624.80	55028.92
624.99	55403.70
625.19	55088.31
625.38	55012.54
625.58	55295.16
625.77	54912.19
625.97	55450.80
626.17	55063.74
626.36	55172.28
626.56	55493.81
626.75	55278.77
626.95	55907.50
627.14	54955.19
627.34	55680.17
627.54	55057.59
627.73	55532.72
627.93	55014.58
628.12	54969.53
628.32	55428.27
628.51	55370.93
628.71	55354.55
628.90	55145.65
629.10	55366.84
629.30	55719.09
629.49	55518.38
629.69	55012.54
629.88	55203.00
630.08	55334.07
630.27	55835.82
630.47	55477.43
630.66	55276.72
630.86	55608.50
631.05	55289.01
631.25	55532.72
631.44	55418.03
631.64	55465.14
631.84	55512.24
632.03	56439.97
632.23	55342.26
632.42	55854.25
632.62	55768.24
632.81	55549.10
633.01	55174.33
633.20	55966.89
633.40	55557.30
633.59	55952.55
633.79	55356.60
633.98	55661.74
634.18	55962.79
634.37	55710.89
634.57	55440.56
634.76	55690.41
634.96	55930.03
635.15	55932.07
635.35	55405.75
635.54	55346.36
635.74	56231.08
635.93	55547.06
636.13	55833.77
636.32	55887.02
636.52	55688.37
636.71	55622.83
636.91	55835.82
637.10	56288.42
637.30	55721.13
637.49	55749.81
637.69	55592.11
637.88	56407.20
638.08	55282.87
638.27	56079.53
638.46	55983.27
638.66	55291.06
638.85	55825.58
639.05	55862.44
639.24	56382.63
639.44	55864.49
639.63	56425.64
639.83	55952.55
640.02	55940.27
640.22	56065.19
640.41	56458.40
640.61	55569.58
640.80	56358.05
640.99	55844.01
641.19	56655.01
641.38	56229.03
641.58	56198.31
641.77	56136.87
641.97	56112.30
642.16	56169.64
642.36	56456.35
642.55	56534.18
642.74	56259.75
642.94	56706.21
643.13	55964.84
643.33	56415.40
643.52	56186.02
643.72	56618.14
643.91	56378.53
644.10	56120.49
644.30	56763.55
644.49	56071.34
644.69	56812.70
644.88	56374.44
645.08	56353.96
645.27	56655.01
645.46	56095.91
645.66	56650.91
645.85	56362.15
646.05	56497.31
646.24	56267.94
646.43	56308.90
646.63	57017.50
646.82	56812.70
647.02	56863.90
647.21	56622.24
647.40	56673.44
647.60	56661.15
647.79	56560.80
647.99	57316.50
648.18	56798.37
648.37	57343.12
648.57	56943.77
648.76	56515.75
648.96	56816.80
649.15	56837.28
649.34	57095.32
649.54	56892.57
649.73	57158.81
649.92	56841.37
650.12	57009.31
650.31	57291.93
650.51	56900.76
650.70	57279.64
650.89	56804.51
651.09	57742.48
651.28	56884.38
651.47	57388.18
651.67	57181.34
651.86	57738.38
652.06	56407.20
652.25	57396.37
652.44	57201.82
652.64	56927.39
652.83	57156.76
653.02	56466.59
653.22	56800.41
653.41	57021.59
653.60	56763.55
653.80	57361.56
653.99	57244.82
654.18	56976.54
654.38	56894.62
654.57	57353.36
654.76	57201.82
654.96	57070.75
655.15	56925.34
655.34	57173.14
655.54	56861.85
655.73	57461.91
655.92	57046.17
656.12	57185.43
656.31	56986.78
656.50	57398.42
656.70	56640.67
656.89	57132.18
657.08	57431.19
657.28	57169.05
657.47	57054.36
657.66	56982.68
657.86	56915.10
658.05	57105.56
658.24	57169.05
658.43	56951.96
658.63	57578.64
658.82	57130.14
659.01	57224.34
659.21	57701.52
659.40	57490.58
659.59	56978.59
659.79	56976.54
659.98	56956.06
660.17	57509.01
660.36	57093.27
660.56	57136.28
660.75	57287.83
660.94	57056.41
661.14	56648.86
661.33	57054.36
661.52	56992.92
661.71	57300.12
661.91	56923.29
662.10	56841.37
662.29	57590.93
662.49	57511.06
662.68	57171.10
662.87	57050.27
663.06	57111.70
663.26	57304.21
663.45	57525.39
663.64	57488.53
663.83	57648.27
664.03	57480.34
664.22	57144.47
664.41	57488.53
664.60	57177.24
664.80	57390.23
664.99	56966.30
665.18	57191.58
665.37	57736.34
665.57	57511.06
665.76	57326.74
665.95	57191.58
666.14	56984.73
666.34	57070.75
666.53	57144.47
666.72	57148.57
666.91	56808.61
667.11	56937.63
667.30	57179.29
667.49	56976.54
667.68	57377.94
667.87	56597.66
668.07	57191.58
668.26	57060.51
668.45	57207.96
668.64	56618.14
668.84	57156.76
669.03	57488.53
669.22	56689.82
669.41	57398.42
669.60	57291.93
669.80	56900.76
669.99	57277.59
670.18	57246.87
670.37	56874.14
670.57	57695.38
670.76	56960.15
670.95	56988.83
671.14	57429.14
671.33	56599.71
671.53	57484.43
671.72	56730.78
671.91	56917.15
672.10	56839.32
672.29	57087.13
672.48	56902.81
672.68	56851.61
672.87	56652.96
673.06	57162.90
673.25	56521.89
673.44	56884.38
673.64	56571.04
673.83	56143.02
674.02	56243.37
674.21	56515.75
674.40	56757.41
674.59	56304.80
674.79	56646.82
674.98	56079.53
675.17	56482.98
675.36	56562.85
675.55	56792.22
675.74	56444.07
675.94	56519.84
676.13	56695.97
676.32	56472.74
676.51	57132.18
676.70	57396.37
676.89	56384.68
677.08	56675.49
677.28	56466.59
677.47	56911.00
677.66	56843.42
677.85	56556.70
678.04	56808.61
678.23	56593.57
678.42	56603.81
678.62	56548.51
678.81	57035.93
679.00	56319.14
679.19	56990.87
679.38	56269.99
679.57	56444.07
679.76	56511.65
679.96	56562.85
680.15	56280.23
680.34	56583.33
680.53	56304.80
680.72	56439.97
680.91	56358.05
681.10	55989.42
681.29	56247.46
681.48	56276.13
681.68	55940.27
681.87	56194.21
682.06	55989.42
682.25	55260.34
682.44	55522.48
682.63	56153.26
682.82	55844.01
683.01	55852.20
683.20	55338.16
683.39	55776.43
683.59	55506.10
683.78	55753.90
683.97	55573.68
684.16	55825.58
684.35	55342.26
684.54	55721.13
684.73	55999.66
684.92	55411.89
685.11	55549.10
685.30	55796.91
685.49	56136.87
685.69	56071.34
685.88	55424.18
686.07	55835.82
686.26	55524.53
686.45	55547.06
686.64	55428.27
686.83	55751.85
687.02	55358.64
687.21	55727.28
687.40	55473.33
687.59	55768.24
687.78	55858.35
687.97	55467.19
688.16	55407.79
688.35	55162.04
688.54	55395.51
688.74	55524.53
688.93	55377.08
689.12	55841.96
689.31	55567.54
689.50	55526.58
689.69	55131.32
689.88	54807.74
690.07	55174.33
690.26	55043.26
690.45	55520.43
690.64	54932.67
690.83	55243.96
691.02	54645.95
691.21	54469.82
691.40	55342.26
691.59	54967.48
691.78	55030.97
691.97	54682.81
692.16	55170.23
692.35	55612.59
692.54	54891.71
692.73	54881.47
692.92	54928.57
693.11	54613.18
693.30	54834.36
693.49	54998.20
693.68	54414.53
693.87	54633.66
694.06	54543.55
694.25	54414.53
694.44	54731.96
694.63	54611.13
694.82	54867.13
695.01	54705.34
695.20	54518.98
695.39	54834.36
695.58	54756.54
695.77	53908.68
695.96	54058.18
696.15	54310.08
696.34	54158.53
696.53	54242.50
696.72	54621.37
696.91	54387.91
697.10	54498.50
697.29	54131.91
697.48	54525.12
697.67	53933.26
697.86	53556.43
698.05	54080.71
698.24	54187.21
698.43	53830.86
698.62	54215.88
698.81	53761.23
699.00	54654.14
699.19	53951.69
699.38	54113.48
699.57	53834.95
699.76	54054.09
699.95	53449.94
700.14	53630.16
700.32	53982.41
700.51	53986.50
700.70	54101.19
700.89	54146.25
701.08	54080.71
701.27	53687.50
701.46	53996.74
701.65	53261.52
701.84	53398.74
702.03	53466.32
702.22	53486.80
702.41	53646.54
702.60	53791.95
702.79	53777.61
702.98	53179.60
703.17	53359.83
703.35	53232.85
703.54	53310.67
703.73	53503.18
703.92	53353.68
704.11	53247.19
704.30	53097.69
704.49	52778.20
704.68	53101.78
704.87	53310.67
705.06	52888.79
705.25	53095.64
705.43	53085.40
705.62	53439.70
705.81	53325.01
706.00	53179.60
706.19	52804.83
706.38	52647.13
706.57	52831.45
706.76	52589.79
706.95	52722.91
707.14	52624.60
707.32	52919.51
707.51	52827.35
707.70	52356.32
707.89	52575.45
708.08	52012.26
708.27	52794.59
708.46	52853.98
708.65	52819.16
708.84	52843.74
709.02	52741.34
709.21	52718.81
709.40	52786.39
709.59	52581.60
709.78	52311.27
709.97	52614.37
710.16	52229.35
710.34	52401.38
710.53	52448.48
710.72	52116.71
710.91	52374.75
711.10	52552.93
711.29	51881.19
711.48	52202.72
711.66	52067.56
711.85	52352.23
712.04	51754.22
712.23	51885.29
712.42	52208.87
712.61	52098.28
712.80	51866.86
712.98	51981.54
713.17	51944.68
713.36	51817.71
713.55	51829.99
713.74	51803.37
713.93	51627.24
714.11	52163.81
714.30	51533.04
714.49	51451.12
714.68	51838.18
714.87	52141.28
715.06	51743.98
715.24	52219.11
715.43	51829.99
715.62	51268.85
715.81	51225.84
716.00	51428.59
716.18	50963.70
716.37	51262.71
716.56	50615.55
716.75	51352.82
716.94	51139.83
717.12	51033.33
717.31	51195.12
717.50	51459.31
717.69	51250.42
717.88	51330.29
718.06	51131.64
718.25	51586.28
718.44	50806.01
718.63	50464.00
718.82	50871.54
719.00	50783.48
719.19	51053.81
719.38	50560.25
719.57	50464.00
719.76	50287.87
719.94	50451.71
720.13	50275.58
720.32	50617.60
720.51	50138.37
720.69	50216.19
720.88	50337.02
721.07	50210.05
721.26	49714.44
721.44	50144.51
721.63	50142.47
721.82	49771.78
722.01	49845.51
722.20	50283.78
722.38	50068.74
722.57	49079.57
722.76	50150.66
722.95	49495.31
723.13	49405.20
723.32	49427.73
723.51	49493.26
723.70	49341.71
723.88	49493.26
724.07	48852.25
724.26	49595.66
724.44	49069.33
724.63	49739.02
724.82	49405.20
725.01	49157.39
725.19	49184.02
725.38	49120.53
725.57	48758.04
725.76	48964.88
725.94	49206.55
726.13	48921.88
726.32	48696.60
726.51	48891.16
726.69	49450.25
726.88	48936.21
727.07	49259.79
727.25	48932.12
727.44	49063.19
727.63	48495.90
727.82	48923.93
728.00	48645.40
728.19	48854.29
728.38	49261.84
728.56	48473.37
728.75	49204.50
728.94	48772.38
729.12	49229.07
729.31	49032.47
729.50	48837.91
729.69	49165.59
729.87	48712.98
730.06	48719.13
730.25	48799.00
730.43	48981.27
730.62	48659.74
730.81	49001.75
730.99	48796.95
731.18	48633.11
731.37	49044.76
731.55	49147.15
731.74	49085.72
731.93	48768.28
732.11	48633.11
732.30	48954.64
732.49	48459.04
732.67	48731.42
732.86	48960.79
733.05	48624.92
733.23	48569.63
733.42	48923.93
733.61	48678.17
733.79	48422.17
733.98	48712.98
734.17	48860.44
734.35	48391.45
734.54	48747.80
734.73	48721.18
734.91	48715.03
735.10	48074.02
735.29	48885.01
735.47	48301.34
735.66	48545.05
735.84	48360.73
736.03	48403.74
736.22	48682.27
736.40	48344.35
736.59	48657.69
736.78	48354.59
736.96	48467.23
737.15	48125.22
737.33	47973.67
737.52	48317.73
737.71	47768.87
737.89	48250.14
738.08	48071.97
738.27	47963.43
738.45	48799.00
738.64	48246.05
738.82	48133.41
739.01	48108.83
739.20	47920.42
739.38	48297.25
739.57	48485.66
739.75	48620.83
739.94	47519.02
740.13	48008.48
740.31	47912.23
740.50	48198.94
740.68	48071.97
740.87	48424.22
741.06	48135.46
741.24	48084.26
741.43	47766.82
741.61	47990.05
741.80	47955.24
741.99	47990.05
742.17	47447.34
742.36	47430.96
742.54	47332.65
742.73	47899.94
742.91	47666.47
743.10	47809.83
743.29	47836.45
743.47	47922.47
743.66	47449.39
743.84	47711.53
744.03	47783.21
744.21	47406.38
744.40	47461.68
744.59	47508.78
744.77	47654.18
744.96	47387.95
745.14	47568.17
745.33	47291.69
745.51	47451.44
745.70	47506.73
745.88	47519.02
746.07	47568.17
746.26	47066.42
746.44	47215.92
746.63	47490.35
746.81	47160.62
747.00	46830.90
747.18	47355.18
747.37	46980.40
747.55	46955.83
747.74	47160.62
747.92	46804.28
748.11	47306.03
748.29	47162.67
748.48	47187.25
748.66	46579.00
748.85	46916.92
749.03	47232.30
749.22	46671.16
749.41	46323.01
749.59	46945.59
749.78	46435.64
749.96	46081.34
750.15	46425.40
750.33	46462.27
750.52	46503.23
750.70	46728.50
750.89	46097.73
751.07	46007.62
751.26	46529.85
751.44	46261.57
751.63	45972.80
751.81	46083.39
752.00	45970.75
752.18	46290.24
752.37	45950.27
752.55	46015.81
752.74	46017.86
752.92	45880.64
753.10	45933.89
753.29	45983.04
753.47	45712.71
753.66	45598.02
753.84	46021.95
754.03	45768.01
754.21	45524.30
754.40	45915.46
754.58	46081.34
754.77	45718.85
754.95	45706.57
755.14	45534.54
755.32	45530.44
755.51	45069.65
755.69	45638.98
755.88	45170.00
756.06	45694.28
756.24	45192.53
756.43	44942.67
756.61	45243.73
756.80	44846.42
756.98	45098.32
757.17	45053.26
757.35	45385.04
757.54	45438.28
757.72	45143.38
757.90	45139.28
758.09	45266.25
758.27	44817.75
758.46	44811.60
758.64	44594.52
758.83	45073.74
759.01	44926.29
759.19	44934.48
759.38	45086.03
759.56	44758.36
759.75	45194.57
759.93	44778.84
760.12	44664.15
760.30	44737.88
760.48	44705.11
760.67	44406.11
760.85	44545.37
761.04	44961.11
761.22	44621.14
761.40	44500.31
761.59	44621.14
761.77	44291.42
761.96	44408.15
762.14	43863.39
762.32	43795.81
762.51	43855.20
762.69	43752.80
762.88	43961.70
763.06	44318.04
763.24	44047.71
763.43	44084.58
763.61	43808.10
763.80	44119.39
763.98	43529.58
764.16	43511.14
764.35	43562.34
764.53	43390.31
764.72	43740.52
764.90	43693.41
765.08	43513.19
765.27	43720.04
765.45	43074.93
765.63	43390.31
765.82	43777.38
766.00	43228.52
766.18	43373.93
766.37	43607.40
766.55	43541.86
766.74	43562.34
766.92	42929.52
767.10	43230.57
767.29	42962.29
767.47	42509.69
767.65	42919.28
767.84	42700.15
768.02	43009.39
768.20	42749.30
768.39	43113.84
768.57	43031.92
768.75	42937.71
768.94	42962.29
769.12	42653.05
769.30	42399.10
769.49	42524.02
769.67	42136.96
769.85	41780.61
770.04	42372.47
770.22	41880.96
770.40	42370.43
770.59	41753.99
770.77	42397.05
770.95	41932.16
771.14	41899.39
771.32	41461.13
771.50	41375.11
771.69	42177.92
771.87	41811.33
772.05	41514.37
772.24	41481.61
772.42	41637.25
772.60	41768.32
772.78	41366.92
772.97	41420.17
773.15	41264.52
773.33	41643.40
773.52	41241.99
773.70	41473.42
773.88	41579.91
774.07	41491.85
774.25	41387.40
774.43	41516.42
774.61	41334.15
774.80	41600.39
774.98	41766.27
775.16	41213.32
775.34	41465.22
775.53	41381.26
775.71	41751.94
775.89	41600.39
776.08	41518.47
776.26	41405.83
776.44	41297.29
776.62	41493.89
776.81	41375.11
776.99	41778.56
777.17	41526.66
777.35	41641.35
777.54	41436.55
777.72	41784.71
777.90	41667.97
778.08	41829.76
778.27	41211.28
778.45	42005.89
778.63	42098.05
778.81	41497.99
779.00	42587.51
779.18	41883.01
779.36	42186.11
779.54	41891.20
779.73	41471.37
779.91	41723.27
780.09	41710.98
780.27	42001.79
780.46	41952.64
780.64	42341.75
780.82	42016.13
781.00	42048.89
781.19	42368.38
781.37	42263.93
781.55	42007.94
781.73	42507.64
781.91	42063.23
782.10	42157.44
782.28	42249.60
782.46	42370.43
782.64	42370.43
782.82	42198.40
783.01	42112.38
783.19	42298.75
783.37	42276.22
783.55	42335.61
783.74	42530.17
783.92	42005.89
784.10	42730.87
784.28	42136.96
784.46	42149.24
784.64	42030.46
784.83	42210.68
785.01	42511.74
785.19	42218.88
785.37	42397.05
785.55	42302.84
785.74	42153.34
785.92	41973.12
786.10	42671.48
786.28	42001.79
786.46	42130.81
786.64	41571.72
786.83	41653.64
787.01	42067.33
787.19	41735.56
787.37	41932.16
787.55	41885.06
787.74	41371.02
787.92	42038.65
788.10	41776.51
788.28	41268.62
788.46	41727.36
788.64	41198.99
788.82	42046.85
789.01	41614.72
789.19	41667.97
789.37	41549.19
789.55	41170.32
789.73	40846.74
789.91	41508.23
790.09	41196.94
790.28	40832.40
790.46	40891.79
790.64	40990.09
790.82	40992.14
791.00	40854.93
791.18	40379.80
791.36	40877.46
791.55	40603.03
791.73	40684.95
791.91	40148.38
792.09	40517.01
792.27	40351.13
792.45	40643.99
792.63	40000.93
792.81	39859.62
793.00	40136.09
793.18	39800.22
793.36	39421.35
793.54	39581.09
793.72	39640.48
793.90	39337.38
794.08	39187.88
794.26	39318.95
794.44	39368.10
794.62	38954.41
794.81	39318.95
794.99	39048.62
795.17	38989.23
795.35	39269.80
795.53	39011.76
795.71	38901.17
795.89	38890.93
796.07	38489.52
796.25	38360.50
796.43	38598.07
796.61	38323.64
796.80	37973.44
796.98	38206.90
797.16	38272.44
797.34	38163.90
797.52	37539.27
797.70	37807.55
797.88	37402.05
798.06	37828.03
798.24	37905.85
798.42	37705.15
798.60	37432.77
798.78	37533.12
798.96	37590.47
799.14	37000.65
799.32	37365.19
799.51	36810.19
799.69	37182.92
799.87	37006.80
800.05	36765.14
800.23	36939.21
800.41	36670.93
800.59	36543.95
800.77	36640.21
800.95	36019.67
801.13	36574.67
801.31	36197.85
801.49	36431.32
801.67	35786.21
801.85	35692.00
802.03	35603.94
802.21	35616.22
802.39	35925.47
802.57	35648.99
802.75	35704.29
802.93	35827.17
803.11	35612.13
803.29	35257.83
803.47	35145.19
803.65	35421.67
803.83	35290.60
804.01	35081.70
804.19	34612.72
804.37	34897.39
804.55	35014.12
804.73	34725.36
804.91	34610.67
805.09	34362.87
805.27	34356.72
805.45	34520.56
805.63	34395.64
805.81	34418.16
805.99	34586.10
806.17	34383.35
806.35	34113.02
806.53	34162.17
806.71	33967.61
806.89	33926.65
807.07	34149.88
807.25	34125.30
807.43	33902.07
807.61	33791.48
807.79	33783.29
807.97	33437.19
808.15	33396.23
808.33	32708.11
808.51	33226.24
808.69	33334.79
808.87	33013.26
809.05	32998.92
809.23	32947.72
809.41	32732.68
809.59	32841.23
809.77	32931.34
809.95	32808.46
810.13	32802.32
810.31	32654.86
810.49	32550.42
810.67	32558.61
810.84	32769.55
811.02	32716.30
811.20	32060.95
811.38	32407.06
811.56	32482.83
811.74	32431.63
811.92	31985.18
812.10	32077.33
812.28	32235.03
812.46	31786.52
812.64	32093.72
812.82	31514.14
813.00	31776.28
813.18	31745.56
813.36	31647.26
813.53	31223.33
813.71	31604.25
813.89	31278.63
814.07	31563.29
814.25	31540.77
814.43	31043.11
814.61	31206.95
814.79	30770.73
814.97	30946.86
815.15	30932.52
815.33	30883.37
815.50	30651.95
815.68	30971.43
815.86	30752.30
816.04	30506.54
816.22	30934.57
816.40	30725.68
816.58	30610.99
816.76	30166.58
816.94	30500.40
817.11	30242.35
817.29	30191.16
817.47	30035.51
817.65	30090.80
817.83	30422.58
818.01	30144.05
818.19	29861.43
818.37	30006.84
818.54	29804.09
818.72	29603.39
818.90	29795.90
819.08	29955.64
819.26	29517.37
819.44	29349.44
819.62	29439.55
819.80	29402.69
819.97	29652.54
820.15	29470.27
820.33	29249.09
820.51	29619.77
820.69	28939.85
820.87	29468.22
821.05	29302.34
821.22	28980.81
821.40	29322.82
821.58	28661.32
821.76	28890.70
821.94	29064.77
822.12	28993.09
822.29	28954.18
822.47	28833.35
822.65	28921.41
822.83	29304.38
823.01	28892.74
823.19	28599.88
823.36	28487.25
823.54	28477.01
823.72	28321.36
823.90	28321.36
824.08	28030.55
824.25	28479.05
824.43	28300.88
824.61	28409.42
824.79	28397.13
824.97	28259.92
825.15	28343.89
825.32	28386.89
825.50	27895.38
825.68	28055.12
825.86	28204.63
826.04	27823.70
826.21	28089.94
826.39	27960.92
826.57	27909.72
826.75	27792.98
826.93	27582.04
827.10	27694.68
827.28	27852.38
827.46	27670.11
827.64	27661.91
827.81	27457.12
827.99	27571.80
828.17	27483.74
828.35	27428.45
828.53	27291.23
828.70	27250.27
828.88	27180.64
829.06	27379.29
829.24	27555.42
829.41	26893.93
829.59	27666.01
829.77	27090.53
829.95	27176.55
830.12	26943.08
830.30	27139.68
830.48	27240.03
830.66	26814.05
830.84	27227.74
831.01	26758.76
831.19	26973.80
831.37	26848.87
831.55	26769.00
831.72	26885.73
831.90	26992.23
832.08	26605.16
832.25	26601.07
832.43	26685.03
832.61	26459.76
832.79	26412.65
832.96	26441.32
833.14	26363.50
833.32	26580.59
833.50	26392.17
833.67	26244.72
833.85	26146.42
834.03	26160.75
834.20	26220.14
834.38	26369.65
834.56	26259.06
834.74	26166.90
834.91	26177.14
835.09	26285.68
835.27	25577.08
835.44	25826.93
835.62	25747.06
835.80	25484.92
835.98	25986.68
836.15	26044.02
836.33	25570.94
836.51	26068.59
836.68	25523.83
836.86	25699.96
837.04	25454.20
837.21	25665.14
837.39	25865.85
837.57	25548.41
837.75	25495.16
837.92	25005.70
838.10	25337.47
838.28	25157.25
838.45	25177.73
838.63	25247.36
838.81	25196.16
838.98	24835.72
839.16	24835.72
839.34	25017.99
839.51	24823.43
839.69	24936.07
839.87	25001.60
840.04	24987.27
840.22	24946.31
840.40	24964.74
840.57	24702.60
840.75	24954.50
840.93	24360.59
841.10	24884.87
841.28	24874.63
841.46	24579.72
841.63	24827.53
841.81	24624.78
841.98	24805.00
842.16	24729.22
842.34	24819.33
842.51	24374.92
842.69	24575.62
842.87	24536.71
843.04	24323.72
843.22	24221.33
843.40	24297.10
843.57	24170.13
843.75	24520.33
843.92	24462.99
844.10	24428.17
844.28	24325.77
844.45	24344.20
844.63	24168.08
844.81	24090.26
844.98	24290.96
845.16	24233.61
845.33	24260.24
845.51	24227.47
845.69	23778.97
845.86	23944.85
846.04	23723.67
846.21	23799.44
846.39	23938.71
846.57	23961.23
846.74	23807.64
846.92	23555.74
847.09	23469.72
847.27	23447.19
847.45	23629.46
847.62	23625.37
847.80	23738.01
847.97	23674.52
848.15	23477.91
848.32	23246.49
848.50	23318.17
848.68	22982.31
848.85	23576.22
849.03	23082.66
849.20	23740.05
849.38	23197.34
849.56	23131.81
849.73	23217.82
849.91	23250.59
850.08	23404.19
850.26	22867.62
850.43	22904.48
850.61	23277.21
850.78	22849.19
850.96	22957.73
851.14	22902.43
851.31	23174.81
851.49	22875.81
851.66	22898.34
851.84	22953.63
852.01	22896.29
852.19	22933.15
852.36	22904.48
852.54	22816.42
852.71	22517.42
852.89	22679.21
853.07	22435.50
853.24	22822.56
853.42	22546.09
853.59	22834.85
853.77	22679.21
853.94	22855.33
854.12	22742.69
854.29	22429.35
854.47	22609.58
854.64	22431.40
854.82	22564.52
854.99	22341.29
855.17	22400.68
855.34	22382.25
855.52	22722.21
855.69	22386.35
855.87	22400.68
856.04	22005.42
856.22	22345.39
856.39	22193.84
856.57	22245.04
856.74	21761.72
856.92	22099.63
857.09	22021.81
857.27	21927.60
857.44	21968.56
857.62	21993.14
857.79	21933.75
857.97	22167.21
858.14	21974.70
858.32	21968.56
858.49	21999.28
858.67	21968.56
858.84	21624.50
859.02	21927.60
859.19	21552.82
859.37	21778.10
859.54	21651.13
859.72	21843.63
859.89	21499.58
860.06	21741.24
860.24	21382.84
860.41	21991.09
860.59	21356.22
860.76	21636.79
860.94	21249.72
861.11	21655.22
861.29	21286.59
861.46	21327.55
861.64	21161.66
861.81	21128.89
861.98	21401.27
862.16	21186.24
862.33	21311.16
862.51	21120.70
862.68	21120.70
862.86	21190.33
863.03	20903.62
863.21	21124.80
863.38	20950.72
863.55	21001.92
863.73	21223.10
863.90	21192.38
864.08	20940.48
864.25	21010.11
864.43	21208.76
864.60	20752.07
864.77	20621.00
864.95	20709.06
865.12	20580.04
865.30	20807.36
865.47	20426.44
865.64	20584.13
865.82	20631.24
865.99	20827.84
866.17	20321.99
866.34	20475.59
866.51	20623.05
866.69	20872.90
866.86	20440.78
867.04	20494.02
867.21	20283.08
867.38	20254.41
867.56	20172.49
867.73	20365.00
867.91	20201.16
868.08	20276.94
868.25	20139.72
868.43	19883.73
868.60	20135.63
868.78	20012.75
868.95	20240.08
869.12	20086.48
869.30	20057.81
869.47	19908.30
869.64	19760.85
869.82	19912.40
869.99	19953.36
870.16	20283.08
870.34	20000.46
870.51	19752.66
870.69	19781.33
870.86	19834.58
871.03	19826.39
871.21	19650.26
871.38	19637.97
871.55	19701.46
871.73	19543.77
871.90	19211.99
872.07	19265.24
872.25	19072.73
872.42	19259.10
872.59	19228.38
872.77	19371.74
872.94	19406.55
873.11	19187.42
873.29	19252.95
873.46	19379.93
873.63	19326.68
873.81	19412.70
873.98	18863.84
874.15	19021.53
874.33	18953.95
874.50	18910.94
874.67	18876.13
874.85	18978.53
875.02	18818.78
875.19	18652.90
875.37	18851.55
875.54	18581.22
875.71	18798.31
875.88	18466.53
876.06	18693.86
876.23	18296.55
876.40	18482.92
876.58	18577.12
876.75	18456.29
876.92	18388.71
877.10	18654.95
877.27	18403.05
877.44	18214.63
877.61	18116.33
877.79	18269.93
877.96	18177.77
878.13	18267.88
878.31	18042.60
878.48	18020.08
878.65	17954.54
878.82	17780.46
879.00	17749.75
879.17	17917.68
879.34	17759.98
879.51	18196.20
879.69	18185.96
879.86	17786.61
880.03	18071.28
880.21	17618.68
880.38	18065.13
880.55	17686.26
880.72	17706.74
880.90	17669.87
881.07	17731.31
881.24	17551.09
881.41	17585.91
881.59	17458.93
881.76	17497.84
881.93	17493.75
882.10	17460.98
882.28	17497.84
882.45	17516.28
882.62	17344.25
882.79	17379.06
882.96	17108.73
883.14	17268.47
883.31	17403.64
883.48	17116.92
883.65	17278.71
883.83	17141.50
884.00	16955.13
884.17	17149.69
884.34	17182.46
884.51	17078.01
884.69	16955.13
884.86	16973.56
885.03	17125.11
885.20	16582.40
885.38	16946.94
885.55	16688.90
885.72	16936.70
885.89	16846.59
886.06	16905.98
886.24	16936.70
886.41	16783.10
886.58	16803.58
886.75	17004.28
886.92	16736.00
887.10	16830.21
887.27	16541.44
887.44	16463.62
887.61	16887.55
887.78	16893.69
887.95	16738.05
888.13	16688.90
888.30	16572.16
888.47	16543.49
888.64	16588.55
888.81	16533.25
888.99	16273.16
889.16	16156.43
889.33	16318.22
889.50	16416.52
889.67	16416.52
889.84	16523.01
890.01	16529.16
890.19	16357.13
890.36	16490.24
890.53	16142.09
890.70	16203.53
890.87	15988.49
891.04	15984.40
891.22	16123.66
891.39	16181.00
891.56	16094.99
891.73	15890.19
891.90	16076.55
892.07	16035.60
892.24	16103.18
892.42	15642.39
892.59	15685.39
892.76	15808.27
892.93	15779.60
893.10	15775.50
893.27	15648.53
893.44	15472.40
893.61	15804.17
893.79	15836.94
893.96	15795.98
894.13	15634.19
894.30	15793.94
894.47	15648.53
894.64	15746.83
894.81	15828.75
894.98	15699.73
895.15	15832.85
895.33	15707.92
895.50	15761.17
895.67	15783.70
895.84	15662.86
896.01	15816.46
896.18	15613.71
896.35	15945.48
896.52	15879.95
896.69	15730.45
896.86	15812.37
897.04	15705.87
897.21	15765.26
897.38	15675.15
897.55	15546.13
897.72	15617.81
897.89	15558.42
898.06	15576.85
898.23	15650.58
898.40	15515.41
898.57	15703.82
898.74	15683.34
898.91	15329.05
899.08	15816.46
899.26	15496.98
899.43	15580.95
899.60	15316.76
899.77	15576.85
899.94	15456.02
900.11	15320.85
900.28	15533.84
900.45	15453.97
900.62	15382.29
900.79	15515.41
900.96	15646.48
901.13	15642.39
901.30	15515.41
901.47	15177.50
901.64	15539.99
901.81	15408.92
901.98	15355.67
902.15	15623.95
902.32	15580.95
902.49	15460.12
902.66	15398.68
902.83	15484.69
903.01	15324.95
903.18	15697.68
903.35	15539.99
903.52	15431.44
903.69	15505.17
903.86	15417.11
904.03	15163.16
904.20	15501.08
904.37	15679.25
904.54	15292.18
904.71	15486.74
904.88	15437.59
905.05	15318.81
905.22	15353.62
905.39	15386.39
905.56	15451.92
905.73	15249.18
905.90	15378.20
906.07	15605.52
906.24	15531.80
906.41	15437.59
906.58	15386.39
906.75	15462.16
906.92	15212.31
907.09	15503.12
907.26	15378.20
907.43	15232.79
907.60	15218.46
907.77	15613.71
907.93	15275.80
908.10	15505.17
908.27	15460.12
908.44	15130.39
908.61	15177.50
908.78	15271.70
908.95	15191.83
909.12	15068.95
909.29	15230.74
909.46	15181.59
909.63	15279.89
909.80	15304.47
909.97	15327.00
910.14	15171.35
910.31	15251.22
910.48	15165.21
910.65	15197.98
910.82	15218.46
910.99	15124.25
911.16	14933.79
911.33	15124.25
911.50	15146.78
911.66	15015.71
911.83	14999.32
912.00	14937.88
912.17	14964.51
912.34	15083.29
912.51	14835.49
912.68	14577.44
912.85	14862.11
913.02	14954.27
913.19	14673.70
913.36	14923.55
913.53	14872.35
913.70	14722.85
913.86	14835.49
914.03	14620.45
914.20	14683.94
914.37	14774.05
914.54	14624.54
914.71	14804.77
914.88	14602.02
915.05	14585.63
915.22	14434.08
915.39	14671.65
915.55	14421.80
915.72	14495.52
915.89	14352.16
916.06	14196.52
916.23	14317.35
916.40	14419.75
916.57	14307.11
916.74	14411.56
916.91	13979.43
917.07	13989.67
917.24	14100.26
917.41	14018.35
917.58	14022.44
917.75	13874.99
917.92	13735.73
918.09	14030.63
918.26	13762.35
918.42	13938.48
918.59	14047.02
918.76	13645.62
918.93	13748.01
919.10	13543.22
919.27	13575.98
919.44	13754.16
919.60	13627.18
919.77	13442.87
919.94	13647.66
920.11	13672.24
920.28	13483.83
920.45	13360.95
920.61	13256.50
920.78	13363.00
920.95	13336.37
921.12	13207.35
921.29	13152.06
921.46	13156.15
921.62	13262.65
921.79	13057.85
921.96	13156.15
922.13	13029.18
922.30	12918.59
922.47	12771.13
922.63	12724.03
922.80	12773.18
922.97	12803.90
923.14	12572.48
923.31	12891.96
923.47	12470.08
923.64	12478.27
923.81	12375.88
923.98	12484.42
924.15	12590.91
924.32	12232.52
924.48	12556.10
924.65	12326.72
924.82	12414.79
924.99	12111.69
925.15	12046.15
925.32	12199.75
925.49	12226.37
925.66	12269.38
925.83	12019.53
925.99	11984.71
926.16	11949.90
926.33	11859.79
926.50	11595.60
926.67	11698.00
926.83	11622.22
927.00	11611.98
927.17	11528.02
927.34	11472.72
927.50	11509.58
927.67	11648.85
927.84	11523.92
928.01	11372.37
928.17	11372.37
928.34	11247.44
928.51	11257.68
928.68	11317.08
928.84	11282.26
929.01	11151.19
929.18	10921.82
929.35	11093.85
929.51	10927.96
929.68	10805.08
929.85	10858.33
930.02	10882.91
930.18	10825.56
930.35	10923.87
930.52	10637.15
930.69	10669.92
930.85	10440.54
931.02	10579.81
931.19	10514.27
931.36	10487.65
931.52	10698.59
931.69	10506.08
931.86	10282.85
932.02	10284.90
932.19	10309.47
932.36	10110.82
932.53	10295.14
932.69	10055.53
932.86	10164.07
933.03	10209.12
933.19	10016.62
933.36	9977.70
933.53	9987.94
933.70	9750.38
933.86	9959.27
934.03	9758.57
934.20	9451.38
934.36	9662.32
934.53	9308.02
934.70	9518.96
934.86	9318.26
935.03	9187.19
935.20	9301.87
935.36	9172.85
935.53	9133.94
935.70	9021.30
935.86	9226.10
936.03	8970.10
936.20	8875.90
936.36	8732.54
936.53	8867.70
936.70	8638.33
936.86	8867.70
937.03	8527.74
937.20	8296.32
937.36	8425.34
937.53	8095.62
937.70	8136.58
937.86	8073.09
938.03	8066.95
938.20	8081.28
938.36	7833.48
938.53	7700.36
938.70	7708.55
938.86	7735.18
939.03	7534.48
939.20	7440.27
939.36	7374.74
939.53	7178.13
939.70	7514.00
939.86	7171.99
940.03	7069.59
940.19	6997.91
940.36	6915.99
940.53	6985.62
940.69	6764.44
940.86	6657.95
941.03	6637.47
941.19	6553.50
941.36	6436.77
941.52	6473.63
941.69	6483.87
941.86	6315.94
942.02	6330.27
942.19	6317.98
942.35	6287.26
942.52	6148.00
942.69	6102.95
942.85	6133.67
943.02	5937.06
943.18	5883.81
943.35	5914.53
943.52	5842.85
943.68	5855.14
943.85	5881.77
944.01	5689.26
944.18	5754.79
944.35	5793.70
944.51	5705.64
944.68	5566.38
944.84	5601.19
945.01	5656.49
945.17	5511.08
945.34	5582.76
945.51	5640.11
945.67	5468.08
945.84	5474.22
946.00	5443.50
946.17	5474.22
946.33	5408.69
946.50	5590.95
946.67	5324.72
946.83	5455.79
947.00	5556.14
947.16	5250.99
947.33	5355.44
947.49	5441.45
947.66	5339.05
947.82	5322.67
947.99	5388.21
948.16	5365.68
948.32	5324.72
948.49	5427.12
948.65	5308.34
948.82	5283.76
948.98	5363.63
949.15	5322.67
949.31	5513.13
949.48	5416.88
949.64	5386.16
949.81	5324.72
949.97	5392.30
950.14	5582.76
950.30	5207.98
950.47	5513.13
950.63	5474.22
950.80	5388.21
950.96	5322.67
951.13	5451.69
951.30	5349.29
951.46	5474.22
951.63	5529.52
951.79	5470.12
951.96	5463.98
952.12	5504.94
952.29	5535.66
952.45	5388.21
952.62	5517.23
952.78	5515.18
952.94	5283.76
953.11	5443.50
953.27	5562.28
953.44	5539.76
953.60	5414.83
953.77	5492.65
953.93	5474.22
954.10	5599.15
954.26	5609.39
954.43	5523.37
954.59	5494.70
954.76	5566.38
954.92	5486.51
955.09	5502.89
955.25	5554.09
955.42	5496.75
955.58	5502.89
955.75	5451.69
955.91	5468.08
956.07	5625.77
956.24	5695.40
956.40	5529.52
956.57	5656.49
956.73	5562.28
956.90	5533.61
957.06	5420.97
957.23	5556.14
957.39	5605.29
957.56	5597.10
957.72	5375.92
957.88	5431.21
958.05	5695.40
958.21	5529.52
958.38	5683.11
958.54	5533.61
958.71	5521.32
958.87	5527.47
959.03	5427.12
959.20	5697.45
959.36	5310.38
959.53	5580.71
959.69	5404.59
959.85	5625.77
960.02	5447.60
960.18	5578.67
960.35	5529.52
960.51	5515.18
960.68	5533.61
960.84	5582.76
961.00	5513.13
961.17	5500.84
961.33	5560.24
961.50	5599.15
961.66	5621.67
961.82	5578.67
961.99	5310.38
962.15	5496.75
962.31	5447.60
962.48	5547.95
962.64	5574.57
962.81	5500.84
962.97	5541.80
963.13	5615.53
963.30	5445.55
963.46	5412.78
963.62	5500.84
963.79	5427.12
963.95	5500.84
964.12	5431.21
964.28	5550.00
964.44	5377.97
964.61	5638.06
964.77	5525.42
964.93	5529.52
965.10	5400.49
965.26	5349.29
965.42	5506.99
965.59	5341.10
965.75	5433.26
965.92	5339.05
966.08	5318.57
966.24	5441.45
966.41	5300.14
966.57	5527.47
966.73	5357.49
966.90	5550.00
967.06	5435.31
967.22	5435.31
967.39	5390.25
967.55	5070.77
967.71	5203.89
967.88	5240.75
968.04	5265.33
968.20	5242.80
968.37	5341.10
968.53	5210.03
968.69	5230.51
968.85	5451.69
969.02	5240.75
969.18	5285.81
969.34	5289.90
969.51	5234.61
969.67	5289.90
969.83	5152.69
970.00	5220.27
970.16	5197.74
970.32	5181.36
970.48	5328.81
970.65	5099.44
970.81	5107.63
970.97	5091.25
971.14	4974.52
971.30	5205.94
971.46	5150.64
971.63	4915.12
971.79	5025.72
971.95	4999.09
972.11	5078.96
972.28	5087.15
972.44	4992.95
972.60	5044.15
972.76	5013.43
972.93	4931.51
973.09	4976.56
973.25	5175.22
973.42	5042.10
973.58	4976.56
973.74	4978.61
973.90	4945.84
974.07	4849.59
974.23	4974.52
974.39	4968.37
974.55	4892.60
974.72	4911.03
974.88	5038.00
975.04	4868.02
975.20	4759.48
975.37	4878.26
975.53	4777.91
975.69	4886.45
975.85	4720.57
976.01	4779.96
976.18	4730.81
976.34	4919.22
976.50	4941.75
976.66	4915.12
976.83	4771.77
976.99	4818.87
977.15	4747.19
977.31	4528.06
977.47	4849.59
977.64	4775.86
977.80	4630.46
977.96	4667.32
978.12	4587.45
978.29	4642.75
978.45	4562.87
978.61	4485.05
978.77	4644.79
978.93	4399.04
979.10	4532.15
979.26	4657.08
979.42	4491.20
979.58	4485.05
979.74	4480.96
979.91	4480.96
980.07	4509.63
980.23	4591.55
980.39	4435.90
980.55	4483.00
980.71	4444.09
980.88	4401.08
981.04	4458.43
981.20	4474.81
981.36	4460.48
981.52	4378.56
981.68	4431.80
981.85	4444.09
982.01	4417.47
982.17	4392.89
982.33	4476.86
982.49	4409.28
982.65	4476.86
982.82	4523.96
982.98	4425.66
983.14	4327.36
983.30	4388.80
983.46	4390.84
983.62	4386.75
983.79	4231.10
983.95	4294.59
984.11	4163.52
984.27	4353.98
984.43	4198.34
984.59	4353.98
984.75	4337.60
984.91	4239.30
985.08	4229.06
985.24	4169.66
985.40	4122.56
985.56	4140.99
985.72	4257.73
985.88	4048.83
986.04	4071.36
986.20	4097.99
986.37	4263.87
986.53	4009.92
986.69	4116.42
986.85	4063.17
987.01	4042.69
987.17	4218.82
987.33	3868.61
987.49	4003.78
987.65	4085.70
987.82	3991.49
987.98	3917.76
988.14	3903.43
988.30	4009.92
988.46	3921.86
988.62	3977.16
988.78	4073.41
988.94	4018.11
989.10	3981.25
989.26	3803.08
989.42	3868.61
989.59	3833.80
989.75	3948.48
989.91	3960.77
990.07	3874.76
990.23	3835.85
990.39	3848.13
990.55	3866.56
990.71	3792.84
990.87	3809.22
991.03	3737.54
991.19	3776.45
991.35	3796.93
991.51	3903.43
991.67	3848.13
991.83	3809.22
992.00	3780.55
992.16	3817.41
992.32	3854.28
992.48	3815.37
992.64	3739.59
992.80	3739.59
992.96	3653.58
993.12	3731.40
993.28	3672.01
993.44	3770.31
993.60	3647.43
993.76	3663.82
993.92	3772.36
994.08	3717.06
994.24	3710.92
994.40	3616.71
994.56	3690.44
994.72	3577.80
994.88	3538.89
995.04	3657.67
995.20	3604.42
995.36	3530.70
995.52	3655.62
995.68	3676.10
995.84	3534.79
996.00	3588.04
996.16	3418.06
996.32	3512.27
996.48	3448.78
996.64	3475.40
996.80	3454.92
996.96	3540.94
997.12	3416.01
997.28	3481.55
997.44	3489.74
997.60	3399.63
997.76	3411.92
997.92	3510.22
998.08	3444.68
998.24	3332.05
998.40	3332.05
998.56	3342.28
998.72	3299.28
998.88	3301.33
999.04	3174.35
999.20	3475.40
999.36	3336.14
999.52	3459.02
999.68	3291.09
999.84	3196.88
1000.00	3327.95
1000.16	3225.55
1000.32	3282.89
1000.48	3366.86
1000.64	3209.17
1000.80	3153.87
1000.95	3133.39
1001.11	3188.69
1001.27	3119.06
1001.43	3270.61
1001.59	3194.83
1001.75	3147.73
1001.91	3297.23
1002.07	3172.30
1002.23	3192.78
1002.39	3108.82
1002.55	3174.35
1002.71	3125.20
1002.87	3041.23
1003.03	3166.16
1003.19	3100.62
1003.34	3149.78
1003.50	3112.91
1003.66	3125.20
1003.82	3157.97
1003.98	3086.29
1004.14	3125.20
1004.30	3002.32
1004.46	3100.62
1004.62	3071.95
1004.78	3074.00
1004.94	3082.19
1005.09	3086.29
1005.25	3002.32
1005.41	2969.55
1005.57	2957.27
1005.73	3037.14
1005.89	2965.46
1006.05	3049.43
1006.21	2959.31
1006.37	2932.69
1006.52	2930.64
1006.68	2975.70
1006.84	2983.89
1007.00	2947.03
1007.16	2963.41
1007.32	2836.44
1007.48	2877.40
1007.64	2930.64
1007.79	2924.50
1007.95	2895.83
1008.11	2940.88
1008.27	2891.73
1008.43	2861.01
1008.59	2891.73
1008.75	2801.62
1008.91	2871.25
1009.06	2887.64
1009.22	2865.11
1009.38	2863.06
1009.54	2815.96
1009.70	2686.94
1009.86	2846.68
1010.01	2760.66
1010.17	2791.38
1010.33	2797.53
1010.49	2785.24
1010.65	2746.33
1010.81	2637.78
1010.96	2783.19
1011.12	2742.23
1011.28	2731.99
1011.44	2787.29
1011.60	2668.50
1011.76	2682.84
1011.91	2772.95
1012.07	2645.98
1012.23	2672.60
1012.39	2607.06
1012.55	2680.79
1012.71	2629.59
1012.86	2574.30
1013.02	2650.07
1013.18	2580.44
1013.34	2713.56
1013.50	2668.50
1013.65	2623.45
1013.81	2631.64
1013.97	2574.30
1014.13	2650.07
1014.29	2559.96
1014.44	2576.34
1014.60	2639.83
1014.76	2555.86
1014.92	2596.82
1015.07	2559.96
1015.23	2643.93
1015.39	2514.91
1015.55	2582.49
1015.71	2639.83
1015.86	2574.30
1016.02	2455.51
1016.18	2494.43
1016.34	2529.24
1016.49	2555.86
1016.65	2639.83
1016.81	2437.08
1016.97	2457.56
1017.12	2516.95
1017.28	2447.32
1017.44	2441.18
1017.60	2498.52
1017.75	2443.23
1017.91	2535.39
1018.07	2451.42
1018.23	2508.76
1018.38	2326.49
1018.54	2357.21
1018.70	2408.41
1018.86	2383.84
1019.01	2420.70
1019.17	2377.69
1019.33	2420.70
1019.49	2349.02
1019.64	2385.88
1019.80	2437.08
1019.96	2439.13
1020.12	2437.08
1020.27	2299.87
1020.43	2385.88
1020.59	2408.41
1020.74	2404.32
1020.90	2404.32
1021.06	2297.82
1021.22	2396.12
1021.37	2287.58
1021.53	2256.86
1021.69	2383.84
1021.84	2336.73
1022.00	2318.30
1022.16	2285.53
1022.31	2277.34
1022.47	2316.25
1022.63	2355.16
1022.79	2228.19
1022.94	2213.85
1023.10	2349.02
1023.26	2222.05
1023.41	2273.25
1023.57	2197.47
1023.73	2406.36
1023.88	2271.20
1024.04	2232.29
1024.20	2263.01
1024.35	2287.58
1024.51	2306.01
1024.67	2232.29
1024.82	2275.29
1024.98	2154.46
1025.14	2211.81
1025.29	2164.70
1025.45	2191.33
1025.61	2211.81
1025.76	2254.81
1025.92	2191.33
1026.08	2146.27
1026.23	2248.67
1026.39	2222.05
1026.55	2088.93
1026.70	2172.89
1026.86	2170.85
1027.02	2244.57
1027.17	2176.99
1027.33	2131.94
1027.48	2164.70
1027.64	2179.04
1027.80	2105.31
1027.95	2123.74
1028.11	2074.59
1028.27	2156.51
1028.42	2195.42
1028.58	2088.93
1028.73	2164.70
1028.89	2107.36
1029.05	2238.43
1029.20	2078.69
>>>>>End Processed Spectral Data<<<<<
