SpectraSuite Data File
++++++++++++++++++++++++++++++++++++
Date: Fri Jun 02 14:53:29 CEST 2017
User: INFO_000
Dark Spectrum Present: No
Reference Spectrum Present: No
Number of Sampled Component Spectra: 1
Spectrometers: USB4H00879
Integration Time (usec): 80000 (USB4H00879)
Spectra Averaged: 1 (USB4H00879)
Boxcar Smoothing: 0 (USB4H00879)
Correct for Electrical Dark: No (USB4H00879)
Strobe/Lamp Enabled: No (USB4H00879)
Correct for Detector Non-linearity: No (USB4H00879)
Correct for Stray Light: No (USB4H00879)
Number of Pixels in Processed Spectrum: 3648
>>>>>Begin Processed Spectral Data<<<<<
345.13	1312.75
345.34	1312.75
345.56	1312.75
345.78	1257.45
345.99	1277.93
346.21	1685.48
346.42	1771.49
346.64	1624.04
346.86	1798.12
347.07	1740.77
347.29	1683.43
347.50	1656.81
347.72	1648.61
347.94	1714.15
348.15	1636.33
348.37	1578.98
348.59	1734.63
348.80	1611.75
349.02	1806.31
349.23	1890.28
349.45	1779.68
349.67	1859.56
349.88	1767.40
350.10	1920.99
350.31	1900.52
350.53	1783.78
350.75	1966.05
350.96	1796.07
351.18	1871.84
351.39	1722.34
351.61	1781.73
351.82	1968.10
352.04	1941.47
352.26	1800.16
352.47	1875.94
352.69	1947.62
352.90	1824.74
353.12	1859.56
353.34	1871.84
353.55	1943.52
353.77	1861.60
353.98	1828.84
354.20	1886.18
354.41	1929.19
354.63	1906.66
354.85	2027.49
355.06	1998.82
355.28	1732.58
355.49	1808.36
355.71	1902.56
355.92	1851.36
356.14	1867.75
356.35	1863.65
356.57	1896.42
356.79	1927.14
357.00	1923.04
357.22	2027.49
357.43	1851.36
357.65	1937.38
357.86	1851.36
358.08	1916.90
358.29	1904.61
358.51	2011.11
358.72	2056.16
358.94	1918.95
359.16	1888.23
359.37	1914.85
359.59	1959.91
359.80	1896.42
360.02	1929.19
360.23	1994.72
360.45	1970.15
360.66	1920.99
360.88	1875.94
361.09	1961.95
361.31	2015.20
361.52	1986.53
361.74	2052.06
361.95	2095.07
362.17	1920.99
362.38	2158.56
362.60	2023.39
362.81	1925.09
363.03	2000.87
363.24	1955.81
363.46	2039.78
363.67	2066.40
363.89	1988.58
364.10	2007.01
364.32	2041.82
364.53	2021.35
364.75	1945.57
364.96	2115.55
365.18	1966.05
365.39	1990.63
365.61	1986.53
365.82	2115.55
366.04	1974.24
366.25	1908.71
366.47	2011.11
366.68	2002.91
366.90	1957.86
367.11	2047.97
367.33	2123.74
367.54	2082.78
367.76	2029.54
367.97	2111.46
368.19	2029.54
368.40	2097.12
368.62	2052.06
368.83	1996.77
369.05	2084.83
369.26	1961.95
369.48	2029.54
369.69	1974.24
369.91	2074.59
370.12	2084.83
370.33	2160.61
370.55	1994.72
370.76	2088.93
370.98	2181.09
371.19	2052.06
371.41	2068.45
371.62	2121.70
371.84	1968.10
372.05	2150.37
372.27	2144.22
372.48	2025.44
372.69	2099.17
372.91	2174.94
373.12	2133.98
373.34	2099.17
373.55	2166.75
373.77	2144.22
373.98	2142.18
374.20	2166.75
374.41	2242.53
374.62	2148.32
374.84	2117.60
375.05	2174.94
375.27	2172.89
375.48	2205.66
375.70	2127.84
375.91	2183.13
376.12	2316.25
376.34	2142.18
376.55	2176.99
376.77	2267.10
376.98	2086.88
377.19	2109.41
377.41	2240.48
377.62	2195.42
377.84	2263.01
378.05	2355.16
378.27	2203.61
378.48	2353.12
378.69	2416.60
378.91	2363.36
379.12	2201.57
379.34	2332.64
379.55	2342.88
379.76	2195.42
379.98	2263.01
380.19	2183.13
380.41	2363.36
380.62	2293.72
380.83	2306.01
381.05	2205.66
381.26	2428.89
381.47	2308.06
381.69	2263.01
381.90	2416.60
382.12	2322.40
382.33	2301.92
382.54	2392.03
382.76	2381.79
382.97	2353.12
383.19	2174.94
383.40	2435.03
383.61	2381.79
383.83	2254.81
384.04	2314.20
384.25	2334.68
384.47	2426.84
384.68	2328.54
384.89	2295.77
385.11	2369.50
385.32	2316.25
385.54	2398.17
385.75	2365.40
385.96	2478.04
386.18	2365.40
386.39	2402.27
386.60	2400.22
386.82	2398.17
387.03	2437.08
387.24	2414.56
387.46	2576.34
387.67	2559.96
387.88	2506.71
388.10	2559.96
388.31	2557.91
388.52	2523.10
388.74	2486.23
388.95	2484.19
389.16	2492.38
389.38	2494.43
389.59	2641.88
389.80	2705.37
390.02	2449.37
390.23	2670.55
390.44	2549.72
390.66	2592.73
390.87	2555.86
391.08	2549.72
391.30	2736.09
391.51	2713.56
391.72	2764.76
391.94	2674.65
392.15	2684.89
392.36	2543.58
392.58	2547.67
392.79	2666.46
393.00	2666.46
393.22	2664.41
393.43	2697.17
393.64	2789.33
393.85	2801.62
394.07	2731.99
394.28	2824.15
394.49	2727.89
394.71	2754.52
394.92	2848.72
395.13	2686.94
395.35	2793.43
395.56	2824.15
395.77	2723.80
395.98	2875.35
396.20	2719.70
396.41	2807.77
396.62	2836.44
396.84	2879.44
397.05	2809.81
397.26	2953.17
397.47	3006.42
397.69	2877.40
397.90	3030.99
398.11	2967.51
398.32	2918.36
398.54	3020.75
398.75	2947.03
398.96	2924.50
399.18	3137.49
399.39	2994.13
399.60	2998.23
399.81	3055.57
400.03	2899.92
400.24	3235.79
400.45	3055.57
400.66	3133.39
400.88	3028.95
401.09	3252.17
401.30	2963.41
401.51	3080.14
401.73	3051.47
401.94	3123.15
402.15	3196.88
402.36	3145.68
402.58	3102.67
402.79	3151.82
403.00	3217.36
403.21	3301.33
403.43	3172.30
403.64	3260.37
403.85	3227.60
404.06	3239.89
404.27	3143.63
404.49	3211.22
404.70	3207.12
404.91	3330.00
405.12	3346.38
405.34	3299.28
405.55	3354.57
405.76	3157.97
405.97	3213.26
406.19	3375.05
406.40	3270.61
406.61	3282.89
406.82	3385.29
407.03	3309.52
407.25	3348.43
407.46	3395.53
407.67	3424.20
407.88	3518.41
408.09	3317.71
408.31	3442.64
408.52	3489.74
408.73	3366.86
408.94	3334.09
409.15	3436.49
409.37	3495.88
409.58	3565.51
409.79	3579.85
410.00	3530.70
410.21	3403.72
410.43	3493.83
410.64	3373.00
410.85	3506.12
411.06	3487.69
411.27	3545.03
411.48	3663.82
411.70	3399.63
411.91	3643.34
412.12	3688.39
412.33	3522.51
412.54	3653.58
412.76	3647.43
412.97	3643.34
413.18	3528.65
413.39	3631.05
413.60	3659.72
413.81	3682.25
414.03	3542.99
414.24	3684.30
414.45	3813.32
414.66	3651.53
414.87	3674.06
415.08	3817.41
415.30	3694.54
415.51	3778.50
415.72	3729.35
415.93	3749.83
416.14	3811.27
416.35	3874.76
416.56	3829.70
416.78	3858.37
416.99	3962.82
417.20	3825.61
417.41	3977.16
417.62	3868.61
417.83	3899.33
418.04	3846.09
418.26	3968.96
418.47	3846.09
418.68	4016.07
418.89	3934.15
419.10	4048.83
419.31	4075.46
419.52	4143.04
419.73	4091.84
419.95	4114.37
420.16	4040.64
420.37	4063.17
420.58	4001.73
420.79	4038.59
421.00	4153.28
421.21	4120.51
421.42	4114.37
421.63	4200.38
421.85	4102.08
422.06	4237.25
422.27	4227.01
422.48	4210.62
422.69	4237.25
422.90	4356.03
423.11	4321.21
423.32	4319.17
423.53	4499.39
423.75	4366.27
423.96	4452.28
424.17	4513.72
424.38	4499.39
424.59	4483.00
424.80	4526.01
425.01	4517.82
425.22	4489.15
425.43	4534.20
425.64	4782.01
425.85	4753.34
426.06	4689.85
426.28	4698.04
426.49	4587.45
426.70	4513.72
426.91	4652.98
427.12	4861.88
427.33	4671.42
427.54	4669.37
427.75	4763.58
427.96	4917.17
428.17	4734.90
428.38	4861.88
428.59	4933.56
428.80	4841.40
429.01	4917.17
429.23	4818.87
429.44	5146.55
429.65	5052.34
429.86	5066.67
430.07	4943.80
430.28	5003.19
430.49	5017.52
430.70	5083.06
430.91	5169.07
431.12	5085.11
431.33	5062.58
431.54	5226.42
431.75	5230.51
431.96	5294.00
432.17	5111.73
432.38	5224.37
432.59	5566.38
432.80	5226.42
433.01	5306.29
433.22	5490.60
433.43	5400.49
433.64	5445.55
433.85	5224.37
434.06	5341.10
434.27	5361.58
434.49	5478.32
434.70	5660.59
434.91	5435.31
435.12	5599.15
435.33	5525.42
435.54	5615.53
435.75	5468.08
435.96	5414.83
436.17	5474.22
436.38	5629.87
436.59	5535.66
436.80	5607.34
437.01	5754.79
437.22	5869.48
437.43	5793.70
437.64	5341.10
437.85	5953.45
438.06	5814.18
438.27	5771.18
438.48	5666.73
438.69	5885.86
438.90	5912.49
439.11	5758.89
439.32	5980.07
439.53	5951.40
439.74	5879.72
439.95	5955.49
440.16	5920.68
440.37	6074.28
440.57	5828.52
440.78	6033.32
440.99	5988.26
441.20	6006.69
441.41	6035.36
441.62	5959.59
441.83	5887.91
442.04	5922.73
442.25	6172.58
442.46	6127.52
442.67	6258.59
442.88	6569.88
443.09	6246.30
443.30	6137.76
443.51	6344.61
443.72	6535.07
443.93	6256.54
444.14	6377.37
444.35	6143.91
444.56	6328.22
444.77	6238.11
444.98	6334.37
445.19	6496.16
445.40	6401.95
445.61	6471.58
445.81	6559.64
446.02	6418.33
446.23	6391.71
446.44	6399.90
446.65	6500.25
446.86	6426.53
447.07	6586.27
447.28	6619.04
447.49	6684.57
447.70	6610.84
447.91	6655.90
448.12	6526.88
448.33	6776.73
448.54	6789.02
448.74	6625.18
448.95	7032.72
449.16	6625.18
449.37	6985.62
449.58	6817.69
449.79	7114.64
450.00	6801.30
450.21	6942.61
450.42	7065.49
450.63	7114.64
450.84	6983.57
451.05	6983.57
451.25	7006.10
451.46	6850.46
451.67	7051.16
451.88	7161.75
452.09	7178.13
452.30	7147.41
452.51	7131.03
452.72	7286.67
452.93	7532.43
453.13	7155.60
453.34	7143.32
453.55	7403.41
453.76	7237.52
453.97	7630.73
454.18	7403.41
454.39	7464.85
454.60	7346.06
454.81	7511.95
455.01	7622.54
455.22	7393.17
455.43	7534.48
455.64	7790.47
455.85	7720.84
456.06	8056.71
456.27	7769.99
456.48	7769.99
456.68	7952.26
456.89	7769.99
457.10	8005.51
457.31	7903.11
457.52	7903.11
457.73	8142.72
457.94	8296.32
458.14	8036.23
458.35	8380.29
458.56	8099.72
458.77	8198.02
458.98	8243.07
459.19	8286.08
459.39	8488.83
459.60	8349.57
459.81	8460.16
460.02	8505.21
460.23	8511.36
460.44	8744.83
460.65	8564.61
460.85	8910.71
461.06	8785.79
461.27	8720.25
461.48	8908.66
461.69	9144.18
461.89	8699.77
462.10	8986.49
462.31	8638.33
462.52	9027.45
462.73	9015.16
462.94	9226.10
463.14	9174.90
463.35	9168.76
463.56	9492.34
463.77	9385.84
463.98	9293.68
464.18	9396.08
464.39	9582.45
464.60	9674.60
464.81	9668.46
465.02	9656.17
465.23	9895.78
465.43	9672.56
465.64	10041.19
465.85	10071.91
466.06	9836.39
466.27	10258.28
466.47	9944.94
466.68	10094.44
466.89	10145.64
467.10	10547.04
467.30	10055.53
467.51	10372.96
467.72	10637.15
467.93	10274.66
468.14	10514.27
468.34	10526.56
468.55	10702.68
468.76	10821.47
468.97	10590.05
469.17	10800.99
469.38	11091.80
469.59	11028.31
469.80	10958.68
470.01	11171.67
470.21	11214.68
470.42	11513.68
470.63	11239.25
470.84	11192.15
471.04	11542.35
471.25	11593.55
471.46	11577.17
471.67	11863.88
471.87	11855.69
472.08	11855.69
472.29	12101.45
472.50	11771.72
472.70	11904.84
472.91	12064.58
473.12	12109.64
473.33	12158.79
473.53	12300.10
473.74	12298.05
473.95	12531.52
474.16	12685.12
474.36	12703.55
474.57	12930.87
474.78	13043.51
474.99	12865.34
475.19	12992.31
475.40	13223.73
475.61	13338.42
475.81	13641.52
476.02	13492.02
476.23	13387.57
476.44	13741.87
476.64	13651.76
476.85	13936.43
477.06	13844.27
477.27	14044.97
477.47	14128.94
477.68	14016.30
477.89	14366.50
478.09	14057.26
478.30	14442.28
478.51	14503.71
478.71	14544.67
478.92	14520.10
479.13	14993.18
479.34	14892.83
479.54	14739.23
479.75	15042.33
479.96	15099.67
480.16	15331.09
480.37	15157.02
480.58	15111.96
480.78	15552.27
480.99	15490.84
481.20	15716.11
481.41	15748.88
481.61	15929.10
481.82	16119.56
482.03	15922.96
482.23	15990.54
482.44	16256.78
482.65	16293.64
482.85	16396.04
483.06	16299.78
483.27	16680.71
483.47	16477.96
483.68	16901.89
483.89	16893.69
484.09	16826.11
484.30	17043.20
484.51	17170.17
484.71	17440.50
484.92	17131.26
485.13	17057.53
485.33	17344.25
485.54	17387.25
485.75	17491.70
485.95	17929.97
486.16	17841.90
486.37	17870.58
486.57	17743.60
486.78	17962.73
486.98	18040.56
487.19	18179.82
487.40	18347.75
487.60	18099.95
487.81	18532.07
488.02	18347.75
488.22	18517.73
488.43	18915.04
488.64	18869.98
488.84	18855.65
489.05	19003.10
489.25	18884.32
489.46	19357.40
489.67	18972.38
489.87	19367.64
490.08	19349.21
490.29	19193.56
490.49	19412.70
490.70	19711.70
490.90	19697.36
491.11	19691.22
491.32	19914.45
491.52	19943.12
491.73	20039.37
491.94	20205.26
492.14	19906.26
492.35	20399.82
492.55	20530.89
492.76	20440.78
492.97	20631.24
493.17	20418.25
493.38	20844.23
493.58	20967.10
493.79	20780.74
494.00	20811.46
494.20	20752.07
494.41	20913.86
494.61	21108.41
494.82	21309.11
495.02	21012.16
495.23	21262.01
495.44	21442.23
495.64	21597.88
495.85	21384.89
496.05	21587.64
496.26	21771.96
496.47	21735.09
496.67	21786.29
496.88	21952.18
497.08	21753.52
497.29	22253.23
497.49	22175.41
497.70	22279.85
497.91	22322.86
498.11	22249.13
498.32	22294.19
498.52	22679.21
498.73	22892.19
498.93	22494.89
499.14	22781.60
499.34	22589.10
499.55	23000.74
499.76	22967.97
499.96	23183.01
500.17	23021.22
500.37	23164.57
500.58	23105.18
500.78	23219.87
500.99	23576.22
501.19	23619.22
501.40	23357.08
501.60	23619.22
501.81	23516.83
502.02	23613.08
502.22	23312.03
502.43	23721.62
502.63	23862.93
502.84	23959.19
503.04	23965.33
503.25	24127.12
503.45	24032.91
503.66	24430.22
503.86	23905.94
504.07	24475.27
504.27	24123.02
504.48	24399.50
504.68	24594.06
504.89	24678.02
505.09	24813.19
505.30	24655.50
505.50	24784.52
505.71	24893.06
505.91	24952.45
506.12	24862.34
506.32	24897.16
506.53	25126.53
506.73	25214.59
506.94	25063.04
507.14	25251.45
507.35	25286.27
507.55	25351.81
507.76	25353.85
507.96	25386.62
508.17	25611.90
508.37	25568.89
508.58	25734.78
508.78	25679.48
508.99	25751.16
509.19	25808.50
509.40	25980.53
509.60	25841.27
509.81	26013.30
510.01	26275.44
510.22	26125.94
510.42	26007.16
510.63	26195.57
510.83	26054.26
511.04	26191.47
511.24	26627.69
511.44	26365.55
511.65	26738.28
511.85	26351.21
512.06	26621.55
512.26	26990.18
512.47	26857.06
512.67	26605.16
512.88	26644.07
513.08	26230.38
513.29	26769.00
513.49	27061.86
513.69	27053.67
513.90	27207.26
514.10	26783.34
514.31	27151.97
514.51	27297.38
514.72	27237.98
514.92	27297.38
515.13	27291.23
515.33	27342.43
515.53	27268.70
515.74	27682.39
515.94	27633.24
516.15	27948.63
516.35	27434.59
516.56	27831.90
516.76	27575.90
516.96	27749.98
517.17	28173.91
517.37	28366.42
517.58	28118.61
517.78	28452.43
517.99	28227.15
518.19	28689.99
518.39	28429.90
518.60	28798.54
518.80	28456.53
519.01	28776.01
519.21	28687.95
519.41	29378.11
519.62	28616.27
519.82	29111.88
520.03	29281.86
520.23	29509.18
520.43	29015.62
520.64	29367.87
520.84	29632.06
521.05	29638.20
521.25	29670.97
521.45	29658.68
521.66	29974.07
521.86	29787.71
522.07	30111.28
522.27	29947.45
522.47	30027.32
522.68	30582.32
522.88	30275.12
523.08	30727.72
523.29	30453.30
523.49	30260.79
523.70	30631.47
523.90	30604.84
524.10	30752.30
524.31	30828.07
524.51	30645.80
524.71	31268.39
524.92	31311.39
525.12	31149.60
525.33	31032.87
525.53	31301.15
525.73	31772.19
525.94	31610.40
526.14	31374.88
526.34	32024.09
526.55	31938.07
526.75	32171.54
526.95	32124.44
527.16	31817.24
527.36	32052.76
527.56	31995.42
527.77	32636.43
527.97	32667.15
528.17	32628.24
528.38	32824.84
528.58	33013.26
528.78	32876.04
528.99	32847.37
529.19	32949.77
529.39	33189.38
529.60	33054.22
529.80	33385.99
530.00	33156.61
530.21	33541.63
530.41	33887.74
530.61	33564.16
530.82	33996.28
531.02	33732.09
531.22	33949.18
531.43	34070.01
531.63	33916.41
531.83	34538.99
532.04	34788.85
532.24	34493.94
532.44	34831.85
532.64	34895.34
532.85	34932.20
533.05	35091.94
533.25	34825.71
533.46	34881.00
533.66	35608.03
533.86	35337.70
534.07	35833.31
534.27	35763.68
534.47	35829.21
534.67	35468.77
534.88	35698.14
535.08	35929.56
535.28	35917.28
535.49	36253.14
535.69	36505.04
535.89	36552.15
536.09	36695.50
536.30	36552.15
536.50	36623.83
536.70	36988.36
536.91	36689.36
537.11	36922.83
537.31	37035.47
537.51	36881.87
537.72	37375.43
537.92	37529.03
538.12	38079.93
538.32	37453.25
538.53	37320.13
538.73	37221.83
538.93	37744.06
539.13	37899.71
539.34	37797.31
539.54	37772.74
539.74	38653.36
539.94	38342.07
540.15	37975.48
540.35	38407.61
540.55	38233.53
540.75	38495.67
540.96	38790.58
541.16	38555.06
541.36	38643.12
541.56	38501.81
541.77	38870.45
541.97	38690.23
542.17	39093.68
542.37	39337.38
542.58	38843.82
542.78	39368.10
542.98	38835.63
543.18	39103.92
543.38	39837.09
543.59	39843.23
543.79	39321.00
543.99	39151.02
544.19	39587.24
544.40	39857.57
544.60	40175.00
544.80	39607.72
545.00	40117.66
545.20	40236.44
545.41	39990.69
545.61	39646.63
545.81	40396.18
546.01	40400.28
546.21	40125.85
546.42	40025.50
546.62	40377.75
546.82	40420.76
547.02	40629.65
547.22	40600.98
547.43	40476.05
547.63	40621.46
547.83	41041.29
548.03	40791.44
548.23	40971.66
548.44	40818.07
548.64	41182.60
548.84	40754.58
549.04	40953.23
549.24	41211.28
549.45	41465.22
549.65	41192.84
549.85	41037.20
550.05	41639.30
550.25	41250.19
550.45	41872.77
550.66	41209.23
550.86	41508.23
551.06	41678.21
551.26	41794.95
551.46	41680.26
551.66	41799.04
551.87	41710.98
552.07	42044.80
552.27	41481.61
552.47	42143.10
552.67	42102.14
552.87	41713.03
553.07	42292.60
553.28	41858.43
553.48	42313.08
553.68	41993.60
553.88	42343.80
554.08	42382.71
554.28	42136.96
554.48	41772.42
554.69	42509.69
554.89	42214.78
555.09	42491.26
555.29	42300.79
555.49	42724.72
555.69	42622.33
555.89	42814.83
556.10	42898.80
556.30	42071.42
556.50	42886.51
556.70	42483.06
556.90	42765.68
557.10	42900.85
557.30	42464.63
557.50	42534.26
557.70	42677.62
557.91	43091.31
558.11	43087.21
558.31	42915.19
558.51	43206.00
558.71	43167.09
558.91	43140.46
559.11	42669.43
559.31	43152.75
559.51	43048.30
559.72	43109.74
559.92	43070.83
560.12	43048.30
560.32	43226.48
560.52	42958.19
560.72	43459.94
560.92	43050.35
561.12	43165.04
561.32	44053.86
561.52	42804.59
561.72	43658.60
561.93	43154.80
562.13	43679.08
562.33	43392.36
562.53	43586.92
562.73	43619.69
562.93	43410.79
563.13	43896.16
563.33	43416.94
563.53	43703.65
563.73	43470.18
563.93	43625.83
564.13	43955.55
564.33	43631.97
564.53	43963.75
564.74	43980.13
564.94	43560.30
565.14	43498.86
565.34	43826.53
565.54	43801.96
565.74	43988.32
565.94	44107.10
566.14	43914.59
566.34	43847.01
566.54	44588.38
566.74	43646.31
566.94	44096.86
567.14	44127.58
567.34	43992.42
567.54	43961.70
567.74	44053.86
567.94	43869.54
568.14	44295.52
568.34	44367.20
568.54	44051.81
568.74	44125.53
568.94	43806.05
569.14	44258.65
569.34	44281.18
569.54	44313.95
569.75	43728.23
569.95	44340.57
570.15	44580.18
570.35	44621.14
570.55	44379.48
570.75	44383.58
570.95	44244.32
571.15	44561.75
571.35	44811.60
571.55	44760.40
571.75	44590.42
571.95	44813.65
572.15	44305.76
572.35	44840.28
572.55	44305.76
572.75	44682.58
572.95	44715.35
573.15	44891.48
573.35	44555.61
573.55	44995.92
573.75	44760.40
573.95	44928.34
574.15	44686.68
574.35	45180.24
574.55	44954.96
574.75	44809.56
574.95	44879.19
575.15	44924.24
575.34	44860.76
575.54	45348.17
575.74	45544.78
575.94	45335.88
576.14	45389.13
576.34	45618.50
576.54	45716.81
576.74	45239.63
576.94	45628.74
577.14	45413.71
577.34	46089.54
577.54	45577.54
577.74	45688.13
577.94	45913.41
578.14	45886.79
578.34	46019.91
578.54	45520.20
578.74	45747.53
578.94	45952.32
579.14	46429.50
579.34	45593.93
579.54	46292.29
579.74	46159.17
579.94	46390.59
580.13	46159.17
580.33	46335.29
580.53	46265.66
580.73	46675.26
580.93	46419.26
581.13	46339.39
581.33	46245.18
581.53	46886.20
581.73	46773.56
581.93	46609.72
582.13	46581.05
582.33	46890.29
582.53	46978.36
582.73	46644.54
582.92	46767.41
583.12	47324.46
583.32	47054.13
583.52	46970.16
583.72	47260.97
583.92	47535.40
584.12	47471.92
584.32	47977.76
584.52	47686.95
584.72	47201.58
584.92	47932.71
585.11	47977.76
585.31	47957.28
585.51	47668.52
585.71	47527.21
585.91	48024.87
586.11	47807.78
586.31	47725.86
586.51	47660.33
586.71	48012.58
586.91	48581.91
587.10	48344.35
587.30	48102.69
587.50	48151.84
587.70	48696.60
587.90	48235.81
588.10	48565.53
588.30	48416.03
588.50	48764.18
588.69	48405.79
588.89	48346.40
589.09	48719.13
589.29	48860.44
589.49	49362.19
589.69	48993.56
589.89	48954.64
590.08	48747.80
590.28	49091.86
590.48	49020.18
590.68	49083.67
590.88	48989.46
591.08	49202.45
591.28	49280.27
591.47	49786.12
591.67	49444.11
591.87	49513.74
592.07	49554.70
592.27	49351.95
592.47	49302.80
592.67	49331.47
592.86	49624.33
593.06	50040.07
593.26	50019.59
593.46	49915.14
593.66	49808.65
593.86	49745.16
594.05	50236.67
594.25	50418.94
594.45	49974.53
594.65	50386.18
594.85	49853.70
595.05	50676.99
595.24	50248.96
595.44	50240.77
595.64	50140.42
595.84	50294.02
596.04	50273.54
596.23	50507.01
596.43	50543.87
596.63	50894.07
596.83	50457.85
597.03	51072.24
597.22	51205.36
597.42	51014.90
597.62	50926.84
597.82	50930.93
598.02	51107.06
598.21	51350.77
598.41	50738.43
598.61	51297.52
598.81	51295.47
599.01	51746.03
599.20	51252.47
599.40	51807.47
599.60	51676.40
599.80	52051.17
600.00	51961.06
600.19	52491.49
600.39	51539.18
600.59	52143.33
600.79	52499.68
600.98	51918.06
601.18	52145.38
601.38	52544.73
601.58	52557.02
601.78	52489.44
601.97	52485.34
602.17	52712.67
602.37	52647.13
602.57	52847.83
602.76	53187.80
602.96	52567.26
603.16	53060.82
603.36	53179.60
603.55	53228.76
603.75	53191.89
603.95	53316.82
604.15	53451.98
604.34	53308.63
604.54	53384.40
604.74	53724.36
604.94	53447.89
605.13	53576.91
605.33	53798.09
605.53	53296.34
605.73	54066.38
605.92	53306.58
606.12	54193.35
606.32	53886.15
606.52	54031.56
606.71	54027.46
606.91	54152.39
607.11	53538.00
607.30	54289.60
607.50	54320.32
607.70	54539.46
607.90	54078.66
608.09	54471.87
608.29	54678.72
608.49	54490.30
608.68	54469.82
608.88	54482.11
609.08	54635.71
609.28	54815.93
609.47	54604.99
609.67	55176.37
609.87	54744.25
610.06	55149.75
610.26	55022.78
610.46	55016.63
610.66	54721.72
610.85	55080.12
611.05	54969.53
611.25	55456.95
611.44	55231.67
611.64	55401.65
611.84	55045.30
612.03	54975.67
612.23	55375.03
612.43	55102.65
612.62	55000.25
612.82	55823.53
613.02	55911.59
613.21	55846.06
613.41	55188.66
613.61	55680.17
613.80	55116.98
614.00	55276.72
614.20	55149.75
614.39	55721.13
614.59	55729.33
614.79	55968.94
614.98	55491.76
615.18	55770.28
615.38	55870.64
615.57	55508.14
615.77	55674.03
615.97	55538.86
616.16	55735.47
616.36	55817.39
616.56	56054.95
616.75	56229.03
616.95	55776.43
617.15	55825.58
617.34	56057.00
617.54	56005.80
617.74	56394.92
617.93	56251.56
618.13	55637.17
618.32	56245.41
618.52	55682.22
618.72	55823.53
618.91	56202.41
619.11	56046.76
619.31	56384.68
619.50	56280.23
619.70	55612.59
619.90	55700.65
620.09	56167.59
620.29	56112.30
620.48	56243.37
620.68	56325.28
620.88	55714.99
621.07	55927.98
621.27	56087.72
621.46	55676.08
621.66	56069.29
621.86	56370.34
622.05	55798.96
622.25	56360.10
622.44	56145.06
622.64	56050.86
622.84	56313.00
623.03	56177.83
623.23	56360.10
623.42	55764.14
623.62	56450.21
623.82	56302.76
624.01	55993.51
624.21	56288.42
624.40	56255.65
624.60	56347.81
624.80	56097.96
624.99	55981.23
625.19	55588.02
625.38	56308.90
625.58	56013.99
625.77	56220.84
625.97	56128.68
626.17	55874.73
626.36	56181.93
626.56	56431.78
626.75	55549.10
626.95	56433.83
627.14	56243.37
627.34	56380.58
627.54	56102.06
627.73	55919.79
627.93	56317.09
628.12	55784.62
628.32	56229.03
628.51	56220.84
628.71	56261.80
628.90	56247.46
629.10	56114.34
629.30	56384.68
629.49	56382.63
629.69	56341.67
629.88	56661.15
630.08	56224.93
630.27	56401.06
630.47	56499.36
630.66	56100.01
630.86	56321.19
631.05	56032.42
631.25	56685.73
631.44	56530.08
631.64	56202.41
631.84	56771.74
632.03	56784.03
632.23	56493.22
632.42	56644.77
632.62	56677.54
632.81	56325.28
633.01	56433.83
633.20	56710.30
633.40	56396.96
633.59	56417.44
633.79	56175.78
633.98	56620.19
634.18	56554.66
634.37	56439.97
634.57	56704.16
634.76	56712.35
634.96	56327.33
635.15	56300.71
635.35	56435.87
635.54	56634.53
635.74	56169.64
635.93	55923.88
636.13	56581.28
636.32	56583.33
636.52	56190.12
636.71	56595.62
636.91	56476.83
637.10	56886.43
637.30	56548.51
637.49	56329.38
637.69	56415.40
637.88	56890.52
638.08	56607.90
638.27	56308.90
638.46	56712.35
638.66	56243.37
638.85	56980.63
639.05	56478.88
639.24	56693.92
639.44	56882.33
639.63	56521.89
639.83	56730.78
640.02	56171.69
640.22	56757.41
640.41	56720.54
640.61	56403.11
640.80	56738.97
640.99	56280.23
641.19	56986.78
641.38	56468.64
641.58	56595.62
641.77	56140.97
641.97	56501.41
642.16	56478.88
642.36	56773.79
642.55	56736.93
642.74	56288.42
642.94	56810.65
643.13	56439.97
643.33	56831.13
643.52	57459.86
643.72	56951.96
643.91	56761.50
644.10	56685.73
644.30	56712.35
644.49	56521.89
644.69	56521.89
644.88	56655.01
645.08	56509.60
645.27	56399.01
645.46	56591.52
645.66	56980.63
645.85	56585.38
646.05	56659.10
646.24	56939.68
646.43	57142.42
646.63	57132.18
646.82	57070.75
647.02	56837.28
647.21	56827.04
647.40	56874.14
647.60	56712.35
647.79	56906.91
647.99	56966.30
648.18	56773.79
648.37	56923.29
648.57	56681.63
648.76	56720.54
648.96	56298.66
649.15	57253.01
649.34	56868.00
649.54	56661.15
649.73	56677.54
649.92	57138.33
650.12	56790.17
650.31	57128.09
650.51	57033.88
650.70	56583.33
650.89	56677.54
651.09	57447.57
651.28	57210.01
651.47	57269.40
651.67	56677.54
651.86	57232.53
652.06	56376.48
652.25	56689.82
652.44	57185.43
652.64	56603.81
652.83	56689.82
653.02	56771.74
653.22	57021.59
653.41	56564.90
653.60	56509.60
653.80	56612.00
653.99	56962.20
654.18	56878.24
654.38	56726.69
654.57	56820.89
654.76	56718.49
654.96	56583.33
655.15	56464.55
655.34	56407.20
655.54	56538.27
655.73	56253.61
655.92	56751.26
656.12	56628.38
656.31	56550.56
656.50	56767.65
656.70	56781.98
656.89	56734.88
657.08	56685.73
657.28	56294.56
657.47	56947.87
657.66	57154.71
657.86	56331.43
658.05	56550.56
658.24	56450.21
658.43	56747.17
658.63	56765.60
658.82	57029.79
659.01	56579.23
659.21	56646.82
659.40	56777.89
659.59	56042.66
659.79	56798.37
659.98	56718.49
660.17	56528.03
660.36	56439.97
660.56	56919.20
660.75	56638.62
660.94	56974.49
661.14	56497.31
661.33	56448.16
661.52	56032.42
661.71	56698.01
661.91	56474.79
662.10	56487.07
662.29	56540.32
662.49	56208.55
662.68	56964.25
662.87	56775.84
663.06	56218.79
663.26	56222.89
663.45	56595.62
663.64	56356.00
663.83	56595.62
664.03	56513.70
664.22	56661.15
664.41	56806.56
664.60	56374.44
664.80	56263.85
664.99	56704.16
665.18	56198.31
665.37	56554.66
665.57	56693.92
665.76	56212.65
665.95	56259.75
666.14	56196.26
666.34	56392.87
666.53	55991.47
666.72	56085.67
666.91	56579.23
667.11	56319.14
667.30	56528.03
667.49	56018.09
667.68	56222.89
667.87	56095.91
668.07	56081.58
668.26	55844.01
668.45	56591.52
668.64	55338.16
668.84	56390.82
669.03	56673.44
669.22	56229.03
669.41	56435.87
669.60	56091.82
669.80	56169.64
669.99	56435.87
670.18	55964.84
670.37	56347.81
670.57	56530.08
670.76	55991.47
670.95	56300.71
671.14	56249.51
671.33	55868.59
671.53	56476.83
671.72	55880.88
671.91	56177.83
672.10	55571.63
672.29	55979.18
672.48	55858.35
672.68	56351.91
672.87	56122.54
673.06	56132.78
673.25	55936.17
673.44	55612.59
673.64	55387.31
673.83	55301.30
674.02	55741.61
674.21	55520.43
674.40	56149.16
674.59	55106.74
674.79	55387.31
674.98	55409.84
675.17	55499.95
675.36	55571.63
675.55	55784.62
675.74	55973.03
675.94	55176.37
676.13	55532.72
676.32	55989.42
676.51	55768.24
676.70	55897.26
676.89	55753.90
677.08	55923.88
677.28	55344.31
677.47	55590.06
677.66	56267.94
677.85	55717.04
678.04	55456.95
678.23	55801.00
678.42	55807.15
678.62	55481.52
678.81	55739.57
679.00	55424.18
679.19	56169.64
679.38	55639.22
679.57	55600.30
679.76	55438.51
679.96	55829.68
680.15	55389.36
680.34	55166.13
680.53	55174.33
680.72	55379.12
680.91	56013.99
681.10	55096.50
681.29	55641.26
681.48	55268.53
681.68	55547.06
681.87	55344.31
682.06	55092.41
682.25	55215.29
682.44	55375.03
682.63	55317.68
682.82	55194.81
683.01	55352.50
683.20	54875.32
683.39	55145.65
683.59	54561.98
683.78	54668.48
683.97	54809.79
684.16	55139.51
684.35	54566.08
684.54	54623.42
684.73	54602.94
684.92	54750.40
685.11	54731.96
685.30	54725.82
685.49	54973.63
685.69	55116.98
685.88	55051.45
686.07	54752.44
686.26	54662.33
686.45	54756.54
686.64	54869.18
686.83	54695.10
687.02	54777.02
687.21	54998.20
687.40	54762.68
687.59	55153.85
687.78	54482.11
687.97	54875.32
688.16	54637.76
688.35	54580.42
688.54	54213.83
688.74	54713.53
688.93	54998.20
689.12	54869.18
689.31	54369.47
689.50	54447.30
689.69	54209.73
689.88	54146.25
690.07	54207.68
690.26	54441.15
690.45	54756.54
690.64	54351.04
690.83	54457.54
691.02	53771.47
691.21	54617.28
691.40	54297.80
691.59	54506.69
691.78	54680.77
691.97	54715.58
692.16	54641.85
692.35	54394.05
692.54	54803.64
692.73	54017.22
692.92	54238.40
693.11	54283.46
693.30	53851.34
693.49	54566.08
693.68	54047.94
693.87	53896.39
694.06	54146.25
694.25	53877.96
694.44	54070.47
694.63	54109.38
694.82	54105.29
695.01	54150.34
695.20	53728.46
695.39	54082.76
695.58	54043.85
695.77	53738.70
695.96	53581.01
696.15	54056.14
696.34	53667.02
696.53	53853.39
696.72	54422.72
696.91	53998.79
697.10	53712.08
697.29	53531.86
697.48	54211.78
697.67	53753.04
697.86	53314.77
698.05	53236.95
698.24	53847.24
698.43	53269.72
698.62	53742.80
698.81	53624.01
699.00	53712.08
699.19	53155.03
699.38	53314.77
699.57	53462.22
699.76	54197.44
699.95	53179.60
700.14	53306.58
700.32	53892.30
700.51	53560.53
700.70	53703.88
700.89	54070.47
701.08	53632.21
701.27	53245.14
701.46	53445.84
701.65	53163.22
701.84	53581.01
702.03	53066.97
702.22	53548.24
702.41	53392.59
702.60	53124.31
702.79	53322.96
702.98	53204.18
703.17	53179.60
703.35	53236.95
703.54	52870.36
703.73	53468.37
703.92	53089.49
704.11	53245.14
704.30	52575.45
704.49	53087.45
704.68	52868.31
704.87	52819.16
705.06	53095.64
705.25	52606.17
705.43	53011.67
705.62	52946.14
705.81	53351.63
706.00	53101.78
706.19	52753.63
706.38	52659.42
706.57	53011.67
706.76	52550.88
706.95	52493.54
707.14	52659.42
707.32	52659.42
707.51	52294.88
707.70	52663.52
707.89	52673.76
708.08	52821.21
708.27	52602.08
708.46	52896.98
708.65	52800.73
708.84	52778.20
709.02	52892.89
709.21	52655.32
709.40	52520.16
709.59	52741.34
709.78	52393.18
709.97	52925.66
710.16	52415.71
710.34	52196.58
710.53	52413.66
710.72	52221.16
710.91	52434.14
711.10	52571.36
711.29	52878.55
711.48	52421.86
711.66	52575.45
711.85	52358.37
712.04	52301.03
712.23	52454.62
712.42	52145.38
712.61	52483.30
712.80	51971.30
712.98	52399.33
713.17	51911.91
713.36	52544.73
713.55	52094.18
713.74	52126.95
713.93	51940.58
714.11	52061.41
714.30	51950.82
714.49	52118.76
714.68	51983.59
714.87	52384.99
715.06	52122.85
715.24	51649.77
715.43	52059.37
715.62	51590.38
715.81	51797.23
716.00	52063.46
716.18	52108.52
716.37	51285.23
716.56	51518.70
716.75	51694.83
716.94	51709.16
717.12	51807.47
717.31	51995.88
717.50	51776.75
717.69	51838.18
717.88	51168.50
718.06	51510.51
718.25	51795.18
718.44	51471.60
718.63	51025.14
718.82	51377.39
719.00	51547.37
719.19	51326.19
719.38	50996.47
719.57	51209.46
719.76	50695.42
719.94	51070.20
720.13	51311.86
720.32	51143.92
720.51	51041.53
720.69	50564.35
720.88	51012.85
721.07	50861.30
721.26	50961.65
721.44	50775.29
721.63	50504.96
721.82	51090.68
722.01	50633.98
722.20	50359.55
722.38	50656.51
722.57	49837.32
722.76	50164.99
722.95	50713.85
723.13	50054.40
723.32	50398.46
723.51	49763.59
723.70	50281.73
723.88	50117.89
724.07	49898.76
724.26	50197.76
724.44	49272.08
724.63	50070.79
724.82	50021.64
725.01	50093.32
725.19	50392.32
725.38	49278.22
725.57	49505.55
725.76	50031.88
725.94	49857.80
726.13	49648.91
726.32	49564.94
726.51	49964.29
726.69	49761.54
726.88	49839.37
727.07	49921.29
727.25	49308.94
727.44	49886.47
727.63	50158.85
727.82	49460.49
728.00	49460.49
728.19	49257.74
728.38	49732.87
728.56	49218.83
728.75	49483.02
728.94	49323.28
729.12	49790.22
729.31	49814.79
729.50	49227.02
729.69	49616.14
729.87	49566.99
730.06	49538.32
730.25	49978.63
730.43	49460.49
730.62	49300.75
730.81	49988.87
730.99	49775.88
731.18	49296.66
731.37	49931.53
731.55	49829.13
731.74	49691.91
731.93	49515.79
732.11	49327.38
732.30	49599.76
732.49	49362.19
732.67	49413.39
732.86	49397.01
733.05	49730.83
733.23	48907.54
733.42	49759.50
733.61	49304.85
733.79	49841.42
733.98	49558.80
734.17	49460.49
734.35	49204.50
734.54	49685.77
734.73	49782.02
734.91	49691.91
735.10	49267.98
735.29	49853.70
735.47	48796.95
735.66	49128.72
735.84	49577.23
736.03	49517.84
736.22	49792.26
736.40	49468.69
736.59	49714.44
736.78	48882.97
736.96	49356.05
737.15	49204.50
737.33	49186.07
737.52	48901.40
737.71	48948.50
737.89	49116.43
738.08	48706.84
738.27	48657.69
738.45	49472.78
738.64	48954.64
738.82	49003.80
739.01	48966.93
739.20	49134.87
739.38	49274.13
739.57	49141.01
739.75	48973.08
739.94	48825.62
740.13	48858.39
740.31	48897.30
740.50	49114.39
740.68	48768.28
740.87	48794.90
741.06	49130.77
741.24	48319.77
741.43	48217.38
741.61	49077.52
741.80	48694.55
741.99	48624.92
742.17	48592.15
742.36	48854.29
742.54	48276.77
742.73	48262.43
742.91	49575.18
743.10	48833.81
743.29	48878.87
743.47	48710.94
743.66	48633.11
743.84	48987.41
744.03	48373.02
744.21	47842.60
744.40	48506.14
744.59	48227.62
744.77	48469.28
744.96	48434.46
745.14	48475.42
745.33	48336.16
745.51	48106.79
745.70	48434.46
745.88	48100.64
746.07	48166.18
746.26	47727.91
746.44	47942.95
746.63	48284.96
746.81	48211.23
747.00	47936.80
747.18	48096.55
747.37	48174.37
747.55	47732.01
747.74	48174.37
747.92	47824.17
748.11	48024.87
748.29	48209.18
748.48	47633.71
748.66	47717.67
748.85	47619.37
749.03	47609.13
749.22	47846.69
749.41	47396.14
749.59	47215.92
749.78	47514.92
749.96	47113.52
750.15	47064.37
750.33	47205.68
750.52	47291.69
750.70	46970.16
750.89	47295.79
751.07	46822.71
751.26	46998.83
751.44	47166.77
751.63	46894.39
751.81	46787.89
752.00	46804.28
752.18	47441.20
752.37	46851.38
752.55	46843.19
752.74	46654.78
752.92	46495.03
753.10	46675.26
753.29	46773.56
753.47	46515.51
753.66	46200.13
753.84	46730.55
754.03	46423.36
754.21	45995.33
754.40	46857.52
754.58	46615.86
754.77	46830.90
754.95	46280.00
755.14	46351.68
755.32	46425.40
755.51	45497.67
755.69	45993.28
755.88	46331.20
756.06	45987.14
756.24	45972.80
756.43	45811.01
756.61	45866.31
756.80	45960.51
756.98	45548.87
757.17	46150.98
757.35	45749.57
757.54	45972.80
757.72	45581.64
757.90	45704.52
758.09	45614.41
758.27	45464.91
758.46	45493.58
758.64	45786.44
758.83	45874.50
759.01	45581.64
759.19	45704.52
759.38	45319.50
759.56	45727.05
759.75	45479.24
759.93	45593.93
760.12	45086.03
760.30	45466.95
760.48	45389.13
760.67	44801.36
760.85	45264.21
761.04	45364.56
761.22	45290.83
761.40	44954.96
761.59	45073.74
761.77	44516.70
761.96	44752.21
762.14	44782.93
762.32	44719.45
762.51	44586.33
762.69	44434.78
762.88	44754.26
763.06	44852.56
763.24	44375.39
763.43	44502.36
763.61	44690.77
763.80	44418.39
763.98	44301.66
764.16	44694.87
764.35	44168.54
764.53	43984.22
764.72	44248.41
764.90	44178.78
765.08	44141.92
765.27	44303.71
765.45	43986.27
765.63	43572.58
765.82	44324.19
766.00	43638.12
766.18	43636.07
766.37	44215.65
766.55	43812.20
766.74	43644.26
766.92	43355.50
767.10	43566.44
767.29	43156.85
767.47	42956.14
767.65	43521.38
767.84	42847.60
768.02	43257.20
768.20	42792.31
768.39	43214.19
768.57	42884.47
768.75	42861.94
768.94	43091.31
769.12	43134.32
769.30	42968.43
769.49	42562.93
769.67	42616.18
769.85	42460.54
770.04	42818.93
770.22	42263.93
770.40	42456.44
770.59	42364.28
770.77	42481.02
770.95	42755.44
771.14	42503.54
771.32	42128.77
771.50	41794.95
771.69	41917.82
771.87	42165.63
772.05	42020.22
772.24	42239.36
772.42	41999.74
772.60	41868.67
772.78	41657.73
772.97	41557.38
773.15	41672.07
773.33	41643.40
773.52	41293.19
773.70	41639.30
773.88	41932.16
774.07	42050.94
774.25	41342.35
774.43	41874.82
774.61	41422.22
774.80	41461.13
774.98	41717.12
775.16	41774.47
775.34	41667.97
775.53	41637.25
775.71	41856.39
775.89	41514.37
776.08	41907.58
776.26	41893.25
776.44	42087.81
776.62	41477.51
776.81	41534.85
776.99	41946.50
777.17	41495.94
777.35	41921.92
777.54	41856.39
777.72	41604.49
777.90	41618.82
778.08	41569.67
778.27	41751.94
778.45	42235.26
778.63	42139.00
778.81	41516.42
779.00	42225.02
779.18	41823.62
779.36	42198.40
779.54	41825.67
779.73	41903.49
779.91	42179.96
780.09	41921.92
780.27	42349.95
780.46	41729.41
780.64	42136.96
780.82	41831.81
781.00	42087.81
781.19	42300.79
781.37	42538.36
781.55	41901.44
781.73	42509.69
781.91	42220.92
782.10	42038.65
782.28	42325.37
782.46	42214.78
782.64	42370.43
782.82	41985.41
783.01	42227.07
783.19	42382.71
783.37	42364.28
783.55	42458.49
783.74	42747.25
783.92	42231.16
784.10	42415.48
784.28	42284.41
784.46	42040.70
784.64	42141.05
784.83	42048.89
785.01	42061.18
785.19	42104.19
785.37	42145.15
785.55	42165.63
785.74	41829.76
785.92	41686.40
786.10	42222.97
786.28	41897.34
786.46	41889.15
786.64	41508.23
786.83	41966.98
787.01	42083.71
787.19	41874.82
787.37	41909.63
787.55	42077.57
787.74	41553.29
787.92	41473.42
788.10	41340.30
788.28	41559.43
788.46	41389.45
788.64	41354.63
788.82	41770.37
789.01	41457.03
789.19	41567.62
789.37	41145.74
789.55	41297.29
789.73	40893.84
789.91	40959.38
790.09	41035.15
790.28	40916.37
790.46	40474.01
790.64	41002.38
790.82	40654.23
791.00	40390.04
791.18	40355.22
791.36	40469.91
791.55	40576.40
791.73	40424.86
791.91	40084.89
792.09	40189.34
792.27	39888.29
792.45	40101.28
792.63	39783.84
792.81	39853.47
793.00	39738.79
793.18	39564.71
793.36	39497.13
793.54	39376.30
793.72	39163.31
793.90	39073.20
794.08	39433.64
794.26	39339.43
794.44	38622.64
794.62	38569.40
794.81	38716.85
794.99	38700.47
795.17	38702.51
795.35	38413.75
795.53	38852.02
795.71	38350.26
795.89	38720.95
796.07	38108.60
796.25	38057.40
796.43	38020.54
796.61	38036.92
796.80	38063.55
796.98	38180.28
797.16	37572.03
797.34	37612.99
797.52	37723.58
797.70	38020.54
797.88	37647.81
798.06	37184.97
798.24	37678.53
798.42	36957.64
798.60	37019.08
798.78	36969.93
798.96	37350.85
799.14	37072.33
799.32	36883.92
799.51	36574.67
799.69	36695.50
799.87	36709.84
800.05	36247.00
800.23	36498.90
800.41	36308.44
800.59	36746.70
800.77	36169.18
800.95	35724.77
801.13	36273.62
801.31	35884.51
801.49	35644.90
801.67	35370.47
801.85	35472.87
802.03	35096.04
802.21	35180.01
802.39	35349.99
802.57	35141.10
802.75	35192.30
802.93	35200.49
803.11	35010.03
803.29	34700.78
803.47	34838.00
803.65	34772.46
803.83	34668.02
804.01	35220.97
804.19	34285.04
804.37	34151.93
804.55	34469.36
804.73	34395.64
804.91	34356.72
805.09	34104.82
805.27	34055.67
805.45	34438.64
805.63	34194.93
805.81	33682.94
805.99	34084.34
806.17	33791.48
806.35	33728.00
806.53	33891.83
806.71	33699.33
806.89	33895.93
807.07	33672.70
807.25	33660.41
807.43	33144.33
807.61	33181.19
807.79	33580.54
807.97	32900.62
808.15	32865.80
808.33	32822.80
808.51	32787.98
808.69	33070.60
808.87	32808.46
809.05	32488.98
809.23	32577.04
809.41	32081.43
809.59	32359.95
809.77	32417.30
809.95	32046.62
810.13	31989.27
810.31	32370.19
810.49	32210.45
810.67	31872.54
810.84	31991.32
811.02	31979.03
811.20	31821.34
811.38	32001.56
811.56	31688.22
811.74	31714.84
811.92	31532.57
812.10	31614.49
812.28	31690.27
812.46	31536.67
812.64	31667.74
812.82	31266.34
813.00	31067.69
813.18	31290.91
813.36	31335.97
813.53	30809.64
813.71	30979.62
813.89	30979.62
814.07	31016.49
814.25	31063.59
814.43	30770.73
814.61	30907.94
814.79	30426.67
814.97	30522.93
815.15	30354.99
815.33	30295.60
815.50	30332.47
815.68	30363.18
815.86	30604.84
816.04	30230.07
816.22	29988.41
816.40	30311.99
816.58	30191.16
816.76	30242.35
816.94	30019.13
817.11	29890.10
817.29	30076.47
817.47	29797.95
817.65	29662.78
817.83	30019.13
818.01	29468.22
818.19	29738.55
818.37	29646.40
818.54	29259.33
818.72	29265.47
818.90	29402.69
819.08	29292.10
819.26	29363.78
819.44	29034.05
819.62	28913.22
819.80	29044.29
819.97	29204.03
820.15	28862.02
820.33	28763.72
820.51	29062.72
820.69	28659.27
820.87	28755.53
821.05	28872.26
821.22	28565.07
821.40	28532.30
821.58	28671.56
821.76	28499.53
821.94	28171.86
822.12	28667.47
822.29	28558.92
822.47	28530.25
822.65	28567.12
822.83	28536.40
823.01	28485.20
823.19	27938.39
823.36	28087.89
823.54	28210.77
823.72	28055.12
823.90	28200.53
824.08	27829.85
824.25	27743.83
824.43	27936.34
824.61	27582.04
824.79	28104.28
824.97	27623.00
825.15	28243.54
825.32	27936.34
825.50	27756.12
825.68	27661.91
825.86	27989.59
826.04	27686.49
826.21	27612.76
826.39	27385.44
826.57	27330.14
826.75	27137.63
826.93	27082.34
827.10	27242.08
827.28	27461.21
827.46	27414.11
827.64	27088.48
827.81	26926.69
827.99	27250.27
828.17	26871.40
828.35	26959.46
828.53	26943.08
828.70	26705.51
828.88	27104.87
829.06	26535.53
829.24	27029.09
829.41	26908.26
829.59	26750.57
829.77	26789.48
829.95	26699.37
830.12	26601.07
830.30	26547.82
830.48	26484.33
830.66	26500.72
830.84	26418.80
831.01	26369.65
831.19	26504.81
831.37	26302.06
831.55	26203.76
831.72	26338.93
831.90	26289.77
832.08	26279.54
832.25	26117.75
832.43	26197.62
832.61	26119.79
832.79	25890.42
832.96	26021.49
833.14	25919.09
833.32	26465.90
833.50	25915.00
833.67	25982.58
833.85	25810.55
834.03	25878.13
834.20	25937.52
834.38	25425.53
834.56	26048.11
834.74	25437.82
834.91	25585.27
835.09	25552.51
835.27	25570.94
835.44	25542.27
835.62	25314.94
835.80	25347.71
835.98	25249.41
836.15	25472.64
836.33	25282.17
836.51	25476.73
836.68	25239.17
836.86	25550.46
837.04	25173.63
837.21	25089.67
837.39	25233.02
837.57	25411.20
837.75	25343.61
837.92	24684.17
838.10	24985.22
838.28	24716.93
838.45	24987.27
838.63	24551.05
838.81	24743.56
838.98	24739.46
839.16	24716.93
839.34	24725.13
839.51	24577.67
839.69	24440.46
839.87	24585.86
840.04	24735.37
840.22	24815.24
840.40	24587.91
840.57	24358.54
840.75	24626.82
840.93	24170.13
841.10	24374.92
841.28	24649.35
841.46	24293.01
841.63	24585.86
841.81	24465.03
841.98	24245.90
842.16	24651.40
842.34	24178.32
842.51	24082.06
842.69	24114.83
842.87	24161.94
843.04	24379.02
843.22	23967.38
843.40	24211.09
843.57	23979.67
843.75	24114.83
843.92	23991.95
844.10	23815.83
844.28	23953.04
844.45	23998.10
844.63	24053.39
844.81	23778.97
844.98	23920.28
845.16	23985.81
845.33	23703.19
845.51	23930.51
845.69	23692.95
845.86	23787.16
846.04	23340.70
846.21	23871.12
846.39	23598.74
846.57	23508.63
846.74	23551.64
846.92	23191.20
847.09	23205.53
847.27	23326.36
847.45	23555.74
847.62	23428.76
847.80	23256.73
847.97	23623.32
848.15	23533.21
848.32	23279.26
848.50	23103.14
848.68	23262.88
848.85	23469.72
849.03	23062.18
849.20	23336.60
849.38	23207.58
849.56	23140.00
849.73	23086.75
849.91	23113.38
850.08	23183.01
850.26	22345.39
850.43	23062.18
850.61	23074.46
850.78	22394.54
850.96	22943.39
851.14	22503.08
851.31	22750.88
851.49	22636.20
851.66	22937.25
851.84	22494.89
852.01	22855.33
852.19	22912.67
852.36	22630.05
852.54	22576.81
852.71	22652.58
852.89	22726.31
853.07	22632.10
853.24	22611.62
853.42	22490.79
853.59	22480.55
853.77	22429.35
853.94	22580.90
854.12	22742.69
854.29	22064.82
854.47	22374.06
854.64	22396.59
854.82	21964.46
854.99	22359.72
855.17	22386.35
855.34	22175.41
855.52	22302.38
855.69	22324.91
855.87	21989.04
856.04	22009.52
856.22	21872.31
856.39	21698.23
856.57	22488.74
856.74	21962.42
856.92	22150.83
857.09	21767.86
857.27	21796.53
857.44	22111.92
857.62	21968.56
857.79	21847.73
857.97	21999.28
858.14	21825.20
858.32	21808.82
858.49	21956.27
858.67	21526.20
858.84	21786.29
859.02	21806.77
859.19	21536.44
859.37	21282.49
859.54	21542.58
859.72	21804.72
859.89	21337.79
860.06	21501.62
860.24	21427.90
860.41	21431.99
860.59	21632.69
860.76	21477.05
860.94	21122.75
861.11	21305.02
861.29	21253.82
861.46	21243.58
861.64	21124.80
861.81	21231.29
861.98	21081.79
862.16	21378.75
862.33	21010.11
862.51	21243.58
862.68	21003.97
862.86	20883.14
863.03	21085.89
863.21	21034.69
863.38	20895.43
863.55	20649.67
863.73	21089.98
863.90	20758.21
864.08	20815.55
864.25	20842.18
864.43	20604.61
864.60	20838.08
864.77	20496.07
864.95	20760.26
865.12	20461.26
865.30	20573.89
865.47	20602.57
865.64	20750.02
865.82	20690.63
865.99	20672.20
866.17	20610.76
866.34	20952.77
866.51	20264.65
866.69	20655.81
866.86	20422.34
867.04	20432.58
867.21	20420.30
867.38	20340.43
867.56	20285.13
867.73	19986.13
867.91	20137.68
868.08	20041.42
868.25	19959.50
868.43	19947.22
868.60	20041.42
868.78	19777.23
868.95	20135.63
869.12	20080.33
869.30	20274.89
869.47	20008.65
869.64	19730.13
869.82	19803.86
869.99	19764.95
870.16	19730.13
870.34	19988.18
870.51	19986.13
870.69	19658.45
870.86	19936.98
871.03	19599.06
871.21	19748.56
871.38	19834.58
871.55	19533.53
871.73	19705.56
871.90	19400.41
872.07	18970.33
872.25	19515.09
872.42	19277.53
872.59	19349.21
872.77	19287.77
872.94	19123.93
873.11	18978.53
873.29	19601.11
873.46	19277.53
873.63	19414.74
873.81	19250.91
873.98	18929.38
874.15	19062.49
874.33	19101.40
874.50	18917.09
874.67	18902.75
874.85	18857.70
875.02	19058.40
875.19	18726.63
875.37	18788.07
875.54	18482.92
875.71	18800.35
875.88	18568.93
876.06	18613.99
876.23	18855.65
876.40	18630.37
876.58	18513.64
876.75	18636.52
876.92	18552.55
877.10	18556.64
877.27	18468.58
877.44	18566.88
877.61	18173.67
877.79	18564.84
877.96	18128.62
878.13	18161.39
878.31	17989.36
878.48	18104.04
878.65	18071.28
878.82	17944.30
879.00	18106.09
879.17	17960.69
879.34	17962.73
879.51	17929.97
879.69	17950.45
879.86	17802.99
880.03	18001.65
880.21	17833.71
880.38	17999.60
880.55	17768.18
880.72	17936.11
880.90	17606.39
881.07	17893.10
881.24	17708.79
881.41	17841.90
881.59	17649.39
881.76	17762.03
881.93	17313.53
882.10	17405.69
882.28	17377.01
882.45	17573.62
882.62	17463.03
882.79	17628.92
882.96	17241.85
883.14	17460.98
883.31	17520.37
883.48	16940.80
883.65	17315.58
883.83	17495.80
884.00	17133.31
884.17	17182.46
884.34	17555.19
884.51	17278.71
884.69	17045.24
884.86	17067.77
885.03	17149.69
885.20	16957.18
885.38	17358.58
885.55	17196.79
885.72	17032.96
885.89	17090.30
886.06	17004.28
886.24	16926.46
886.41	17051.39
886.58	17188.60
886.75	17149.69
886.92	16918.27
887.10	17016.57
887.27	16664.32
887.44	16905.98
887.61	16973.56
887.78	16926.46
887.95	16881.41
888.13	16955.13
888.30	16809.73
888.47	16873.21
888.64	16574.21
888.81	16682.75
888.99	16609.03
889.16	16594.69
889.33	16611.07
889.50	16432.90
889.67	16592.64
889.84	16658.18
890.01	16580.36
890.19	16617.22
890.36	16445.19
890.53	16563.97
890.70	16338.69
890.87	16271.11
891.04	16072.46
891.22	16406.28
891.39	16262.92
891.56	16224.01
891.73	16348.93
891.90	16203.53
892.07	16072.46
892.24	16068.36
892.42	16099.08
892.59	16148.23
892.76	15879.95
892.93	15720.21
893.10	15953.68
893.27	16129.80
893.44	15834.89
893.61	15810.32
893.79	16248.58
893.96	15994.64
894.13	16090.89
894.30	15990.54
894.47	16070.41
894.64	16092.94
894.81	15961.87
894.98	16035.60
895.15	16080.65
895.33	15884.05
895.50	15666.96
895.67	16082.70
895.84	15965.96
896.01	15527.70
896.18	15818.51
896.35	15828.75
896.52	15789.84
896.69	15824.65
896.86	15699.73
897.04	15910.67
897.21	15843.09
897.38	15687.44
897.55	15611.67
897.72	15763.22
897.89	15750.93
898.06	15857.42
898.23	15691.54
898.40	15582.99
898.57	15767.31
898.74	15494.93
898.91	15859.47
899.08	15828.75
899.26	15965.96
899.43	15738.64
899.60	15720.21
899.77	15728.40
899.94	15476.50
900.11	15339.29
900.28	15658.77
900.45	15628.05
900.62	15671.06
900.79	15662.86
900.96	15531.80
901.13	15855.37
901.30	15611.67
901.47	15271.70
901.64	15560.47
901.81	15582.99
901.98	15400.72
902.15	15853.33
902.32	15683.34
902.49	15755.02
902.66	15755.02
902.83	15666.96
903.01	15783.70
903.18	15609.62
903.35	15795.98
903.52	15752.98
903.69	15843.09
903.86	15669.01
904.03	15693.58
904.20	15589.14
904.37	15802.13
904.54	15605.52
904.71	15640.34
904.88	15718.16
905.05	15396.63
905.22	15675.15
905.39	15415.06
905.56	15697.68
905.73	15765.26
905.90	15775.50
906.07	15836.94
906.24	15763.22
906.41	15535.89
906.58	15417.11
906.75	15513.36
906.92	15386.39
907.09	15685.39
907.26	15607.57
907.43	15482.64
907.60	15609.62
907.77	15570.71
907.93	15681.30
908.10	15525.65
908.27	15548.18
908.44	15662.86
908.61	15320.85
908.78	15390.49
908.95	15599.38
909.12	15468.31
909.29	15572.75
909.46	15441.68
909.63	15494.93
909.80	15380.25
909.97	15550.23
910.14	15437.59
910.31	15302.42
910.48	15677.20
910.65	15646.48
910.82	15261.46
910.99	15234.84
911.16	15456.02
911.33	15359.77
911.50	15374.10
911.66	15263.51
911.83	15365.91
912.00	15247.13
912.17	15101.72
912.34	15195.93
912.51	15218.46
912.68	15212.31
912.85	15130.39
913.02	15114.01
913.19	14999.32
913.36	14870.30
913.53	15138.58
913.70	14882.59
913.86	15036.19
914.03	14937.88
914.20	14794.53
914.37	14952.22
914.54	15064.86
914.71	14960.41
914.88	14774.05
915.05	15071.00
915.22	15079.19
915.39	14802.72
915.55	14784.29
915.72	14685.98
915.89	14559.01
916.06	14505.76
916.23	14436.13
916.40	14536.48
916.57	14450.47
916.74	14444.32
916.91	14436.13
917.07	14155.56
917.24	13989.67
917.41	14296.87
917.58	14143.27
917.75	14200.62
917.92	13807.41
918.09	14200.62
918.26	14300.97
918.42	13827.88
918.59	14022.44
918.76	14077.74
918.93	14026.54
919.10	14085.93
919.27	13879.08
919.44	14004.01
919.60	14108.46
919.77	13819.69
919.94	13545.27
920.11	13766.45
920.28	13662.00
920.45	13571.89
920.61	13639.47
920.78	13522.74
920.95	13451.06
921.12	13430.58
921.29	13492.02
921.46	13379.38
921.62	13176.63
921.79	13301.56
921.96	13444.91
922.13	13039.42
922.30	13018.94
922.47	13340.47
922.63	13186.87
922.80	13107.00
922.97	13035.32
923.14	12640.06
923.31	12980.03
923.47	12586.82
923.64	13135.67
923.81	12740.41
923.98	12816.19
924.15	12687.17
924.32	12621.63
924.48	12787.52
924.65	12549.95
924.82	12474.18
924.99	12328.77
925.15	12080.97
925.32	12517.18
925.49	12347.20
925.66	12261.19
925.83	12197.70
925.99	12181.32
926.16	12257.09
926.33	12179.27
926.50	11939.66
926.67	12287.81
926.83	11958.09
927.00	11994.95
927.17	11704.14
927.34	11556.69
927.50	11675.47
927.67	11695.95
927.84	11616.08
928.01	11458.39
928.17	11583.31
928.34	11607.89
928.51	11239.25
928.68	11437.91
928.84	11280.21
929.01	11431.76
929.18	11173.72
929.35	11016.02
929.51	11231.06
929.68	10973.02
929.85	10934.11
930.02	11095.89
930.18	10823.51
930.35	10921.82
930.52	10948.44
930.69	10995.54
930.85	10942.30
931.02	10708.83
931.19	10704.73
931.36	10796.89
931.52	10766.17
931.69	10581.85
931.86	10553.18
932.02	10598.24
932.19	10497.89
932.36	10497.89
932.53	10407.78
932.69	10141.54
932.86	10352.48
933.03	10401.63
933.19	10059.62
933.36	10313.57
933.53	10059.62
933.70	9889.64
933.86	9877.35
934.03	9992.04
934.20	9860.97
934.36	9903.98
934.53	9541.49
934.70	9459.57
934.86	9594.73
935.03	9400.18
935.20	9267.06
935.36	9338.74
935.53	9166.71
935.70	9183.09
935.86	9256.82
936.03	9021.30
936.20	9015.16
936.36	8888.18
936.53	9002.87
936.70	8716.16
936.86	8910.71
937.03	8628.09
937.20	8562.56
937.36	8554.37
937.53	8241.03
937.70	8384.38
937.86	8191.88
938.03	8198.02
938.20	8275.84
938.36	8030.09
938.53	7944.07
938.70	7790.47
938.86	7788.43
939.03	7761.80
939.20	7538.57
939.36	7567.24
939.53	7509.90
939.70	7593.87
939.86	7159.70
940.03	7038.87
940.19	7110.55
940.36	7135.12
940.53	6870.94
940.69	6924.18
940.86	6842.26
941.03	6799.26
941.19	6645.66
941.36	6680.47
941.52	6604.70
941.69	6475.68
941.86	6471.58
942.02	6428.57
942.19	6250.40
942.35	6424.48
942.52	6320.03
942.69	6111.14
942.85	6041.51
943.02	6123.43
943.18	6098.85
943.35	6059.94
943.52	5941.16
943.68	5846.95
943.85	5930.92
944.01	5859.24
944.18	5726.12
944.35	5750.70
944.51	5705.64
944.68	5580.71
944.84	5695.40
945.01	5627.82
945.17	5670.83
945.34	5681.07
945.51	5619.63
945.67	5541.80
945.84	5593.00
946.00	5384.11
946.17	5654.44
946.33	5550.00
946.50	5513.13
946.67	5404.59
946.83	5476.27
947.00	5597.10
947.16	5504.94
947.33	5441.45
947.49	5382.06
947.66	5298.10
947.82	5418.93
947.99	5375.92
948.16	5373.87
948.32	5398.45
948.49	5615.53
948.65	5386.16
948.82	5357.49
948.98	5392.30
949.15	5263.28
949.31	5392.30
949.48	5515.18
949.64	5466.03
949.81	5316.53
949.97	5380.01
950.14	5470.12
950.30	5300.14
950.47	5468.08
950.63	5420.97
950.80	5513.13
950.96	5433.26
951.13	5504.94
951.30	5535.66
951.46	5480.36
951.63	5519.28
951.79	5451.69
951.96	5588.91
952.12	5326.77
952.29	5646.25
952.45	5382.06
952.62	5623.72
952.78	5562.28
952.94	5527.47
953.11	5588.91
953.27	5451.69
953.44	5525.42
953.60	5459.88
953.77	5556.14
953.93	5547.95
954.10	5459.88
954.26	5369.77
954.43	5519.28
954.59	5599.15
954.76	5662.63
954.92	5576.62
955.09	5521.32
955.25	5347.25
955.42	5572.52
955.58	5629.87
955.75	5588.91
955.91	5713.83
956.07	5607.34
956.24	5476.27
956.40	5683.11
956.57	5564.33
956.73	5459.88
956.90	5695.40
957.06	5576.62
957.23	5523.37
957.39	5670.83
957.56	5697.45
957.72	5541.80
957.88	5472.17
958.05	5623.72
958.21	5660.59
958.38	5658.54
958.54	5562.28
958.71	5736.36
958.87	5574.57
959.03	5533.61
959.20	5537.71
959.36	5576.62
959.53	5535.66
959.69	5509.04
959.85	5744.55
960.02	5621.67
960.18	5572.52
960.35	5543.85
960.51	5672.87
960.68	5607.34
960.84	5578.67
961.00	5541.80
961.17	5539.76
961.33	5652.39
961.50	5547.95
961.66	5754.79
961.82	5590.95
961.99	5765.03
962.15	5437.36
962.31	5506.99
962.48	5578.67
962.64	5693.35
962.81	5623.72
962.97	5627.82
963.13	5488.56
963.30	5509.04
963.46	5427.12
963.62	5566.38
963.79	5439.40
963.95	5697.45
964.12	5576.62
964.28	5523.37
964.44	5296.05
964.61	5513.13
964.77	5353.39
964.93	5760.94
965.10	5543.85
965.26	5363.63
965.42	5429.17
965.59	5359.53
965.75	5408.69
965.92	5474.22
966.08	5418.93
966.24	5527.47
966.41	5369.77
966.57	5316.53
966.73	5449.64
966.90	5283.76
967.06	5341.10
967.22	5488.56
967.39	5269.42
967.55	5232.56
967.71	5349.29
967.88	5341.10
968.04	5353.39
968.20	5324.72
968.37	5218.22
968.53	5259.18
968.69	5337.01
968.85	5257.14
969.02	5177.26
969.18	5437.36
969.34	5142.45
969.51	5375.92
969.67	5285.81
969.83	5189.55
970.00	5250.99
970.16	5283.76
970.32	5222.32
970.48	5158.83
970.65	5134.26
970.81	5009.33
970.97	5132.21
971.14	4974.52
971.30	5255.09
971.46	5064.63
971.63	5087.15
971.79	5033.91
971.95	5136.31
972.11	5068.72
972.28	5009.33
972.44	5017.52
972.60	5062.58
972.76	5056.43
972.93	4925.36
973.09	4974.52
973.25	4898.74
973.42	5050.29
973.58	5179.31
973.74	4853.69
973.90	4933.56
974.07	4925.36
974.23	5044.15
974.39	5052.34
974.55	4796.34
974.72	4962.23
974.88	4880.31
975.04	4779.96
975.20	4954.04
975.37	4966.32
975.53	4859.83
975.69	4827.06
975.85	4763.58
976.01	4765.62
976.18	4734.90
976.34	4806.58
976.50	4923.32
976.66	4878.26
976.83	4704.18
976.99	4603.83
977.15	4841.40
977.31	4679.61
977.47	4579.26
977.64	4792.25
977.80	4796.34
977.96	4616.12
978.12	4677.56
978.29	4616.12
978.45	4548.54
978.61	4667.32
978.77	4761.53
978.93	4661.18
979.10	4526.01
979.26	4593.59
979.42	4564.92
979.58	4519.87
979.74	4542.39
979.91	4673.46
980.07	4526.01
980.23	4550.59
980.39	4380.61
980.55	4577.21
980.71	4526.01
980.88	4415.42
981.04	4464.57
981.20	4462.52
981.36	4542.39
981.52	4374.46
981.68	4343.74
981.85	4409.28
982.01	4362.17
982.17	4313.02
982.33	4427.71
982.49	4474.81
982.65	4304.83
982.82	4431.80
982.98	4388.80
983.14	4206.53
983.30	4366.27
983.46	4386.75
983.62	4380.61
983.79	4220.86
983.95	4313.02
984.11	4157.38
984.27	4233.15
984.43	4212.67
984.59	4241.34
984.75	4179.90
984.91	4091.84
985.08	4310.97
985.24	4233.15
985.40	4118.47
985.56	4143.04
985.72	4272.06
985.88	4251.58
986.04	4087.75
986.20	4028.35
986.37	4145.09
986.53	4136.90
986.69	4050.88
986.85	3938.24
987.01	4059.07
987.17	4071.36
987.33	4069.31
987.49	3956.68
987.65	4155.33
987.82	3960.77
987.98	3991.49
988.14	4026.31
988.30	4011.97
988.46	3917.76
988.62	4083.65
988.78	3936.20
988.94	3895.24
989.10	3782.60
989.26	3862.47
989.42	3860.42
989.59	3854.28
989.75	3770.31
989.91	3909.57
990.07	3741.64
990.23	3770.31
990.39	3772.36
990.55	3801.03
990.71	3727.30
990.87	3790.79
991.03	3893.19
991.19	3815.37
991.35	3778.50
991.51	3901.38
991.67	3852.23
991.83	3835.85
992.00	3774.41
992.16	3764.17
992.32	3817.41
992.48	3717.06
992.64	3618.76
992.80	3731.40
992.96	3807.17
993.12	3755.97
993.28	3667.91
993.44	3606.47
993.60	3741.64
993.76	3602.38
993.92	3712.97
994.08	3727.30
994.24	3610.57
994.40	3698.63
994.56	3684.30
994.72	3657.67
994.88	3590.09
995.04	3588.04
995.20	3626.95
995.36	3588.04
995.52	3499.98
995.68	3575.75
995.84	3461.07
996.00	3465.16
996.16	3491.79
996.32	3598.28
996.48	3497.93
996.64	3624.90
996.80	3452.88
996.96	3481.55
997.12	3545.03
997.28	3512.27
997.44	3366.86
997.60	3407.82
997.76	3260.37
997.92	3446.73
998.08	3399.63
998.24	3272.65
998.40	3448.78
998.56	3401.68
998.72	3274.70
998.88	3221.45
999.04	3262.41
999.20	3403.72
999.36	3389.39
999.52	3389.39
999.68	3276.75
999.84	3377.10
1000.00	3291.09
1000.16	3338.19
1000.32	3200.98
1000.48	3375.05
1000.64	3260.37
1000.80	3180.50
1000.95	3176.40
1001.11	3297.23
1001.27	3166.16
1001.43	3250.13
1001.59	3237.84
1001.75	3125.20
1001.91	3223.50
1002.07	3215.31
1002.23	3131.34
1002.39	3010.51
1002.55	3141.58
1002.71	3051.47
1002.87	3047.38
1003.03	3071.95
1003.19	3094.48
1003.34	3270.61
1003.50	3114.96
1003.66	3149.78
1003.82	3223.50
1003.98	3043.28
1004.14	3149.78
1004.30	3078.10
1004.46	3061.71
1004.62	3092.43
1004.78	2996.18
1004.94	3024.85
1005.09	3018.71
1005.25	2994.13
1005.41	3049.43
1005.57	3008.47
1005.73	2947.03
1005.89	2904.02
1006.05	3055.57
1006.21	2963.41
1006.37	2891.73
1006.52	2887.64
1006.68	2781.14
1006.84	3065.81
1007.00	2924.50
1007.16	2987.99
1007.32	2889.68
1007.48	2934.74
1007.64	2944.98
1007.79	2994.13
1007.95	2840.53
1008.11	2940.88
1008.27	2947.03
1008.43	2799.57
1008.59	2779.09
1008.75	2930.64
1008.91	2844.63
1009.06	2904.02
1009.22	2852.82
1009.38	2928.60
1009.54	2875.35
1009.70	2715.61
1009.86	2795.48
1010.01	2844.63
1010.17	2699.22
1010.33	2838.48
1010.49	2779.09
1010.65	2858.96
1010.81	2721.75
1010.96	2707.41
1011.12	2738.13
1011.28	2744.28
1011.44	2838.48
1011.60	2734.04
1011.76	2705.37
1011.91	2848.72
1012.07	2605.02
1012.23	2654.17
1012.39	2598.87
1012.55	2715.61
1012.71	2662.36
1012.86	2654.17
1013.02	2664.41
1013.18	2586.58
1013.34	2672.60
1013.50	2645.98
1013.65	2629.59
1013.81	2662.36
1013.97	2564.06
1014.13	2594.78
1014.29	2670.55
1014.44	2691.03
1014.60	2568.15
1014.76	2650.07
1014.92	2658.26
1015.07	2697.17
1015.23	2631.64
1015.39	2498.52
1015.55	2576.34
1015.71	2562.01
1015.86	2619.35
1016.02	2465.75
1016.18	2559.96
1016.34	2521.05
1016.49	2498.52
1016.65	2529.24
1016.81	2441.18
1016.97	2533.34
1017.12	2609.11
1017.28	2475.99
1017.44	2318.30
1017.60	2424.80
1017.75	2400.22
1017.91	2492.38
1018.07	2465.75
1018.23	2465.75
1018.38	2437.08
1018.54	2496.47
1018.70	2437.08
1018.86	2449.37
1019.01	2426.84
1019.17	2351.07
1019.33	2527.19
1019.49	2428.89
1019.64	2340.83
1019.80	2494.43
1019.96	2510.81
1020.12	2322.40
1020.27	2320.35
1020.43	2402.27
1020.59	2359.26
1020.74	2426.84
1020.90	2428.89
1021.06	2379.74
1021.22	2412.51
1021.37	2357.21
1021.53	2371.55
1021.69	2318.30
1021.84	2183.13
1022.00	2361.31
1022.16	2271.20
1022.31	2336.73
1022.47	2346.97
1022.63	2312.16
1022.79	2248.67
1022.94	2273.25
1023.10	2394.08
1023.26	2260.96
1023.41	2299.87
1023.57	2191.33
1023.73	2310.11
1023.88	2306.01
1024.04	2246.62
1024.20	2285.53
1024.35	2213.85
1024.51	2314.20
1024.67	2217.95
1024.82	2252.77
1024.98	2185.18
1025.14	2301.92
1025.29	2195.42
1025.45	2234.33
1025.61	2220.00
1025.76	2207.71
1025.92	2213.85
1026.08	2230.24
1026.23	2168.80
1026.39	2375.64
1026.55	2136.03
1026.70	2168.80
1026.86	2105.31
1027.02	2267.10
1027.17	2189.28
1027.33	2236.38
1027.48	2129.89
1027.64	2172.89
1027.80	2156.51
1027.95	2215.90
1028.11	2080.74
1028.27	2232.29
1028.42	2125.79
1028.58	2109.41
1028.73	2142.18
1028.89	2000.87
1029.05	2183.13
1029.20	2191.33
>>>>>End Processed Spectral Data<<<<<
