SpectraSuite Data File
++++++++++++++++++++++++++++++++++++
Date: Fri Jun 02 14:53:29 CEST 2017
User: INFO_000
Dark Spectrum Present: No
Reference Spectrum Present: No
Number of Sampled Component Spectra: 1
Spectrometers: USB4H00879
Integration Time (usec): 80000 (USB4H00879)
Spectra Averaged: 1 (USB4H00879)
Boxcar Smoothing: 0 (USB4H00879)
Correct for Electrical Dark: No (USB4H00879)
Strobe/Lamp Enabled: No (USB4H00879)
Correct for Detector Non-linearity: No (USB4H00879)
Correct for Stray Light: No (USB4H00879)
Number of Pixels in Processed Spectrum: 3648
>>>>>Begin Processed Spectral Data<<<<<
345.13	1308.65
345.34	1308.65
345.56	1308.65
345.78	1310.70
345.99	1261.55
346.21	1632.23
346.42	1658.85
346.64	1632.23
346.86	1843.17
347.07	1613.80
347.29	1757.16
347.50	1617.90
347.72	1640.42
347.94	1730.53
348.15	1621.99
348.37	1617.90
348.59	1693.67
348.80	1650.66
349.02	1695.72
349.23	1796.07
349.45	1814.50
349.67	1964.00
349.88	1751.01
350.10	2002.91
350.31	1900.52
350.53	1826.79
350.75	1968.10
350.96	1849.32
351.18	1906.66
351.39	1787.88
351.61	1861.60
351.82	1970.15
352.04	1931.23
352.26	1847.27
352.47	1941.47
352.69	1927.14
352.90	1736.68
353.12	1855.46
353.34	1847.27
353.55	1970.15
353.77	1925.09
353.98	1787.88
354.20	1763.30
354.41	1925.09
354.63	1894.37
354.85	2033.63
355.06	1943.52
355.28	1818.60
355.49	1941.47
355.71	1914.85
355.92	1884.13
356.14	1931.23
356.35	1888.23
356.57	1910.75
356.79	1982.43
357.00	1920.99
357.22	2015.20
357.43	1865.70
357.65	1982.43
357.86	1812.45
358.08	1978.34
358.29	1966.05
358.51	2078.69
358.72	1994.72
358.94	1939.43
359.16	1996.77
359.37	1970.15
359.59	1949.67
359.80	2037.73
360.02	1970.15
360.23	1978.34
360.45	2045.92
360.66	1941.47
360.88	1871.84
361.09	1937.38
361.31	1927.14
361.52	1982.43
361.74	2060.26
361.95	2060.26
362.17	1933.28
362.38	2066.40
362.60	2086.88
362.81	2109.41
363.03	1957.86
363.24	2045.92
363.46	2054.11
363.67	2076.64
363.89	1857.51
364.10	2000.87
364.32	1970.15
364.53	2045.92
364.75	1869.80
364.96	2052.06
365.18	2017.25
365.39	2007.01
365.61	1951.71
365.82	2209.76
366.04	2019.30
366.25	2002.91
366.47	2084.83
366.68	2146.27
366.90	1904.61
367.11	2099.17
367.33	2144.22
367.54	2088.93
367.76	2058.21
367.97	2148.32
368.19	2068.45
368.40	2066.40
368.62	1976.29
368.83	1984.48
369.05	2082.78
369.26	2052.06
369.48	1984.48
369.69	2047.97
369.91	2025.44
370.12	2047.97
370.33	2131.94
370.55	2017.25
370.76	2043.87
370.98	2179.04
371.19	2088.93
371.41	1972.19
371.62	2082.78
371.84	1992.67
372.05	2215.90
372.27	2039.78
372.48	2111.46
372.69	2076.64
372.91	2187.23
373.12	2117.60
373.34	2050.02
373.55	2117.60
373.77	2224.09
373.98	2111.46
374.20	2189.28
374.41	2281.44
374.62	2136.03
374.84	2193.37
375.05	2189.28
375.27	2199.52
375.48	2172.89
375.70	2213.85
375.91	2152.42
376.12	2230.24
376.34	2117.60
376.55	2195.42
376.77	2187.23
376.98	2072.54
377.19	2207.71
377.41	2131.94
377.62	2166.75
377.84	2281.44
378.05	2324.44
378.27	2213.85
378.48	2342.88
378.69	2326.49
378.91	2359.26
379.12	2287.58
379.34	2238.43
379.55	2306.01
379.76	2336.73
379.98	2277.34
380.19	2330.59
380.41	2283.49
380.62	2291.68
380.83	2267.10
381.05	2205.66
381.26	2416.60
381.47	2222.05
381.69	2316.25
381.90	2430.94
382.12	2277.34
382.33	2256.86
382.54	2273.25
382.76	2338.78
382.97	2322.40
383.19	2217.95
383.40	2375.64
383.61	2346.97
383.83	2326.49
384.04	2346.97
384.25	2400.22
384.47	2418.65
384.68	2322.40
384.89	2279.39
385.11	2340.83
385.32	2428.89
385.54	2295.77
385.75	2420.70
385.96	2498.52
386.18	2394.08
386.39	2523.10
386.60	2369.50
386.82	2410.46
387.03	2416.60
387.24	2459.61
387.46	2486.23
387.67	2500.57
387.88	2531.29
388.10	2473.95
388.31	2502.62
388.52	2566.10
388.74	2478.04
388.95	2539.48
389.16	2594.78
389.38	2471.90
389.59	2643.93
389.80	2543.58
390.02	2494.43
390.23	2619.35
390.44	2527.19
390.66	2514.91
390.87	2549.72
391.08	2523.10
391.30	2738.13
391.51	2699.22
391.72	2719.70
391.94	2611.16
392.15	2682.84
392.36	2625.50
392.58	2717.65
392.79	2666.46
393.00	2750.42
393.22	2729.94
393.43	2760.66
393.64	2791.38
393.85	2764.76
394.07	2711.51
394.28	2662.36
394.49	2791.38
394.71	2809.81
394.92	2891.73
395.13	2779.09
395.35	2820.05
395.56	2713.56
395.77	2772.95
395.98	2770.90
396.20	2840.53
396.41	2932.69
396.62	2879.44
396.84	2801.62
397.05	2836.44
397.26	3037.14
397.47	3000.27
397.69	2854.87
397.90	3010.51
398.11	2953.17
398.32	2881.49
398.54	2858.96
398.75	2856.92
398.96	2998.23
399.18	3043.28
399.39	3041.23
399.60	3067.86
399.81	2918.36
400.03	3092.43
400.24	3301.33
400.45	3049.43
400.66	3096.53
400.88	3074.00
401.09	3137.49
401.30	3098.58
401.51	3178.45
401.73	3182.54
401.94	3196.88
402.15	3147.73
402.36	3125.20
402.58	3149.78
402.79	3139.54
403.00	3209.17
403.21	3205.07
403.43	3205.07
403.64	3293.13
403.85	3147.73
404.06	3397.58
404.27	3182.54
404.49	3280.85
404.70	3194.83
404.91	3352.52
405.12	3225.55
405.34	3295.18
405.55	3395.53
405.76	3278.80
405.97	3243.98
406.19	3444.68
406.40	3352.52
406.61	3399.63
406.82	3395.53
407.03	3268.56
407.25	3403.72
407.46	3514.31
407.67	3446.73
407.88	3512.27
408.09	3360.72
408.31	3305.42
408.52	3434.44
408.73	3434.44
408.94	3362.76
409.15	3514.31
409.37	3616.71
409.58	3542.99
409.79	3475.40
410.00	3641.29
410.21	3399.63
410.43	3590.09
410.64	3387.34
410.85	3559.37
411.06	3502.03
411.27	3598.28
411.48	3600.33
411.70	3524.55
411.91	3485.64
412.12	3708.87
412.33	3631.05
412.54	3575.75
412.76	3743.69
412.97	3688.39
413.18	3524.55
413.39	3755.97
413.60	3665.86
413.81	3651.53
414.03	3637.19
414.24	3706.82
414.45	3878.85
414.66	3571.66
414.87	3743.69
415.08	3672.01
415.30	3665.86
415.51	3846.09
415.72	3778.50
415.93	3729.35
416.14	3672.01
416.35	3780.55
416.56	3712.97
416.78	3870.66
416.99	3809.22
417.20	3876.80
417.41	3981.25
417.62	3917.76
417.83	3979.20
418.04	3950.53
418.26	3995.59
418.47	3925.96
418.68	3934.15
418.89	3887.04
419.10	4159.42
419.31	3932.10
419.52	4124.61
419.73	3995.59
419.95	4093.89
420.16	4042.69
420.37	4091.84
420.58	4177.86
420.79	3971.01
421.00	4063.17
421.21	4216.77
421.42	4022.21
421.63	4239.30
421.85	4181.95
422.06	4151.23
422.27	4186.05
422.48	4175.81
422.69	4216.77
422.90	4298.69
423.11	4249.54
423.32	4394.94
423.53	4519.87
423.75	4364.22
423.96	4460.48
424.17	4433.85
424.38	4534.20
424.59	4577.21
424.80	4583.35
425.01	4431.80
425.22	4454.33
425.43	4452.28
425.64	4751.29
425.85	4675.51
426.06	4618.17
426.28	4394.94
426.49	4575.16
426.70	4583.35
426.91	4646.84
427.12	4706.23
427.33	4739.00
427.54	4671.42
427.75	4616.12
427.96	4814.77
428.17	4775.86
428.38	4825.01
428.59	4915.12
428.80	4788.15
429.01	4933.56
429.23	4874.17
429.44	5031.86
429.65	5040.05
429.86	5095.35
430.07	4995.00
430.28	4911.03
430.49	5167.03
430.70	5097.39
430.91	5097.39
431.12	5068.72
431.33	5345.20
431.54	5212.08
431.75	5162.93
431.96	5240.75
432.17	5267.38
432.38	5394.35
432.59	5414.83
432.80	5402.54
433.01	5455.79
433.22	5513.13
433.43	5406.64
433.64	5433.26
433.85	5414.83
434.06	5595.05
434.27	5390.25
434.49	5545.90
434.70	5695.40
434.91	5568.43
435.12	5576.62
435.33	5593.00
435.54	5580.71
435.75	5361.58
435.96	5547.95
436.17	5539.76
436.38	5773.22
436.59	5803.94
436.80	5466.03
437.01	5930.92
437.22	5748.65
437.43	5603.24
437.64	5492.65
437.85	5896.10
438.06	5805.99
438.27	5648.30
438.48	5758.89
438.69	5754.79
438.90	5881.77
439.11	5803.94
439.32	5859.24
439.53	5910.44
439.74	5904.29
439.95	5869.48
440.16	5990.31
440.37	5894.05
440.57	5803.94
440.78	6057.89
440.99	5984.16
441.20	5959.59
441.41	5990.31
441.62	6074.28
441.83	5803.94
442.04	6129.57
442.25	6100.90
442.46	5953.45
442.67	6285.22
442.88	6600.60
443.09	6031.27
443.30	6229.92
443.51	6107.04
443.72	6401.95
443.93	6111.14
444.14	6530.97
444.35	6234.02
444.56	6490.01
444.77	6348.70
444.98	6479.77
445.19	6416.29
445.40	6453.15
445.61	6453.15
445.81	6483.87
446.02	6535.07
446.23	6455.20
446.44	6258.59
446.65	6342.56
446.86	6526.88
447.07	6453.15
447.28	6598.56
447.49	6760.34
447.70	6664.09
447.91	6731.67
448.12	6619.04
448.33	6735.77
448.54	6827.93
448.74	6485.92
448.95	6516.64
449.16	6684.57
449.37	7055.25
449.58	6809.50
449.79	7122.84
450.00	6727.58
450.21	6944.66
450.42	6985.62
450.63	6983.57
450.84	7004.05
451.05	7020.44
451.25	7034.77
451.46	6938.52
451.67	7114.64
451.88	7229.33
452.09	7122.84
452.30	7180.18
452.51	7135.12
452.72	7258.00
452.93	7587.72
453.13	7260.05
453.34	7384.98
453.55	7194.51
453.76	7151.51
453.97	7712.65
454.18	7434.13
454.39	7464.85
454.60	7466.89
454.81	7432.08
455.01	7591.82
455.22	7241.62
455.43	7651.21
455.64	7839.62
455.85	7839.62
456.06	8064.90
456.27	7665.55
456.48	7669.64
456.68	7905.16
456.89	8007.56
457.10	7952.26
457.31	7974.79
457.52	8030.09
457.73	8146.82
457.94	8159.11
458.14	7876.49
458.35	8400.77
458.56	8292.23
458.77	8224.64
458.98	8288.13
459.19	8324.99
459.39	8490.88
459.60	8595.32
459.81	8302.47
460.02	8646.52
460.23	8585.08
460.44	8771.45
460.65	8777.59
460.85	8769.40
461.06	8701.82
461.27	8570.75
461.48	8890.23
461.69	9064.31
461.89	8757.11
462.10	8984.44
462.31	8851.32
462.52	8836.99
462.73	8945.53
462.94	9320.31
463.14	8777.59
463.35	9193.33
463.56	9502.58
463.77	9478.00
463.98	9297.78
464.18	9117.56
464.39	9465.71
464.60	9834.35
464.81	9635.69
465.02	9713.52
465.23	9873.26
465.43	9656.17
465.64	9817.96
465.85	9885.55
466.06	9762.67
466.27	10069.86
466.47	10045.29
466.68	10231.65
466.89	10147.69
467.10	10266.47
467.30	10043.24
467.51	10307.43
467.72	10491.74
467.93	10237.80
468.14	10458.98
468.34	10645.34
468.55	10530.66
468.76	10841.95
468.97	10530.66
469.17	10766.17
469.38	10930.01
469.59	11155.29
469.80	10819.42
470.01	10977.11
470.21	11087.70
470.42	11183.96
470.63	11452.24
470.84	11274.07
471.04	11427.67
471.25	11444.05
471.46	11530.06
471.67	11808.59
471.87	11724.62
472.08	11917.13
472.29	12183.37
472.50	11712.33
472.70	11808.59
472.91	11927.37
473.12	12205.89
473.33	12140.36
473.53	12343.11
473.74	12083.02
473.95	12576.58
474.16	12558.14
474.36	12595.01
474.57	12781.37
474.78	13016.89
474.99	12846.91
475.19	12779.32
475.40	13225.78
475.61	13158.20
475.81	13305.65
476.02	13631.28
476.23	13305.65
476.44	13369.14
476.64	13887.28
476.85	13596.46
477.06	13776.69
477.27	14036.78
477.47	14012.20
477.68	13946.67
477.89	14212.90
478.09	14323.49
478.30	14227.24
478.51	14290.73
478.71	14454.56
478.92	14724.90
479.13	14683.94
479.34	15032.09
479.54	14651.17
479.75	15007.52
479.96	15134.49
480.16	15017.75
480.37	15150.87
480.58	15460.12
480.78	15697.68
480.99	15589.14
481.20	15597.33
481.41	15832.85
481.61	15957.77
481.82	15795.98
482.03	15824.65
482.23	15875.85
482.44	16072.46
482.65	16140.04
482.85	16396.04
483.06	16551.68
483.27	16658.18
483.47	16455.43
483.68	16625.41
483.89	16811.78
484.09	16733.95
484.30	16889.60
484.51	17186.55
484.71	17211.13
484.92	17260.28
485.13	17383.16
485.33	17616.63
485.54	17354.49
485.75	17815.28
485.95	17694.45
486.16	17596.15
486.37	17915.63
486.57	17743.60
486.78	17837.81
486.98	17970.93
487.19	18032.36
487.40	18177.77
487.60	18276.07
487.81	18208.49
488.02	18392.81
488.22	18425.57
488.43	18790.11
488.64	18435.81
488.84	18816.74
489.05	19101.40
489.25	18734.82
489.46	19005.15
489.67	18933.47
489.87	19269.34
490.08	19123.93
490.29	19498.71
490.49	19955.41
490.70	19637.97
490.90	19848.91
491.11	19779.28
491.32	20008.65
491.52	19822.29
491.73	19885.78
491.94	20084.43
492.14	20190.92
492.35	20178.64
492.55	20225.74
492.76	20526.79
492.97	20670.15
493.17	20565.70
493.38	20573.89
493.58	20813.51
493.79	20717.25
494.00	20807.36
494.20	21200.57
494.41	21075.65
494.61	21153.47
494.82	21124.80
495.02	21114.56
495.23	21382.84
495.44	21401.27
495.64	21604.02
495.85	21444.28
496.05	21683.89
496.26	21706.42
496.47	21980.85
496.67	21659.32
496.88	22412.97
497.08	21679.80
497.29	21948.08
497.49	21792.44
497.70	22312.62
497.91	22314.67
498.11	22691.49
498.32	22507.18
498.52	22648.49
498.73	23041.70
498.93	22593.19
499.14	22863.52
499.34	22863.52
499.55	23150.24
499.76	22963.87
499.96	22847.14
500.17	23103.14
500.37	23092.90
500.58	23367.32
500.78	23314.08
500.99	23449.24
501.19	23621.27
501.40	23635.61
501.60	23365.28
501.81	23422.62
502.02	23592.60
502.22	23381.66
502.43	23994.00
502.63	23897.75
502.84	24073.87
503.04	23996.05
503.25	24039.06
503.45	24161.94
503.66	24278.67
503.86	24235.66
504.07	24069.78
504.27	24100.50
504.48	24632.97
504.68	24559.24
504.89	24917.64
505.09	24880.77
505.30	24823.43
505.50	24520.33
505.71	25081.47
505.91	25112.19
506.12	24712.84
506.32	25054.85
506.53	24778.37
506.73	25167.49
506.94	25470.59
507.14	25409.15
507.35	25249.41
507.55	25366.14
507.76	25491.07
507.96	25491.07
508.17	25656.95
508.37	25562.75
508.58	25745.02
508.78	25501.31
508.99	25982.58
509.19	25892.47
509.40	26005.11
509.60	25966.20
509.81	26265.20
510.01	26224.24
510.22	25882.23
510.42	26097.27
510.63	26285.68
510.83	26470.00
511.04	26259.06
511.24	26320.49
511.44	26484.33
511.65	26877.54
511.85	26662.51
512.06	26830.44
512.26	27178.59
512.47	26844.77
512.67	27203.17
512.88	26994.28
513.08	26820.20
513.29	27328.10
513.49	27256.42
513.69	27256.42
513.90	27397.73
514.10	27375.20
514.31	27555.42
514.51	27479.64
514.72	27248.22
514.92	27659.87
515.13	27565.66
515.33	27645.53
515.53	27881.05
515.74	27614.81
515.94	28016.21
516.15	27831.90
516.35	27995.73
516.56	28276.30
516.76	28106.32
516.96	28143.19
517.17	28528.20
517.37	28251.73
517.58	28190.29
517.78	28905.03
517.99	28651.08
518.19	28794.44
518.39	28622.41
518.60	28714.57
518.80	28659.27
519.01	29050.44
519.21	28776.01
519.41	29105.73
519.62	28919.37
519.82	29404.74
520.03	29263.43
520.23	29277.76
520.43	29099.59
520.64	29494.85
520.84	29759.03
521.05	29619.77
521.25	29863.48
521.45	29955.64
521.66	30191.16
521.86	29785.66
522.07	30080.56
522.27	30346.80
522.47	30162.48
522.68	30598.70
522.88	30475.82
523.08	30400.05
523.29	30885.42
523.49	30899.75
523.70	30932.52
523.90	31335.97
524.10	31016.49
524.31	31194.66
524.51	30903.85
524.71	31387.17
524.92	31243.81
525.12	31399.46
525.33	31389.22
525.53	31530.53
525.73	31710.75
525.94	31843.87
526.14	31847.96
526.34	32253.46
526.55	32230.93
526.75	32210.45
526.95	32419.35
527.16	32126.49
527.36	32486.93
527.56	32742.92
527.77	33095.18
527.97	32771.60
528.17	32910.86
528.38	32806.41
528.58	33105.41
528.78	33211.91
528.99	32908.81
529.19	33531.39
529.39	32927.24
529.60	33660.41
529.80	33416.71
530.00	33244.68
530.21	33918.46
530.41	34045.43
530.61	33869.31
530.82	34049.53
531.02	33922.55
531.22	34330.10
531.43	34041.34
531.63	34364.92
531.83	34541.04
532.04	34885.10
532.24	34326.00
532.44	34756.08
532.64	34874.86
532.85	34919.92
533.05	34805.23
533.25	35059.18
533.46	35085.80
533.66	35712.48
533.86	35292.65
534.07	35847.64
534.27	35323.36
534.47	35894.75
534.67	35853.79
534.88	35806.69
535.08	36230.62
535.28	35876.32
535.49	35972.57
535.69	36705.74
535.89	36404.69
536.09	36347.35
536.30	36814.29
536.50	36247.00
536.70	36877.77
536.91	36627.92
537.11	37328.33
537.31	37072.33
537.51	37049.80
537.72	37467.59
537.92	37215.69
538.12	37832.13
538.32	37649.86
538.53	37828.03
538.73	37137.87
538.93	37758.40
539.13	37512.64
539.34	37572.03
539.54	37574.08
539.74	38141.37
539.94	37879.23
540.15	37772.74
540.35	38120.89
540.55	37922.24
540.75	38208.95
540.96	38589.88
541.16	38120.89
541.36	38137.27
541.56	38639.03
541.77	38602.16
541.97	38534.58
542.17	38886.83
542.37	38557.11
542.58	38878.64
542.78	38688.18
542.98	38886.83
543.18	39157.16
543.38	39163.31
543.59	39450.02
543.79	39157.16
543.99	39314.86
544.19	39130.54
544.40	39529.89
544.60	39640.48
544.80	39431.59
545.00	39577.00
545.20	40105.37
545.41	39687.59
545.61	39718.31
545.81	39826.85
546.01	39929.25
546.21	39980.45
546.42	40052.12
546.62	40281.50
546.82	39900.58
547.02	40234.39
547.22	40154.52
547.43	40175.00
547.63	40320.41
547.83	40213.91
548.03	40105.37
548.23	40603.03
548.44	40365.46
548.64	40484.25
548.84	40408.47
549.04	40400.28
549.24	40803.73
549.45	41115.02
549.65	40979.85
549.85	40486.29
550.05	40959.38
550.25	40625.56
550.45	41278.86
550.66	41000.33
550.86	40822.16
551.06	41227.66
551.26	41090.44
551.46	41485.70
551.66	41399.69
551.87	41235.85
552.07	41299.34
552.27	41301.39
552.47	41366.92
552.67	41399.69
552.87	41223.56
553.07	41346.44
553.28	41328.01
553.48	41766.27
553.68	40996.24
553.88	41997.70
554.08	41420.17
554.28	41604.49
554.48	41536.90
554.69	41678.21
554.89	41680.26
555.09	41993.60
555.29	41973.12
555.49	41985.41
555.69	41794.95
555.89	41471.37
556.10	42339.71
556.30	41563.53
556.50	41880.96
556.70	42075.52
556.90	42184.06
557.10	42098.05
557.30	41856.39
557.50	42147.20
557.70	42386.81
557.91	42362.23
558.11	42085.76
558.31	42599.80
558.51	41977.22
558.71	42130.81
558.91	42337.66
559.11	42171.77
559.31	42605.94
559.51	42378.62
559.72	42200.44
559.92	42802.55
560.12	41829.76
560.32	42771.83
560.52	42272.12
560.72	42577.27
560.92	42628.47
561.12	42841.46
561.32	43046.26
561.52	42288.51
561.72	42767.73
561.93	42378.62
562.13	42739.06
562.33	42837.36
562.53	42964.34
562.73	42296.70
562.93	43130.22
563.13	43218.28
563.33	42730.87
563.53	43091.31
563.73	42612.09
563.93	42974.58
564.13	43433.32
564.33	43365.74
564.53	42915.19
564.74	43457.90
564.94	43160.94
565.14	43339.11
565.34	43279.72
565.54	43548.01
565.74	43595.11
565.94	43539.82
566.14	43627.88
566.34	43148.65
566.54	43816.29
566.74	43099.50
566.94	43603.30
567.14	43801.96
567.34	43513.19
567.54	43545.96
567.74	43908.45
567.94	44008.80
568.14	44166.49
568.34	43978.08
568.54	43976.03
568.74	43844.96
568.94	43849.06
569.14	44512.60
569.34	43916.64
569.54	44078.43
569.75	43685.22
569.95	44146.01
570.15	44371.29
570.35	44373.34
570.55	44397.91
570.75	44483.93
570.95	44621.14
571.15	44402.01
571.35	44385.63
571.55	44713.30
571.75	44567.90
571.95	44924.24
572.15	44350.81
572.35	44469.59
572.55	44682.58
572.75	44279.13
572.95	44827.99
573.15	44836.18
573.35	44672.34
573.55	44610.90
573.75	44510.55
573.95	44858.71
574.15	44926.29
574.35	45036.88
574.55	45020.50
574.75	44909.91
574.95	45036.88
575.15	45126.99
575.34	45167.95
575.54	45147.47
575.74	45538.63
575.94	45307.21
576.14	45462.86
576.34	45761.86
576.54	45929.80
576.74	45995.33
576.94	45991.23
577.14	45954.37
577.34	45929.80
577.54	45692.23
577.74	45770.05
577.94	46062.91
578.14	46234.94
578.34	46667.06
578.54	46062.91
578.74	46298.43
578.94	46290.24
579.14	45929.80
579.34	46044.48
579.54	46331.20
579.74	46947.64
579.94	46517.56
580.13	46642.49
580.33	46640.44
580.53	46775.61
580.73	47062.32
580.93	46882.10
581.13	47162.67
581.33	47324.46
581.53	47285.55
581.73	47160.62
581.93	47938.85
582.13	47568.17
582.33	47433.00
582.53	47514.92
582.73	47787.30
582.92	47889.70
583.12	48143.65
583.32	47871.27
583.52	47617.32
583.72	48450.84
583.92	47744.30
584.12	47805.73
584.32	48409.89
584.52	48149.79
584.72	48168.22
584.92	48258.34
585.11	49147.15
585.31	48252.19
585.51	48811.29
585.71	48250.14
585.91	49018.13
586.11	48653.59
586.31	48688.41
586.51	48684.31
586.71	48755.99
586.91	49036.56
587.10	49177.87
587.30	48543.00
587.50	49263.89
587.70	49354.00
587.90	49177.87
588.10	49433.87
588.30	49337.62
588.50	49882.37
588.69	49777.93
588.89	49691.91
589.09	49863.94
589.29	49732.87
589.49	49978.63
589.69	49468.69
589.89	49843.46
590.08	49784.07
590.28	50001.16
590.48	50007.30
590.68	49874.18
590.88	50394.37
591.08	49831.18
591.28	49902.85
591.47	50609.40
591.67	50638.08
591.87	50658.56
592.07	50642.17
592.27	50429.18
592.47	50351.36
592.67	50582.78
592.86	50595.07
593.06	50660.60
593.26	51158.26
593.46	51014.90
593.66	50877.69
593.86	51606.76
594.05	51508.46
594.25	51053.81
594.45	50806.01
594.65	51205.36
594.85	51131.64
595.05	51397.87
595.24	51670.25
595.44	51352.82
595.64	51471.60
595.84	51692.78
596.04	51692.78
596.23	52022.50
596.43	51688.68
596.63	51563.76
596.83	51877.10
597.03	52079.85
597.22	52548.83
597.42	52161.76
597.62	52798.68
597.82	52688.09
598.02	52245.73
598.21	52856.03
598.41	51649.77
598.61	52294.88
598.81	52577.50
599.01	52788.44
599.20	52307.17
599.40	52702.43
599.60	53130.45
599.80	52790.49
600.00	53013.72
600.19	53564.62
600.39	52896.98
600.59	53214.42
600.79	53327.06
600.98	53040.34
601.18	53540.05
601.38	53685.45
601.58	53560.53
601.78	53468.37
601.97	53581.01
602.17	54086.85
602.37	54025.42
602.57	53556.43
602.76	54138.05
602.96	53533.90
603.16	54187.21
603.36	53966.02
603.55	54447.30
603.75	53877.96
603.95	54111.43
604.15	54293.70
604.34	53900.49
604.54	54127.81
604.74	54170.82
604.94	54541.50
605.13	54537.41
605.33	54590.66
605.53	54279.36
605.73	54998.20
605.92	54684.86
606.12	54998.20
606.32	55182.52
606.52	55274.68
606.71	54846.65
606.91	54887.61
607.11	54568.13
607.30	54680.77
607.50	54938.81
607.70	55004.34
607.90	55276.72
608.09	55219.38
608.29	55231.67
608.49	55325.88
608.68	55264.44
608.88	55620.78
609.08	55233.72
609.28	55383.22
609.47	55147.70
609.67	56038.57
609.87	55364.79
610.06	55864.49
610.26	55024.82
610.46	55999.66
610.66	55536.82
610.85	55637.17
611.05	55547.06
611.25	56022.19
611.44	55147.70
611.64	56186.02
611.84	55350.45
612.03	55891.12
612.23	55708.85
612.43	55631.02
612.62	55719.09
612.82	56097.96
613.02	55518.38
613.21	55913.64
613.41	55770.28
613.61	55719.09
613.80	55573.68
614.00	55678.13
614.20	55768.24
614.39	55850.16
614.59	55770.28
614.79	56278.18
614.98	55637.17
615.18	55839.92
615.38	56198.31
615.57	55639.22
615.77	56118.44
615.97	56046.76
616.16	55927.98
616.36	55809.20
616.56	56171.69
616.75	55921.83
616.95	55493.81
617.15	55631.02
617.34	56161.45
617.54	55733.42
617.74	56095.91
617.93	55868.59
618.13	55792.81
618.32	56057.00
618.52	55596.21
618.72	55616.69
618.91	56259.75
619.11	55356.60
619.31	55940.27
619.50	55368.88
619.70	55432.37
619.90	55463.09
620.09	55813.29
620.29	55415.99
620.48	55557.30
620.68	56177.83
620.88	55538.86
621.07	55448.75
621.27	55753.90
621.46	55491.76
621.66	55694.51
621.86	55606.45
622.05	55397.55
622.25	55977.13
622.44	55796.91
622.64	55420.08
622.84	55923.88
623.03	55760.05
623.23	55887.02
623.42	55360.69
623.62	55635.12
623.82	55833.77
624.01	55827.63
624.21	55997.61
624.40	55432.37
624.60	55635.12
624.80	55719.09
624.99	55325.88
625.19	54920.38
625.38	55575.73
625.58	55467.19
625.77	55506.10
625.97	55571.63
626.17	55436.47
626.36	55043.26
626.56	55256.24
626.75	54768.83
626.95	55467.19
627.14	54975.67
627.34	55719.09
627.54	54631.61
627.73	55350.45
627.93	55325.88
628.12	54910.14
628.32	55276.72
628.51	55393.46
628.71	54832.32
628.90	55284.92
629.10	54619.33
629.30	55411.89
629.49	55278.77
629.69	55293.11
629.88	54822.08
630.08	55575.73
630.27	55203.00
630.47	55532.72
630.66	54770.88
630.86	55194.81
631.05	54707.39
631.25	55499.95
631.44	55055.54
631.64	55039.16
631.84	55436.47
632.03	55747.76
632.23	54826.17
632.42	55534.77
632.62	55372.98
632.81	54863.03
633.01	55139.51
633.20	55219.38
633.40	55252.15
633.59	55155.89
633.79	54744.25
633.98	54938.81
634.18	55424.18
634.37	54824.12
634.57	54809.79
634.76	55332.02
634.96	55035.06
635.15	54822.08
635.35	54867.13
635.54	55286.96
635.74	55114.94
635.93	54674.62
636.13	54934.71
636.32	55340.21
636.52	54686.91
636.71	54729.92
636.91	55268.53
637.10	55024.82
637.30	54910.14
637.49	55188.66
637.69	54910.14
637.88	55000.25
638.08	54508.74
638.27	55012.54
638.46	54891.71
638.66	54504.64
638.85	54844.60
639.05	54811.84
639.24	54758.59
639.44	54400.19
639.63	55090.36
639.83	54807.74
640.02	54936.76
640.22	54586.56
640.41	55274.68
640.61	54731.96
640.80	55086.26
640.99	54613.18
641.19	55278.77
641.38	54875.32
641.58	55108.79
641.77	55198.90
641.97	54592.70
642.16	54559.94
642.36	54979.77
642.55	55293.11
642.74	54828.22
642.94	55502.00
643.13	54887.61
643.33	54672.57
643.52	55354.55
643.72	55145.65
643.91	54740.16
644.10	55123.13
644.30	55008.44
644.49	54924.47
644.69	54961.34
644.88	54928.57
645.08	54490.30
645.27	54746.30
645.46	55008.44
645.66	55401.65
645.85	55047.35
646.05	55059.64
646.24	54785.21
646.43	55166.13
646.63	55559.34
646.82	55581.87
647.02	55170.23
647.21	55317.68
647.40	55319.73
647.60	55354.55
647.79	54875.32
647.99	55217.33
648.18	55243.96
648.37	55450.80
648.57	55448.75
648.76	54967.48
648.96	54973.63
649.15	55594.16
649.34	55575.73
649.54	55264.44
649.73	55350.45
649.92	55674.03
650.12	55233.72
650.31	55502.00
650.51	55633.07
650.70	55534.77
650.89	54949.05
651.09	56100.01
651.28	55649.45
651.47	55411.89
651.67	55792.81
651.86	55784.62
652.06	55112.89
652.25	55665.84
652.44	55542.96
652.64	55243.96
652.83	55540.91
653.02	55133.37
653.22	55272.63
653.41	55092.41
653.60	55102.65
653.80	55555.25
653.99	55850.16
654.18	54820.03
654.38	55497.91
654.57	55674.03
654.76	55475.38
654.96	54936.76
655.15	55379.12
655.34	55504.05
655.54	55170.23
655.73	56046.76
655.92	55616.69
656.12	55508.14
656.31	55549.10
656.50	55626.93
656.70	55698.61
656.89	55465.14
657.08	55950.51
657.28	55655.60
657.47	55704.75
657.66	56052.90
657.86	55964.84
658.05	55243.96
658.24	55979.18
658.43	55356.60
658.63	55663.79
658.82	55760.05
659.01	56005.80
659.21	55874.73
659.40	55948.46
659.59	55592.11
659.79	55590.06
659.98	56057.00
660.17	55903.40
660.36	55862.44
660.56	56241.32
660.75	56095.91
660.94	56054.95
661.14	55510.19
661.33	56124.58
661.52	55907.50
661.71	56124.58
661.91	55669.93
662.10	55878.83
662.29	56433.83
662.49	55960.75
662.68	56409.25
662.87	56108.20
663.06	56482.98
663.26	55813.29
663.45	56310.95
663.64	56450.21
663.83	56224.93
664.03	56562.85
664.22	55768.24
664.41	56145.06
664.60	55938.22
664.80	56362.15
664.99	56235.17
665.18	55989.42
665.37	56300.71
665.57	56276.13
665.76	55858.35
665.95	56480.93
666.14	56110.25
666.34	56132.78
666.53	56439.97
666.72	55966.89
666.91	55944.36
667.11	56057.00
667.30	56147.11
667.49	55960.75
667.68	56054.95
667.87	55653.55
668.07	56568.99
668.26	56407.20
668.45	56337.57
668.64	56120.49
668.84	56956.06
669.03	56476.83
669.22	56327.33
669.41	56736.93
669.60	56601.76
669.80	55919.79
669.99	56667.30
670.18	56018.09
670.37	56231.08
670.57	56949.92
670.76	56454.31
670.95	56722.59
671.14	56837.28
671.33	56491.17
671.53	57212.06
671.72	56501.41
671.91	56673.44
672.10	56241.32
672.29	56667.30
672.48	56564.90
672.68	57087.13
672.87	56716.45
673.06	56710.30
673.25	56554.66
673.44	56575.14
673.64	56695.97
673.83	56564.90
674.02	56652.96
674.21	56517.79
674.40	56810.65
674.59	56220.84
674.79	56466.59
674.98	56132.78
675.17	56663.20
675.36	56206.50
675.55	56485.03
675.74	56796.32
675.94	56579.23
676.13	56714.40
676.32	56919.20
676.51	56552.61
676.70	56603.81
676.89	56401.06
677.08	57029.79
677.28	56775.84
677.47	56845.47
677.66	57134.23
677.85	56679.58
678.04	57304.21
678.23	57273.49
678.42	56894.62
678.62	56863.90
678.81	57025.69
679.00	56829.08
679.19	57097.37
679.38	56781.98
679.57	56745.12
679.76	56726.69
679.96	57054.36
680.15	57001.11
680.34	57173.14
680.53	56655.01
680.72	56855.71
680.91	57504.91
681.10	57160.86
681.29	56652.96
681.48	56407.20
681.68	56911.00
681.87	56874.14
682.06	56597.66
682.25	56040.62
682.44	56634.53
682.63	57132.18
682.82	56951.96
683.01	57044.12
683.20	56743.07
683.39	56829.08
683.59	56587.42
683.78	56358.05
683.97	56915.10
684.16	56685.73
684.35	56501.41
684.54	56956.06
684.73	56591.52
684.92	56433.83
685.11	56571.04
685.30	56626.34
685.49	56743.07
685.69	57113.75
685.88	56738.97
686.07	56589.47
686.26	56278.18
686.45	56999.07
686.64	56779.93
686.83	56382.63
687.02	56247.46
687.21	56908.96
687.40	56538.27
687.59	56679.58
687.78	56734.88
687.97	57074.84
688.16	56362.15
688.35	56618.14
688.54	56349.86
688.74	56671.39
688.93	56403.11
689.12	56665.25
689.31	56612.00
689.50	56419.49
689.69	56108.20
689.88	56134.82
690.07	56173.73
690.26	56505.51
690.45	57005.21
690.64	56231.08
690.83	56296.61
691.02	56032.42
691.21	56247.46
691.40	56175.78
691.59	56796.32
691.78	56229.03
691.97	56558.75
692.16	56495.27
692.35	56657.06
692.54	56345.76
692.73	56583.33
692.92	55925.93
693.11	56274.09
693.30	56411.30
693.49	56476.83
693.68	56206.50
693.87	56222.89
694.06	55702.70
694.25	56157.35
694.44	55876.78
694.63	56331.43
694.82	56308.90
695.01	56063.14
695.20	55962.79
695.39	56059.05
695.58	56114.34
695.77	55809.20
695.96	55841.96
696.15	56022.19
696.34	55798.96
696.53	56210.60
696.72	56298.66
696.91	55596.21
697.10	56059.05
697.29	56128.68
697.48	56188.07
697.67	55790.76
697.86	55594.16
698.05	55342.26
698.24	55796.91
698.43	55047.35
698.62	55882.92
698.81	55637.17
699.00	55725.23
699.19	55606.45
699.38	55608.50
699.57	55485.62
699.76	56171.69
699.95	55614.64
700.14	55557.30
700.32	55882.92
700.51	55596.21
700.70	55846.06
700.89	55753.90
701.08	55821.48
701.27	55415.99
701.46	55837.87
701.65	54750.40
701.84	55452.85
702.03	55661.74
702.22	55133.37
702.41	55106.74
702.60	55305.40
702.79	55448.75
702.98	55119.03
703.17	54990.01
703.35	55282.87
703.54	55088.31
703.73	55209.14
703.92	55319.73
704.11	54844.60
704.30	55102.65
704.49	54725.82
704.68	55039.16
704.87	54768.83
705.06	54887.61
705.25	54811.84
705.43	54650.05
705.62	54662.33
705.81	54809.79
706.00	55135.41
706.19	54668.48
706.38	54400.19
706.57	54611.13
706.76	54340.80
706.95	54310.08
707.14	54088.90
707.32	54326.47
707.51	54191.30
707.70	54564.03
707.89	54310.08
708.08	54377.67
708.27	54430.91
708.46	54500.54
708.65	54516.93
708.84	55098.55
709.02	54621.37
709.21	54228.16
709.40	54449.35
709.59	54490.30
709.78	54197.44
709.97	54383.81
710.16	53998.79
710.34	53886.15
710.53	54129.86
710.72	53966.02
710.91	54006.98
711.10	54013.13
711.29	54318.28
711.48	54068.42
711.66	53837.00
711.85	53744.84
712.04	53890.25
712.23	53540.05
712.42	53449.94
712.61	53691.60
712.80	53417.17
712.98	53689.55
713.17	53750.99
713.36	53241.04
713.55	53204.18
713.74	53214.42
713.93	53126.36
714.11	53081.30
714.30	53425.36
714.49	53302.48
714.68	53273.81
714.87	53732.56
715.06	53390.55
715.24	53109.97
715.43	52878.55
715.62	52886.74
715.81	52679.90
716.00	53236.95
716.18	52813.02
716.37	52600.03
716.56	52327.65
716.75	53042.39
716.94	52569.31
717.12	52419.81
717.31	52942.04
717.50	52186.34
717.69	52161.76
717.88	52747.48
718.06	52649.18
718.25	52706.52
718.44	52122.85
718.63	52542.69
718.82	52368.61
719.00	52311.27
719.19	51838.18
719.38	52278.50
719.57	51961.06
719.76	51137.78
719.94	51428.59
720.13	51762.41
720.32	51707.12
720.51	51627.24
720.69	51322.10
720.88	51614.96
721.07	51274.99
721.26	51297.52
721.44	51453.17
721.63	51139.83
721.82	50865.40
722.01	51213.55
722.20	50988.28
722.38	51070.20
722.57	50691.32
722.76	51096.82
722.95	50820.34
723.13	50435.33
723.32	50328.83
723.51	50218.24
723.70	50218.24
723.88	50599.16
724.07	50169.09
724.26	50474.24
724.44	49638.67
724.63	50410.75
724.82	49915.14
725.01	49771.78
725.19	50189.57
725.38	49655.05
725.57	49786.12
725.76	49599.76
725.94	49722.63
726.13	49739.02
726.32	49198.35
726.51	49665.29
726.69	50017.54
726.88	49667.34
727.07	49849.61
727.25	49614.09
727.44	49677.58
727.63	49403.15
727.82	49255.70
728.00	49663.24
728.19	49296.66
728.38	49648.91
728.56	48954.64
728.75	49708.30
728.94	49259.79
729.12	49360.14
729.31	49736.97
729.50	49304.85
729.69	49796.36
729.87	49452.30
730.06	49231.12
730.25	48848.15
730.43	49431.82
730.62	48809.24
730.81	49087.76
730.99	49241.36
731.18	49173.78
731.37	49163.54
731.55	49167.63
731.74	49050.90
731.93	48829.72
732.11	49003.80
732.30	49202.45
732.49	48772.38
732.67	48944.41
732.86	48491.80
733.05	49052.95
733.23	48749.85
733.42	49003.80
733.61	48643.35
733.79	48872.73
733.98	48944.41
734.17	48622.87
734.35	48463.13
734.54	48577.82
734.73	48925.97
734.91	48809.24
735.10	48145.70
735.29	48715.03
735.47	48160.03
735.66	48434.46
735.84	48594.20
736.03	48493.85
736.22	48139.55
736.40	48420.13
736.59	48284.96
736.78	48110.88
736.96	48215.33
737.15	48370.97
737.33	48020.77
737.52	48194.85
737.71	48067.87
737.89	48110.88
738.08	47031.60
738.27	47783.21
738.45	47942.95
738.64	47830.31
738.82	47764.78
739.01	48112.93
739.20	47457.58
739.38	47766.82
739.57	47883.56
739.75	48112.93
739.94	47973.67
740.13	47312.17
740.31	47480.11
740.50	47709.48
740.68	47566.12
740.87	47924.52
741.06	47430.96
741.24	47781.16
741.43	47031.60
741.61	47465.77
741.80	47207.73
741.99	46693.69
742.17	47093.04
742.36	46900.53
742.54	46957.88
742.73	46921.01
742.91	47361.33
743.10	46947.64
743.29	47131.95
743.47	46886.20
743.66	47113.52
743.84	47162.67
744.03	46810.42
744.21	46486.84
744.40	47144.24
744.59	46826.81
744.77	46540.09
744.96	46730.55
745.14	46644.54
745.33	46996.79
745.51	46794.04
745.70	46316.86
745.88	46288.19
746.07	46822.71
746.26	46267.71
746.44	46060.87
746.63	46007.62
746.81	46343.48
747.00	46335.29
747.18	46378.30
747.37	46150.98
747.55	45909.32
747.74	46298.43
747.92	45980.99
748.11	46138.69
748.29	45911.36
748.48	46118.21
748.66	45737.29
748.85	45651.27
749.03	45923.65
749.22	45843.78
749.41	45651.27
749.59	45391.18
749.78	45567.30
749.96	45350.22
750.15	45520.20
750.33	45665.61
750.52	45065.55
750.70	45219.15
750.89	45104.46
751.07	44961.11
751.26	45245.77
751.44	45049.17
751.63	44961.11
751.81	44895.57
752.00	44780.88
752.18	45352.27
752.37	45073.74
752.55	44416.35
752.74	44909.91
752.92	44615.00
753.10	44940.63
753.29	44639.57
753.47	44442.97
753.66	43920.74
753.84	44836.18
754.03	44303.71
754.21	44221.79
754.40	44537.18
754.58	44606.81
754.77	44690.77
754.95	44088.67
755.14	44244.32
755.32	44068.19
755.51	43490.66
755.69	43842.92
755.88	44070.24
756.06	44262.75
756.24	43773.28
756.43	43789.67
756.61	43904.35
756.80	44031.33
756.98	43378.03
757.17	44035.42
757.35	43763.04
757.54	43820.39
757.72	43722.08
757.90	43206.00
758.09	43310.44
758.27	43619.69
758.46	43515.24
758.64	43406.70
758.83	43873.63
759.01	43414.89
759.19	43746.66
759.38	43593.06
759.56	43550.06
759.75	43615.59
759.93	43459.94
760.12	43283.82
760.30	43206.00
760.48	43183.47
760.67	43402.60
760.85	42945.90
761.04	43345.26
761.22	42952.05
761.40	43152.75
761.59	42882.42
761.77	42587.51
761.96	43038.06
762.14	42837.36
762.32	42390.91
762.51	42560.89
762.69	42554.74
762.88	42569.08
763.06	42972.53
763.24	42722.68
763.43	42423.67
763.61	42288.51
763.80	42222.97
763.98	42388.86
764.16	42231.16
764.35	42290.55
764.53	42018.17
764.72	42202.49
764.90	42282.36
765.08	42245.50
765.27	42198.40
765.45	41690.50
765.63	41745.80
765.82	42468.73
766.00	41579.91
766.18	42050.94
766.37	41995.65
766.55	41600.39
766.74	42358.14
766.92	41815.43
767.10	41670.02
767.29	41684.36
767.47	41317.77
767.65	41604.49
767.84	40975.76
768.02	41588.10
768.20	41244.04
768.39	41514.37
768.57	41383.30
768.75	41196.94
768.94	41235.85
769.12	40973.71
769.30	41233.80
769.49	41033.10
769.67	40799.63
769.85	41018.77
770.04	40959.38
770.22	40713.62
770.40	40433.05
770.59	40461.72
770.77	40969.61
770.95	40265.11
771.14	40449.43
771.32	40203.67
771.50	40101.28
771.69	40183.19
771.87	40721.81
772.05	40084.89
772.24	39912.86
772.42	40187.29
772.60	40080.80
772.78	39775.65
772.97	39931.29
773.15	40121.76
773.33	39947.68
773.52	40066.46
773.70	40510.87
773.88	40486.29
774.07	39857.57
774.25	40086.94
774.43	40189.34
774.61	40230.30
774.80	40457.62
774.98	40230.30
775.16	40326.55
775.34	40414.62
775.53	39824.80
775.71	40224.15
775.89	40328.60
776.08	39855.52
776.26	40277.40
776.44	40451.48
776.62	40177.05
776.81	40117.66
776.99	40074.65
777.17	40222.11
777.35	40031.65
777.54	40523.16
777.72	40068.51
777.90	40439.19
778.08	40773.01
778.27	40228.25
778.45	40494.49
778.63	41041.29
778.81	39925.15
779.00	41121.16
779.18	40660.37
779.36	40887.70
779.54	40666.52
779.73	40467.86
779.91	40754.58
780.09	40709.52
780.27	40693.14
780.46	40869.26
780.64	41106.83
780.82	40730.00
781.00	40674.71
781.19	40773.01
781.37	41039.25
781.55	41201.04
781.73	41147.79
781.91	40957.33
782.10	41524.61
782.28	41319.82
782.46	40981.90
782.64	41248.14
782.82	40861.07
783.01	40904.08
783.19	41409.93
783.37	41127.31
783.55	41170.32
783.74	41282.95
783.92	40557.97
784.10	41749.89
784.28	41203.08
784.46	41270.67
784.64	40840.59
784.83	41469.32
785.01	41438.60
785.19	41080.21
785.37	41227.66
785.55	41342.35
785.74	41022.86
785.92	40764.82
786.10	41014.67
786.28	41145.74
786.46	40803.73
786.64	40656.28
786.83	40920.46
787.01	40973.71
787.19	40945.04
787.37	40912.27
787.55	40967.57
787.74	40684.95
787.92	40742.29
788.10	40666.52
788.28	40431.00
788.46	40940.94
788.64	40088.99
788.82	41194.89
789.01	40476.05
789.19	40836.50
789.37	40596.88
789.55	40564.12
789.73	40316.31
789.91	40347.03
790.09	40218.01
790.28	40289.69
790.46	40371.61
790.64	40560.02
790.82	40132.00
791.00	39966.11
791.18	40490.39
791.36	40056.22
791.55	40215.96
791.73	39607.72
791.91	39804.32
792.09	39916.96
792.27	39507.37
792.45	39638.44
792.63	39538.08
792.81	39388.58
793.00	39538.08
793.18	38938.03
793.36	39290.28
793.54	39034.28
793.72	38731.18
793.90	39288.23
794.08	38710.71
794.26	38899.12
794.44	38598.07
794.62	38618.55
794.81	38761.90
794.99	38440.37
795.17	38493.62
795.35	38241.72
795.53	38745.52
795.71	38473.14
795.89	38313.40
796.07	37985.72
796.25	37795.26
796.43	37707.20
796.61	37821.89
796.80	37473.73
796.98	37684.67
797.16	37598.66
797.34	37623.23
797.52	37422.53
797.70	37903.81
797.88	37778.88
798.06	37375.43
798.24	37377.48
798.42	37197.26
798.60	37357.00
798.78	37459.40
798.96	37070.28
799.14	36853.20
799.32	36689.36
799.51	36869.58
799.69	37096.91
799.87	37027.28
800.05	36550.10
800.23	36498.90
800.41	36750.80
800.59	36627.92
800.77	36001.24
800.95	36079.07
801.13	36398.55
801.31	36464.08
801.49	36031.96
801.67	35941.85
801.85	35702.24
802.03	35581.41
802.21	35655.14
802.39	35560.93
802.57	35730.91
802.75	35388.90
802.93	35683.81
803.11	35571.17
803.29	35120.62
803.47	35124.71
803.65	35149.29
803.83	35120.62
804.01	35276.26
804.19	34768.37
804.37	34719.21
804.55	34889.20
804.73	35171.82
804.91	34696.69
805.09	34848.24
805.27	34762.22
805.45	34971.11
805.63	34989.55
805.81	34418.16
805.99	34690.54
806.17	35091.94
806.35	34909.68
806.53	34133.50
806.71	34088.44
806.89	34283.00
807.07	33996.28
807.25	34090.49
807.43	33996.28
807.61	33889.79
807.79	33908.22
807.97	33422.85
808.15	33768.96
808.33	33611.26
808.51	34010.62
808.69	33433.09
808.87	33111.56
809.05	33369.60
809.23	33228.29
809.41	33080.84
809.59	33134.09
809.77	33265.16
809.95	32908.81
810.13	32947.72
810.31	33271.30
810.49	32935.43
810.67	33060.36
810.84	32955.91
811.02	32691.73
811.20	32546.32
811.38	32488.98
811.56	32214.55
811.74	32548.37
811.92	32462.35
812.10	32136.73
812.28	32570.90
812.46	32382.48
812.64	32329.23
812.82	32341.52
813.00	32259.60
813.18	32013.85
813.36	32112.15
813.53	32185.88
813.71	31790.62
813.89	31796.76
814.07	31700.51
814.25	31948.31
814.43	31864.35
814.61	31610.40
814.79	31256.10
814.97	31469.09
815.15	31614.49
815.33	31432.22
815.50	31497.76
815.68	31333.92
815.86	31460.90
816.04	31309.35
816.22	31399.46
816.40	31196.71
816.58	31378.98
816.76	31178.28
816.94	31032.87
817.11	30758.44
817.29	30860.84
817.47	30578.22
817.65	30854.70
817.83	30819.88
818.01	30746.15
818.19	30852.65
818.37	31096.36
818.54	30498.35
818.72	30217.78
818.90	30529.07
819.08	30731.82
819.26	30520.88
819.44	30326.32
819.62	30082.61
819.80	30309.94
819.97	30475.82
820.15	30357.04
820.33	29963.83
820.51	30197.30
820.69	29742.65
820.87	29832.76
821.05	30311.99
821.22	29769.27
821.40	29982.26
821.58	29627.96
821.76	29894.20
821.94	29730.36
822.12	29804.09
822.29	29840.95
822.47	29595.20
822.65	29679.16
822.83	29847.10
823.01	29572.67
823.19	29441.60
823.36	29087.30
823.54	29173.31
823.72	29201.99
823.90	29150.79
824.08	29072.96
824.25	29355.58
824.43	29445.69
824.61	29140.55
824.79	29165.12
824.97	28841.54
825.15	29105.73
825.32	29050.44
825.50	28896.84
825.68	28878.41
825.86	29001.29
826.04	29171.27
826.21	28896.84
826.39	28974.66
826.57	28896.84
826.75	28546.64
826.93	28452.43
827.10	28399.18
827.28	28483.15
827.46	28620.36
827.64	28624.46
827.81	28436.05
827.99	28395.09
828.17	28425.81
828.35	28286.54
828.53	27942.49
828.70	28229.20
828.88	28249.68
829.06	27807.32
829.24	28184.15
829.41	28118.61
829.59	28130.90
829.77	28108.37
829.95	28120.66
830.12	27868.76
830.30	28005.97
830.48	27913.81
830.66	27829.85
830.84	27952.73
831.01	27721.30
831.19	27835.99
831.37	27815.51
831.55	27623.00
831.72	27590.24
831.90	27532.89
832.08	27723.35
832.25	27594.33
832.43	27711.07
832.61	27483.74
832.79	27317.86
832.96	27315.81
833.14	27356.77
833.32	27498.08
833.50	27567.71
833.67	27500.12
833.85	27154.02
834.03	27244.13
834.20	27330.14
834.38	27346.53
834.56	27176.55
834.74	26771.05
834.91	27444.83
835.09	27194.98
835.27	26773.10
835.44	26883.69
835.62	26580.59
835.80	26732.14
835.98	26998.37
836.15	27016.80
836.33	26455.66
836.51	26885.73
836.68	26691.18
836.86	26613.35
837.04	26791.53
837.21	26623.59
837.39	26773.10
837.57	26449.52
837.75	26553.96
837.92	26304.11
838.10	26418.80
838.28	26224.24
838.45	26615.40
838.63	26152.56
838.81	26240.62
838.98	26226.29
839.16	25933.43
839.34	25990.77
839.51	25835.13
839.69	25888.37
839.87	26007.16
840.04	25706.10
840.22	25894.52
840.40	25933.43
840.57	26031.73
840.75	25845.37
840.93	25394.81
841.10	25984.63
841.28	25724.54
841.46	26054.26
841.63	25804.41
841.81	25726.58
841.98	25730.68
842.16	25427.58
842.34	25581.18
842.51	25486.97
842.69	25521.79
842.87	25536.12
843.04	25620.09
843.22	25671.29
843.40	25230.98
843.57	25120.38
843.75	25263.74
843.92	25200.26
844.10	25128.58
844.28	25048.71
844.45	25114.24
844.63	25233.02
844.81	24966.79
844.98	25532.03
845.16	25216.64
845.33	25017.99
845.51	25357.95
845.69	25132.67
845.86	24977.03
846.04	25054.85
846.21	24929.92
846.39	24815.24
846.57	24886.92
846.74	24413.84
846.92	24444.56
847.09	24688.26
847.27	24407.69
847.45	24735.37
847.62	24907.40
847.80	24698.50
847.97	24630.92
848.15	24774.28
848.32	24258.19
848.50	24622.73
848.68	24278.67
848.85	24600.20
849.03	24225.42
849.20	24202.89
849.38	24397.45
849.56	24229.52
849.73	24118.93
849.91	24166.03
850.08	24235.66
850.26	23877.27
850.43	24041.11
850.61	24055.44
850.78	23869.08
850.96	23961.23
851.14	23938.71
851.31	23914.13
851.49	23926.42
851.66	23953.04
851.84	23778.97
852.01	23832.21
852.19	23905.94
852.36	23717.53
852.54	23729.81
852.71	23631.51
852.89	23539.35
853.07	23651.99
853.24	23447.19
853.42	23482.01
853.59	23205.53
853.77	23305.88
853.94	23357.08
854.12	23688.85
854.29	23281.31
854.47	23262.88
854.64	23221.92
854.82	23459.48
854.99	23457.43
855.17	23338.65
855.34	23320.22
855.52	23232.16
855.69	23346.84
855.87	23074.46
856.04	22853.28
856.22	22947.49
856.39	22884.00
856.57	23201.44
856.74	22726.31
856.92	22863.52
857.09	22904.48
857.27	22777.51
857.44	22865.57
857.62	22986.40
857.79	22894.24
857.97	22625.96
858.14	22810.28
858.32	22681.25
858.49	22740.64
858.67	22423.21
858.84	22490.79
859.02	22568.62
859.19	22392.49
859.37	22306.48
859.54	22513.32
859.72	22220.46
859.89	22222.51
860.06	22585.00
860.24	22417.07
860.41	22642.34
860.59	22189.74
860.76	22361.77
860.94	22087.34
861.11	22300.33
861.29	22150.83
861.46	21892.79
861.64	21980.85
861.81	21817.01
861.98	22107.82
862.16	22027.95
862.33	21950.13
862.51	21763.76
862.68	21817.01
862.86	21849.78
863.03	21862.07
863.21	21460.66
863.38	21681.85
863.55	21751.48
863.73	21434.04
863.90	21542.58
864.08	21673.65
864.25	21520.06
864.43	21583.54
864.60	21597.88
864.77	21388.99
864.95	21391.03
865.12	21466.81
865.30	21360.31
865.47	21237.44
865.64	21089.98
865.82	21206.72
865.99	21407.42
866.17	21163.71
866.34	21331.64
866.51	20827.84
866.69	21384.89
866.86	21204.67
867.04	20817.60
867.21	21100.22
867.38	20833.99
867.56	20854.47
867.73	20735.68
867.91	20618.95
868.08	20717.25
868.25	20563.65
868.43	20534.98
868.60	20434.63
868.78	20549.32
868.95	20659.91
869.12	20278.99
869.30	20790.98
869.47	20616.90
869.64	20266.70
869.82	20508.36
869.99	20315.85
870.16	20299.47
870.34	20627.14
870.51	20354.76
870.69	20152.01
870.86	20334.28
871.03	20446.92
871.21	19900.11
871.38	20287.18
871.55	20061.90
871.73	20262.60
871.90	19922.64
872.07	19891.92
872.25	19603.16
872.42	19740.37
872.59	19734.23
872.77	19787.47
872.94	19629.78
873.11	19586.77
873.29	19599.06
873.46	19644.12
873.63	19695.32
873.81	19576.53
873.98	19519.19
874.15	19685.08
874.33	19248.86
874.50	19056.35
874.67	19234.52
874.85	19181.28
875.02	19187.42
875.19	19154.65
875.37	18900.70
875.54	19042.01
875.71	18843.36
875.88	18863.84
876.06	18861.79
876.23	18984.67
876.40	19013.34
876.58	18734.82
876.75	18781.92
876.92	18632.42
877.10	18722.53
877.27	18405.10
877.44	18511.59
877.61	18425.57
877.79	18550.50
877.96	18231.02
878.13	18235.11
878.31	18323.18
878.48	18265.83
878.65	18171.63
878.82	18024.17
879.00	18226.92
879.17	18065.13
879.34	18333.42
879.51	18061.04
879.69	17870.58
879.86	17823.47
880.03	17936.11
880.21	17776.37
880.38	17962.73
880.55	17977.07
880.72	17825.52
880.90	17837.81
881.07	17739.51
881.24	17716.98
881.41	17774.32
881.59	17782.51
881.76	17555.19
881.93	17688.31
882.10	17557.24
882.28	17590.00
882.45	17798.90
882.62	17139.45
882.79	17727.22
882.96	17266.42
883.14	17379.06
883.31	17491.70
883.48	17340.15
883.65	17188.60
883.83	17618.68
884.00	17184.51
884.17	17452.79
884.34	17467.13
884.51	17061.63
884.69	17372.92
884.86	17293.05
885.03	17028.86
885.20	16973.56
885.38	17082.11
885.55	16924.41
885.72	16985.85
885.89	16920.32
886.06	16893.69
886.24	16850.69
886.41	16873.21
886.58	16922.37
886.75	17258.23
886.92	16662.27
887.10	17073.92
887.27	16819.97
887.44	16744.19
887.61	16883.45
887.78	17008.38
887.95	16826.11
888.13	16510.72
888.30	16584.45
888.47	16709.38
888.64	16549.64
888.81	16768.77
888.99	16561.92
889.16	16471.81
889.33	16281.35
889.50	16434.95
889.67	16631.55
889.84	16301.83
890.01	16289.54
890.19	16369.41
890.36	16432.90
890.53	16099.08
890.70	16174.86
890.87	16224.01
891.04	16015.12
891.22	16191.24
891.39	16039.69
891.56	16090.89
891.73	15988.49
891.90	15968.01
892.07	15894.29
892.24	15965.96
892.42	15681.30
892.59	15744.78
892.76	15867.66
892.93	15597.33
893.10	15871.76
893.27	15658.77
893.44	15558.42
893.61	15775.50
893.79	15945.48
893.96	15406.87
894.13	15693.58
894.30	15720.21
894.47	15558.42
894.64	15666.96
894.81	15705.87
894.98	15492.88
895.15	15539.99
895.33	15660.82
895.50	15593.23
895.67	15812.37
895.84	15517.46
896.01	15439.64
896.18	15449.88
896.35	15738.64
896.52	15666.96
896.69	15380.25
896.86	15449.88
897.04	15279.89
897.21	15519.51
897.38	15322.90
897.55	15329.05
897.72	15333.14
897.89	15259.42
898.06	15593.23
898.23	15462.16
898.40	15378.20
898.57	15341.33
898.74	15300.37
898.91	15501.08
899.08	15464.21
899.26	15189.78
899.43	15214.36
899.60	15406.87
899.77	15468.31
899.94	15109.91
900.11	15138.58
900.28	15292.18
900.45	15052.57
900.62	15226.65
900.79	15501.08
900.96	15359.77
901.13	15339.29
901.30	15365.91
901.47	15099.67
901.64	15415.06
901.81	15030.04
901.98	15300.37
902.15	15304.47
902.32	15101.72
902.49	15191.83
902.66	15161.11
902.83	15050.52
903.01	15261.46
903.18	15144.73
903.35	15247.13
903.52	15208.22
903.69	15384.34
903.86	15181.59
904.03	15193.88
904.20	15378.20
904.37	15136.54
904.54	15134.49
904.71	15032.09
904.88	15202.07
905.05	14931.74
905.22	15214.36
905.39	14909.21
905.56	15114.01
905.73	15275.80
905.90	15263.51
906.07	15216.41
906.24	15154.97
906.41	15073.05
906.58	15283.99
906.75	15167.26
906.92	15173.40
907.09	14939.93
907.26	15062.81
907.43	14798.62
907.60	14927.64
907.77	15191.83
907.93	15114.01
908.10	14878.49
908.27	15093.53
908.44	14810.91
908.61	15025.95
908.78	15146.78
908.95	14995.23
909.12	14929.69
909.29	14866.21
909.46	14796.57
909.63	15038.23
909.80	14855.97
909.97	15005.47
910.14	14894.88
910.31	14886.68
910.48	14685.98
910.65	14825.25
910.82	14870.30
910.99	14659.36
911.16	14827.29
911.33	14772.00
911.50	14944.03
911.66	14599.97
911.83	14804.77
912.00	14526.24
912.17	14581.54
912.34	14487.33
912.51	14624.54
912.68	14544.67
912.85	14407.46
913.02	14626.59
913.19	14487.33
913.36	14497.57
913.53	14372.64
913.70	14329.64
913.86	14325.54
914.03	14346.02
914.20	14264.10
914.37	14217.00
914.54	14319.40
914.71	14184.23
914.88	14124.84
915.05	14243.62
915.22	14229.29
915.39	14118.70
915.55	14155.56
915.72	13881.13
915.89	13997.87
916.06	13778.73
916.23	14116.65
916.40	13772.59
916.57	14061.35
916.74	14024.49
916.91	13731.63
917.07	13477.68
917.24	13623.09
917.41	13618.99
917.58	13641.52
917.75	13653.81
917.92	13469.49
918.09	13514.55
918.26	13363.00
918.42	13653.81
918.59	13588.27
918.76	13121.34
918.93	13307.70
919.10	13258.55
919.27	13430.58
919.44	13227.83
919.60	13164.34
919.77	13184.82
919.94	13375.28
920.11	13014.84
920.28	13246.26
920.45	12908.35
920.61	12898.11
920.78	12928.83
920.95	12779.32
921.12	12908.35
921.29	12676.93
921.46	12754.75
921.62	12635.97
921.79	12678.97
921.96	12435.27
922.13	12658.49
922.30	12541.76
922.47	12404.55
922.63	12549.95
922.80	12377.92
922.97	12283.72
923.14	11773.77
923.31	12257.09
923.47	12269.38
923.64	12265.28
923.81	12179.27
923.98	12027.72
924.15	12103.50
924.32	11933.51
924.48	12279.62
924.65	11896.65
924.82	12013.38
924.99	11677.52
925.15	11788.11
925.32	11755.34
925.49	11540.30
925.66	11622.22
925.83	11695.95
925.99	11542.35
926.16	11589.46
926.33	11476.82
926.50	11321.17
926.67	11368.27
926.83	11433.81
927.00	11276.12
927.17	11331.41
927.34	11110.23
927.50	10997.59
927.67	11161.43
927.84	10800.99
928.01	10893.15
928.17	10903.39
928.34	10887.00
928.51	10798.94
928.68	10823.51
928.84	10866.52
929.01	10688.35
929.18	10575.71
929.35	10526.56
929.51	10596.19
929.68	10356.58
929.85	10291.04
930.02	10563.42
930.18	10403.68
930.35	10295.14
930.52	10407.78
930.69	10297.19
930.85	10211.17
931.02	10028.90
931.19	10284.90
931.36	10209.12
931.52	10084.20
931.69	10155.88
931.86	9881.45
932.02	9887.59
932.19	10078.05
932.36	9738.09
932.53	9891.69
932.69	9736.04
932.86	9684.84
933.03	9740.14
933.19	9400.18
933.36	9672.56
933.53	9613.17
933.70	9391.98
933.86	9441.14
934.03	9445.23
934.20	9324.40
934.36	9402.22
934.53	9127.80
934.70	9103.22
934.86	9043.83
935.03	8828.79
935.20	8834.94
935.36	8836.99
935.53	8746.87
935.70	8767.35
935.86	8812.41
936.03	8662.91
936.20	8480.64
936.36	8292.23
936.53	8396.67
936.70	8284.03
936.86	8329.09
937.03	8269.70
937.20	8083.33
937.36	8138.63
937.53	8009.61
937.70	7911.30
937.86	7774.09
938.03	7903.11
938.20	7743.37
938.36	7518.09
938.53	7602.06
938.70	7477.13
938.86	7301.01
939.03	7491.47
939.20	7243.67
939.36	7194.51
939.53	7055.25
939.70	7192.47
939.86	6856.60
940.03	6821.78
940.19	6852.50
940.36	6762.39
940.53	6680.47
940.69	6514.59
940.86	6541.21
941.03	6373.28
941.19	6338.46
941.36	6512.54
941.52	6307.74
941.69	6074.28
941.86	6219.68
942.02	6141.86
942.19	6016.93
942.35	6008.74
942.52	5892.01
942.69	5971.88
942.85	5693.35
943.02	5746.60
943.18	5738.41
943.35	5679.02
943.52	5658.54
943.68	5750.70
943.85	5509.04
944.01	5506.99
944.18	5644.20
944.35	5660.59
944.51	5472.17
944.68	5359.53
944.84	5371.82
945.01	5359.53
945.17	5324.72
945.34	5418.93
945.51	5328.81
945.67	5496.75
945.84	5386.16
946.00	5349.29
946.17	5394.35
946.33	5404.59
946.50	5377.97
946.67	5277.62
946.83	5181.36
947.00	5365.68
947.16	5171.12
947.33	5365.68
947.49	5271.47
947.66	5201.84
947.82	5322.67
947.99	5109.68
948.16	5255.09
948.32	5128.11
948.49	5171.12
948.65	5216.18
948.82	5275.57
948.98	5152.69
949.15	5095.35
949.31	5134.26
949.48	5285.81
949.64	5164.98
949.81	5240.75
949.97	5210.03
950.14	5179.31
950.30	5224.37
950.47	5328.81
950.63	5183.41
950.80	5326.77
950.96	5361.58
951.13	5392.30
951.30	5212.08
951.46	5248.94
951.63	5312.43
951.79	5388.21
951.96	5289.90
952.12	5339.05
952.29	5318.57
952.45	5216.18
952.62	5300.14
952.78	5380.01
952.94	5281.71
953.11	5234.61
953.27	5187.50
953.44	5431.21
953.60	5445.55
953.77	5308.34
953.93	5279.66
954.10	5341.10
954.26	5406.64
954.43	5246.90
954.59	5429.17
954.76	5541.80
954.92	5369.77
955.09	5416.88
955.25	5308.34
955.42	5373.87
955.58	5570.48
955.75	5355.44
955.91	5380.01
956.07	5558.19
956.24	5418.93
956.40	5449.64
956.57	5437.36
956.73	5310.38
956.90	5490.60
957.06	5402.54
957.23	5394.35
957.39	5222.32
957.56	5427.12
957.72	5320.62
957.88	5283.76
958.05	5283.76
958.21	5418.93
958.38	5396.40
958.54	5525.42
958.71	5568.43
958.87	5351.34
959.03	5318.57
959.20	5470.12
959.36	5334.96
959.53	5281.71
959.69	5326.77
959.85	5492.65
960.02	5287.86
960.18	5425.07
960.35	5400.49
960.51	5494.70
960.68	5445.55
960.84	5406.64
961.00	5279.66
961.17	5337.01
961.33	5476.27
961.50	5361.58
961.66	5400.49
961.82	5287.86
961.99	5463.98
962.15	5308.34
962.31	5466.03
962.48	5429.17
962.64	5474.22
962.81	5445.55
962.97	5533.61
963.13	5445.55
963.30	5388.21
963.46	5423.02
963.62	5408.69
963.79	5146.55
963.95	5345.20
964.12	5341.10
964.28	5334.96
964.44	5328.81
964.61	5375.92
964.77	5332.91
964.93	5371.82
965.10	5316.53
965.26	5240.75
965.42	5351.34
965.59	5310.38
965.75	5275.57
965.92	5386.16
966.08	5361.58
966.24	5203.89
966.41	5306.29
966.57	5261.23
966.73	5246.90
966.90	5277.62
967.06	5220.27
967.22	5388.21
967.39	5203.89
967.55	5117.87
967.71	5099.44
967.88	5140.40
968.04	5179.31
968.20	5113.78
968.37	5154.74
968.53	5097.39
968.69	5240.75
968.85	5164.98
969.02	5187.50
969.18	5244.85
969.34	5097.39
969.51	5134.26
969.67	5230.51
969.83	5216.18
970.00	5072.82
970.16	5056.43
970.32	5130.16
970.48	5107.63
970.65	5035.96
970.81	5038.00
970.97	4972.47
971.14	4810.68
971.30	5078.96
971.46	4904.89
971.63	4960.18
971.79	4995.00
971.95	4812.73
972.11	4945.84
972.28	5025.72
972.44	5021.62
972.60	4958.13
972.76	4976.56
972.93	4833.21
973.09	4845.49
973.25	4872.12
973.42	4927.41
973.58	4841.40
973.74	4911.03
973.90	4874.17
974.07	4872.12
974.23	4958.13
974.39	4790.20
974.55	4800.44
974.72	4749.24
974.88	4665.27
975.04	4845.49
975.20	4767.67
975.37	4741.05
975.53	4695.99
975.69	4829.11
975.85	4804.53
976.01	4718.52
976.18	4702.14
976.34	4743.10
976.50	4876.21
976.66	4808.63
976.83	4663.22
976.99	4706.23
977.15	4712.38
977.31	4562.87
977.47	4652.98
977.64	4652.98
977.80	4743.10
977.96	4689.85
978.12	4556.73
978.29	4542.39
978.45	4548.54
978.61	4526.01
978.77	4612.03
978.93	4339.65
979.10	4622.27
979.26	4532.15
979.42	4548.54
979.58	4333.50
979.74	4507.58
979.91	4478.91
980.07	4382.65
980.23	4472.76
980.39	4476.86
980.55	4382.65
980.71	4390.84
980.88	4372.41
981.04	4442.04
981.20	4526.01
981.36	4462.52
981.52	4386.75
981.68	4294.59
981.85	4362.17
982.01	4425.66
982.17	4394.94
982.33	4337.60
982.49	4515.77
982.65	4288.45
982.82	4173.76
982.98	4351.93
983.14	4278.21
983.30	4304.83
983.46	4409.28
983.62	4339.65
983.79	4272.06
983.95	4132.80
984.11	4179.90
984.27	4298.69
984.43	4286.40
984.59	4192.19
984.75	4263.87
984.91	4134.85
985.08	4237.25
985.24	4149.18
985.40	4143.04
985.56	4145.09
985.72	4251.58
985.88	4159.42
986.04	4126.66
986.20	4071.36
986.37	4122.56
986.53	4097.99
986.69	3993.54
986.85	4046.79
987.01	4040.64
987.17	4202.43
987.33	3983.30
987.49	3934.15
987.65	4149.18
987.82	3940.29
987.98	3907.52
988.14	3966.92
988.30	4016.07
988.46	3909.57
988.62	3942.34
988.78	3852.23
988.94	3897.28
989.10	3794.89
989.26	3874.76
989.42	3934.15
989.59	3887.04
989.75	3803.08
989.91	3932.10
990.07	3717.06
990.23	3704.78
990.39	3880.90
990.55	3921.86
990.71	3774.41
990.87	3784.65
991.03	3698.63
991.19	3796.93
991.35	3735.50
991.51	3653.58
991.67	3809.22
991.83	3821.51
992.00	3678.15
992.16	3780.55
992.32	3733.45
992.48	3805.13
992.64	3602.38
992.80	3796.93
992.96	3694.54
993.12	3680.20
993.28	3694.54
993.44	3706.82
993.60	3674.06
993.76	3561.42
993.92	3667.91
994.08	3760.07
994.24	3626.95
994.40	3731.40
994.56	3590.09
994.72	3602.38
994.88	3590.09
995.04	3608.52
995.20	3557.32
995.36	3471.31
995.52	3686.34
995.68	3536.84
995.84	3456.97
996.00	3473.36
996.16	3526.60
996.32	3416.01
996.48	3532.75
996.64	3493.83
996.80	3575.75
996.96	3452.88
997.12	3317.71
997.28	3477.45
997.44	3463.12
997.60	3416.01
997.76	3299.28
997.92	3428.30
998.08	3430.35
998.24	3344.33
998.40	3430.35
998.56	3459.02
998.72	3338.19
998.88	3311.57
999.04	3403.72
999.20	3346.38
999.36	3205.07
999.52	3444.68
999.68	3366.86
999.84	3319.76
1000.00	3274.70
1000.16	3313.61
1000.32	3334.09
1000.48	3321.81
1000.64	3182.54
1000.80	3219.41
1000.95	3203.02
1001.11	3282.89
1001.27	3137.49
1001.43	3229.65
1001.59	3166.16
1001.75	3112.91
1001.91	3190.74
1002.07	3168.21
1002.23	3157.97
1002.39	3174.35
1002.55	3016.66
1002.71	3231.69
1002.87	3229.65
1003.03	3016.66
1003.19	3108.82
1003.34	3194.83
1003.50	3121.10
1003.66	3153.87
1003.82	3041.23
1003.98	3076.05
1004.14	3028.95
1004.30	3108.82
1004.46	2969.55
1004.62	3168.21
1004.78	3008.47
1004.94	3020.75
1005.09	3084.24
1005.25	3020.75
1005.41	3016.66
1005.57	3016.66
1005.73	3002.32
1005.89	3002.32
1006.05	3008.47
1006.21	3026.90
1006.37	2924.50
1006.52	2953.17
1006.68	2908.12
1006.84	3100.62
1007.00	2881.49
1007.16	3018.71
1007.32	2897.88
1007.48	2875.35
1007.64	3002.32
1007.79	2920.40
1007.95	2879.44
1008.11	2879.44
1008.27	2926.55
1008.43	2912.21
1008.59	2877.40
1008.75	2938.84
1008.91	2981.84
1009.06	2881.49
1009.22	2875.35
1009.38	2858.96
1009.54	2914.26
1009.70	2797.53
1009.86	2883.54
1010.01	2858.96
1010.17	2756.57
1010.33	2795.48
1010.49	2711.51
1010.65	2797.53
1010.81	2715.61
1010.96	2844.63
1011.12	2779.09
1011.28	2631.64
1011.44	2822.10
1011.60	2701.27
1011.76	2686.94
1011.91	2783.19
1012.07	2697.17
1012.23	2588.63
1012.39	2639.83
1012.55	2648.02
1012.71	2705.37
1012.86	2662.36
1013.02	2660.31
1013.18	2625.50
1013.34	2607.06
1013.50	2705.37
1013.65	2672.60
1013.81	2543.58
1013.97	2586.58
1014.13	2586.58
1014.29	2682.84
1014.44	2748.37
1014.60	2621.40
1014.76	2576.34
1014.92	2588.63
1015.07	2568.15
1015.23	2613.21
1015.39	2615.26
1015.55	2527.19
1015.71	2564.06
1015.86	2521.05
1016.02	2547.67
1016.18	2461.66
1016.34	2557.91
1016.49	2557.91
1016.65	2650.07
1016.81	2617.30
1016.97	2463.71
1017.12	2529.24
1017.28	2428.89
1017.44	2467.80
1017.60	2480.09
1017.75	2510.81
1017.91	2514.91
1018.07	2430.94
1018.23	2404.32
1018.38	2377.69
1018.54	2469.85
1018.70	2428.89
1018.86	2330.59
1019.01	2408.41
1019.17	2521.05
1019.33	2500.57
1019.49	2488.28
1019.64	2510.81
1019.80	2412.51
1019.96	2383.84
1020.12	2342.88
1020.27	2396.12
1020.43	2402.27
1020.59	2416.60
1020.74	2394.08
1020.90	2365.40
1021.06	2252.77
1021.22	2336.73
1021.37	2363.36
1021.53	2369.50
1021.69	2222.05
1021.84	2281.44
1022.00	2387.93
1022.16	2213.85
1022.31	2371.55
1022.47	2379.74
1022.63	2334.68
1022.79	2256.86
1022.94	2256.86
1023.10	2379.74
1023.26	2379.74
1023.41	2260.96
1023.57	2308.06
1023.73	2156.51
1023.88	2279.39
1024.04	2248.67
1024.20	2150.37
1024.35	2293.72
1024.51	2334.68
1024.67	2209.76
1024.82	2250.72
1024.98	2226.14
1025.14	2265.05
1025.29	2189.28
1025.45	2295.77
1025.61	2170.85
1025.76	2209.76
1025.92	2201.57
1026.08	2308.06
1026.23	2187.23
1026.39	2342.88
1026.55	2154.46
1026.70	2154.46
1026.86	2269.15
1027.02	2238.43
1027.17	2222.05
1027.33	2236.38
1027.48	2131.94
1027.64	2043.87
1027.80	2138.08
1027.95	2201.57
1028.11	2000.87
1028.27	2125.79
1028.42	2136.03
1028.58	2162.66
1028.73	2035.68
1028.89	2054.11
1029.05	2138.08
1029.20	2189.28
>>>>>End Processed Spectral Data<<<<<
