SpectraSuite Data File
++++++++++++++++++++++++++++++++++++
Date: Fri Jun 02 14:53:28 CEST 2017
User: INFO_000
Dark Spectrum Present: No
Reference Spectrum Present: No
Number of Sampled Component Spectra: 1
Spectrometers: USB4H00879
Integration Time (usec): 80000 (USB4H00879)
Spectra Averaged: 1 (USB4H00879)
Boxcar Smoothing: 0 (USB4H00879)
Correct for Electrical Dark: No (USB4H00879)
Strobe/Lamp Enabled: No (USB4H00879)
Correct for Detector Non-linearity: No (USB4H00879)
Correct for Stray Light: No (USB4H00879)
Number of Pixels in Processed Spectrum: 3648
>>>>>Begin Processed Spectral Data<<<<<
345.13	1292.27
345.34	1292.27
345.56	1292.27
345.78	1310.70
345.99	1296.36
346.21	1710.05
346.42	1691.62
346.64	1642.47
346.86	1826.79
347.07	1685.48
347.29	1699.81
347.50	1712.10
347.72	1695.72
347.94	1701.86
348.15	1587.18
348.37	1660.90
348.59	1726.44
348.80	1693.67
349.02	1767.40
349.23	1855.46
349.45	1816.55
349.67	1826.79
349.88	1748.97
350.10	1947.62
350.31	1837.03
350.53	1783.78
350.75	1882.08
350.96	1755.11
351.18	1771.49
351.39	1771.49
351.61	1767.40
351.82	1810.40
352.04	1773.54
352.26	1759.21
352.47	1916.90
352.69	1839.08
352.90	1732.58
353.12	1779.68
353.34	1765.35
353.55	1812.45
353.77	1779.68
353.98	1818.60
354.20	1748.97
354.41	1847.27
354.63	1841.12
354.85	2019.30
355.06	1902.56
355.28	1703.91
355.49	1894.37
355.71	1861.60
355.92	1867.75
356.14	1865.70
356.35	1820.64
356.57	1748.97
356.79	1849.32
357.00	1765.35
357.22	1941.47
357.43	1771.49
357.65	1984.48
357.86	1791.97
358.08	1859.56
358.29	1882.08
358.51	1966.05
358.72	1912.80
358.94	1894.37
359.16	1818.60
359.37	1888.23
359.59	1824.74
359.80	2004.96
360.02	1910.75
360.23	1910.75
360.45	1951.71
360.66	1904.61
360.88	1865.70
361.09	1875.94
361.31	1894.37
361.52	1843.17
361.74	2023.39
361.95	2027.49
362.17	1871.84
362.38	2011.11
362.60	1972.19
362.81	1880.04
363.03	1982.43
363.24	1908.71
363.46	2072.54
363.67	1978.34
363.89	1970.15
364.10	1961.95
364.32	1982.43
364.53	1937.38
364.75	1896.42
364.96	1929.19
365.18	1959.91
365.39	1908.71
365.61	1953.76
365.82	2093.02
366.04	2109.41
366.25	1855.46
366.47	1994.72
366.68	1931.23
366.90	1888.23
367.11	2007.01
367.33	2000.87
367.54	1951.71
367.76	1947.62
367.97	2101.22
368.19	2011.11
368.40	2033.63
368.62	1968.10
368.83	1910.75
369.05	1898.47
369.26	1978.34
369.48	1929.19
369.69	1941.47
369.91	1994.72
370.12	1980.39
370.33	2127.84
370.55	1925.09
370.76	2027.49
370.98	1968.10
371.19	1990.63
371.41	1970.15
371.62	2058.21
371.84	1914.85
372.05	2154.46
372.27	1947.62
372.48	2000.87
372.69	2025.44
372.91	2150.37
373.12	2101.22
373.34	1988.58
373.55	2105.31
373.77	2158.56
373.98	2109.41
374.20	2158.56
374.41	2269.15
374.62	2101.22
374.84	2164.70
375.05	2189.28
375.27	2217.95
375.48	2152.42
375.70	2205.66
375.91	2158.56
376.12	2258.91
376.34	2164.70
376.55	2226.14
376.77	2201.57
376.98	2095.07
377.19	2209.76
377.41	2211.81
377.62	2238.43
377.84	2258.91
378.05	2338.78
378.27	2199.52
378.48	2256.86
378.69	2365.40
378.91	2281.44
379.12	2246.62
379.34	2230.24
379.55	2326.49
379.76	2310.11
379.98	2265.05
380.19	2277.34
380.41	2234.33
380.62	2281.44
380.83	2238.43
381.05	2207.71
381.26	2437.08
381.47	2240.48
381.69	2281.44
381.90	2394.08
382.12	2228.19
382.33	2250.72
382.54	2275.29
382.76	2316.25
382.97	2248.67
383.19	2217.95
383.40	2406.36
383.61	2314.20
383.83	2291.68
384.04	2330.59
384.25	2351.07
384.47	2367.45
384.68	2375.64
384.89	2367.45
385.11	2330.59
385.32	2357.21
385.54	2312.16
385.75	2306.01
385.96	2357.21
386.18	2346.97
386.39	2404.32
386.60	2371.55
386.82	2471.90
387.03	2377.69
387.24	2516.95
387.46	2463.71
387.67	2459.61
387.88	2453.47
388.10	2443.23
388.31	2502.62
388.52	2574.30
388.74	2514.91
388.95	2502.62
389.16	2404.32
389.38	2578.39
389.59	2570.20
389.80	2576.34
390.02	2494.43
390.23	2621.40
390.44	2492.38
390.66	2594.78
390.87	2469.85
391.08	2568.15
391.30	2641.88
391.51	2627.54
391.72	2658.26
391.94	2609.11
392.15	2707.41
392.36	2635.74
392.58	2568.15
392.79	2703.32
393.00	2729.94
393.22	2766.81
393.43	2797.53
393.64	2756.57
393.85	2703.32
394.07	2686.94
394.28	2736.09
394.49	2818.00
394.71	2764.76
394.92	2840.53
395.13	2633.69
395.35	2852.82
395.56	2770.90
395.77	2742.23
395.98	2754.52
396.20	2959.31
396.41	2901.97
396.62	2865.11
396.84	2818.00
397.05	2891.73
397.26	2842.58
397.47	3012.56
397.69	2801.62
397.90	2994.13
398.11	2895.83
398.32	2908.12
398.54	2918.36
398.75	2908.12
398.96	2969.55
399.18	3028.95
399.39	3033.04
399.60	3133.39
399.81	2920.40
400.03	2906.07
400.24	3215.31
400.45	2992.08
400.66	3063.76
400.88	2967.51
401.09	3223.50
401.30	3090.38
401.51	3155.92
401.73	3147.73
401.94	3106.77
402.15	3127.25
402.36	3223.50
402.58	3182.54
402.79	3117.01
403.00	3170.26
403.21	3084.24
403.43	3225.55
403.64	3246.03
403.85	3162.06
404.06	3235.79
404.27	3131.34
404.49	3211.22
404.70	3280.85
404.91	3362.76
405.12	3266.51
405.34	3362.76
405.55	3428.30
405.76	3084.24
405.97	3293.13
406.19	3413.96
406.40	3205.07
406.61	3393.48
406.82	3411.92
407.03	3370.96
407.25	3260.37
407.46	3379.15
407.67	3469.26
407.88	3456.97
408.09	3336.14
408.31	3432.40
408.52	3379.15
408.73	3356.62
408.94	3344.33
409.15	3467.21
409.37	3444.68
409.58	3510.22
409.79	3571.66
410.00	3532.75
410.21	3479.50
410.43	3522.51
410.64	3526.60
410.85	3528.65
411.06	3520.46
411.27	3577.80
411.48	3633.10
411.70	3569.61
411.91	3592.14
412.12	3758.02
412.33	3737.54
412.54	3545.03
412.76	3788.74
412.97	3637.19
413.18	3581.90
413.39	3610.57
413.60	3731.40
413.81	3758.02
414.03	3516.36
414.24	3682.25
414.45	3913.67
414.66	3626.95
414.87	3737.54
415.08	3776.45
415.30	3817.41
415.51	3712.97
415.72	3708.87
415.93	3780.55
416.14	3837.89
416.35	3821.51
416.56	3764.17
416.78	3909.57
416.99	3962.82
417.20	3772.36
417.41	3964.87
417.62	3903.43
417.83	3923.91
418.04	3958.72
418.26	4001.73
418.47	3903.43
418.68	4114.37
418.89	4001.73
419.10	4130.75
419.31	4048.83
419.52	4202.43
419.73	3987.40
419.95	4075.46
420.16	4018.11
420.37	3979.20
420.58	4175.81
420.79	3823.56
421.00	4091.84
421.21	4196.29
421.42	4147.14
421.63	4110.27
421.85	4190.14
422.06	4140.99
422.27	4206.53
422.48	4296.64
422.69	4188.10
422.90	4267.97
423.11	4464.57
423.32	4374.46
423.53	4503.48
423.75	4288.45
423.96	4587.45
424.17	4458.43
424.38	4562.87
424.59	4374.46
424.80	4618.17
425.01	4448.19
425.22	4409.28
425.43	4587.45
425.64	4700.09
425.85	4554.68
426.06	4540.35
426.28	4614.07
426.49	4472.76
426.70	4583.35
426.91	4712.38
427.12	4841.40
427.33	4784.06
427.54	4687.80
427.75	4687.80
427.96	4798.39
428.17	4685.75
428.38	4857.78
428.59	4913.08
428.80	4982.71
429.01	4988.85
429.23	4814.77
429.44	5054.39
429.65	5029.81
429.86	5109.68
430.07	4974.52
430.28	4818.87
430.49	5130.16
430.70	5164.98
430.91	5271.47
431.12	5089.20
431.33	5025.72
431.54	5244.85
431.75	5132.21
431.96	5132.21
432.17	5195.70
432.38	5181.36
432.59	5349.29
432.80	5238.70
433.01	5459.88
433.22	5373.87
433.43	5246.90
433.64	5386.16
433.85	5441.45
434.06	5414.83
434.27	5287.86
434.49	5488.56
434.70	5525.42
434.91	5570.48
435.12	5525.42
435.33	5562.28
435.54	5537.71
435.75	5373.87
435.96	5392.30
436.17	5517.23
436.38	5568.43
436.59	5717.93
436.80	5654.44
437.01	5748.65
437.22	5777.32
437.43	5734.31
437.64	5468.08
437.85	5717.93
438.06	5703.59
438.27	5851.05
438.48	5742.50
438.69	5863.33
438.90	5957.54
439.11	5722.02
439.32	5932.97
439.53	5896.10
439.74	5824.42
439.95	5992.36
440.16	5965.73
440.37	5967.78
440.57	5932.97
440.78	6033.32
440.99	5973.92
441.20	6104.99
441.41	5879.72
441.62	6135.71
441.83	5822.38
442.04	6098.85
442.25	6119.33
442.46	6102.95
442.67	6317.98
442.88	6551.45
443.09	6098.85
443.30	6068.13
443.51	6268.83
443.72	6504.35
443.93	6141.86
444.14	6569.88
444.35	6053.80
444.56	6422.43
444.77	6383.52
444.98	6395.81
445.19	6508.44
445.40	6305.70
445.61	6328.22
445.81	6582.17
446.02	6512.54
446.23	6557.60
446.44	6350.75
446.65	6682.52
446.86	6616.99
447.07	6500.25
447.28	6705.05
447.49	6571.93
447.70	6705.05
447.91	6842.26
448.12	6766.49
448.33	6737.82
448.54	6854.55
448.74	6590.36
448.95	6844.31
449.16	6666.14
449.37	7057.30
449.58	6985.62
449.79	6997.91
450.00	6827.93
450.21	6981.53
450.42	7122.84
450.63	7073.68
450.84	7049.11
451.05	7116.69
451.25	6999.96
451.46	6987.67
451.67	7217.04
451.88	7188.37
452.09	7161.75
452.30	7233.43
452.51	7253.91
452.72	7460.75
452.93	7710.60
453.13	7169.94
453.34	7303.06
453.55	7450.51
453.76	7294.86
453.97	7784.33
454.18	7364.50
454.39	7651.21
454.60	7511.95
454.81	7575.44
455.01	7833.48
455.22	7495.57
455.43	7659.40
455.64	7802.76
455.85	8015.75
456.06	7978.89
456.27	7913.35
456.48	7835.53
456.68	7808.90
456.89	8124.29
457.10	8216.45
457.31	7985.03
457.52	8089.48
457.73	8183.68
457.94	8238.98
458.14	8048.52
458.35	8298.37
458.56	8337.28
458.77	8159.11
458.98	8228.74
459.19	8494.97
459.39	8523.65
459.60	8658.81
459.81	8591.23
460.02	8544.13
460.23	8712.06
460.44	8814.46
460.65	8750.97
460.85	8742.78
461.06	8757.11
461.27	8759.16
461.48	8986.49
461.69	8988.53
461.89	8683.39
462.10	8970.10
462.31	9066.36
462.52	8867.70
462.73	9092.98
462.94	9172.85
463.14	9414.51
463.35	9172.85
463.56	9760.62
463.77	9547.63
463.98	9453.42
464.18	9357.17
464.39	9545.58
464.60	9949.03
464.81	9572.21
465.02	9582.45
465.23	9918.31
465.43	9637.74
465.64	9918.31
465.85	9906.02
466.06	9887.59
466.27	10096.49
466.47	10127.21
466.68	10057.57
466.89	9920.36
467.10	10387.30
467.30	10127.21
467.51	10397.54
467.72	10747.74
467.93	10307.43
468.14	10557.28
468.34	10620.77
468.55	10667.87
468.76	10850.14
468.97	10516.32
469.17	10921.82
469.38	11165.53
469.59	11112.28
469.80	10786.65
470.01	10956.63
470.21	11009.88
470.42	11226.96
470.63	11396.95
470.84	11212.63
471.04	11548.50
471.25	11407.19
471.46	11571.02
471.67	11536.21
471.87	11638.61
472.08	11818.83
472.29	12001.10
472.50	11585.36
472.70	11679.57
472.91	11732.81
473.12	12048.20
473.33	12056.39
473.53	12193.61
473.74	12033.86
473.95	12336.96
474.16	12414.79
474.36	12271.43
474.57	12377.92
474.78	12668.73
474.99	12775.23
475.19	12543.81
475.40	12824.38
475.61	12922.68
475.81	13004.60
476.02	13266.74
476.23	13246.26
476.44	13016.89
476.64	13444.91
476.85	13829.93
477.06	13510.45
477.27	13793.07
477.47	13958.96
477.68	13639.47
477.89	13934.38
478.09	14059.31
478.30	13989.67
478.51	14137.13
478.71	14315.30
478.92	14405.41
479.13	14548.77
479.34	14616.35
479.54	14626.59
479.75	14769.95
479.96	14896.92
480.16	14898.97
480.37	14941.98
480.58	15359.77
480.78	15138.58
480.99	15075.10
481.20	15451.92
481.41	15537.94
481.61	15562.51
481.82	15638.29
482.03	15623.95
482.23	15812.37
482.44	15929.10
482.65	16123.66
482.85	16174.86
483.06	16371.46
483.27	16207.62
483.47	16142.09
483.68	16355.08
483.89	16572.16
484.09	16541.44
484.30	16582.40
484.51	17018.62
484.71	16852.73
484.92	17041.15
485.13	17270.52
485.33	17143.55
485.54	17254.14
485.75	17553.14
485.95	17655.54
486.16	17438.45
486.37	17643.25
486.57	17739.51
486.78	17739.51
486.98	17772.27
487.19	18042.60
487.40	18198.25
487.60	18112.24
487.81	18421.48
488.02	18149.10
488.22	18265.83
488.43	18441.96
488.64	18542.31
488.84	18669.28
489.05	18835.17
489.25	18642.66
489.46	19207.90
489.67	18849.50
489.87	19416.79
490.08	19363.54
490.29	19556.05
490.49	19699.41
490.70	19736.27
490.90	19873.49
491.11	19627.73
491.32	19908.30
491.52	19746.51
491.73	20055.76
491.94	19977.94
492.14	20106.96
492.35	20342.47
492.55	20465.35
492.76	20473.54
492.97	20694.72
493.17	20297.42
493.38	20704.96
493.58	21139.13
493.79	20915.90
494.00	20905.66
494.20	20920.00
494.41	21153.47
494.61	21327.55
494.82	21298.88
495.02	21186.24
495.23	21698.23
495.44	21483.19
495.64	21903.03
495.85	21737.14
496.05	22044.34
496.26	21767.86
496.47	22245.04
496.67	22052.53
496.88	22572.71
497.08	22255.28
497.29	22296.24
497.49	22288.04
497.70	22748.84
497.91	22681.25
498.11	22812.32
498.32	23027.36
498.52	23023.26
498.73	23191.20
498.93	23037.60
499.14	23334.56
499.34	23094.94
499.55	23334.56
499.76	23049.89
499.96	23322.27
500.17	23277.21
500.37	23461.53
500.58	23682.71
500.78	23639.70
500.99	23819.92
501.19	24112.78
501.40	23881.36
501.60	24106.64
501.81	24239.76
502.02	23873.17
502.22	24055.44
502.43	24422.03
502.63	24645.26
502.84	24774.28
503.04	24297.10
503.25	24673.93
503.45	24757.89
503.66	24862.34
503.86	24794.76
504.07	25001.60
504.27	24712.84
504.48	25126.53
504.68	25140.86
504.89	25579.13
505.09	25403.00
505.30	25247.36
505.50	25415.29
505.71	25353.85
505.91	25511.55
506.12	25480.83
506.32	25740.92
506.53	25607.80
506.73	25583.23
506.94	25958.00
507.14	25681.53
507.35	25763.45
507.55	25978.48
507.76	26095.22
507.96	25890.42
508.17	26187.38
508.37	26271.34
508.58	26015.35
508.78	26291.82
508.99	26674.79
509.19	26441.32
509.40	26271.34
509.60	26541.68
509.81	26627.69
510.01	26539.63
510.22	26586.73
510.42	26773.10
510.63	26990.18
510.83	26734.18
511.04	26844.77
511.24	27090.53
511.44	26883.69
511.65	27057.76
511.85	27074.15
512.06	27113.06
512.26	27184.74
512.47	27250.27
512.67	26908.26
512.88	27285.09
513.08	26926.69
513.29	27336.29
513.49	27553.37
513.69	27330.14
513.90	27414.11
514.10	27745.88
514.31	27725.40
514.51	27745.88
514.72	27709.02
514.92	27639.39
515.13	27827.80
515.33	28059.22
515.53	27788.89
515.74	27960.92
515.94	28339.79
516.15	28198.48
516.35	28208.72
516.56	28223.06
516.76	28229.20
516.96	28094.04
517.17	28208.72
517.37	28569.16
517.58	28368.46
517.78	28468.81
517.99	28415.57
518.19	28819.02
518.39	29095.49
518.60	28745.29
518.80	28919.37
519.01	28765.77
519.21	28862.02
519.41	28855.88
519.62	28800.58
519.82	29193.79
520.03	29302.34
520.23	29169.22
520.43	29154.88
520.64	29267.52
520.84	29728.31
521.05	29449.79
521.25	29722.17
521.45	29574.72
521.66	30125.62
521.86	29566.52
522.07	29847.10
522.27	29836.86
522.47	29799.99
522.68	30328.37
522.88	29931.06
523.08	30273.07
523.29	30035.51
523.49	30297.65
523.70	30498.35
523.90	30713.39
524.10	30598.70
524.31	30996.01
524.51	30185.01
524.71	30869.03
524.92	30871.08
525.12	31028.77
525.33	31022.63
525.53	30926.38
525.73	31362.59
525.94	31376.93
526.14	31192.61
526.34	31327.78
526.55	31520.29
526.75	31583.77
526.95	31839.77
527.16	31819.29
527.36	31759.90
527.56	32151.06
527.77	32042.52
527.97	32015.90
528.17	31927.83
528.38	32349.71
528.58	32484.88
528.78	32474.64
528.99	32564.75
529.19	32931.34
529.39	32448.02
529.60	32857.61
529.80	32687.63
530.00	32884.23
530.21	33254.92
530.41	33302.02
530.61	33068.55
530.82	33318.40
531.02	33244.68
531.22	33457.67
531.43	33684.99
531.63	33539.58
531.83	33797.63
532.04	34082.30
532.24	33623.55
532.44	34229.75
532.64	34407.92
532.85	34018.81
533.05	34391.54
533.25	34549.23
533.46	34469.36
533.66	34651.63
533.86	34641.39
534.07	35030.51
534.27	34510.32
534.47	35194.34
534.67	35110.38
534.88	35278.31
535.08	35317.22
535.28	35444.20
535.49	35476.96
535.69	35880.41
535.89	35708.38
536.09	35919.32
536.30	36177.37
536.50	36203.99
536.70	36208.09
536.91	35745.25
537.11	36302.29
537.31	36468.18
537.51	36429.27
537.72	36558.29
537.92	36574.67
538.12	37041.61
538.32	36734.42
538.53	36857.29
538.73	36933.07
538.93	36984.27
539.13	37209.54
539.34	37027.28
539.54	37348.81
539.74	37393.86
539.94	37746.11
540.15	37531.08
540.35	37307.85
540.55	37578.18
540.75	38190.52
540.96	37883.33
541.16	38147.51
541.36	38073.79
541.56	38155.71
541.77	38053.31
541.97	38690.23
542.17	38516.15
542.37	38569.40
542.58	38903.21
542.78	38532.53
542.98	38722.99
543.18	38716.85
543.38	38931.89
543.59	39157.16
543.79	38895.02
543.99	39255.46
544.19	39159.21
544.40	39003.56
544.60	39597.48
544.80	39658.91
545.00	39450.02
545.20	39384.49
545.41	39224.75
545.61	39257.51
545.81	39652.77
546.01	39871.90
546.21	39925.15
546.42	39617.96
546.62	40471.96
546.82	39808.42
547.02	40078.75
547.22	40277.40
547.43	39908.77
547.63	40170.91
547.83	40424.86
548.03	40158.62
548.23	40580.50
548.44	40752.53
548.64	40779.15
548.84	40590.74
549.04	40572.31
549.24	40713.62
549.45	40922.51
549.65	40867.22
549.85	41190.80
550.05	40914.32
550.25	40998.29
550.45	41536.90
550.66	41147.79
550.86	41039.25
551.06	41194.89
551.26	41469.32
551.46	41119.12
551.66	41258.38
551.87	41295.24
552.07	41690.50
552.27	41487.75
552.47	41674.12
552.67	41796.99
552.87	41817.47
553.07	42167.68
553.28	42128.77
553.48	42134.91
553.68	42067.33
553.88	42198.40
554.08	42030.46
554.28	41622.92
554.48	42153.34
554.69	42089.85
554.89	42206.59
555.09	42239.36
555.29	42153.34
555.49	42546.55
555.69	42898.80
555.89	42429.82
556.10	42423.67
556.30	42587.51
556.50	42589.56
556.70	42411.38
556.90	42712.44
557.10	42931.57
557.30	42378.62
557.50	43148.65
557.70	42939.76
557.91	43507.05
558.11	43140.46
558.31	43279.72
558.51	42782.07
558.71	43312.49
558.91	43408.75
559.11	42952.05
559.31	43265.39
559.51	43064.69
559.72	43101.55
559.92	43126.13
560.12	42904.95
560.32	43277.68
560.52	43304.30
560.72	43728.23
560.92	43605.35
561.12	43576.68
561.32	43650.41
561.52	42866.03
561.72	43795.81
561.93	43369.83
562.13	43466.09
562.33	43443.56
562.53	43928.93
562.73	43595.11
562.93	43591.01
563.13	43799.91
563.33	43373.93
563.53	44242.27
563.73	43455.85
563.93	43836.77
564.13	44299.61
564.33	43840.87
564.53	43808.10
564.74	44115.29
564.94	44180.83
565.14	44205.41
565.34	43701.61
565.54	44156.25
565.74	44086.62
565.94	44229.98
566.14	44201.31
566.34	44324.19
566.54	44490.07
566.74	44246.36
566.94	44080.48
567.14	44275.04
567.34	43824.48
567.54	44582.23
567.74	44234.08
567.94	44279.13
568.14	44782.93
568.34	44856.66
568.54	44653.91
568.74	44639.57
568.94	44838.23
569.14	44848.47
569.34	44950.87
569.54	44795.22
569.75	44377.43
569.95	44725.59
570.15	44873.04
570.35	45018.45
570.55	44485.98
570.75	44709.21
570.95	44574.04
571.15	45073.74
571.35	45170.00
571.55	45389.13
571.75	44963.15
571.95	45520.20
572.15	44961.11
572.35	45280.59
572.55	45036.88
572.75	45081.94
572.95	45436.23
573.15	45536.59
573.35	45593.93
573.55	45387.08
573.75	45249.87
573.95	45700.42
574.15	45129.04
574.35	45712.71
574.55	45274.45
574.75	45405.52
574.95	45591.88
575.15	45598.02
575.34	45718.85
575.54	46056.77
575.74	46026.05
575.94	46103.87
576.14	45833.54
576.34	46171.46
576.54	46247.23
576.74	46046.53
576.94	45804.87
577.14	46714.17
577.34	46249.28
577.54	46363.96
577.74	46488.89
577.94	46206.27
578.14	46208.32
578.34	46775.61
578.54	45856.07
578.74	46431.55
578.94	46902.58
579.14	46474.55
579.34	46748.98
579.54	46642.49
579.74	46974.26
579.94	46689.59
580.13	47058.23
580.33	47047.99
580.53	47228.21
580.73	47052.08
580.93	47138.10
581.13	47029.55
581.33	47357.23
581.53	47308.08
581.73	47273.26
581.93	47609.13
582.13	47609.13
582.33	47779.11
582.53	47652.14
582.73	47670.57
582.92	47875.37
583.12	47951.14
583.32	47666.47
583.52	48209.18
583.72	47998.24
583.92	47631.66
584.12	47920.42
584.32	48344.35
584.52	48139.55
584.72	48325.92
584.92	48397.60
585.11	48753.94
585.31	48495.90
585.51	48278.82
585.71	48248.10
585.91	48807.19
586.11	48401.69
586.31	48438.56
586.51	48557.34
586.71	48395.55
586.91	48665.88
587.10	49083.67
587.30	49057.04
587.50	49104.15
587.70	48893.21
587.90	49220.88
588.10	49042.71
588.30	48950.55
588.50	49181.97
588.69	48887.06
588.89	48928.02
589.09	49659.15
589.29	49347.86
589.49	49650.95
589.69	49130.77
589.89	49665.29
590.08	49583.37
590.28	49698.06
590.48	48891.16
590.68	49364.24
590.88	49466.64
591.08	49718.54
591.28	49636.62
591.47	50140.42
591.67	50013.44
591.87	49974.53
592.07	50617.60
592.27	50185.47
592.47	50613.50
592.67	49882.37
592.86	50179.33
593.06	50597.12
593.26	50142.47
593.46	50507.01
593.66	50586.88
593.86	50691.32
594.05	50586.88
594.25	50900.22
594.45	50402.56
594.65	50744.57
594.85	50132.23
595.05	51131.64
595.24	50910.46
595.44	51049.72
595.64	51131.64
595.84	51027.19
596.04	50685.18
596.23	51420.40
596.43	51698.92
596.63	51358.96
596.83	51209.46
597.03	51606.76
597.22	51692.78
597.42	51684.59
597.62	51889.38
597.82	51520.75
598.02	51829.99
598.21	52096.23
598.41	51848.42
598.61	51866.86
598.81	52468.96
599.01	52145.38
599.20	52079.85
599.40	52032.74
599.60	52280.55
599.80	52387.04
600.00	52395.23
600.19	52946.14
600.39	52368.61
600.59	52516.06
600.79	52360.42
600.98	52352.23
601.18	52708.57
601.38	52411.62
601.58	52856.03
601.78	53255.38
601.97	52563.17
602.17	53408.98
602.37	53040.34
602.57	53191.89
602.76	53609.68
602.96	52987.10
603.16	53447.89
603.36	53470.42
603.55	53656.78
603.75	53761.23
603.95	53759.18
604.15	53779.66
604.34	53685.45
604.54	54115.53
604.74	53716.17
604.94	53644.49
605.13	54215.88
605.33	53777.61
605.53	53392.59
605.73	54428.87
605.92	53935.30
606.12	54277.32
606.32	54435.01
606.52	54332.61
606.71	54019.27
606.91	54478.02
607.11	54076.61
607.30	54023.37
607.50	54248.64
607.70	54699.20
607.90	54273.22
608.09	54297.80
608.29	54584.51
608.49	55014.58
608.68	54555.84
608.88	55033.02
609.08	54744.25
609.28	54676.67
609.47	54316.23
609.67	55465.14
609.87	54693.05
610.06	55188.66
610.26	54772.92
610.46	54844.60
610.66	54983.86
610.85	55162.04
611.05	54809.79
611.25	55475.38
611.44	55086.26
611.64	55370.93
611.84	55071.93
612.03	55231.67
612.23	55317.68
612.43	55362.74
612.62	55082.17
612.82	55465.14
613.02	55545.01
613.21	55084.22
613.41	55256.24
613.61	55274.68
613.80	54654.14
614.00	55522.48
614.20	55231.67
614.39	55469.23
614.59	55272.63
614.79	55563.44
614.98	55502.00
615.18	55325.88
615.38	55559.34
615.57	55428.27
615.77	55487.67
615.97	55166.13
616.16	55125.17
616.36	55436.47
616.56	55532.72
616.75	55465.14
616.95	55276.72
617.15	55518.38
617.34	55624.88
617.54	55321.78
617.74	55676.08
617.93	55551.15
618.13	55375.03
618.32	55653.55
618.52	55307.44
618.72	55551.15
618.91	55588.02
619.11	55393.46
619.31	55532.72
619.50	55616.69
619.70	55626.93
619.90	55366.84
620.09	55792.81
620.29	55289.01
620.48	55542.96
620.68	56067.24
620.88	55112.89
621.07	55260.34
621.27	55712.94
621.46	55166.13
621.66	55674.03
621.86	55719.09
622.05	55465.14
622.25	55491.76
622.44	55289.01
622.64	55291.06
622.84	55743.66
623.03	55153.85
623.23	55489.71
623.42	54910.14
623.62	55727.28
623.82	55981.23
624.01	55090.36
624.21	55530.67
624.40	55680.17
624.60	55090.36
624.80	55149.75
624.99	55465.14
625.19	54998.20
625.38	55551.15
625.58	55186.61
625.77	55493.81
625.97	55645.36
626.17	54631.61
626.36	55383.22
626.56	55522.48
626.75	54813.88
626.95	55456.95
627.14	54736.06
627.34	55379.12
627.54	55217.33
627.73	55536.82
627.93	55426.23
628.12	54858.94
628.32	55512.24
628.51	55100.60
628.71	54916.28
628.90	55139.51
629.10	55151.80
629.30	55108.79
629.49	55153.85
629.69	54660.29
629.88	54990.01
630.08	55481.52
630.27	55256.24
630.47	55428.27
630.66	55055.54
630.86	55489.71
631.05	54875.32
631.25	55471.28
631.44	55252.15
631.64	55260.34
631.84	55229.62
632.03	55284.92
632.23	55180.47
632.42	55518.38
632.62	55260.34
632.81	54910.14
633.01	55268.53
633.20	55432.37
633.40	55030.97
633.59	55026.87
633.79	55162.04
633.98	55297.20
634.18	55344.31
634.37	55358.64
634.57	55116.98
634.76	55430.32
634.96	55741.61
635.15	55215.29
635.35	55071.93
635.54	54965.43
635.74	55635.12
635.93	54844.60
636.13	55377.08
636.32	55037.11
636.52	54754.49
636.71	55499.95
636.91	55002.30
637.10	55295.16
637.30	55276.72
637.49	54949.05
637.69	55016.63
637.88	55567.54
638.08	54711.49
638.27	54910.14
638.46	55133.37
638.66	54469.82
638.85	54889.66
639.05	55336.12
639.24	55018.68
639.44	54922.43
639.63	55020.73
639.83	55233.72
640.02	55313.59
640.22	54994.10
640.41	55254.20
640.61	55006.39
640.80	55284.92
640.99	55137.46
641.19	55743.66
641.38	55475.38
641.58	55547.06
641.77	54996.15
641.97	54625.47
642.16	55252.15
642.36	55518.38
642.55	55612.59
642.74	54719.68
642.94	55700.65
643.13	55198.90
643.33	55119.03
643.52	55268.53
643.72	55622.83
643.91	55252.15
644.10	55465.14
644.30	55516.34
644.49	54910.14
644.69	55626.93
644.88	55219.38
645.08	55452.85
645.27	54879.42
645.46	55159.99
645.66	55329.97
645.85	55366.84
646.05	56007.85
646.24	55612.59
646.43	56057.00
646.63	55977.13
646.82	55868.59
647.02	55649.45
647.21	55596.21
647.40	55954.60
647.60	55837.87
647.79	55741.61
647.99	55973.03
648.18	55708.85
648.37	56272.04
648.57	56163.50
648.76	55743.66
648.96	55878.83
649.15	55835.82
649.34	55770.28
649.54	55641.26
649.73	55645.36
649.92	56290.47
650.12	56126.63
650.31	55983.27
650.51	55964.84
650.70	56386.72
650.89	55833.77
651.09	56310.95
651.28	56333.48
651.47	56405.16
651.67	56222.89
651.86	56532.13
652.06	56116.39
652.25	56226.98
652.44	56255.65
652.64	55956.65
652.83	56020.14
653.02	55968.94
653.22	56210.60
653.41	56001.71
653.60	55927.98
653.80	55989.42
653.99	56149.16
654.18	55764.14
654.38	56059.05
654.57	56419.49
654.76	56280.23
654.96	56337.57
655.15	56181.93
655.34	55661.74
655.54	56290.47
655.73	56380.58
655.92	56534.18
656.12	56478.88
656.31	56044.71
656.50	56517.79
656.70	56628.38
656.89	56503.46
657.08	56575.14
657.28	56253.61
657.47	56661.15
657.66	56827.04
657.86	56145.06
658.05	56501.41
658.24	56636.58
658.43	56546.47
658.63	56843.42
658.82	56820.89
659.01	56652.96
659.21	56753.31
659.40	57021.59
659.59	56751.26
659.79	56747.17
659.98	56880.28
660.17	56917.15
660.36	56755.36
660.56	56761.50
660.75	56687.78
660.94	57074.84
661.14	56566.94
661.33	56472.74
661.52	56378.53
661.71	56734.88
661.91	56732.83
662.10	56556.70
662.29	57273.49
662.49	57019.55
662.68	56239.27
662.87	56759.45
663.06	57015.45
663.26	56673.44
663.45	57310.36
663.64	57128.09
663.83	57226.39
664.03	57234.58
664.22	56601.76
664.41	57384.08
664.60	56616.10
664.80	56986.78
664.99	56915.10
665.18	56646.82
665.37	57074.84
665.57	56874.14
665.76	56956.06
665.95	56976.54
666.14	57283.73
666.34	56857.76
666.53	57146.52
666.72	56894.62
666.91	57121.94
667.11	56984.73
667.30	57130.14
667.49	57506.96
667.68	56972.44
667.87	57105.56
668.07	57334.93
668.26	57017.50
668.45	57078.94
668.64	56646.82
668.84	57689.23
669.03	57558.16
669.22	57103.51
669.41	57189.53
669.60	57271.45
669.80	57302.17
669.99	57390.23
670.18	57513.11
670.37	57427.09
670.57	57414.80
670.76	57146.52
670.95	57644.18
671.14	57562.26
671.33	57115.80
671.53	57750.67
671.72	57447.57
671.91	57635.98
672.10	57922.70
672.29	57207.96
672.48	57275.54
672.68	57537.68
672.87	57496.72
673.06	57189.53
673.25	57093.27
673.44	57296.02
673.64	57359.51
673.83	57183.38
674.02	57459.86
674.21	57058.46
674.40	57375.89
674.59	57093.27
674.79	57050.27
674.98	56640.67
675.17	57390.23
675.36	56831.13
675.55	57222.29
675.74	56738.97
675.94	57017.50
676.13	57699.47
676.32	56980.63
676.51	57562.26
676.70	57455.76
676.89	57402.52
677.08	57848.97
677.28	56546.47
677.47	57812.11
677.66	57967.76
677.85	57386.13
678.04	57425.04
678.23	57971.85
678.42	57539.73
678.62	57334.93
678.81	57726.10
679.00	57105.56
679.19	57840.78
679.38	57574.55
679.57	57447.57
679.76	56982.68
679.96	57810.06
680.15	57275.54
680.34	57150.62
680.53	57056.41
680.72	57472.15
680.91	57459.86
681.10	57046.17
681.29	57332.89
681.48	57285.78
681.68	57083.03
681.87	56868.00
682.06	57402.52
682.25	57001.11
682.44	56958.11
682.63	57179.29
682.82	56612.00
683.01	57015.45
683.20	57003.16
683.39	57095.32
683.59	56915.10
683.78	56777.89
683.97	56800.41
684.16	56831.13
684.35	56698.01
684.54	56519.84
684.73	56882.33
684.92	56954.01
685.11	56921.24
685.30	56724.64
685.49	56911.00
685.69	56536.23
685.88	56804.51
686.07	56988.83
686.26	56550.56
686.45	56919.20
686.64	56847.52
686.83	56923.29
687.02	56652.96
687.21	56915.10
687.40	56407.20
687.59	57005.21
687.78	56718.49
687.97	56990.87
688.16	56806.56
688.35	56472.74
688.54	56554.66
688.74	56614.05
688.93	56226.98
689.12	56837.28
689.31	56577.18
689.50	56417.44
689.69	56067.24
689.88	56065.19
690.07	56550.56
690.26	56548.51
690.45	56976.54
690.64	56411.30
690.83	55960.75
691.02	56016.04
691.21	55991.47
691.40	55985.32
691.59	56091.82
691.78	56214.69
691.97	56218.79
692.16	56368.29
692.35	56360.10
692.54	56601.76
692.73	55981.23
692.92	56153.26
693.11	55977.13
693.30	56202.41
693.49	55981.23
693.68	55557.30
693.87	56009.90
694.06	55336.12
694.25	55805.10
694.44	55778.48
694.63	55540.91
694.82	55839.92
695.01	55547.06
695.20	55807.15
695.39	55706.80
695.58	55893.16
695.77	55555.25
695.96	55450.80
696.15	55676.08
696.34	55444.66
696.53	55125.17
696.72	55354.55
696.91	55456.95
697.10	55360.69
697.29	55301.30
697.48	55100.60
697.67	54940.86
697.86	55028.92
698.05	55041.21
698.24	55190.71
698.43	54768.83
698.62	54998.20
698.81	54987.96
699.00	55315.64
699.19	54648.00
699.38	54916.28
699.57	54285.51
699.76	55444.66
699.95	55014.58
700.14	54777.02
700.32	55098.55
700.51	54631.61
700.70	54971.58
700.89	55026.87
701.08	54764.73
701.27	54310.08
701.46	55047.35
701.65	54043.85
701.84	54211.78
702.03	54480.06
702.22	54262.98
702.41	54604.99
702.60	54322.37
702.79	54416.58
702.98	53957.83
703.17	54250.69
703.35	54375.62
703.54	53863.63
703.73	54191.30
703.92	54033.61
704.11	54404.29
704.30	53789.90
704.49	53769.42
704.68	53900.49
704.87	53998.79
705.06	54174.92
705.25	53710.03
705.43	53615.82
705.62	53812.43
705.81	53796.04
706.00	53619.92
706.19	53523.66
706.38	53306.58
706.57	53550.29
706.76	53384.40
706.95	53390.55
707.14	52919.51
707.32	53574.86
707.51	52956.38
707.70	53546.19
707.89	53974.22
708.08	53312.72
708.27	53228.76
708.46	53896.39
708.65	53441.74
708.84	53032.15
709.02	53296.34
709.21	53318.87
709.40	52765.91
709.59	53482.70
709.78	53019.86
709.97	52903.13
710.16	52894.94
710.34	52585.69
710.53	52737.24
710.72	52327.65
710.91	52612.32
711.10	52845.79
711.29	52767.96
711.48	52925.66
711.66	52454.62
711.85	52341.99
712.04	52552.93
712.23	52499.68
712.42	52282.59
712.61	52212.96
712.80	52266.21
712.98	52288.74
713.17	52309.22
713.36	52163.81
713.55	51942.63
713.74	51950.82
713.93	52176.10
714.11	52436.19
714.30	51584.24
714.49	51705.07
714.68	52311.27
714.87	51778.79
715.06	51936.49
715.24	51539.18
715.43	51586.28
715.62	51311.86
715.81	51619.05
716.00	51508.46
716.18	51401.97
716.37	51274.99
716.56	51186.93
716.75	51758.31
716.94	51006.71
717.12	51238.13
717.31	51291.38
717.50	51023.09
717.69	51195.12
717.88	51195.12
718.06	50996.47
718.25	51045.62
718.44	50586.88
718.63	50902.26
718.82	50685.18
719.00	50732.28
719.19	50744.57
719.38	50556.16
719.57	50189.57
719.76	50525.44
719.94	49794.31
720.13	50124.04
720.32	50380.03
720.51	50093.32
720.69	49698.06
720.88	49730.83
721.07	50408.70
721.26	49329.42
721.44	49736.97
721.63	49822.98
721.82	49691.91
722.01	49640.71
722.20	49997.06
722.38	49616.14
722.57	49446.16
722.76	49147.15
722.95	49358.09
723.13	48954.64
723.32	49329.42
723.51	49241.36
723.70	48805.14
723.88	49306.90
724.07	48692.50
724.26	48911.64
724.44	48383.26
724.63	49118.48
724.82	48624.92
725.01	48938.26
725.19	48616.73
725.38	48858.39
725.57	48354.59
725.76	49077.52
725.94	48506.14
726.13	48293.15
726.32	48375.07
726.51	48575.77
726.69	48862.49
726.88	48370.97
727.07	48536.86
727.25	48184.61
727.44	48217.38
727.63	48411.93
727.82	48336.16
728.00	48170.27
728.19	48278.82
728.38	48577.82
728.56	47662.38
728.75	48932.12
728.94	48350.49
729.12	48530.72
729.31	48446.75
729.50	48033.06
729.69	48551.20
729.87	48207.14
730.06	47811.88
730.25	47979.81
730.43	48166.18
730.62	47949.09
730.81	48538.91
730.99	48389.41
731.18	48170.27
731.37	48018.72
731.55	48235.81
731.74	48244.00
731.93	48424.22
732.11	48330.01
732.30	48299.30
732.49	48076.07
732.67	47977.76
732.86	47873.32
733.05	47871.27
733.23	48129.31
733.42	47772.97
733.61	47799.59
733.79	47885.61
733.98	48600.35
734.17	47881.51
734.35	48037.16
734.54	48039.20
734.73	48145.70
734.91	47934.76
735.10	47760.68
735.29	47858.98
735.47	47508.78
735.66	47844.65
735.84	47686.95
736.03	47301.93
736.22	48160.03
736.40	47691.05
736.59	48110.88
736.78	47662.38
736.96	47752.49
737.15	47301.93
737.33	47758.63
737.52	47469.87
737.71	47166.77
737.89	47598.89
738.08	47111.47
738.27	47361.33
738.45	47742.25
738.64	47775.02
738.82	47508.78
739.01	47428.91
739.20	47041.84
739.38	47568.17
739.57	47967.52
739.75	47183.15
739.94	47189.30
740.13	47131.95
740.31	46873.91
740.50	47306.03
740.68	47246.64
740.87	47248.69
741.06	47238.45
741.24	47072.56
741.43	46798.13
741.61	46951.73
741.80	46875.96
741.99	46779.70
742.17	46789.94
742.36	47090.99
742.54	46964.02
742.73	46978.36
742.91	46933.30
743.10	47090.99
743.29	47074.61
743.47	46910.77
743.66	46759.22
743.84	46769.46
744.03	46703.93
744.21	46593.34
744.40	47043.89
744.59	46757.17
744.77	46562.62
744.96	47088.95
745.14	46787.89
745.33	46654.78
745.51	46677.30
745.70	46794.04
745.88	46867.76
746.07	46691.64
746.26	46585.15
746.44	46429.50
746.63	46699.83
746.81	46361.92
747.00	46204.22
747.18	46728.50
747.37	46431.55
747.55	46331.20
747.74	46734.65
747.92	46300.48
748.11	46347.58
748.29	46089.54
748.48	46406.97
748.66	46329.15
748.85	45544.78
749.03	46132.54
749.22	46101.82
749.41	45745.48
749.59	46077.25
749.78	45991.23
749.96	45313.36
750.15	45782.34
750.33	45727.05
750.52	45647.18
750.70	45923.65
750.89	45657.42
751.07	45528.39
751.26	45518.15
751.44	45509.96
751.63	45888.84
751.81	45550.92
752.00	45655.37
752.18	46122.30
752.37	45542.73
752.55	45421.90
752.74	45534.54
752.92	45376.84
753.10	45176.14
753.29	45407.56
753.47	45395.28
753.66	45069.65
753.84	45282.64
754.03	45143.38
754.21	44965.20
754.40	45133.14
754.58	45526.35
754.77	45012.31
754.95	44971.35
755.14	44938.58
755.32	44840.28
755.51	44735.83
755.69	45043.02
755.88	45151.57
756.06	44711.25
756.24	44633.43
756.43	44385.63
756.61	44670.29
756.80	44631.38
756.98	44549.46
757.17	45051.22
757.35	44877.14
757.54	44430.68
757.72	45049.17
757.90	44336.48
758.09	44322.14
758.27	44836.18
758.46	44688.73
758.64	44586.33
758.83	44868.95
759.01	44420.44
759.19	44643.67
759.38	44516.70
759.56	45016.40
759.75	44920.15
759.93	44256.60
760.12	44639.57
760.30	44258.65
760.48	43949.41
760.67	44311.90
760.85	44272.99
761.04	44561.75
761.22	44176.73
761.40	44440.92
761.59	44283.23
761.77	43863.39
761.96	43973.98
762.14	43781.48
762.32	43918.69
762.51	43877.73
762.69	43806.05
762.88	43875.68
763.06	43910.50
763.24	43928.93
763.43	43771.24
763.61	43892.07
763.80	43988.32
763.98	43890.02
764.16	43576.68
764.35	43904.35
764.53	43269.48
764.72	43513.19
764.90	43564.39
765.08	43488.62
765.27	43646.31
765.45	43083.12
765.63	42831.22
765.82	43636.07
766.00	43119.98
766.18	43371.88
766.37	43738.47
766.55	43216.24
766.74	43154.80
766.92	43152.75
767.10	43488.62
767.29	42952.05
767.47	42599.80
767.65	43036.02
767.84	42616.18
768.02	43085.17
768.20	42433.91
768.39	42444.15
768.57	42714.48
768.75	42505.59
768.94	42743.16
769.12	42626.42
769.30	42530.17
769.49	42466.68
769.67	42605.94
769.85	42136.96
770.04	42472.82
770.22	42032.51
770.40	41954.69
770.59	41805.19
770.77	42655.09
770.95	42431.86
771.14	41987.46
771.32	41680.26
771.50	41760.13
771.69	41887.10
771.87	42399.10
772.05	42065.28
772.24	41522.57
772.42	41964.93
772.60	41547.14
772.78	41303.43
772.97	41287.05
773.15	41581.96
773.33	41444.74
773.52	41518.47
773.70	41577.86
773.88	41825.67
774.07	41551.24
774.25	41569.67
774.43	41991.55
774.61	41702.79
774.80	41362.82
774.98	41678.21
775.16	41948.54
775.34	41753.99
775.53	41383.30
775.71	41653.64
775.89	41756.03
776.08	41794.95
776.26	41749.89
776.44	41590.15
776.62	41588.10
776.81	41653.64
776.99	41964.93
777.17	41622.92
777.35	41792.90
777.54	42204.54
777.72	41893.25
777.90	41969.02
778.08	41909.63
778.27	41913.73
778.45	42417.53
778.63	42423.67
778.81	41985.41
779.00	42448.25
779.18	42366.33
779.36	42511.74
779.54	41932.16
779.73	42182.01
779.91	42460.54
780.09	42593.65
780.27	42143.10
780.46	42161.53
780.64	42438.01
780.82	42147.20
781.00	42229.12
781.19	42433.91
781.37	42530.17
781.55	42620.28
781.73	42616.18
781.91	42259.84
782.10	42124.67
782.28	42536.31
782.46	43007.34
782.64	42665.33
782.82	42382.71
783.01	42597.75
783.19	42681.72
783.37	42906.99
783.55	43009.39
783.74	42810.74
783.92	42689.91
784.10	42970.48
784.28	43105.65
784.46	42466.68
784.64	42472.82
784.83	42607.99
785.01	42712.44
785.19	42472.82
785.37	42550.65
785.55	42468.73
785.74	42186.11
785.92	42491.26
786.10	42679.67
786.28	42947.95
786.46	42689.91
786.64	42251.64
786.83	42083.71
787.01	42653.05
787.19	42360.19
787.37	42501.50
787.55	42616.18
787.74	42372.47
787.92	42249.60
788.10	41993.60
788.28	42001.79
788.46	42311.03
788.64	41917.82
788.82	42313.08
789.01	41850.24
789.19	42030.46
789.37	41776.51
789.55	41690.50
789.73	41385.35
789.91	41647.49
790.09	41213.32
790.28	41362.82
790.46	41112.97
790.64	41710.98
790.82	41571.72
791.00	40877.46
791.18	41127.31
791.36	40789.39
791.55	41088.40
791.73	40742.29
791.91	40500.63
792.09	40945.04
792.27	40963.47
792.45	40748.43
792.63	40885.65
792.81	40197.53
793.00	40539.54
793.18	40347.03
793.36	40474.01
793.54	40177.05
793.72	40007.07
793.90	40015.26
794.08	39761.31
794.26	39974.30
794.44	39351.72
794.62	39280.04
794.81	39908.77
794.99	39732.64
795.17	39761.31
795.35	39044.52
795.53	39638.44
795.71	39222.70
795.89	39464.36
796.07	38933.93
796.25	38555.06
796.43	38659.51
796.61	38524.34
796.80	38477.24
796.98	38663.60
797.16	38303.16
797.34	38335.93
797.52	38593.97
797.70	38528.44
797.88	38346.17
798.06	37567.94
798.24	38270.39
798.42	37836.22
798.60	38225.34
798.78	37641.67
798.96	38149.56
799.14	37543.36
799.32	37316.04
799.51	37432.77
799.69	37819.84
799.87	37506.50
800.05	37035.47
800.23	37109.19
800.41	36928.97
800.59	37084.62
800.77	36883.92
800.95	36597.20
801.13	36734.42
801.31	36683.22
801.49	36562.39
801.67	36367.83
801.85	36498.90
802.03	36148.70
802.21	36140.50
802.39	36036.06
802.57	35972.57
802.75	35794.40
802.93	35538.40
803.11	35642.85
803.29	35816.93
803.47	35347.94
803.65	35526.11
803.83	35808.73
804.01	35605.98
804.19	34770.41
804.37	35374.56
804.55	35206.63
804.73	35157.48
804.91	34844.14
805.09	35116.52
805.27	35073.51
805.45	34743.79
805.63	34776.56
805.81	34784.75
805.99	34921.96
806.17	34672.11
806.35	34551.28
806.53	34448.88
806.71	34405.88
806.89	34326.00
807.07	34059.77
807.25	34299.38
807.43	33945.08
807.61	34031.10
807.79	34033.14
807.97	33664.51
808.15	33723.90
808.33	33756.67
808.51	33859.07
808.69	33537.54
808.87	33326.60
809.05	32998.92
809.23	33435.14
809.41	32724.49
809.59	32853.51
809.77	33232.39
809.95	32724.49
810.13	33187.33
810.31	32996.87
810.49	33103.37
810.67	32896.52
810.84	32912.91
811.02	32910.86
811.20	32208.40
811.38	32566.80
811.56	32290.32
811.74	32470.54
811.92	32134.68
812.10	32343.57
812.28	32208.40
812.46	32216.60
812.64	31960.60
812.82	31725.08
813.00	32101.91
813.18	31923.74
813.36	32011.80
813.53	31397.41
813.71	31720.99
813.89	31673.88
814.07	31372.83
814.25	31315.49
814.43	31340.07
814.61	31364.64
814.79	31428.13
814.97	31102.50
815.15	31598.11
815.33	30664.24
815.50	30563.89
815.68	30983.72
815.86	31479.33
816.04	30832.17
816.22	30967.34
816.40	30740.01
816.58	30762.54
816.76	30471.73
816.94	30723.63
817.11	30580.27
817.29	30301.75
817.47	30535.21
817.65	30287.41
817.83	30422.58
818.01	30189.11
818.19	29978.17
818.37	30254.64
818.54	29906.49
818.72	30064.18
818.90	30135.86
819.08	29769.27
819.26	29886.01
819.44	29744.70
819.62	29746.75
819.80	30144.05
819.97	29818.42
820.15	29382.21
820.33	29265.47
820.51	29605.44
820.69	29079.11
820.87	29414.98
821.05	29646.40
821.22	29251.14
821.40	29226.56
821.58	29093.44
821.76	28874.31
821.94	28589.64
822.12	29163.08
822.29	29142.60
822.47	28892.74
822.65	29193.79
822.83	28974.66
823.01	28448.33
823.19	28773.96
823.36	28698.19
823.54	28773.96
823.72	28100.18
823.90	28491.34
824.08	28102.23
824.25	28239.44
824.43	28044.88
824.61	28270.16
824.79	28431.95
824.97	28317.26
825.15	28341.84
825.32	28065.36
825.50	28046.93
825.68	27876.95
825.86	28145.23
826.04	28194.39
826.21	28094.04
826.39	28034.64
826.57	27987.54
826.75	27866.71
826.93	27784.79
827.10	27506.27
827.28	27723.35
827.46	27629.15
827.64	27481.69
827.81	27418.21
827.99	27264.61
828.17	27117.15
828.35	27457.12
828.53	27219.55
828.70	27534.94
828.88	27108.96
829.06	27416.16
829.24	27426.40
829.41	27143.78
829.59	27397.73
829.77	26938.98
829.95	26895.97
830.12	26824.29
830.30	26979.94
830.48	27154.02
830.66	26529.39
830.84	26955.36
831.01	26875.49
831.19	26535.53
831.37	26627.69
831.55	26680.94
831.72	26455.66
831.90	26605.16
832.08	26621.55
832.25	26406.51
832.43	26429.04
832.61	26408.56
832.79	26193.52
832.96	26529.39
833.14	26580.59
833.32	26748.52
833.50	26414.70
833.67	26205.81
833.85	26279.54
834.03	26015.35
834.20	26144.37
834.38	26291.82
834.56	26037.87
834.74	26015.35
834.91	26017.40
835.09	26242.67
835.27	25726.58
835.44	25607.80
835.62	25460.35
835.80	25845.37
835.98	25618.04
836.15	25949.81
836.33	25452.16
836.51	25783.93
836.68	25673.34
836.86	25886.32
837.04	25785.97
837.21	26031.73
837.39	25441.92
837.57	25405.05
837.75	25448.06
837.92	25269.89
838.10	25351.81
838.28	25007.75
838.45	25187.97
838.63	25298.56
838.81	25353.85
838.98	25071.23
839.16	25130.62
839.34	25009.79
839.51	25267.84
839.69	24688.26
839.87	24755.85
840.04	24960.64
840.22	25020.03
840.40	24848.00
840.57	24727.17
840.75	24929.92
840.93	24663.69
841.10	24747.65
841.28	24755.85
841.46	24585.86
841.63	24514.19
841.81	24549.00
841.98	24651.40
842.16	24469.13
842.34	24610.44
842.51	24153.74
842.69	24692.36
842.87	24213.13
843.04	24698.50
843.22	24364.68
843.40	24288.91
843.57	24311.44
843.75	24325.77
843.92	24204.94
844.10	24172.18
844.28	24303.25
844.45	24282.77
844.63	24141.46
844.81	24303.25
844.98	24094.35
845.16	23801.49
845.33	24022.67
845.51	24206.99
845.69	23903.89
845.86	23678.61
846.04	23688.85
846.21	24028.82
846.39	23883.41
846.57	23819.92
846.74	23465.63
846.92	23719.57
847.09	23651.99
847.27	23553.69
847.45	23551.64
847.62	23901.84
847.80	23680.66
847.97	23756.44
848.15	23633.56
848.32	23043.74
848.50	23404.19
848.68	23367.32
848.85	23283.36
849.03	23053.98
849.20	23082.66
849.38	23391.90
849.56	23357.08
849.73	23180.96
849.91	23326.36
850.08	23295.64
850.26	23246.49
850.43	23142.05
850.61	23123.62
850.78	22898.34
850.96	22879.91
851.14	22675.11
851.31	23013.02
851.49	22605.48
851.66	23019.17
851.84	22838.95
852.01	22793.89
852.19	22986.40
852.36	22875.81
852.54	22548.14
852.71	22863.52
852.89	22867.62
853.07	22828.71
853.24	22615.72
853.42	22648.49
853.59	22482.60
853.77	22857.38
853.94	22869.67
854.12	22783.65
854.29	22576.81
854.47	22605.48
854.64	22738.60
854.82	22320.81
854.99	22480.55
855.17	22232.75
855.34	22613.67
855.52	22468.27
855.69	22498.98
855.87	22408.87
856.04	22156.97
856.22	22259.37
856.39	21802.68
856.57	22140.59
856.74	21829.30
856.92	21999.28
857.09	22185.65
857.27	22083.25
857.44	22419.11
857.62	22136.49
857.79	22144.69
857.97	21966.51
858.14	22214.32
858.32	21937.84
858.49	21831.35
858.67	21905.07
858.84	21774.00
859.02	21774.00
859.19	21681.85
859.37	21620.41
859.54	21509.82
859.72	21737.14
859.89	21470.90
860.06	21585.59
860.24	21608.12
860.41	21595.83
860.59	21104.32
860.76	21409.47
860.94	21558.97
861.11	21376.70
861.29	21679.80
861.46	21401.27
861.64	21202.62
861.81	21262.01
861.98	21282.49
862.16	21331.64
862.33	21137.09
862.51	21462.71
862.68	21329.59
862.86	21194.43
863.03	20770.50
863.21	21083.84
863.38	21151.42
863.55	20932.29
863.73	21147.33
863.90	21153.47
864.08	20846.27
864.25	20989.63
864.43	20819.65
864.60	20965.06
864.77	20895.43
864.95	20842.18
865.12	20489.93
865.30	20793.03
865.47	20643.52
865.64	20698.82
865.82	20670.15
865.99	20973.25
866.17	20483.78
866.34	21036.74
866.51	20545.22
866.69	20530.89
866.86	20559.56
867.04	20743.88
867.21	20405.96
867.38	20422.34
867.56	20379.34
867.73	19994.32
867.91	20471.50
868.08	20195.02
868.25	20180.68
868.43	20061.90
868.60	20246.22
868.78	20213.45
868.95	20195.02
869.12	20127.44
869.30	20149.96
869.47	20041.42
869.64	19914.45
869.82	20219.60
869.99	19674.84
870.16	20018.89
870.34	20010.70
870.51	20072.14
870.69	19480.28
870.86	19840.72
871.03	19896.02
871.21	19713.75
871.38	19607.25
871.55	19623.64
871.73	19822.29
871.90	19597.01
872.07	19410.65
872.25	19154.65
872.42	19537.62
872.59	19384.02
872.77	19617.49
872.94	19433.18
873.11	19447.51
873.29	19545.81
873.46	19465.94
873.63	19082.97
873.81	19324.63
873.98	19144.41
874.15	19265.24
874.33	18968.29
874.50	19173.08
874.67	19304.15
874.85	18700.00
875.02	18898.66
875.19	18861.79
875.37	18700.00
875.54	18867.94
875.71	18837.22
875.88	18583.27
876.06	18657.00
876.23	18665.19
876.40	18720.48
876.58	18779.87
876.75	18546.40
876.92	18568.93
877.10	18564.84
877.27	18595.56
877.44	18616.04
877.61	18288.36
877.79	18194.15
877.96	18231.02
878.13	18269.93
878.31	18175.72
878.48	18175.72
878.65	18128.62
878.82	17913.58
879.00	18136.81
879.17	18124.52
879.34	18380.52
879.51	17919.73
879.69	17655.54
879.86	17944.30
880.03	17886.96
880.21	17843.95
880.38	17923.82
880.55	17772.27
880.72	17751.79
880.90	17583.86
881.07	17899.25
881.24	17833.71
881.41	17669.87
881.59	17688.31
881.76	17741.55
881.93	17567.48
882.10	17565.43
882.28	17520.37
882.45	17725.17
882.62	17585.91
882.79	17716.98
882.96	17219.32
883.14	17342.20
883.31	17434.36
883.48	17698.55
883.65	17383.16
883.83	17594.10
884.00	17438.45
884.17	17307.38
884.34	17231.61
884.51	17293.05
884.69	17286.90
884.86	17170.17
885.03	17219.32
885.20	17108.73
885.38	17280.76
885.55	17182.46
885.72	17170.17
885.89	17069.82
886.06	17161.98
886.24	17078.01
886.41	16924.41
886.58	17123.07
886.75	17325.82
886.92	16903.93
887.10	17225.47
887.27	16867.07
887.44	17004.28
887.61	17092.35
887.78	17090.30
887.95	16918.27
888.13	17000.19
888.30	17002.24
888.47	16746.24
888.64	16860.93
888.81	17008.38
888.99	16602.88
889.16	16502.53
889.33	16412.42
889.50	16543.49
889.67	16439.05
889.84	16383.75
890.01	16461.57
890.19	16539.40
890.36	16539.40
890.53	16494.34
890.70	16256.78
890.87	16373.51
891.04	16205.58
891.22	16396.04
891.39	16246.54
891.56	16271.11
891.73	16146.19
891.90	16123.66
892.07	15986.44
892.24	16170.76
892.42	16191.24
892.59	16240.39
892.76	16033.55
892.93	16113.42
893.10	16049.93
893.27	16015.12
893.44	15896.33
893.61	15900.43
893.79	16148.23
893.96	16027.40
894.13	15918.86
894.30	16006.92
894.47	15992.59
894.64	15933.20
894.81	16051.98
894.98	15980.30
895.15	16189.19
895.33	15810.32
895.50	15838.99
895.67	15890.19
895.84	16152.33
896.01	15646.48
896.18	15996.68
896.35	16176.91
896.52	15689.49
896.69	15877.90
896.86	16017.16
897.04	15871.76
897.21	15818.51
897.38	15681.30
897.55	15861.52
897.72	15750.93
897.89	15662.86
898.06	15961.87
898.23	15841.04
898.40	15896.33
898.57	15898.38
898.74	15791.89
898.91	15775.50
899.08	15660.82
899.26	15757.07
899.43	15513.36
899.60	15709.97
899.77	15894.29
899.94	15623.95
900.11	15615.76
900.28	15933.20
900.45	15587.09
900.62	15709.97
900.79	15802.13
900.96	15703.82
901.13	15890.19
901.30	15453.97
901.47	15562.51
901.64	15611.67
901.81	15679.25
901.98	15531.80
902.15	15623.95
902.32	15564.56
902.49	15740.69
902.66	15423.25
902.83	15644.43
903.01	15664.91
903.18	15873.81
903.35	15488.79
903.52	15703.82
903.69	15734.54
903.86	15644.43
904.03	15671.06
904.20	15832.85
904.37	15798.03
904.54	15531.80
904.71	15595.28
904.88	15523.60
905.05	15417.11
905.22	15654.67
905.39	15402.77
905.56	15740.69
905.73	15617.81
905.90	15597.33
906.07	15789.84
906.24	15648.53
906.41	15605.52
906.58	15736.59
906.75	15361.81
906.92	15687.44
907.09	15464.21
907.26	15650.58
907.43	15558.42
907.60	15384.34
907.77	15437.59
907.93	15787.79
908.10	15398.68
908.27	15376.15
908.44	15392.53
908.61	15443.73
908.78	15447.83
908.95	15429.40
909.12	15410.96
909.29	15456.02
909.46	15580.95
909.63	15564.56
909.80	15632.15
909.97	15488.79
910.14	15554.32
910.31	15462.16
910.48	15509.27
910.65	15410.96
910.82	15310.61
910.99	15298.33
911.16	15361.81
911.33	15388.44
911.50	15286.04
911.66	15220.50
911.83	15372.05
912.00	15318.81
912.17	15042.33
912.34	15116.06
912.51	15111.96
912.68	14896.92
912.85	15046.43
913.02	14995.23
913.19	15013.66
913.36	14987.04
913.53	14927.64
913.70	14892.83
913.86	15025.95
914.03	14796.57
914.20	14821.15
914.37	15079.19
914.54	14663.46
914.71	14903.07
914.88	14991.13
915.05	14716.70
915.22	14540.58
915.39	14769.95
915.55	14794.53
915.72	14735.14
915.89	14720.80
916.06	14337.83
916.23	14288.68
916.40	14544.67
916.57	14296.87
916.74	14411.56
916.91	14470.95
917.07	14171.94
917.24	14245.67
917.41	14440.23
917.58	14147.37
917.75	14114.60
917.92	14104.36
918.09	14020.39
918.26	14073.64
918.42	13848.36
918.59	13965.10
918.76	13770.54
918.93	13852.46
919.10	13811.50
919.27	13881.13
919.44	13879.08
919.60	13803.31
919.77	13561.65
919.94	13504.31
920.11	13545.27
920.28	13774.64
920.45	13524.79
920.61	13279.03
920.78	13272.89
920.95	13184.82
921.12	13414.20
921.29	13225.78
921.46	13154.10
921.62	13297.46
921.79	13182.77
921.96	13231.93
922.13	12971.83
922.30	12877.63
922.47	13086.52
922.63	12859.20
922.80	12857.15
922.97	12676.93
923.14	12660.54
923.31	12885.82
923.47	12754.75
923.64	12963.64
923.81	12640.06
923.98	12480.32
924.15	12547.90
924.32	12625.73
924.48	12420.93
924.65	12564.29
924.82	12203.85
924.99	12253.00
925.15	12050.25
925.32	12134.21
925.49	11935.56
925.66	11988.81
925.83	11927.37
925.99	12025.67
926.16	12017.48
926.33	12035.91
926.50	11816.78
926.67	11988.81
926.83	11720.53
927.00	11693.90
927.17	11702.09
927.34	11614.03
927.50	11659.09
927.67	11902.79
927.84	11493.20
928.01	11358.03
928.17	11325.27
928.34	11437.91
928.51	11485.01
928.68	11245.40
928.84	11134.81
929.01	10952.54
929.18	11102.04
929.35	10977.11
929.51	11171.67
929.68	10723.16
929.85	10919.77
930.02	10870.62
930.18	10817.37
930.35	10688.35
930.52	10598.24
930.69	10733.40
930.85	10696.54
931.02	10667.87
931.19	10547.04
931.36	10458.98
931.52	10504.03
931.69	10594.14
931.86	10252.13
932.02	10274.66
932.19	10350.43
932.36	10096.49
932.53	10297.19
932.69	10010.47
932.86	10121.06
933.03	10139.49
933.19	9949.03
933.36	9971.56
933.53	10033.00
933.70	9932.65
933.86	9830.25
934.03	9869.16
934.20	9553.77
934.36	9877.35
934.53	9342.83
934.70	9416.56
934.86	9262.96
935.03	9164.66
935.20	9385.84
935.36	9277.30
935.53	9168.76
935.70	9185.14
935.86	9138.04
936.03	8877.94
936.20	8671.10
936.36	8677.24
936.53	8781.69
936.70	8589.18
936.86	8753.02
937.03	8519.55
937.20	8376.19
937.36	8687.48
937.53	8210.31
937.70	8032.13
937.86	8169.35
938.03	7909.26
938.20	8060.80
938.36	7894.92
938.53	7858.06
938.70	7614.35
938.86	7630.73
939.03	7460.75
939.20	7454.61
939.36	7358.35
939.53	7473.04
939.70	7419.79
939.86	7106.45
940.03	7077.78
940.19	6872.98
940.36	6971.29
940.53	6819.74
940.69	6725.53
940.86	6791.06
941.03	6643.61
941.19	6451.10
941.36	6496.16
941.52	6543.26
941.69	6291.36
941.86	6279.07
942.02	6242.21
942.19	6348.70
942.35	6369.18
942.52	6074.28
942.69	6143.91
942.85	6115.23
943.02	6002.60
943.18	6000.55
943.35	5908.39
943.52	5820.33
943.68	5795.75
943.85	5758.89
944.01	5765.03
944.18	5781.42
944.35	5808.04
944.51	5582.76
944.68	5642.15
944.84	5433.26
945.01	5490.60
945.17	5482.41
945.34	5676.97
945.51	5486.51
945.67	5529.52
945.84	5466.03
946.00	5429.17
946.17	5427.12
946.33	5400.49
946.50	5443.50
946.67	5435.31
946.83	5420.97
947.00	5533.61
947.16	5298.10
947.33	5326.77
947.49	5402.54
947.66	5361.58
947.82	5466.03
947.99	5156.79
948.16	5359.53
948.32	5439.40
948.49	5367.73
948.65	5341.10
948.82	5228.46
948.98	5339.05
949.15	5242.80
949.31	5410.73
949.48	5390.25
949.64	5283.76
949.81	5443.50
949.97	5289.90
950.14	5224.37
950.30	5314.48
950.47	5414.83
950.63	5334.96
950.80	5439.40
950.96	5377.97
951.13	5261.23
951.30	5439.40
951.46	5355.44
951.63	5386.16
951.79	5402.54
951.96	5427.12
952.12	5621.67
952.29	5449.64
952.45	5404.59
952.62	5484.46
952.78	5287.86
952.94	5492.65
953.11	5427.12
953.27	5244.85
953.44	5457.84
953.60	5337.01
953.77	5396.40
953.93	5412.78
954.10	5427.12
954.26	5349.29
954.43	5423.02
954.59	5369.77
954.76	5564.33
954.92	5486.51
955.09	5550.00
955.25	5353.39
955.42	5410.73
955.58	5535.66
955.75	5523.37
955.91	5404.59
956.07	5482.41
956.24	5468.08
956.40	5504.94
956.57	5390.25
956.73	5527.47
956.90	5564.33
957.06	5443.50
957.23	5416.88
957.39	5441.45
957.56	5611.43
957.72	5474.22
957.88	5302.19
958.05	5582.76
958.21	5468.08
958.38	5423.02
958.54	5298.10
958.71	5494.70
958.87	5472.17
959.03	5515.18
959.20	5449.64
959.36	5375.92
959.53	5449.64
959.69	5601.19
959.85	5523.37
960.02	5466.03
960.18	5343.15
960.35	5504.94
960.51	5601.19
960.68	5359.53
960.84	5611.43
961.00	5449.64
961.17	5523.37
961.33	5334.96
961.50	5515.18
961.66	5337.01
961.82	5420.97
961.99	5410.73
962.15	5423.02
962.31	5386.16
962.48	5404.59
962.64	5449.64
962.81	5418.93
962.97	5351.34
963.13	5431.21
963.30	5463.98
963.46	5300.14
963.62	5310.38
963.79	5304.24
963.95	5404.59
964.12	5322.67
964.28	5418.93
964.44	5220.27
964.61	5361.58
964.77	5257.14
964.93	5586.86
965.10	5392.30
965.26	5195.70
965.42	5341.10
965.59	5312.43
965.75	5349.29
965.92	5484.46
966.08	5334.96
966.24	5312.43
966.41	5388.21
966.57	5185.46
966.73	5365.68
966.90	5433.26
967.06	5052.34
967.22	5253.04
967.39	5275.57
967.55	5169.07
967.71	5183.41
967.88	5162.93
968.04	5218.22
968.20	5185.46
968.37	5023.67
968.53	5152.69
968.69	5132.21
968.85	5134.26
969.02	5269.42
969.18	5013.43
969.34	5160.88
969.51	5083.06
969.67	5259.18
969.83	5074.87
970.00	5142.45
970.16	5064.63
970.32	5044.15
970.48	5081.01
970.65	5070.77
970.81	5091.25
970.97	4880.31
971.14	4849.59
971.30	5046.20
971.46	4943.80
971.63	4970.42
971.79	5025.72
971.95	5062.58
972.11	4896.69
972.28	4849.59
972.44	4929.46
972.60	4923.32
972.76	4886.45
972.93	4898.74
973.09	4935.60
973.25	4960.18
973.42	4841.40
973.58	4923.32
973.74	4984.76
973.90	4820.92
974.07	4898.74
974.23	4841.40
974.39	4812.73
974.55	4835.25
974.72	4849.59
974.88	4655.03
975.04	4745.14
975.20	4861.88
975.37	4716.47
975.53	4792.25
975.69	4794.29
975.85	4730.81
976.01	4861.88
976.18	4706.23
976.34	4638.65
976.50	4728.76
976.66	4757.43
976.83	4675.51
976.99	4540.35
977.15	4644.79
977.31	4716.47
977.47	4616.12
977.64	4593.59
977.80	4440.00
977.96	4597.69
978.12	4618.17
978.29	4587.45
978.45	4618.17
978.61	4569.02
978.77	4521.92
978.93	4546.49
979.10	4659.13
979.26	4558.78
979.42	4583.35
979.58	4351.93
979.74	4415.42
979.91	4532.15
980.07	4362.17
980.23	4286.40
980.39	4339.65
980.55	4278.21
980.71	4399.04
980.88	4345.79
981.04	4501.44
981.20	4413.37
981.36	4360.13
981.52	4345.79
981.68	4296.64
981.85	4503.48
982.01	4313.02
982.17	4472.76
982.33	4198.34
982.49	4413.37
982.65	4382.65
982.82	4296.64
982.98	4212.67
983.14	4151.23
983.30	4229.06
983.46	4321.21
983.62	4233.15
983.79	4233.15
983.95	4202.43
984.11	4147.14
984.27	4108.23
984.43	4214.72
984.59	4159.42
984.75	4196.29
984.91	4059.07
985.08	4241.34
985.24	4100.03
985.40	4028.35
985.56	4122.56
985.72	4222.91
985.88	4151.23
986.04	4114.37
986.20	4054.98
986.37	3981.25
986.53	3952.58
986.69	4169.66
986.85	4108.23
987.01	4054.98
987.17	3948.48
987.33	4040.64
987.49	3981.25
987.65	4132.80
987.82	3821.51
987.98	3987.40
988.14	3895.24
988.30	4087.75
988.46	3880.90
988.62	3815.37
988.78	3995.59
988.94	3887.04
989.10	3755.97
989.26	3862.47
989.42	3889.09
989.59	3665.86
989.75	3727.30
989.91	3835.85
990.07	3731.40
990.23	3690.44
990.39	3669.96
990.55	3846.09
990.71	3487.69
990.87	3768.26
991.03	3776.45
991.19	3518.41
991.35	3710.92
991.51	3831.75
991.67	3899.33
991.83	3745.73
992.00	3805.13
992.16	3665.86
992.32	3733.45
992.48	3698.63
992.64	3614.66
992.80	3731.40
992.96	3717.06
993.12	3637.19
993.28	3739.59
993.44	3590.09
993.60	3686.34
993.76	3571.66
993.92	3733.45
994.08	3563.47
994.24	3583.95
994.40	3522.51
994.56	3676.10
994.72	3528.65
994.88	3577.80
995.04	3614.66
995.20	3481.55
995.36	3475.40
995.52	3471.31
995.68	3565.51
995.84	3389.39
996.00	3565.51
996.16	3309.52
996.32	3528.65
996.48	3336.14
996.64	3567.56
996.80	3442.64
996.96	3502.03
997.12	3354.57
997.28	3534.79
997.44	3330.00
997.60	3364.81
997.76	3362.76
997.92	3395.53
998.08	3409.87
998.24	3377.10
998.40	3330.00
998.56	3383.24
998.72	3286.99
998.88	3346.38
999.04	3307.47
999.20	3327.95
999.36	3221.45
999.52	3262.41
999.68	3221.45
999.84	3373.00
1000.00	3227.60
1000.16	3321.81
1000.32	3233.74
1000.48	3344.33
1000.64	3235.79
1000.80	3200.98
1000.95	3182.54
1001.11	3254.22
1001.27	3141.58
1001.43	3145.68
1001.59	3155.92
1001.75	3119.06
1001.91	3192.78
1002.07	3137.49
1002.23	3170.26
1002.39	3135.44
1002.55	3166.16
1002.71	3030.99
1002.87	3059.67
1003.03	3016.66
1003.19	2977.75
1003.34	3198.93
1003.50	2998.23
1003.66	3196.88
1003.82	3071.95
1003.98	2957.27
1004.14	3104.72
1004.30	3071.95
1004.46	2990.03
1004.62	3024.85
1004.78	3035.09
1004.94	2998.23
1005.09	3047.38
1005.25	3100.62
1005.41	2920.40
1005.57	3008.47
1005.73	2938.84
1005.89	2920.40
1006.05	3043.28
1006.21	2971.60
1006.37	2844.63
1006.52	2840.53
1006.68	2801.62
1006.84	2904.02
1007.00	2850.77
1007.16	2842.58
1007.32	2887.64
1007.48	2836.44
1007.64	2799.57
1007.79	2834.39
1007.95	2770.90
1008.11	2871.25
1008.27	2742.23
1008.43	2858.96
1008.59	2822.10
1008.75	2877.40
1008.91	2785.24
1009.06	2826.20
1009.22	2879.44
1009.38	2830.29
1009.54	2756.57
1009.70	2777.05
1009.86	2766.81
1010.01	2887.64
1010.17	2721.75
1010.33	2789.33
1010.49	2754.52
1010.65	2797.53
1010.81	2754.52
1010.96	2643.93
1011.12	2701.27
1011.28	2766.81
1011.44	2719.70
1011.60	2629.59
1011.76	2664.41
1011.91	2760.66
1012.07	2641.88
1012.23	2590.68
1012.39	2627.54
1012.55	2650.07
1012.71	2643.93
1012.86	2578.39
1013.02	2639.83
1013.18	2580.44
1013.34	2574.30
1013.50	2709.46
1013.65	2662.36
1013.81	2508.76
1013.97	2650.07
1014.13	2619.35
1014.29	2600.92
1014.44	2680.79
1014.60	2551.77
1014.76	2523.10
1014.92	2645.98
1015.07	2617.30
1015.23	2537.43
1015.39	2484.19
1015.55	2580.44
1015.71	2584.54
1015.86	2430.94
1016.02	2502.62
1016.18	2330.59
1016.34	2510.81
1016.49	2543.58
1016.65	2551.77
1016.81	2465.75
1016.97	2494.43
1017.12	2514.91
1017.28	2455.51
1017.44	2351.07
1017.60	2498.52
1017.75	2435.03
1017.91	2463.71
1018.07	2396.12
1018.23	2392.03
1018.38	2453.47
1018.54	2359.26
1018.70	2371.55
1018.86	2338.78
1019.01	2365.40
1019.17	2439.13
1019.33	2428.89
1019.49	2303.96
1019.64	2443.23
1019.80	2408.41
1019.96	2383.84
1020.12	2273.25
1020.27	2328.54
1020.43	2330.59
1020.59	2367.45
1020.74	2404.32
1020.90	2463.71
1021.06	2265.05
1021.22	2291.68
1021.37	2369.50
1021.53	2365.40
1021.69	2359.26
1021.84	2228.19
1022.00	2277.34
1022.16	2285.53
1022.31	2297.82
1022.47	2297.82
1022.63	2375.64
1022.79	2181.09
1022.94	2236.38
1023.10	2357.21
1023.26	2181.09
1023.41	2199.52
1023.57	2181.09
1023.73	2269.15
1023.88	2224.09
1024.04	2217.95
1024.20	2256.86
1024.35	2320.35
1024.51	2201.57
1024.67	2205.66
1024.82	2269.15
1024.98	2119.65
1025.14	2213.85
1025.29	2256.86
1025.45	2211.81
1025.61	2119.65
1025.76	2189.28
1025.92	2230.24
1026.08	2146.27
1026.23	2131.94
1026.39	2170.85
1026.55	2158.56
1026.70	2170.85
1026.86	2166.75
1027.02	2193.37
1027.17	2176.99
1027.33	2185.18
1027.48	2164.70
1027.64	2066.40
1027.80	2039.78
1027.95	2152.42
1028.11	2017.25
1028.27	2076.64
1028.42	2103.26
1028.58	2133.98
1028.73	2066.40
1028.89	2121.70
1029.05	2183.13
1029.20	2107.36
>>>>>End Processed Spectral Data<<<<<
