SpectraSuite Data File
++++++++++++++++++++++++++++++++++++
Date: Fri Jun 02 14:53:35 CEST 2017
User: INFO_000
Dark Spectrum Present: No
Reference Spectrum Present: No
Number of Sampled Component Spectra: 1
Spectrometers: USB4H00879
Integration Time (usec): 80000 (USB4H00879)
Spectra Averaged: 1 (USB4H00879)
Boxcar Smoothing: 0 (USB4H00879)
Correct for Electrical Dark: No (USB4H00879)
Strobe/Lamp Enabled: No (USB4H00879)
Correct for Detector Non-linearity: No (USB4H00879)
Correct for Stray Light: No (USB4H00879)
Number of Pixels in Processed Spectrum: 3648
>>>>>Begin Processed Spectral Data<<<<<
345.13	1222.64
345.34	1222.64
345.56	1222.64
345.78	1294.32
345.99	1282.03
346.21	1722.34
346.42	1734.63
346.64	1640.42
346.86	1753.06
347.07	1683.43
347.29	1665.00
347.50	1593.32
347.72	1650.66
347.94	1677.29
348.15	1626.09
348.37	1640.42
348.59	1746.92
348.80	1710.05
349.02	1834.98
349.23	1873.89
349.45	1781.73
349.67	1906.66
349.88	1789.92
350.10	1906.66
350.31	1853.41
350.53	1849.32
350.75	2035.68
350.96	1789.92
351.18	1839.08
351.39	1888.23
351.61	1783.78
351.82	1873.89
352.04	1861.60
352.26	1871.84
352.47	1929.19
352.69	1961.95
352.90	1796.07
353.12	1804.26
353.34	1880.04
353.55	1927.14
353.77	1867.75
353.98	1882.08
354.20	1892.32
354.41	1935.33
354.63	1957.86
354.85	2043.87
355.06	1953.76
355.28	1820.64
355.49	1896.42
355.71	1834.98
355.92	1877.99
356.14	1935.33
356.35	1925.09
356.57	1857.51
356.79	1964.00
357.00	1794.02
357.22	1935.33
357.43	1869.80
357.65	2004.96
357.86	1923.04
358.08	1902.56
358.29	1943.52
358.51	1966.05
358.72	1976.29
358.94	1906.66
359.16	1959.91
359.37	1910.75
359.59	1937.38
359.80	1951.71
360.02	1994.72
360.23	1914.85
360.45	1943.52
360.66	1943.52
360.88	1832.93
361.09	1972.19
361.31	2007.01
361.52	1935.33
361.74	2021.35
361.95	2009.06
362.17	1972.19
362.38	2115.55
362.60	2074.59
362.81	1982.43
363.03	1894.37
363.24	1914.85
363.46	1988.58
363.67	2011.11
363.89	2041.82
364.10	2064.35
364.32	1992.67
364.53	2015.20
364.75	1896.42
364.96	2039.78
365.18	1968.10
365.39	2064.35
365.61	1931.23
365.82	2136.03
366.04	1970.15
366.25	2025.44
366.47	2068.45
366.68	2142.18
366.90	1996.77
367.11	2047.97
367.33	2127.84
367.54	2002.91
367.76	2002.91
367.97	2131.94
368.19	2070.50
368.40	2058.21
368.62	1929.19
368.83	2027.49
369.05	2037.73
369.26	2043.87
369.48	1925.09
369.69	1961.95
369.91	2144.22
370.12	2052.06
370.33	2050.02
370.55	1953.76
370.76	2086.88
370.98	2072.54
371.19	2060.26
371.41	2125.79
371.62	2070.50
371.84	1933.28
372.05	2058.21
372.27	1964.00
372.48	2052.06
372.69	2068.45
372.91	2133.98
373.12	2195.42
373.34	2136.03
373.55	2156.51
373.77	2228.19
373.98	2121.70
374.20	2160.61
374.41	2236.38
374.62	2084.83
374.84	2213.85
375.05	2226.14
375.27	2170.85
375.48	2205.66
375.70	2189.28
375.91	2279.39
376.12	2289.63
376.34	2168.80
376.55	2107.36
376.77	2238.43
376.98	2119.65
377.19	2123.74
377.41	2154.46
377.62	2273.25
377.84	2277.34
378.05	2346.97
378.27	2199.52
378.48	2322.40
378.69	2424.80
378.91	2250.72
379.12	2318.30
379.34	2252.77
379.55	2230.24
379.76	2271.20
379.98	2140.13
380.19	2215.90
380.41	2248.67
380.62	2338.78
380.83	2277.34
381.05	2295.77
381.26	2428.89
381.47	2234.33
381.69	2181.09
381.90	2404.32
382.12	2254.81
382.33	2318.30
382.54	2277.34
382.76	2338.78
382.97	2355.16
383.19	2203.61
383.40	2430.94
383.61	2275.29
383.83	2248.67
384.04	2285.53
384.25	2359.26
384.47	2387.93
384.68	2420.70
384.89	2359.26
385.11	2310.11
385.32	2387.93
385.54	2355.16
385.75	2363.36
385.96	2439.13
386.18	2435.03
386.39	2424.80
386.60	2322.40
386.82	2418.65
387.03	2498.52
387.24	2496.47
387.46	2463.71
387.67	2422.75
387.88	2508.76
388.10	2475.99
388.31	2605.02
388.52	2574.30
388.74	2566.10
388.95	2480.09
389.16	2500.57
389.38	2500.57
389.59	2607.06
389.80	2678.74
390.02	2592.73
390.23	2639.83
390.44	2600.92
390.66	2564.06
390.87	2592.73
391.08	2633.69
391.30	2631.64
391.51	2662.36
391.72	2740.18
391.94	2770.90
392.15	2641.88
392.36	2727.89
392.58	2619.35
392.79	2742.23
393.00	2715.61
393.22	2666.46
393.43	2789.33
393.64	2777.05
393.85	2797.53
394.07	2658.26
394.28	2760.66
394.49	2731.99
394.71	2856.92
394.92	2889.68
395.13	2703.32
395.35	2723.80
395.56	2705.37
395.77	2754.52
395.98	2869.20
396.20	2918.36
396.41	2953.17
396.62	2826.20
396.84	2928.60
397.05	2887.64
397.26	2877.40
397.47	2926.55
397.69	2789.33
397.90	2926.55
398.11	2930.64
398.32	2838.48
398.54	2904.02
398.75	2936.79
398.96	2975.70
399.18	3080.14
399.39	2891.73
399.60	2940.88
399.81	2940.88
400.03	2985.94
400.24	3239.89
400.45	2949.08
400.66	3082.19
400.88	2953.17
401.09	3143.63
401.30	3041.23
401.51	3295.18
401.73	3145.68
401.94	3125.20
402.15	3190.74
402.36	3139.54
402.58	3063.76
402.79	3182.54
403.00	3184.59
403.21	3256.27
403.43	3239.89
403.64	3221.45
403.85	3223.50
404.06	3280.85
404.27	3127.25
404.49	3147.73
404.70	3268.56
404.91	3401.68
405.12	3231.69
405.34	3276.75
405.55	3383.24
405.76	3119.06
405.97	3211.22
406.19	3393.48
406.40	3192.78
406.61	3399.63
406.82	3358.67
407.03	3401.68
407.25	3280.85
407.46	3471.31
407.67	3479.50
407.88	3475.40
408.09	3381.20
408.31	3418.06
408.52	3397.58
408.73	3434.44
408.94	3344.33
409.15	3502.03
409.37	3577.80
409.58	3467.21
409.79	3430.35
410.00	3561.42
410.21	3413.96
410.43	3526.60
410.64	3436.49
410.85	3631.05
411.06	3583.95
411.27	3510.22
411.48	3655.62
411.70	3594.19
411.91	3606.47
412.12	3635.14
412.33	3747.78
412.54	3651.53
412.76	3700.68
412.97	3721.16
413.18	3542.99
413.39	3629.00
413.60	3768.26
413.81	3585.99
414.03	3629.00
414.24	3655.62
414.45	3839.94
414.66	3567.56
414.87	3811.27
415.08	3688.39
415.30	3715.02
415.51	3784.65
415.72	3827.65
415.93	3772.36
416.14	3807.17
416.35	3866.56
416.56	3891.14
416.78	3917.76
416.99	3917.76
417.20	3688.39
417.41	3952.58
417.62	3885.00
417.83	4003.78
418.04	3911.62
418.26	3958.72
418.47	3895.24
418.68	4128.70
418.89	4022.21
419.10	4186.05
419.31	3962.82
419.52	4175.81
419.73	3995.59
419.95	4028.35
420.16	4083.65
420.37	4059.07
420.58	4198.34
420.79	4032.45
421.00	4100.03
421.21	4255.68
421.42	4108.23
421.63	4143.04
421.85	4108.23
422.06	4198.34
422.27	4237.25
422.48	4169.66
422.69	4265.92
422.90	4358.08
423.11	4239.30
423.32	4333.50
423.53	4456.38
423.75	4341.69
423.96	4460.48
424.17	4405.18
424.38	4607.93
424.59	4448.19
424.80	4448.19
425.01	4489.15
425.22	4478.91
425.43	4464.57
425.64	4773.82
425.85	4736.95
426.06	4618.17
426.28	4646.84
426.49	4478.91
426.70	4564.92
426.91	4622.27
427.12	4788.15
427.33	4657.08
427.54	4679.61
427.75	4786.10
427.96	4949.94
428.17	4743.10
428.38	4859.83
428.59	4925.36
428.80	4865.97
429.01	4929.46
429.23	4902.84
429.44	5033.91
429.65	5029.81
429.86	5054.39
430.07	5046.20
430.28	4884.41
430.49	5173.17
430.70	5181.36
430.91	5111.73
431.12	5074.87
431.33	5334.96
431.54	5205.94
431.75	5113.78
431.96	5173.17
432.17	5234.61
432.38	5255.09
432.59	5423.02
432.80	5453.74
433.01	5326.77
433.22	5320.62
433.43	5375.92
433.64	5457.84
433.85	5220.27
434.06	5402.54
434.27	5390.25
434.49	5324.72
434.70	5527.47
434.91	5509.04
435.12	5601.19
435.33	5463.98
435.54	5615.53
435.75	5271.47
435.96	5556.14
436.17	5427.12
436.38	5719.98
436.59	5676.97
436.80	5500.84
437.01	5726.12
437.22	5760.94
437.43	5740.46
437.64	5527.47
437.85	5799.85
438.06	5871.53
438.27	5722.02
438.48	5638.06
438.69	5918.63
438.90	5758.89
439.11	5752.74
439.32	6045.60
439.53	6000.55
439.74	6041.51
439.95	6000.55
440.16	5814.18
440.37	5971.88
440.57	5965.73
440.78	6008.74
440.99	5928.87
441.20	6053.80
441.41	5943.21
441.62	6170.53
441.83	6004.64
442.04	6016.93
442.25	6236.06
442.46	6041.51
442.67	6274.98
442.88	6561.69
443.09	6102.95
443.30	6174.63
443.51	6217.63
443.72	6336.42
443.93	6201.25
444.14	6530.97
444.35	6209.44
444.56	6307.74
444.77	6289.31
444.98	6340.51
445.19	6502.30
445.40	6391.71
445.61	6412.19
445.81	6496.16
446.02	6528.92
446.23	6350.75
446.44	6500.25
446.65	6524.83
446.86	6582.17
447.07	6604.70
447.28	6639.51
447.49	6680.47
447.70	6594.46
447.91	6909.85
448.12	6748.06
448.33	6598.56
448.54	6780.82
448.74	6754.20
448.95	6801.30
449.16	6713.24
449.37	7090.07
449.58	6791.06
449.79	7028.63
450.00	6784.92
450.21	7077.78
450.42	6973.33
450.63	7182.23
450.84	7102.36
451.05	7151.51
451.25	7028.63
451.46	7116.69
451.67	7311.25
451.88	7352.21
452.09	7083.92
452.30	7016.34
452.51	7126.93
452.72	7247.76
452.93	7563.15
453.13	7239.57
453.34	7225.23
453.55	7507.85
453.76	7397.26
453.97	7630.73
454.18	7403.41
454.39	7589.77
454.60	7501.71
454.81	7389.07
455.01	7778.19
455.22	7374.74
455.43	7626.64
455.64	7724.94
455.85	7833.48
456.06	7800.71
456.27	7831.43
456.48	7858.06
456.68	7909.26
456.89	7927.69
457.10	8058.76
457.31	7823.24
457.52	7964.55
457.73	8120.20
457.94	8087.43
458.14	7870.34
458.35	8411.01
458.56	8292.23
458.77	8177.54
458.98	8304.51
459.19	8310.66
459.39	8519.55
459.60	8576.89
459.81	8408.96
460.02	8603.52
460.23	8603.52
460.44	8816.51
460.65	8624.00
460.85	8576.89
461.06	8746.87
461.27	8722.30
461.48	9021.30
461.69	9103.22
461.89	8710.01
462.10	8939.38
462.31	8654.72
462.52	8785.79
462.73	9080.69
462.94	9379.70
463.14	9277.30
463.35	9097.08
463.56	9555.82
463.77	9414.51
463.98	9248.63
464.18	9498.48
464.39	9465.71
464.60	9553.77
464.81	9625.45
465.02	9531.25
465.23	9684.84
465.43	9654.12
465.64	9893.74
465.85	9801.58
466.06	9891.69
466.27	10131.30
466.47	10121.06
466.68	10022.76
466.89	10233.70
467.10	10266.47
467.30	10037.09
467.51	10149.73
467.72	10530.66
467.93	10114.92
468.14	10501.98
468.34	10743.64
468.55	10645.34
468.76	10702.68
468.97	10534.75
469.17	10995.54
469.38	10800.99
469.59	11143.00
469.80	10782.56
470.01	10999.64
470.21	10817.37
470.42	11145.05
470.63	11458.39
470.84	11167.57
471.04	11519.82
471.25	11523.92
471.46	11476.82
471.67	11568.98
471.87	11589.46
472.08	11726.67
472.29	11810.64
472.50	11497.30
472.70	11845.45
472.91	11898.70
473.12	12074.82
473.33	11999.05
473.53	12171.08
473.74	12285.76
473.95	12394.31
474.16	12511.04
474.36	12361.54
474.57	12502.85
474.78	12779.32
474.99	12738.37
475.19	12889.92
475.40	12898.11
475.61	13166.39
475.81	12937.02
476.02	13467.44
476.23	13365.04
476.44	13412.15
476.64	13897.52
476.85	13870.89
477.06	13565.74
477.27	13825.84
477.47	13705.01
477.68	14022.44
477.89	14053.16
478.09	14288.68
478.30	14116.65
478.51	14217.00
478.71	14389.03
478.92	14389.03
479.13	14679.84
479.34	14751.52
479.54	14782.24
479.75	14659.36
479.96	15017.75
480.16	14843.68
480.37	15146.78
480.58	15204.12
480.78	15288.09
480.99	15460.12
481.20	15707.92
481.41	15734.54
481.61	15896.33
481.82	15814.41
482.03	15746.83
482.23	15961.87
482.44	16125.71
482.65	16307.98
482.85	16600.83
483.06	16322.31
483.27	16367.37
483.47	16572.16
483.68	16652.03
483.89	16797.44
484.09	16742.14
484.30	16951.04
484.51	17071.87
484.71	17413.88
484.92	17000.19
485.13	17174.27
485.33	17551.09
485.54	17430.26
485.75	17762.03
485.95	17862.38
486.16	17886.96
486.37	17886.96
486.57	17815.28
486.78	17901.29
486.98	18024.17
487.19	17954.54
487.40	18226.92
487.60	18296.55
487.81	18743.01
488.02	18618.08
488.22	18673.38
488.43	18683.62
488.64	18806.50
488.84	18894.56
489.05	18994.91
489.25	18951.90
489.46	19433.18
489.67	19242.71
489.87	19576.53
490.08	19644.12
490.29	19341.02
490.49	19861.20
490.70	19769.04
490.90	20004.56
491.11	20074.19
491.32	20111.05
491.52	19949.26
491.73	20119.24
491.94	20387.53
492.14	20408.01
492.35	20455.11
492.55	20831.94
492.76	20784.83
492.97	20981.44
493.17	20766.40
493.38	20719.30
493.58	21241.53
493.79	20948.67
494.00	20797.12
494.20	21309.11
494.41	21188.28
494.61	21626.55
494.82	21509.82
495.02	21597.88
495.23	21782.20
495.44	21823.16
495.64	21806.77
495.85	21862.07
496.05	22021.81
496.26	22058.67
496.47	22138.54
496.67	21989.04
496.88	22400.68
497.08	22175.41
497.29	22535.85
497.49	22648.49
497.70	22701.73
497.91	22855.33
498.11	22920.87
498.32	22816.42
498.52	22920.87
498.73	23035.55
498.93	22896.29
499.14	23002.78
499.34	22841.00
499.55	23303.84
499.76	23291.55
499.96	23309.98
500.17	23223.97
500.37	23461.53
500.58	23547.54
500.78	23654.04
500.99	23783.06
501.19	23830.16
501.40	23862.93
501.60	23781.01
501.81	24045.20
502.02	24110.74
502.22	24131.22
502.43	24254.09
502.63	24428.17
502.84	24452.75
503.04	24452.75
503.25	24589.96
503.45	24299.15
503.66	24454.79
503.86	24743.56
504.07	24954.50
504.27	24606.34
504.48	25097.86
504.68	25122.43
504.89	25169.54
505.09	24940.16
505.30	25288.32
505.50	25343.61
505.71	25118.34
505.91	25237.12
506.12	25624.18
506.32	25474.68
506.53	25472.64
506.73	25693.82
506.94	25728.63
507.14	25394.81
507.35	25878.13
507.55	26056.31
507.76	26019.44
507.96	25992.82
508.17	26097.27
508.37	25900.66
508.58	25558.65
508.78	26154.61
508.99	26574.44
509.19	26283.63
509.40	26158.70
509.60	26291.82
509.81	26244.72
510.01	26351.21
510.22	26562.15
510.42	26424.94
510.63	26472.04
510.83	26351.21
511.04	26576.49
511.24	26488.43
511.44	26975.84
511.65	26703.46
511.85	26807.91
512.06	27237.98
512.26	26764.90
512.47	27104.87
512.67	27106.91
512.88	27002.47
513.08	26883.69
513.29	27352.67
513.49	27291.23
513.69	27141.73
513.90	27352.67
514.10	27305.57
514.31	27407.97
514.51	27573.85
514.72	27450.97
514.92	27610.71
515.13	27641.43
515.33	27764.31
515.53	27960.92
515.74	27643.48
515.94	27932.25
516.15	28036.69
516.35	27524.70
516.56	28063.32
516.76	27915.86
516.96	27915.86
517.17	28225.11
517.37	28126.80
517.58	28055.12
517.78	28239.44
517.99	28603.98
518.19	28698.19
518.39	28642.89
518.60	28886.60
518.80	28622.41
519.01	28425.81
519.21	28874.31
519.41	28730.95
519.62	28466.77
519.82	28778.06
520.03	29228.61
520.23	29038.15
520.43	29107.78
520.64	29503.04
520.84	29425.22
521.05	29040.20
521.25	29523.52
521.45	29668.92
521.66	29683.26
521.86	29337.15
522.07	29611.58
522.27	29642.30
522.47	29429.31
522.68	30119.48
522.88	30158.39
523.08	30492.21
523.29	30012.98
523.49	30443.06
523.70	30293.55
523.90	30604.84
524.10	30363.18
524.31	30570.03
524.51	30348.85
524.71	31116.84
524.92	30991.91
525.12	30942.76
525.33	30905.90
525.53	30971.43
525.73	31188.52
525.94	31491.62
526.14	30735.92
526.34	31225.38
526.55	31235.62
526.75	31415.84
526.95	31751.71
527.16	31610.40
527.36	31770.14
527.56	31856.15
527.77	32241.17
527.97	31677.98
528.17	31938.07
528.38	32251.41
528.58	32130.58
528.78	32079.38
528.99	32243.22
529.19	32318.99
529.39	32247.32
529.60	32566.80
529.80	32648.72
530.00	32704.01
530.21	32828.94
530.41	33189.38
530.61	32847.37
530.82	33648.13
531.02	32843.27
531.22	33388.03
531.43	33347.08
531.63	33547.78
531.83	33730.05
532.04	34258.42
532.24	33633.79
532.44	33996.28
532.64	34110.97
532.85	34395.64
533.05	34180.60
533.25	34332.15
533.46	34407.92
533.66	34805.23
533.86	34559.47
534.07	34665.97
534.27	35061.22
534.47	35083.75
534.67	35284.45
534.88	34907.63
535.08	35128.81
535.28	35560.93
535.49	35614.18
535.69	35349.99
535.89	35663.33
536.09	35976.67
536.30	35728.86
536.50	35909.08
536.70	35950.04
536.91	35823.07
537.11	36359.64
537.31	36294.10
537.51	36457.94
537.72	36597.20
537.92	36947.40
538.12	36980.17
538.32	36650.45
538.53	37080.52
538.73	36949.45
538.93	36652.50
539.13	36836.81
539.34	37154.25
539.54	36902.35
539.74	37488.07
539.94	37072.33
540.15	37019.08
540.35	37199.30
540.55	37662.15
540.75	37877.18
540.96	37457.35
541.16	37889.47
541.36	37676.48
541.56	38305.21
541.77	38321.59
541.97	38329.78
542.17	38102.46
542.37	38139.32
542.58	38421.94
542.78	38145.47
542.98	38376.89
543.18	39017.90
543.38	39093.68
543.59	38567.35
543.79	38655.41
543.99	38714.80
544.19	39097.77
544.40	39200.17
544.60	39859.62
544.80	39146.92
545.00	39380.39
545.20	39394.73
545.41	39536.04
545.61	39173.55
545.81	39773.60
546.01	39951.77
546.21	39577.00
546.42	39466.41
546.62	40078.75
546.82	39742.88
547.02	39753.12
547.22	40277.40
547.43	40027.55
547.63	40011.17
547.83	40324.50
548.03	39937.44
548.23	40230.30
548.44	40431.00
548.64	40199.58
548.84	40719.76
549.04	40738.19
549.24	40662.42
549.45	41332.11
549.65	40861.07
549.85	40781.20
550.05	40963.47
550.25	40838.54
550.45	41561.48
550.66	41162.12
550.86	40926.61
551.06	41244.04
551.26	41190.80
551.46	41481.61
551.66	41375.11
551.87	41495.94
552.07	41608.58
552.27	41555.33
552.47	41739.65
552.67	41753.99
552.87	41837.95
553.07	41985.41
553.28	41936.26
553.48	41704.84
553.68	42175.87
553.88	42775.92
554.08	42186.11
554.28	42173.82
554.48	41856.39
554.69	42507.64
554.89	42382.71
555.09	42126.72
555.29	42186.11
555.49	42538.36
555.69	42290.55
555.89	42374.52
556.10	42771.83
556.30	42511.74
556.50	42935.66
556.70	42888.56
556.90	42900.85
557.10	42665.33
557.30	42079.61
557.50	43005.30
557.70	42970.48
557.91	43283.82
558.11	43214.19
558.31	43316.59
558.51	42845.55
558.71	43513.19
558.91	43316.59
559.11	42900.85
559.31	43050.35
559.51	43066.73
559.72	43529.58
559.92	43367.79
560.12	43193.71
560.32	43402.60
560.52	43257.20
560.72	43652.45
560.92	44143.97
561.12	44019.04
561.32	44492.12
561.52	43838.82
561.72	44408.15
561.93	43820.39
562.13	43978.08
562.33	43928.93
562.53	44488.03
562.73	43881.83
562.93	44256.60
563.13	44461.40
563.33	44041.57
563.53	44412.25
563.73	43900.26
563.93	44537.18
564.13	44631.38
564.33	44494.17
564.53	44402.01
564.74	44608.86
564.94	44309.85
565.14	44459.35
565.34	44127.58
565.54	44539.22
565.74	44623.19
565.94	45022.54
566.14	44694.87
566.34	44719.45
566.54	45380.94
566.74	44823.89
566.94	44965.20
567.14	45065.55
567.34	44840.28
567.54	44983.63
567.74	44815.70
567.94	44930.39
568.14	45190.48
568.34	45186.38
568.54	45272.40
568.74	45397.32
568.94	45022.54
569.14	45772.10
569.34	45458.76
569.54	45167.95
569.75	45274.45
569.95	45352.27
570.15	45745.48
570.35	45372.75
570.55	45315.40
570.75	45729.09
570.95	45659.46
571.15	45718.85
571.35	45505.87
571.55	45753.67
571.75	45575.50
571.95	46116.16
572.15	45858.12
572.35	45897.03
572.55	45876.55
572.75	45503.82
572.95	45999.43
573.15	46429.50
573.35	46009.67
573.55	46017.86
573.75	46216.51
573.95	46261.57
574.15	46044.48
574.35	46638.39
574.55	45964.61
574.75	45913.41
574.95	46415.16
575.15	46282.05
575.34	46435.64
575.54	46916.92
575.74	46730.55
575.94	46585.15
576.14	46593.34
576.34	46816.57
576.54	46835.00
576.74	46646.58
576.94	46869.81
577.14	47193.39
577.34	47383.85
577.54	46583.10
577.74	47412.52
577.94	46746.93
578.14	46953.78
578.34	47068.47
578.54	47052.08
578.74	47174.96
578.94	47420.72
579.14	47129.90
579.34	47404.33
579.54	47547.69
579.74	47723.82
579.94	47633.71
580.13	48022.82
580.33	47129.90
580.53	47664.42
580.73	48190.75
580.93	47983.91
581.13	47562.03
581.33	48047.39
581.53	47764.78
581.73	48137.51
581.93	48182.56
582.13	48051.49
582.33	48299.30
582.53	48153.89
582.73	48168.22
582.92	48409.89
583.12	48698.65
583.32	48438.56
583.52	48352.54
583.72	48405.79
583.92	48377.12
584.12	48469.28
584.32	48999.70
584.52	48749.85
584.72	49083.67
584.92	48799.00
585.11	49265.94
585.31	48493.85
585.51	49040.66
585.71	48706.84
585.91	49038.61
586.11	48823.58
586.31	48799.00
586.51	48725.27
586.71	49194.26
586.91	49585.42
587.10	49358.09
587.30	49362.19
587.50	49626.38
587.70	49593.61
587.90	49538.32
588.10	49179.92
588.30	49616.14
588.50	49806.60
588.69	49571.08
588.89	49601.80
589.09	49513.74
589.29	49816.84
589.49	49736.97
589.69	49577.23
589.89	49816.84
590.08	50156.80
590.28	49886.47
590.48	49808.65
590.68	50003.20
590.88	50117.89
591.08	50031.88
591.28	49661.19
591.47	50263.30
591.67	50099.46
591.87	50181.38
592.07	49992.97
592.27	50441.47
592.47	50631.93
592.67	49972.49
592.86	50083.08
593.06	50113.80
593.26	50605.31
593.46	50238.72
593.66	50619.64
593.86	50771.19
594.05	50357.50
594.25	50648.32
594.45	50492.67
594.65	50461.95
594.85	50156.80
595.05	50498.81
595.24	50883.83
595.44	50638.08
595.64	50640.12
595.84	50609.40
596.04	50951.41
596.23	50566.40
596.43	51490.03
596.63	51172.60
596.83	51014.90
597.03	51227.89
597.22	51811.56
597.42	50861.30
597.62	51352.82
597.82	51320.05
598.02	51743.98
598.21	51707.12
598.41	51000.57
598.61	51543.28
598.81	51680.49
599.01	51657.96
599.20	51479.79
599.40	51487.98
599.60	51868.90
599.80	51862.76
600.00	51985.64
600.19	52112.61
600.39	51307.76
600.59	52298.98
600.79	51739.88
600.98	51940.58
601.18	51885.29
601.38	52327.65
601.58	52542.69
601.78	52028.65
601.97	51983.59
602.17	52610.27
602.37	52511.97
602.57	52430.05
602.76	52804.83
602.96	52409.57
603.16	52919.51
603.36	52681.95
603.55	53019.86
603.75	52516.06
603.95	52856.03
604.15	52624.60
604.34	53271.76
604.54	53085.40
604.74	53034.20
604.94	52780.25
605.13	53040.34
605.33	53138.65
605.53	53101.78
605.73	53259.48
605.92	53509.33
606.12	53628.11
606.32	53626.06
606.52	53245.14
606.71	53017.82
606.91	53300.43
607.11	53097.69
607.30	53298.39
607.50	53454.03
607.70	53761.23
607.90	53376.21
608.09	53486.80
608.29	53810.38
608.49	53863.63
608.68	53677.26
608.88	53781.71
609.08	53572.81
609.28	53912.78
609.47	53431.50
609.67	54359.23
609.87	53646.54
610.06	53777.61
610.26	53705.93
610.46	53939.40
610.66	53632.21
610.85	54086.85
611.05	53746.89
611.25	54328.52
611.44	53918.92
611.64	54144.20
611.84	53712.08
612.03	54338.75
612.23	54318.28
612.43	54049.99
612.62	54015.18
612.82	54093.00
613.02	54136.01
613.21	54267.08
613.41	54097.09
613.61	54248.64
613.80	54015.18
614.00	54228.16
614.20	54367.43
614.39	54318.28
614.59	54621.37
614.79	53920.97
614.98	53875.91
615.18	54162.63
615.38	54449.35
615.57	54441.15
615.77	54621.37
615.97	54506.69
616.16	54109.38
616.36	54248.64
616.56	54449.35
616.75	54453.44
616.95	54359.23
617.15	54283.46
617.34	54224.07
617.54	54500.54
617.74	54830.27
617.93	54715.58
618.13	54219.97
618.32	54052.04
618.52	54199.49
618.72	54658.24
618.91	54469.82
619.11	54013.13
619.31	54639.81
619.50	54482.11
619.70	54318.28
619.90	54576.32
620.09	54367.43
620.29	54402.24
620.48	54408.39
620.68	54490.30
620.88	53947.59
621.07	54752.44
621.27	54631.61
621.46	54154.44
621.66	54396.10
621.86	54334.66
622.05	54338.75
622.25	54920.38
622.44	54455.49
622.64	54312.13
622.84	55008.44
623.03	54136.01
623.23	54944.95
623.42	53658.83
623.62	54555.84
623.82	54465.73
624.01	54764.73
624.21	54570.18
624.40	54619.33
624.60	54578.37
624.80	54604.99
624.99	54334.66
625.19	53904.59
625.38	54641.85
625.58	54244.55
625.77	54736.06
625.97	54510.78
626.17	54322.37
626.36	54404.29
626.56	54604.99
626.75	54027.46
626.95	54848.70
627.14	54295.75
627.34	54744.25
627.54	54301.89
627.73	54713.53
627.93	55047.35
628.12	54451.39
628.32	54779.07
628.51	54996.15
628.71	54723.77
628.90	54789.31
629.10	54908.09
629.30	55088.31
629.49	54158.53
629.69	54258.88
629.88	54830.27
630.08	55121.08
630.27	54957.24
630.47	54629.57
630.66	54752.44
630.86	54695.10
631.05	54420.67
631.25	54826.17
631.44	55289.01
631.64	54826.17
631.84	55035.06
632.03	55231.67
632.23	54721.72
632.42	54871.23
632.62	54971.58
632.81	54641.85
633.01	54953.15
633.20	54963.39
633.40	55268.53
633.59	54629.57
633.79	55022.78
633.98	54822.08
634.18	54779.07
634.37	54860.99
634.57	54811.84
634.76	55219.38
634.96	55211.19
635.15	55067.83
635.35	54953.15
635.54	54901.95
635.74	55850.16
635.93	54676.67
636.13	55289.01
636.32	55524.53
636.52	54721.72
636.71	55315.64
636.91	55522.48
637.10	55252.15
637.30	55573.68
637.49	55196.85
637.69	55256.24
637.88	55487.67
638.08	55104.70
638.27	55829.68
638.46	55358.64
638.66	55516.34
638.85	55268.53
639.05	55223.48
639.24	55493.81
639.44	54920.38
639.63	55684.27
639.83	55139.51
640.02	55622.83
640.22	55129.27
640.41	56030.38
640.61	55270.58
640.80	55712.94
640.99	55590.06
641.19	55895.21
641.38	55770.28
641.58	56108.20
641.77	55303.35
641.97	55309.49
642.16	55530.67
642.36	55893.16
642.55	56192.17
642.74	55229.62
642.94	56505.51
643.13	55645.36
643.33	56476.83
643.52	56327.33
643.72	56378.53
643.91	55823.53
644.10	56024.23
644.30	55989.42
644.49	55960.75
644.69	56335.52
644.88	56390.82
645.08	56063.14
645.27	56276.13
645.46	55878.83
645.66	56521.89
645.85	55774.38
646.05	55784.62
646.24	56308.90
646.43	56485.03
646.63	56728.73
646.82	56372.39
647.02	56304.80
647.21	56054.95
647.40	56118.44
647.60	57148.57
647.79	56399.01
647.99	56630.43
648.18	56253.61
648.37	56829.08
648.57	56579.23
648.76	56482.98
648.96	56444.07
649.15	57203.86
649.34	56767.65
649.54	56818.84
649.73	56681.63
649.92	56849.56
650.12	56956.06
650.31	57029.79
650.51	56759.45
650.70	57142.42
650.89	56655.01
651.09	57179.29
651.28	56706.21
651.47	57250.97
651.67	56831.13
651.86	57214.10
652.06	56399.01
652.25	56802.46
652.44	56777.89
652.64	56718.49
652.83	56456.35
653.02	56587.42
653.22	57111.70
653.41	56679.58
653.60	56495.27
653.80	57015.45
653.99	57242.77
654.18	57339.03
654.38	56896.67
654.57	57586.83
654.76	56886.43
654.96	57021.59
655.15	57126.04
655.34	57617.55
655.54	56898.72
655.73	57277.59
655.92	57177.24
656.12	57513.11
656.31	57113.75
656.50	57627.79
656.70	57160.86
656.89	57388.18
657.08	57390.23
657.28	57236.63
657.47	57427.09
657.66	57701.52
657.86	56865.95
658.05	57654.42
658.24	57619.60
658.43	57363.60
658.63	57648.27
658.82	57541.78
659.01	57623.70
659.21	58002.57
659.40	57928.84
659.59	57214.10
659.79	57994.38
659.98	57556.11
660.17	58154.12
660.36	57480.34
660.56	57840.78
660.75	57689.23
660.94	58115.21
661.14	57783.44
661.33	57455.76
661.52	57162.90
661.71	58098.83
661.91	57711.76
662.10	57347.22
662.29	57789.58
662.49	57975.95
662.68	57869.45
662.87	58029.19
663.06	57848.97
663.26	57687.18
663.45	58127.50
663.64	57762.96
663.83	58367.11
664.03	57891.98
664.22	57920.65
664.41	57963.66
664.60	57939.08
664.80	57670.80
664.99	57678.99
665.18	57959.56
665.37	57582.74
665.57	57793.68
665.76	57621.65
665.95	57818.25
666.14	57943.18
666.34	57982.09
666.53	57525.39
666.72	57566.35
666.91	57814.16
667.11	57599.12
667.30	57586.83
667.49	57599.12
667.68	57695.38
667.87	57840.78
668.07	57697.42
668.26	57554.07
668.45	58135.69
668.64	57615.50
668.84	58635.39
669.03	58039.43
669.22	58076.30
669.41	57869.45
669.60	57701.52
669.80	57517.20
669.99	58037.39
670.18	57683.09
670.37	57685.14
670.57	58102.92
670.76	57623.70
670.95	58424.45
671.14	57863.31
671.33	57341.08
671.53	58260.62
671.72	57554.07
671.91	57861.26
672.10	57885.84
672.29	57834.64
672.48	57613.46
672.68	58492.04
672.87	57640.08
673.06	57701.52
673.25	57695.38
673.44	57631.89
673.64	57795.73
673.83	57767.05
674.02	57480.34
674.21	57353.36
674.40	57709.71
674.59	57582.74
674.79	57613.46
674.98	57304.21
675.17	57621.65
675.36	57623.70
675.55	57840.78
675.74	57201.82
675.94	57734.29
676.13	57603.22
676.32	57996.43
676.51	57758.86
676.70	57779.34
676.89	57308.31
677.08	57582.74
677.28	57496.72
677.47	57826.45
677.66	57738.38
677.85	57433.24
678.04	57746.57
678.23	58195.08
678.42	57889.93
678.62	57865.36
678.81	57703.57
679.00	57336.98
679.19	58338.44
679.38	57273.49
679.57	57541.78
679.76	57013.40
679.96	58291.33
680.15	57386.13
680.34	57423.00
680.53	57836.69
680.72	57513.11
680.91	57978.00
681.10	57353.36
681.29	57521.30
681.48	57181.34
681.68	57427.09
681.87	57009.31
682.06	57111.70
682.25	57314.45
682.44	56974.49
682.63	57564.31
682.82	56890.52
683.01	56949.92
683.20	56970.39
683.39	57429.14
683.59	57138.33
683.78	56820.89
683.97	56779.93
684.16	57087.13
684.35	57183.38
684.54	56710.30
684.73	56781.98
684.92	56777.89
685.11	56435.87
685.30	56890.52
685.49	57189.53
685.69	56827.04
685.88	56630.43
686.07	56820.89
686.26	56845.47
686.45	56888.48
686.64	56675.49
686.83	56489.12
687.02	56521.89
687.21	56999.07
687.40	56716.45
687.59	56716.45
687.78	56673.44
687.97	56837.28
688.16	56747.17
688.35	56554.66
688.54	56568.99
688.74	56595.62
688.93	56042.66
689.12	56603.81
689.31	56708.25
689.50	56628.38
689.69	55798.96
689.88	56048.81
690.07	56747.17
690.26	56300.71
690.45	56362.15
690.64	56007.85
690.83	56057.00
691.02	56009.90
691.21	56269.99
691.40	56048.81
691.59	56489.12
691.78	56077.48
691.97	56077.48
692.16	55704.75
692.35	56179.88
692.54	56153.26
692.73	56075.43
692.92	55809.20
693.11	55841.96
693.30	55747.76
693.49	55936.17
693.68	55731.37
693.87	55858.35
694.06	55348.40
694.25	55536.82
694.44	55493.81
694.63	55891.12
694.82	55465.14
695.01	55485.62
695.20	55514.29
695.39	55770.28
695.58	55424.18
695.77	55114.94
695.96	55286.96
696.15	55588.02
696.34	54990.01
696.53	55411.89
696.72	55581.87
696.91	55461.04
697.10	55391.41
697.29	55159.99
697.48	55252.15
697.67	54801.60
697.86	54791.36
698.05	54871.23
698.24	55209.14
698.43	54510.78
698.62	55092.41
698.81	54768.83
699.00	55178.42
699.19	54627.52
699.38	54887.61
699.57	54705.34
699.76	55567.54
699.95	54449.35
700.14	54783.16
700.32	54752.44
700.51	54670.53
700.70	55121.08
700.89	54695.10
701.08	55080.12
701.27	54404.29
701.46	54774.97
701.65	53994.70
701.84	54361.28
702.03	54672.57
702.22	54269.12
702.41	54197.44
702.60	54375.62
702.79	54127.81
702.98	53984.46
703.17	54150.34
703.35	53908.68
703.54	54219.97
703.73	54232.26
703.92	53636.30
704.11	54308.04
704.30	53525.71
704.49	53411.02
704.68	53591.25
704.87	53597.39
705.06	53785.80
705.25	53605.58
705.43	53896.39
705.62	53474.51
705.81	54029.51
706.00	53523.66
706.19	53550.29
706.38	53345.49
706.57	53646.54
706.76	53355.73
706.95	53320.91
707.14	53509.33
707.32	53329.11
707.51	53130.45
707.70	53048.53
707.89	53474.51
708.08	52663.52
708.27	53282.00
708.46	53204.18
708.65	53120.21
708.84	53581.01
709.02	53021.91
709.21	53380.31
709.40	53062.87
709.59	53220.56
709.78	52434.14
709.97	53032.15
710.16	52829.40
710.34	52743.39
710.53	52925.66
710.72	52389.09
710.91	52860.12
711.10	52602.08
711.29	52935.90
711.48	52665.56
711.66	52684.00
711.85	52303.07
712.04	52294.88
712.23	52651.23
712.42	52407.52
712.61	52432.10
712.80	52532.45
712.98	52172.00
713.17	52198.63
713.36	52372.70
713.55	52665.56
713.74	52100.32
713.93	51703.02
714.11	52057.32
714.30	51623.15
714.49	51950.82
714.68	52014.31
714.87	52360.42
715.06	52088.04
715.24	52155.62
715.43	51676.40
715.62	51377.39
715.81	51569.90
716.00	51621.10
716.18	51565.81
716.37	51203.31
716.56	51285.23
716.75	51739.88
716.94	51766.51
717.12	51094.77
717.31	51490.03
717.50	51184.88
717.69	51305.71
717.88	51229.94
718.06	51158.26
718.25	51473.65
718.44	51105.01
718.63	50752.76
718.82	50750.71
719.00	50707.71
719.19	50756.86
719.38	50564.35
719.57	50269.44
719.76	50574.59
719.94	50052.36
720.13	50251.01
720.32	50435.33
720.51	50578.68
720.69	50390.27
720.88	50308.35
721.07	50251.01
721.26	50158.85
721.44	50042.12
721.63	49904.90
721.82	50191.62
722.01	49468.69
722.20	50121.99
722.38	49509.64
722.57	49292.56
722.76	49788.17
722.95	49476.88
723.13	49167.63
723.32	49278.22
723.51	49427.73
723.70	49104.15
723.88	49648.91
724.07	49272.08
724.26	49532.17
724.44	48698.65
724.63	49505.55
724.82	49120.53
725.01	48846.10
725.19	48895.25
725.38	48903.45
725.57	48887.06
725.76	48825.62
725.94	48577.82
726.13	48717.08
726.32	48790.81
726.51	48174.37
726.69	48872.73
726.88	48547.10
727.07	48469.28
727.25	48297.25
727.44	48475.42
727.63	48192.80
727.82	48186.66
728.00	48282.91
728.19	48407.84
728.38	48540.96
728.56	47963.43
728.75	48807.19
728.94	48436.51
729.12	48428.32
729.31	48424.22
729.50	48157.99
729.69	48520.48
729.87	48241.95
730.06	48108.83
730.25	48452.89
730.43	48184.61
730.62	47770.92
730.81	48241.95
730.99	48205.09
731.18	48149.79
731.37	48078.11
731.55	48192.80
731.74	48481.56
731.93	48080.16
732.11	48356.64
732.30	48178.46
732.49	48053.54
732.67	48094.50
732.86	48196.90
733.05	47949.09
733.23	47834.41
733.42	48098.59
733.61	48110.88
733.79	48059.68
733.98	48698.65
734.17	48045.35
734.35	47990.05
734.54	47834.41
734.73	48211.23
734.91	47879.46
735.10	48157.99
735.29	47830.31
735.47	47287.60
735.66	47924.52
735.84	47697.19
736.03	47672.62
736.22	47756.58
736.40	47693.10
736.59	47379.76
736.78	47449.39
736.96	47473.96
737.15	47453.48
737.33	47449.39
737.52	47658.28
737.71	47150.38
737.89	47555.88
738.08	46839.09
738.27	47093.04
738.45	47545.64
738.64	47375.66
738.82	47166.77
739.01	47658.28
739.20	47559.98
739.38	47066.42
739.57	47349.04
739.75	47527.21
739.94	47226.16
740.13	46966.07
740.31	47342.89
740.50	46945.59
740.68	47172.91
740.87	47142.19
741.06	47019.31
741.24	46849.33
741.43	46675.26
741.61	47002.93
741.80	46652.73
741.99	46269.76
742.17	46777.65
742.36	46765.37
742.54	46589.24
742.73	46660.92
742.91	46869.81
743.10	46576.95
743.29	46525.75
743.47	46269.76
743.66	46652.73
743.84	46986.55
744.03	46476.60
744.21	46548.28
744.40	46841.14
744.59	46339.39
744.77	46019.91
744.96	46789.94
745.14	46562.62
745.33	46751.03
745.51	46265.66
745.70	46042.43
745.88	46624.06
746.07	46349.63
746.26	46159.17
746.44	46294.33
746.63	46202.18
746.81	46253.37
747.00	45937.99
747.18	46236.99
747.37	46079.30
747.55	45841.73
747.74	46204.22
747.92	46099.78
748.11	45897.03
748.29	45716.81
748.48	45882.69
748.66	45647.18
748.85	46046.53
749.03	45620.55
749.22	45598.02
749.41	45686.09
749.59	45862.21
749.78	45499.72
749.96	45086.03
750.15	45540.68
750.33	45698.37
750.52	45425.99
750.70	45188.43
750.89	45260.11
751.07	45155.66
751.26	45475.15
751.44	45174.09
751.63	45172.05
751.81	44844.37
752.00	45163.85
752.18	45243.73
752.37	45133.14
752.55	44868.95
752.74	45108.56
752.92	44707.16
753.10	44934.48
753.29	45143.38
753.47	44840.28
753.66	44801.36
753.84	45049.17
754.03	44709.21
754.21	44430.68
754.40	44754.26
754.58	44963.15
754.77	44905.81
754.95	44506.46
755.14	44430.68
755.32	44387.67
755.51	44154.21
755.69	44504.41
755.88	44524.89
756.06	44789.08
756.24	44162.40
756.43	43914.59
756.61	44248.41
756.80	44166.49
756.98	43953.51
757.17	44004.70
757.35	44223.84
757.54	43877.73
757.72	43697.51
757.90	43971.94
758.09	43935.07
758.27	44029.28
758.46	43613.54
758.64	43910.50
758.83	44023.14
759.01	44021.09
759.19	44127.58
759.38	43650.41
759.56	44174.69
759.75	44193.12
759.93	43787.62
760.12	43427.18
760.30	43761.00
760.48	43611.49
760.67	43531.62
760.85	43683.17
761.04	43550.06
761.22	43808.10
761.40	43644.26
761.59	43294.06
761.77	43378.03
761.96	43601.25
762.14	43353.45
762.32	42536.31
762.51	43169.13
762.69	43455.85
762.88	43197.80
763.06	43130.22
763.24	43214.19
763.43	43062.64
763.61	43208.04
763.80	42995.06
763.98	42763.64
764.16	42659.19
764.35	42657.14
764.53	42689.91
764.72	42728.82
764.90	42321.27
765.08	42571.13
765.27	42589.56
765.45	42472.82
765.63	42302.84
765.82	42450.30
766.00	42026.37
766.18	42196.35
766.37	42524.02
766.55	42358.14
766.74	42292.60
766.92	42079.61
767.10	42306.94
767.29	42038.65
767.47	41897.34
767.65	42016.13
767.84	41842.05
768.02	42227.07
768.20	41579.91
768.39	42337.66
768.57	41821.57
768.75	41866.63
768.94	42120.57
769.12	42122.62
769.30	41796.99
769.49	41776.51
769.67	41289.10
769.85	41178.51
770.04	41717.12
770.22	41684.36
770.40	41475.46
770.59	41061.77
770.77	41336.20
770.95	41448.84
771.14	41158.03
771.32	41252.23
771.50	41106.83
771.69	41219.47
771.87	41176.46
772.05	40805.78
772.24	40789.39
772.42	41008.53
772.60	41037.20
772.78	40697.24
772.97	40277.40
773.15	40715.67
773.33	40953.23
773.52	40928.66
773.70	40660.37
773.88	40828.30
774.07	40760.72
774.25	40736.15
774.43	41037.20
774.61	40883.60
774.80	40793.49
774.98	40488.34
775.16	40834.45
775.34	41012.62
775.53	40564.12
775.71	41184.65
775.89	41231.75
776.08	40715.67
776.26	41049.49
776.44	40820.11
776.62	41031.05
776.81	40867.22
776.99	41139.60
777.17	41149.84
777.35	40680.85
777.54	41233.80
777.72	40916.37
777.90	40897.94
778.08	41420.17
778.27	41047.44
778.45	41547.14
778.63	41491.85
778.81	40955.28
779.00	41670.02
779.18	41440.65
779.36	41661.83
779.54	41321.87
779.73	41708.93
779.91	41274.76
780.09	41477.51
780.27	41620.87
780.46	41481.61
780.64	41858.43
780.82	41588.10
781.00	41397.64
781.19	41831.81
781.37	41899.39
781.55	41860.48
781.73	41840.00
781.91	41764.23
782.10	42018.17
782.28	41649.54
782.46	42063.23
782.64	41934.21
782.82	41538.95
783.01	41862.53
783.19	42145.15
783.37	41969.02
783.55	41725.32
783.74	41995.65
783.92	41846.15
784.10	42401.14
784.28	41868.67
784.46	41801.09
784.64	41682.31
784.83	42130.81
785.01	42134.91
785.19	42296.70
785.37	42276.22
785.55	42452.34
785.74	41608.58
785.92	41733.51
786.10	42292.60
786.28	41735.56
786.46	41809.28
786.64	41629.06
786.83	42028.41
787.01	41698.69
787.19	42042.75
787.37	41551.24
787.55	41821.57
787.74	41344.39
787.92	41883.01
788.10	41508.23
788.28	41356.68
788.46	41465.22
788.64	41235.85
788.82	41690.50
789.01	41737.60
789.19	41321.87
789.37	41252.23
789.55	41321.87
789.73	40826.26
789.91	40881.55
790.09	41321.87
790.28	40811.92
790.46	40813.97
790.64	41313.67
790.82	40840.59
791.00	40824.21
791.18	40623.51
791.36	40416.66
791.55	40899.98
791.73	40037.79
791.91	40170.91
792.09	40406.42
792.27	40660.37
792.45	40195.48
792.63	39941.53
792.81	40146.33
793.00	39943.58
793.18	39761.31
793.36	39925.15
793.54	39749.03
793.72	39511.46
793.90	39951.77
794.08	39525.80
794.26	39667.11
794.44	39433.64
794.62	38995.37
794.81	39310.76
794.99	39191.98
795.17	39527.84
795.35	39114.16
795.53	39054.76
795.71	39144.87
795.89	38739.38
796.07	38348.21
796.25	38350.26
796.43	38297.02
796.61	38417.85
796.80	38340.02
796.98	38352.31
797.16	38049.21
797.34	38165.95
797.52	38096.31
797.70	38221.24
797.88	38372.79
798.06	37508.55
798.24	38098.36
798.42	37791.17
798.60	37459.40
798.78	37357.00
798.96	38022.59
799.14	37438.92
799.32	37645.76
799.51	37543.36
799.69	37789.12
799.87	37543.36
800.05	37223.88
800.23	37297.61
800.41	37189.06
800.59	36896.20
800.77	37139.91
800.95	36715.98
801.13	36589.01
801.31	36543.95
801.49	36480.47
801.67	36435.41
801.85	36500.95
802.03	36029.91
802.21	35945.95
802.39	35685.86
802.57	35984.86
802.75	35718.62
802.93	35974.62
803.11	36011.48
803.29	35804.64
803.47	35655.14
803.65	35620.32
803.83	35669.47
804.01	35319.27
804.19	35022.31
804.37	35298.79
804.55	35225.06
804.73	35325.41
804.91	35186.15
805.09	35337.70
805.27	34979.31
805.45	35233.25
805.63	34792.94
805.81	35149.29
805.99	35081.70
806.17	34981.35
806.35	34655.73
806.53	34625.01
806.71	34487.79
806.89	34500.08
807.07	34420.21
807.25	34295.28
807.43	34326.00
807.61	34276.85
807.79	34024.95
807.97	33900.03
808.15	33881.60
808.33	34006.52
808.51	34113.02
808.69	33863.16
808.87	33754.62
809.05	33832.44
809.23	33568.26
809.41	33254.92
809.59	33443.33
809.77	33396.23
809.95	33314.31
810.13	33680.89
810.31	33160.71
810.49	33306.12
810.67	33162.76
810.84	33162.76
811.02	32957.96
811.20	32841.23
811.38	32794.12
811.56	32759.31
811.74	32894.47
811.92	32632.33
812.10	32658.96
812.28	32730.64
812.46	32738.83
812.64	32759.31
812.82	32628.24
813.00	32218.64
813.18	32689.68
813.36	31993.37
813.53	32454.16
813.71	32294.42
813.89	31886.87
814.07	32163.35
814.25	32202.26
814.43	31913.50
814.61	31835.67
814.79	32099.86
814.97	31768.09
815.15	31557.15
815.33	31227.43
815.50	31139.36
815.68	31460.90
815.86	31534.62
816.04	31299.11
816.22	31292.96
816.40	31452.70
816.58	31311.39
816.76	31161.89
816.94	31022.63
817.11	31176.23
817.29	31493.66
817.47	30860.84
817.65	30561.84
817.83	30832.17
818.01	30774.83
818.19	30729.77
818.37	30772.78
818.54	30373.42
818.72	30463.54
818.90	30762.54
819.08	30301.75
819.26	30176.82
819.44	30340.66
819.62	30326.32
819.80	30467.63
819.97	30271.03
820.15	30238.26
820.33	29994.55
820.51	30164.53
820.69	29769.27
820.87	30293.55
821.05	30129.72
821.22	29892.15
821.40	30045.75
821.58	29765.18
821.76	29787.71
821.94	29378.11
822.12	29603.39
822.29	29937.21
822.47	29691.45
822.65	29840.95
822.83	29544.00
823.01	29570.62
823.19	29748.79
823.36	29158.98
823.54	29255.23
823.72	29230.66
823.90	29177.41
824.08	29175.36
824.25	29191.75
824.43	29134.40
824.61	28884.55
824.79	29128.26
824.97	28964.42
825.15	29218.37
825.32	29361.73
825.50	28720.71
825.68	28649.03
825.86	28884.55
826.04	29040.20
826.21	28696.14
826.39	28913.22
826.57	28665.42
826.75	28515.92
826.93	28239.44
827.10	28501.58
827.28	28757.58
827.46	28380.75
827.64	28184.15
827.81	28452.43
827.99	28284.50
828.17	28091.99
828.35	28173.91
828.53	28350.03
828.70	28069.46
828.88	28274.26
829.06	28087.89
829.24	28028.50
829.41	27833.94
829.59	28051.03
829.77	28034.64
829.95	27979.35
830.12	27850.33
830.30	27686.49
830.48	27602.52
830.66	27891.29
830.84	27887.19
831.01	27819.61
831.19	27784.79
831.37	27467.36
831.55	27358.81
831.72	27512.41
831.90	27442.78
832.08	27225.70
832.25	27479.64
832.43	27268.70
832.61	26867.30
832.79	27086.43
832.96	27080.29
833.14	27272.80
833.32	27659.87
833.50	27330.14
833.67	27039.33
833.85	27272.80
834.03	26687.08
834.20	26664.55
834.38	27053.67
834.56	27160.16
834.74	26715.75
834.91	27119.20
835.09	26998.37
835.27	26455.66
835.44	26687.08
835.62	26209.90
835.80	26818.15
835.98	26648.17
836.15	26517.10
836.33	26826.34
836.51	26472.04
836.68	26549.87
836.86	26242.67
837.04	26404.46
837.21	26257.01
837.39	26801.77
837.57	26285.68
837.75	26226.29
837.92	26191.47
838.10	26191.47
838.28	25988.72
838.45	26113.65
838.63	25904.76
838.81	26156.66
838.98	25728.63
839.16	26052.21
839.34	25849.46
839.51	25632.38
839.69	25855.61
839.87	25785.97
840.04	25702.01
840.22	25876.09
840.40	25609.85
840.57	25439.87
840.75	25409.15
840.93	25384.57
841.10	25458.30
841.28	25587.32
841.46	25454.20
841.63	25810.55
841.81	25599.61
841.98	25321.09
842.16	25581.18
842.34	25374.33
842.51	24839.81
842.69	25245.31
842.87	25206.40
843.04	25212.54
843.22	24987.27
843.40	25042.56
843.57	24925.83
843.75	25339.52
843.92	25034.37
844.10	24948.36
844.28	25144.96
844.45	25140.86
844.63	25411.20
844.81	24874.63
844.98	24958.60
845.16	25136.77
845.33	25069.19
845.51	24706.70
845.69	24471.18
845.86	24753.80
846.04	24401.55
846.21	24839.81
846.39	24364.68
846.57	24288.91
846.74	24665.74
846.92	24454.79
847.09	24434.32
847.27	24430.22
847.45	24667.78
847.62	24372.88
847.80	24471.18
847.97	24272.53
848.15	24276.62
848.32	23953.04
848.50	24131.22
848.68	23996.05
848.85	24266.38
849.03	23695.00
849.20	24059.54
849.38	23897.75
849.56	24125.07
849.73	23756.44
849.91	24059.54
850.08	23932.56
850.26	23940.75
850.43	23959.19
850.61	23793.30
850.78	23568.02
850.96	23746.20
851.14	23410.33
851.31	23852.69
851.49	23508.63
851.66	23684.76
851.84	23764.63
852.01	23336.60
852.19	23844.50
852.36	23582.36
852.54	23293.60
852.71	23631.51
852.89	23647.90
853.07	23496.35
853.24	23592.60
853.42	23549.59
853.59	23402.14
853.77	23498.39
853.94	23479.96
854.12	23215.77
854.29	22898.34
854.47	23131.81
854.64	22992.55
854.82	23183.01
854.99	23125.66
855.17	23002.78
855.34	23019.17
855.52	23019.17
855.69	23352.99
855.87	22963.87
856.04	22752.93
856.22	22832.80
856.39	22554.28
856.57	22857.38
856.74	22619.81
856.92	22834.85
857.09	22470.31
857.27	22537.90
857.44	22881.95
857.62	22539.94
857.79	22609.58
857.97	22560.42
858.14	22748.84
858.32	22326.96
858.49	22415.02
858.67	22365.87
858.84	22187.69
859.02	22474.41
859.19	22363.82
859.37	22138.54
859.54	22197.93
859.72	22294.19
859.89	21753.52
860.06	22085.30
860.24	22369.96
860.41	21984.94
860.59	21800.63
860.76	21927.60
860.94	21679.80
861.11	22253.23
861.29	21931.70
861.46	21876.40
861.64	21534.39
861.81	21878.45
861.98	21751.48
862.16	21417.66
862.33	21518.01
862.51	21638.84
862.68	21706.42
862.86	21616.31
863.03	21577.40
863.21	21667.51
863.38	21526.20
863.55	21374.65
863.73	21321.40
863.90	21663.41
864.08	21382.84
864.25	21538.49
864.43	21475.00
864.60	21149.37
864.77	20985.54
864.95	21153.47
865.12	20913.86
865.30	21198.52
865.47	21397.18
865.64	21065.41
865.82	21173.95
865.99	20983.49
866.17	20997.82
866.34	20920.00
866.51	20678.34
866.69	20924.10
866.86	21214.91
867.04	20817.60
867.21	20795.07
867.38	20573.89
867.56	21051.07
867.73	20537.03
867.91	20549.32
868.08	20594.37
868.25	20336.33
868.43	20414.15
868.60	20324.04
868.78	20332.23
868.95	20559.56
869.12	20352.71
869.30	20399.82
869.47	20387.53
869.64	20444.87
869.82	20188.88
869.99	20317.90
870.16	20516.55
870.34	20344.52
870.51	20483.78
870.69	20166.35
870.86	20080.33
871.03	20289.23
871.21	19838.67
871.38	20053.71
871.55	19949.26
871.73	19848.91
871.90	19990.22
872.07	19781.33
872.25	19709.65
872.42	19822.29
872.59	19801.81
872.77	19635.92
872.94	19564.25
873.11	19605.20
873.29	19619.54
873.46	19574.49
873.63	19486.42
873.81	19234.52
873.98	19330.78
874.15	19369.69
874.33	19091.16
874.50	18927.33
874.67	19345.11
874.85	19136.22
875.02	19148.51
875.19	18882.27
875.37	18818.78
875.54	19052.25
875.71	18933.47
875.88	18884.32
876.06	19044.06
876.23	18839.26
876.40	18775.78
876.58	18685.67
876.75	18503.40
876.92	18712.29
877.10	18661.09
877.27	18652.90
877.44	18446.05
877.61	18384.62
877.79	18405.10
877.96	18417.38
878.13	18300.65
878.31	18106.09
878.48	18032.36
878.65	18501.35
878.82	18183.91
879.00	18323.18
879.17	18181.87
879.34	18265.83
879.51	18050.80
879.69	18095.85
879.86	18091.76
880.03	18036.46
880.21	17616.63
880.38	17827.57
880.55	17805.04
880.72	17704.69
880.90	17723.12
881.07	17798.90
881.24	17741.55
881.41	17882.86
881.59	17870.58
881.76	17651.44
881.93	17415.93
882.10	17669.87
882.28	17424.12
882.45	17692.40
882.62	17469.17
882.79	17553.14
882.96	17340.15
883.14	17506.04
883.31	17456.89
883.48	17520.37
883.65	17264.38
883.83	17245.94
884.00	17430.26
884.17	17092.35
884.34	17547.00
884.51	17231.61
884.69	17299.19
884.86	17049.34
885.03	16959.23
885.20	16877.31
885.38	17448.69
885.55	16811.78
885.72	17110.78
885.89	16879.36
886.06	16903.93
886.24	17030.91
886.41	16807.68
886.58	16946.94
886.75	16977.66
886.92	16658.18
887.10	16910.08
887.27	16762.62
887.44	16936.70
887.61	17250.04
887.78	16807.68
887.95	16936.70
888.13	16537.35
888.30	16795.39
888.47	16948.99
888.64	16764.67
888.81	16742.14
888.99	16617.22
889.16	16307.98
889.33	16393.99
889.50	16363.27
889.67	16566.02
889.84	16424.71
890.01	16424.71
890.19	16496.39
890.36	16111.37
890.53	16277.26
890.70	16359.17
890.87	16359.17
891.04	16277.26
891.22	16244.49
891.39	16152.33
891.56	16043.79
891.73	15959.82
891.90	16002.83
892.07	15963.92
892.24	16164.62
892.42	15931.15
892.59	15617.81
892.76	15742.74
892.93	16002.83
893.10	15699.73
893.27	15738.64
893.44	15617.81
893.61	15615.76
893.79	15947.53
893.96	15709.97
894.13	16008.97
894.30	15820.56
894.47	15671.06
894.64	15863.57
894.81	15779.60
894.98	15871.76
895.15	15750.93
895.33	15669.01
895.50	15798.03
895.67	15654.67
895.84	15552.27
896.01	15458.07
896.18	15691.54
896.35	15716.11
896.52	15591.19
896.69	15548.18
896.86	15773.46
897.04	15605.52
897.21	15449.88
897.38	15374.10
897.55	15519.51
897.72	15556.37
897.89	15476.50
898.06	15650.58
898.23	15546.13
898.40	15609.62
898.57	15437.59
898.74	15638.29
898.91	15269.66
899.08	15542.03
899.26	15462.16
899.43	15496.98
899.60	15308.57
899.77	15515.41
899.94	15058.71
900.11	15380.25
900.28	15449.88
900.45	15222.55
900.62	15466.26
900.79	15470.36
900.96	15460.12
901.13	15359.77
901.30	15406.87
901.47	15193.88
901.64	15488.79
901.81	15460.12
901.98	15218.46
902.15	15304.47
902.32	15171.35
902.49	15392.53
902.66	15404.82
902.83	15558.42
903.01	15347.48
903.18	15097.63
903.35	15394.58
903.52	15261.46
903.69	15304.47
903.86	15464.21
904.03	15400.72
904.20	15361.81
904.37	15298.33
904.54	15355.67
904.71	15292.18
904.88	15238.94
905.05	15327.00
905.22	15355.67
905.39	15245.08
905.56	15197.98
905.73	15335.19
905.90	15181.59
906.07	15292.18
906.24	15275.80
906.41	15146.78
906.58	15081.24
906.75	15058.71
906.92	15099.67
907.09	15224.60
907.26	15136.54
907.43	14915.36
907.60	15083.29
907.77	15314.71
907.93	15404.82
908.10	15146.78
908.27	15214.36
908.44	15085.34
908.61	15220.50
908.78	14960.41
908.95	15226.65
909.12	14927.64
909.29	14903.07
909.46	15025.95
909.63	15058.71
909.80	15103.77
909.97	15179.54
910.14	15228.70
910.31	15095.58
910.48	14890.78
910.65	14765.85
910.82	14858.01
910.99	15044.38
911.16	15064.86
911.33	14769.95
911.50	14831.39
911.66	14907.16
911.83	14831.39
912.00	14677.79
912.17	14677.79
912.34	14911.26
912.51	14724.90
912.68	14864.16
912.85	14534.43
913.02	14880.54
913.19	14491.43
913.36	14399.27
913.53	14761.76
913.70	14720.80
913.86	14540.58
914.03	14513.95
914.20	14417.70
914.37	14495.52
914.54	14640.93
914.71	14413.60
914.88	14554.91
915.05	14317.35
915.22	14378.79
915.39	14264.10
915.55	14307.11
915.72	14358.31
915.89	14325.54
916.06	13815.60
916.23	14116.65
916.40	14057.26
916.57	13905.71
916.74	13885.23
916.91	13987.63
917.07	13965.10
917.24	13889.32
917.41	13764.40
917.58	13952.81
917.75	13440.82
917.92	13559.60
918.09	13623.09
918.26	13539.12
918.42	13573.94
918.59	13659.95
918.76	13406.00
918.93	13365.04
919.10	13436.72
919.27	13483.83
919.44	13639.47
919.60	13309.75
919.77	13348.66
919.94	13262.65
920.11	13143.86
920.28	13324.08
920.45	13096.76
920.61	13047.61
920.78	13014.84
920.95	12963.64
921.12	13109.05
921.29	13061.94
921.46	12611.39
921.62	12791.61
921.79	13020.99
921.96	12668.73
922.13	12615.49
922.30	12699.45
922.47	12781.37
922.63	12521.28
922.80	12603.20
922.97	12603.20
923.14	12296.00
923.31	12611.39
923.47	12312.39
923.64	12451.65
923.81	12031.82
923.98	12218.18
924.15	12160.84
924.32	12101.45
924.48	12130.12
924.65	12189.51
924.82	12064.58
924.99	12037.96
925.15	11654.99
925.32	12031.82
925.49	11751.24
925.66	11806.54
925.83	11726.67
925.99	11698.00
926.16	11974.47
926.33	11755.34
926.50	11384.66
926.67	11583.31
926.83	11511.63
927.00	11364.18
927.17	11628.37
927.34	11231.06
927.50	11265.88
927.67	11222.87
927.84	11233.11
928.01	11231.06
928.17	11044.70
928.34	10958.68
928.51	10889.05
928.68	10968.92
928.84	10725.21
929.01	10659.68
929.18	10671.97
929.35	10936.15
929.51	10809.18
929.68	10538.85
929.85	10491.74
930.02	10645.34
930.18	10399.59
930.35	10588.00
930.52	10544.99
930.69	10413.92
930.85	10381.15
931.02	10323.81
931.19	10465.12
931.36	10145.64
931.52	10307.43
931.69	10129.25
931.86	10297.19
932.02	9897.83
932.19	10100.58
932.36	9924.46
932.53	9770.86
932.69	9863.02
932.86	9867.11
933.03	9877.35
933.19	9668.46
933.36	9848.68
933.53	9744.24
933.70	9600.88
933.86	9670.51
934.03	9586.54
934.20	9740.14
934.36	9391.98
934.53	9242.48
934.70	9215.86
934.86	9297.78
935.03	9043.83
935.20	9168.76
935.36	9029.49
935.53	8951.67
935.70	8724.35
935.86	8808.31
936.03	8552.32
936.20	8779.64
936.36	8552.32
936.53	8501.12
936.70	8480.64
936.86	8494.97
937.03	8404.86
937.20	8128.39
937.36	8314.75
937.53	7972.74
937.70	7911.30
937.86	7892.87
938.03	7845.77
938.20	8048.52
938.36	7597.96
938.53	7718.79
938.70	7425.93
938.86	7479.18
939.03	7337.87
939.20	7063.44
939.36	7255.95
939.53	7145.36
939.70	7434.13
939.86	6893.46
940.03	6778.78
940.19	6832.02
940.36	6948.76
940.53	6797.21
940.69	6668.19
940.86	6643.61
941.03	6563.74
941.19	6303.65
941.36	6377.37
941.52	6418.33
941.69	6324.13
941.86	6297.50
942.02	6168.48
942.19	6098.85
942.35	6102.95
942.52	5959.59
942.69	5957.54
942.85	5892.01
943.02	5765.03
943.18	5978.02
943.35	5853.09
943.52	5863.33
943.68	5758.89
943.85	5611.43
944.01	5660.59
944.18	5611.43
944.35	5623.72
944.51	5547.95
944.68	5435.31
944.84	5418.93
945.01	5369.77
945.17	5427.12
945.34	5539.76
945.51	5519.28
945.67	5480.36
945.84	5410.73
946.00	5339.05
946.17	5416.88
946.33	5328.81
946.50	5463.98
946.67	5412.78
946.83	5410.73
947.00	5337.01
947.16	5240.75
947.33	5267.38
947.49	5250.99
947.66	5177.26
947.82	5244.85
947.99	5115.83
948.16	5191.60
948.32	5218.22
948.49	5365.68
948.65	5392.30
948.82	5263.28
948.98	5158.83
949.15	5275.57
949.31	5238.70
949.48	5404.59
949.64	5169.07
949.81	5240.75
949.97	5294.00
950.14	5226.42
950.30	5312.43
950.47	5380.01
950.63	5220.27
950.80	5212.08
950.96	5402.54
951.13	5246.90
951.30	5140.40
951.46	5310.38
951.63	5453.74
951.79	5431.21
951.96	5382.06
952.12	5277.62
952.29	5339.05
952.45	5300.14
952.62	5429.17
952.78	5371.82
952.94	5324.72
953.11	5334.96
953.27	5255.09
953.44	5459.88
953.60	5328.81
953.77	5423.02
953.93	5355.44
954.10	5255.09
954.26	5398.45
954.43	5287.86
954.59	5425.07
954.76	5468.08
954.92	5300.14
955.09	5525.42
955.25	5320.62
955.42	5486.51
955.58	5445.55
955.75	5455.79
955.91	5420.97
956.07	5304.24
956.24	5459.88
956.40	5345.20
956.57	5431.21
956.73	5326.77
956.90	5382.06
957.06	5451.69
957.23	5425.07
957.39	5429.17
957.56	5384.11
957.72	5400.49
957.88	5412.78
958.05	5560.24
958.21	5527.47
958.38	5423.02
958.54	5484.46
958.71	5760.94
958.87	5386.16
959.03	5439.40
959.20	5459.88
959.36	5463.98
959.53	5330.86
959.69	5386.16
959.85	5232.56
960.02	5287.86
960.18	5283.76
960.35	5355.44
960.51	5478.32
960.68	5287.86
960.84	5363.63
961.00	5455.79
961.17	5341.10
961.33	5449.64
961.50	5496.75
961.66	5345.20
961.82	5357.49
961.99	5410.73
962.15	5525.42
962.31	5527.47
962.48	5398.45
962.64	5416.88
962.81	5298.10
962.97	5287.86
963.13	5412.78
963.30	5377.97
963.46	5414.83
963.62	5398.45
963.79	5322.67
963.95	5406.64
964.12	5294.00
964.28	5183.41
964.44	5265.33
964.61	5365.68
964.77	5302.19
964.93	5396.40
965.10	5275.57
965.26	5250.99
965.42	5281.71
965.59	5218.22
965.75	5224.37
965.92	5449.64
966.08	5406.64
966.24	5427.12
966.41	5207.98
966.57	5287.86
966.73	5302.19
966.90	5222.32
967.06	5189.55
967.22	5308.34
967.39	5222.32
967.55	5148.59
967.71	4970.42
967.88	5228.46
968.04	5160.88
968.20	5013.43
968.37	5144.50
968.53	5111.73
968.69	5134.26
968.85	5234.61
969.02	5199.79
969.18	5130.16
969.34	5177.26
969.51	5152.69
969.67	5275.57
969.83	4949.94
970.00	5103.54
970.16	5093.30
970.32	4999.09
970.48	5119.92
970.65	4997.04
970.81	4870.07
970.97	5011.38
971.14	5005.24
971.30	5121.97
971.46	4829.11
971.63	5005.24
971.79	5003.19
971.95	4857.78
972.11	4863.93
972.28	4958.13
972.44	5023.67
972.60	4845.49
972.76	4935.60
972.93	4966.32
973.09	4843.45
973.25	4935.60
973.42	4820.92
973.58	4951.99
973.74	4884.41
973.90	4763.58
974.07	4833.21
974.23	4845.49
974.39	4911.03
974.55	4687.80
974.72	4886.45
974.88	4685.75
975.04	4775.86
975.20	4822.97
975.37	4644.79
975.53	4769.72
975.69	4769.72
975.85	4683.70
976.01	4802.49
976.18	4681.66
976.34	4663.22
976.50	4743.10
976.66	4808.63
976.83	4659.13
976.99	4663.22
977.15	4679.61
977.31	4429.76
977.47	4779.96
977.64	4689.85
977.80	4650.94
977.96	4607.93
978.12	4585.40
978.29	4640.70
978.45	4444.09
978.61	4405.18
978.77	4609.98
978.93	4431.80
979.10	4544.44
979.26	4515.77
979.42	4534.20
979.58	4460.48
979.74	4409.28
979.91	4554.68
980.07	4521.92
980.23	4501.44
980.39	4335.55
980.55	4421.56
980.71	4304.83
980.88	4317.12
981.04	4380.61
981.20	4384.70
981.36	4392.89
981.52	4419.52
981.68	4390.84
981.85	4411.32
982.01	4386.75
982.17	4274.11
982.33	4503.48
982.49	4425.66
982.65	4143.04
982.82	4302.78
982.98	4241.34
983.14	4202.43
983.30	4300.73
983.46	4345.79
983.62	4177.86
983.79	4290.49
983.95	4245.44
984.11	4184.00
984.27	4116.42
984.43	4192.19
984.59	4153.28
984.75	4171.71
984.91	4153.28
985.08	4239.30
985.24	4050.88
985.40	4067.27
985.56	4063.17
985.72	4169.66
985.88	4210.62
986.04	4071.36
986.20	4042.69
986.37	4108.23
986.53	4057.03
986.69	4007.87
986.85	4024.26
987.01	4018.11
987.17	4118.47
987.33	3919.81
987.49	3960.77
987.65	3919.81
987.82	3981.25
987.98	3864.52
988.14	3870.66
988.30	3928.00
988.46	3807.17
988.62	3977.16
988.78	3854.28
988.94	3841.99
989.10	3809.22
989.26	3798.98
989.42	3981.25
989.59	3862.47
989.75	3878.85
989.91	3913.67
990.07	3639.24
990.23	3770.31
990.39	3860.42
990.55	3887.04
990.71	3674.06
990.87	3782.60
991.03	3672.01
991.19	3672.01
991.35	3803.08
991.51	3620.81
991.67	3870.66
991.83	3770.31
992.00	3676.10
992.16	3831.75
992.32	3768.26
992.48	3725.26
992.64	3487.69
992.80	3661.77
992.96	3620.81
993.12	3688.39
993.28	3674.06
993.44	3571.66
993.60	3729.35
993.76	3672.01
993.92	3686.34
994.08	3614.66
994.24	3643.34
994.40	3633.10
994.56	3637.19
994.72	3596.23
994.88	3442.64
995.04	3649.48
995.20	3524.55
995.36	3592.14
995.52	3487.69
995.68	3600.33
995.84	3430.35
996.00	3596.23
996.16	3547.08
996.32	3350.48
996.48	3514.31
996.64	3487.69
996.80	3387.34
996.96	3559.37
997.12	3401.68
997.28	3327.95
997.44	3450.83
997.60	3426.25
997.76	3534.79
997.92	3465.16
998.08	3422.16
998.24	3379.15
998.40	3352.52
998.56	3368.91
998.72	3248.08
998.88	3297.23
999.04	3289.04
999.20	3379.15
999.36	3227.60
999.52	3377.10
999.68	3366.86
999.84	3368.91
1000.00	3258.32
1000.16	3381.20
1000.32	3198.93
1000.48	3284.94
1000.64	3184.59
1000.80	3213.26
1000.95	3252.17
1001.11	3264.46
1001.27	3215.31
1001.43	3243.98
1001.59	3096.53
1001.75	3198.93
1001.91	3207.12
1002.07	3151.82
1002.23	3041.23
1002.39	3098.58
1002.55	3071.95
1002.71	3092.43
1002.87	3049.43
1003.03	3000.27
1003.19	3086.29
1003.34	3266.51
1003.50	2994.13
1003.66	3149.78
1003.82	3074.00
1003.98	3155.92
1004.14	3098.58
1004.30	3059.67
1004.46	2895.83
1004.62	3012.56
1004.78	2963.41
1004.94	3076.05
1005.09	3039.19
1005.25	3024.85
1005.41	2906.07
1005.57	2969.55
1005.73	2904.02
1005.89	2924.50
1006.05	2979.79
1006.21	2985.94
1006.37	2869.20
1006.52	2813.91
1006.68	2979.79
1006.84	3153.87
1007.00	2858.96
1007.16	2971.60
1007.32	2858.96
1007.48	2863.06
1007.64	2942.93
1007.79	2822.10
1007.95	2942.93
1008.11	2867.16
1008.27	2775.00
1008.43	2803.67
1008.59	2818.00
1008.75	2875.35
1008.91	2842.58
1009.06	2838.48
1009.22	2838.48
1009.38	2920.40
1009.54	2811.86
1009.70	2848.72
1009.86	2873.30
1010.01	2805.72
1010.17	2736.09
1010.33	2852.82
1010.49	2691.03
1010.65	2760.66
1010.81	2641.88
1010.96	2701.27
1011.12	2768.85
1011.28	2670.55
1011.44	2818.00
1011.60	2711.51
1011.76	2600.92
1011.91	2783.19
1012.07	2625.50
1012.23	2703.32
1012.39	2609.11
1012.55	2715.61
1012.71	2611.16
1012.86	2729.94
1013.02	2680.79
1013.18	2582.49
1013.34	2674.65
1013.50	2701.27
1013.65	2570.20
1013.81	2566.10
1013.97	2621.40
1014.13	2654.17
1014.29	2693.08
1014.44	2611.16
1014.60	2541.53
1014.76	2600.92
1014.92	2652.12
1015.07	2660.31
1015.23	2490.33
1015.39	2576.34
1015.55	2525.15
1015.71	2555.86
1015.86	2613.21
1016.02	2492.38
1016.18	2455.51
1016.34	2580.44
1016.49	2508.76
1016.65	2531.29
1016.81	2484.19
1016.97	2500.57
1017.12	2500.57
1017.28	2459.61
1017.44	2471.90
1017.60	2408.41
1017.75	2445.27
1017.91	2383.84
1018.07	2559.96
1018.23	2410.46
1018.38	2467.80
1018.54	2379.74
1018.70	2478.04
1018.86	2394.08
1019.01	2420.70
1019.17	2412.51
1019.33	2600.92
1019.49	2344.92
1019.64	2465.75
1019.80	2471.90
1019.96	2484.19
1020.12	2422.75
1020.27	2228.19
1020.43	2449.37
1020.59	2336.73
1020.74	2435.03
1020.90	2404.32
1021.06	2269.15
1021.22	2336.73
1021.37	2430.94
1021.53	2285.53
1021.69	2428.89
1021.84	2297.82
1022.00	2367.45
1022.16	2308.06
1022.31	2269.15
1022.47	2267.10
1022.63	2449.37
1022.79	2312.16
1022.94	2248.67
1023.10	2416.60
1023.26	2299.87
1023.41	2295.77
1023.57	2181.09
1023.73	2328.54
1023.88	2230.24
1024.04	2273.25
1024.20	2250.72
1024.35	2213.85
1024.51	2244.57
1024.67	2287.58
1024.82	2281.44
1024.98	2195.42
1025.14	2271.20
1025.29	2277.34
1025.45	2275.29
1025.61	2203.61
1025.76	2285.53
1025.92	2250.72
1026.08	2238.43
1026.23	2271.20
1026.39	2312.16
1026.55	2123.74
1026.70	2101.22
1026.86	2220.00
1027.02	2250.72
1027.17	2176.99
1027.33	2213.85
1027.48	2220.00
1027.64	2187.23
1027.80	2088.93
1027.95	2222.05
1028.11	2111.46
1028.27	2115.55
1028.42	2150.37
1028.58	2162.66
1028.73	2103.26
1028.89	2011.11
1029.05	2199.52
1029.20	2181.09
>>>>>End Processed Spectral Data<<<<<
