SpectraSuite Data File
++++++++++++++++++++++++++++++++++++
Date: Fri Jun 02 14:41:56 CEST 2017
User: INFO_000
Dark Spectrum Present: No
Reference Spectrum Present: No
Number of Sampled Component Spectra: 1
Spectrometers: USB4H00879
Integration Time (usec): 80000 (USB4H00879)
Spectra Averaged: 1 (USB4H00879)
Boxcar Smoothing: 0 (USB4H00879)
Correct for Electrical Dark: No (USB4H00879)
Strobe/Lamp Enabled: No (USB4H00879)
Correct for Detector Non-linearity: No (USB4H00879)
Correct for Stray Light: No (USB4H00879)
Number of Pixels in Processed Spectrum: 3648
>>>>>Begin Processed Spectral Data<<<<<
345.13	1290.22
345.34	1290.22
345.56	1290.22
345.78	1318.89
345.99	1304.56
346.21	1667.05
346.42	1718.25
346.64	1665.00
346.86	1785.83
347.07	1693.67
347.29	1755.11
347.50	1595.37
347.72	1679.33
347.94	1732.58
348.15	1624.04
348.37	1556.46
348.59	1654.76
348.80	1665.00
349.02	1781.73
349.23	1929.19
349.45	1826.79
349.67	1896.42
349.88	1789.92
350.10	1986.53
350.31	1808.36
350.53	1820.64
350.75	1931.23
350.96	1728.49
351.18	1890.28
351.39	1820.64
351.61	1845.22
351.82	1839.08
352.04	1884.13
352.26	1816.55
352.47	1906.66
352.69	1935.33
352.90	1746.92
353.12	1871.84
353.34	1857.51
353.55	1925.09
353.77	1863.65
353.98	1804.26
354.20	1812.45
354.41	1898.47
354.63	1935.33
354.85	2078.69
355.06	1888.23
355.28	1783.78
355.49	1859.56
355.71	1902.56
355.92	1824.74
356.14	1955.81
356.35	1935.33
356.57	1877.99
356.79	1920.99
357.00	1867.75
357.22	1902.56
357.43	1830.88
357.65	1937.38
357.86	1867.75
358.08	1886.18
358.29	1951.71
358.51	2011.11
358.72	2050.02
358.94	2023.39
359.16	1937.38
359.37	1953.76
359.59	1886.18
359.80	2039.78
360.02	1861.60
360.23	2052.06
360.45	2066.40
360.66	1906.66
360.88	1882.08
361.09	1925.09
361.31	2009.06
361.52	1984.48
361.74	2050.02
361.95	2068.45
362.17	2023.39
362.38	2146.27
362.60	2045.92
362.81	1982.43
363.03	1920.99
363.24	2031.58
363.46	2115.55
363.67	2023.39
363.89	1974.24
364.10	2045.92
364.32	2007.01
364.53	2086.88
364.75	1916.90
364.96	2000.87
365.18	2029.54
365.39	2054.11
365.61	1951.71
365.82	2209.76
366.04	2019.30
366.25	1935.33
366.47	1966.05
366.68	1996.77
366.90	1978.34
367.11	2039.78
367.33	2072.54
367.54	2056.16
367.76	2035.68
367.97	2072.54
368.19	2011.11
368.40	2093.02
368.62	1912.80
368.83	1986.53
369.05	2054.11
369.26	2007.01
369.48	1988.58
369.69	1931.23
369.91	2131.94
370.12	2082.78
370.33	2113.50
370.55	1970.15
370.76	2080.74
370.98	2129.89
371.19	2023.39
371.41	2074.59
371.62	2107.36
371.84	1951.71
372.05	2201.57
372.27	2050.02
372.48	2111.46
372.69	2009.06
372.91	2107.36
373.12	2142.18
373.34	2129.89
373.55	2203.61
373.77	2117.60
373.98	2158.56
374.20	2168.80
374.41	2240.48
374.62	2170.85
374.84	2119.65
375.05	2238.43
375.27	2172.89
375.48	2211.81
375.70	2136.03
375.91	2181.09
376.12	2232.29
376.34	2185.18
376.55	2224.09
376.77	2244.57
376.98	2183.13
377.19	2193.37
377.41	2201.57
377.62	2254.81
377.84	2263.01
378.05	2359.26
378.27	2172.89
378.48	2377.69
378.69	2508.76
378.91	2340.83
379.12	2279.39
379.34	2306.01
379.55	2301.92
379.76	2303.96
379.98	2240.48
380.19	2248.67
380.41	2234.33
380.62	2301.92
380.83	2269.15
381.05	2279.39
381.26	2471.90
381.47	2215.90
381.69	2326.49
381.90	2441.18
382.12	2287.58
382.33	2295.77
382.54	2203.61
382.76	2351.07
382.97	2383.84
383.19	2187.23
383.40	2377.69
383.61	2316.25
383.83	2260.96
384.04	2314.20
384.25	2285.53
384.47	2445.27
384.68	2353.12
384.89	2398.17
385.11	2330.59
385.32	2420.70
385.54	2447.32
385.75	2402.27
385.96	2387.93
386.18	2506.71
386.39	2396.12
386.60	2396.12
386.82	2521.05
387.03	2480.09
387.24	2539.48
387.46	2457.56
387.67	2545.63
387.88	2510.81
388.10	2568.15
388.31	2494.43
388.52	2674.65
388.74	2576.34
388.95	2543.58
389.16	2672.60
389.38	2607.06
389.59	2674.65
389.80	2639.83
390.02	2541.53
390.23	2658.26
390.44	2629.59
390.66	2576.34
390.87	2482.14
391.08	2650.07
391.30	2703.32
391.51	2680.79
391.72	2691.03
391.94	2711.51
392.15	2695.13
392.36	2699.22
392.58	2680.79
392.79	2736.09
393.00	2701.27
393.22	2723.80
393.43	2838.48
393.64	2881.49
393.85	2840.53
394.07	2805.72
394.28	2760.66
394.49	2795.48
394.71	2856.92
394.92	2867.16
395.13	2785.24
395.35	2820.05
395.56	2791.38
395.77	2848.72
395.98	2783.19
396.20	2863.06
396.41	2830.29
396.62	2987.99
396.84	2854.87
397.05	2912.21
397.26	2869.20
397.47	2930.64
397.69	2879.44
397.90	3098.58
398.11	3006.42
398.32	2949.08
398.54	2955.22
398.75	2875.35
398.96	3045.33
399.18	3186.64
399.39	3033.04
399.60	3100.62
399.81	2998.23
400.03	3063.76
400.24	3360.72
400.45	3010.51
400.66	3127.25
400.88	3043.28
401.09	3348.43
401.30	3086.29
401.51	3203.02
401.73	3256.27
401.94	3198.93
402.15	3246.03
402.36	3231.69
402.58	3200.98
402.79	3180.50
403.00	3114.96
403.21	3342.28
403.43	3321.81
403.64	3342.28
403.85	3182.54
404.06	3274.70
404.27	3178.45
404.49	3243.98
404.70	3223.50
404.91	3276.75
405.12	3217.36
405.34	3262.41
405.55	3522.51
405.76	3127.25
405.97	3209.17
406.19	3395.53
406.40	3323.85
406.61	3362.76
406.82	3350.48
407.03	3356.62
407.25	3375.05
407.46	3567.56
407.67	3616.71
407.88	3553.23
408.09	3522.51
408.31	3272.65
408.52	3432.40
408.73	3504.07
408.94	3395.53
409.15	3434.44
409.37	3514.31
409.58	3581.90
409.79	3657.67
410.00	3585.99
410.21	3409.87
410.43	3510.22
410.64	3434.44
410.85	3542.99
411.06	3655.62
411.27	3610.57
411.48	3678.15
411.70	3770.31
411.91	3725.26
412.12	3805.13
412.33	3663.82
412.54	3643.34
412.76	3731.40
412.97	3866.56
413.18	3594.19
413.39	3819.46
413.60	3774.41
413.81	3819.46
414.03	3743.69
414.24	3766.21
414.45	3919.81
414.66	3633.10
414.87	3778.50
415.08	3766.21
415.30	3835.85
415.51	3821.51
415.72	3819.46
415.93	3852.23
416.14	3942.34
416.35	3887.04
416.56	3856.33
416.78	3940.29
416.99	3932.10
417.20	3983.30
417.41	4009.92
417.62	3977.16
417.83	4036.55
418.04	4054.98
418.26	3919.81
418.47	3946.44
418.68	4175.81
418.89	4140.99
419.10	4198.34
419.31	4106.18
419.52	4233.15
419.73	4085.70
419.95	4253.63
420.16	4069.31
420.37	4063.17
420.58	4110.27
420.79	3911.62
421.00	4184.00
421.21	4298.69
421.42	4145.09
421.63	4317.12
421.85	4202.43
422.06	4370.37
422.27	4288.45
422.48	4310.97
422.69	4456.38
422.90	4495.29
423.11	4255.68
423.32	4423.61
423.53	4499.39
423.75	4505.53
423.96	4552.63
424.17	4569.02
424.38	4583.35
424.59	4487.10
424.80	4560.83
425.01	4593.59
425.22	4495.29
425.43	4554.68
425.64	4806.58
425.85	4732.86
426.06	4792.25
426.28	4667.32
426.49	4657.08
426.70	4614.07
426.91	4747.19
427.12	4775.86
427.33	4833.21
427.54	4708.28
427.75	4749.24
427.96	4861.88
428.17	4911.03
428.38	5038.00
428.59	5154.74
428.80	4906.93
429.01	4927.41
429.23	4937.65
429.44	5220.27
429.65	5195.70
429.86	5148.59
430.07	4954.04
430.28	4999.09
430.49	5148.59
430.70	5367.73
430.91	5210.03
431.12	5181.36
431.33	5244.85
431.54	5269.42
431.75	5343.15
431.96	5236.66
432.17	5291.95
432.38	5242.80
432.59	5709.74
432.80	5427.12
433.01	5529.52
433.22	5523.37
433.43	5468.08
433.64	5468.08
433.85	5418.93
434.06	5533.61
434.27	5388.21
434.49	5568.43
434.70	5662.63
434.91	5629.87
435.12	5679.02
435.33	5533.61
435.54	5709.74
435.75	5584.81
435.96	5451.69
436.17	5535.66
436.38	5738.41
436.59	5816.23
436.80	5719.98
437.01	6029.22
437.22	6057.89
437.43	5892.01
437.64	5672.87
437.85	5836.71
438.06	6045.60
438.27	5873.57
438.48	5881.77
438.69	6000.55
438.90	6117.28
439.11	5834.66
439.32	6104.99
439.53	6111.14
439.74	6117.28
439.95	6207.39
440.16	5992.36
440.37	6096.80
440.57	5990.31
440.78	6209.44
440.99	6162.34
441.20	6203.30
441.41	6113.19
441.62	6207.39
441.83	6000.55
442.04	6229.92
442.25	6334.37
442.46	6330.27
442.67	6332.32
442.88	6668.19
443.09	6176.67
443.30	6236.06
443.51	6479.77
443.72	6629.27
443.93	6322.08
444.14	6768.54
444.35	6367.13
444.56	6582.17
444.77	6502.30
444.98	6696.86
445.19	6604.70
445.40	6563.74
445.61	6547.36
445.81	6770.58
446.02	6735.77
446.23	6678.43
446.44	6733.72
446.65	6791.06
446.86	6643.61
447.07	6709.15
447.28	7057.30
447.49	6936.47
447.70	6754.20
447.91	6952.85
448.12	7165.84
448.33	7061.40
448.54	6973.33
448.74	6913.94
448.95	6893.46
449.16	6840.22
449.37	7143.32
449.58	7026.58
449.79	7301.01
450.00	6899.61
450.21	7161.75
450.42	7344.02
450.63	7364.50
450.84	7346.06
451.05	7272.34
451.25	7298.96
451.46	7294.86
451.67	7516.05
451.88	7491.47
452.09	7526.29
452.30	7430.03
452.51	7376.78
452.72	7575.44
452.93	7659.40
453.13	7315.34
453.34	7421.84
453.55	7593.87
453.76	7675.79
453.97	7835.53
454.18	7817.10
454.39	7696.27
454.60	7823.24
454.81	7788.43
455.01	7964.55
455.22	7600.01
455.43	7792.52
455.64	8052.61
455.85	8202.11
456.06	8540.03
456.27	8171.40
456.48	8081.28
456.68	8296.32
456.89	8193.92
457.10	8443.78
457.31	8413.06
457.52	8324.99
457.73	8417.15
457.94	8560.51
458.14	8116.10
458.35	8945.53
458.56	8494.97
458.77	8552.32
458.98	8644.48
459.19	8544.13
459.39	8748.92
459.60	8769.40
459.81	8527.74
460.02	8742.78
460.23	8798.07
460.44	9131.89
460.65	8961.91
460.85	9338.74
461.06	9383.79
461.27	8925.05
461.48	9402.22
461.69	9293.68
461.89	8912.76
462.10	9340.79
462.31	9068.41
462.52	9215.86
462.73	9285.49
462.94	9633.64
463.14	9396.08
463.35	9412.46
463.56	9934.70
463.77	9871.21
463.98	9592.69
464.18	9459.57
464.39	9809.77
464.60	9770.86
464.81	9928.55
465.02	9879.40
465.23	10110.82
465.43	10024.81
465.64	10190.69
465.85	10254.18
466.06	10178.40
466.27	10544.99
466.47	10379.11
466.68	10473.31
466.89	10489.70
467.10	10768.22
467.30	10411.87
467.51	10764.12
467.72	10895.19
467.93	10757.98
468.14	10749.79
468.34	10825.56
468.55	11108.18
468.76	10997.59
468.97	10940.25
469.17	10915.67
469.38	11376.47
469.59	11618.13
469.80	11034.46
470.01	11169.62
470.21	11306.84
470.42	11450.19
470.63	11507.54
470.84	11417.43
471.04	11761.48
471.25	11630.41
471.46	11743.05
471.67	12054.34
471.87	11702.09
472.08	11837.26
472.29	12302.15
472.50	11808.59
472.70	12068.68
472.91	12216.13
473.12	12324.68
473.33	12455.75
473.53	12760.89
473.74	12486.47
473.95	13002.55
474.16	12668.73
474.36	12865.34
474.57	13092.66
474.78	13268.79
474.99	13023.03
475.19	12998.46
475.40	13463.35
475.61	13512.50
475.81	13678.38
476.02	13743.92
476.23	13649.71
476.44	13854.51
476.64	14065.45
476.85	14069.55
477.06	13985.58
477.27	14526.24
477.47	14245.67
477.68	14417.70
477.89	14520.10
478.09	14475.04
478.30	14669.60
478.51	14724.90
478.71	14772.00
478.92	14952.22
479.13	15048.47
479.34	15189.78
479.54	15083.29
479.75	15216.41
479.96	15480.60
480.16	15359.77
480.37	15388.44
480.58	15793.94
480.78	15750.93
480.99	15957.77
481.20	15931.15
481.41	16185.10
481.61	16160.52
481.82	16322.31
482.03	16228.10
482.23	16387.85
482.44	16488.20
482.65	16604.93
482.85	16674.56
483.06	16897.79
483.27	16852.73
483.47	16957.18
483.68	16881.41
483.89	17067.77
484.09	17151.74
484.30	17413.88
484.51	17538.80
484.71	17616.63
484.92	17438.45
485.13	17907.44
485.33	17835.76
485.54	17833.71
485.75	18054.89
485.95	18114.28
486.16	18210.54
486.37	18456.29
486.57	18304.74
486.78	18310.89
486.98	18337.51
487.19	18763.49
487.40	18915.04
487.60	18929.38
487.81	19201.76
488.02	18898.66
488.22	18853.60
488.43	19218.14
488.64	19320.54
488.84	19521.24
489.05	19726.04
489.25	19355.35
489.46	19930.83
489.67	19715.80
489.87	20041.42
490.08	19992.27
490.29	20020.94
490.49	20358.86
490.70	20639.43
490.90	20600.52
491.11	20291.27
491.32	20618.95
491.52	20629.19
491.73	20750.02
491.94	20659.91
492.14	20793.03
492.35	20985.54
492.55	20950.72
492.76	21163.71
492.97	21585.59
493.17	21362.36
493.38	21485.24
493.58	21632.69
493.79	21638.84
494.00	21583.54
494.20	22005.42
494.41	21806.77
494.61	22136.49
494.82	21923.51
495.02	21970.61
495.23	22109.87
495.44	22539.94
495.64	22619.81
495.85	22662.82
496.05	22605.48
496.26	22374.06
496.47	22886.05
496.67	22810.28
496.88	23160.48
497.08	22830.76
497.29	23223.97
497.49	23377.56
497.70	23125.66
497.91	23148.19
498.11	23449.24
498.32	23459.48
498.52	23760.53
498.73	23854.74
498.93	23828.12
499.14	23897.75
499.34	23963.28
499.55	23991.95
499.76	24184.46
499.96	24188.56
500.17	24293.01
500.37	24665.74
500.58	24213.13
500.78	24295.05
500.99	24532.62
501.19	24573.58
501.40	24577.67
501.60	24462.99
501.81	24886.92
502.02	24823.43
502.22	24667.78
502.43	25304.70
502.63	25087.62
502.84	25104.00
503.04	25355.90
503.25	25558.65
503.45	25251.45
503.66	25392.76
503.86	25271.93
504.07	25765.49
504.27	25472.64
504.48	25988.72
504.68	25917.04
504.89	25962.10
505.09	26177.14
505.30	26158.70
505.50	26195.57
505.71	26306.16
505.91	26467.95
506.12	26152.56
506.32	26242.67
506.53	26410.60
506.73	26623.59
506.94	26961.51
507.14	26660.46
507.35	26734.18
507.55	27002.47
507.76	26791.53
507.96	26662.51
508.17	26672.74
508.37	26920.55
508.58	26979.94
508.78	27178.59
508.99	27315.81
509.19	27424.35
509.40	27096.67
509.60	27383.39
509.81	27385.44
510.01	27348.57
510.22	27434.59
510.42	27381.34
510.63	27557.47
510.83	27694.68
511.04	27467.36
511.24	28061.27
511.44	27702.87
511.65	28245.58
511.85	28167.76
512.06	27729.50
512.26	28358.22
512.47	28200.53
512.67	28143.19
512.88	28294.74
513.08	27891.29
513.29	28614.22
513.49	28390.99
513.69	28239.44
513.90	28347.98
514.10	28651.08
514.31	28728.91
514.51	28800.58
514.72	28653.13
514.92	28706.38
515.13	28776.01
515.33	29040.20
515.53	28776.01
515.74	28966.47
515.94	29124.16
516.15	29034.05
516.35	29267.52
516.56	29199.94
516.76	29144.64
516.96	29240.90
517.17	29738.55
517.37	29656.64
517.58	29632.06
517.78	29412.93
517.99	29587.00
518.19	30019.13
518.39	29873.72
518.60	29912.63
518.80	30025.27
519.01	30283.31
519.21	29933.11
519.41	30182.96
519.62	30070.33
519.82	30543.41
520.03	30514.73
520.23	30316.08
520.43	30045.75
520.64	30531.12
520.84	30541.36
521.05	30836.27
521.25	30764.59
521.45	30692.91
521.66	30883.37
521.86	30871.08
522.07	31000.10
522.27	31135.27
522.47	31196.71
522.68	31475.23
522.88	31368.74
523.08	31569.44
523.29	31419.94
523.49	32052.76
523.70	31475.23
523.90	31831.58
524.10	31847.96
524.31	32259.60
524.51	31454.75
524.71	31925.78
524.92	32212.50
525.12	32673.29
525.33	32554.51
525.53	32634.38
525.73	32488.98
525.94	32640.53
526.14	32751.12
526.34	32714.25
526.55	32812.56
526.75	33252.87
526.95	33156.61
527.16	33183.24
527.36	33279.49
527.56	33261.06
527.77	33404.42
527.97	33390.08
528.17	33359.36
528.38	33996.28
528.58	34063.86
528.78	33885.69
528.99	33535.49
529.19	34422.26
529.39	34039.29
529.60	34541.04
529.80	33906.17
530.00	34043.38
530.21	34536.94
530.41	34590.19
530.61	34541.04
530.82	34524.66
531.02	34643.44
531.22	34915.82
531.43	35032.55
531.63	35165.67
531.83	35487.20
532.04	35511.78
532.24	35167.72
532.44	35640.80
532.64	35610.08
532.85	35671.52
533.05	35630.56
533.25	35558.88
533.46	35806.69
533.66	36140.50
533.86	36070.87
534.07	36279.77
534.27	36111.83
534.47	36867.53
534.67	36650.45
534.88	36552.15
535.08	36869.58
535.28	36672.98
535.49	36933.07
535.69	37010.89
535.89	37465.54
536.09	37404.10
536.30	37283.27
536.50	37465.54
536.70	37610.95
536.91	37821.89
537.11	37400.01
537.31	37901.76
537.51	37623.23
537.72	38245.82
537.92	37871.04
538.12	38395.32
538.32	37946.81
538.53	38344.12
538.73	38278.58
538.93	38346.17
539.13	38708.66
539.34	38368.69
539.54	38520.24
539.74	38786.48
539.94	38542.77
540.15	38860.21
540.35	39024.04
540.55	39050.67
540.75	38981.04
540.96	39255.46
541.16	39292.33
541.36	39148.97
541.56	39775.65
541.77	39777.70
541.97	39441.83
542.17	39706.02
542.37	39536.04
542.58	39820.70
542.78	39525.80
542.98	39923.10
543.18	40193.43
543.38	40244.63
543.59	40244.63
543.79	40119.71
543.99	40068.51
544.19	40621.46
544.40	40342.94
544.60	40730.00
544.80	40715.67
545.00	40568.21
545.20	40865.17
545.41	40885.65
545.61	40783.25
545.81	41086.35
546.01	41186.70
546.21	41354.63
546.42	41131.40
546.62	41127.31
546.82	41082.25
547.02	41377.16
547.22	41510.28
547.43	41340.30
547.63	41346.44
547.83	41581.96
548.03	41571.72
548.23	41745.80
548.44	41719.17
548.64	41727.36
548.84	41735.56
549.04	41987.46
549.24	42401.14
549.45	42640.76
549.65	42438.01
549.85	42083.71
550.05	42378.62
550.25	42292.60
550.45	42880.37
550.66	42208.64
550.86	42341.75
551.06	42653.05
551.26	42413.43
551.46	42724.72
551.66	42810.74
551.87	42562.93
552.07	42626.42
552.27	42806.64
552.47	42896.75
552.67	43283.82
552.87	42999.15
553.07	42644.85
553.28	43191.66
553.48	43091.31
553.68	42995.06
553.88	43492.71
554.08	43621.73
554.28	43775.33
554.48	43019.63
554.69	43560.30
554.89	43707.75
555.09	43652.45
555.29	43472.23
555.49	43572.58
555.69	43885.92
555.89	43773.28
556.10	43926.88
556.30	43699.56
556.50	43629.93
556.70	43384.17
556.90	44041.57
557.10	44234.08
557.30	43980.13
557.50	44031.33
557.70	44471.64
557.91	44598.62
558.11	44373.34
558.31	44631.38
558.51	44619.10
558.71	44520.79
558.91	45049.17
559.11	44242.27
559.31	44307.80
559.51	44406.11
559.72	44795.22
559.92	44576.09
560.12	44649.81
560.32	44836.18
560.52	44410.20
560.72	44801.36
560.92	44997.97
561.12	44881.24
561.32	45548.87
561.52	44901.71
561.72	45456.71
561.93	44883.28
562.13	45198.67
562.33	44883.28
562.53	45684.04
562.73	44987.73
562.93	44934.48
563.13	44942.67
563.33	45219.15
563.53	45133.14
563.73	44961.11
563.93	45245.77
564.13	45806.92
564.33	45446.47
564.53	45645.13
564.74	45442.38
564.94	45675.85
565.14	45792.58
565.34	45477.19
565.54	45694.28
565.74	45946.18
565.94	46341.44
566.14	45538.63
566.34	45565.26
566.54	46445.88
566.74	45733.19
566.94	45784.39
567.14	46009.67
567.34	45768.01
567.54	46374.20
567.74	46327.10
567.94	46118.21
568.14	46576.95
568.34	46363.96
568.54	46200.13
568.74	46439.74
568.94	46294.33
569.14	47058.23
569.34	46734.65
569.54	46576.95
569.75	46173.50
569.95	46808.37
570.15	47160.62
570.35	46802.23
570.55	46742.84
570.75	46683.45
570.95	46404.92
571.15	46730.55
571.35	47138.10
571.55	46857.52
571.75	47047.99
571.95	47146.29
572.15	46812.47
572.35	47500.59
572.55	47154.48
572.75	47314.22
572.95	47394.09
573.15	47349.04
573.35	47252.78
573.55	47113.52
573.75	47478.06
573.95	47541.55
574.15	47269.17
574.35	47537.45
574.55	47602.99
574.75	47631.66
574.95	48028.96
575.15	47443.24
575.34	47596.84
575.54	47699.24
575.74	47918.37
575.94	48346.40
576.14	48276.77
576.34	48254.24
576.54	48358.69
576.74	48123.17
576.94	48360.73
577.14	48540.96
577.34	48579.87
577.54	47996.20
577.74	48035.11
577.94	48170.27
578.14	48680.22
578.34	48690.46
578.54	47863.08
578.74	48432.41
578.94	48772.38
579.14	48157.99
579.34	48483.61
579.54	49030.42
579.74	49120.53
579.94	49050.90
580.13	49599.76
580.33	48796.95
580.53	49171.73
580.73	49040.66
580.93	48895.25
581.13	49200.40
581.33	49552.65
581.53	49573.13
581.73	49698.06
581.93	49796.36
582.13	49476.88
582.33	49952.01
582.53	49501.45
582.73	49700.11
582.92	50103.56
583.12	49718.54
583.32	49845.51
583.52	49876.23
583.72	50291.97
583.92	49653.00
584.12	50085.12
584.32	50347.26
584.52	50013.44
584.72	50427.13
584.92	50429.18
585.11	50287.87
585.31	50365.70
585.51	50312.45
585.71	50214.15
585.91	51139.83
586.11	50459.90
586.31	50550.01
586.51	50418.94
586.71	51029.24
586.91	50836.73
587.10	51375.34
587.30	50758.91
587.50	50789.62
587.70	51307.76
587.90	51197.17
588.10	51256.56
588.30	51143.92
588.50	51553.52
588.69	51342.58
588.89	51291.38
589.09	51729.64
589.29	51152.12
589.49	51948.78
589.69	51160.31
589.89	52028.65
590.08	51901.67
590.28	51682.54
590.48	51606.76
590.68	51780.84
590.88	51670.25
591.08	51795.18
591.28	51807.47
591.47	51895.53
591.67	51717.35
591.87	51959.02
592.07	52010.21
592.27	52137.19
592.47	51965.16
592.67	52483.30
592.86	52327.65
593.06	51889.38
593.26	52016.36
593.46	52339.94
593.66	52352.23
593.86	52645.08
594.05	52131.04
594.25	52460.77
594.45	52405.47
594.65	52813.02
594.85	52505.82
595.05	52802.78
595.24	53216.47
595.44	52698.33
595.64	53167.32
595.84	52886.74
596.04	52991.19
596.23	53226.71
596.43	53226.71
596.63	53066.97
596.83	53066.97
597.03	53744.84
597.22	53802.19
597.42	53458.13
597.62	53722.32
597.82	53673.16
598.02	53597.39
598.21	53458.13
598.41	53411.02
598.61	53832.91
598.81	53511.38
599.01	53591.25
599.20	54262.98
599.40	53703.88
599.60	53769.42
599.80	54117.57
600.00	53818.57
600.19	54330.56
600.39	53992.65
600.59	53910.73
600.79	54379.71
600.98	54340.80
601.18	54639.81
601.38	54428.87
601.58	54568.13
601.78	54527.17
601.97	54150.34
602.17	55035.06
602.37	54914.23
602.57	54908.09
602.76	55153.85
602.96	54662.33
603.16	55026.87
603.36	54736.06
603.55	55166.13
603.75	54799.55
603.95	55379.12
604.15	54840.51
604.34	55481.52
604.54	54963.39
604.74	55610.54
604.94	55514.29
605.13	55542.96
605.33	55538.86
605.53	55086.26
605.73	55536.82
605.92	55846.06
606.12	55706.80
606.32	55913.64
606.52	55602.35
606.71	55645.36
606.91	56046.76
607.11	55645.36
607.30	56186.02
607.50	55647.41
607.70	56046.76
607.90	55968.94
608.09	55950.51
608.29	56026.28
608.49	56642.72
608.68	56272.04
608.88	56052.90
609.08	56296.61
609.28	56534.18
609.47	55893.16
609.67	56407.20
609.87	56411.30
610.06	56530.08
610.26	56487.07
610.46	56589.47
610.66	56335.52
610.85	56616.10
611.05	56466.59
611.25	56868.00
611.44	56685.73
611.64	56874.14
611.84	56321.19
612.03	56489.12
612.23	56675.49
612.43	56618.14
612.62	56218.79
612.82	56775.84
613.02	57035.93
613.21	56607.90
613.41	56140.97
613.61	56906.91
613.80	56296.61
614.00	57336.98
614.20	56620.19
614.39	56808.61
614.59	56528.03
614.79	57062.55
614.98	56714.40
615.18	57197.72
615.38	57269.40
615.57	56622.24
615.77	57375.89
615.97	56956.06
616.16	57259.16
616.36	56673.44
616.56	57060.51
616.75	57023.64
616.95	56738.97
617.15	56966.30
617.34	57123.99
617.54	56747.17
617.74	57320.60
617.93	57521.30
618.13	56505.51
618.32	57373.84
618.52	56452.26
618.72	56837.28
618.91	57644.18
619.11	56679.58
619.31	57230.49
619.50	56988.83
619.70	56304.80
619.90	56894.62
620.09	56894.62
620.29	56843.42
620.48	57185.43
620.68	57603.22
620.88	56175.78
621.07	57095.32
621.27	57070.75
621.46	56554.66
621.66	56771.74
621.86	56847.52
622.05	56663.20
622.25	57685.14
622.44	56550.56
622.64	56997.02
622.84	56695.97
623.03	56882.33
623.23	56829.08
623.42	57162.90
623.62	57185.43
623.82	57343.12
624.01	56779.93
624.21	57158.81
624.40	56947.87
624.60	56931.48
624.80	56853.66
624.99	56964.25
625.19	56169.64
625.38	56865.95
625.58	56812.70
625.77	56824.99
625.97	57164.95
626.17	56661.15
626.36	57506.96
626.56	57056.41
626.75	56657.06
626.95	56906.91
627.14	56911.00
627.34	57289.88
627.54	56984.73
627.73	57402.52
627.93	56980.63
628.12	57019.55
628.32	56890.52
628.51	57072.79
628.71	57287.83
628.90	57320.60
629.10	57033.88
629.30	57244.82
629.49	56968.35
629.69	57273.49
629.88	56925.34
630.08	57513.11
630.27	57605.26
630.47	57246.87
630.66	57138.33
630.86	57466.00
631.05	57011.35
631.25	57560.21
631.44	57040.03
631.64	57040.03
631.84	57468.05
632.03	57898.12
632.23	57005.21
632.42	57423.00
632.62	57355.41
632.81	57083.03
633.01	57150.62
633.20	57447.57
633.40	57070.75
633.59	57648.27
633.79	56951.96
633.98	57111.70
634.18	57490.58
634.37	57459.86
634.57	57083.03
634.76	57779.34
634.96	57701.52
635.15	57435.28
635.35	57210.01
635.54	57455.76
635.74	57697.42
635.93	57013.40
636.13	57138.33
636.32	57760.91
636.52	57293.97
636.71	57089.18
636.91	57513.11
637.10	57650.32
637.30	57566.35
637.49	57439.38
637.69	57199.77
637.88	57922.70
638.08	57324.69
638.27	57660.56
638.46	57877.64
638.66	57619.60
638.85	57490.58
639.05	57857.17
639.24	57640.08
639.44	57562.26
639.63	57863.31
639.83	57676.94
640.02	57816.21
640.22	57945.23
640.41	58217.61
640.61	57517.20
640.80	57742.48
640.99	57590.93
641.19	58143.88
641.38	58172.55
641.58	58068.11
641.77	57449.62
641.97	57662.61
642.16	57775.25
642.36	57808.01
642.55	57969.80
642.74	57334.93
642.94	58328.20
643.13	57871.50
643.33	58055.82
643.52	57896.08
643.72	58324.10
643.91	57584.79
644.10	58201.22
644.30	58084.49
644.49	57822.35
644.69	58381.45
644.88	58367.11
645.08	58035.34
645.27	58023.05
645.46	57478.29
645.66	58059.91
645.85	58021.00
646.05	58403.97
646.24	58238.09
646.43	58160.26
646.63	58143.88
646.82	58528.90
647.02	58244.23
647.21	58332.29
647.40	58213.51
647.60	58446.98
647.79	58279.05
647.99	58309.77
648.18	58332.29
648.37	58981.50
648.57	58475.65
648.76	58602.63
648.96	58274.95
649.15	58324.10
649.34	58547.33
649.54	58621.06
649.73	57959.56
649.92	58653.82
650.12	58504.32
650.31	58842.24
650.51	58684.54
650.70	58637.44
650.89	58365.06
651.09	59004.03
651.28	58578.05
651.47	58629.25
651.67	58905.73
651.86	59040.89
652.06	58471.56
652.25	58815.61
652.44	58782.85
652.64	58102.92
652.83	58393.73
653.02	58559.62
653.22	58713.22
653.41	58510.47
653.60	58588.29
653.80	58682.50
653.99	58582.15
654.18	58117.26
654.38	58518.66
654.57	59042.94
654.76	58707.07
654.96	58905.73
655.15	58635.39
655.34	58651.78
655.54	58346.63
655.73	58678.40
655.92	59212.92
656.12	58602.63
656.31	59038.84
656.50	59004.03
656.70	58967.16
656.89	58467.46
657.08	59014.27
657.28	58897.53
657.47	58963.07
657.66	59090.04
657.86	58901.63
658.05	59241.59
658.24	59122.81
658.43	58958.97
658.63	59270.26
658.82	59145.34
659.01	58766.46
659.21	59081.85
659.40	59077.75
659.59	59022.46
659.79	59284.60
659.98	59569.27
660.17	59122.81
660.36	59096.19
660.56	58958.97
660.75	59118.71
660.94	58643.59
661.14	59178.10
661.33	59323.51
661.52	58952.83
661.71	59192.44
661.91	59020.41
662.10	58795.13
662.29	59153.53
662.49	59270.26
662.68	58840.19
662.87	59294.84
663.06	59122.81
663.26	58809.47
663.45	59528.31
663.64	59057.27
663.83	59634.80
664.03	59368.57
664.22	59282.55
664.41	59188.34
664.60	59020.41
664.80	59190.39
664.99	59430.01
665.18	59292.79
665.37	59262.07
665.57	59260.02
665.76	58877.05
665.95	59085.95
666.14	59159.67
666.34	58963.07
666.53	59374.71
666.72	58586.24
666.91	58827.90
667.11	58854.53
667.30	58938.49
667.49	59122.81
667.68	58664.06
667.87	59315.32
668.07	59178.10
668.26	58827.90
668.45	59436.15
668.64	58854.53
668.84	59638.90
669.03	59800.69
669.22	59184.25
669.41	59548.79
669.60	59032.70
669.80	59202.68
669.99	59522.16
670.18	59245.69
670.37	58756.22
670.57	59270.26
670.76	59040.89
670.95	59077.75
671.14	59092.09
671.33	59204.73
671.53	59532.40
671.72	59161.72
671.91	58850.43
672.10	58827.90
672.29	58897.53
672.48	58952.83
672.68	59554.93
672.87	58762.37
673.06	58963.07
673.25	58635.39
673.44	58838.14
673.64	58653.82
673.83	59096.19
674.02	59073.66
674.21	59122.81
674.40	59321.46
674.59	58512.52
674.79	58793.09
674.98	58713.22
675.17	58815.61
675.36	59004.03
675.55	58727.55
675.74	58971.26
675.94	59051.13
676.13	59182.20
676.32	59055.23
676.51	59282.55
676.70	58832.00
676.89	58969.21
677.08	59382.90
677.28	58901.63
677.47	59499.64
677.66	59595.89
677.85	59139.19
678.04	59171.96
678.23	59155.58
678.42	58875.01
678.62	58840.19
678.81	59176.06
679.00	58569.86
679.19	59063.42
679.38	59047.04
679.57	59004.03
679.76	58717.31
679.96	59018.36
680.15	59042.94
680.34	58819.71
680.53	58723.46
680.72	59204.73
680.91	59147.39
681.10	58895.49
681.29	59223.16
681.48	58643.59
681.68	58745.98
681.87	58872.96
682.06	58543.23
682.25	58111.11
682.44	58365.06
682.63	58842.24
682.82	58303.62
683.01	58651.78
683.20	58133.64
683.39	58700.93
683.59	58002.57
683.78	58213.51
683.97	58580.10
684.16	58254.47
684.35	58487.94
684.54	58162.31
684.73	58111.11
684.92	58186.89
685.11	58330.25
685.30	58166.41
685.49	58801.28
685.69	58127.50
685.88	58395.78
686.07	57947.28
686.26	58154.12
686.45	58500.23
686.64	57820.30
686.83	58156.17
687.02	57992.33
687.21	57988.24
687.40	57957.52
687.59	57885.84
687.78	57906.32
687.97	58094.73
688.16	58266.76
688.35	58092.68
688.54	57775.25
688.74	58326.15
688.93	57509.01
689.12	57638.03
689.31	57945.23
689.50	57934.99
689.69	57767.05
689.88	57062.55
690.07	57865.36
690.26	57689.23
690.45	58086.54
690.64	57586.83
690.83	57631.89
691.02	57631.89
691.21	57502.87
691.40	57607.31
691.59	58176.65
691.78	57216.15
691.97	57627.79
692.16	57851.02
692.35	57932.94
692.54	57818.25
692.73	57699.47
692.92	57537.68
693.11	57562.26
693.30	57152.66
693.49	57582.74
693.68	57273.49
693.87	57488.53
694.06	57169.05
694.25	57334.93
694.44	56949.92
694.63	57359.51
694.82	57230.49
695.01	57316.50
695.20	57089.18
695.39	57218.20
695.58	57023.64
695.77	57072.79
695.96	56571.04
696.15	57119.90
696.34	57347.22
696.53	57144.47
696.72	57121.94
696.91	56800.41
697.10	56618.14
697.29	56417.44
697.48	56812.70
697.67	56677.54
697.86	56433.83
698.05	56655.01
698.24	56573.09
698.43	56274.09
698.62	57111.70
698.81	56300.71
699.00	56655.01
699.19	56108.20
699.38	56464.55
699.57	55841.96
699.76	56732.83
699.95	56456.35
700.14	56048.81
700.32	55911.59
700.51	56161.45
700.70	56308.90
700.89	56358.05
701.08	56589.47
701.27	56186.02
701.46	56605.86
701.65	55661.74
701.84	56026.28
702.03	56456.35
702.22	56110.25
702.41	56360.10
702.60	56358.05
702.79	55923.88
702.98	55225.53
703.17	55702.70
703.35	55817.39
703.54	55592.11
703.73	56122.54
703.92	55837.87
704.11	56038.57
704.30	55895.21
704.49	55616.69
704.68	55485.62
704.87	55579.82
705.06	55538.86
705.25	55332.02
705.43	55729.33
705.62	55561.39
705.81	55432.37
706.00	55387.31
706.19	54951.10
706.38	55329.97
706.57	55399.60
706.76	55116.98
706.95	55481.52
707.14	55258.29
707.32	55067.83
707.51	55024.82
707.70	55438.51
707.89	54947.00
708.08	55082.17
708.27	55280.82
708.46	55309.49
708.65	55133.37
708.84	55321.78
709.02	55104.70
709.21	55084.22
709.40	55022.78
709.59	54963.39
709.78	54428.87
709.97	55186.61
710.16	54666.43
710.34	54561.98
710.53	54703.29
710.72	54375.62
710.91	54467.78
711.10	54414.53
711.29	54828.22
711.48	54668.48
711.66	54500.54
711.85	54269.12
712.04	54656.19
712.23	54645.95
712.42	54695.10
712.61	54674.62
712.80	53896.39
712.98	54392.00
713.17	54138.05
713.36	54543.55
713.55	54551.74
713.74	54619.33
713.93	54371.52
714.11	54222.02
714.30	54199.49
714.49	54099.14
714.68	53857.48
714.87	53896.39
715.06	54023.37
715.24	53800.14
715.43	53796.04
715.62	53667.02
715.81	53853.39
716.00	53892.30
716.18	53839.05
716.37	53269.72
716.56	53662.93
716.75	54078.66
716.94	53832.91
717.12	53886.15
717.31	53503.18
717.50	53447.89
717.69	53460.18
717.88	53750.99
718.06	53509.33
718.25	53363.92
718.44	53198.04
718.63	53400.79
718.82	53089.49
719.00	52880.60
719.19	53005.53
719.38	52909.27
719.57	52851.93
719.76	52387.04
719.94	52667.61
720.13	52794.59
720.32	52813.02
720.51	52307.17
720.69	52542.69
720.88	52477.15
721.07	52270.31
721.26	52090.09
721.44	51959.02
721.63	52010.21
721.82	52552.93
722.01	51991.78
722.20	51748.07
722.38	51588.33
722.57	51678.44
722.76	51987.69
722.95	51969.26
723.13	51764.46
723.32	51430.64
723.51	51524.85
723.70	51535.09
723.88	51492.08
724.07	51502.32
724.26	51094.77
724.44	50779.39
724.63	51346.67
724.82	51141.88
725.01	51545.33
725.19	51066.10
725.38	50951.41
725.57	51125.49
725.76	51254.51
725.94	50443.52
726.13	50828.54
726.32	50912.50
726.51	50672.89
726.69	51051.76
726.88	51180.79
727.07	50978.04
727.25	51033.33
727.44	51281.14
727.63	50572.54
727.82	50912.50
728.00	50978.04
728.19	50388.22
728.38	50920.70
728.56	50283.78
728.75	51043.57
728.94	50572.54
729.12	50763.00
729.31	50763.00
729.50	50861.30
729.69	50984.18
729.87	50699.51
730.06	50595.07
730.25	50601.21
730.43	51485.93
730.62	50513.15
730.81	51062.00
730.99	50806.01
731.18	50521.34
731.37	50906.36
731.55	50656.51
731.74	50734.33
731.93	50898.17
732.11	50742.52
732.30	50623.74
732.49	50681.08
732.67	51049.72
732.86	50740.47
733.05	50679.03
733.23	49913.09
733.42	50423.04
733.61	50541.82
733.79	50531.58
733.98	50394.37
734.17	50343.17
734.35	50302.21
734.54	50513.15
734.73	50337.02
734.91	50494.72
735.10	49863.94
735.29	50640.12
735.47	49874.18
735.66	50179.33
735.84	50238.72
736.03	49816.84
736.22	50386.18
736.40	49650.95
736.59	50347.26
736.78	49931.53
736.96	50095.36
737.15	50048.26
737.33	49739.02
737.52	49982.73
737.71	50167.04
737.89	50097.41
738.08	49265.94
738.27	49397.01
738.45	49847.56
738.64	49483.02
738.82	49607.95
739.01	49460.49
739.20	49231.12
739.38	49509.64
739.57	49816.84
739.75	49653.00
739.94	49704.20
740.13	49630.47
740.31	49583.37
740.50	49499.40
740.68	49538.32
740.87	49519.88
741.06	49681.67
741.24	49466.64
741.43	49022.23
741.61	49646.86
741.80	49143.06
741.99	48809.24
742.17	49050.90
742.36	49292.56
742.54	48909.59
742.73	49069.33
742.91	49265.94
743.10	49120.53
743.29	49263.89
743.47	49423.63
743.66	49175.83
743.84	49179.92
744.03	49192.21
744.21	48829.72
744.40	48889.11
744.59	49069.33
744.77	48432.41
744.96	48596.25
745.14	48940.31
745.33	48456.99
745.51	48665.88
745.70	48901.40
745.88	48704.79
746.07	48278.82
746.26	48289.06
746.44	48092.45
746.63	48418.08
746.81	48375.07
747.00	48364.83
747.18	48921.88
747.37	48346.40
747.55	48477.47
747.74	48454.94
747.92	47942.95
748.11	47805.73
748.29	48174.37
748.48	48184.61
748.66	48084.26
748.85	48035.11
749.03	48100.64
749.22	48053.54
749.41	47932.71
749.59	48448.80
749.78	47971.62
749.96	47639.85
750.15	47701.29
750.33	48223.52
750.52	47799.59
750.70	47785.25
750.89	47240.50
751.07	47738.15
751.26	47654.18
751.44	47924.52
751.63	47435.05
751.81	47207.73
752.00	47654.18
752.18	47451.44
752.37	47527.21
752.55	47273.26
752.74	47514.92
752.92	47381.80
753.10	47080.75
753.29	47346.99
753.47	46984.50
753.66	47086.90
753.84	47222.06
754.03	47093.04
754.21	46800.18
754.40	47453.48
754.58	47189.30
754.77	47244.59
754.95	46667.06
755.14	46888.24
755.32	47015.22
755.51	46599.48
755.69	46454.08
755.88	46454.08
756.06	46732.60
756.24	46683.45
756.43	46624.06
756.61	46859.57
756.80	46597.43
756.98	46355.77
757.17	46273.85
757.35	46546.23
757.54	46521.66
757.72	46406.97
757.90	46409.02
758.09	46574.91
758.27	46263.61
758.46	46034.24
758.64	46185.79
758.83	46015.81
759.01	46376.25
759.19	46519.61
759.38	45954.37
759.56	46263.61
759.75	45776.20
759.93	45956.42
760.12	45659.46
760.30	45987.14
760.48	45708.61
760.67	45649.22
760.85	45770.05
761.04	46052.67
761.22	45622.60
761.40	45647.18
761.59	45417.80
761.77	45503.82
761.96	45299.02
762.14	45636.94
762.32	45628.74
762.51	45139.28
762.69	45186.38
762.88	45036.88
763.06	45180.24
763.24	45335.88
763.43	45061.46
763.61	44809.56
763.80	44901.71
763.98	45036.88
764.16	44940.63
764.35	44981.59
764.53	44451.16
764.72	44758.36
764.90	44858.71
765.08	44645.72
765.27	45092.18
765.45	44385.63
765.63	44528.98
765.82	44709.21
766.00	44123.49
766.18	44406.11
766.37	44569.94
766.55	44250.46
766.74	44436.83
766.92	44356.96
767.10	44098.91
767.29	44485.98
767.47	43312.49
767.65	43951.46
767.84	43937.12
768.02	44221.79
768.20	43965.79
768.39	44039.52
768.57	43799.91
768.75	44240.22
768.94	44016.99
769.12	44004.70
769.30	43431.27
769.49	43777.38
769.67	43523.43
769.85	43189.61
770.04	43433.32
770.22	43593.06
770.40	43449.70
770.59	43300.20
770.77	43505.00
770.95	43365.74
771.14	42976.62
771.32	42954.10
771.50	42698.10
771.69	42694.00
771.87	43033.97
772.05	43079.02
772.24	42950.00
772.42	43124.08
772.60	42857.84
772.78	42538.36
772.97	42730.87
773.15	42833.27
773.33	42521.98
773.52	42769.78
773.70	42786.16
773.88	42714.48
774.07	42558.84
774.25	42530.17
774.43	42683.76
774.61	42593.65
774.80	43036.02
774.98	42861.94
775.16	42669.43
775.34	42777.97
775.53	42435.96
775.71	42831.22
775.89	42870.13
776.08	42894.71
776.26	42734.96
776.44	42745.20
776.62	42429.82
776.81	42349.95
776.99	42827.12
777.17	42403.19
777.35	42878.32
777.54	43201.90
777.72	42763.64
777.90	42714.48
778.08	42800.50
778.27	42708.34
778.45	42890.61
778.63	43259.24
778.81	42726.77
779.00	43531.62
779.18	43144.56
779.36	43570.54
779.54	42964.34
779.73	43195.76
779.91	43345.26
780.09	43687.27
780.27	43490.66
780.46	43259.24
780.64	43470.18
780.82	43079.02
781.00	43341.16
781.19	43464.04
781.37	43423.08
781.55	43754.85
781.73	43914.59
781.91	43251.05
782.10	43308.40
782.28	43660.65
782.46	43537.77
782.64	43619.69
782.82	43367.79
783.01	43502.95
783.19	43629.93
783.37	44064.10
783.55	43595.11
783.74	43814.24
783.92	43355.50
784.10	44387.67
784.28	43502.95
784.46	43244.91
784.64	43265.39
784.83	43498.86
785.01	44178.78
785.19	43371.88
785.37	43742.56
785.55	43232.62
785.74	43079.02
785.92	43083.12
786.10	43425.13
786.28	43378.03
786.46	43294.06
786.64	43492.71
786.83	43289.96
787.01	43111.79
787.19	43373.93
787.37	43230.57
787.55	43185.52
787.74	42823.03
787.92	43036.02
788.10	43281.77
788.28	42849.65
788.46	42843.51
788.64	42655.09
788.82	43373.93
789.01	42929.52
789.19	43048.30
789.37	42564.98
789.55	42716.53
789.73	42407.29
789.91	42122.62
790.09	42501.50
790.28	42399.10
790.46	42028.41
790.64	42685.81
790.82	42034.56
791.00	42096.00
791.18	42018.17
791.36	42167.68
791.55	41893.25
791.73	41559.43
791.91	41692.55
792.09	41301.39
792.27	41792.90
792.45	42380.67
792.63	41731.46
792.81	41112.97
793.00	41502.09
793.18	41217.42
793.36	41260.43
793.54	41371.02
793.72	41166.22
793.90	41098.64
794.08	41004.43
794.26	41137.55
794.44	40394.14
794.62	40457.62
794.81	40514.97
794.99	40705.43
795.17	40488.34
795.35	40144.28
795.53	40465.81
795.71	39998.88
795.89	39929.25
796.07	39884.19
796.25	39847.33
796.43	39736.74
796.61	39505.32
796.80	39579.04
796.98	39677.35
797.16	39427.49
797.34	39372.20
797.52	39210.41
797.70	39183.79
797.88	39017.90
798.06	39261.61
798.24	39165.35
798.42	38710.71
798.60	38397.37
798.78	38786.48
798.96	38532.53
799.14	38593.97
799.32	38811.06
799.51	38442.42
799.69	38557.11
799.87	38831.54
800.05	37987.77
800.23	38186.43
800.41	38094.27
800.59	38237.62
800.77	37930.43
800.95	37598.66
801.13	37273.03
801.31	37459.40
801.49	37510.60
801.67	37379.53
801.85	37541.32
802.03	37150.15
802.21	37494.21
802.39	37598.66
802.57	37305.80
802.75	37287.37
802.93	36994.51
803.11	37117.39
803.29	36767.18
803.47	36697.55
803.65	36365.78
803.83	36713.94
804.01	36117.98
804.19	35921.37
804.37	36077.02
804.55	35997.15
804.73	36134.36
804.91	36351.45
805.09	36054.49
805.27	35894.75
805.45	36103.64
805.63	36064.73
805.81	36005.34
805.99	35515.87
806.17	35593.70
806.35	35775.97
806.53	35493.35
806.71	35290.60
806.89	35593.70
807.07	34768.37
807.25	35448.29
807.43	35151.34
807.61	35198.44
807.79	34973.16
807.97	34831.85
808.15	34698.73
808.33	34473.46
808.51	34903.53
808.69	34547.18
808.87	34549.23
809.05	34442.74
809.23	34512.37
809.41	34444.79
809.59	34248.18
809.77	34217.46
809.95	34194.93
810.13	34510.32
810.31	33895.93
810.49	33994.23
810.67	33897.98
810.84	34063.86
811.02	33816.06
811.20	33451.52
811.38	33703.42
811.56	33545.73
811.74	33744.38
811.92	33107.46
812.10	33097.22
812.28	33566.21
812.46	33021.45
812.64	33388.03
812.82	32892.43
813.00	33113.61
813.18	33021.45
813.36	32951.82
813.53	32833.04
813.71	33054.22
813.89	32816.65
814.07	32701.96
814.25	32980.49
814.43	32658.96
814.61	32693.77
814.79	32560.66
814.97	32370.19
815.15	32452.11
815.33	32218.64
815.50	32163.35
815.68	32136.73
815.86	32464.40
816.04	32089.62
816.22	32333.33
816.40	32278.04
816.58	31893.02
816.76	32040.47
816.94	31800.86
817.11	31987.22
817.29	31684.12
817.47	31569.44
817.65	31340.07
817.83	31620.64
818.01	31518.24
818.19	31241.76
818.37	31297.06
818.54	30793.26
818.72	31342.11
818.90	31151.65
819.08	31170.08
819.26	31065.64
819.44	30930.47
819.62	30963.24
819.80	31307.30
819.97	31217.19
820.15	30869.03
820.33	30719.53
820.51	30750.25
820.69	30676.52
820.87	30991.91
821.05	30590.51
821.22	30467.63
821.40	30572.08
821.58	30289.46
821.76	30582.32
821.94	30211.64
822.12	30359.09
822.29	30283.31
822.47	29845.05
822.65	30211.64
822.83	30252.59
823.01	30346.80
823.19	30012.98
823.36	29810.23
823.54	29963.83
823.72	29969.97
823.90	29564.48
824.08	29396.54
824.25	29570.62
824.43	29388.35
824.61	29599.29
824.79	29791.80
824.97	29505.09
825.15	29685.31
825.32	29916.73
825.50	29111.88
825.68	29275.71
825.86	29597.24
826.04	29617.72
826.21	29269.57
826.39	29238.85
826.57	29173.31
826.75	28827.21
826.93	28999.24
827.10	28972.61
827.28	28902.98
827.46	29136.45
827.64	28894.79
827.81	28563.02
827.99	28567.12
828.17	28673.61
828.35	28337.74
828.53	28634.70
828.70	28663.37
828.88	28425.81
829.06	28714.57
829.24	28825.16
829.41	28393.04
829.59	28671.56
829.77	28646.99
829.95	28307.02
830.12	28390.99
830.30	28384.85
830.48	28436.05
830.66	28958.28
830.84	28415.57
831.01	28001.88
831.19	28114.52
831.37	27919.96
831.55	28159.57
831.72	27903.57
831.90	28044.88
832.08	28065.36
832.25	27653.72
832.43	28042.84
832.61	27563.61
832.79	27575.90
832.96	28018.26
833.14	27799.13
833.32	27795.03
833.50	27698.78
833.67	27903.57
833.85	27610.71
834.03	27385.44
834.20	27913.81
834.38	27649.63
834.56	27590.24
834.74	27485.79
834.91	27530.84
835.09	27047.52
835.27	26850.92
835.44	27582.04
835.62	27000.42
835.80	27102.82
835.98	27088.48
836.15	27311.71
836.33	26955.36
836.51	27082.34
836.68	26887.78
836.86	27078.24
837.04	27041.38
837.21	26807.91
837.39	26744.42
837.57	27082.34
837.75	26754.66
837.92	26734.18
838.10	26613.35
838.28	26465.90
838.45	26590.83
838.63	26300.01
838.81	26570.35
838.98	26545.77
839.16	26355.31
839.34	26187.38
839.51	26463.85
839.69	25978.48
839.87	26062.45
840.04	26402.41
840.22	26371.69
840.40	26289.77
840.57	26015.35
840.75	26179.18
840.93	25652.86
841.10	25730.68
841.28	26125.94
841.46	25800.31
841.63	25859.70
841.81	25777.78
841.98	25902.71
842.16	25802.36
842.34	25570.94
842.51	25763.45
842.69	25992.82
842.87	26041.97
843.04	26234.48
843.22	25486.97
843.40	25945.72
843.57	25853.56
843.75	25675.38
843.92	25517.69
844.10	25505.40
844.28	25511.55
844.45	25110.14
844.63	25515.64
844.81	25249.41
844.98	25638.52
845.16	25269.89
845.33	25226.88
845.51	25239.17
845.69	25147.01
845.86	24991.36
846.04	25147.01
846.21	25282.17
846.39	25028.23
846.57	25114.24
846.74	25081.47
846.92	24813.19
847.09	25179.78
847.27	24942.21
847.45	24999.55
847.62	24491.66
847.80	24956.55
847.97	24927.88
848.15	24608.39
848.32	24512.14
848.50	24657.54
848.68	24317.58
848.85	24598.15
849.03	24280.72
849.20	24409.74
849.38	24655.50
849.56	24473.23
849.73	24557.19
849.91	24299.15
850.08	24565.39
850.26	24163.98
850.43	24452.75
850.61	24108.69
850.78	24049.30
850.96	24293.01
851.14	23967.38
851.31	24364.68
851.49	24141.46
851.66	24202.89
851.84	24309.39
852.01	24000.15
852.19	24413.84
852.36	23854.74
852.54	24077.97
852.71	23887.51
852.89	24123.02
853.07	23934.61
853.24	23797.40
853.42	23592.60
853.59	23781.01
853.77	23897.75
853.94	23639.70
854.12	23944.85
854.29	23633.56
854.47	23756.44
854.64	23570.07
854.82	23441.05
854.99	23703.19
855.17	23371.42
855.34	23697.05
855.52	23668.37
855.69	23846.55
855.87	23455.39
856.04	23064.22
856.22	23828.12
856.39	23072.42
856.57	23359.13
856.74	23109.28
856.92	23314.08
857.09	23094.94
857.27	23053.98
857.44	23277.21
857.62	22978.21
857.79	23078.56
857.97	23074.46
858.14	22912.67
858.32	22929.06
858.49	22793.89
858.67	22681.25
858.84	22824.61
859.02	23105.18
859.19	22761.12
859.37	22451.88
859.54	22644.39
859.72	22677.16
859.89	22722.21
860.06	22851.24
860.24	22615.72
860.41	22468.27
860.59	22511.27
860.76	22372.01
860.94	22337.20
861.11	22335.15
861.29	22711.97
861.46	22386.35
861.64	22234.80
861.81	22642.34
861.98	22181.55
862.16	22253.23
862.33	22034.10
862.51	22232.75
862.68	22369.96
862.86	22095.53
863.03	22167.21
863.21	21790.39
863.38	21884.59
863.55	22054.58
863.73	22152.88
863.90	21939.89
864.08	22099.63
864.25	22099.63
864.43	21814.96
864.60	21896.88
864.77	21468.86
864.95	21489.34
865.12	21198.52
865.30	21679.80
865.47	21540.54
865.64	21542.58
865.82	21653.17
865.99	21857.97
866.17	21530.30
866.34	21534.39
866.51	21313.21
866.69	21343.93
866.86	21511.86
867.04	21298.88
867.21	21302.97
867.38	21055.17
867.56	21610.17
867.73	21352.12
867.91	21153.47
868.08	21376.70
868.25	21241.53
868.43	20983.49
868.60	21079.74
868.78	20934.34
868.95	21302.97
869.12	21124.80
869.30	20639.43
869.47	20965.06
869.64	20606.66
869.82	20776.64
869.99	20696.77
870.16	20944.58
870.34	20672.20
870.51	20811.46
870.69	20661.96
870.86	20594.37
871.03	20580.04
871.21	20211.40
871.38	20876.99
871.55	20297.42
871.73	20387.53
871.90	20240.08
872.07	20235.98
872.25	20473.54
872.42	20317.90
872.59	20350.67
872.77	20174.54
872.94	19947.22
873.11	20102.86
873.29	20188.88
873.46	19838.67
873.63	19947.22
873.81	19930.83
873.98	19723.99
874.15	19906.26
874.33	19891.92
874.50	19789.52
874.67	19912.40
874.85	19668.69
875.02	19590.87
875.19	19795.67
875.37	19738.32
875.54	19338.97
875.71	19531.48
875.88	18949.85
876.06	19551.96
876.23	19283.67
876.40	19386.07
876.58	19226.33
876.75	19470.04
876.92	19044.06
877.10	19205.85
877.27	18906.85
877.44	19072.73
877.61	18786.02
877.79	18845.41
877.96	18896.61
878.13	18943.71
878.31	18820.83
878.48	18755.30
878.65	19072.73
878.82	18456.29
879.00	18669.28
879.17	18722.53
879.34	18626.28
879.51	18646.76
879.69	18509.54
879.86	18386.66
880.03	18507.49
880.21	18427.62
880.38	18308.84
880.55	18476.77
880.72	18517.73
880.90	18613.99
881.07	18202.35
881.24	18228.97
881.41	18530.02
881.59	18304.74
881.76	18067.18
881.93	18159.34
882.10	18132.72
882.28	18118.38
882.45	18296.55
882.62	18159.34
882.79	18185.96
882.96	17749.75
883.14	18147.05
883.31	18181.87
883.48	17872.62
883.65	18061.04
883.83	17913.58
884.00	17798.90
884.17	17823.47
884.34	18032.36
884.51	17876.72
884.69	17667.83
884.86	17964.78
885.03	17778.42
885.20	17508.08
885.38	17944.30
885.55	17741.55
885.72	17874.67
885.89	17411.83
886.06	17583.86
886.24	17327.86
886.41	17411.83
886.58	17800.94
886.75	17633.01
886.92	17407.73
887.10	17694.45
887.27	17383.16
887.44	17661.68
887.61	17450.74
887.78	17276.66
887.95	17444.60
888.13	17254.14
888.30	17354.49
888.47	17262.33
888.64	17444.60
888.81	17194.75
888.99	17157.88
889.16	16957.18
889.33	16920.32
889.50	16905.98
889.67	16957.18
889.84	16832.26
890.01	16815.87
890.19	16936.70
890.36	16897.79
890.53	16606.98
890.70	16639.75
890.87	16811.78
891.04	16699.14
891.22	16789.25
891.39	16514.82
891.56	16752.38
891.73	16660.23
891.90	16486.15
892.07	16273.16
892.24	16355.08
892.42	16621.31
892.59	16467.72
892.76	16527.11
892.93	16508.68
893.10	16168.71
893.27	16486.15
893.44	16195.34
893.61	16297.74
893.79	16545.54
893.96	16355.08
894.13	16592.64
894.30	16385.80
894.47	16322.31
894.64	16400.13
894.81	16547.59
894.98	16244.49
895.15	16209.67
895.33	16072.46
895.50	16283.40
895.67	16348.93
895.84	16150.28
896.01	16197.38
896.18	16193.29
896.35	16475.91
896.52	16267.02
896.69	16176.91
896.86	16285.45
897.04	16185.10
897.21	16187.14
897.38	16252.68
897.55	16238.34
897.72	16207.62
897.89	16166.67
898.06	16203.53
898.23	16047.88
898.40	16013.07
898.57	16125.71
898.74	15976.20
898.91	16174.86
899.08	16088.84
899.26	15988.49
899.43	16031.50
899.60	15998.73
899.77	16123.66
899.94	16150.28
900.11	15898.38
900.28	15877.90
900.45	15949.58
900.62	15787.79
900.79	15783.70
900.96	16107.27
901.13	15838.99
901.30	15810.32
901.47	15996.68
901.64	15879.95
901.81	15908.62
901.98	15626.00
902.15	16287.50
902.32	15793.94
902.49	15820.56
902.66	15943.44
902.83	15916.81
903.01	15968.01
903.18	15898.38
903.35	15882.00
903.52	15853.33
903.69	15933.20
903.86	16066.31
904.03	16176.91
904.20	16062.22
904.37	16158.47
904.54	15929.10
904.71	15920.91
904.88	15814.41
905.05	15965.96
905.22	16115.47
905.39	15853.33
905.56	15832.85
905.73	15765.26
905.90	15820.56
906.07	15869.71
906.24	16092.94
906.41	15750.93
906.58	15935.24
906.75	16031.50
906.92	15867.66
907.09	15652.63
907.26	15847.18
907.43	15597.33
907.60	15879.95
907.77	15945.48
907.93	15548.18
908.10	15836.94
908.27	15750.93
908.44	15564.56
908.61	15767.31
908.78	15732.50
908.95	15875.85
909.12	15773.46
909.29	15986.44
909.46	15628.05
909.63	15677.20
909.80	15720.21
909.97	15830.80
910.14	15423.25
910.31	15585.04
910.48	15570.71
910.65	15453.97
910.82	15525.65
910.99	15732.50
911.16	15394.58
911.33	15365.91
911.50	15466.26
911.66	15527.70
911.83	15642.39
912.00	15419.16
912.17	15212.31
912.34	15322.90
912.51	15310.61
912.68	15218.46
912.85	15308.57
913.02	15314.71
913.19	15273.75
913.36	15226.65
913.53	15343.38
913.70	15197.98
913.86	15525.65
914.03	15150.87
914.20	15275.80
914.37	15331.09
914.54	15292.18
914.71	15281.94
914.88	14997.28
915.05	14919.45
915.22	15062.81
915.39	15007.52
915.55	14810.91
915.72	14802.72
915.89	14872.35
916.06	14640.93
916.23	14583.59
916.40	14393.12
916.57	14473.00
916.74	14612.26
916.91	14616.35
917.07	14518.05
917.24	14493.47
917.41	14532.39
917.58	14266.15
917.75	14366.50
917.92	14067.50
918.09	14386.98
918.26	14309.16
918.42	14370.60
918.59	14350.12
918.76	14057.26
918.93	13975.34
919.10	13979.43
919.27	14116.65
919.44	14198.57
919.60	14044.97
919.77	13758.25
919.94	13715.25
920.11	13942.57
920.28	13879.08
920.45	13821.74
920.61	13549.36
920.78	13729.58
920.95	13399.86
921.12	13655.86
921.29	13516.59
921.46	13528.88
921.62	13401.91
921.79	13670.19
921.96	13338.42
922.13	13313.84
922.30	13344.56
922.47	13076.28
922.63	13082.42
922.80	13207.35
922.97	12902.20
923.14	12848.96
923.31	13207.35
923.47	12965.69
923.64	13061.94
923.81	12908.35
923.98	12848.96
924.15	12783.42
924.32	12908.35
924.48	12730.17
924.65	12822.33
924.82	12547.90
924.99	12631.87
925.15	12623.68
925.32	12717.89
925.49	12234.57
925.66	12240.71
925.83	12222.28
925.99	12177.22
926.16	12150.60
926.33	12244.81
926.50	11915.08
926.67	12207.94
926.83	11970.38
927.00	11913.03
927.17	11890.51
927.34	11728.72
927.50	11859.79
927.67	12083.02
927.84	11812.68
928.01	11659.09
928.17	11734.86
928.34	11714.38
928.51	11452.24
928.68	11589.46
928.84	11493.20
929.01	11145.05
929.18	11239.25
929.35	11243.35
929.51	11206.48
929.68	11018.07
929.85	11126.61
930.02	11437.91
930.18	10874.71
930.35	10960.73
930.52	10827.61
930.69	11038.55
930.85	11013.98
931.02	10921.82
931.19	10719.07
931.36	10602.33
931.52	10745.69
931.69	10846.04
931.86	10485.60
932.02	10372.96
932.19	10440.54
932.36	10305.38
932.53	10508.13
932.69	10391.39
932.86	10510.18
933.03	10379.11
933.19	10096.49
933.36	10303.33
933.53	10012.52
933.70	10106.73
933.86	9932.65
934.03	9854.83
934.20	9736.04
934.36	9785.19
934.53	9672.56
934.70	9439.09
934.86	9478.00
935.03	9547.63
935.20	9531.25
935.36	9412.46
935.53	9342.83
935.70	9258.87
935.86	9305.97
936.03	9013.11
936.20	9009.01
936.36	8851.32
936.53	9035.64
936.70	8916.86
936.86	8929.14
937.03	8671.10
937.20	8474.49
937.36	8703.87
937.53	8415.10
937.70	8128.39
937.86	8286.08
938.03	8175.49
938.20	8312.71
938.36	7939.97
938.53	7950.21
938.70	7712.65
938.86	7704.46
939.03	7769.99
939.20	7368.59
939.36	7546.76
939.53	7470.99
939.70	7640.97
939.86	7294.86
940.03	7184.27
940.19	7178.13
940.36	7237.52
940.53	7102.36
940.69	6786.97
940.86	6967.19
941.03	6705.05
941.19	6637.47
941.36	6764.44
941.52	6547.36
941.69	6549.40
941.86	6678.43
942.02	6487.96
942.19	6416.29
942.35	6381.47
942.52	6197.15
942.69	6254.50
942.85	6129.57
943.02	6115.23
943.18	6330.27
943.35	6053.80
943.52	6049.70
943.68	5953.45
943.85	5963.68
944.01	5910.44
944.18	5939.11
944.35	5951.40
944.51	5916.58
944.68	5648.30
944.84	5681.07
945.01	5570.48
945.17	5828.52
945.34	5740.46
945.51	5543.85
945.67	5662.63
945.84	5533.61
946.00	5470.12
946.17	5537.71
946.33	5498.80
946.50	5615.53
946.67	5365.68
946.83	5423.02
947.00	5466.03
947.16	5523.37
947.33	5494.70
947.49	5552.04
947.66	5496.75
947.82	5470.12
947.99	5414.83
948.16	5492.65
948.32	5535.66
948.49	5576.62
948.65	5572.52
948.82	5488.56
948.98	5437.36
949.15	5392.30
949.31	5515.18
949.48	5517.23
949.64	5308.34
949.81	5476.27
949.97	5287.86
950.14	5529.52
950.30	5365.68
950.47	5431.21
950.63	5506.99
950.80	5646.25
950.96	5398.45
951.13	5568.43
951.30	5541.80
951.46	5568.43
951.63	5527.47
951.79	5599.15
951.96	5541.80
952.12	5461.93
952.29	5644.20
952.45	5511.08
952.62	5580.71
952.78	5498.80
952.94	5513.13
953.11	5435.31
953.27	5484.46
953.44	5564.33
953.60	5685.16
953.77	5654.44
953.93	5558.19
954.10	5578.67
954.26	5734.31
954.43	5509.04
954.59	5697.45
954.76	5818.28
954.92	5517.23
955.09	5687.21
955.25	5578.67
955.42	5722.02
955.58	5699.50
955.75	5730.22
955.91	5590.95
956.07	5674.92
956.24	5697.45
956.40	5623.72
956.57	5775.27
956.73	5517.23
956.90	5636.01
957.06	5531.56
957.23	5633.96
957.39	5461.93
957.56	5746.60
957.72	5613.48
957.88	5640.11
958.05	5738.41
958.21	5787.56
958.38	5672.87
958.54	5590.95
958.71	5722.02
958.87	5554.09
959.03	5525.42
959.20	5771.18
959.36	5738.41
959.53	5601.19
959.69	5607.34
959.85	5734.31
960.02	5580.71
960.18	5523.37
960.35	5615.53
960.51	5670.83
960.68	5642.15
960.84	5765.03
961.00	5599.15
961.17	5703.59
961.33	5541.80
961.50	5674.92
961.66	5568.43
961.82	5599.15
961.99	5658.54
962.15	5654.44
962.31	5595.05
962.48	5601.19
962.64	5537.71
962.81	5590.95
962.97	5578.67
963.13	5797.80
963.30	5701.54
963.46	5574.57
963.62	5574.57
963.79	5588.91
963.95	5578.67
964.12	5572.52
964.28	5621.67
964.44	5531.56
964.61	5492.65
964.77	5506.99
964.93	5595.05
965.10	5447.60
965.26	5617.58
965.42	5670.83
965.59	5416.88
965.75	5423.02
965.92	5527.47
966.08	5482.41
966.24	5455.79
966.41	5517.23
966.57	5504.94
966.73	5492.65
966.90	5545.90
967.06	5367.73
967.22	5412.78
967.39	5406.64
967.55	5433.26
967.71	5406.64
967.88	5425.07
968.04	5402.54
968.20	5263.28
968.37	5375.92
968.53	5238.70
968.69	5373.87
968.85	5373.87
969.02	5410.73
969.18	5369.77
969.34	5312.43
969.51	5320.62
969.67	5275.57
969.83	5228.46
970.00	5406.64
970.16	5220.27
970.32	5312.43
970.48	5396.40
970.65	5187.50
970.81	5322.67
970.97	5320.62
971.14	5015.48
971.30	5343.15
971.46	5275.57
971.63	5285.81
971.79	5267.38
971.95	5169.07
972.11	5029.81
972.28	5195.70
972.44	5289.90
972.60	5081.01
972.76	5201.84
972.93	4931.51
973.09	5234.61
973.25	5029.81
973.42	4917.17
973.58	5109.68
973.74	5060.53
973.90	4954.04
974.07	4915.12
974.23	5105.59
974.39	5027.76
974.55	4992.95
974.72	4896.69
974.88	4915.12
975.04	4984.76
975.20	4960.18
975.37	4915.12
975.53	4880.31
975.69	4888.50
975.85	4849.59
976.01	4863.93
976.18	5040.05
976.34	4904.89
976.50	4816.82
976.66	4951.99
976.83	4769.72
976.99	4773.82
977.15	4884.41
977.31	4769.72
977.47	4898.74
977.64	4931.51
977.80	4800.44
977.96	4876.21
978.12	4779.96
978.29	4763.58
978.45	4712.38
978.61	4620.22
978.77	4765.62
978.93	4534.20
979.10	4655.03
979.26	4659.13
979.42	4585.40
979.58	4538.30
979.74	4622.27
979.91	4779.96
980.07	4589.50
980.23	4534.20
980.39	4618.17
980.55	4523.96
980.71	4532.15
980.88	4489.15
981.04	4591.55
981.20	4599.74
981.36	4454.33
981.52	4519.87
981.68	4556.73
981.85	4538.30
982.01	4444.09
982.17	4440.00
982.33	4558.78
982.49	4466.62
982.65	4440.00
982.82	4491.20
982.98	4396.99
983.14	4450.24
983.30	4308.93
983.46	4394.94
983.62	4411.32
983.79	4227.01
983.95	4347.84
984.11	4370.37
984.27	4493.24
984.43	4284.35
984.59	4374.46
984.75	4282.30
984.91	4284.35
985.08	4458.43
985.24	4126.66
985.40	4239.30
985.56	4310.97
985.72	4308.93
985.88	4310.97
986.04	4216.77
986.20	4190.14
986.37	4302.78
986.53	4046.79
986.69	4179.90
986.85	4206.53
987.01	4124.61
987.17	4278.21
987.33	4132.80
987.49	4048.83
987.65	4206.53
987.82	4124.61
987.98	4048.83
988.14	4032.45
988.30	4091.84
988.46	4042.69
988.62	4169.66
988.78	4163.52
988.94	4075.46
989.10	3934.15
989.26	3854.28
989.42	3958.72
989.59	3880.90
989.75	3893.19
989.91	4030.40
990.07	3876.80
990.23	3956.68
990.39	3839.94
990.55	4065.22
990.71	3788.74
990.87	3950.53
991.03	3876.80
991.19	3803.08
991.35	3870.66
991.51	3897.28
991.67	3903.43
991.83	3833.80
992.00	3829.70
992.16	3958.72
992.32	3872.71
992.48	3839.94
992.64	3708.87
992.80	3811.27
992.96	3747.78
993.12	3841.99
993.28	3801.03
993.44	3778.50
993.60	3805.13
993.76	3739.59
993.92	3782.60
994.08	3743.69
994.24	3813.32
994.40	3723.21
994.56	3645.38
994.72	3549.13
994.88	3766.21
995.04	3653.58
995.20	3620.81
995.36	3551.18
995.52	3706.82
995.68	3676.10
995.84	3682.25
996.00	3694.54
996.16	3608.52
996.32	3573.71
996.48	3583.95
996.64	3710.92
996.80	3499.98
996.96	3616.71
997.12	3561.42
997.28	3522.51
997.44	3452.88
997.60	3506.12
997.76	3497.93
997.92	3487.69
998.08	3512.27
998.24	3438.54
998.40	3559.37
998.56	3520.46
998.72	3393.48
998.88	3389.39
999.04	3383.24
999.20	3452.88
999.36	3272.65
999.52	3467.21
999.68	3454.92
999.84	3534.79
1000.00	3403.72
1000.16	3344.33
1000.32	3334.09
1000.48	3436.49
1000.64	3289.04
1000.80	3309.52
1000.95	3258.32
1001.11	3268.56
1001.27	3297.23
1001.43	3295.18
1001.59	3307.47
1001.75	3246.03
1001.91	3317.71
1002.07	3213.26
1002.23	3207.12
1002.39	3229.65
1002.55	3254.22
1002.71	3180.50
1002.87	3254.22
1003.03	3135.44
1003.19	3112.91
1003.34	3282.89
1003.50	3211.22
1003.66	3168.21
1003.82	3211.22
1003.98	3088.34
1004.14	3080.14
1004.30	3184.59
1004.46	3137.49
1004.62	3100.62
1004.78	3127.25
1004.94	3035.09
1005.09	3174.35
1005.25	3123.15
1005.41	3012.56
1005.57	2994.13
1005.73	3037.14
1005.89	2959.31
1006.05	3043.28
1006.21	3078.10
1006.37	3014.61
1006.52	2947.03
1006.68	2944.98
1006.84	3067.86
1007.00	2928.60
1007.16	3071.95
1007.32	2936.79
1007.48	3008.47
1007.64	2906.07
1007.79	2951.12
1007.95	2897.88
1008.11	3016.66
1008.27	2926.55
1008.43	2846.68
1008.59	2756.57
1008.75	2932.69
1008.91	2940.88
1009.06	2858.96
1009.22	2885.59
1009.38	2842.58
1009.54	2916.31
1009.70	2797.53
1009.86	2922.45
1010.01	2830.29
1010.17	2746.33
1010.33	2813.91
1010.49	2824.15
1010.65	2789.33
1010.81	2725.85
1010.96	2828.24
1011.12	2719.70
1011.28	2715.61
1011.44	2752.47
1011.60	2770.90
1011.76	2672.60
1011.91	2725.85
1012.07	2664.41
1012.23	2615.26
1012.39	2715.61
1012.55	2666.46
1012.71	2666.46
1012.86	2676.70
1013.02	2668.50
1013.18	2736.09
1013.34	2592.73
1013.50	2779.09
1013.65	2719.70
1013.81	2609.11
1013.97	2688.98
1014.13	2674.65
1014.29	2688.98
1014.44	2656.22
1014.60	2619.35
1014.76	2568.15
1014.92	2572.25
1015.07	2627.54
1015.23	2639.83
1015.39	2596.82
1015.55	2562.01
1015.71	2645.98
1015.86	2584.54
1016.02	2523.10
1016.18	2484.19
1016.34	2666.46
1016.49	2549.72
1016.65	2611.16
1016.81	2629.59
1016.97	2490.33
1017.12	2627.54
1017.28	2525.15
1017.44	2373.60
1017.60	2459.61
1017.75	2508.76
1017.91	2516.95
1018.07	2498.52
1018.23	2519.00
1018.38	2541.53
1018.54	2535.39
1018.70	2422.75
1018.86	2338.78
1019.01	2455.51
1019.17	2469.85
1019.33	2480.09
1019.49	2506.71
1019.64	2437.08
1019.80	2451.42
1019.96	2451.42
1020.12	2451.42
1020.27	2383.84
1020.43	2367.45
1020.59	2465.75
1020.74	2463.71
1020.90	2404.32
1021.06	2326.49
1021.22	2420.70
1021.37	2369.50
1021.53	2279.39
1021.69	2473.95
1021.84	2191.33
1022.00	2306.01
1022.16	2306.01
1022.31	2363.36
1022.47	2322.40
1022.63	2400.22
1022.79	2199.52
1022.94	2385.88
1023.10	2414.56
1023.26	2289.63
1023.41	2207.71
1023.57	2230.24
1023.73	2355.16
1023.88	2336.73
1024.04	2256.86
1024.20	2338.78
1024.35	2314.20
1024.51	2244.57
1024.67	2228.19
1024.82	2252.77
1024.98	2252.77
1025.14	2213.85
1025.29	2203.61
1025.45	2256.86
1025.61	2162.66
1025.76	2230.24
1025.92	2156.51
1026.08	2303.96
1026.23	2156.51
1026.39	2250.72
1026.55	2267.10
1026.70	2115.55
1026.86	2166.75
1027.02	2285.53
1027.17	2185.18
1027.33	2220.00
1027.48	2205.66
1027.64	2138.08
1027.80	2168.80
1027.95	2189.28
1028.11	2103.26
1028.27	2267.10
1028.42	2133.98
1028.58	2086.88
1028.73	2078.69
1028.89	2099.17
1029.05	2234.33
1029.20	2174.94
>>>>>End Processed Spectral Data<<<<<
