SpectraSuite Data File
++++++++++++++++++++++++++++++++++++
Date: Fri Jun 02 14:41:59 CEST 2017
User: INFO_000
Dark Spectrum Present: No
Reference Spectrum Present: No
Number of Sampled Component Spectra: 1
Spectrometers: USB4H00879
Integration Time (usec): 80000 (USB4H00879)
Spectra Averaged: 1 (USB4H00879)
Boxcar Smoothing: 0 (USB4H00879)
Correct for Electrical Dark: No (USB4H00879)
Strobe/Lamp Enabled: No (USB4H00879)
Correct for Detector Non-linearity: No (USB4H00879)
Correct for Stray Light: No (USB4H00879)
Number of Pixels in Processed Spectrum: 3648
>>>>>Begin Processed Spectral Data<<<<<
345.13	1325.04
345.34	1325.04
345.56	1325.04
345.78	1329.13
345.99	1249.26
346.21	1617.90
346.42	1665.00
346.64	1660.90
346.86	1724.39
347.07	1650.66
347.29	1665.00
347.50	1554.41
347.72	1583.08
347.94	1718.25
348.15	1548.26
348.37	1576.94
348.59	1628.14
348.80	1662.95
349.02	1832.93
349.23	1896.42
349.45	1806.31
349.67	1929.19
349.88	1822.69
350.10	1931.23
350.31	1884.13
350.53	1902.56
350.75	1959.91
350.96	1767.40
351.18	1812.45
351.39	1857.51
351.61	1843.17
351.82	1918.95
352.04	1898.47
352.26	1830.88
352.47	1929.19
352.69	1988.58
352.90	1767.40
353.12	1828.84
353.34	1841.12
353.55	1947.62
353.77	1865.70
353.98	1822.69
354.20	1853.41
354.41	1988.58
354.63	1953.76
354.85	2066.40
355.06	1970.15
355.28	1794.02
355.49	1873.89
355.71	1877.99
355.92	1851.36
356.14	1863.65
356.35	1800.16
356.57	1910.75
356.79	1929.19
357.00	1861.60
357.22	1974.24
357.43	1886.18
357.65	1933.28
357.86	1824.74
358.08	1918.95
358.29	1886.18
358.51	2021.35
358.72	1974.24
358.94	1902.56
359.16	1869.80
359.37	1871.84
359.59	1986.53
359.80	1929.19
360.02	1914.85
360.23	1929.19
360.45	2023.39
360.66	1982.43
360.88	1816.55
361.09	2029.54
361.31	1951.71
361.52	2000.87
361.74	2072.54
361.95	2148.32
362.17	1968.10
362.38	2121.70
362.60	2068.45
362.81	2007.01
363.03	1947.62
363.24	1947.62
363.46	2009.06
363.67	2023.39
363.89	2021.35
364.10	2127.84
364.32	1920.99
364.53	2066.40
364.75	1966.05
364.96	2066.40
365.18	2107.36
365.39	1970.15
365.61	1925.09
365.82	2052.06
366.04	2039.78
366.25	1927.14
366.47	2109.41
366.68	2056.16
366.90	1990.63
367.11	2082.78
367.33	2090.98
367.54	2097.12
367.76	1974.24
367.97	2082.78
368.19	2021.35
368.40	2082.78
368.62	2078.69
368.83	1937.38
369.05	2107.36
369.26	2070.50
369.48	2050.02
369.69	2058.21
369.91	2133.98
370.12	2133.98
370.33	2121.70
370.55	1966.05
370.76	2047.97
370.98	2131.94
371.19	2027.49
371.41	2007.01
371.62	2068.45
371.84	1939.43
372.05	2164.70
372.27	2021.35
372.48	2066.40
372.69	2115.55
372.91	2152.42
373.12	2168.80
373.34	2131.94
373.55	2121.70
373.77	2238.43
373.98	2080.74
374.20	2174.94
374.41	2295.77
374.62	2099.17
374.84	2226.14
375.05	2174.94
375.27	2156.51
375.48	2158.56
375.70	2117.60
375.91	2271.20
376.12	2334.68
376.34	2240.48
376.55	2242.53
376.77	2213.85
376.98	2142.18
377.19	2131.94
377.41	2197.47
377.62	2222.05
377.84	2252.77
378.05	2373.60
378.27	2301.92
378.48	2310.11
378.69	2340.83
378.91	2287.58
379.12	2359.26
379.34	2260.96
379.55	2404.32
379.76	2291.68
379.98	2144.22
380.19	2334.68
380.41	2306.01
380.62	2267.10
380.83	2226.14
381.05	2252.77
381.26	2371.55
381.47	2191.33
381.69	2328.54
381.90	2406.36
382.12	2277.34
382.33	2306.01
382.54	2355.16
382.76	2410.46
382.97	2312.16
383.19	2258.91
383.40	2414.56
383.61	2369.50
383.83	2320.35
384.04	2369.50
384.25	2363.36
384.47	2420.70
384.68	2447.32
384.89	2344.92
385.11	2334.68
385.32	2334.68
385.54	2383.84
385.75	2389.98
385.96	2469.85
386.18	2519.00
386.39	2402.27
386.60	2519.00
386.82	2506.71
387.03	2506.71
387.24	2519.00
387.46	2414.56
387.67	2555.86
387.88	2510.81
388.10	2389.98
388.31	2506.71
388.52	2594.78
388.74	2582.49
388.95	2533.34
389.16	2521.05
389.38	2592.73
389.59	2623.45
389.80	2670.55
390.02	2600.92
390.23	2676.70
390.44	2674.65
390.66	2623.45
390.87	2570.20
391.08	2668.50
391.30	2719.70
391.51	2691.03
391.72	2691.03
391.94	2746.33
392.15	2715.61
392.36	2588.63
392.58	2682.84
392.79	2766.81
393.00	2727.89
393.22	2674.65
393.43	2820.05
393.64	2928.60
393.85	2770.90
394.07	2695.13
394.28	2828.24
394.49	2793.43
394.71	2856.92
394.92	2928.60
395.13	2719.70
395.35	2842.58
395.56	2754.52
395.77	2772.95
395.98	2930.64
396.20	2811.86
396.41	2953.17
396.62	2953.17
396.84	2916.31
397.05	2951.12
397.26	2985.94
397.47	2949.08
397.69	2875.35
397.90	3086.29
398.11	2940.88
398.32	2987.99
398.54	2942.93
398.75	3014.61
398.96	3008.47
399.18	3149.78
399.39	3039.19
399.60	3094.48
399.81	2914.26
400.03	3020.75
400.24	3254.22
400.45	3074.00
400.66	3096.53
400.88	3057.62
401.09	3252.17
401.30	3090.38
401.51	3182.54
401.73	3145.68
401.94	3223.50
402.15	3297.23
402.36	3182.54
402.58	3315.66
402.79	3291.09
403.00	3229.65
403.21	3248.08
403.43	3321.81
403.64	3346.38
403.85	3260.37
404.06	3344.33
404.27	3155.92
404.49	3317.71
404.70	3264.46
404.91	3409.87
405.12	3203.02
405.34	3368.91
405.55	3366.86
405.76	3327.95
405.97	3389.39
406.19	3459.02
406.40	3289.04
406.61	3387.34
406.82	3467.21
407.03	3413.96
407.25	3272.65
407.46	3489.74
407.67	3485.64
407.88	3614.66
408.09	3411.92
408.31	3481.55
408.52	3395.53
408.73	3456.97
408.94	3446.73
409.15	3440.59
409.37	3530.70
409.58	3635.14
409.79	3553.23
410.00	3547.08
410.21	3518.41
410.43	3526.60
410.64	3499.98
410.85	3565.51
411.06	3448.78
411.27	3614.66
411.48	3747.78
411.70	3637.19
411.91	3758.02
412.12	3739.59
412.33	3741.64
412.54	3600.33
412.76	3778.50
412.97	3788.74
413.18	3653.58
413.39	3704.78
413.60	3829.70
413.81	3825.61
414.03	3708.87
414.24	3698.63
414.45	3858.37
414.66	3596.23
414.87	3809.22
415.08	3719.11
415.30	3719.11
415.51	3821.51
415.72	3868.61
415.93	3854.28
416.14	3964.87
416.35	3940.29
416.56	3936.20
416.78	3792.84
416.99	3971.01
417.20	3975.11
417.41	4057.03
417.62	3997.64
417.83	4048.83
418.04	4001.73
418.26	4054.98
418.47	3977.16
418.68	3964.87
418.89	4061.12
419.10	4192.19
419.31	4046.79
419.52	4204.48
419.73	4216.77
419.95	4188.10
420.16	4112.32
420.37	4075.46
420.58	4257.73
420.79	4069.31
421.00	4124.61
421.21	4247.49
421.42	4267.97
421.63	4198.34
421.85	4276.16
422.06	4382.65
422.27	4319.17
422.48	4335.55
422.69	4372.41
422.90	4300.73
423.11	4456.38
423.32	4526.01
423.53	4540.35
423.75	4489.15
423.96	4669.37
424.17	4478.91
424.38	4687.80
424.59	4583.35
424.80	4722.62
425.01	4622.27
425.22	4491.20
425.43	4476.86
425.64	4874.17
425.85	4784.06
426.06	4710.33
426.28	4710.33
426.49	4546.49
426.70	4788.15
426.91	4794.29
427.12	4747.19
427.33	4743.10
427.54	4763.58
427.75	5074.87
427.96	4984.76
428.17	4863.93
428.38	5058.48
428.59	4882.36
428.80	4761.53
429.01	4906.93
429.23	4851.64
429.44	5253.04
429.65	4947.89
429.86	5197.74
430.07	4874.17
430.28	5060.53
430.49	5134.26
430.70	5316.53
430.91	5214.13
431.12	5277.62
431.33	5259.18
431.54	5455.79
431.75	5351.34
431.96	5386.16
432.17	5212.08
432.38	5312.43
432.59	5433.26
432.80	5402.54
433.01	5506.99
433.22	5509.04
433.43	5531.56
433.64	5371.82
433.85	5429.17
434.06	5597.10
434.27	5539.76
434.49	5660.59
434.70	5666.73
434.91	5619.63
435.12	5664.68
435.33	5588.91
435.54	5586.86
435.75	5631.91
435.96	5664.68
436.17	5574.57
436.38	5826.47
436.59	5724.07
436.80	5697.45
437.01	6000.55
437.22	6143.91
437.43	5932.97
437.64	5746.60
437.85	6012.84
438.06	5973.92
438.27	5883.81
438.48	5889.96
438.69	6086.56
438.90	6018.98
439.11	5875.62
439.32	6207.39
439.53	6057.89
439.74	6037.41
439.95	6285.22
440.16	6133.67
440.37	6166.43
440.57	6025.12
440.78	6176.67
440.99	6117.28
441.20	6080.42
441.41	6133.67
441.62	6221.73
441.83	6098.85
442.04	6322.08
442.25	6332.32
442.46	6291.36
442.67	6264.74
442.88	6752.15
443.09	6367.13
443.30	6338.46
443.51	6473.63
443.72	6539.16
443.93	6270.88
444.14	6756.25
444.35	6422.43
444.56	6664.09
444.77	6569.88
444.98	6573.98
445.19	6598.56
445.40	6573.98
445.61	6541.21
445.81	6741.91
446.02	6827.93
446.23	6664.09
446.44	6573.98
446.65	6676.38
446.86	6711.19
447.07	6703.00
447.28	6969.24
447.49	6821.78
447.70	6823.83
447.91	6901.65
448.12	6989.72
448.33	7022.48
448.54	7122.84
448.74	6827.93
448.95	7008.15
449.16	7032.72
449.37	7315.34
449.58	6932.37
449.79	7309.20
450.00	6965.14
450.21	7251.86
450.42	7344.02
450.63	7272.34
450.84	7274.38
451.05	7425.93
451.25	7200.66
451.46	7102.36
451.67	7468.94
451.88	7470.99
452.09	7366.54
452.30	7317.39
452.51	7452.56
452.72	7522.19
452.93	7868.30
453.13	7311.25
453.34	7481.23
453.55	7663.50
453.76	7595.92
453.97	8019.85
454.18	7827.34
454.39	7835.53
454.60	7745.42
454.81	7821.19
455.01	7784.33
455.22	7606.16
455.43	8028.04
455.64	8185.73
455.85	8198.02
456.06	8150.92
456.27	7970.69
456.48	7982.98
456.68	8288.13
456.89	8093.57
457.10	8308.61
457.31	8388.48
457.52	8316.80
457.73	8214.40
457.94	8613.76
458.14	8259.46
458.35	8720.25
458.56	8574.85
458.77	8497.02
458.98	8673.15
459.19	8624.00
459.39	8671.10
459.60	8693.63
459.81	8613.76
460.02	9121.65
460.23	8863.61
460.44	9072.50
460.65	9150.32
460.85	9025.40
461.06	9090.93
461.27	8968.06
461.48	9367.41
461.69	9385.84
461.89	9006.97
462.10	9332.59
462.31	9138.04
462.52	9197.43
462.73	9377.65
462.94	9555.82
463.14	9430.90
463.35	9416.56
463.56	9824.11
463.77	9715.56
463.98	9318.26
464.18	9654.12
464.39	9979.75
464.60	10026.86
464.81	10039.14
465.02	10002.28
465.23	10215.27
465.43	10047.33
465.64	10375.01
465.85	10137.45
466.06	10209.12
466.27	10315.62
466.47	10438.50
466.68	10358.63
466.89	10497.89
467.10	10534.75
467.30	10280.80
467.51	10735.45
467.72	11075.42
467.93	10569.57
468.14	10852.19
468.34	10858.33
468.55	11042.65
468.76	11022.17
468.97	11079.51
469.17	11018.07
469.38	11259.73
469.59	11474.77
469.80	11147.09
470.01	11343.70
470.21	11392.85
470.42	11599.70
470.63	11732.81
470.84	11554.64
471.04	11775.82
471.25	11849.55
471.46	11620.17
471.67	12193.61
471.87	11882.31
472.08	12236.61
472.29	12291.91
472.50	11861.84
472.70	12187.46
472.91	12392.26
473.12	12410.69
473.33	12545.86
473.53	12769.09
473.74	12758.85
473.95	12830.52
474.16	13125.43
474.36	13172.54
474.57	13160.25
474.78	13344.56
474.99	12859.20
475.19	13082.42
475.40	13459.25
475.61	13514.55
475.81	13604.66
476.02	13793.07
476.23	13643.57
476.44	13782.83
476.64	13944.62
476.85	14264.10
477.06	14120.74
477.27	14229.29
477.47	14477.09
477.68	14401.32
477.89	14503.71
478.09	14526.24
478.30	14503.71
478.51	14724.90
478.71	14833.44
478.92	14845.73
479.13	15071.00
479.34	15232.79
479.54	15314.71
479.75	15122.20
479.96	15404.82
480.16	15286.04
480.37	15372.05
480.58	15644.43
480.78	16166.67
480.99	15920.91
481.20	15984.40
481.41	15916.81
481.61	16269.06
481.82	16267.02
482.03	16346.89
482.23	16273.16
482.44	16502.53
482.65	16795.39
482.85	16537.35
483.06	16717.57
483.27	16815.87
483.47	17071.87
483.68	17094.40
483.89	17166.07
484.09	17229.56
484.30	17155.83
484.51	17624.82
484.71	17440.50
484.92	17454.84
485.13	17960.69
485.33	17813.23
485.54	17911.53
485.75	17897.20
485.95	18241.26
486.16	18431.72
486.37	18636.52
486.57	18310.89
486.78	18257.64
486.98	18568.93
487.19	18964.19
487.40	19017.44
487.60	18853.60
487.81	19082.97
488.02	19080.92
488.22	18976.48
488.43	19404.50
488.64	19457.75
488.84	19367.64
489.05	19576.53
489.25	19463.90
489.46	19783.38
489.67	19803.86
489.87	20252.36
490.08	20152.01
490.29	20033.23
490.49	20412.10
490.70	20563.65
490.90	20459.21
491.11	20342.47
491.32	20584.13
491.52	20422.34
491.73	20696.77
491.94	20629.19
492.14	20721.35
492.35	21366.46
492.55	21321.40
492.76	21503.67
492.97	21522.10
493.17	21276.35
493.38	21624.50
493.58	21870.26
493.79	21774.00
494.00	21886.64
494.20	21651.13
494.41	21833.39
494.61	22181.55
494.82	22322.86
495.02	22066.86
495.23	22142.64
495.44	22210.22
495.64	22671.01
495.85	22711.97
496.05	22623.91
496.26	22654.63
496.47	22808.23
496.67	22824.61
496.88	23176.86
497.08	22982.31
497.29	23187.10
497.49	22933.15
497.70	23334.56
497.91	23477.91
498.11	23512.73
498.32	23627.42
498.52	23697.05
498.73	23821.97
498.93	23617.18
499.14	23879.32
499.34	23955.09
499.55	24372.88
499.76	24016.53
499.96	24110.74
500.17	24348.30
500.37	24098.45
500.58	24276.62
500.78	24405.64
500.99	24565.39
501.19	24860.29
501.40	24333.96
501.60	24796.81
501.81	24827.53
502.02	24850.05
502.22	24675.98
502.43	24835.72
502.63	25235.07
502.84	25206.40
503.04	25056.90
503.25	25484.92
503.45	25251.45
503.66	25763.45
503.86	25380.48
504.07	25806.45
504.27	25327.23
504.48	25929.33
504.68	25921.14
504.89	26078.83
505.09	26158.70
505.30	26003.06
505.50	26289.77
505.71	26533.48
505.91	26695.27
506.12	26334.83
506.32	26224.24
506.53	26439.28
506.73	26556.01
506.94	26648.17
507.14	26596.97
507.35	26689.13
507.55	26969.70
507.76	26975.84
507.96	26627.69
508.17	27162.21
508.37	26963.56
508.58	27031.14
508.78	27197.02
508.99	27393.63
509.19	27516.51
509.40	27219.55
509.60	27307.62
509.81	27571.80
510.01	27422.30
510.22	27375.20
510.42	27446.88
510.63	27678.30
510.83	27948.63
511.04	27633.24
511.24	27831.90
511.44	27860.57
511.65	28071.51
511.85	27627.10
512.06	27815.51
512.26	28556.88
512.47	28040.79
512.67	28638.80
512.88	28579.40
513.08	28089.94
513.29	28769.86
513.49	28341.84
513.69	28497.49
513.90	28751.43
514.10	28776.01
514.31	28792.39
514.51	28663.37
514.72	28782.15
514.92	28544.59
515.13	28778.06
515.33	28763.72
515.53	28802.63
515.74	29259.33
515.94	28986.95
516.15	29322.82
516.35	29152.84
516.56	29263.43
516.76	29158.98
516.96	29584.96
517.17	29546.05
517.37	29630.01
517.58	29808.19
517.78	29404.74
517.99	29828.66
518.19	29967.93
518.39	30086.71
518.60	30027.32
518.80	29877.82
519.01	30404.14
519.21	30350.90
519.41	30207.54
519.62	29978.17
519.82	30107.19
520.03	30797.35
520.23	30373.42
520.43	30012.98
520.64	30844.46
520.84	30950.95
521.05	30656.04
521.25	31198.76
521.45	30846.51
521.66	31204.90
521.86	30918.18
522.07	30901.80
522.27	31036.97
522.47	31192.61
522.68	31643.17
522.88	31018.53
523.08	31673.88
523.29	31929.88
523.49	31784.48
523.70	31905.31
523.90	32278.04
524.10	31890.97
524.31	31837.72
524.51	31634.97
524.71	32464.40
524.92	32427.54
525.12	32538.13
525.33	32810.51
525.53	32456.21
525.73	32749.07
525.94	32605.71
526.14	32615.95
526.34	32556.56
526.55	32904.71
526.75	33431.04
526.95	33101.32
527.16	32892.43
527.36	32994.82
527.56	33183.24
527.77	33592.83
527.97	33633.79
528.17	33672.70
528.38	33484.29
528.58	33580.54
528.78	33838.59
528.99	33588.74
529.19	34305.52
529.39	33525.25
529.60	34258.42
529.80	34092.54
530.00	34033.14
530.21	34768.37
530.41	34446.83
530.61	34854.38
530.82	34551.28
531.02	34653.68
531.22	34895.34
531.43	34854.38
531.63	35018.22
531.83	35718.62
532.04	35556.83
532.24	35206.63
532.44	35630.56
532.64	35700.19
532.85	36009.43
533.05	35851.74
533.25	36130.26
533.46	35763.68
533.66	36537.81
533.86	36195.80
534.07	36695.50
534.27	35972.57
534.47	36754.90
534.67	37002.70
534.88	36607.44
535.08	36838.86
535.28	36908.49
535.49	36709.84
535.69	37049.80
535.89	37170.63
536.09	37275.08
536.30	37461.44
536.50	37432.77
536.70	37582.27
536.91	37367.24
537.11	37565.89
537.31	37270.98
537.51	37590.47
537.72	38002.11
537.92	38450.61
538.12	38507.96
538.32	38299.06
538.53	38405.56
538.73	38399.41
538.93	38254.01
539.13	38157.75
539.34	38626.74
539.54	38843.82
539.74	39062.96
539.94	38546.87
540.15	38946.22
540.35	39261.61
540.55	38995.37
540.75	39118.25
540.96	39390.63
541.16	39105.96
541.36	39210.41
541.56	39431.59
541.77	39773.60
541.97	39650.72
542.17	39507.37
542.37	39998.88
542.58	39990.69
542.78	39974.30
542.98	39703.97
543.18	40005.02
543.38	40494.49
543.59	40195.48
543.79	40019.36
543.99	40283.55
544.19	40349.08
544.40	40543.64
544.60	40875.41
544.80	40418.71
545.00	40619.41
545.20	40865.17
545.41	40955.28
545.61	40435.10
545.81	40797.59
546.01	41346.44
546.21	41149.84
546.42	41086.35
546.62	41487.75
546.82	41065.87
547.02	41196.94
547.22	41710.98
547.43	41457.03
547.63	41536.90
547.83	41567.62
548.03	41500.04
548.23	41835.91
548.44	41731.46
548.64	41954.69
548.84	41809.28
549.04	42075.52
549.24	42222.97
549.45	42495.35
549.65	42141.05
549.85	42210.68
550.05	42491.26
550.25	42184.06
550.45	43033.97
550.66	42585.46
550.86	42173.82
551.06	42673.52
551.26	42771.83
551.46	43095.41
551.66	42906.99
551.87	42767.73
552.07	42771.83
552.27	42993.01
552.47	43007.34
552.67	42780.02
552.87	43289.96
553.07	42927.47
553.28	43457.90
553.48	43351.40
553.68	43126.13
553.88	43529.58
554.08	43328.87
554.28	43322.73
554.48	43302.25
554.69	43674.98
554.89	43615.59
555.09	43586.92
555.29	43404.65
555.49	43730.28
555.69	43556.20
555.89	43750.76
556.10	44393.82
556.30	43697.51
556.50	44025.18
556.70	43836.77
556.90	44340.57
557.10	44168.54
557.30	44070.24
557.50	44338.52
557.70	43894.11
557.91	44311.90
558.11	44336.48
558.31	44592.47
558.51	44307.80
558.71	44475.74
558.91	44594.52
559.11	44141.92
559.31	44424.54
559.51	43967.84
559.72	44731.73
559.92	44787.03
560.12	44569.94
560.32	45112.66
560.52	44723.54
560.72	44963.15
560.92	45126.99
561.12	44983.63
561.32	45200.72
561.52	45028.69
561.72	45673.80
561.93	44868.95
562.13	44838.23
562.33	44944.72
562.53	45129.04
562.73	45243.73
562.93	45423.95
563.13	44995.92
563.33	45129.04
563.53	45892.93
563.73	45280.59
563.93	45702.47
564.13	45514.06
564.33	45514.06
564.53	45096.27
564.74	45854.02
564.94	45544.78
565.14	45892.93
565.34	45712.71
565.54	45491.53
565.74	45622.60
565.94	46099.78
566.14	45768.01
566.34	45497.67
566.54	46320.96
566.74	45937.99
566.94	46011.71
567.14	46144.83
567.34	45581.64
567.54	46169.41
567.74	46079.30
567.94	45970.75
568.14	46609.72
568.34	46662.97
568.54	46267.71
568.74	46347.58
568.94	46179.65
569.14	46452.03
569.34	46437.69
569.54	46605.62
569.75	46525.75
569.95	46685.50
570.15	46982.45
570.35	46613.82
570.55	46705.98
570.75	46816.57
570.95	46769.46
571.15	47093.04
571.35	47242.54
571.55	47523.11
571.75	46828.85
571.95	47134.00
572.15	47234.35
572.35	47314.22
572.55	47199.54
572.75	47471.92
572.95	47068.47
573.15	47342.89
573.35	47154.48
573.55	47150.38
573.75	47222.06
573.95	47535.40
574.15	47557.93
574.35	47510.83
574.55	47899.94
574.75	47727.91
574.95	47813.93
575.15	47502.64
575.34	47832.36
575.54	47537.45
575.74	48153.89
575.94	47945.00
576.14	48092.45
576.34	48272.67
576.54	48278.82
576.74	48192.80
576.94	47975.72
577.14	48291.10
577.34	48504.09
577.54	48110.88
577.74	48379.17
577.94	48188.70
578.14	48551.20
578.34	48948.50
578.54	47850.79
578.74	48463.13
578.94	48708.89
579.14	48624.92
579.34	48618.78
579.54	48964.88
579.74	49067.28
579.94	48987.41
580.13	49065.24
580.33	48739.61
580.53	49274.13
580.73	49495.31
580.93	49437.97
581.13	49698.06
581.33	49448.21
581.53	49921.29
581.73	49546.51
581.93	49411.34
582.13	49653.00
582.33	49990.92
582.53	49829.13
582.73	49710.35
582.92	49894.66
583.12	49452.30
583.32	49833.22
583.52	49691.91
583.72	50220.29
583.92	49954.05
584.12	50025.73
584.32	50717.95
584.52	50414.85
584.72	50461.95
584.92	50582.78
585.11	50478.33
585.31	50117.89
585.51	50701.56
585.71	50595.07
585.91	50674.94
586.11	50597.12
586.31	50265.34
586.51	50779.39
586.71	50738.43
586.91	51313.90
587.10	51207.41
587.30	51021.05
587.50	51059.96
587.70	51320.05
587.90	51639.53
588.10	51188.98
588.30	50914.55
588.50	51696.88
588.69	50949.37
588.89	51401.97
589.09	51639.53
589.29	51528.94
589.49	51713.26
589.69	51107.06
589.89	51705.07
590.08	51311.86
590.28	51786.99
590.48	51860.71
590.68	51711.21
590.88	51715.31
591.08	51987.69
591.28	51381.49
591.47	52294.88
591.67	52190.44
591.87	52032.74
592.07	52368.61
592.27	51766.51
592.47	51784.94
592.67	52278.50
592.86	52284.64
593.06	51852.52
593.26	52337.89
593.46	52012.26
593.66	52034.79
593.86	52534.49
594.05	52249.83
594.25	52911.32
594.45	52477.15
594.65	52706.52
594.85	52313.31
595.05	52939.99
595.24	53050.58
595.44	52858.07
595.64	53130.45
595.84	52700.38
596.04	53038.29
596.23	53030.10
596.43	53484.75
596.63	53083.35
596.83	53249.24
597.03	53861.58
597.22	53417.17
597.42	53589.20
597.62	53726.41
597.82	53738.70
598.02	53492.94
598.21	53896.39
598.41	53433.55
598.61	53433.55
598.81	53624.01
599.01	53683.40
599.20	53941.45
599.40	53515.47
599.60	54013.13
599.80	54047.94
600.00	54191.30
600.19	54054.09
600.39	54009.03
600.59	54322.37
600.79	54142.15
600.98	54449.35
601.18	54400.19
601.38	55088.31
601.58	54711.49
601.78	54404.29
601.97	54508.74
602.17	54994.10
602.37	54670.53
602.57	54645.95
602.76	54838.46
602.96	54600.89
603.16	55094.46
603.36	55047.35
603.55	55588.02
603.75	55266.48
603.95	55104.70
604.15	55379.12
604.34	55221.43
604.54	55565.49
604.74	55497.91
604.94	55831.72
605.13	55628.98
605.33	55768.24
605.53	55463.09
605.73	55493.81
605.92	55489.71
606.12	55516.34
606.32	55737.52
606.52	55444.66
606.71	55475.38
606.91	56007.85
607.11	56038.57
607.30	56220.84
607.50	55950.51
607.70	56329.38
607.90	56050.86
608.09	56241.32
608.29	56038.57
608.49	56407.20
608.68	56292.52
608.88	56095.91
609.08	56593.57
609.28	56566.94
609.47	56087.72
609.67	56812.70
609.87	56589.47
610.06	56806.56
610.26	56624.29
610.46	56800.41
610.66	56304.80
610.85	56775.84
611.05	56276.13
611.25	56515.75
611.44	56220.84
611.64	56669.34
611.84	56308.90
612.03	56300.71
612.23	56929.44
612.43	56884.38
612.62	56589.47
612.82	56652.96
613.02	57117.85
613.21	56589.47
613.41	57033.88
613.61	56962.20
613.80	56751.26
614.00	57021.59
614.20	56734.88
614.39	56736.93
614.59	57205.91
614.79	56644.77
614.98	56898.72
615.18	56861.85
615.38	56827.04
615.57	57156.76
615.77	57201.82
615.97	57083.03
616.16	57162.90
616.36	56589.47
616.56	57017.50
616.75	57171.10
616.95	57066.65
617.15	56925.34
617.34	56796.32
617.54	57048.22
617.74	57298.07
617.93	57529.49
618.13	56464.55
618.32	57242.77
618.52	56966.30
618.72	57005.21
618.91	57152.66
619.11	57142.42
619.31	57111.70
619.50	57158.81
619.70	56548.51
619.90	57568.40
620.09	57267.35
620.29	57226.39
620.48	56882.33
620.68	57746.57
620.88	56972.44
621.07	57005.21
621.27	57238.68
621.46	57056.41
621.66	57087.13
621.86	57283.73
622.05	56888.48
622.25	57312.41
622.44	57105.56
622.64	56835.23
622.84	57113.75
623.03	56710.30
623.23	57324.69
623.42	57107.61
623.62	57150.62
623.82	57263.25
624.01	57298.07
624.21	57842.83
624.40	56777.89
624.60	57189.53
624.80	57087.13
624.99	56992.92
625.19	56923.29
625.38	56915.10
625.58	57271.45
625.77	57222.29
625.97	56976.54
626.17	57142.42
626.36	57431.19
626.56	57193.62
626.75	56401.06
626.95	57521.30
627.14	57123.99
627.34	57234.58
627.54	56980.63
627.73	57193.62
627.93	57476.24
628.12	57050.27
628.32	57529.49
628.51	57201.82
628.71	56980.63
628.90	57128.09
629.10	56781.98
629.30	57189.53
629.49	57113.75
629.69	56931.48
629.88	56714.40
630.08	57334.93
630.27	57334.93
630.47	56931.48
630.66	57375.89
630.86	57236.63
631.05	57015.45
631.25	57435.28
631.44	57390.23
631.64	56824.99
631.84	57545.87
632.03	58035.34
632.23	56665.25
632.42	57406.61
632.62	57087.13
632.81	57154.71
633.01	57185.43
633.20	57676.94
633.40	57164.95
633.59	57324.69
633.79	56804.51
633.98	57261.21
634.18	57375.89
634.37	57545.87
634.57	57959.56
634.76	57484.43
634.96	57654.42
635.15	57592.98
635.35	57183.38
635.54	57650.32
635.74	57605.26
635.93	57437.33
636.13	57668.75
636.32	57644.18
636.52	57214.10
636.71	57367.70
636.91	57382.04
637.10	57138.33
637.30	57080.98
637.49	57570.45
637.69	57134.23
637.88	57883.79
638.08	57511.06
638.27	57896.08
638.46	57601.17
638.66	57803.92
638.85	57504.91
639.05	57961.61
639.24	58141.83
639.44	57248.92
639.63	57332.89
639.83	57853.07
640.02	57873.55
640.22	57560.21
640.41	57955.47
640.61	57259.16
640.80	57355.41
640.99	57423.00
641.19	58440.84
641.38	57531.54
641.58	57767.05
641.77	57160.86
641.97	57578.64
642.16	57867.40
642.36	58084.49
642.55	58201.22
642.74	57701.52
642.94	57996.43
643.13	57425.04
643.33	58225.80
643.52	58113.16
643.72	57957.52
643.91	57801.87
644.10	58039.43
644.30	58545.28
644.49	58021.00
644.69	58410.12
644.88	58250.38
645.08	57967.76
645.27	58184.84
645.46	57377.94
645.66	58195.08
645.85	57898.12
646.05	57996.43
646.24	58215.56
646.43	58104.97
646.63	58770.56
646.82	58449.03
647.02	58004.62
647.21	58209.42
647.40	58446.98
647.60	58614.91
647.79	58303.62
647.99	58516.61
648.18	58029.19
648.37	58721.41
648.57	58877.05
648.76	58518.66
648.96	58401.92
649.15	58455.17
649.34	58684.54
649.54	58659.97
649.73	58528.90
649.92	58647.68
650.12	58315.91
650.31	58801.28
650.51	58643.59
650.70	58680.45
650.89	58580.10
651.09	59491.44
651.28	58877.05
651.47	58745.98
651.67	58750.08
651.86	59122.81
652.06	58391.68
652.25	58881.15
652.44	58586.24
652.64	58258.57
652.83	58676.35
653.02	58596.48
653.22	58702.98
653.41	58608.77
653.60	58598.53
653.80	58836.09
653.99	59309.18
654.18	58725.50
654.38	58743.94
654.57	59079.80
654.76	58889.34
654.96	58375.30
655.15	58856.57
655.34	59110.52
655.54	58451.08
655.73	58985.60
655.92	58670.21
656.12	59276.41
656.31	58825.85
656.50	58602.63
656.70	58756.22
656.89	58649.73
657.08	58979.45
657.28	58760.32
657.47	59106.43
657.66	59341.94
657.86	58801.28
658.05	59296.89
658.24	59462.77
658.43	59026.56
658.63	59325.56
658.82	59393.14
659.01	59276.41
659.21	58999.93
659.40	59202.68
659.59	59208.82
659.79	59237.50
659.98	59364.47
660.17	59552.88
660.36	59399.29
660.56	59260.02
660.75	59120.76
660.94	59417.72
661.14	59272.31
661.33	59206.78
661.52	58647.68
661.71	59497.59
661.91	59057.27
662.10	58817.66
662.29	59546.74
662.49	59356.28
662.68	59473.01
662.87	59286.65
663.06	59374.71
663.26	59159.67
663.45	59298.94
663.64	59221.11
663.83	59675.76
664.03	59581.55
664.22	59462.77
664.41	59241.59
664.60	59352.18
664.80	59102.33
664.99	58903.68
665.18	59071.61
665.37	59122.81
665.57	59208.82
665.76	59131.00
665.95	58891.39
666.14	58905.73
666.34	59106.43
666.53	59098.23
666.72	59430.01
666.91	59165.82
667.11	58551.43
667.30	59102.33
667.49	59075.71
667.68	59708.53
667.87	59061.37
668.07	59509.88
668.26	59587.70
668.45	59233.40
668.64	59059.32
668.84	59855.98
669.03	59452.53
669.22	59087.99
669.41	58803.33
669.60	59348.09
669.80	58956.92
669.99	59071.61
670.18	59274.36
670.37	59452.53
670.57	59393.14
670.76	58985.60
670.95	59528.31
671.14	58678.40
671.33	58719.36
671.53	59446.39
671.72	58737.79
671.91	58795.13
672.10	58940.54
672.29	59053.18
672.48	59171.96
672.68	59303.03
672.87	58965.12
673.06	59014.27
673.25	58856.57
673.44	59096.19
673.64	58872.96
673.83	58838.14
674.02	59151.48
674.21	58965.12
674.40	59057.27
674.59	58686.59
674.79	59200.63
674.98	58885.25
675.17	58977.40
675.36	58850.43
675.55	59661.43
675.74	59319.41
675.94	58754.18
676.13	58989.69
676.32	59184.25
676.51	59303.03
676.70	59182.20
676.89	58588.29
677.08	59214.97
677.28	58745.98
677.47	59378.81
677.66	59759.73
677.85	58807.42
678.04	58991.74
678.23	59075.71
678.42	59520.12
678.62	58991.74
678.81	59004.03
679.00	58877.05
679.19	59450.48
679.38	58977.40
679.57	58760.32
679.76	58750.08
679.96	59178.10
680.15	58858.62
680.34	59106.43
680.53	58713.22
680.72	59108.47
680.91	59104.38
681.10	58569.86
681.29	59274.36
681.48	58750.08
681.68	58852.48
681.87	59063.42
682.06	58668.16
682.25	58510.47
682.44	58561.67
682.63	58817.66
682.82	58772.61
683.01	58586.24
683.20	58324.10
683.39	58637.44
683.59	58440.84
683.78	58061.96
683.97	58111.11
684.16	58315.91
684.35	57597.07
684.54	58379.40
684.73	58410.12
684.92	58479.75
685.11	58240.14
685.30	57941.13
685.49	58365.06
685.69	57867.40
685.88	58283.14
686.07	58352.77
686.26	58244.23
686.45	58496.13
686.64	58045.58
686.83	58305.67
687.02	58508.42
687.21	58393.73
687.40	57971.85
687.59	58086.54
687.78	58242.18
687.97	58078.35
688.16	58074.25
688.35	57719.95
688.54	57599.12
688.74	58184.84
688.93	58168.46
689.12	58135.69
689.31	57828.49
689.50	58135.69
689.69	57504.91
689.88	57513.11
690.07	58264.71
690.26	57478.29
690.45	58168.46
690.64	57701.52
690.83	57709.71
691.02	57953.42
691.21	57916.56
691.40	57982.09
691.59	57746.57
691.78	57609.36
691.97	57728.14
692.16	57638.03
692.35	57707.66
692.54	57216.15
692.73	57459.86
692.92	57717.90
693.11	57715.86
693.30	57748.62
693.49	57826.45
693.68	57216.15
693.87	57265.30
694.06	56900.76
694.25	57545.87
694.44	57253.01
694.63	57504.91
694.82	57300.12
695.01	57283.73
695.20	56857.76
695.39	56865.95
695.58	57060.51
695.77	56954.01
695.96	56962.20
696.15	56966.30
696.34	56931.48
696.53	56829.08
696.72	57210.01
696.91	56538.27
697.10	56843.42
697.29	56507.55
697.48	57144.47
697.67	56868.00
697.86	56401.06
698.05	56810.65
698.24	57404.56
698.43	56411.30
698.62	56802.46
698.81	56640.67
699.00	56704.16
699.19	56317.09
699.38	56356.00
699.57	56233.13
699.76	56857.76
699.95	56175.78
700.14	56399.01
700.32	56222.89
700.51	56181.93
700.70	56579.23
700.89	56382.63
701.08	56511.65
701.27	56132.78
701.46	56749.21
701.65	55573.68
701.84	56263.85
702.03	56202.41
702.22	56054.95
702.41	56319.14
702.60	56325.28
702.79	56200.36
702.98	55567.54
703.17	55934.12
703.35	56016.04
703.54	55903.40
703.73	55927.98
703.92	55719.09
704.11	56212.65
704.30	56028.33
704.49	55866.54
704.68	55917.74
704.87	55637.17
705.06	55665.84
705.25	55301.30
705.43	56050.86
705.62	56024.23
705.81	55598.26
706.00	55450.80
706.19	55624.88
706.38	55592.11
706.57	55602.35
706.76	55491.76
706.95	55237.81
707.14	55149.75
707.32	54992.06
707.51	54709.44
707.70	55542.96
707.89	55080.12
708.08	55137.46
708.27	55401.65
708.46	55592.11
708.65	54664.38
708.84	54906.04
709.02	54860.99
709.21	54914.23
709.40	55239.86
709.59	54897.85
709.78	54860.99
709.97	54830.27
710.16	54613.18
710.34	54774.97
710.53	54713.53
710.72	54670.53
710.91	54703.29
711.10	54777.02
711.29	54660.29
711.48	55295.16
711.66	54600.89
711.85	54539.46
712.04	54637.76
712.23	54484.16
712.42	54703.29
712.61	54250.69
712.80	54545.60
712.98	54373.57
713.17	54285.51
713.36	54277.32
713.55	54148.29
713.74	54039.75
713.93	54400.19
714.11	54070.47
714.30	53986.50
714.49	54275.27
714.68	54166.73
714.87	53798.09
715.06	54340.80
715.24	53914.83
715.43	53875.91
715.62	53699.79
715.81	53785.80
716.00	53906.63
716.18	53601.49
716.37	53300.43
716.56	53761.23
716.75	53816.52
716.94	53525.71
717.12	53761.23
717.31	53626.06
717.50	53568.72
717.69	53019.86
717.88	53613.77
718.06	53396.69
718.25	53658.83
718.44	53191.89
718.63	53306.58
718.82	52913.37
719.00	53187.80
719.19	52978.90
719.38	52985.05
719.57	52813.02
719.76	52630.75
719.94	52286.69
720.13	52503.77
720.32	52532.45
720.51	52280.55
720.69	52917.46
720.88	52550.88
721.07	52223.20
721.26	52139.24
721.44	52294.88
721.63	52090.09
721.82	52036.84
722.01	51852.52
722.20	52167.91
722.38	51873.00
722.57	51655.92
722.76	52100.32
722.95	52032.74
723.13	51301.62
723.32	51936.49
723.51	51496.17
723.70	51031.29
723.88	51692.78
724.07	51068.15
724.26	51361.01
724.44	51252.47
724.63	51655.92
724.82	51442.93
725.01	51256.56
725.19	51309.81
725.38	50855.16
725.57	50783.48
725.76	51377.39
725.94	51094.77
726.13	51008.76
726.32	51035.38
726.51	50437.37
726.69	51592.43
726.88	51123.44
727.07	51391.73
727.25	50932.98
727.44	50550.01
727.63	50894.07
727.82	51027.19
728.00	51008.76
728.19	50803.96
728.38	50730.23
728.56	50543.87
728.75	51381.49
728.94	50758.91
729.12	51148.02
729.31	50539.77
729.50	50582.78
729.69	50588.92
729.87	50951.41
730.06	50521.34
730.25	50943.22
730.43	50926.84
730.62	50162.95
730.81	50990.33
730.99	50369.79
731.18	50664.70
731.37	50201.86
731.55	50545.92
731.74	51008.76
731.93	50461.95
732.11	50793.72
732.30	50611.45
732.49	50709.75
732.67	50844.92
732.86	50511.10
733.05	50455.81
733.23	50320.64
733.42	50410.75
733.61	50881.78
733.79	50246.91
733.98	50879.74
734.17	50486.53
734.35	50324.74
734.54	50371.84
734.73	50642.17
734.91	50128.13
735.10	50150.66
735.29	50509.05
735.47	49681.67
735.66	50470.14
735.84	50494.72
736.03	49714.44
736.22	50459.90
736.40	50201.86
736.59	50056.45
736.78	50298.11
736.96	50392.32
737.15	50183.43
737.33	50005.25
737.52	50025.73
737.71	50158.85
737.89	49865.99
738.08	49308.94
738.27	49886.47
738.45	50095.36
738.64	50392.32
738.82	49552.65
739.01	49579.28
739.20	49655.05
739.38	49724.68
739.57	50038.02
739.75	49345.81
739.94	49962.25
740.13	49810.70
740.31	49599.76
740.50	49292.56
740.68	49591.56
740.87	49681.67
741.06	49263.89
741.24	49321.23
741.43	49159.44
741.61	49681.67
741.80	49055.00
741.99	49411.34
742.17	49024.28
742.36	49302.80
742.54	48993.56
742.73	49224.98
742.91	49057.04
743.10	48956.69
743.29	49693.96
743.47	49177.87
743.66	49206.55
743.84	49341.71
744.03	49325.33
744.21	49179.92
744.40	49485.07
744.59	49020.18
744.77	48618.78
744.96	48706.84
745.14	48725.27
745.33	48760.09
745.51	48772.38
745.70	48885.01
745.88	48768.28
746.07	48751.90
746.26	48497.95
746.44	48172.32
746.63	48508.19
746.81	48389.41
747.00	48483.61
747.18	48555.29
747.37	48401.69
747.55	48432.41
747.74	48657.69
747.92	47807.78
748.11	47981.86
748.29	48489.76
748.48	48508.19
748.66	48092.45
748.85	48233.76
749.03	48432.41
749.22	48336.16
749.41	47822.12
749.59	48450.84
749.78	48248.10
749.96	47512.88
750.15	48186.66
750.33	48061.73
750.52	48260.38
750.70	47893.80
750.89	47625.51
751.07	47770.92
751.26	47877.41
751.44	47559.98
751.63	47709.48
751.81	47469.87
752.00	47363.37
752.18	48151.84
752.37	47486.25
752.55	47236.40
752.74	47488.30
752.92	47535.40
753.10	47033.65
753.29	47344.94
753.47	47250.74
753.66	47064.37
753.84	47514.92
754.03	47185.20
754.21	46978.36
754.40	47355.18
754.58	47244.59
754.77	47027.51
754.95	46871.86
755.14	47101.23
755.32	46667.06
755.51	46409.02
755.69	46499.13
755.88	46599.48
756.06	46853.43
756.24	46415.16
756.43	46617.91
756.61	46726.46
756.80	46822.71
756.98	46343.48
757.17	46009.67
757.35	46585.15
757.54	45946.18
757.72	46828.85
757.90	46329.15
758.09	46374.20
758.27	46601.53
758.46	46126.40
758.64	46449.98
758.83	45974.85
759.01	46130.50
759.19	46128.45
759.38	45942.08
759.56	46290.24
759.75	46208.32
759.93	45608.26
760.12	45659.46
760.30	45991.23
760.48	45667.66
760.67	46054.72
760.85	45681.99
761.04	45808.96
761.22	46271.81
761.40	45561.16
761.59	45354.32
761.77	45469.00
761.96	45862.21
762.14	45538.63
762.32	45260.11
762.51	45663.56
762.69	45012.31
762.88	45026.64
763.06	45305.16
763.24	45428.04
763.43	45174.09
763.61	45208.91
763.80	45425.99
763.98	44856.66
764.16	44723.54
764.35	44840.28
764.53	44584.28
764.72	44756.31
764.90	44916.05
765.08	44907.86
765.27	44895.57
765.45	44377.43
765.63	44193.12
765.82	44811.60
766.00	44326.24
766.18	44332.38
766.37	44729.69
766.55	44361.05
766.74	44430.68
766.92	44303.71
767.10	44316.00
767.29	44508.50
767.47	43533.67
767.65	44490.07
767.84	43990.37
768.02	44289.37
768.20	43736.42
768.39	44199.26
768.57	44193.12
768.75	43994.46
768.94	43791.72
769.12	43881.83
769.30	43689.32
769.49	43343.21
769.67	43457.90
769.85	43408.75
770.04	43472.23
770.22	43267.44
770.40	43259.24
770.59	42935.66
770.77	43345.26
770.95	43191.66
771.14	43103.60
771.32	42943.86
771.50	42835.31
771.69	43154.80
771.87	43416.94
772.05	43203.95
772.24	43054.45
772.42	43185.52
772.60	42952.05
772.78	42788.21
772.97	42501.50
773.15	43013.49
773.33	42640.76
773.52	42843.51
773.70	43179.37
773.88	42769.78
774.07	42648.95
774.25	42165.63
774.43	42761.59
774.61	42759.54
774.80	42960.24
774.98	42685.81
775.16	42399.10
775.34	43101.55
775.53	42497.40
775.71	43015.54
775.89	42694.00
776.08	42435.96
776.26	42581.37
776.44	42739.06
776.62	42249.60
776.81	42364.28
776.99	42812.79
777.17	42849.65
777.35	42651.00
777.54	43015.54
777.72	42726.77
777.90	42587.51
778.08	43081.07
778.27	43031.92
778.45	42888.56
778.63	43408.75
778.81	42538.36
779.00	43287.92
779.18	43009.39
779.36	43646.31
779.54	42980.72
779.73	42833.27
779.91	43459.94
780.09	43357.55
780.27	43343.21
780.46	43468.14
780.64	43588.97
780.82	43324.78
781.00	43130.22
781.19	43752.80
781.37	43308.40
781.55	43359.59
781.73	43496.81
781.91	43781.48
782.10	43789.67
782.28	43865.44
782.46	43552.10
782.64	43703.65
782.82	43369.83
783.01	43707.75
783.19	43349.35
783.37	43834.72
783.55	43844.96
783.74	43920.74
783.92	43738.47
784.10	43722.08
784.28	43994.46
784.46	43709.80
784.64	43627.88
784.83	43996.51
785.01	43822.44
785.19	43537.77
785.37	43709.80
785.55	43636.07
785.74	43427.18
785.92	43677.03
786.10	43670.89
786.28	43767.14
786.46	43050.35
786.64	42978.67
786.83	43105.65
787.01	43797.86
787.19	43500.90
787.37	43611.49
787.55	43324.78
787.74	42976.62
787.92	43066.73
788.10	42906.99
788.28	42632.57
788.46	43113.84
788.64	42720.63
788.82	43220.33
789.01	42679.67
789.19	42716.53
789.37	42685.81
789.55	42659.19
789.73	42151.29
789.91	42483.06
790.09	42321.27
790.28	42145.15
790.46	42636.66
790.64	42155.39
790.82	42136.96
791.00	42038.65
791.18	41751.94
791.36	42139.00
791.55	42130.81
791.73	41747.84
791.91	41694.60
792.09	41504.13
792.27	41651.59
792.45	41749.89
792.63	41745.80
792.81	41440.65
793.00	41510.28
793.18	41485.70
793.36	41141.64
793.54	41211.28
793.72	40730.00
793.90	41141.64
794.08	40986.00
794.26	41153.93
794.44	40396.18
794.62	40301.98
794.81	40574.36
794.99	40646.04
795.17	40402.33
795.35	40175.00
795.53	40281.50
795.71	40123.80
795.89	40066.46
796.07	39986.59
796.25	39919.01
796.43	39742.88
796.61	39564.71
796.80	39781.79
796.98	39765.41
797.16	39609.76
797.34	39441.83
797.52	39366.06
797.70	39499.17
797.88	39517.60
798.06	38921.65
798.24	39245.23
798.42	39065.00
798.60	38659.51
798.78	38852.02
798.96	38843.82
799.14	38292.92
799.32	38872.49
799.51	38313.40
799.69	38247.86
799.87	38854.06
800.05	37991.87
800.23	38272.44
800.41	38163.90
800.59	38084.03
800.77	37944.76
800.95	37369.29
801.13	37594.56
801.31	37545.41
801.49	37789.12
801.67	37264.84
801.85	37449.16
802.03	37486.02
802.21	37021.13
802.39	37025.23
802.57	36933.07
802.75	37248.46
802.93	36896.20
803.11	36554.19
803.29	36615.63
803.47	36560.34
803.65	36464.08
803.83	36459.99
804.01	36425.17
804.19	36058.59
804.37	36318.68
804.55	36390.36
804.73	36435.41
804.91	36206.04
805.09	36050.39
805.27	35814.88
805.45	35902.94
805.63	36036.06
805.81	35622.37
805.99	35796.45
806.17	35913.18
806.35	36046.30
806.53	35495.39
806.71	35685.86
806.89	35605.98
807.07	35130.86
807.25	35395.04
807.43	34858.48
807.61	35530.21
807.79	34932.20
807.97	34811.37
808.15	34983.40
808.33	34471.41
808.51	34813.42
808.69	34747.89
808.87	34209.27
809.05	34219.51
809.23	34551.28
809.41	34057.72
809.59	34524.66
809.77	34287.09
809.95	33555.97
810.13	34061.82
810.31	34135.54
810.49	33742.33
810.67	33918.46
810.84	33889.79
811.02	33848.83
811.20	33684.99
811.38	33992.19
811.56	33486.34
811.74	33664.51
811.92	33527.30
812.10	33801.72
812.28	33807.87
812.46	33390.08
812.64	33381.89
812.82	33365.51
813.00	33207.81
813.18	33132.04
813.36	33146.37
813.53	32865.80
813.71	32861.71
813.89	32814.60
814.07	32730.64
814.25	32749.07
814.43	32755.21
814.61	32642.57
814.79	32665.10
814.97	32431.63
815.15	32620.05
815.33	31954.46
815.50	32132.63
815.68	32278.04
815.86	32124.44
816.04	32009.75
816.22	32060.95
816.40	32067.09
816.58	32052.76
816.76	31858.20
816.94	32151.06
817.11	31819.29
817.29	32071.19
817.47	31708.70
817.65	31231.52
817.83	31942.17
818.01	31184.42
818.19	31284.77
818.37	31301.15
818.54	31327.78
818.72	30813.74
818.90	31215.14
819.08	31581.73
819.26	31079.97
819.44	31303.20
819.62	31231.52
819.80	30805.55
819.97	31057.45
820.15	30848.55
820.33	30772.78
820.51	31004.20
820.69	30539.31
820.87	31020.58
821.05	30891.56
821.22	30574.13
821.40	30844.46
821.58	30813.74
821.76	30414.38
821.94	30129.72
822.12	30420.53
822.29	30307.89
822.47	30037.56
822.65	30297.65
822.83	30307.89
823.01	30174.77
823.19	30021.17
823.36	29935.16
823.54	29990.45
823.72	30021.17
823.90	29734.46
824.08	29425.22
824.25	29726.27
824.43	29496.89
824.61	29562.43
824.79	29834.81
824.97	29308.48
825.15	29533.76
825.32	29613.63
825.50	29316.67
825.68	29251.14
825.86	29443.65
826.04	29544.00
826.21	29148.74
826.39	29384.26
826.57	28982.85
826.75	28956.23
826.93	28884.55
827.10	28931.65
827.28	28968.52
827.46	29048.39
827.64	28827.21
827.81	28980.81
827.99	29085.25
828.17	29142.60
828.35	28470.86
828.53	28696.14
828.70	28474.96
828.88	28845.64
829.06	28718.67
829.24	28612.17
829.41	28638.80
829.59	28780.10
829.77	28544.59
829.95	28644.94
830.12	28558.92
830.30	28415.57
830.48	28087.89
830.66	27962.97
830.84	28372.56
831.01	28528.20
831.19	28169.81
831.37	28132.95
831.55	28178.00
831.72	28024.40
831.90	27862.61
832.08	28028.50
832.25	27917.91
832.43	27915.86
832.61	27809.37
832.79	27924.05
832.96	27731.54
833.14	27772.50
833.32	28089.94
833.50	27819.61
833.67	27620.95
833.85	27588.19
834.03	27543.13
834.20	27663.96
834.38	27872.85
834.56	27905.62
834.74	27268.70
834.91	27354.72
835.09	27352.67
835.27	27047.52
835.44	27033.19
835.62	26906.21
835.80	27039.33
835.98	27436.64
836.15	27084.39
836.33	27176.55
836.51	27027.04
836.68	27074.15
836.86	26906.21
837.04	26981.99
837.21	26906.21
837.39	27129.44
837.57	26961.51
837.75	27002.47
837.92	26904.17
838.10	26429.04
838.28	26275.44
838.45	26513.00
838.63	26156.66
838.81	26447.47
838.98	26357.36
839.16	26404.46
839.34	26099.31
839.51	26523.24
839.69	26220.14
839.87	26064.50
840.04	26402.41
840.22	26418.80
840.40	26392.17
840.57	26082.93
840.75	26177.14
840.93	25667.19
841.10	26003.06
841.28	25968.24
841.46	26226.29
841.63	26017.40
841.81	26148.46
841.98	25865.85
842.16	26183.28
842.34	25843.32
842.51	25669.24
842.69	25788.02
842.87	25880.18
843.04	25994.87
843.22	25849.46
843.40	25644.66
843.57	25691.77
843.75	25724.54
843.92	25390.72
844.10	25964.15
844.28	25994.87
844.45	25282.17
844.63	25048.71
844.81	25343.61
844.98	25714.30
845.16	25603.71
845.33	25364.09
845.51	25372.28
845.69	25077.38
845.86	25370.24
846.04	24936.07
846.21	25321.09
846.39	25003.65
846.57	24921.73
846.74	24954.50
846.92	25056.90
847.09	25067.14
847.27	24868.48
847.45	24901.25
847.62	25124.48
847.80	24964.74
847.97	24786.57
848.15	24651.40
848.32	24565.39
848.50	24694.41
848.68	24428.17
848.85	24479.37
849.03	24518.28
849.20	24800.90
849.38	24528.52
849.56	24645.26
849.73	24469.13
849.91	24346.25
850.08	24696.46
850.26	24270.48
850.43	24516.23
850.61	24397.45
850.78	24043.15
850.96	24262.29
851.14	24266.38
851.31	24245.90
851.49	23854.74
851.66	24037.01
851.84	24223.37
852.01	24399.50
852.19	24116.88
852.36	23963.28
852.54	24331.92
852.71	24077.97
852.89	23711.38
853.07	24053.39
853.24	23731.86
853.42	23787.16
853.59	23815.83
853.77	23705.24
853.94	24307.34
854.12	23830.16
854.29	23586.46
854.47	23606.94
854.64	23320.22
854.82	23451.29
854.99	23404.19
855.17	23457.43
855.34	23326.36
855.52	23371.42
855.69	23731.86
855.87	23285.40
856.04	23068.32
856.22	23387.80
856.39	23123.62
856.57	23336.60
856.74	22957.73
856.92	23348.89
857.09	22963.87
857.27	23205.53
857.44	23189.15
857.62	23234.21
857.79	23482.01
857.97	23047.84
858.14	23099.04
858.32	22728.36
858.49	23066.27
858.67	23064.22
858.84	22726.31
859.02	22918.82
859.19	22808.23
859.37	22716.07
859.54	22736.55
859.72	22836.90
859.89	22867.62
860.06	22689.45
860.24	22394.54
860.41	22814.37
860.59	22292.14
860.76	22490.79
860.94	22208.17
861.11	22703.78
861.29	22273.71
861.46	22324.91
861.64	22380.20
861.81	22255.28
861.98	22472.36
862.16	22214.32
862.33	22216.36
862.51	22206.13
862.68	21913.27
862.86	21868.21
863.03	22240.94
863.21	22007.47
863.38	22116.01
863.55	21964.46
863.73	22030.00
863.90	22335.15
864.08	22070.96
864.25	21862.07
864.43	22099.63
864.60	21718.71
864.77	21776.05
864.95	21794.48
865.12	21765.81
865.30	21884.59
865.47	21655.22
865.64	21630.65
865.82	21843.63
865.99	21831.35
866.17	21534.39
866.34	21542.58
866.51	21466.81
866.69	21796.53
866.86	21372.60
867.04	21470.90
867.21	21436.09
867.38	21429.94
867.56	21233.34
867.73	21221.05
867.91	21038.78
868.08	21006.02
868.25	20956.86
868.43	21345.98
868.60	21388.99
868.78	21147.33
868.95	21280.44
869.12	20958.91
869.30	21087.93
869.47	20903.62
869.64	20772.55
869.82	20709.06
869.99	20698.82
870.16	20960.96
870.34	20573.89
870.51	20688.58
870.69	20301.51
870.86	20850.37
871.03	20612.81
871.21	20661.96
871.38	20664.00
871.55	20213.45
871.73	20051.66
871.90	20242.12
872.07	20381.38
872.25	20127.44
872.42	20338.38
872.59	20315.85
872.77	20109.01
872.94	20377.29
873.11	20184.78
873.29	20061.90
873.46	19891.92
873.63	19799.76
873.81	19998.41
873.98	19789.52
874.15	19961.55
874.33	19787.47
874.50	19685.08
874.67	19752.66
874.85	19584.73
875.02	19721.94
875.19	19691.22
875.37	19461.85
875.54	19402.46
875.71	19592.92
875.88	19138.27
876.06	19363.54
876.23	19293.91
876.40	18935.52
876.58	19326.68
876.75	19318.49
876.92	19132.12
877.10	19168.99
877.27	19291.87
877.44	19136.22
877.61	19023.58
877.79	18853.60
877.96	19023.58
878.13	19228.38
878.31	18867.94
878.48	18845.41
878.65	18689.76
878.82	18923.23
879.00	18843.36
879.17	18732.77
879.34	18738.91
879.51	18487.01
879.69	18464.49
879.86	18556.64
880.03	18444.01
880.21	18439.91
880.38	18511.59
880.55	18577.12
880.72	18458.34
880.90	18353.90
881.07	18319.08
881.24	18597.60
881.41	18341.61
881.59	18331.37
881.76	18214.63
881.93	18388.71
882.10	18198.25
882.28	17899.25
882.45	18370.28
882.62	18087.66
882.79	17970.93
882.96	17952.49
883.14	18075.37
883.31	18362.09
883.48	17884.91
883.65	18028.27
883.83	18220.78
884.00	18056.94
884.17	17841.90
884.34	17884.91
884.51	18140.91
884.69	17827.57
884.86	17895.15
885.03	17805.04
885.20	17549.04
885.38	17596.15
885.55	17823.47
885.72	17878.77
885.89	17403.64
886.06	17772.27
886.24	17397.49
886.41	17366.78
886.58	17776.37
886.75	17811.18
886.92	17338.10
887.10	17547.00
887.27	17465.08
887.44	17325.82
887.61	17706.74
887.78	17569.52
887.95	17334.01
888.13	17219.32
888.30	17422.07
888.47	17123.07
888.64	17192.70
888.81	17155.83
888.99	17073.92
889.16	16914.17
889.33	17069.82
889.50	16692.99
889.67	16690.95
889.84	16889.60
890.01	17024.76
890.19	16826.11
890.36	16897.79
890.53	16854.78
890.70	16762.62
890.87	16682.75
891.04	16703.23
891.22	16596.74
891.39	16559.88
891.56	16285.45
891.73	16582.40
891.90	16641.79
892.07	16609.03
892.24	16590.59
892.42	16508.68
892.59	16512.77
892.76	16410.37
892.93	16277.26
893.10	16377.61
893.27	16383.75
893.44	16185.10
893.61	16201.48
893.79	16316.17
893.96	16348.93
894.13	16437.00
894.30	16465.67
894.47	16246.54
894.64	16531.20
894.81	16367.37
894.98	16371.46
895.15	16475.91
895.33	16297.74
895.50	16162.57
895.67	16381.70
895.84	16158.47
896.01	15925.00
896.18	16039.69
896.35	16301.83
896.52	16203.53
896.69	16181.00
896.86	16221.96
897.04	16045.84
897.21	16113.42
897.38	16178.95
897.55	16070.41
897.72	16219.91
897.89	16086.79
898.06	16305.93
898.23	16183.05
898.40	16131.85
898.57	15970.06
898.74	15873.81
898.91	16258.82
899.08	16160.52
899.26	16127.75
899.43	16176.91
899.60	16037.64
899.77	16000.78
899.94	15892.24
900.11	15963.92
900.28	16064.27
900.45	15947.53
900.62	15736.59
900.79	16219.91
900.96	15798.03
901.13	15869.71
901.30	15910.67
901.47	16033.55
901.64	15963.92
901.81	15820.56
901.98	15838.99
902.15	16015.12
902.32	15830.80
902.49	16092.94
902.66	15838.99
902.83	16117.51
903.01	15806.22
903.18	15902.48
903.35	16008.97
903.52	15824.65
903.69	15982.35
903.86	16105.23
904.03	15939.34
904.20	16011.02
904.37	15914.77
904.54	15888.14
904.71	16269.06
904.88	15925.00
905.05	16045.84
905.22	16191.24
905.39	15736.59
905.56	15654.67
905.73	15847.18
905.90	15900.43
906.07	16002.83
906.24	15998.73
906.41	15769.36
906.58	15986.44
906.75	15994.64
906.92	15734.54
907.09	15912.72
907.26	15814.41
907.43	15609.62
907.60	15757.07
907.77	15867.66
907.93	15912.72
908.10	15845.13
908.27	15877.90
908.44	15593.23
908.61	15646.48
908.78	15613.71
908.95	15748.88
909.12	15875.85
909.29	15640.34
909.46	15699.73
909.63	15736.59
909.80	15773.46
909.97	15791.89
910.14	15611.67
910.31	15714.06
910.48	15542.03
910.65	15746.83
910.82	15609.62
910.99	15419.16
911.16	15546.13
911.33	15615.76
911.50	15486.74
911.66	15431.44
911.83	15499.03
912.00	15380.25
912.17	15476.50
912.34	15222.55
912.51	15376.15
912.68	15519.51
912.85	15312.66
913.02	15517.46
913.19	15144.73
913.36	15333.14
913.53	15400.72
913.70	14956.32
913.86	15349.53
914.03	15122.20
914.20	14913.31
914.37	15187.74
914.54	15056.67
914.71	15015.71
914.88	14952.22
915.05	15007.52
915.22	14769.95
915.39	14952.22
915.55	14907.16
915.72	14843.68
915.89	14632.74
916.06	14714.66
916.23	14671.65
916.40	14587.68
916.57	14645.02
916.74	14378.79
916.91	14556.96
917.07	14436.13
917.24	14577.44
917.41	14403.36
917.58	14425.89
917.75	14280.49
917.92	14436.13
918.09	14395.17
918.26	14364.45
918.42	14171.94
918.59	14288.68
918.76	14249.77
918.93	13926.19
919.10	13829.93
919.27	14190.38
919.44	14309.16
919.60	14173.99
919.77	13909.80
919.94	13938.48
920.11	13856.56
920.28	13961.00
920.45	13694.77
920.61	13649.71
920.78	13659.95
920.95	13582.13
921.12	13674.29
921.29	13438.77
921.46	13522.74
921.62	13365.04
921.79	13537.07
921.96	13340.47
922.13	13586.22
922.30	13184.82
922.47	13449.01
922.63	13057.85
922.80	13156.15
922.97	13025.08
923.14	12986.17
923.31	13127.48
923.47	12943.16
923.64	13207.35
923.81	12826.43
923.98	12801.85
924.15	12562.24
924.32	12848.96
924.48	12783.42
924.65	12820.28
924.82	12762.94
924.99	12418.88
925.15	12189.51
925.32	12558.14
925.49	12162.89
925.66	12406.59
925.83	12234.57
925.99	12203.85
926.16	12318.53
926.33	12107.59
926.50	12273.48
926.67	12216.13
926.83	12177.22
927.00	12031.82
927.17	11876.17
927.34	11796.30
927.50	11790.16
927.67	12017.48
927.84	11829.07
928.01	11997.00
928.17	11691.85
928.34	11638.61
928.51	11585.36
928.68	11417.43
928.84	11384.66
929.01	11470.67
929.18	11312.98
929.35	11446.10
929.51	11415.38
929.68	11163.48
929.85	11036.50
930.02	11292.50
930.18	11118.42
930.35	10956.63
930.52	10907.48
930.69	10991.45
930.85	10913.63
931.02	10923.87
931.19	10712.92
931.36	10573.66
931.52	10747.74
931.69	10764.12
931.86	10692.44
932.02	10495.84
932.19	10426.21
932.36	10426.21
932.53	10710.88
932.69	10332.00
932.86	10295.14
933.03	10370.91
933.19	10170.21
933.36	10059.62
933.53	10329.95
933.70	10149.73
933.86	10104.68
934.03	10028.90
934.20	9682.80
934.36	9834.35
934.53	9512.81
934.70	9535.34
934.86	9463.66
935.03	9549.68
935.20	9404.27
935.36	9559.92
935.53	9424.75
935.70	9324.40
935.86	9193.33
936.03	9283.44
936.20	9027.45
936.36	8912.76
936.53	8957.82
936.70	8953.72
936.86	9140.08
937.03	8609.66
937.20	8662.91
937.36	8384.38
937.53	8267.65
937.70	8449.92
937.86	8288.13
938.03	8179.59
938.20	8359.81
938.36	8062.85
938.53	8122.24
938.70	7753.61
938.86	7745.42
939.03	7655.31
939.20	7522.19
939.36	7499.66
939.53	7454.61
939.70	7714.70
939.86	7323.54
940.03	7128.98
940.19	7083.92
940.36	7055.25
940.53	7143.32
940.69	7047.06
940.86	7024.53
941.03	6791.06
941.19	6754.20
941.36	6717.34
941.52	6797.21
941.69	6467.49
941.86	6459.29
942.02	6459.29
942.19	6334.37
942.35	6334.37
942.52	6289.31
942.69	6203.30
942.85	6225.82
943.02	6168.48
943.18	5994.40
943.35	6023.08
943.52	6115.23
943.68	5953.45
943.85	5908.39
944.01	5947.30
944.18	5805.99
944.35	5877.67
944.51	5726.12
944.68	5595.05
944.84	5775.27
945.01	5689.26
945.17	5543.85
945.34	5662.63
945.51	5615.53
945.67	5621.67
945.84	5558.19
946.00	5500.84
946.17	5484.46
946.33	5500.84
946.50	5484.46
946.67	5459.88
946.83	5484.46
947.00	5590.95
947.16	5459.88
947.33	5404.59
947.49	5597.10
947.66	5568.43
947.82	5441.45
947.99	5517.23
948.16	5488.56
948.32	5402.54
948.49	5439.40
948.65	5425.07
948.82	5513.13
948.98	5361.58
949.15	5326.77
949.31	5382.06
949.48	5408.69
949.64	5564.33
949.81	5334.96
949.97	5492.65
950.14	5527.47
950.30	5304.24
950.47	5377.97
950.63	5535.66
950.80	5574.57
950.96	5480.36
951.13	5451.69
951.30	5439.40
951.46	5545.90
951.63	5691.31
951.79	5535.66
951.96	5560.24
952.12	5615.53
952.29	5582.76
952.45	5531.56
952.62	5676.97
952.78	5615.53
952.94	5590.95
953.11	5480.36
953.27	5506.99
953.44	5732.26
953.60	5662.63
953.77	5711.78
953.93	5609.39
954.10	5623.72
954.26	5693.35
954.43	5730.22
954.59	5736.36
954.76	5730.22
954.92	5666.73
955.09	5621.67
955.25	5658.54
955.42	5504.94
955.58	5748.65
955.75	5607.34
955.91	5603.24
956.07	5625.77
956.24	5795.75
956.40	5654.44
956.57	5656.49
956.73	5660.59
956.90	5707.69
957.06	5660.59
957.23	5547.95
957.39	5756.84
957.56	5705.64
957.72	5506.99
957.88	5662.63
958.05	5916.58
958.21	5693.35
958.38	5687.21
958.54	5568.43
958.71	5648.30
958.87	5672.87
959.03	5771.18
959.20	5687.21
959.36	5535.66
959.53	5623.72
959.69	5642.15
959.85	5779.37
960.02	5765.03
960.18	5617.58
960.35	5445.55
960.51	5564.33
960.68	5650.35
960.84	5758.89
961.00	5568.43
961.17	5699.50
961.33	5699.50
961.50	5660.59
961.66	5613.48
961.82	5707.69
961.99	5500.84
962.15	5631.91
962.31	5455.79
962.48	5674.92
962.64	5762.98
962.81	5572.52
962.97	5568.43
963.13	5650.35
963.30	5560.24
963.46	5519.28
963.62	5492.65
963.79	5425.07
963.95	5453.74
964.12	5533.61
964.28	5443.50
964.44	5560.24
964.61	5550.00
964.77	5597.10
964.93	5631.91
965.10	5480.36
965.26	5361.58
965.42	5570.48
965.59	5515.18
965.75	5484.46
965.92	5556.14
966.08	5547.95
966.24	5435.31
966.41	5351.34
966.57	5515.18
966.73	5375.92
966.90	5484.46
967.06	5388.21
967.22	5203.89
967.39	5496.75
967.55	5394.35
967.71	5418.93
967.88	5408.69
968.04	5529.52
968.20	5373.87
968.37	5353.39
968.53	5314.48
968.69	5294.00
968.85	5418.93
969.02	5420.97
969.18	5361.58
969.34	5183.41
969.51	5371.82
969.67	5355.44
969.83	5179.31
970.00	5416.88
970.16	5357.49
970.32	5418.93
970.48	5261.23
970.65	5244.85
970.81	5128.11
970.97	5177.26
971.14	5181.36
971.30	5185.46
971.46	5189.55
971.63	5269.42
971.79	5367.73
971.95	5097.39
972.11	5040.05
972.28	5103.54
972.44	5205.94
972.60	5060.53
972.76	5162.93
972.93	5132.21
973.09	5162.93
973.25	5031.86
973.42	5091.25
973.58	5253.04
973.74	5111.73
973.90	5169.07
974.07	5050.29
974.23	5005.24
974.39	5062.58
974.55	5042.10
974.72	4962.23
974.88	4919.22
975.04	5183.41
975.20	4990.90
975.37	4921.27
975.53	4956.08
975.69	4917.17
975.85	4925.36
976.01	4900.79
976.18	4958.13
976.34	4851.64
976.50	4992.95
976.66	5128.11
976.83	4964.28
976.99	4810.68
977.15	4945.84
977.31	4913.08
977.47	4818.87
977.64	4816.82
977.80	4968.37
977.96	4794.29
978.12	4775.86
978.29	4745.14
978.45	4722.62
978.61	4720.57
978.77	4718.52
978.93	4745.14
979.10	4560.83
979.26	4681.66
979.42	4702.14
979.58	4472.76
979.74	4583.35
979.91	4632.51
980.07	4593.59
980.23	4638.65
980.39	4683.70
980.55	4556.73
980.71	4513.72
980.88	4480.96
981.04	4681.66
981.20	4601.79
981.36	4532.15
981.52	4476.86
981.68	4372.41
981.85	4413.37
982.01	4433.85
982.17	4452.28
982.33	4378.56
982.49	4507.58
982.65	4368.32
982.82	4296.64
982.98	4368.32
983.14	4265.92
983.30	4485.05
983.46	4464.57
983.62	4401.08
983.79	4327.36
983.95	4376.51
984.11	4374.46
984.27	4462.52
984.43	4200.38
984.59	4284.35
984.75	4317.12
984.91	4317.12
985.08	4220.86
985.24	4247.49
985.40	4351.93
985.56	4349.89
985.72	4310.97
985.88	4304.83
986.04	4292.54
986.20	4097.99
986.37	4313.02
986.53	4097.99
986.69	4214.72
986.85	4145.09
987.01	4132.80
987.17	4194.24
987.33	4175.81
987.49	4134.85
987.65	4181.95
987.82	4083.65
987.98	4050.88
988.14	4114.37
988.30	4108.23
988.46	4122.56
988.62	4155.33
988.78	4102.08
988.94	4024.26
989.10	3971.01
989.26	3950.53
989.42	4063.17
989.59	3960.77
989.75	3930.05
989.91	3893.19
990.07	3862.47
990.23	3827.65
990.39	3870.66
990.55	4034.50
990.71	3944.39
990.87	3864.52
991.03	3903.43
991.19	3905.48
991.35	3803.08
991.51	3956.68
991.67	3870.66
991.83	3882.95
992.00	3760.07
992.16	3784.65
992.32	3839.94
992.48	3829.70
992.64	3721.16
992.80	3788.74
992.96	3698.63
993.12	3846.09
993.28	3770.31
993.44	3733.45
993.60	3778.50
993.76	3788.74
993.92	3813.32
994.08	3698.63
994.24	3688.39
994.40	3629.00
994.56	3864.52
994.72	3715.02
994.88	3649.48
995.04	3733.45
995.20	3647.43
995.36	3502.03
995.52	3688.39
995.68	3678.15
995.84	3532.75
996.00	3717.06
996.16	3577.80
996.32	3583.95
996.48	3508.17
996.64	3626.95
996.80	3416.01
996.96	3526.60
997.12	3510.22
997.28	3444.68
997.44	3397.58
997.60	3477.45
997.76	3450.83
997.92	3551.18
998.08	3467.21
998.24	3366.86
998.40	3422.16
998.56	3471.31
998.72	3264.46
998.88	3411.92
999.04	3358.67
999.20	3463.12
999.36	3469.26
999.52	3542.99
999.68	3373.00
999.84	3305.42
1000.00	3481.55
1000.16	3485.64
1000.32	3297.23
1000.48	3364.81
1000.64	3155.92
1000.80	3211.22
1000.95	3125.20
1001.11	3248.08
1001.27	3211.22
1001.43	3262.41
1001.59	3137.49
1001.75	3143.63
1001.91	3235.79
1002.07	3248.08
1002.23	3131.34
1002.39	3207.12
1002.55	3284.94
1002.71	3121.10
1002.87	3190.74
1003.03	3022.80
1003.19	3149.78
1003.34	3252.17
1003.50	3205.07
1003.66	3213.26
1003.82	3090.38
1003.98	3117.01
1004.14	3131.34
1004.30	3030.99
1004.46	3030.99
1004.62	3164.11
1004.78	3098.58
1004.94	3149.78
1005.09	3090.38
1005.25	3067.86
1005.41	3071.95
1005.57	3084.24
1005.73	3043.28
1005.89	2975.70
1006.05	3059.67
1006.21	3039.19
1006.37	2961.36
1006.52	2973.65
1006.68	2916.31
1006.84	3057.62
1007.00	3004.37
1007.16	3055.57
1007.32	2875.35
1007.48	3004.37
1007.64	2947.03
1007.79	3014.61
1007.95	2940.88
1008.11	2965.46
1008.27	2977.75
1008.43	2910.16
1008.59	2961.36
1008.75	2893.78
1008.91	2908.12
1009.06	2867.16
1009.22	2918.36
1009.38	2871.25
1009.54	2918.36
1009.70	2807.77
1009.86	2834.39
1010.01	2815.96
1010.17	2826.20
1010.33	2877.40
1010.49	2803.67
1010.65	2897.88
1010.81	2754.52
1010.96	2910.16
1011.12	2697.17
1011.28	2756.57
1011.44	2856.92
1011.60	2748.37
1011.76	2709.46
1011.91	2781.14
1012.07	2719.70
1012.23	2658.26
1012.39	2744.28
1012.55	2809.81
1012.71	2678.74
1012.86	2721.75
1013.02	2738.13
1013.18	2705.37
1013.34	2731.99
1013.50	2717.65
1013.65	2727.89
1013.81	2531.29
1013.97	2613.21
1014.13	2682.84
1014.29	2609.11
1014.44	2639.83
1014.60	2617.30
1014.76	2668.50
1014.92	2605.02
1015.07	2680.79
1015.23	2549.72
1015.39	2504.67
1015.55	2631.64
1015.71	2574.30
1015.86	2578.39
1016.02	2430.94
1016.18	2527.19
1016.34	2504.67
1016.49	2566.10
1016.65	2584.54
1016.81	2461.66
1016.97	2551.77
1017.12	2545.63
1017.28	2461.66
1017.44	2439.13
1017.60	2445.27
1017.75	2555.86
1017.91	2459.61
1018.07	2508.76
1018.23	2529.24
1018.38	2482.14
1018.54	2432.99
1018.70	2473.95
1018.86	2467.80
1019.01	2555.86
1019.17	2363.36
1019.33	2553.82
1019.49	2394.08
1019.64	2496.47
1019.80	2443.23
1019.96	2502.62
1020.12	2435.03
1020.27	2269.15
1020.43	2404.32
1020.59	2404.32
1020.74	2428.89
1020.90	2498.52
1021.06	2338.78
1021.22	2396.12
1021.37	2371.55
1021.53	2203.61
1021.69	2428.89
1021.84	2260.96
1022.00	2346.97
1022.16	2312.16
1022.31	2322.40
1022.47	2359.26
1022.63	2306.01
1022.79	2217.95
1022.94	2351.07
1023.10	2459.61
1023.26	2338.78
1023.41	2248.67
1023.57	2238.43
1023.73	2349.02
1023.88	2301.92
1024.04	2256.86
1024.20	2191.33
1024.35	2291.68
1024.51	2246.62
1024.67	2349.02
1024.82	2301.92
1024.98	2232.29
1025.14	2254.81
1025.29	2267.10
1025.45	2283.49
1025.61	2226.14
1025.76	2242.53
1025.92	2152.42
1026.08	2244.57
1026.23	2230.24
1026.39	2265.05
1026.55	2181.09
1026.70	2125.79
1026.86	2228.19
1027.02	2224.09
1027.17	2215.90
1027.33	2211.81
1027.48	2109.41
1027.64	2211.81
1027.80	2189.28
1027.95	2160.61
1028.11	2033.63
1028.27	2226.14
1028.42	2226.14
1028.58	2191.33
1028.73	2168.80
1028.89	2158.56
1029.05	2197.47
1029.20	2193.37
>>>>>End Processed Spectral Data<<<<<
