SpectraSuite Data File
++++++++++++++++++++++++++++++++++++
Date: Fri Jun 02 14:41:59 CEST 2017
User: INFO_000
Dark Spectrum Present: No
Reference Spectrum Present: No
Number of Sampled Component Spectra: 1
Spectrometers: USB4H00879
Integration Time (usec): 80000 (USB4H00879)
Spectra Averaged: 1 (USB4H00879)
Boxcar Smoothing: 0 (USB4H00879)
Correct for Electrical Dark: No (USB4H00879)
Strobe/Lamp Enabled: No (USB4H00879)
Correct for Detector Non-linearity: No (USB4H00879)
Correct for Stray Light: No (USB4H00879)
Number of Pixels in Processed Spectrum: 3648
>>>>>Begin Processed Spectral Data<<<<<
345.13	1339.37
345.34	1339.37
345.56	1339.37
345.78	1232.88
345.99	1286.12
346.21	1650.66
346.42	1708.01
346.64	1669.09
346.86	1773.54
347.07	1626.09
347.29	1761.25
347.50	1611.75
347.72	1732.58
347.94	1708.01
348.15	1597.42
348.37	1619.94
348.59	1667.05
348.80	1689.57
349.02	1681.38
349.23	1875.94
349.45	1787.88
349.67	1818.60
349.88	1820.64
350.10	1929.19
350.31	1841.12
350.53	1843.17
350.75	1943.52
350.96	1751.01
351.18	1910.75
351.39	1828.84
351.61	1875.94
351.82	1949.67
352.04	1937.38
352.26	1767.40
352.47	1794.02
352.69	1912.80
352.90	1757.16
353.12	1877.99
353.34	1834.98
353.55	1968.10
353.77	1910.75
353.98	1880.04
354.20	1771.49
354.41	1908.71
354.63	1906.66
354.85	1968.10
355.06	1951.71
355.28	1798.12
355.49	1890.28
355.71	1908.71
355.92	1877.99
356.14	1968.10
356.35	1882.08
356.57	1800.16
356.79	1931.23
357.00	1880.04
357.22	1968.10
357.43	1822.69
357.65	1941.47
357.86	1910.75
358.08	1978.34
358.29	1910.75
358.51	2017.25
358.72	2017.25
358.94	1964.00
359.16	1959.91
359.37	1943.52
359.59	1933.28
359.80	1871.84
360.02	1877.99
360.23	1984.48
360.45	2023.39
360.66	1931.23
360.88	1863.65
361.09	1873.89
361.31	2011.11
361.52	2033.63
361.74	2031.58
361.95	2035.68
362.17	1898.47
362.38	2113.50
362.60	2080.74
362.81	1966.05
363.03	2035.68
363.24	2088.93
363.46	2166.75
363.67	1980.39
363.89	1949.67
364.10	2064.35
364.32	2041.82
364.53	2060.26
364.75	1890.28
364.96	2041.82
365.18	2125.79
365.39	2060.26
365.61	1974.24
365.82	2127.84
366.04	2052.06
366.25	1937.38
366.47	2117.60
366.68	2078.69
366.90	1990.63
367.11	2142.18
367.33	2035.68
367.54	2054.11
367.76	2056.16
367.97	2154.46
368.19	2019.30
368.40	2078.69
368.62	1957.86
368.83	1961.95
369.05	2009.06
369.26	2000.87
369.48	2105.31
369.69	2031.58
369.91	2076.64
370.12	2021.35
370.33	2033.63
370.55	1990.63
370.76	2047.97
370.98	2152.42
371.19	2093.02
371.41	1986.53
371.62	2043.87
371.84	2072.54
372.05	2183.13
372.27	2045.92
372.48	2113.50
372.69	2123.74
372.91	2105.31
373.12	2158.56
373.34	2060.26
373.55	2179.04
373.77	2222.05
373.98	2058.21
374.20	2117.60
374.41	2295.77
374.62	2142.18
374.84	2199.52
375.05	2125.79
375.27	2170.85
375.48	2230.24
375.70	2138.08
375.91	2232.29
376.12	2318.30
376.34	2174.94
376.55	2236.38
376.77	2279.39
376.98	2115.55
377.19	2150.37
377.41	2158.56
377.62	2273.25
377.84	2217.95
378.05	2344.92
378.27	2256.86
378.48	2310.11
378.69	2404.32
378.91	2381.79
379.12	2240.48
379.34	2230.24
379.55	2310.11
379.76	2176.99
379.98	2217.95
380.19	2297.82
380.41	2381.79
380.62	2379.74
380.83	2285.53
381.05	2244.57
381.26	2375.64
381.47	2344.92
381.69	2230.24
381.90	2367.45
382.12	2318.30
382.33	2312.16
382.54	2297.82
382.76	2324.44
382.97	2439.13
383.19	2265.05
383.40	2371.55
383.61	2342.88
383.83	2213.85
384.04	2383.84
384.25	2418.65
384.47	2351.07
384.68	2416.60
384.89	2351.07
385.11	2428.89
385.32	2471.90
385.54	2412.51
385.75	2392.03
385.96	2406.36
386.18	2494.43
386.39	2473.95
386.60	2418.65
386.82	2576.34
387.03	2437.08
387.24	2543.58
387.46	2453.47
387.67	2424.80
387.88	2580.44
388.10	2541.53
388.31	2519.00
388.52	2611.16
388.74	2545.63
388.95	2605.02
389.16	2639.83
389.38	2512.86
389.59	2650.07
389.80	2621.40
390.02	2674.65
390.23	2734.04
390.44	2621.40
390.66	2607.06
390.87	2469.85
391.08	2566.10
391.30	2719.70
391.51	2688.98
391.72	2633.69
391.94	2680.79
392.15	2711.51
392.36	2672.60
392.58	2598.87
392.79	2754.52
393.00	2682.84
393.22	2775.00
393.43	2787.29
393.64	2887.64
393.85	2920.40
394.07	2736.09
394.28	2672.60
394.49	2820.05
394.71	2779.09
394.92	2983.89
395.13	2691.03
395.35	2846.68
395.56	2828.24
395.77	2865.11
395.98	2916.31
396.20	2920.40
396.41	2854.87
396.62	2912.21
396.84	2963.41
397.05	2809.81
397.26	2951.12
397.47	2994.13
397.69	2920.40
397.90	3223.50
398.11	3020.75
398.32	2990.03
398.54	2920.40
398.75	2949.08
398.96	3065.81
399.18	3200.98
399.39	3094.48
399.60	3051.47
399.81	2981.84
400.03	2918.36
400.24	3313.61
400.45	3076.05
400.66	3129.30
400.88	3102.67
401.09	3250.13
401.30	3135.44
401.51	3129.30
401.73	3246.03
401.94	3178.45
402.15	3272.65
402.36	3180.50
402.58	3149.78
402.79	3108.82
403.00	3205.07
403.21	3252.17
403.43	3358.67
403.64	3323.85
403.85	3176.40
404.06	3381.20
404.27	3207.12
404.49	3330.00
404.70	3168.21
404.91	3362.76
405.12	3336.14
405.34	3440.59
405.55	3438.54
405.76	3082.19
405.97	3342.28
406.19	3413.96
406.40	3409.87
406.61	3338.19
406.82	3436.49
407.03	3389.39
407.25	3446.73
407.46	3475.40
407.67	3522.51
407.88	3489.74
408.09	3448.78
408.31	3393.48
408.52	3469.26
408.73	3340.24
408.94	3506.12
409.15	3530.70
409.37	3641.29
409.58	3682.25
409.79	3688.39
410.00	3641.29
410.21	3483.59
410.43	3542.99
410.64	3508.17
410.85	3620.81
411.06	3614.66
411.27	3635.14
411.48	3696.58
411.70	3645.38
411.91	3760.07
412.12	3796.93
412.33	3655.62
412.54	3583.95
412.76	3764.17
412.97	3772.36
413.18	3717.06
413.39	3817.41
413.60	3735.50
413.81	3790.79
414.03	3743.69
414.24	3680.20
414.45	3796.93
414.66	3692.49
414.87	3887.04
415.08	3805.13
415.30	3788.74
415.51	3878.85
415.72	3854.28
415.93	3876.80
416.14	3968.96
416.35	3823.56
416.56	3936.20
416.78	3844.04
416.99	3870.66
417.20	3958.72
417.41	4044.74
417.62	3870.66
417.83	4128.70
418.04	4075.46
418.26	4022.21
418.47	4001.73
418.68	4124.61
418.89	3989.44
419.10	4061.12
419.31	4153.28
419.52	4163.52
419.73	4091.84
419.95	4247.49
420.16	4114.37
420.37	4044.74
420.58	4175.81
420.79	3940.29
421.00	4235.20
421.21	4231.10
421.42	4028.35
421.63	4253.63
421.85	4296.64
422.06	4304.83
422.27	4186.05
422.48	4341.69
422.69	4435.90
422.90	4403.13
423.11	4337.60
423.32	4386.75
423.53	4571.07
423.75	4440.00
423.96	4601.79
424.17	4591.55
424.38	4591.55
424.59	4487.10
424.80	4550.59
425.01	4675.51
425.22	4519.87
425.43	4495.29
425.64	4630.46
425.85	4632.51
426.06	4628.41
426.28	4755.38
426.49	4736.95
426.70	4720.57
426.91	4749.24
427.12	4792.25
427.33	4763.58
427.54	4644.79
427.75	4747.19
427.96	4958.13
428.17	4818.87
428.38	5005.24
428.59	5027.76
428.80	4902.84
429.01	5107.63
429.23	5019.57
429.44	5142.45
429.65	5115.83
429.86	5052.34
430.07	5013.43
430.28	5058.48
430.49	5195.70
430.70	5199.79
430.91	5216.18
431.12	5040.05
431.33	5240.75
431.54	5244.85
431.75	5275.57
431.96	5248.94
432.17	5300.14
432.38	5164.98
432.59	5515.18
432.80	5447.60
433.01	5406.64
433.22	5375.92
433.43	5459.88
433.64	5326.77
433.85	5472.17
434.06	5650.35
434.27	5427.12
434.49	5652.39
434.70	5547.95
434.91	5646.25
435.12	5732.26
435.33	5580.71
435.54	5640.11
435.75	5468.08
435.96	5595.05
436.17	5558.19
436.38	5803.94
436.59	5775.27
436.80	5744.55
437.01	5935.01
437.22	5863.33
437.43	5873.57
437.64	5701.54
437.85	5889.96
438.06	6061.99
438.27	5910.44
438.48	5853.09
438.69	6027.17
438.90	5992.36
439.11	5793.70
439.32	6219.68
439.53	5978.02
439.74	5914.53
439.95	6139.81
440.16	6152.10
440.37	6129.57
440.57	6059.94
440.78	6170.53
440.99	6229.92
441.20	6127.52
441.41	6010.79
441.62	6330.27
441.83	6074.28
442.04	6176.67
442.25	6285.22
442.46	6221.73
442.67	6285.22
442.88	6672.28
443.09	6258.59
443.30	6336.42
443.51	6324.13
443.72	6774.68
443.93	6557.60
444.14	6799.26
444.35	6258.59
444.56	6514.59
444.77	6510.49
444.98	6559.64
445.19	6639.51
445.40	6573.98
445.61	6541.21
445.81	6725.53
446.02	6655.90
446.23	6727.58
446.44	6703.00
446.65	6672.28
446.86	6762.39
447.07	6803.35
447.28	6762.39
447.49	6918.04
447.70	6838.17
447.91	6895.51
448.12	6903.70
448.33	6967.19
448.54	7059.35
448.74	6805.40
448.95	6913.94
449.16	6995.86
449.37	7311.25
449.58	7096.21
449.79	7380.88
450.00	7038.87
450.21	7255.95
450.42	7157.65
450.63	7286.67
450.84	7190.42
451.05	7348.11
451.25	7255.95
451.46	7178.13
451.67	7468.94
451.88	7470.99
452.09	7536.52
452.30	7321.49
452.51	7458.70
452.72	7473.04
452.93	7731.08
453.13	7372.69
453.34	7501.71
453.55	7743.37
453.76	7630.73
453.97	7974.79
454.18	7933.83
454.39	7989.13
454.60	7835.53
454.81	7896.97
455.01	7835.53
455.22	7571.34
455.43	7825.29
455.64	8028.04
455.85	8009.61
456.06	8306.56
456.27	7954.31
456.48	8077.19
456.68	8183.68
456.89	8161.16
457.10	8433.54
457.31	8243.07
457.52	8300.42
457.73	8458.11
457.94	8572.80
458.14	8060.80
458.35	8703.87
458.56	8460.16
458.77	8376.19
458.98	8585.08
459.19	8574.85
459.39	8761.21
459.60	8861.56
459.81	8593.28
460.02	8748.92
460.23	8787.83
460.44	9056.12
460.65	9144.18
460.85	9017.21
461.06	9209.72
461.27	9019.25
461.48	9162.61
461.69	9432.94
461.89	9080.69
462.10	9445.23
462.31	9101.17
462.52	9193.33
462.73	9322.35
462.94	9535.34
463.14	9602.93
463.35	9224.05
463.56	9873.26
463.77	9709.42
463.98	9662.32
464.18	9607.02
464.39	9834.35
464.60	9973.61
464.81	9940.84
465.02	9678.70
465.23	10198.88
465.43	10153.83
465.64	10182.50
465.85	10035.05
466.06	10137.45
466.27	10454.88
466.47	10405.73
466.68	10530.66
466.89	10454.88
467.10	10749.79
467.30	10385.25
467.51	10706.78
467.72	10977.11
467.93	10555.23
468.14	10831.71
468.34	11024.22
468.55	10860.38
468.76	10858.33
468.97	11136.85
469.17	11143.00
469.38	11321.17
469.59	11466.58
469.80	11155.29
470.01	11478.86
470.21	11276.12
470.42	11597.65
470.63	11585.36
470.84	11452.24
471.04	11638.61
471.25	11831.12
471.46	11736.91
471.67	11947.85
471.87	11833.16
472.08	12160.84
472.29	12181.32
472.50	11757.39
472.70	11910.99
472.91	12248.90
473.12	12513.09
473.33	12568.38
473.53	12615.49
473.74	12597.06
473.95	12881.72
474.16	12959.55
474.36	12818.24
474.57	13059.90
474.78	13162.30
474.99	13012.79
475.19	13170.49
475.40	13393.72
475.61	13485.87
475.81	13612.85
476.02	13866.80
476.23	13539.12
476.44	13866.80
476.64	13846.32
476.85	14083.88
477.06	14153.51
477.27	14165.80
477.47	14339.88
477.68	14409.51
477.89	14690.08
478.09	14315.30
478.30	14896.92
478.51	14651.17
478.71	14806.81
478.92	14913.31
479.13	14921.50
479.34	15339.29
479.54	15245.08
479.75	15259.42
479.96	15327.00
480.16	15167.26
480.37	15335.19
480.58	15582.99
480.78	15968.01
480.99	15931.15
481.20	15707.92
481.41	16162.57
481.61	16221.96
481.82	16496.39
482.03	16285.45
482.23	16570.12
482.44	16514.82
482.65	16623.36
482.85	16744.19
483.06	16537.35
483.27	16940.80
483.47	16895.74
483.68	16926.46
483.89	17280.76
484.09	17022.72
484.30	17315.58
484.51	17657.59
484.71	17630.96
484.92	17442.55
485.13	17790.70
485.33	17944.30
485.54	17682.16
485.75	17989.36
485.95	18235.11
486.16	18226.92
486.37	18224.87
486.57	18253.55
486.78	18280.17
486.98	18454.25
487.19	18882.27
487.40	18579.17
487.60	18798.31
487.81	19033.82
488.02	19015.39
488.22	19166.94
488.43	19361.50
488.64	19109.60
488.84	19424.98
489.05	19527.38
489.25	19584.73
489.46	19953.36
489.67	19521.24
489.87	19756.75
490.08	19928.78
490.29	20016.85
490.49	20217.55
490.70	20213.45
490.90	20367.05
491.11	20350.67
491.32	20684.48
491.52	20588.23
491.73	20709.06
491.94	20719.30
492.14	20733.64
492.35	21014.21
492.55	20956.86
492.76	20942.53
492.97	21278.40
493.17	21040.83
493.38	21501.62
493.58	21649.08
493.79	21673.65
494.00	21595.83
494.20	21874.35
494.41	21915.31
494.61	22073.01
494.82	22339.24
495.02	21870.26
495.23	22355.63
495.44	22349.48
495.64	22564.52
495.85	22572.71
496.05	22660.77
496.26	22525.61
496.47	22904.48
496.67	22679.21
496.88	23113.38
497.08	22931.11
497.29	23393.95
497.49	23056.03
497.70	22949.54
497.91	23510.68
498.11	23522.97
498.32	23344.80
498.52	23787.16
498.73	24114.83
498.93	23678.61
499.14	23793.30
499.34	24196.75
499.55	24241.81
499.76	24092.30
499.96	24120.98
500.17	24293.01
500.37	24436.36
500.58	24200.85
500.78	24581.77
500.99	24589.96
501.19	24645.26
501.40	24475.27
501.60	24549.00
501.81	24573.58
502.02	24743.56
502.22	24835.72
502.43	25239.17
502.63	25241.21
502.84	25106.05
503.04	25357.95
503.25	25501.31
503.45	25419.39
503.66	25452.16
503.86	25583.23
504.07	25781.88
504.27	25323.13
504.48	26127.99
504.68	25773.69
504.89	25972.34
505.09	25566.84
505.30	26056.31
505.50	25902.71
505.71	26242.67
505.91	26304.11
506.12	26173.04
506.32	26289.77
506.53	26521.20
506.73	26486.38
506.94	26621.55
507.14	26705.51
507.35	26672.74
507.55	26551.91
507.76	26586.73
507.96	26633.83
508.17	27154.02
508.37	27012.71
508.58	27203.17
508.78	27141.73
508.99	27133.54
509.19	27113.06
509.40	27315.81
509.60	27485.79
509.81	27364.96
510.01	27362.91
510.22	27346.53
510.42	27233.89
510.63	28003.92
510.83	27500.12
511.04	27743.83
511.24	27829.85
511.44	27618.91
511.65	27635.29
511.85	27825.75
512.06	28153.43
512.26	28008.02
512.47	28245.58
512.67	28499.53
512.88	27993.68
513.08	27981.40
513.29	28401.23
513.49	28411.47
513.69	28223.06
513.90	28325.46
514.10	28847.69
514.31	28513.87
514.51	28733.00
514.72	28517.96
514.92	28827.21
515.13	28771.91
515.33	28778.06
515.53	28888.65
515.74	29306.43
515.94	29238.85
516.15	29331.01
516.35	29195.84
516.56	29306.43
516.76	28974.66
516.96	29529.66
517.17	29300.29
517.37	29464.13
517.58	29486.65
517.78	29414.98
517.99	29482.56
518.19	29812.28
518.39	29863.48
518.60	29957.69
518.80	30062.13
519.01	30062.13
519.21	30352.94
519.41	30152.24
519.62	29931.06
519.82	30221.87
520.03	30039.61
520.23	30148.15
520.43	30070.33
520.64	30760.49
520.84	30889.51
521.05	30475.82
521.25	30930.47
521.45	30813.74
521.66	30877.22
521.86	31350.31
522.07	30932.52
522.27	31055.40
522.47	30957.10
522.68	31467.04
522.88	31028.77
523.08	31815.19
523.29	31641.12
523.49	31553.05
523.70	31469.09
523.90	32054.81
524.10	31677.98
524.31	32300.56
524.51	31829.53
524.71	32456.21
524.92	32290.32
525.12	32452.11
525.33	32275.99
525.53	32310.80
525.73	32615.95
525.94	32540.18
526.14	32546.32
526.34	32964.10
526.55	33117.70
526.75	32802.32
526.95	32939.53
527.16	32867.85
527.36	33039.88
527.56	33453.57
527.77	33381.89
527.97	33355.27
528.17	33154.57
528.38	33801.72
528.58	33971.71
528.78	33861.12
528.99	33910.27
529.19	34428.40
529.39	33924.60
529.60	34293.24
529.80	34180.60
530.00	34594.29
530.21	34600.43
530.41	34530.80
530.61	34452.98
530.82	34921.96
531.02	34491.89
531.22	35018.22
531.43	34960.87
531.63	35214.82
531.83	35655.14
532.04	35636.70
532.24	34899.44
532.44	35657.18
532.64	35583.46
532.85	35511.78
533.05	35618.27
533.25	35640.80
533.46	35788.25
533.66	36152.79
533.86	35995.10
534.07	36447.70
534.27	36408.79
534.47	36802.00
534.67	36789.71
534.88	36509.14
535.08	36740.56
535.28	36531.67
535.49	36797.90
535.69	36969.93
535.89	36668.88
536.09	36855.25
536.30	37410.25
536.50	36924.88
536.70	37660.10
536.91	37242.31
537.11	37277.13
537.31	37647.81
537.51	37905.85
537.72	37977.53
537.92	38043.07
538.12	38215.10
538.32	38081.98
538.53	38403.51
538.73	38051.26
538.93	38081.98
539.13	38249.91
539.34	38340.02
539.54	38452.66
539.74	38964.65
539.94	38792.62
540.15	38880.69
540.35	39118.25
540.55	39005.61
540.75	39234.99
540.96	39464.36
541.16	39292.33
541.36	39112.11
541.56	38927.79
541.77	39622.05
541.97	39636.39
542.17	39626.15
542.37	39548.32
542.58	39644.58
542.78	39769.51
542.98	39792.03
543.18	40060.32
543.38	40484.25
543.59	40297.88
543.79	40115.61
543.99	40301.98
544.19	40285.59
544.40	40148.38
544.60	40676.76
544.80	40881.55
545.00	41106.83
545.20	41078.16
545.41	40764.82
545.61	40981.90
545.81	41043.34
546.01	40986.00
546.21	41360.78
546.42	41274.76
546.62	41602.44
546.82	40945.04
547.02	41352.58
547.22	41565.57
547.43	41291.15
547.63	41708.93
547.83	41577.86
548.03	41266.57
548.23	41710.98
548.44	41751.94
548.64	41780.61
548.84	42009.98
549.04	41799.04
549.24	42294.65
549.45	42225.02
549.65	41590.15
549.85	41639.30
550.05	42272.12
550.25	41915.78
550.45	42603.89
550.66	42245.50
550.86	42397.05
551.06	42474.87
551.26	42562.93
551.46	42827.12
551.66	42820.98
551.87	42624.37
552.07	42605.94
552.27	43001.20
552.47	42841.46
552.67	43097.45
552.87	43007.34
553.07	43257.20
553.28	43292.01
553.48	43457.90
553.68	43261.29
553.88	43404.65
554.08	43246.96
554.28	43570.54
554.48	43285.87
554.69	43646.31
554.89	43674.98
555.09	43605.35
555.29	43330.92
555.49	43627.88
555.69	43713.89
555.89	43697.51
556.10	43816.29
556.30	43660.65
556.50	43988.32
556.70	43615.59
556.90	44123.49
557.10	44219.74
557.30	44029.28
557.50	43998.56
557.70	44170.59
557.91	44162.40
558.11	44377.43
558.31	44416.35
558.51	44285.28
558.71	44068.19
558.91	44512.60
559.11	44426.59
559.31	44848.47
559.51	44242.27
559.72	44440.92
559.92	44895.57
560.12	44367.20
560.32	44481.88
560.52	44701.01
560.72	44752.21
560.92	44635.48
561.12	45061.46
561.32	45364.56
561.52	44866.90
561.72	45061.46
561.93	45002.07
562.13	45104.46
562.33	44651.86
562.53	45317.45
562.73	45018.45
562.93	45038.93
563.13	45012.31
563.33	45317.45
563.53	45442.38
563.73	45260.11
563.93	45415.76
564.13	45462.86
564.33	45948.23
564.53	45397.32
564.74	45628.74
564.94	45782.34
565.14	45671.75
565.34	45477.19
565.54	45737.29
565.74	45958.47
565.94	45862.21
566.14	45786.44
566.34	45866.31
566.54	46392.64
566.74	45544.78
566.94	46130.50
567.14	46163.26
567.34	45690.18
567.54	46376.25
567.74	45874.50
567.94	45817.16
568.14	46736.69
568.34	46425.40
568.54	46089.54
568.74	46603.58
568.94	46122.30
569.14	46890.29
569.34	46241.09
569.54	46671.16
569.75	45964.61
569.95	46538.04
570.15	46724.41
570.35	46593.34
570.55	46871.86
570.75	46947.64
570.95	46783.80
571.15	47187.25
571.35	46820.66
571.55	46935.35
571.75	46748.98
571.95	46943.54
572.15	46552.38
572.35	47183.15
572.55	47490.35
572.75	47414.57
572.95	47293.74
573.15	47340.85
573.35	47445.29
573.55	47099.19
573.75	47637.80
573.95	47879.46
574.15	47125.81
574.35	47764.78
574.55	47590.70
574.75	47275.31
574.95	47598.89
575.15	47539.50
575.34	47670.57
575.54	47807.78
575.74	47719.72
575.94	48086.31
576.14	48063.78
576.34	47910.18
576.54	47887.65
576.74	48289.06
576.94	48145.70
577.14	48117.03
577.34	48825.62
577.54	48014.63
577.74	48471.32
577.94	48237.86
578.14	48334.11
578.34	48567.58
578.54	48043.30
578.74	48569.63
578.94	48565.53
579.14	48567.58
579.34	48954.64
579.54	48993.56
579.74	49087.76
579.94	49036.56
580.13	49149.20
580.33	49116.43
580.53	49157.39
580.73	49253.65
580.93	49231.12
581.13	49863.94
581.33	49573.13
581.53	49495.31
581.73	49071.38
581.93	49237.26
582.13	49665.29
582.33	49562.89
582.53	49419.53
582.73	49947.91
582.92	49558.80
583.12	49648.91
583.32	49423.63
583.52	49460.49
583.72	50527.48
583.92	50044.16
584.12	50107.65
584.32	50795.77
584.52	50445.57
584.72	50132.23
584.92	50775.29
585.11	50889.98
585.31	50134.28
585.51	50642.17
585.71	50117.89
585.91	50961.65
586.11	50570.49
586.31	50685.18
586.51	50275.58
586.71	50855.16
586.91	51201.27
587.10	51414.26
587.30	51002.61
587.50	50816.25
587.70	50783.48
587.90	51598.57
588.10	51238.13
588.30	51158.26
588.50	51199.22
588.69	51569.90
588.89	51494.13
589.09	51029.24
589.29	51254.51
589.49	51471.60
589.69	51285.23
589.89	51434.74
590.08	51780.84
590.28	51893.48
590.48	51967.21
590.68	51459.31
590.88	51688.68
591.08	52202.72
591.28	51729.64
591.47	52249.83
591.67	52270.31
591.87	51956.97
592.07	51862.76
592.27	51983.59
592.47	51758.31
592.67	51746.03
592.86	51987.69
593.06	51858.66
593.26	52370.66
593.46	52417.76
593.66	52536.54
593.86	52110.56
594.05	52282.59
594.25	52716.76
594.45	52163.81
594.65	53126.36
594.85	52016.36
595.05	52389.09
595.24	52798.68
595.44	52499.68
595.64	52964.57
595.84	52892.89
596.04	53060.82
596.23	52917.46
596.43	53118.17
596.63	53081.30
596.83	53118.17
597.03	53359.83
597.22	53626.06
597.42	53576.91
597.62	53576.91
597.82	53445.84
598.02	53732.56
598.21	53277.91
598.41	53148.88
598.61	53699.79
598.81	53802.19
599.01	53591.25
599.20	54060.23
599.40	53515.47
599.60	53798.09
599.80	53890.25
600.00	53677.26
600.19	54074.57
600.39	53687.50
600.59	53933.26
600.79	53978.31
600.98	54052.04
601.18	54613.18
601.38	54297.80
601.58	54873.27
601.78	54826.17
601.97	54203.59
602.17	54848.70
602.37	54719.68
602.57	54543.55
602.76	54656.19
602.96	54506.69
603.16	55237.81
603.36	54879.42
603.55	55039.16
603.75	54979.77
603.95	55012.54
604.15	55399.60
604.34	55174.33
604.54	55657.65
604.74	54875.32
604.94	55387.31
605.13	55628.98
605.33	55252.15
605.53	55307.44
605.73	55821.48
605.92	55653.55
606.12	55743.66
606.32	55706.80
606.52	55743.66
606.71	55923.88
606.91	56110.25
607.11	55424.18
607.30	56194.21
607.50	55846.06
607.70	56345.76
607.90	56169.64
608.09	56067.24
608.29	56241.32
608.49	56413.35
608.68	56200.36
608.88	56288.42
609.08	56407.20
609.28	56374.44
609.47	55970.99
609.67	56730.78
609.87	56439.97
610.06	56503.46
610.26	56130.73
610.46	56814.75
610.66	56554.66
610.85	56583.33
611.05	56302.76
611.25	56706.21
611.44	56108.20
611.64	56824.99
611.84	56229.03
612.03	56493.22
612.23	56499.36
612.43	56612.00
612.62	56183.97
612.82	56923.29
613.02	57013.40
613.21	56642.72
613.41	56523.94
613.61	56951.96
613.80	56284.33
614.00	57222.29
614.20	56765.60
614.39	56708.25
614.59	57242.77
614.79	56710.30
614.98	56763.55
615.18	56652.96
615.38	57115.80
615.57	56759.45
615.77	57058.46
615.97	57033.88
616.16	57062.55
616.36	56868.00
616.56	57128.09
616.75	57418.90
616.95	56333.48
617.15	56964.25
617.34	56779.93
617.54	57246.87
617.74	57275.54
617.93	57576.59
618.13	56259.75
618.32	56655.01
618.52	56954.01
618.72	57085.08
618.91	56874.14
619.11	56646.82
619.31	57271.45
619.50	56802.46
619.70	57021.59
619.90	56779.93
620.09	56796.32
620.29	56923.29
620.48	57343.12
620.68	57277.59
620.88	56515.75
621.07	57605.26
621.27	56882.33
621.46	56560.80
621.66	56808.61
621.86	57326.74
622.05	57119.90
622.25	57377.94
622.44	56702.11
622.64	56761.50
622.84	57216.15
623.03	56849.56
623.23	56675.49
623.42	57046.17
623.62	57588.88
623.82	57517.20
624.01	57134.23
624.21	57005.21
624.40	57037.98
624.60	57214.10
624.80	57058.46
624.99	56990.87
625.19	56153.26
625.38	56759.45
625.58	57371.80
625.77	56919.20
625.97	56806.56
626.17	56626.34
626.36	57046.17
626.56	57160.86
626.75	56562.85
626.95	57150.62
627.14	56693.92
627.34	57269.40
627.54	57017.50
627.73	57277.59
627.93	57048.22
628.12	56556.70
628.32	56992.92
628.51	57455.76
628.71	57029.79
628.90	57185.43
629.10	57169.05
629.30	57029.79
629.49	57091.22
629.69	56868.00
629.88	57097.37
630.08	57054.36
630.27	57083.03
630.47	57158.81
630.66	56988.83
630.86	57455.76
631.05	56921.24
631.25	57455.76
631.44	57076.89
631.64	57248.92
631.84	57023.64
632.03	57605.26
632.23	57259.16
632.42	57332.89
632.62	56753.31
632.81	57320.60
633.01	57359.51
633.20	57509.01
633.40	57431.19
633.59	57635.98
633.79	56468.64
633.98	57218.20
634.18	57304.21
634.37	57441.43
634.57	57709.71
634.76	57404.56
634.96	57595.03
635.15	57463.96
635.35	56923.29
635.54	57167.00
635.74	57513.11
635.93	57132.18
636.13	57537.68
636.32	57697.42
636.52	57349.27
636.71	57433.24
636.91	57353.36
637.10	58061.96
637.30	57287.83
637.49	57545.87
637.69	57668.75
637.88	57812.11
638.08	57173.14
638.27	57652.37
638.46	57261.21
638.66	57635.98
638.85	57625.74
639.05	57791.63
639.24	58023.05
639.44	57468.05
639.63	57527.44
639.83	57660.56
640.02	57326.74
640.22	57615.50
640.41	57578.64
640.61	56980.63
640.80	57908.36
640.99	57261.21
641.19	57820.30
641.38	57324.69
641.58	57478.29
641.77	57578.64
641.97	57656.46
642.16	57498.77
642.36	57523.35
642.55	58326.15
642.74	57539.73
642.94	58457.22
643.13	57652.37
643.33	57996.43
643.52	58248.33
643.72	58131.59
643.91	58143.88
644.10	57980.04
644.30	58160.26
644.49	58094.73
644.69	58139.78
644.88	58170.50
645.08	57767.05
645.27	58078.35
645.46	57808.01
645.66	58270.85
645.85	58336.39
646.05	58166.41
646.24	58336.39
646.43	57949.32
646.63	58414.21
646.82	58203.27
647.02	57848.97
647.21	58328.20
647.40	58094.73
647.60	58172.55
647.79	58711.17
647.99	58068.11
648.18	57707.66
648.37	58700.93
648.57	58870.91
648.76	58492.04
648.96	58354.82
649.15	58930.30
649.34	58774.66
649.54	58748.03
649.73	58190.98
649.92	58979.45
650.12	58176.65
650.31	58225.80
650.51	58707.07
650.70	58967.16
650.89	58741.89
651.09	59389.05
651.28	58504.32
651.47	58688.64
651.67	58881.15
651.86	59133.05
652.06	58184.84
652.25	58858.62
652.44	58641.54
652.64	58479.75
652.83	58903.68
653.02	58381.45
653.22	59077.75
653.41	57939.08
653.60	58557.57
653.80	58877.05
653.99	58842.24
654.18	59051.13
654.38	58850.43
654.57	58850.43
654.76	58479.75
654.96	58668.16
655.15	58715.26
655.34	59061.37
655.54	58266.76
655.73	58848.38
655.92	59004.03
656.12	59128.95
656.31	58965.12
656.50	58791.04
656.70	58981.50
656.89	59012.22
657.08	59114.62
657.28	58639.49
657.47	59190.39
657.66	59200.63
657.86	58973.31
658.05	59094.14
658.24	59358.33
658.43	58735.74
658.63	59278.46
658.82	59128.95
659.01	59217.02
659.21	59462.77
659.40	59233.40
659.59	59096.19
659.79	59151.48
659.98	59167.87
660.17	59186.30
660.36	59065.47
660.56	59051.13
660.75	58768.51
660.94	59151.48
661.14	59409.53
661.33	58848.38
661.52	59102.33
661.71	59434.10
661.91	59098.23
662.10	58774.66
662.29	59028.60
662.49	59018.36
662.68	58651.78
662.87	58913.92
663.06	59266.17
663.26	59292.79
663.45	59169.91
663.64	59360.37
663.83	59233.40
664.03	58942.59
664.22	59288.70
664.41	59268.22
664.60	59161.72
664.80	59079.80
664.99	59020.41
665.18	58758.27
665.37	59305.08
665.57	59204.73
665.76	58866.81
665.95	58946.68
666.14	58979.45
666.34	59165.82
666.53	59176.06
666.72	58643.59
666.91	59196.54
667.11	58573.95
667.30	58993.79
667.49	59309.18
667.68	59300.98
667.87	58803.33
668.07	58907.77
668.26	59321.46
668.45	59094.14
668.64	58881.15
668.84	59620.47
669.03	59122.81
669.22	59145.34
669.41	59225.21
669.60	58995.84
669.80	59153.53
669.99	58905.73
670.18	59028.60
670.37	59409.53
670.57	59456.63
670.76	58774.66
670.95	59042.94
671.14	59169.91
671.33	59110.52
671.53	59116.67
671.72	58948.73
671.91	58995.84
672.10	58856.57
672.29	58905.73
672.48	58610.82
672.68	59366.52
672.87	59214.97
673.06	58705.02
673.25	58672.26
673.44	58627.20
673.64	59348.09
673.83	58733.70
674.02	58891.39
674.21	58926.20
674.40	59397.24
674.59	58971.26
674.79	58621.06
674.98	58893.44
675.17	59090.04
675.36	58217.61
675.55	59257.98
675.74	58508.42
675.94	58987.64
676.13	58913.92
676.32	59077.75
676.51	59135.10
676.70	58807.42
676.89	58754.18
677.08	59012.22
677.28	58643.59
677.47	58750.08
677.66	59454.58
677.85	58576.00
678.04	59028.60
678.23	59251.83
678.42	58836.09
678.62	58723.46
678.81	59270.26
679.00	58920.06
679.19	59227.26
679.38	58901.63
679.57	58987.64
679.76	59069.56
679.96	59090.04
680.15	58985.60
680.34	58717.31
680.53	58881.15
680.72	58897.53
680.91	58852.48
681.10	58455.17
681.29	58879.10
681.48	58717.31
681.68	59036.80
681.87	58672.26
682.06	58219.66
682.25	58076.30
682.44	58561.67
682.63	58553.47
682.82	58449.03
683.01	58580.10
683.20	58498.18
683.39	58559.62
683.59	58135.69
683.78	58367.11
683.97	58086.54
684.16	58496.13
684.35	58217.61
684.54	58449.03
684.73	58168.46
684.92	58457.22
685.11	58459.27
685.30	58229.90
685.49	58246.28
685.69	58061.96
685.88	57881.74
686.07	58197.13
686.26	57750.67
686.45	58315.91
686.64	58094.73
686.83	58172.55
687.02	58152.07
687.21	57988.24
687.40	57750.67
687.59	58074.25
687.78	58064.01
687.97	58430.60
688.16	58086.54
688.35	57756.81
688.54	58064.01
688.74	57799.82
688.93	57795.73
689.12	58250.38
689.31	57758.86
689.50	58123.40
689.69	57724.05
689.88	57080.98
690.07	57877.64
690.26	57928.84
690.45	58147.98
690.64	57678.99
690.83	57754.77
691.02	57519.25
691.21	57253.01
691.40	57300.12
691.59	57722.00
691.78	57392.28
691.97	57341.08
692.16	57480.34
692.35	57818.25
692.54	57650.32
692.73	57748.62
692.92	57549.97
693.11	57459.86
693.30	57474.20
693.49	57441.43
693.68	57220.25
693.87	57441.43
694.06	57324.69
694.25	57126.04
694.44	57042.07
694.63	57250.97
694.82	57113.75
695.01	57040.03
695.20	57066.65
695.39	57269.40
695.58	56890.52
695.77	56655.01
695.96	57046.17
696.15	57308.31
696.34	56945.82
696.53	56902.81
696.72	57091.22
696.91	57169.05
697.10	56501.41
697.29	56976.54
697.48	56583.33
697.67	56538.27
697.86	56431.78
698.05	56310.95
698.24	57111.70
698.43	56267.94
698.62	56585.38
698.81	56622.24
699.00	57017.50
699.19	56370.34
699.38	56562.85
699.57	56165.54
699.76	57183.38
699.95	56128.68
700.14	56069.29
700.32	56448.16
700.51	56128.68
700.70	56589.47
700.89	56460.45
701.08	56489.12
701.27	55858.35
701.46	56550.56
701.65	55555.25
701.84	56026.28
702.03	55956.65
702.22	56208.55
702.41	56220.84
702.60	55884.97
702.79	55751.85
702.98	56013.99
703.17	55882.92
703.35	55422.13
703.54	55723.18
703.73	56132.78
703.92	56161.45
704.11	55997.61
704.30	55209.14
704.49	55688.37
704.68	55583.92
704.87	55690.41
705.06	55332.02
705.25	55512.24
705.43	55481.52
705.62	55655.60
705.81	55553.20
706.00	55512.24
706.19	55217.33
706.38	55690.41
706.57	55379.12
706.76	55141.56
706.95	55278.77
707.14	55246.00
707.32	55094.46
707.51	54826.17
707.70	54822.08
707.89	55270.58
708.08	54877.37
708.27	54969.53
708.46	55030.97
708.65	55125.17
708.84	55121.08
709.02	55102.65
709.21	55014.58
709.40	54969.53
709.59	54936.76
709.78	54654.14
709.97	55137.46
710.16	54740.16
710.34	54658.24
710.53	54402.24
710.72	54738.11
710.91	54768.83
711.10	54889.66
711.29	55069.88
711.48	54942.91
711.66	54435.01
711.85	54170.82
712.04	54441.15
712.23	54531.26
712.42	54219.97
712.61	54576.32
712.80	54607.04
712.98	54596.80
713.17	54441.15
713.36	53910.73
713.55	54009.03
713.74	54281.41
713.93	54277.32
714.11	53839.05
714.30	54045.90
714.49	54088.90
714.68	54209.73
714.87	54101.19
715.06	54310.08
715.24	53957.83
715.43	53535.95
715.62	53370.07
715.81	53548.24
716.00	53624.01
716.18	53458.13
716.37	53390.55
716.56	53253.33
716.75	54031.56
716.94	53683.40
717.12	53187.80
717.31	53523.66
717.50	53384.40
717.69	53126.36
717.88	53560.53
718.06	53552.33
718.25	53433.55
718.44	53069.01
718.63	53183.70
718.82	52964.57
719.00	52915.42
719.19	52716.76
719.38	52950.23
719.57	52428.00
719.76	52544.73
719.94	52403.42
720.13	52540.64
720.32	52479.20
720.51	52636.89
720.69	52493.54
720.88	52184.29
721.07	52215.01
721.26	51741.93
721.44	52241.63
721.63	51922.15
721.82	52382.94
722.01	51983.59
722.20	52069.61
722.38	51916.01
722.57	51954.92
722.76	51899.62
722.95	52018.41
723.13	51315.95
723.32	51098.87
723.51	51721.45
723.70	51635.44
723.88	51305.71
724.07	50982.13
724.26	51453.17
724.44	50722.04
724.63	51397.87
724.82	51033.33
725.01	51361.01
725.19	51166.45
725.38	51006.71
725.57	50984.18
725.76	51322.10
725.94	50844.92
726.13	50810.10
726.32	51256.56
726.51	51350.77
726.69	51221.75
726.88	51234.03
727.07	51133.68
727.25	51072.24
727.44	51008.76
727.63	50846.97
727.82	51051.76
728.00	50920.70
728.19	50726.14
728.38	51119.35
728.56	50705.66
728.75	51102.96
728.94	50642.17
729.12	50672.89
729.31	50533.63
729.50	50793.72
729.69	50861.30
729.87	50797.82
730.06	50771.19
730.25	50853.11
730.43	50939.13
730.62	50722.04
730.81	50423.04
730.99	50492.67
731.18	50396.42
731.37	50607.36
731.55	51234.03
731.74	50748.67
731.93	50371.84
732.11	50726.14
732.30	50732.28
732.49	50676.99
732.67	50445.57
732.86	50140.42
733.05	50140.42
733.23	50511.10
733.42	49941.77
733.61	50603.26
733.79	50537.72
733.98	50980.09
734.17	49911.05
734.35	50371.84
734.54	50531.58
734.73	50521.34
734.91	50392.32
735.10	49825.03
735.29	50095.36
735.47	49855.75
735.66	49720.59
735.84	49900.81
736.03	49784.07
736.22	50644.22
736.40	49964.29
736.59	50205.95
736.78	50033.92
736.96	50074.88
737.15	49984.77
737.33	49784.07
737.52	49558.80
737.71	49698.06
737.89	49564.94
738.08	49642.76
738.27	50031.88
738.45	49861.90
738.64	50007.30
738.82	49702.15
739.01	49702.15
739.20	50253.06
739.38	49315.09
739.57	49308.94
739.75	49698.06
739.94	49513.74
740.13	49546.51
740.31	49462.54
740.50	49130.77
740.68	49591.56
740.87	49571.08
741.06	49530.12
741.24	49632.52
741.43	49323.28
741.61	49528.08
741.80	49192.21
741.99	49165.59
742.17	48921.88
742.36	48868.63
742.54	48887.06
742.73	49231.12
742.91	49362.19
743.10	49237.26
743.29	49421.58
743.47	49249.55
743.66	49435.92
743.84	49308.94
744.03	49050.90
744.21	48796.95
744.40	49294.61
744.59	48692.50
744.77	48581.91
744.96	48463.13
745.14	48952.60
745.33	48540.96
745.51	48252.19
745.70	48917.78
745.88	48624.92
746.07	48428.32
746.26	48297.25
746.44	48547.10
746.63	48506.14
746.81	48282.91
747.00	48383.26
747.18	47899.94
747.37	48264.48
747.55	48569.63
747.74	48706.84
747.92	48223.52
748.11	48022.82
748.29	47912.23
748.48	48020.77
748.66	48231.71
748.85	48129.31
749.03	48076.07
749.22	47998.24
749.41	47830.31
749.59	48248.10
749.78	48117.03
749.96	48004.39
750.15	47873.32
750.33	48051.49
750.52	47746.34
750.70	47840.55
750.89	47453.48
751.07	47629.61
751.26	47584.55
751.44	47600.94
751.63	47672.62
751.81	47310.13
752.00	47170.86
752.18	47697.19
752.37	47488.30
752.55	47658.28
752.74	47162.67
752.92	47338.80
753.10	46896.44
753.29	47521.07
753.47	47099.19
753.66	46994.74
753.84	47263.02
754.03	47224.11
754.21	46976.31
754.40	47140.14
754.58	46808.37
754.77	47117.62
754.95	46724.41
755.14	46935.35
755.32	47050.03
755.51	46576.95
755.69	46695.74
755.88	46679.35
756.06	46908.72
756.24	46654.78
756.43	46835.00
756.61	46980.40
756.80	46515.51
756.98	46273.85
757.17	46556.47
757.35	46439.74
757.54	46318.91
757.72	46595.38
757.90	46263.61
758.09	46036.29
758.27	45993.28
758.46	46079.30
758.64	46110.02
758.83	46171.46
759.01	46347.58
759.19	46150.98
759.38	45794.63
759.56	46005.57
759.75	45772.10
759.93	46011.71
760.12	45415.76
760.30	45929.80
760.48	45976.90
760.67	45528.39
760.85	45593.93
761.04	45776.20
761.22	45733.19
761.40	45806.92
761.59	45593.93
761.77	45432.14
761.96	45700.42
762.14	45348.17
762.32	45491.53
762.51	45061.46
762.69	45184.33
762.88	45368.65
763.06	44973.39
763.24	45204.81
763.43	45679.94
763.61	44825.94
763.80	45114.70
763.98	45022.54
764.16	44848.47
764.35	44686.68
764.53	44578.14
764.72	45067.60
764.90	44875.09
765.08	44741.97
765.27	44578.14
765.45	44553.56
765.63	44090.72
765.82	44531.03
766.00	44250.46
766.18	44389.72
766.37	44719.45
766.55	44414.30
766.74	44141.92
766.92	43857.25
767.10	44100.96
767.29	43988.32
767.47	43900.26
767.65	43953.51
767.84	43847.01
768.02	43806.05
768.20	43562.34
768.39	43971.94
768.57	43930.98
768.75	43982.18
768.94	43836.77
769.12	43963.75
769.30	43208.04
769.49	43554.15
769.67	43269.48
769.85	43064.69
770.04	43320.68
770.22	42874.23
770.40	43455.85
770.59	43545.96
770.77	43660.65
770.95	43308.40
771.14	43261.29
771.32	42849.65
771.50	42806.64
771.69	42990.96
771.87	43240.81
772.05	43089.26
772.24	42679.67
772.42	42786.16
772.60	42773.88
772.78	42626.42
772.97	42755.44
773.15	43148.65
773.33	42794.36
773.52	42968.43
773.70	43013.49
773.88	42999.15
774.07	42505.59
774.25	42362.23
774.43	42904.95
774.61	42706.29
774.80	42743.16
774.98	42513.78
775.16	42890.61
775.34	42831.22
775.53	42665.33
775.71	42966.38
775.89	42409.34
776.08	42653.05
776.26	42544.50
776.44	42726.77
776.62	42597.75
776.81	42446.20
776.99	42804.59
777.17	42403.19
777.35	42757.49
777.54	43238.76
777.72	42765.68
777.90	42833.27
778.08	43289.96
778.27	43001.20
778.45	43083.12
778.63	43328.87
778.81	42440.06
779.00	43468.14
779.18	43007.34
779.36	43279.72
779.54	43029.87
779.73	43341.16
779.91	43353.45
780.09	43261.29
780.27	43271.53
780.46	42995.06
780.64	43480.42
780.82	42921.33
781.00	43195.76
781.19	43486.57
781.37	43627.88
781.55	43554.15
781.73	43603.30
781.91	43722.08
782.10	43574.63
782.28	43457.90
782.46	43509.10
782.64	43662.69
782.82	43414.89
783.01	43502.95
783.19	43564.39
783.37	43648.36
783.55	43052.40
783.74	43887.97
783.92	43091.31
784.10	43844.96
784.28	43537.77
784.46	42972.53
784.64	43253.10
784.83	43689.32
785.01	43537.77
785.19	43261.29
785.37	43476.33
785.55	43443.56
785.74	42988.91
785.92	43527.53
786.10	43615.59
786.28	43548.01
786.46	43007.34
786.64	42900.85
786.83	43210.09
787.01	43496.81
787.19	43060.59
787.37	43181.42
787.55	43453.80
787.74	42794.36
787.92	42808.69
788.10	42802.55
788.28	42747.25
788.46	42743.16
788.64	42542.45
788.82	43314.54
789.01	42444.15
789.19	42800.50
789.37	42308.99
789.55	42218.88
789.73	42132.86
789.91	42407.29
790.09	42587.51
790.28	42210.68
790.46	42206.59
790.64	42034.56
790.82	42157.44
791.00	41874.82
791.18	41700.74
791.36	41782.66
791.55	41880.96
791.73	42085.76
791.91	41315.72
792.09	41127.31
792.27	41471.37
792.45	41530.76
792.63	41733.51
792.81	41608.58
793.00	41813.38
793.18	41018.77
793.36	41026.96
793.54	40969.61
793.72	40971.66
793.90	40920.46
794.08	40983.95
794.26	41082.25
794.44	40670.61
794.62	40123.80
794.81	40709.52
794.99	40355.22
795.17	40220.06
795.35	40447.38
795.53	40402.33
795.71	40334.74
795.89	39949.73
796.07	39929.25
796.25	40009.12
796.43	40027.55
796.61	39652.77
796.80	39638.44
796.98	39953.82
797.16	39407.01
797.34	39323.05
797.52	39409.06
797.70	39290.28
797.88	39439.78
798.06	38831.54
798.24	39142.83
798.42	38786.48
798.60	38991.28
798.78	38602.16
798.96	38905.26
799.14	38714.80
799.32	38589.88
799.51	38507.96
799.69	39085.48
799.87	38679.99
800.05	38311.35
800.23	38196.67
800.41	37940.67
800.59	37891.52
800.77	37977.53
800.95	37522.88
801.13	38104.51
801.31	37365.19
801.49	37721.54
801.67	37166.54
801.85	37281.22
802.03	37307.85
802.21	37137.87
802.39	36994.51
802.57	36689.36
802.75	36748.75
802.93	36863.44
803.11	36625.87
803.29	36675.02
803.47	36390.36
803.65	36490.71
803.83	36214.23
804.01	36820.43
804.19	36232.66
804.37	36060.63
804.55	36269.53
804.73	35982.81
804.91	36017.63
805.09	35952.09
805.27	35823.07
805.45	36396.50
805.63	35978.72
805.81	35962.33
805.99	36124.12
806.17	35755.49
806.35	35573.22
806.53	35112.42
806.71	35497.44
806.89	35419.62
807.07	35638.75
807.25	35028.46
807.43	34739.69
807.61	35341.80
807.79	34727.41
807.97	34964.97
808.15	35036.65
808.33	34737.65
808.51	34557.42
808.69	34516.47
808.87	34627.06
809.05	34360.82
809.23	34166.26
809.41	34055.67
809.59	34242.04
809.77	34455.03
809.95	33988.09
810.13	34266.61
810.31	33943.03
810.49	34080.25
810.67	33871.36
810.84	34045.43
811.02	33969.66
811.20	33482.24
811.38	33986.04
811.56	33682.94
811.74	33672.70
811.92	33308.16
812.10	33297.92
812.28	33240.58
812.46	33185.29
812.64	33299.97
812.82	33013.26
813.00	33105.41
813.18	33232.39
813.36	32955.91
813.53	32783.88
813.71	32423.44
813.89	32546.32
814.07	32947.72
814.25	32953.87
814.43	32587.28
814.61	32665.10
814.79	32423.44
814.97	32259.60
815.15	32411.15
815.33	32060.95
815.50	31950.36
815.68	32106.01
815.86	32273.94
816.04	31882.78
816.22	31766.04
816.40	32151.06
816.58	31829.53
816.76	31954.46
816.94	31993.37
817.11	31538.72
817.29	31430.18
817.47	31624.73
817.65	31800.86
817.83	31266.34
818.01	31120.93
818.19	31505.95
818.37	31165.99
818.54	31180.32
818.72	31065.64
818.90	31161.89
819.08	30895.66
819.26	31155.75
819.44	31202.85
819.62	30840.36
819.80	30918.18
819.97	31024.68
820.15	30985.77
820.33	30660.14
820.51	30621.23
820.69	30457.39
820.87	30729.77
821.05	30893.61
821.22	30934.57
821.40	30660.14
821.58	30301.75
821.76	30404.14
821.94	30361.14
822.12	30631.47
822.29	30457.39
822.47	30264.88
822.65	30096.95
822.83	30217.78
823.01	30076.47
823.19	29740.60
823.36	30121.52
823.54	29855.29
823.72	30139.96
823.90	29894.20
824.08	29322.82
824.25	29474.37
824.43	29460.03
824.61	29406.78
824.79	29738.55
824.97	29062.72
825.15	29441.60
825.32	29630.01
825.50	29333.06
825.68	29224.51
825.86	29392.45
826.04	29498.94
826.21	29435.45
826.39	29318.72
826.57	28874.31
826.75	29003.33
826.93	29122.12
827.10	28802.63
827.28	29216.32
827.46	28941.89
827.64	28667.47
827.81	28483.15
827.99	29089.35
828.17	28415.57
828.35	28773.96
828.53	28485.20
828.70	28687.95
828.88	28876.36
829.06	28679.75
829.24	28864.07
829.41	28894.79
829.59	28472.91
829.77	28511.82
829.95	28575.31
830.12	28696.14
830.30	28221.01
830.48	28331.60
830.66	28221.01
830.84	28413.52
831.01	28063.32
831.19	28259.92
831.37	28233.30
831.55	27981.40
831.72	27954.77
831.90	28257.87
832.08	27983.44
832.25	28012.12
832.43	27719.26
832.61	27719.26
832.79	27432.54
832.96	27704.92
833.14	27790.94
833.32	28079.70
833.50	27831.90
833.67	27809.37
833.85	27682.39
834.03	27555.42
834.20	27614.81
834.38	27682.39
834.56	27534.94
834.74	27280.99
834.91	27536.99
835.09	27035.24
835.27	26752.62
835.44	27340.38
835.62	26867.30
835.80	26914.41
835.98	27498.08
836.15	26779.24
836.33	26773.10
836.51	27213.41
836.68	26820.20
836.86	26898.02
837.04	26869.35
837.21	26629.74
837.39	26687.08
837.57	26930.79
837.75	26801.77
837.92	26584.68
838.10	26773.10
838.28	26265.20
838.45	26599.02
838.63	26207.86
838.81	26515.05
838.98	26123.89
839.16	26625.64
839.34	26584.68
839.51	26613.35
839.69	25859.70
839.87	26525.29
840.04	26508.91
840.22	26375.79
840.40	26195.57
840.57	26109.55
840.75	26064.50
840.93	25822.84
841.10	25943.67
841.28	26281.58
841.46	25974.39
841.63	25876.09
841.81	26054.26
841.98	26091.12
842.16	25812.60
842.34	25955.96
842.51	25380.48
842.69	25816.69
842.87	25828.98
843.04	25880.18
843.22	25867.89
843.40	25747.06
843.57	25464.44
843.75	25736.82
843.92	25863.80
844.10	25615.99
844.28	25495.16
844.45	25579.13
844.63	25474.68
844.81	25458.30
844.98	25890.42
845.16	25294.46
845.33	25263.74
845.51	25597.56
845.69	25220.74
845.86	24901.25
846.04	25034.37
846.21	25151.10
846.39	25036.42
846.57	25144.96
846.74	25108.10
846.92	24721.03
847.09	25198.21
847.27	24614.54
847.45	24950.40
847.62	24628.87
847.80	24641.16
847.97	24835.72
848.15	24778.37
848.32	24657.54
848.50	24733.32
848.68	24585.86
848.85	24489.61
849.03	24137.36
849.20	24895.11
849.38	24516.23
849.56	24585.86
849.73	24223.37
849.91	24563.34
850.08	24657.54
850.26	24200.85
850.43	24419.98
850.61	24200.85
850.78	24127.12
850.96	24319.63
851.14	24170.13
851.31	24381.07
851.49	23950.99
851.66	23944.85
851.84	24141.46
852.01	24225.42
852.19	24247.95
852.36	24014.48
852.54	23764.63
852.71	24037.01
852.89	23819.92
853.07	23996.05
853.24	23713.43
853.42	23871.12
853.59	23709.33
853.77	23654.04
853.94	23738.01
854.12	23756.44
854.29	23449.24
854.47	23662.23
854.64	23817.88
854.82	23774.87
854.99	23557.78
855.17	23555.74
855.34	23287.45
855.52	23717.53
855.69	23492.25
855.87	23299.74
856.04	22992.55
856.22	23434.91
856.39	23441.05
856.57	22945.44
856.74	23084.70
856.92	23482.01
857.09	23084.70
857.27	23316.12
857.44	23197.34
857.62	23379.61
857.79	23127.71
857.97	23031.46
858.14	23062.18
858.32	23144.09
858.49	23197.34
858.67	22754.98
858.84	22879.91
859.02	22574.76
859.19	22836.90
859.37	22705.83
859.54	22716.07
859.72	22929.06
859.89	22730.41
860.06	22517.42
860.24	22478.50
860.41	22576.81
860.59	22455.98
860.76	22394.54
860.94	22331.05
861.11	22664.87
861.29	22509.22
861.46	22357.67
861.64	22220.46
861.81	22197.93
861.98	22300.33
862.16	22320.81
862.33	22064.82
862.51	22027.95
862.68	22228.65
862.86	22095.53
863.03	22066.86
863.21	22021.81
863.38	22202.03
863.55	21704.37
863.73	22027.95
863.90	22007.47
864.08	21724.85
864.25	21972.66
864.43	21939.89
864.60	21565.11
864.77	22030.00
864.95	21829.30
865.12	21550.78
865.30	21759.67
865.47	21597.88
865.64	21915.31
865.82	21825.20
865.99	21466.81
866.17	21622.45
866.34	21774.00
866.51	21419.71
866.69	21659.32
866.86	21368.51
867.04	21671.61
867.21	21264.06
867.38	21321.40
867.56	21180.09
867.73	21020.35
867.91	21429.94
868.08	21561.02
868.25	21059.26
868.43	21128.89
868.60	21055.17
868.78	20862.66
868.95	21204.67
869.12	20887.23
869.30	20911.81
869.47	20997.82
869.64	20848.32
869.82	20819.65
869.99	20643.52
870.16	21036.74
870.34	20772.55
870.51	20668.10
870.69	20213.45
870.86	20274.89
871.03	20522.69
871.21	20422.34
871.38	20580.04
871.55	20246.22
871.73	20262.60
871.90	20131.53
872.07	20256.46
872.25	20219.60
872.42	20309.71
872.59	20127.44
872.77	20278.99
872.94	20121.29
873.11	19969.74
873.29	20242.12
873.46	19945.17
873.63	19963.60
873.81	19676.88
873.98	19789.52
874.15	19955.41
874.33	19697.36
874.50	19592.92
874.67	19758.80
874.85	19787.47
875.02	19627.73
875.19	19556.05
875.37	19511.00
875.54	19703.51
875.71	19463.90
875.88	19392.22
876.06	19338.97
876.23	19414.74
876.40	19171.04
876.58	19826.39
876.75	19125.98
876.92	18984.67
877.10	19173.08
877.27	18945.76
877.44	18812.64
877.61	19025.63
877.79	18984.67
877.96	18962.14
878.13	19050.21
878.31	18657.00
878.48	18865.89
878.65	18882.27
878.82	18536.17
879.00	18675.43
879.17	18818.78
879.34	18847.46
879.51	18392.81
879.69	18466.53
879.86	18542.31
880.03	18640.61
880.21	18431.72
880.38	18548.45
880.55	18478.82
880.72	18353.90
880.90	18689.76
881.07	18165.48
881.24	18220.78
881.41	18357.99
881.59	18267.88
881.76	18171.63
881.93	18202.35
882.10	18079.47
882.28	18140.91
882.45	18136.81
882.62	17870.58
882.79	18106.09
882.96	17923.82
883.14	18118.38
883.31	18124.52
883.48	17948.40
883.65	18319.08
883.83	18132.72
884.00	18034.41
884.17	18040.56
884.34	17854.19
884.51	17776.37
884.69	17850.10
884.86	17819.38
885.03	17766.13
885.20	17483.51
885.38	17846.00
885.55	17831.66
885.72	17551.09
885.89	17585.91
886.06	17673.97
886.24	17608.44
886.41	17284.86
886.58	17909.49
886.75	17688.31
886.92	17508.08
887.10	17346.30
887.27	17315.58
887.44	17526.52
887.61	17514.23
887.78	17567.48
887.95	17536.76
888.13	17049.34
888.30	17192.70
888.47	17000.19
888.64	17168.12
888.81	17213.18
888.99	16985.85
889.16	16871.17
889.33	16656.13
889.50	17274.62
889.67	16905.98
889.84	16885.50
890.01	16647.94
890.19	17151.74
890.36	16938.75
890.53	17002.24
890.70	16721.66
890.87	16746.24
891.04	16738.05
891.22	16645.89
891.39	16631.55
891.56	16680.71
891.73	16447.24
891.90	16338.69
892.07	16430.85
892.24	16715.52
892.42	16363.27
892.59	16254.73
892.76	16402.18
892.93	16666.37
893.10	16766.72
893.27	16494.34
893.44	16170.76
893.61	16117.51
893.79	16189.19
893.96	16275.21
894.13	16205.58
894.30	16133.90
894.47	16350.98
894.64	16410.37
894.81	16203.53
894.98	16594.69
895.15	16082.70
895.33	16307.98
895.50	16246.54
895.67	16332.55
895.84	16332.55
896.01	16271.11
896.18	16240.39
896.35	16269.06
896.52	16090.89
896.69	16017.16
896.86	16387.85
897.04	15900.43
897.21	15982.35
897.38	16199.43
897.55	16047.88
897.72	16045.84
897.89	16140.04
898.06	16101.13
898.23	16078.60
898.40	16000.78
898.57	16330.50
898.74	16314.12
898.91	15961.87
899.08	16123.66
899.26	16146.19
899.43	16217.86
899.60	16236.30
899.77	16187.14
899.94	16068.36
900.11	15888.14
900.28	15857.42
900.45	15800.08
900.62	16023.31
900.79	16080.65
900.96	15957.77
901.13	15961.87
901.30	15798.03
901.47	15906.57
901.64	16125.71
901.81	16123.66
901.98	15855.37
902.15	16148.23
902.32	15703.82
902.49	16060.17
902.66	16062.22
902.83	15949.58
903.01	16027.40
903.18	15957.77
903.35	15871.76
903.52	15838.99
903.69	16115.47
903.86	16068.36
904.03	16060.17
904.20	15886.09
904.37	16103.18
904.54	15890.19
904.71	15922.96
904.88	15910.67
905.05	15896.33
905.22	16041.74
905.39	15836.94
905.56	15718.16
905.73	15554.32
905.90	15978.25
906.07	15879.95
906.24	15793.94
906.41	15744.78
906.58	16088.84
906.75	15912.72
906.92	15761.17
907.09	15578.90
907.26	16062.22
907.43	15484.69
907.60	15664.91
907.77	15757.07
907.93	15738.64
908.10	15763.22
908.27	15914.77
908.44	15468.31
908.61	15726.35
908.78	15673.10
908.95	15777.55
909.12	15765.26
909.29	15531.80
909.46	15642.39
909.63	15765.26
909.80	15759.12
909.97	15640.34
910.14	15480.60
910.31	15507.22
910.48	15763.22
910.65	15765.26
910.82	15474.45
910.99	15658.77
911.16	15408.92
911.33	15367.96
911.50	15453.97
911.66	15394.58
911.83	15496.98
912.00	15212.31
912.17	15255.32
912.34	15380.25
912.51	15087.39
912.68	15281.94
912.85	15345.43
913.02	15146.78
913.19	15308.57
913.36	15378.20
913.53	15216.41
913.70	15216.41
913.86	15423.25
914.03	15206.17
914.20	15146.78
914.37	15105.82
914.54	14903.07
914.71	15071.00
914.88	15066.91
915.05	14999.32
915.22	14802.72
915.39	14962.46
915.55	14794.53
915.72	14663.46
915.89	15017.75
916.06	14556.96
916.23	14767.90
916.40	14618.40
916.57	14573.35
916.74	14552.87
916.91	14538.53
917.07	14491.43
917.24	14401.32
917.41	14403.36
917.58	14386.98
917.75	14343.97
917.92	14200.62
918.09	14538.53
918.26	14309.16
918.42	14184.23
918.59	14169.90
918.76	14239.53
918.93	14171.94
919.10	13649.71
919.27	14241.57
919.44	14241.57
919.60	14182.18
919.77	14202.66
919.94	13758.25
920.11	14071.59
920.28	13817.65
920.45	13492.02
920.61	13604.66
920.78	13733.68
920.95	13709.10
921.12	13426.48
921.29	13559.60
921.46	13229.88
921.62	13311.80
921.79	13236.02
921.96	13367.09
922.13	13238.07
922.30	13481.78
922.47	13037.37
922.63	13211.45
922.80	13248.31
922.97	12969.79
923.14	12961.59
923.31	13059.90
923.47	12699.45
923.64	13197.11
923.81	12912.44
923.98	12977.98
924.15	12812.09
924.32	12742.46
924.48	12674.88
924.65	12758.85
924.82	12490.56
924.99	12650.30
925.15	12328.77
925.32	12250.95
925.49	12478.27
925.66	12334.92
925.83	12207.94
925.99	12451.65
926.16	12332.87
926.33	12189.51
926.50	12046.15
926.67	12142.41
926.83	12089.16
927.00	12005.19
927.17	11865.93
927.34	11929.42
927.50	11980.62
927.67	12037.96
927.84	11845.45
928.01	11603.79
928.17	11726.67
928.34	11634.51
928.51	11575.12
928.68	11495.25
928.84	11632.46
929.01	11280.21
929.18	11347.79
929.35	11478.86
929.51	11128.66
929.68	11317.08
929.85	11229.01
930.02	11036.50
930.18	11075.42
930.35	11163.48
930.52	11036.50
930.69	11009.88
930.85	10850.14
931.02	10745.69
931.19	10901.34
931.36	10841.95
931.52	10678.11
931.69	10825.56
931.86	10481.50
932.02	10743.64
932.19	10471.26
932.36	10563.42
932.53	10454.88
932.69	10200.93
932.86	10415.97
933.03	10323.81
933.19	10159.97
933.36	10309.47
933.53	10239.84
933.70	10151.78
933.86	10119.01
934.03	9908.07
934.20	9672.56
934.36	9785.19
934.53	9795.43
934.70	9699.18
934.86	9602.93
935.03	9381.74
935.20	9285.49
935.36	9269.11
935.53	9432.94
935.70	9150.32
935.86	9328.50
936.03	9179.00
936.20	8849.27
936.36	9025.40
936.53	8845.18
936.70	8931.19
936.86	9043.83
937.03	8658.81
937.20	8507.26
937.36	8556.41
937.53	8396.67
937.70	8318.85
937.86	8150.92
938.03	8431.49
938.20	8130.44
938.36	7982.98
938.53	7913.35
938.70	7776.14
938.86	7794.57
939.03	7690.12
939.20	7583.63
939.36	7536.52
939.53	7622.54
939.70	7636.88
939.86	7462.80
940.03	7141.27
940.19	7061.40
940.36	7196.56
940.53	7073.68
940.69	6893.46
940.86	6879.13
941.03	6682.52
941.19	6649.75
941.36	6637.47
941.52	6580.12
941.69	6557.60
941.86	6528.92
942.02	6328.22
942.19	6389.66
942.35	6277.02
942.52	6193.06
942.69	6113.19
942.85	6264.74
943.02	6088.61
943.18	6229.92
943.35	5969.83
943.52	5918.63
943.68	5947.30
943.85	5902.25
944.01	5795.75
944.18	5810.09
944.35	5756.84
944.51	5670.83
944.68	5615.53
944.84	5693.35
945.01	5756.84
945.17	5644.20
945.34	5658.54
945.51	5762.98
945.67	5676.97
945.84	5674.92
946.00	5521.32
946.17	5584.81
946.33	5457.84
946.50	5668.78
946.67	5629.87
946.83	5656.49
947.00	5498.80
947.16	5367.73
947.33	5457.84
947.49	5468.08
947.66	5367.73
947.82	5603.24
947.99	5445.55
948.16	5367.73
948.32	5337.01
948.49	5369.77
948.65	5539.76
948.82	5529.52
948.98	5332.91
949.15	5441.45
949.31	5515.18
949.48	5593.00
949.64	5427.12
949.81	5527.47
949.97	5351.34
950.14	5578.67
950.30	5453.74
950.47	5496.75
950.63	5541.80
950.80	5445.55
950.96	5472.17
951.13	5490.60
951.30	5492.65
951.46	5523.37
951.63	5554.09
951.79	5586.86
951.96	5623.72
952.12	5472.17
952.29	5605.29
952.45	5560.24
952.62	5646.25
952.78	5584.81
952.94	5539.76
953.11	5566.38
953.27	5345.20
953.44	5767.08
953.60	5648.30
953.77	5658.54
953.93	5633.96
954.10	5613.48
954.26	5699.50
954.43	5695.40
954.59	5748.65
954.76	5648.30
954.92	5709.74
955.09	5654.44
955.25	5547.95
955.42	5590.95
955.58	5633.96
955.75	5719.98
955.91	5582.76
956.07	5732.26
956.24	5656.49
956.40	5627.82
956.57	5869.48
956.73	5662.63
956.90	5629.87
957.06	5578.67
957.23	5660.59
957.39	5496.75
957.56	5715.88
957.72	5609.39
957.88	5627.82
958.05	5777.32
958.21	5756.84
958.38	5681.07
958.54	5695.40
958.71	5683.11
958.87	5545.90
959.03	5562.28
959.20	5767.08
959.36	5621.67
959.53	5662.63
959.69	5615.53
959.85	5758.89
960.02	5769.13
960.18	5578.67
960.35	5636.01
960.51	5711.78
960.68	5447.60
960.84	5693.35
961.00	5515.18
961.17	5644.20
961.33	5648.30
961.50	5734.31
961.66	5765.03
961.82	5603.24
961.99	5572.52
962.15	5687.21
962.31	5531.56
962.48	5547.95
962.64	5568.43
962.81	5689.26
962.97	5631.91
963.13	5603.24
963.30	5633.96
963.46	5595.05
963.62	5550.00
963.79	5660.59
963.95	5429.17
964.12	5461.93
964.28	5642.15
964.44	5521.32
964.61	5543.85
964.77	5564.33
964.93	5627.82
965.10	5486.51
965.26	5527.47
965.42	5529.52
965.59	5562.28
965.75	5543.85
965.92	5646.25
966.08	5386.16
966.24	5615.53
966.41	5369.77
966.57	5513.13
966.73	5443.50
966.90	5472.17
967.06	5425.07
967.22	5431.21
967.39	5476.27
967.55	5441.45
967.71	5529.52
967.88	5377.97
968.04	5326.77
968.20	5357.49
968.37	5343.15
968.53	5443.50
968.69	5357.49
968.85	5521.32
969.02	5402.54
969.18	5214.13
969.34	5300.14
969.51	5306.29
969.67	5250.99
969.83	5267.38
970.00	5396.40
970.16	5431.21
970.32	5234.61
970.48	5269.42
970.65	5173.17
970.81	5259.18
970.97	5312.43
971.14	5105.59
971.30	5285.81
971.46	5111.73
971.63	5246.90
971.79	5150.64
971.95	5185.46
972.11	5154.74
972.28	5115.83
972.44	5302.19
972.60	4911.03
972.76	5124.02
972.93	4990.90
973.09	5130.16
973.25	5175.22
973.42	5083.06
973.58	5220.27
973.74	5074.87
973.90	5138.35
974.07	5003.19
974.23	5091.25
974.39	5033.91
974.55	4966.32
974.72	5015.48
974.88	4964.28
975.04	5005.24
975.20	4933.56
975.37	5001.14
975.53	4913.08
975.69	4913.08
975.85	4908.98
976.01	4841.40
976.18	4970.42
976.34	4853.69
976.50	4896.69
976.66	4931.51
976.83	4863.93
976.99	4779.96
977.15	4845.49
977.31	4673.46
977.47	4831.16
977.64	4798.39
977.80	4708.28
977.96	4902.84
978.12	4732.86
978.29	4761.53
978.45	4628.41
978.61	4755.38
978.77	4716.47
978.93	4657.08
979.10	4642.75
979.26	4753.34
979.42	4728.76
979.58	4698.04
979.74	4573.11
979.91	4532.15
980.07	4591.55
980.23	4552.63
980.39	4585.40
980.55	4532.15
980.71	4421.56
980.88	4599.74
981.04	4575.16
981.20	4452.28
981.36	4552.63
981.52	4462.52
981.68	4497.34
981.85	4575.16
982.01	4411.32
982.17	4468.67
982.33	4528.06
982.49	4636.60
982.65	4394.94
982.82	4462.52
982.98	4380.61
983.14	4265.92
983.30	4446.14
983.46	4425.66
983.62	4405.18
983.79	4310.97
983.95	4345.79
984.11	4274.11
984.27	4366.27
984.43	4333.50
984.59	4370.37
984.75	4343.74
984.91	4227.01
985.08	4302.78
985.24	4175.81
985.40	4243.39
985.56	4208.58
985.72	4272.06
985.88	4403.13
986.04	4118.47
986.20	4192.19
986.37	4202.43
986.53	4179.90
986.69	4306.88
986.85	4229.06
987.01	4290.49
987.17	4171.71
987.33	4239.30
987.49	4073.41
987.65	4106.18
987.82	4089.79
987.98	4040.64
988.14	4057.03
988.30	4110.27
988.46	4052.93
988.62	4143.04
988.78	3954.63
988.94	4130.75
989.10	3956.68
989.26	3813.32
989.42	4075.46
989.59	3923.91
989.75	3958.72
989.91	3981.25
990.07	3895.24
990.23	3788.74
990.39	3930.05
990.55	3907.52
990.71	3768.26
990.87	3991.49
991.03	3907.52
991.19	3891.14
991.35	3874.76
991.51	3899.33
991.67	3954.63
991.83	3895.24
992.00	3942.34
992.16	3909.57
992.32	3760.07
992.48	3876.80
992.64	3706.82
992.80	3747.78
992.96	3770.31
993.12	3778.50
993.28	3819.46
993.44	3825.61
993.60	3755.97
993.76	3772.36
993.92	3710.92
994.08	3717.06
994.24	3622.86
994.40	3688.39
994.56	3708.87
994.72	3645.38
994.88	3581.90
995.04	3606.47
995.20	3616.71
995.36	3606.47
995.52	3600.33
995.68	3542.99
995.84	3491.79
996.00	3733.45
996.16	3606.47
996.32	3528.65
996.48	3559.37
996.64	3622.86
996.80	3518.41
996.96	3542.99
997.12	3545.03
997.28	3467.21
997.44	3366.86
997.60	3516.36
997.76	3520.46
997.92	3536.84
998.08	3442.64
998.24	3381.20
998.40	3575.75
998.56	3506.12
998.72	3383.24
998.88	3385.29
999.04	3379.15
999.20	3428.30
999.36	3413.96
999.52	3461.07
999.68	3416.01
999.84	3469.26
1000.00	3397.58
1000.16	3434.44
1000.32	3319.76
1000.48	3332.05
1000.64	3309.52
1000.80	3321.81
1000.95	3194.83
1001.11	3315.66
1001.27	3178.45
1001.43	3401.68
1001.59	3225.55
1001.75	3237.84
1001.91	3284.94
1002.07	3149.78
1002.23	3164.11
1002.39	3184.59
1002.55	3248.08
1002.71	3153.87
1002.87	3252.17
1003.03	3223.50
1003.19	3108.82
1003.34	3260.37
1003.50	3131.34
1003.66	3207.12
1003.82	3057.62
1003.98	3069.91
1004.14	3143.63
1004.30	3028.95
1004.46	3139.54
1004.62	3035.09
1004.78	3041.23
1004.94	3133.39
1005.09	3192.78
1005.25	3114.96
1005.41	3030.99
1005.57	3078.10
1005.73	3012.56
1005.89	3067.86
1006.05	2998.23
1006.21	2965.46
1006.37	2981.84
1006.52	2904.02
1006.68	2936.79
1006.84	2959.31
1007.00	2977.75
1007.16	2985.94
1007.32	3074.00
1007.48	2912.21
1007.64	2977.75
1007.79	2912.21
1007.95	2895.83
1008.11	2963.41
1008.27	2867.16
1008.43	2967.51
1008.59	2908.12
1008.75	2967.51
1008.91	2908.12
1009.06	2787.29
1009.22	2910.16
1009.38	2840.53
1009.54	2904.02
1009.70	2734.04
1009.86	2801.62
1010.01	2932.69
1010.17	2727.89
1010.33	2846.68
1010.49	2830.29
1010.65	2887.64
1010.81	2764.76
1010.96	2766.81
1011.12	2734.04
1011.28	2697.17
1011.44	2840.53
1011.60	2754.52
1011.76	2711.51
1011.91	2768.85
1012.07	2662.36
1012.23	2688.98
1012.39	2760.66
1012.55	2783.19
1012.71	2613.21
1012.86	2654.17
1013.02	2688.98
1013.18	2729.94
1013.34	2693.08
1013.50	2691.03
1013.65	2740.18
1013.81	2566.10
1013.97	2566.10
1014.13	2645.98
1014.29	2631.64
1014.44	2691.03
1014.60	2519.00
1014.76	2641.88
1014.92	2691.03
1015.07	2633.69
1015.23	2605.02
1015.39	2564.06
1015.55	2568.15
1015.71	2541.53
1015.86	2549.72
1016.02	2592.73
1016.18	2502.62
1016.34	2529.24
1016.49	2559.96
1016.65	2609.11
1016.81	2590.68
1016.97	2475.99
1017.12	2555.86
1017.28	2469.85
1017.44	2449.37
1017.60	2475.99
1017.75	2559.96
1017.91	2531.29
1018.07	2535.39
1018.23	2502.62
1018.38	2469.85
1018.54	2426.84
1018.70	2521.05
1018.86	2453.47
1019.01	2367.45
1019.17	2465.75
1019.33	2572.25
1019.49	2463.71
1019.64	2457.56
1019.80	2486.23
1019.96	2482.14
1020.12	2463.71
1020.27	2342.88
1020.43	2334.68
1020.59	2394.08
1020.74	2424.80
1020.90	2363.36
1021.06	2457.56
1021.22	2355.16
1021.37	2379.74
1021.53	2318.30
1021.69	2375.64
1021.84	2277.34
1022.00	2375.64
1022.16	2336.73
1022.31	2383.84
1022.47	2490.33
1022.63	2349.02
1022.79	2269.15
1022.94	2289.63
1023.10	2437.08
1023.26	2324.44
1023.41	2191.33
1023.57	2336.73
1023.73	2355.16
1023.88	2203.61
1024.04	2322.40
1024.20	2146.27
1024.35	2314.20
1024.51	2346.97
1024.67	2248.67
1024.82	2346.97
1024.98	2160.61
1025.14	2254.81
1025.29	2166.75
1025.45	2287.58
1025.61	2148.32
1025.76	2252.77
1025.92	2170.85
1026.08	2271.20
1026.23	2230.24
1026.39	2207.71
1026.55	2189.28
1026.70	2160.61
1026.86	2138.08
1027.02	2260.96
1027.17	2119.65
1027.33	2109.41
1027.48	2195.42
1027.64	2146.27
1027.80	2199.52
1027.95	2222.05
1028.11	2097.12
1028.27	2191.33
1028.42	2187.23
1028.58	2086.88
1028.73	2131.94
1028.89	2093.02
1029.05	2254.81
1029.20	2123.74
>>>>>End Processed Spectral Data<<<<<
