SpectraSuite Data File
++++++++++++++++++++++++++++++++++++
Date: Fri Jun 02 14:41:53 CEST 2017
User: INFO_000
Dark Spectrum Present: No
Reference Spectrum Present: No
Number of Sampled Component Spectra: 1
Spectrometers: USB4H00879
Integration Time (usec): 80000 (USB4H00879)
Spectra Averaged: 1 (USB4H00879)
Boxcar Smoothing: 0 (USB4H00879)
Correct for Electrical Dark: No (USB4H00879)
Strobe/Lamp Enabled: No (USB4H00879)
Correct for Detector Non-linearity: No (USB4H00879)
Correct for Stray Light: No (USB4H00879)
Number of Pixels in Processed Spectrum: 3648
>>>>>Begin Processed Spectral Data<<<<<
345.13	1310.70
345.34	1310.70
345.56	1310.70
345.78	1263.60
345.99	1257.45
346.21	1687.53
346.42	1716.20
346.64	1652.71
346.86	1775.59
347.07	1621.99
347.29	1769.44
347.50	1626.09
347.72	1675.24
347.94	1753.06
348.15	1632.23
348.37	1560.55
348.59	1720.29
348.80	1591.27
349.02	1822.69
349.23	1890.28
349.45	1871.84
349.67	1830.88
349.88	1841.12
350.10	1927.14
350.31	1869.80
350.53	1814.50
350.75	1918.95
350.96	1859.56
351.18	1851.36
351.39	1839.08
351.61	1830.88
351.82	1861.60
352.04	1920.99
352.26	1839.08
352.47	1847.27
352.69	1853.41
352.90	1701.86
353.12	1826.79
353.34	1847.27
353.55	1943.52
353.77	1912.80
353.98	1830.88
354.20	1763.30
354.41	1896.42
354.63	1966.05
354.85	2086.88
355.06	1961.95
355.28	1834.98
355.49	1849.32
355.71	1914.85
355.92	1900.52
356.14	1904.61
356.35	1814.50
356.57	1892.32
356.79	1902.56
357.00	1789.92
357.22	1900.52
357.43	1839.08
357.65	2002.91
357.86	1806.31
358.08	2019.30
358.29	2004.96
358.51	1984.48
358.72	1986.53
358.94	1904.61
359.16	1855.46
359.37	1966.05
359.59	2011.11
359.80	1931.23
360.02	2050.02
360.23	1959.91
360.45	2002.91
360.66	1873.89
360.88	1894.37
361.09	1914.85
361.31	2076.64
361.52	2004.96
361.74	2039.78
361.95	2084.83
362.17	2019.30
362.38	2058.21
362.60	2047.97
362.81	1966.05
363.03	1914.85
363.24	2004.96
363.46	2058.21
363.67	2023.39
363.89	1920.99
364.10	2107.36
364.32	1935.33
364.53	2142.18
364.75	1986.53
364.96	2050.02
365.18	2007.01
365.39	1933.28
365.61	1994.72
365.82	2074.59
366.04	2031.58
366.25	1935.33
366.47	2084.83
366.68	2090.98
366.90	1900.52
367.11	2052.06
367.33	2082.78
367.54	2088.93
367.76	2013.15
367.97	2054.11
368.19	2050.02
368.40	2002.91
368.62	1970.15
368.83	2045.92
369.05	2070.50
369.26	1970.15
369.48	1980.39
369.69	1955.81
369.91	2133.98
370.12	2019.30
370.33	2090.98
370.55	1988.58
370.76	2062.30
370.98	2107.36
371.19	2054.11
371.41	2027.49
371.62	2082.78
371.84	1957.86
372.05	2172.89
372.27	2058.21
372.48	2050.02
372.69	2068.45
372.91	2164.70
373.12	2076.64
373.34	2041.82
373.55	2125.79
373.77	2213.85
373.98	2172.89
374.20	2211.81
374.41	2273.25
374.62	2179.04
374.84	2193.37
375.05	2170.85
375.27	2103.26
375.48	2215.90
375.70	2121.70
375.91	2318.30
376.12	2281.44
376.34	2181.09
376.55	2240.48
376.77	2193.37
376.98	2144.22
377.19	2095.07
377.41	2138.08
377.62	2160.61
377.84	2207.71
378.05	2379.74
378.27	2246.62
378.48	2428.89
378.69	2361.31
378.91	2303.96
379.12	2263.01
379.34	2222.05
379.55	2303.96
379.76	2349.02
379.98	2267.10
380.19	2289.63
380.41	2275.29
380.62	2385.88
380.83	2260.96
381.05	2222.05
381.26	2416.60
381.47	2328.54
381.69	2256.86
381.90	2467.80
382.12	2342.88
382.33	2342.88
382.54	2320.35
382.76	2324.44
382.97	2273.25
383.19	2299.87
383.40	2480.09
383.61	2377.69
383.83	2328.54
384.04	2328.54
384.25	2361.31
384.47	2361.31
384.68	2392.03
384.89	2336.73
385.11	2340.83
385.32	2308.06
385.54	2338.78
385.75	2322.40
385.96	2377.69
386.18	2523.10
386.39	2404.32
386.60	2369.50
386.82	2494.43
387.03	2457.56
387.24	2510.81
387.46	2506.71
387.67	2498.52
387.88	2519.00
388.10	2451.42
388.31	2545.63
388.52	2584.54
388.74	2566.10
388.95	2406.36
389.16	2543.58
389.38	2498.52
389.59	2674.65
389.80	2605.02
390.02	2564.06
390.23	2654.17
390.44	2531.29
390.66	2619.35
390.87	2539.48
391.08	2562.01
391.30	2672.60
391.51	2629.59
391.72	2666.46
391.94	2756.57
392.15	2660.31
392.36	2650.07
392.58	2717.65
392.79	2666.46
393.00	2758.61
393.22	2752.47
393.43	2756.57
393.64	2885.59
393.85	2811.86
394.07	2639.83
394.28	2793.43
394.49	2813.91
394.71	2899.92
394.92	2910.16
395.13	2742.23
395.35	2805.72
395.56	2779.09
395.77	2801.62
395.98	2844.63
396.20	2856.92
396.41	2863.06
396.62	2961.36
396.84	2795.48
397.05	2838.48
397.26	2944.98
397.47	3006.42
397.69	2879.44
397.90	3055.57
398.11	3076.05
398.32	2942.93
398.54	2891.73
398.75	2967.51
398.96	2928.60
399.18	3117.01
399.39	3074.00
399.60	3100.62
399.81	3057.62
400.03	2967.51
400.24	3260.37
400.45	3000.27
400.66	3192.78
400.88	2983.89
401.09	3229.65
401.30	3176.40
401.51	3213.26
401.73	3053.52
401.94	3133.39
402.15	3147.73
402.36	3246.03
402.58	3231.69
402.79	3252.17
403.00	3160.02
403.21	3223.50
403.43	3342.28
403.64	3299.28
403.85	3209.17
404.06	3229.65
404.27	3166.16
404.49	3178.45
404.70	3319.76
404.91	3362.76
405.12	3373.00
405.34	3209.17
405.55	3469.26
405.76	3207.12
405.97	3336.14
406.19	3493.83
406.40	3215.31
406.61	3315.66
406.82	3454.92
407.03	3313.61
407.25	3340.24
407.46	3516.36
407.67	3594.19
407.88	3590.09
408.09	3477.45
408.31	3491.79
408.52	3448.78
408.73	3440.59
408.94	3366.86
409.15	3506.12
409.37	3542.99
409.58	3485.64
409.79	3579.85
410.00	3680.20
410.21	3442.64
410.43	3573.71
410.64	3504.07
410.85	3612.62
411.06	3559.37
411.27	3669.96
411.48	3674.06
411.70	3690.44
411.91	3643.34
412.12	3786.69
412.33	3688.39
412.54	3669.96
412.76	3796.93
412.97	3786.69
413.18	3579.85
413.39	3856.33
413.60	3813.32
413.81	3776.45
414.03	3829.70
414.24	3631.05
414.45	3868.61
414.66	3731.40
414.87	3856.33
415.08	3698.63
415.30	3774.41
415.51	3885.00
415.72	3956.68
415.93	3862.47
416.14	3903.43
416.35	3923.91
416.56	3936.20
416.78	3923.91
416.99	3887.04
417.20	3917.76
417.41	4038.59
417.62	4007.87
417.83	4165.57
418.04	3973.06
418.26	4132.80
418.47	3925.96
418.68	4124.61
418.89	4034.50
419.10	4270.01
419.31	4263.87
419.52	4157.38
419.73	4155.33
419.95	4220.86
420.16	4116.42
420.37	4159.42
420.58	4163.52
420.79	4020.16
421.00	4143.04
421.21	4245.44
421.42	4169.66
421.63	4161.47
421.85	4368.32
422.06	4212.67
422.27	4304.83
422.48	4310.97
422.69	4394.94
422.90	4407.23
423.11	4403.13
423.32	4370.37
423.53	4384.70
423.75	4499.39
423.96	4550.59
424.17	4476.86
424.38	4646.84
424.59	4476.86
424.80	4659.13
425.01	4720.57
425.22	4589.50
425.43	4648.89
425.64	4720.57
425.85	4759.48
426.06	4718.52
426.28	4759.48
426.49	4607.93
426.70	4579.26
426.91	4763.58
427.12	4845.49
427.33	4782.01
427.54	4702.14
427.75	4833.21
427.96	4992.95
428.17	4970.42
428.38	4851.64
428.59	5044.15
428.80	4917.17
429.01	5111.73
429.23	4986.80
429.44	5212.08
429.65	4972.47
429.86	5248.94
430.07	4978.61
430.28	4919.22
430.49	4988.85
430.70	5285.81
430.91	5353.39
431.12	5078.96
431.33	5314.48
431.54	5273.52
431.75	5091.25
431.96	5199.79
432.17	5316.53
432.38	5447.60
432.59	5478.32
432.80	5412.78
433.01	5531.56
433.22	5470.12
433.43	5558.19
433.64	5476.27
433.85	5308.34
434.06	5519.28
434.27	5463.98
434.49	5670.83
434.70	5605.29
434.91	5590.95
435.12	5568.43
435.33	5711.78
435.54	5654.44
435.75	5459.88
435.96	5732.26
436.17	5607.34
436.38	5746.60
436.59	5699.50
436.80	5699.50
437.01	6033.32
437.22	5916.58
437.43	5842.85
437.64	5611.43
437.85	5955.49
438.06	5932.97
438.27	5830.57
438.48	5965.73
438.69	5992.36
438.90	5861.29
439.11	5875.62
439.32	6168.48
439.53	5988.26
439.74	5959.59
439.95	6076.32
440.16	5973.92
440.37	5935.01
440.57	5971.88
440.78	6039.46
440.99	6113.19
441.20	6207.39
441.41	6066.08
441.62	6227.87
441.83	6037.41
442.04	6373.28
442.25	6211.49
442.46	6252.45
442.67	6303.65
442.88	6680.47
443.09	6205.35
443.30	6311.84
443.51	6342.56
443.72	6643.61
443.93	6330.27
444.14	6612.89
444.35	6360.99
444.56	6549.40
444.77	6344.61
444.98	6539.16
445.19	6616.99
445.40	6692.76
445.61	6418.33
445.81	6891.41
446.02	6664.09
446.23	6668.19
446.44	6727.58
446.65	6649.75
446.86	6801.30
447.07	6920.09
447.28	6864.79
447.49	6938.52
447.70	6766.49
447.91	7006.10
448.12	6913.94
448.33	6952.85
448.54	6870.94
448.74	6959.00
448.95	6866.84
449.16	6922.13
449.37	7159.70
449.58	6895.51
449.79	7196.56
450.00	6987.67
450.21	7178.13
450.42	7462.80
450.63	7122.84
450.84	7241.62
451.05	7159.70
451.25	7229.33
451.46	7262.10
451.67	7419.79
451.88	7440.27
452.09	7376.78
452.30	7413.65
452.51	7374.74
452.72	7626.64
452.93	7761.80
453.13	7475.09
453.34	7415.69
453.55	7612.30
453.76	7579.53
453.97	7804.81
454.18	7645.07
454.39	7673.74
454.60	7694.22
454.81	7665.55
455.01	7882.63
455.22	7624.59
455.43	7901.06
455.64	7929.74
455.85	8109.96
456.06	8376.19
456.27	7944.07
456.48	8023.94
456.68	8318.85
456.89	7982.98
457.10	8316.80
457.31	8179.59
457.52	8374.14
457.73	8554.37
457.94	8431.49
458.14	8202.11
458.35	8810.36
458.56	8533.89
458.77	8490.88
458.98	8636.28
459.19	8644.48
459.39	8796.03
459.60	8798.07
459.81	8601.47
460.02	8861.56
460.23	8828.79
460.44	8902.52
460.65	8959.86
460.85	9166.71
461.06	9133.94
461.27	9039.73
461.48	9369.46
461.69	9437.04
461.89	8945.53
462.10	9160.56
462.31	9017.21
462.52	9078.65
462.73	9084.79
462.94	9578.35
463.14	9373.55
463.35	9518.96
463.56	9920.36
463.77	9903.98
463.98	9527.15
464.18	9498.48
464.39	9783.15
464.60	9938.79
464.81	9887.59
465.02	9856.87
465.23	10112.87
465.43	9889.64
465.64	10260.32
465.85	10033.00
466.06	10139.49
466.27	10448.74
466.47	10473.31
466.68	10434.40
466.89	10325.86
467.10	10667.87
467.30	10299.23
467.51	10704.73
467.72	10919.77
467.93	10514.27
468.14	10878.81
468.34	10706.78
468.55	10925.91
468.76	10870.62
468.97	10680.16
469.17	11007.83
469.38	11257.68
469.59	11208.53
469.80	11145.05
470.01	11206.48
470.21	11331.41
470.42	11444.05
470.63	11593.55
470.84	11288.40
471.04	11620.17
471.25	11669.33
471.46	11890.51
471.67	12179.27
471.87	11951.95
472.08	12201.80
472.29	12287.81
472.50	11988.81
472.70	11992.90
472.91	12209.99
473.12	12431.17
473.33	12547.90
473.53	12377.92
473.74	12635.97
473.95	12629.82
474.16	12881.72
474.36	12914.49
474.57	13154.10
474.78	13082.42
474.99	13039.42
475.19	12939.07
475.40	13465.39
475.61	13391.67
475.81	13713.20
476.02	13741.87
476.23	13492.02
476.44	13803.31
476.64	14012.20
476.85	14135.08
477.06	13926.19
477.27	14257.96
477.47	14192.42
477.68	14145.32
477.89	14358.31
478.09	14528.29
478.30	14589.73
478.51	14567.20
478.71	14669.60
478.92	14956.32
479.13	14819.10
479.34	15308.57
479.54	15052.57
479.75	15208.22
479.96	15427.35
480.16	15314.71
480.37	15435.54
480.58	15626.00
480.78	15777.55
480.99	15744.78
481.20	16023.31
481.41	16072.46
481.61	16142.09
481.82	16185.10
482.03	16213.77
482.23	16232.20
482.44	16590.59
482.65	16572.16
482.85	16910.08
483.06	16713.47
483.27	16824.06
483.47	17172.22
483.68	17035.00
483.89	17096.44
484.09	17100.54
484.30	17170.17
484.51	17354.49
484.71	17553.14
484.92	17557.24
485.13	17800.94
485.33	17809.14
485.54	17833.71
485.75	18126.57
485.95	18134.76
486.16	18136.81
486.37	18136.81
486.57	18372.33
486.78	18427.62
486.98	18345.70
487.19	18681.57
487.40	18691.81
487.60	19246.81
487.81	19013.34
488.02	19117.79
488.22	18765.54
488.43	19435.22
488.64	19226.33
488.84	19427.03
489.05	19517.14
489.25	19257.05
489.46	19668.69
489.67	19769.04
489.87	19875.54
490.08	19844.82
490.29	20102.86
490.49	20227.79
490.70	20412.10
490.90	20641.48
491.11	20342.47
491.32	20485.83
491.52	20778.69
491.73	20731.59
491.94	20698.82
492.14	20747.97
492.35	21092.03
492.55	21124.80
492.76	21139.13
492.97	21214.91
493.17	21161.66
493.38	21462.71
493.58	21520.06
493.79	21565.11
494.00	21569.21
494.20	21966.51
494.41	21747.38
494.61	21925.55
494.82	22134.45
495.02	22005.42
495.23	22083.25
495.44	22247.08
495.64	22466.22
495.85	22476.46
496.05	22556.33
496.26	22589.10
496.47	22800.04
496.67	22613.67
496.88	23213.73
497.08	22808.23
497.29	23160.48
497.49	23150.24
497.70	23211.68
497.91	23185.05
498.11	23303.84
498.32	23357.08
498.52	23717.53
498.73	23924.37
498.93	23858.84
499.14	23916.18
499.34	23871.12
499.55	23924.37
499.76	23967.38
499.96	24047.25
500.17	24237.71
500.37	24379.02
500.58	24376.97
500.78	24768.13
500.99	24323.72
501.19	24673.93
501.40	24387.21
501.60	24510.09
501.81	24893.06
502.02	24669.83
502.22	24716.93
502.43	24891.01
502.63	25247.36
502.84	25128.58
503.04	25134.72
503.25	25058.95
503.45	25439.87
503.66	25532.03
503.86	25562.75
504.07	25595.51
504.27	25523.83
504.48	25773.69
504.68	25505.40
504.89	26015.35
505.09	26046.07
505.30	26072.69
505.50	26209.90
505.71	26050.16
505.91	26289.77
506.12	26244.72
506.32	26084.98
506.53	26287.73
506.73	26461.80
506.94	26547.82
507.14	26250.86
507.35	26590.83
507.55	26678.89
507.76	26924.65
507.96	26756.71
508.17	26955.36
508.37	26791.53
508.58	27201.12
508.78	27201.12
508.99	27287.14
509.19	27299.42
509.40	27262.56
509.60	27328.10
509.81	27154.02
510.01	27213.41
510.22	27352.67
510.42	27543.13
510.63	27694.68
510.83	27491.93
511.04	27481.69
511.24	27661.91
511.44	27737.69
511.65	27835.99
511.85	28048.98
512.06	27870.81
512.26	28114.52
512.47	28350.03
512.67	28124.75
512.88	28094.04
513.08	28214.87
513.29	28317.26
513.49	28245.58
513.69	28130.90
513.90	28202.58
514.10	28622.41
514.31	28528.20
514.51	28528.20
514.72	28593.74
514.92	28585.55
515.13	28868.17
515.33	28911.17
515.53	28939.85
515.74	28958.28
515.94	29070.92
516.15	28749.39
516.35	28911.17
516.56	29062.72
516.76	29109.83
516.96	29093.44
517.17	29158.98
517.37	29513.28
517.58	29513.28
517.78	29611.58
517.99	30199.35
518.19	29992.50
518.39	29736.51
518.60	30156.34
518.80	29974.07
519.01	29759.03
519.21	30072.37
519.41	30131.76
519.62	29955.64
519.82	30113.33
520.03	30291.51
520.23	30416.43
520.43	30162.48
520.64	30529.07
520.84	30932.52
521.05	30625.32
521.25	30918.18
521.45	30754.35
521.66	30928.42
521.86	30776.87
522.07	31102.50
522.27	31118.89
522.47	31016.49
522.68	31041.06
522.88	31082.02
523.08	31503.90
523.29	31354.40
523.49	31446.56
523.70	31651.36
523.90	31911.45
524.10	31786.52
524.31	31911.45
524.51	31526.43
524.71	32030.23
524.92	31997.46
525.12	32210.45
525.33	32157.21
525.53	32474.64
525.73	32366.10
525.94	32880.14
526.14	32536.08
526.34	32335.38
526.55	32771.60
526.75	33101.32
526.95	33117.70
527.16	32910.86
527.36	33027.59
527.56	33054.22
527.77	33609.22
527.97	33332.74
528.17	33420.80
528.38	33854.97
528.58	33558.02
528.78	33906.17
528.99	33357.32
529.19	33873.40
529.39	33977.85
529.60	34299.38
529.80	33908.22
530.00	34106.87
530.21	34172.41
530.41	34307.57
530.61	34838.00
530.82	34326.00
531.02	34567.66
531.22	34606.58
531.43	34430.45
531.63	35173.86
531.83	35380.71
532.04	35605.98
532.24	35010.03
532.44	35794.40
532.64	35745.25
532.85	35546.59
533.05	35861.98
533.25	35567.07
533.46	35204.58
533.66	36359.64
533.86	35919.32
534.07	35620.32
534.27	35954.14
534.47	36464.08
534.67	36320.73
534.88	36439.51
535.08	36396.50
535.28	36582.87
535.49	36754.90
535.69	36949.45
535.89	36853.20
536.09	37250.50
536.30	37242.31
536.50	37244.36
536.70	37273.03
536.91	37254.60
537.11	37772.74
537.31	37764.54
537.51	37688.77
537.72	38004.16
537.92	37899.71
538.12	38278.58
538.32	38258.10
538.53	38360.50
538.73	38335.93
538.93	38331.83
539.13	38335.93
539.34	38436.28
539.54	38512.05
539.74	38778.29
539.94	38983.09
540.15	38561.20
540.35	39075.24
540.55	38929.84
540.75	39048.62
540.96	39181.74
541.16	39015.85
541.36	39165.35
541.56	39308.71
541.77	39755.17
541.97	39548.32
542.17	39869.86
542.37	39814.56
542.58	39515.56
542.78	40007.07
542.98	40156.57
543.18	40172.96
543.38	40293.79
543.59	40101.28
543.79	40322.46
543.99	40123.80
544.19	40275.35
544.40	40099.23
544.60	40684.95
544.80	40639.89
545.00	40654.23
545.20	40852.88
545.41	40760.72
545.61	40811.92
545.81	40955.28
546.01	41194.89
546.21	41219.47
546.42	41176.46
546.62	41209.23
546.82	41102.73
547.02	41117.07
547.22	41403.78
547.43	41416.07
547.63	41325.96
547.83	41561.48
548.03	41448.84
548.23	41737.60
548.44	41508.23
548.64	41741.70
548.84	41141.64
549.04	41745.80
549.24	41919.87
549.45	42546.55
549.65	42114.43
549.85	41622.92
550.05	42245.50
550.25	42044.80
550.45	42558.84
550.66	42421.62
550.86	42149.24
551.06	42814.83
551.26	42491.26
551.46	42595.70
551.66	42474.87
551.87	42356.09
552.07	42474.87
552.27	42564.98
552.47	42720.63
552.67	42939.76
552.87	42771.83
553.07	43263.34
553.28	43201.90
553.48	43214.19
553.68	43267.44
553.88	43539.82
554.08	43488.62
554.28	43117.93
554.48	43230.57
554.69	43214.19
554.89	43539.82
555.09	43394.41
555.29	43115.89
555.49	43548.01
555.69	43652.45
555.89	43763.04
556.10	43885.92
556.30	43996.51
556.50	43410.79
556.70	43806.05
556.90	43785.57
557.10	43959.65
557.30	43541.86
557.50	44109.15
557.70	44123.49
557.91	44420.44
558.11	44191.07
558.31	44156.25
558.51	43726.18
558.71	44295.52
558.91	44545.37
559.11	44658.01
559.31	44383.58
559.51	44402.01
559.72	44240.22
559.92	44801.36
560.12	44664.15
560.32	44692.82
560.52	44731.73
560.72	44895.57
560.92	44838.23
561.12	44696.92
561.32	44877.14
561.52	44741.97
561.72	44989.78
561.93	44735.83
562.13	45348.17
562.33	44852.56
562.53	45319.50
562.73	44715.35
562.93	44948.82
563.13	45442.38
563.33	44852.56
563.53	45163.85
563.73	45086.03
563.93	45378.89
564.13	45753.67
564.33	45393.23
564.53	45184.33
564.74	45272.40
564.94	45239.63
565.14	45462.86
565.34	45368.65
565.54	45684.04
565.74	45745.48
565.94	45925.70
566.14	45587.78
566.34	45704.52
566.54	46425.40
566.74	45542.73
566.94	46050.63
567.14	46175.55
567.34	46112.06
567.54	46241.09
567.74	45755.72
567.94	46118.21
568.14	46247.23
568.34	46445.88
568.54	46263.61
568.74	46572.86
568.94	46142.78
569.14	46730.55
569.34	46423.36
569.54	46560.57
569.75	46284.09
569.95	46869.81
570.15	47134.00
570.35	46947.64
570.55	46335.29
570.75	46513.47
570.95	46742.84
571.15	46761.27
571.35	46783.80
571.55	47496.49
571.75	46898.48
571.95	46480.70
572.15	46933.30
572.35	47271.21
572.55	47314.22
572.75	47334.70
572.95	46947.64
573.15	47471.92
573.35	46945.59
573.55	47150.38
573.75	47283.50
573.95	47410.48
574.15	47224.11
574.35	47670.57
574.55	47033.65
574.75	47308.08
574.95	47627.56
575.15	47645.99
575.34	47658.28
575.54	47830.31
575.74	47985.96
575.94	47846.69
576.14	47514.92
576.34	48563.48
576.54	48123.17
576.74	48155.94
576.94	47734.06
577.14	48252.19
577.34	48577.82
577.54	48110.88
577.74	48004.39
577.94	47666.47
578.14	48420.13
578.34	48776.47
578.54	48057.63
578.74	48184.61
578.94	49059.09
579.14	48162.08
579.34	48657.69
579.54	48559.39
579.74	48936.21
579.94	48755.99
580.13	48981.27
580.33	48764.18
580.53	49112.34
580.73	49118.48
580.93	49274.13
581.13	49233.17
581.33	49179.92
581.53	49456.40
581.73	49212.69
581.93	49769.74
582.13	49415.44
582.33	49675.53
582.53	49431.82
582.73	49321.23
582.92	49409.29
583.12	49865.99
583.32	49827.08
583.52	49480.97
583.72	49945.86
583.92	49808.65
584.12	49941.77
584.32	50363.65
584.52	49915.14
584.72	50355.46
584.92	50173.19
585.11	50932.98
585.31	50273.54
585.51	50818.30
585.71	50275.58
585.91	51008.76
586.11	50369.79
586.31	50767.10
586.51	50515.20
586.71	50715.90
586.91	50789.62
587.10	50883.83
587.30	51006.71
587.50	51129.59
587.70	50937.08
587.90	50918.65
588.10	50830.58
588.30	50920.70
588.50	51330.29
588.69	51762.41
588.89	51199.22
589.09	51021.05
589.29	51471.60
589.49	51399.92
589.69	50916.60
589.89	51471.60
590.08	51520.75
590.28	51465.45
590.48	51719.40
590.68	51729.64
590.88	51719.40
591.08	51614.96
591.28	51526.89
591.47	52061.41
591.67	52016.36
591.87	51838.18
592.07	51690.73
592.27	52176.10
592.47	52507.87
592.67	52522.21
592.86	52182.24
593.06	52331.75
593.26	51973.35
593.46	52258.02
593.66	52536.54
593.86	52430.05
594.05	52581.60
594.25	52649.18
594.45	52428.00
594.65	52376.80
594.85	52077.80
595.05	53007.58
595.24	52503.77
595.44	52546.78
595.64	53048.53
595.84	52532.45
596.04	52882.65
596.23	52784.35
596.43	53265.62
596.63	52720.86
596.83	52794.59
597.03	53220.56
597.22	53912.78
597.42	53247.19
597.62	53591.25
597.82	53222.61
598.02	53587.15
598.21	53765.32
598.41	53165.27
598.61	53581.01
598.81	53753.04
599.01	54099.14
599.20	53449.94
599.40	53521.62
599.60	54076.61
599.80	53957.83
600.00	53888.20
600.19	53884.11
600.39	53849.29
600.59	54334.66
600.79	54439.11
600.98	54367.43
601.18	54398.15
601.38	54742.20
601.58	54381.76
601.78	54318.28
601.97	54076.61
602.17	54803.64
602.37	54717.63
602.57	54691.01
602.76	54838.46
602.96	54133.96
603.16	55106.74
603.36	54944.95
603.55	55342.26
603.75	54877.37
603.95	55542.96
604.15	55135.41
604.34	55049.40
604.54	55317.68
604.74	55352.50
604.94	55069.88
605.13	55317.68
605.33	55436.47
605.53	55108.79
605.73	55424.18
605.92	55250.10
606.12	55635.12
606.32	55940.27
606.52	55663.79
606.71	55612.59
606.91	55973.03
607.11	55731.37
607.30	55891.12
607.50	55751.85
607.70	55932.07
607.90	55903.40
608.09	55854.25
608.29	56007.85
608.49	56093.86
608.68	56138.92
608.88	56013.99
609.08	56149.16
609.28	56245.41
609.47	56319.14
609.67	56341.67
609.87	56239.27
610.06	56366.24
610.26	56300.71
610.46	56784.03
610.66	56370.34
610.85	56769.69
611.05	56325.28
611.25	56759.45
611.44	56163.50
611.64	56704.16
611.84	56511.65
612.03	56380.58
612.23	56712.35
612.43	56566.94
612.62	56308.90
612.82	57040.03
613.02	56902.81
613.21	56718.49
613.41	56186.02
613.61	56546.47
613.80	56235.17
614.00	56671.39
614.20	56507.55
614.39	56655.01
614.59	56417.44
614.79	56454.31
614.98	56568.99
615.18	56859.80
615.38	57078.94
615.57	56505.51
615.77	56956.06
615.97	57287.83
616.16	56997.02
616.36	57185.43
616.56	56489.12
616.75	57212.06
616.95	56818.84
617.15	57023.64
617.34	56757.41
617.54	57042.07
617.74	57617.55
617.93	57052.31
618.13	56579.23
618.32	56781.98
618.52	56941.72
618.72	57175.19
618.91	56732.83
619.11	56403.11
619.31	56923.29
619.50	56945.82
619.70	56730.78
619.90	57023.64
620.09	56896.67
620.29	57400.47
620.48	56695.97
620.68	57390.23
620.88	56753.31
621.07	56747.17
621.27	56972.44
621.46	56669.34
621.66	56763.55
621.86	56810.65
622.05	57044.12
622.25	57414.80
622.44	56956.06
622.64	56415.40
622.84	56812.70
623.03	56525.99
623.23	57185.43
623.42	56865.95
623.62	56620.19
623.82	57171.10
624.01	57062.55
624.21	56843.42
624.40	56890.52
624.60	56921.24
624.80	56849.56
624.99	56734.88
625.19	56321.19
625.38	56845.47
625.58	56677.54
625.77	57103.51
625.97	56929.44
626.17	56616.10
626.36	56521.89
626.56	56681.63
626.75	56446.11
626.95	57468.05
627.14	56669.34
627.34	57070.75
627.54	56532.13
627.73	56982.68
627.93	56908.96
628.12	56399.01
628.32	56745.12
628.51	56804.51
628.71	56638.62
628.90	56968.35
629.10	56716.45
629.30	56937.63
629.49	56960.15
629.69	56827.04
629.88	57033.88
630.08	57128.09
630.27	57169.05
630.47	57048.22
630.66	56513.70
630.86	57517.20
631.05	56925.34
631.25	57027.74
631.44	57152.66
631.64	57046.17
631.84	57199.77
632.03	57599.12
632.23	57232.53
632.42	57255.06
632.62	57521.30
632.81	56808.61
633.01	57228.44
633.20	57187.48
633.40	57300.12
633.59	57300.12
633.79	57021.59
633.98	57382.04
634.18	57578.64
634.37	57359.51
634.57	57152.66
634.76	58021.00
634.96	57253.01
635.15	57445.52
635.35	57382.04
635.54	56784.03
635.74	57595.03
635.93	56949.92
636.13	57640.08
636.32	57130.14
636.52	56857.76
636.71	57134.23
636.91	57054.36
637.10	57300.12
637.30	56999.07
637.49	56908.96
637.69	57468.05
637.88	57349.27
638.08	57291.93
638.27	57560.21
638.46	57842.83
638.66	56992.92
638.85	57488.53
639.05	57552.02
639.24	57973.90
639.44	56923.29
639.63	57316.50
639.83	57484.43
640.02	57635.98
640.22	57681.04
640.41	57570.45
640.61	57496.72
640.80	57377.94
640.99	57345.17
641.19	57656.46
641.38	57625.74
641.58	57842.83
641.77	57474.20
641.97	57152.66
642.16	57615.50
642.36	57355.41
642.55	58365.06
642.74	57158.81
642.94	58119.31
643.13	57988.24
643.33	58309.77
643.52	57844.88
643.72	58025.10
643.91	57703.57
644.10	58057.87
644.30	57496.72
644.49	57957.52
644.69	58348.68
644.88	57971.85
645.08	57656.46
645.27	58027.15
645.46	57357.46
645.66	57889.93
645.85	58078.35
646.05	58023.05
646.24	58285.19
646.43	57963.66
646.63	58176.65
646.82	58188.94
647.02	58238.09
647.21	58107.02
647.40	58225.80
647.60	58225.80
647.79	58328.20
647.99	58164.36
648.18	58055.82
648.37	59319.41
648.57	58135.69
648.76	58834.05
648.96	58813.57
649.15	59065.47
649.34	58709.12
649.54	58698.88
649.73	58684.54
649.92	58479.75
650.12	58365.06
650.31	58567.81
650.51	58242.18
650.70	58414.21
650.89	58643.59
651.09	59118.71
651.28	58848.38
651.47	59047.04
651.67	58750.08
651.86	58858.62
652.06	57887.88
652.25	59196.54
652.44	58696.83
652.64	58471.56
652.83	58619.01
653.02	58457.22
653.22	58537.09
653.41	58180.74
653.60	58170.50
653.80	58795.13
653.99	59022.46
654.18	58479.75
654.38	58387.59
654.57	58651.78
654.76	58555.52
654.96	58440.84
655.15	58477.70
655.34	58594.43
655.54	58498.18
655.73	58743.94
655.92	58541.19
656.12	58860.67
656.31	58524.80
656.50	58846.33
656.70	58315.91
656.89	58307.72
657.08	58619.01
657.28	58791.04
657.47	58770.56
657.66	58745.98
657.86	58516.61
658.05	58967.16
658.24	58598.53
658.43	58389.64
658.63	59044.99
658.82	58770.56
659.01	59114.62
659.21	58621.06
659.40	59102.33
659.59	58786.94
659.79	58920.06
659.98	58913.92
660.17	59065.47
660.36	58852.48
660.56	58840.19
660.75	59124.86
660.94	58713.22
661.14	58709.12
661.33	59090.04
661.52	58463.36
661.71	59239.54
661.91	58102.92
662.10	58727.55
662.29	59348.09
662.49	59407.48
662.68	58893.44
662.87	58938.49
663.06	58989.69
663.26	59030.65
663.45	59569.27
663.64	58930.30
663.83	59380.85
664.03	59120.76
664.22	59210.87
664.41	59016.32
664.60	58707.07
664.80	59061.37
664.99	58694.78
665.18	58872.96
665.37	58840.19
665.57	59280.50
665.76	58702.98
665.95	58684.54
666.14	58860.67
666.34	58733.70
666.53	59044.99
666.72	58877.05
666.91	59124.86
667.11	59290.74
667.30	59040.89
667.49	59028.60
667.68	58946.68
667.87	58903.68
668.07	59315.32
668.26	58817.66
668.45	59044.99
668.64	58825.85
668.84	59524.21
669.03	59061.37
669.22	59047.04
669.41	58891.39
669.60	58999.93
669.80	58985.60
669.99	59214.97
670.18	59317.37
670.37	58950.78
670.57	59563.12
670.76	58655.87
670.95	59278.46
671.14	58958.97
671.33	58596.48
671.53	59251.83
671.72	59135.10
671.91	58702.98
672.10	58637.44
672.29	59202.68
672.48	58823.81
672.68	59141.24
672.87	58727.55
673.06	58920.06
673.25	58743.94
673.44	58813.57
673.64	58741.89
673.83	58948.73
674.02	59049.08
674.21	58662.02
674.40	59221.11
674.59	58770.56
674.79	58913.92
674.98	58690.69
675.17	59114.62
675.36	58524.80
675.55	59485.30
675.74	58872.96
675.94	58582.15
676.13	59290.74
676.32	58934.40
676.51	59087.99
676.70	58999.93
676.89	58530.95
677.08	59139.19
677.28	58571.91
677.47	59268.22
677.66	58885.25
677.85	58741.89
678.04	58981.50
678.23	59022.46
678.42	58799.23
678.62	58823.81
678.81	58922.11
679.00	58467.46
679.19	59079.80
679.38	59233.40
679.57	58795.13
679.76	58754.18
679.96	58885.25
680.15	58512.52
680.34	58555.52
680.53	58524.80
680.72	58856.57
680.91	59241.59
681.10	58324.10
681.29	58379.40
681.48	58684.54
681.68	58647.68
681.87	58614.91
682.06	58225.80
682.25	57980.04
682.44	58662.02
682.63	58741.89
682.82	58250.38
683.01	58309.77
683.20	58240.14
683.39	58252.42
683.59	57959.56
683.78	57951.37
683.97	58121.35
684.16	58428.55
684.35	58061.96
684.54	58121.35
684.73	58086.54
684.92	58180.74
685.11	58053.77
685.30	57916.56
685.49	58602.63
685.69	57965.71
685.88	58166.41
686.07	57969.80
686.26	57867.40
686.45	57971.85
686.64	58315.91
686.83	57771.15
687.02	58004.62
687.21	58061.96
687.40	58266.76
687.59	57934.99
687.78	57533.59
687.97	58233.99
688.16	58008.71
688.35	57498.77
688.54	57873.55
688.74	58029.19
688.93	57582.74
689.12	57834.64
689.31	57926.80
689.50	58076.30
689.69	57377.94
689.88	57242.77
690.07	57900.17
690.26	58004.62
690.45	57785.49
690.64	57607.31
690.83	57681.04
691.02	57705.62
691.21	57402.52
691.40	57353.36
691.59	57707.66
691.78	57314.45
691.97	57961.61
692.16	57242.77
692.35	57781.39
692.54	57013.40
692.73	57509.01
692.92	57644.18
693.11	57238.68
693.30	56997.02
693.49	57529.49
693.68	57316.50
693.87	57173.14
694.06	56925.34
694.25	56878.24
694.44	57023.64
694.63	57035.93
694.82	57275.54
695.01	57033.88
695.20	56511.65
695.39	56728.73
695.58	57103.51
695.77	56718.49
695.96	56769.69
696.15	56695.97
696.34	56530.08
696.53	56652.96
696.72	56976.54
696.91	56425.64
697.10	56751.26
697.29	56591.52
697.48	56788.13
697.67	56612.00
697.86	56071.34
698.05	55698.61
698.24	56304.80
698.43	55960.75
698.62	56607.90
698.81	55993.51
699.00	56683.68
699.19	56181.93
699.38	56100.01
699.57	55997.61
699.76	57138.33
699.95	56036.52
700.14	55723.18
700.32	56353.96
700.51	55917.74
700.70	56241.32
700.89	56439.97
701.08	56487.07
701.27	55700.65
701.46	56521.89
701.65	55342.26
701.84	56233.13
702.03	56229.03
702.22	55671.98
702.41	56087.72
702.60	55735.47
702.79	55620.78
702.98	55932.07
703.17	55647.41
703.35	55753.90
703.54	55352.50
703.73	56024.23
703.92	55735.47
704.11	55801.00
704.30	55467.19
704.49	55563.44
704.68	55499.95
704.87	55225.53
705.06	55325.88
705.25	55514.29
705.43	55366.84
705.62	55360.69
705.81	55399.60
706.00	55213.24
706.19	54770.88
706.38	55207.09
706.57	55309.49
706.76	55358.64
706.95	55305.40
707.14	54789.31
707.32	55112.89
707.51	55092.41
707.70	55313.59
707.89	54779.07
708.08	54758.59
708.27	54934.71
708.46	55227.57
708.65	55198.90
708.84	54695.10
709.02	54803.64
709.21	55088.31
709.40	55153.85
709.59	55276.72
709.78	54768.83
709.97	54944.95
710.16	54955.19
710.34	54760.64
710.53	54713.53
710.72	54101.19
710.91	54379.71
711.10	54580.42
711.29	54533.31
711.48	54416.58
711.66	54619.33
711.85	54181.06
712.04	54713.53
712.23	54588.61
712.42	54441.15
712.61	53796.04
712.80	54121.67
712.98	54133.96
713.17	54158.53
713.36	54494.40
713.55	53898.44
713.74	54209.73
713.93	54136.01
714.11	54191.30
714.30	53773.52
714.49	54093.00
714.68	54486.21
714.87	53834.95
715.06	54189.25
715.24	53847.24
715.43	53724.36
715.62	53333.20
715.81	53327.06
716.00	53564.62
716.18	53609.68
716.37	52860.12
716.56	53218.52
716.75	53947.59
716.94	53359.83
717.12	53308.63
717.31	53732.56
717.50	53349.59
717.69	53359.83
717.88	52899.03
718.06	53519.57
718.25	53570.77
718.44	52935.90
718.63	52884.70
718.82	52618.46
719.00	52499.68
719.19	52770.01
719.38	52647.13
719.57	52661.47
719.76	52577.50
719.94	52292.83
720.13	52286.69
720.32	52602.08
720.51	52428.00
720.69	52452.58
720.88	52415.71
721.07	52673.76
721.26	52098.28
721.44	52176.10
721.63	52182.24
721.82	51414.26
722.01	51799.27
722.20	52106.47
722.38	51522.80
722.57	51643.63
722.76	52096.23
722.95	51367.15
723.13	51328.24
723.32	50853.11
723.51	51162.36
723.70	51291.38
723.88	51074.29
724.07	50889.98
724.26	51414.26
724.44	50701.56
724.63	51201.27
724.82	51295.47
725.01	51025.14
725.19	50822.39
725.38	51016.95
725.57	50742.52
725.76	51475.69
725.94	50560.25
726.13	50869.50
726.32	50777.34
726.51	50554.11
726.69	50789.62
726.88	51092.72
727.07	50922.74
727.25	50797.82
727.44	50656.51
727.63	50449.66
727.82	50806.01
728.00	50838.78
728.19	50578.68
728.38	50713.85
728.56	50232.58
728.75	51092.72
728.94	50228.48
729.12	50869.50
729.31	50611.45
729.50	50646.27
729.69	50777.34
729.87	50982.13
730.06	50189.57
730.25	50527.48
730.43	50896.12
730.62	50377.98
730.81	50502.91
730.99	50916.60
731.18	50267.39
731.37	50377.98
731.55	50705.66
731.74	50550.01
731.93	50730.23
732.11	50586.88
732.30	50435.33
732.49	50451.71
732.67	50822.39
732.86	50388.22
733.05	50740.47
733.23	50101.51
733.42	50445.57
733.61	49685.77
733.79	50312.45
733.98	50488.57
734.17	50375.94
734.35	50173.19
734.54	50085.12
734.73	50382.08
734.91	50341.12
735.10	50287.87
735.29	50380.03
735.47	49726.73
735.66	50406.65
735.84	50019.59
736.03	49904.90
736.22	50328.83
736.40	49743.11
736.59	50068.74
736.78	49995.01
736.96	50195.71
737.15	49878.28
737.33	49693.96
737.52	49779.98
737.71	49812.74
737.89	49562.89
738.08	49704.20
738.27	49298.70
738.45	50214.15
738.64	49775.88
738.82	49732.87
739.01	49532.17
739.20	49390.86
739.38	49132.82
739.57	49714.44
739.75	49480.97
739.94	49362.19
740.13	49351.95
740.31	49812.74
740.50	49562.89
740.68	49657.10
740.87	49804.55
741.06	49276.18
741.24	49167.63
741.43	48833.81
741.61	49190.16
741.80	49173.78
741.99	48801.05
742.17	48743.70
742.36	48862.49
742.54	48651.55
742.73	48899.35
742.91	49149.20
743.10	48946.45
743.29	49329.42
743.47	49526.03
743.66	48930.07
743.84	48858.39
744.03	49042.71
744.21	48534.81
744.40	49425.68
744.59	48534.81
744.77	48661.79
744.96	49093.91
745.14	48751.90
745.33	48921.88
745.51	48473.37
745.70	48694.55
745.88	48438.56
746.07	48190.75
746.26	48145.70
746.44	48434.46
746.63	48256.29
746.81	48346.40
747.00	48305.44
747.18	48620.83
747.37	47904.04
747.55	47840.55
747.74	48878.87
747.92	47861.03
748.11	48391.45
748.29	48182.56
748.48	48170.27
748.66	48047.39
748.85	48172.32
749.03	47932.71
749.22	48067.87
749.41	47863.08
749.59	48104.74
749.78	47758.63
749.96	47568.17
750.15	47924.52
750.33	47809.83
750.52	47691.05
750.70	47516.97
750.89	47605.03
751.07	47922.47
751.26	47545.64
751.44	47314.22
751.63	47351.09
751.81	47113.52
752.00	47598.89
752.18	48039.20
752.37	47676.71
752.55	47090.99
752.74	47201.58
752.92	47179.06
753.10	46808.37
753.29	46953.78
753.47	46773.56
753.66	46394.68
753.84	46843.19
754.03	46566.71
754.21	46851.38
754.40	47357.23
754.58	46771.51
754.77	47342.89
754.95	46609.72
755.14	46652.73
755.32	46644.54
755.51	46636.34
755.69	46544.19
755.88	46155.07
756.06	46478.65
756.24	46527.80
756.43	46818.61
756.61	46421.31
756.80	46228.80
756.98	45794.63
757.17	46351.68
757.35	46441.79
757.54	46112.06
757.72	46478.65
757.90	46132.54
758.09	46095.68
758.27	46077.25
758.46	45714.76
758.64	45954.37
758.83	46196.03
759.01	45714.76
759.19	45899.08
759.38	46044.48
759.56	46128.45
759.75	45792.58
759.93	45638.98
760.12	45159.76
760.30	45903.17
760.48	45696.33
760.67	45585.74
760.85	45397.32
761.04	45667.66
761.22	45387.08
761.40	45258.06
761.59	45444.43
761.77	45204.81
761.96	45442.38
762.14	45094.22
762.32	44954.96
762.51	45499.72
762.69	45421.90
762.88	45288.78
763.06	45397.32
763.24	45186.38
763.43	45421.90
763.61	44914.00
763.80	45077.84
763.98	44967.25
764.16	44938.58
764.35	44561.75
764.53	44447.07
764.72	44547.42
764.90	44565.85
765.08	44727.64
765.27	44971.35
765.45	44432.73
765.63	44008.80
765.82	44827.99
766.00	44260.70
766.18	44334.43
766.37	44451.16
766.55	44344.67
766.74	43969.89
766.92	44107.10
767.10	43924.83
767.29	43738.47
767.47	44256.60
767.65	44090.72
767.84	43736.42
768.02	43939.17
768.20	43562.34
768.39	44119.39
768.57	44203.36
768.75	43316.59
768.94	43902.31
769.12	43623.78
769.30	43390.31
769.49	43351.40
769.67	43509.10
769.85	43103.60
770.04	43320.68
770.22	43187.56
770.40	43076.97
770.59	42902.90
770.77	43128.17
770.95	43423.08
771.14	42780.02
771.32	42925.42
771.50	42499.45
771.69	42745.20
771.87	42792.31
772.05	42925.42
772.24	42429.82
772.42	42878.32
772.60	42321.27
772.78	42311.03
772.97	42792.31
773.15	43021.68
773.33	42526.07
773.52	42128.77
773.70	42976.62
773.88	42532.22
774.07	42464.63
774.25	42663.28
774.43	42655.09
774.61	42519.93
774.80	42685.81
774.98	42915.19
775.16	42685.81
775.34	42917.23
775.53	42728.82
775.71	42833.27
775.89	42368.38
776.08	42755.44
776.26	42532.22
776.44	42569.08
776.62	42403.19
776.81	42734.96
776.99	42548.60
777.17	42306.94
777.35	43007.34
777.54	43083.12
777.72	42612.09
777.90	42530.17
778.08	43011.44
778.27	42683.76
778.45	43029.87
778.63	42900.85
778.81	42571.13
779.00	43261.29
779.18	42739.06
779.36	43064.69
779.54	42536.31
779.73	42769.78
779.91	43138.41
780.09	43222.38
780.27	43425.13
780.46	43109.74
780.64	43332.97
780.82	43324.78
781.00	43054.45
781.19	43359.59
781.37	43591.01
781.55	43275.63
781.73	43560.30
781.91	43173.23
782.10	43588.97
782.28	43689.32
782.46	43345.26
782.64	43849.06
782.82	43150.70
783.01	43689.32
783.19	43740.52
783.37	43394.41
783.55	43246.96
783.74	43650.41
783.92	42993.01
784.10	43900.26
784.28	43357.55
784.46	43548.01
784.64	43373.93
784.83	43648.36
785.01	43662.69
785.19	43685.22
785.37	43332.97
785.55	43437.42
785.74	42970.48
785.92	43001.20
786.10	43132.27
786.28	43033.97
786.46	43275.63
786.64	43048.30
786.83	43310.44
787.01	43162.99
787.19	43576.68
787.37	43365.74
787.55	42954.10
787.74	43177.33
787.92	42892.66
788.10	42648.95
788.28	42708.34
788.46	42931.57
788.64	42460.54
788.82	42923.38
789.01	42452.34
789.19	42800.50
789.37	42194.30
789.55	42464.63
789.73	42659.19
789.91	42249.60
790.09	42026.37
790.28	42126.72
790.46	42292.60
790.64	42079.61
790.82	42331.51
791.00	41608.58
791.18	42046.85
791.36	41833.86
791.55	41891.20
791.73	41702.79
791.91	41084.30
792.09	41706.88
792.27	41203.08
792.45	41549.19
792.63	41639.30
792.81	41469.32
793.00	41399.69
793.18	40791.44
793.36	41182.60
793.54	40986.00
793.72	40760.72
793.90	41155.98
794.08	40873.36
794.26	40996.24
794.44	40189.34
794.62	40424.86
794.81	40752.53
794.99	40281.50
795.17	39957.92
795.35	40269.21
795.53	40025.50
795.71	40027.55
795.89	39777.70
796.07	39556.52
796.25	39642.53
796.43	39753.12
796.61	39538.08
796.80	39669.15
796.98	39646.63
797.16	39482.79
797.34	39484.84
797.52	38966.70
797.70	39910.82
797.88	39118.25
798.06	38864.30
798.24	39310.76
798.42	38882.73
798.60	38696.37
798.78	38573.49
798.96	38782.38
799.14	38139.32
799.32	38657.46
799.51	38620.59
799.69	38960.56
799.87	38258.10
800.05	38139.32
800.23	38122.94
800.41	37766.59
800.59	37668.29
800.77	37930.43
800.95	37549.51
801.13	37725.63
801.31	37488.07
801.49	37311.94
801.67	37117.39
801.85	37594.56
802.03	37252.55
802.21	37301.70
802.39	36838.86
802.57	37055.95
802.75	37049.80
802.93	36648.40
803.11	36595.15
803.29	36591.06
803.47	36638.16
803.65	36584.91
803.83	36619.73
804.01	36507.09
804.19	36093.40
804.37	36240.86
804.55	35886.56
804.73	36111.83
804.91	35952.09
805.09	35739.10
805.27	35808.73
805.45	35884.51
805.63	36038.11
805.81	35704.29
805.99	35939.80
806.17	35900.89
806.35	35423.72
806.53	35436.00
806.71	35411.43
806.89	35479.01
807.07	35145.19
807.25	35120.62
807.43	35120.62
807.61	35014.12
807.79	35151.34
807.97	34651.63
808.15	34838.00
808.33	34629.10
808.51	34364.92
808.69	34678.25
808.87	34188.79
809.05	34338.29
809.23	34450.93
809.41	34244.09
809.59	34043.38
809.77	34356.72
809.95	33949.18
810.13	34344.44
810.31	33834.49
810.49	33963.51
810.67	33885.69
810.84	33926.65
811.02	33791.48
811.20	33826.30
811.38	33549.82
811.56	33533.44
811.74	33443.33
811.92	33111.56
812.10	33168.90
812.28	33486.34
812.46	33347.08
812.64	33805.82
812.82	33037.83
813.00	32912.91
813.18	33261.06
813.36	32912.91
813.53	32984.58
813.71	32701.96
813.89	32224.79
814.07	32497.17
814.25	32790.03
814.43	32534.03
814.61	32339.47
814.79	32263.70
814.97	32085.53
815.15	32419.35
815.33	32142.87
815.50	32257.56
815.68	32200.21
815.86	32222.74
816.04	32118.29
816.22	31827.48
816.40	31546.91
816.58	31847.96
816.76	31643.17
816.94	31823.39
817.11	31725.08
817.29	31606.30
817.47	31512.10
817.65	31501.86
817.83	31815.19
818.01	31301.15
818.19	31190.56
818.37	31071.78
818.54	31073.83
818.72	30891.56
818.90	31010.34
819.08	30975.53
819.26	30834.22
819.44	30918.18
819.62	30791.21
819.80	30746.15
819.97	31106.60
820.15	30758.44
820.33	30334.51
820.51	30785.07
820.69	30436.91
820.87	30574.13
821.05	31036.97
821.22	30598.70
821.40	30744.11
821.58	30387.76
821.76	30076.47
821.94	30408.24
822.12	30117.43
822.29	30160.44
822.47	30127.67
822.65	30127.67
822.83	30254.64
823.01	29855.29
823.19	29771.32
823.36	29630.01
823.54	29675.07
823.72	30219.83
823.90	29879.86
824.08	29728.31
824.25	29660.73
824.43	29136.45
824.61	29363.78
824.79	29865.53
824.97	29457.98
825.15	29607.48
825.32	29206.08
825.50	29038.15
825.68	29240.90
825.86	29431.36
826.04	29431.36
826.21	29457.98
826.39	28984.90
826.57	28902.98
826.75	28771.91
826.93	28669.51
827.10	28907.08
827.28	29093.44
827.46	29109.83
827.64	28689.99
827.81	28612.17
827.99	28995.14
828.17	28444.24
828.35	28862.02
828.53	28767.82
828.70	28540.49
828.88	28644.94
829.06	28245.58
829.24	28522.06
829.41	28460.62
829.59	28563.02
829.77	28149.33
829.95	28368.46
830.12	28350.03
830.30	28526.16
830.48	28360.27
830.66	28106.32
830.84	28210.77
831.01	27852.38
831.19	28155.47
831.37	27913.81
831.55	28014.16
831.72	28149.33
831.90	27801.18
832.08	27958.87
832.25	27799.13
832.43	27883.09
832.61	27702.87
832.79	27416.16
832.96	28014.16
833.14	27641.43
833.32	28114.52
833.50	27698.78
833.67	27678.30
833.85	27788.89
834.03	27188.83
834.20	27438.69
834.38	27436.64
834.56	27676.25
834.74	27164.26
834.91	27160.16
835.09	27280.99
835.27	27309.66
835.44	27088.48
835.62	26998.37
835.80	27168.35
835.98	27209.31
836.15	26947.17
836.33	26730.09
836.51	27199.07
836.68	26756.71
836.86	26920.55
837.04	26728.04
837.21	26893.93
837.39	26715.75
837.57	26988.13
837.75	27002.47
837.92	26324.59
838.10	26535.53
838.28	26340.97
838.45	26170.99
838.63	26426.99
838.81	26513.00
838.98	26324.59
839.16	26388.08
839.34	26173.04
839.51	26461.80
839.69	25890.42
839.87	26246.77
840.04	26072.69
840.22	26420.84
840.40	26426.99
840.57	25994.87
840.75	26015.35
840.93	25693.82
841.10	25927.28
841.28	26214.00
841.46	26052.21
841.63	26222.19
841.81	26136.18
841.98	25880.18
842.16	26146.42
842.34	25976.44
842.51	25652.86
842.69	26175.09
842.87	25765.49
843.04	25962.10
843.22	25501.31
843.40	25611.90
843.57	25646.71
843.75	25663.10
843.92	25904.76
844.10	25613.95
844.28	25788.02
844.45	25669.24
844.63	25558.65
844.81	25366.14
844.98	25159.30
845.16	25273.98
845.33	25122.43
845.51	25282.17
845.69	25167.49
845.86	25017.99
846.04	24698.50
846.21	24860.29
846.39	25294.46
846.57	24684.17
846.74	25173.63
846.92	25077.38
847.09	25075.33
847.27	24786.57
847.45	25159.30
847.62	24903.30
847.80	24710.79
847.97	24764.04
848.15	24704.65
848.32	24516.23
848.50	24690.31
848.68	24592.01
848.85	24467.08
849.03	24364.68
849.20	24618.63
849.38	24436.36
849.56	24592.01
849.73	24037.01
849.91	24424.08
850.08	24604.30
850.26	23961.23
850.43	24043.15
850.61	24366.73
850.78	24311.44
850.96	24086.16
851.14	24209.04
851.31	24198.80
851.49	23946.90
851.66	24051.34
851.84	24196.75
852.01	24002.19
852.19	24004.24
852.36	23901.84
852.54	23801.49
852.71	24147.60
852.89	23588.50
853.07	23559.83
853.24	23565.98
853.42	23760.53
853.59	23883.41
853.77	23907.99
853.94	23672.47
854.12	23682.71
854.29	23488.15
854.47	23553.69
854.64	23701.14
854.82	23441.05
854.99	23744.15
855.17	23430.81
855.34	23418.52
855.52	23389.85
855.69	23574.17
855.87	22902.43
856.04	22994.59
856.22	23381.66
856.39	23209.63
856.57	23080.61
856.74	23305.88
856.92	23416.47
857.09	23168.67
857.27	23060.13
857.44	23697.05
857.62	23281.31
857.79	23342.75
857.97	23013.02
858.14	22965.92
858.32	23172.77
858.49	23039.65
858.67	23115.42
858.84	23017.12
859.02	22406.83
859.19	22480.55
859.37	22863.52
859.54	22537.90
859.72	22726.31
859.89	22793.89
860.06	22775.46
860.24	22382.25
860.41	22466.22
860.59	22365.87
860.76	22527.66
860.94	22380.20
861.11	22558.38
861.29	22453.93
861.46	22247.08
861.64	22128.30
861.81	22238.89
861.98	22148.78
862.16	21946.03
862.33	22161.07
862.51	22032.05
862.68	22732.45
862.86	22046.38
863.03	22175.41
863.21	22220.46
863.38	21937.84
863.55	21704.37
863.73	22058.67
863.90	21868.21
864.08	21735.09
864.25	21755.57
864.43	21886.64
864.60	21774.00
864.77	21741.24
864.95	21958.32
865.12	21636.79
865.30	21761.72
865.47	21595.83
865.64	21700.28
865.82	21767.86
865.99	21776.05
866.17	21294.78
866.34	21448.38
866.51	21284.54
866.69	21642.93
866.86	21518.01
867.04	21364.41
867.21	21415.61
867.38	21145.28
867.56	21223.10
867.73	21130.94
867.91	20971.20
868.08	21290.68
868.25	21208.76
868.43	21227.20
868.60	20635.33
868.78	20881.09
868.95	21126.85
869.12	20938.43
869.30	20782.79
869.47	21229.24
869.64	20633.29
869.82	20801.22
869.99	20678.34
870.16	20969.15
870.34	20516.55
870.51	20930.24
870.69	20696.77
870.86	20764.36
871.03	20387.53
871.21	20606.66
871.38	20559.56
871.55	20637.38
871.73	20125.39
871.90	20389.58
872.07	19986.13
872.25	19877.58
872.42	19971.79
872.59	20164.30
872.77	20088.53
872.94	20141.77
873.11	20016.85
873.29	20139.72
873.46	20094.67
873.63	20020.94
873.81	19863.25
873.98	19816.15
874.15	19693.27
874.33	19795.67
874.50	19685.08
874.67	19648.21
874.85	19685.08
875.02	19502.81
875.19	19480.28
875.37	19732.18
875.54	19523.29
875.71	19107.55
875.88	19443.42
876.06	19209.95
876.23	19285.72
876.40	19295.96
876.58	19197.66
876.75	18992.86
876.92	18999.01
877.10	19191.52
877.27	18835.17
877.44	18923.23
877.61	18917.09
877.79	18949.85
877.96	18865.89
878.13	18720.48
878.31	18718.43
878.48	18824.93
878.65	18710.24
878.82	18609.89
879.00	18917.09
879.17	18652.90
879.34	18704.10
879.51	18355.94
879.69	18376.42
879.86	18523.88
880.03	18431.72
880.21	18480.87
880.38	18263.79
880.55	18487.01
880.72	18181.87
880.90	18319.08
881.07	18243.31
881.24	18110.19
881.41	18208.49
881.59	18083.56
881.76	18222.83
881.93	17784.56
882.10	17829.62
882.28	18001.65
882.45	18280.17
882.62	18224.87
882.79	18005.74
882.96	17755.89
883.14	18056.94
883.31	18069.23
883.48	17927.92
883.65	18071.28
883.83	17981.17
884.00	17866.48
884.17	17780.46
884.34	17975.02
884.51	17757.94
884.69	17815.28
884.86	17870.58
885.03	17770.22
885.20	17469.17
885.38	17626.87
885.55	17743.60
885.72	17643.25
885.89	17383.16
886.06	17577.72
886.24	17501.94
886.41	17645.30
886.58	17448.69
886.75	17551.09
886.92	17460.98
887.10	17303.29
887.27	17198.84
887.44	17577.72
887.61	17643.25
887.78	17280.76
887.95	17291.00
888.13	17129.21
888.30	16996.09
888.47	17178.36
888.64	17325.82
888.81	17080.06
888.99	16809.73
889.16	16760.58
889.33	17084.16
889.50	16729.86
889.67	16977.66
889.84	16887.55
890.01	16840.45
890.19	16752.38
890.36	16781.06
890.53	16572.16
890.70	16643.84
890.87	16811.78
891.04	16561.92
891.22	16957.18
891.39	16752.38
891.56	16647.94
891.73	16568.07
891.90	16621.31
892.07	16338.69
892.24	16531.20
892.42	16305.93
892.59	16344.84
892.76	16539.40
892.93	16385.80
893.10	16363.27
893.27	16400.13
893.44	16230.15
893.61	16303.88
893.79	16455.43
893.96	16293.64
894.13	16283.40
894.30	16488.20
894.47	16269.06
894.64	16412.42
894.81	16170.76
894.98	16183.05
895.15	16244.49
895.33	16004.88
895.50	16031.50
895.67	16201.48
895.84	16283.40
896.01	16172.81
896.18	16140.04
896.35	16469.76
896.52	15816.46
896.69	15986.44
896.86	16133.90
897.04	16107.27
897.21	16146.19
897.38	16070.41
897.55	16221.96
897.72	16181.00
897.89	16000.78
898.06	16152.33
898.23	16135.95
898.40	16127.75
898.57	16076.55
898.74	16041.74
898.91	16004.88
899.08	16074.51
899.26	16047.88
899.43	16115.47
899.60	16064.27
899.77	16025.36
899.94	15945.48
900.11	15738.64
900.28	16011.02
900.45	15761.17
900.62	15984.40
900.79	15984.40
900.96	16150.28
901.13	15783.70
901.30	15882.00
901.47	15568.66
901.64	15822.61
901.81	15943.44
901.98	15658.77
902.15	15748.88
902.32	15705.87
902.49	15918.86
902.66	16027.40
902.83	15888.14
903.01	15945.48
903.18	15906.57
903.35	15722.26
903.52	15984.40
903.69	15853.33
903.86	15978.25
904.03	15863.57
904.20	15953.68
904.37	16027.40
904.54	15871.76
904.71	15712.02
904.88	15732.50
905.05	15820.56
905.22	16035.60
905.39	15685.39
905.56	15836.94
905.73	15554.32
905.90	15914.77
906.07	15752.98
906.24	15771.41
906.41	15740.69
906.58	15949.58
906.75	15666.96
906.92	15546.13
907.09	15664.91
907.26	15798.03
907.43	15333.14
907.60	15527.70
907.77	15929.10
907.93	15693.58
908.10	15683.34
908.27	16056.08
908.44	15531.80
908.61	15626.00
908.78	15669.01
908.95	15580.95
909.12	15761.17
909.29	15578.90
909.46	15793.94
909.63	15947.53
909.80	15709.97
909.97	15542.03
910.14	15535.89
910.31	15652.63
910.48	15628.05
910.65	15560.47
910.82	15664.91
910.99	15476.50
911.16	15394.58
911.33	15294.23
911.50	15482.64
911.66	15449.88
911.83	15570.71
912.00	15388.44
912.17	15132.44
912.34	15034.14
912.51	15245.08
912.68	15243.03
912.85	15193.88
913.02	15150.87
913.19	15132.44
913.36	15294.23
913.53	15034.14
913.70	15095.58
913.86	15419.16
914.03	15327.00
914.20	15097.63
914.37	15124.25
914.54	15001.37
914.71	14876.44
914.88	14696.22
915.05	14812.96
915.22	14602.02
915.39	14950.17
915.55	14800.67
915.72	14786.33
915.89	14749.47
916.06	14583.59
916.23	14675.74
916.40	14626.59
916.57	14380.84
916.74	14649.12
916.91	14507.81
917.07	14393.12
917.24	14542.63
917.41	14401.32
917.58	14462.76
917.75	14470.95
917.92	14489.38
918.09	14247.72
918.26	14212.90
918.42	14335.78
918.59	14278.44
918.76	14145.32
918.93	13926.19
919.10	13991.72
919.27	13944.62
919.44	14020.39
919.60	14090.02
919.77	14085.93
919.94	13641.52
920.11	13647.66
920.28	13723.44
920.45	13698.86
920.61	13674.29
920.78	13618.99
920.95	13752.11
921.12	13659.95
921.29	13549.36
921.46	13369.14
921.62	13371.19
921.79	13197.11
921.96	13371.19
922.13	13283.13
922.30	13221.69
922.47	12992.31
922.63	13156.15
922.80	13033.27
922.97	13010.75
923.14	12820.28
923.31	12918.59
923.47	12857.15
923.64	13092.66
923.81	12922.68
923.98	12816.19
924.15	12552.00
924.32	12808.00
924.48	12617.54
924.65	12894.01
924.82	12443.46
924.99	12506.95
925.15	12218.18
925.32	12367.68
925.49	12357.44
925.66	12158.79
925.83	12177.22
925.99	12312.39
926.16	12293.96
926.33	12310.34
926.50	11792.20
926.67	12126.02
926.83	12154.69
927.00	11999.05
927.17	11685.71
927.34	11988.81
927.50	12109.64
927.67	12003.14
927.84	11921.23
928.01	11661.13
928.17	11507.54
928.34	11579.22
928.51	11579.22
928.68	11577.17
928.84	11423.57
929.01	11229.01
929.18	11120.47
929.35	11177.81
929.51	11394.90
929.68	11112.28
929.85	11198.29
930.02	11081.56
930.18	11175.77
930.35	11011.93
930.52	10858.33
930.69	10905.43
930.85	10821.47
931.02	10800.99
931.19	10624.86
931.36	10581.85
931.52	10633.05
931.69	10684.25
931.86	10452.83
932.02	10430.30
932.19	10602.33
932.36	10612.57
932.53	10383.20
932.69	10041.19
932.86	10387.30
933.03	10297.19
933.19	10104.68
933.36	10178.40
933.53	10030.95
933.70	10174.31
933.86	9949.03
934.03	9899.88
934.20	9789.29
934.36	9887.59
934.53	9582.45
934.70	9512.81
934.86	9705.32
935.03	9461.62
935.20	9308.02
935.36	9240.44
935.53	9267.06
935.70	9213.81
935.86	9207.67
936.03	9150.32
936.20	8894.33
936.36	9011.06
936.53	8941.43
936.70	8724.35
936.86	9062.26
937.03	8662.91
937.20	8580.99
937.36	8728.44
937.53	8396.67
937.70	8384.38
937.86	8144.77
938.03	8236.93
938.20	8099.72
938.36	8046.47
938.53	7870.34
938.70	7710.60
938.86	7833.48
939.03	7690.12
939.20	7610.25
939.36	7638.92
939.53	7423.89
939.70	7565.20
939.86	7223.19
940.03	7128.98
940.19	7020.44
940.36	6934.42
940.53	6987.67
940.69	6889.37
940.86	6836.12
941.03	6768.54
941.19	6477.73
941.36	6686.62
941.52	6596.51
941.69	6436.77
941.86	6504.35
942.02	6444.96
942.19	6285.22
942.35	6305.70
942.52	6139.81
942.69	6274.98
942.85	6088.61
943.02	6074.28
943.18	6158.24
943.35	5967.78
943.52	5883.81
943.68	5797.80
943.85	5791.66
944.01	5824.42
944.18	5808.04
944.35	5732.26
944.51	5681.07
944.68	5738.41
944.84	5648.30
945.01	5613.48
945.17	5752.74
945.34	5554.09
945.51	5472.17
945.67	5709.74
945.84	5664.68
946.00	5433.26
946.17	5603.24
946.33	5466.03
946.50	5449.64
946.67	5455.79
946.83	5298.10
947.00	5623.72
947.16	5513.13
947.33	5298.10
947.49	5482.41
947.66	5476.27
947.82	5449.64
947.99	5453.74
948.16	5369.77
948.32	5521.32
948.49	5521.32
948.65	5550.00
948.82	5541.80
948.98	5500.84
949.15	5238.70
949.31	5361.58
949.48	5529.52
949.64	5455.79
949.81	5459.88
949.97	5439.40
950.14	5447.60
950.30	5318.57
950.47	5455.79
950.63	5453.74
950.80	5515.18
950.96	5453.74
951.13	5468.08
951.30	5558.19
951.46	5521.32
951.63	5613.48
951.79	5621.67
951.96	5662.63
952.12	5513.13
952.29	5572.52
952.45	5486.51
952.62	5529.52
952.78	5644.20
952.94	5586.86
953.11	5605.29
953.27	5455.79
953.44	5808.04
953.60	5550.00
953.77	5795.75
953.93	5648.30
954.10	5541.80
954.26	5556.14
954.43	5560.24
954.59	5648.30
954.76	5617.58
954.92	5715.88
955.09	5566.38
955.25	5550.00
955.42	5582.76
955.58	5593.00
955.75	5760.94
955.91	5724.07
956.07	5660.59
956.24	5638.06
956.40	5660.59
956.57	5560.24
956.73	5683.11
956.90	5595.05
957.06	5574.57
957.23	5629.87
957.39	5529.52
957.56	5633.96
957.72	5547.95
957.88	5607.34
958.05	5785.51
958.21	5713.83
958.38	5617.58
958.54	5648.30
958.71	5902.25
958.87	5539.76
959.03	5578.67
959.20	5593.00
959.36	5476.27
959.53	5648.30
959.69	5674.92
959.85	5609.39
960.02	5662.63
960.18	5689.26
960.35	5744.55
960.51	5738.41
960.68	5754.79
960.84	5642.15
961.00	5709.74
961.17	5666.73
961.33	5679.02
961.50	5625.77
961.66	5574.57
961.82	5593.00
961.99	5705.64
962.15	5607.34
962.31	5547.95
962.48	5533.61
962.64	5554.09
962.81	5590.95
962.97	5709.74
963.13	5529.52
963.30	5658.54
963.46	5566.38
963.62	5466.03
963.79	5584.81
963.95	5539.76
964.12	5609.39
964.28	5599.15
964.44	5402.54
964.61	5494.70
964.77	5550.00
964.93	5660.59
965.10	5545.90
965.26	5392.30
965.42	5506.99
965.59	5361.58
965.75	5447.60
965.92	5521.32
966.08	5433.26
966.24	5435.31
966.41	5466.03
966.57	5425.07
966.73	5441.45
966.90	5541.80
967.06	5439.40
967.22	5408.69
967.39	5351.34
967.55	5351.34
967.71	5459.88
967.88	5439.40
968.04	5300.14
968.20	5351.34
968.37	5318.57
968.53	5304.24
968.69	5375.92
968.85	5418.93
969.02	5265.33
969.18	5404.59
969.34	5210.03
969.51	5279.66
969.67	5273.52
969.83	5263.28
970.00	5437.36
970.16	5349.29
970.32	5281.71
970.48	5377.97
970.65	5128.11
970.81	5302.19
970.97	5132.21
971.14	4997.04
971.30	5320.62
971.46	5132.21
971.63	5150.64
971.79	5207.98
971.95	5138.35
972.11	4892.60
972.28	5126.07
972.44	5210.03
972.60	5173.17
972.76	5156.79
972.93	5095.35
973.09	5001.14
973.25	5085.11
973.42	5058.48
973.58	5183.41
973.74	5169.07
973.90	5152.69
974.07	5033.91
974.23	4972.47
974.39	5076.91
974.55	4947.89
974.72	4978.61
974.88	4812.73
975.04	4925.36
975.20	4851.64
975.37	5050.29
975.53	4976.56
975.69	5095.35
975.85	4997.04
976.01	4880.31
976.18	4888.50
976.34	4902.84
976.50	5054.39
976.66	4853.69
976.83	4917.17
976.99	4845.49
977.15	4943.80
977.31	4747.19
977.47	5042.10
977.64	4878.26
977.80	4745.14
977.96	4724.66
978.12	4718.52
978.29	4777.91
978.45	4745.14
978.61	4775.86
978.77	4673.46
978.93	4626.36
979.10	4757.43
979.26	4599.74
979.42	4526.01
979.58	4558.78
979.74	4591.55
979.91	4622.27
980.07	4501.44
980.23	4689.85
980.39	4519.87
980.55	4622.27
980.71	4548.54
980.88	4501.44
981.04	4534.20
981.20	4566.97
981.36	4612.03
981.52	4532.15
981.68	4419.52
981.85	4540.35
982.01	4407.23
982.17	4538.30
982.33	4464.57
982.49	4546.49
982.65	4454.33
982.82	4550.59
982.98	4442.04
983.14	4376.51
983.30	4558.78
983.46	4538.30
983.62	4382.65
983.79	4411.32
983.95	4325.31
984.11	4212.67
984.27	4282.30
984.43	4315.07
984.59	4231.10
984.75	4431.80
984.91	4310.97
985.08	4251.58
985.24	4239.30
985.40	4145.09
985.56	4302.78
985.72	4325.31
985.88	4394.94
986.04	4093.89
986.20	4106.18
986.37	4239.30
986.53	4173.76
986.69	4280.25
986.85	4147.14
987.01	4151.23
987.17	4067.27
987.33	4118.47
987.49	4151.23
987.65	4087.75
987.82	4046.79
987.98	4044.74
988.14	4091.84
988.30	4143.04
988.46	4014.02
988.62	4106.18
988.78	4083.65
988.94	4118.47
989.10	3993.54
989.26	3901.38
989.42	4028.35
989.59	3925.96
989.75	3872.71
989.91	4026.31
990.07	3911.62
990.23	3889.09
990.39	3966.92
990.55	3960.77
990.71	3825.61
990.87	3940.29
991.03	3928.00
991.19	3946.44
991.35	3862.47
991.51	3940.29
991.67	3958.72
991.83	3913.67
992.00	3813.32
992.16	3837.89
992.32	3762.12
992.48	3801.03
992.64	3745.73
992.80	3885.00
992.96	3837.89
993.12	3790.79
993.28	3721.16
993.44	3805.13
993.60	3704.78
993.76	3760.07
993.92	3743.69
994.08	3747.78
994.24	3719.11
994.40	3563.47
994.56	3753.93
994.72	3592.14
994.88	3745.73
995.04	3551.18
995.20	3608.52
995.36	3561.42
995.52	3643.34
995.68	3626.95
995.84	3508.17
996.00	3635.14
996.16	3559.37
996.32	3432.40
996.48	3561.42
996.64	3706.82
996.80	3542.99
996.96	3608.52
997.12	3403.72
997.28	3497.93
997.44	3467.21
997.60	3547.08
997.76	3475.40
997.92	3510.22
998.08	3508.17
998.24	3452.88
998.40	3438.54
998.56	3499.98
998.72	3342.28
998.88	3581.90
999.04	3411.92
999.20	3422.16
999.36	3506.12
999.52	3481.55
999.68	3463.12
999.84	3413.96
1000.00	3440.59
1000.16	3444.68
1000.32	3330.00
1000.48	3512.27
1000.64	3256.27
1000.80	3243.98
1000.95	3182.54
1001.11	3301.33
1001.27	3241.93
1001.43	3317.71
1001.59	3221.45
1001.75	3239.89
1001.91	3278.80
1002.07	3256.27
1002.23	3139.54
1002.39	3108.82
1002.55	3143.63
1002.71	3182.54
1002.87	3248.08
1003.03	3108.82
1003.19	3133.39
1003.34	3278.80
1003.50	3141.58
1003.66	3295.18
1003.82	3182.54
1003.98	3114.96
1004.14	3049.43
1004.30	3100.62
1004.46	3106.77
1004.62	3067.86
1004.78	3004.37
1004.94	3096.53
1005.09	3166.16
1005.25	3135.44
1005.41	2961.36
1005.57	2928.60
1005.73	3020.75
1005.89	3063.76
1006.05	3010.51
1006.21	3004.37
1006.37	2938.84
1006.52	2969.55
1006.68	2951.12
1006.84	3080.14
1007.00	3010.51
1007.16	3010.51
1007.32	2963.41
1007.48	2895.83
1007.64	2895.83
1007.79	2834.39
1007.95	3014.61
1008.11	3026.90
1008.27	2897.88
1008.43	2906.07
1008.59	2981.84
1008.75	2897.88
1008.91	2875.35
1009.06	2840.53
1009.22	2877.40
1009.38	2867.16
1009.54	2895.83
1009.70	2877.40
1009.86	2805.72
1010.01	2893.78
1010.17	2949.08
1010.33	2912.21
1010.49	2777.05
1010.65	2904.02
1010.81	2682.84
1010.96	2797.53
1011.12	2729.94
1011.28	2684.89
1011.44	2842.58
1011.60	2752.47
1011.76	2703.32
1011.91	2650.07
1012.07	2758.61
1012.23	2682.84
1012.39	2650.07
1012.55	2625.50
1012.71	2729.94
1012.86	2633.69
1013.02	2686.94
1013.18	2641.88
1013.34	2723.80
1013.50	2731.99
1013.65	2682.84
1013.81	2619.35
1013.97	2623.45
1014.13	2688.98
1014.29	2662.36
1014.44	2746.33
1014.60	2631.64
1014.76	2590.68
1014.92	2533.34
1015.07	2592.73
1015.23	2629.59
1015.39	2559.96
1015.55	2637.78
1015.71	2621.40
1015.86	2551.77
1016.02	2557.91
1016.18	2437.08
1016.34	2519.00
1016.49	2578.39
1016.65	2670.55
1016.81	2506.71
1016.97	2568.15
1017.12	2652.12
1017.28	2410.46
1017.44	2482.14
1017.60	2514.91
1017.75	2473.95
1017.91	2490.33
1018.07	2555.86
1018.23	2553.82
1018.38	2457.56
1018.54	2510.81
1018.70	2547.67
1018.86	2459.61
1019.01	2379.74
1019.17	2459.61
1019.33	2543.58
1019.49	2549.72
1019.64	2430.94
1019.80	2447.32
1019.96	2457.56
1020.12	2449.37
1020.27	2379.74
1020.43	2428.89
1020.59	2475.99
1020.74	2420.70
1020.90	2379.74
1021.06	2346.97
1021.22	2369.50
1021.37	2295.77
1021.53	2326.49
1021.69	2420.70
1021.84	2256.86
1022.00	2377.69
1022.16	2271.20
1022.31	2340.83
1022.47	2346.97
1022.63	2394.08
1022.79	2287.58
1022.94	2334.68
1023.10	2461.66
1023.26	2199.52
1023.41	2224.09
1023.57	2267.10
1023.73	2340.83
1023.88	2324.44
1024.04	2195.42
1024.20	2289.63
1024.35	2306.01
1024.51	2207.71
1024.67	2215.90
1024.82	2279.39
1024.98	2209.76
1025.14	2217.95
1025.29	2242.53
1025.45	2291.68
1025.61	2185.18
1025.76	2164.70
1025.92	2189.28
1026.08	2285.53
1026.23	2355.16
1026.39	2281.44
1026.55	2236.38
1026.70	2172.89
1026.86	2238.43
1027.02	2197.47
1027.17	2250.72
1027.33	2129.89
1027.48	2133.98
1027.64	2103.26
1027.80	2086.88
1027.95	2217.95
1028.11	2113.50
1028.27	2174.94
1028.42	2150.37
1028.58	2109.41
1028.73	2080.74
1028.89	2099.17
1029.05	2131.94
1029.20	2121.70
>>>>>End Processed Spectral Data<<<<<
