SpectraSuite Data File
++++++++++++++++++++++++++++++++++++
Date: Fri Jun 02 14:41:56 CEST 2017
User: INFO_000
Dark Spectrum Present: No
Reference Spectrum Present: No
Number of Sampled Component Spectra: 1
Spectrometers: USB4H00879
Integration Time (usec): 80000 (USB4H00879)
Spectra Averaged: 1 (USB4H00879)
Boxcar Smoothing: 0 (USB4H00879)
Correct for Electrical Dark: No (USB4H00879)
Strobe/Lamp Enabled: No (USB4H00879)
Correct for Detector Non-linearity: No (USB4H00879)
Correct for Stray Light: No (USB4H00879)
Number of Pixels in Processed Spectrum: 3648
>>>>>Begin Processed Spectral Data<<<<<
345.13	1312.75
345.34	1312.75
345.56	1312.75
345.78	1320.94
345.99	1255.40
346.21	1738.73
346.42	1681.38
346.64	1667.05
346.86	1839.08
347.07	1599.46
347.29	1681.38
347.50	1630.18
347.72	1699.81
347.94	1751.01
348.15	1599.46
348.37	1634.28
348.59	1615.85
348.80	1683.43
349.02	1814.50
349.23	1886.18
349.45	1863.65
349.67	1974.24
349.88	1794.02
350.10	1974.24
350.31	1830.88
350.53	1761.25
350.75	1966.05
350.96	1789.92
351.18	1853.41
351.39	1935.33
351.61	1722.34
351.82	1824.74
352.04	1861.60
352.26	1806.31
352.47	1931.23
352.69	1896.42
352.90	1787.88
353.12	1880.04
353.34	1871.84
353.55	1923.04
353.77	1912.80
353.98	1826.79
354.20	1894.37
354.41	1957.86
354.63	1916.90
354.85	1998.82
355.06	1851.36
355.28	1781.73
355.49	1894.37
355.71	1988.58
355.92	1857.51
356.14	1945.57
356.35	1890.28
356.57	1841.12
356.79	1978.34
357.00	1832.93
357.22	1951.71
357.43	1892.32
357.65	1949.67
357.86	1822.69
358.08	1906.66
358.29	1941.47
358.51	2015.20
358.72	1931.23
358.94	1908.71
359.16	1918.95
359.37	1957.86
359.59	1964.00
359.80	1949.67
360.02	1910.75
360.23	1937.38
360.45	1916.90
360.66	1961.95
360.88	1884.13
361.09	1951.71
361.31	2025.44
361.52	1976.29
361.74	2041.82
361.95	2117.60
362.17	1968.10
362.38	2027.49
362.60	2002.91
362.81	1980.39
363.03	1951.71
363.24	1978.34
363.46	2131.94
363.67	2070.50
363.89	1959.91
364.10	2039.78
364.32	1970.15
364.53	2021.35
364.75	1894.37
364.96	2011.11
365.18	2050.02
365.39	1908.71
365.61	1953.76
365.82	2117.60
366.04	2047.97
366.25	2031.58
366.47	2002.91
366.68	2060.26
366.90	2056.16
367.11	2054.11
367.33	2127.84
367.54	2064.35
367.76	2039.78
367.97	2131.94
368.19	2019.30
368.40	2064.35
368.62	1976.29
368.83	2013.15
369.05	2127.84
369.26	2031.58
369.48	1959.91
369.69	1957.86
369.91	2105.31
370.12	2031.58
370.33	2117.60
370.55	2025.44
370.76	2101.22
370.98	2158.56
371.19	1937.38
371.41	2047.97
371.62	2140.13
371.84	2033.63
372.05	2129.89
372.27	2150.37
372.48	2072.54
372.69	2136.03
372.91	2111.46
373.12	2203.61
373.34	2082.78
373.55	2220.00
373.77	2207.71
373.98	2074.59
374.20	2093.02
374.41	2191.33
374.62	2113.50
374.84	2117.60
375.05	2176.99
375.27	2150.37
375.48	2199.52
375.70	2176.99
375.91	2310.11
376.12	2248.67
376.34	2179.04
376.55	2158.56
376.77	2189.28
376.98	2154.46
377.19	2103.26
377.41	2158.56
377.62	2119.65
377.84	2224.09
378.05	2265.05
378.27	2164.70
378.48	2344.92
378.69	2330.59
378.91	2330.59
379.12	2248.67
379.34	2287.58
379.55	2303.96
379.76	2308.06
379.98	2381.79
380.19	2224.09
380.41	2267.10
380.62	2355.16
380.83	2291.68
381.05	2189.28
381.26	2441.18
381.47	2308.06
381.69	2318.30
381.90	2467.80
382.12	2197.47
382.33	2295.77
382.54	2195.42
382.76	2289.63
382.97	2232.29
383.19	2316.25
383.40	2426.84
383.61	2267.10
383.83	2291.68
384.04	2355.16
384.25	2383.84
384.47	2461.66
384.68	2398.17
384.89	2283.49
385.11	2365.40
385.32	2402.27
385.54	2387.93
385.75	2422.75
385.96	2500.57
386.18	2420.70
386.39	2365.40
386.60	2432.99
386.82	2523.10
387.03	2420.70
387.24	2473.95
387.46	2471.90
387.67	2627.54
387.88	2602.97
388.10	2494.43
388.31	2484.19
388.52	2594.78
388.74	2504.67
388.95	2514.91
389.16	2568.15
389.38	2451.42
389.59	2682.84
389.80	2627.54
390.02	2545.63
390.23	2734.04
390.44	2635.74
390.66	2660.31
390.87	2496.47
391.08	2703.32
391.30	2723.80
391.51	2625.50
391.72	2699.22
391.94	2650.07
392.15	2666.46
392.36	2676.70
392.58	2568.15
392.79	2727.89
393.00	2674.65
393.22	2721.75
393.43	2715.61
393.64	2850.77
393.85	2789.33
394.07	2713.56
394.28	2840.53
394.49	2797.53
394.71	2838.48
394.92	2965.46
395.13	2746.33
395.35	2861.01
395.56	2727.89
395.77	2834.39
395.98	2910.16
396.20	2990.03
396.41	2777.05
396.62	2951.12
396.84	2791.38
397.05	2881.49
397.26	2846.68
397.47	2957.27
397.69	2961.36
397.90	3049.43
398.11	2979.79
398.32	2992.08
398.54	2928.60
398.75	3100.62
398.96	2969.55
399.18	3157.97
399.39	3041.23
399.60	3053.52
399.81	3022.80
400.03	3008.47
400.24	3289.04
400.45	2883.54
400.66	3157.97
400.88	2904.02
401.09	3229.65
401.30	3059.67
401.51	3153.87
401.73	3088.34
401.94	3258.32
402.15	3205.07
402.36	3266.51
402.58	3243.98
402.79	3252.17
403.00	3219.41
403.21	3270.61
403.43	3168.21
403.64	3321.81
403.85	3162.06
404.06	3313.61
404.27	3164.11
404.49	3297.23
404.70	3225.55
404.91	3459.02
405.12	3295.18
405.34	3330.00
405.55	3467.21
405.76	3221.45
405.97	3420.11
406.19	3370.96
406.40	3243.98
406.61	3395.53
406.82	3420.11
407.03	3344.33
407.25	3303.37
407.46	3491.79
407.67	3461.07
407.88	3569.61
408.09	3424.20
408.31	3401.68
408.52	3516.36
408.73	3444.68
408.94	3370.96
409.15	3432.40
409.37	3620.81
409.58	3551.18
409.79	3598.28
410.00	3528.65
410.21	3573.71
410.43	3647.43
410.64	3489.74
410.85	3639.24
411.06	3610.57
411.27	3614.66
411.48	3694.54
411.70	3715.02
411.91	3676.10
412.12	3694.54
412.33	3672.01
412.54	3710.92
412.76	3827.65
412.97	3811.27
413.18	3542.99
413.39	3610.57
413.60	3698.63
413.81	3727.30
414.03	3594.19
414.24	3811.27
414.45	3960.77
414.66	3786.69
414.87	3956.68
415.08	3741.64
415.30	3882.95
415.51	3731.40
415.72	3936.20
415.93	3796.93
416.14	3809.22
416.35	3954.63
416.56	3921.86
416.78	3975.11
416.99	3901.38
417.20	4075.46
417.41	3966.92
417.62	4048.83
417.83	3899.33
418.04	4038.59
418.26	4044.74
418.47	4026.31
418.68	4071.36
418.89	4130.75
419.10	4112.32
419.31	4153.28
419.52	4241.34
419.73	4202.43
419.95	4214.72
420.16	4087.75
420.37	4196.29
420.58	4259.78
420.79	4018.11
421.00	4143.04
421.21	4181.95
421.42	4169.66
421.63	4220.86
421.85	4345.79
422.06	4300.73
422.27	4308.93
422.48	4306.88
422.69	4272.06
422.90	4353.98
423.11	4425.66
423.32	4548.54
423.53	4605.88
423.75	4396.99
423.96	4491.20
424.17	4452.28
424.38	4624.31
424.59	4528.06
424.80	4722.62
425.01	4435.90
425.22	4517.82
425.43	4583.35
425.64	4857.78
425.85	4716.47
426.06	4661.18
426.28	4689.85
426.49	4626.36
426.70	4749.24
426.91	4665.27
427.12	4763.58
427.33	4835.25
427.54	4777.91
427.75	4779.96
427.96	4990.90
428.17	4825.01
428.38	4923.32
428.59	5074.87
428.80	4820.92
429.01	5023.67
429.23	4923.32
429.44	5148.59
429.65	5021.62
429.86	5169.07
430.07	5158.83
430.28	5035.96
430.49	5101.49
430.70	5259.18
430.91	5230.51
431.12	5193.65
431.33	5259.18
431.54	5337.01
431.75	5187.50
431.96	5253.04
432.17	5201.84
432.38	5349.29
432.59	5433.26
432.80	5429.17
433.01	5529.52
433.22	5543.85
433.43	5463.98
433.64	5509.04
433.85	5427.12
434.06	5597.10
434.27	5498.80
434.49	5513.13
434.70	5627.82
434.91	5562.28
435.12	5541.80
435.33	5500.84
435.54	5629.87
435.75	5492.65
435.96	5683.11
436.17	5582.76
436.38	5842.85
436.59	5844.90
436.80	5808.04
437.01	5971.88
437.22	5885.86
437.43	5926.82
437.64	5595.05
437.85	5941.16
438.06	6021.03
438.27	5820.33
438.48	5912.49
438.69	6055.84
438.90	6082.47
439.11	5980.07
439.32	6092.71
439.53	6037.41
439.74	5973.92
439.95	6035.36
440.16	6078.37
440.37	6135.71
440.57	6074.28
440.78	6311.84
440.99	6180.77
441.20	6137.76
441.41	6033.32
441.62	6277.02
441.83	6021.03
442.04	6301.60
442.25	6287.26
442.46	6197.15
442.67	6293.41
442.88	6756.25
443.09	6315.94
443.30	6307.74
443.51	6590.36
443.72	6520.73
443.93	6358.94
444.14	6631.32
444.35	6377.37
444.56	6524.83
444.77	6604.70
444.98	6723.48
445.19	6453.15
445.40	6580.12
445.61	6690.71
445.81	6692.76
446.02	6647.71
446.23	6811.54
446.44	6731.67
446.65	6725.53
446.86	6737.82
447.07	6807.45
447.28	7004.05
447.49	6975.38
447.70	6848.41
447.91	6936.47
448.12	6717.34
448.33	6981.53
448.54	6850.46
448.74	6967.19
448.95	7030.68
449.16	6948.76
449.37	7206.80
449.58	6971.29
449.79	7387.02
450.00	7036.82
450.21	7102.36
450.42	7272.34
450.63	7331.73
450.84	7085.97
451.05	7223.19
451.25	7096.21
451.46	7022.48
451.67	7409.55
451.88	7434.13
452.09	7423.89
452.30	7475.09
452.51	7380.88
452.72	7489.42
452.93	7927.69
453.13	7481.23
453.34	7415.69
453.55	7511.95
453.76	7569.29
453.97	7800.71
454.18	7686.03
454.39	7886.73
454.60	7796.62
454.81	7851.91
455.01	7913.35
455.22	7710.60
455.43	8021.89
455.64	8105.86
455.85	8093.57
456.06	8304.51
456.27	8054.66
456.48	7890.82
456.68	8202.11
456.89	8232.83
457.10	8316.80
457.31	8263.55
457.52	8167.30
457.73	8296.32
457.94	8554.37
458.14	8304.51
458.35	8677.24
458.56	8505.21
458.77	8413.06
458.98	8554.37
459.19	8632.19
459.39	8783.74
459.60	8849.27
459.81	8707.96
460.02	8845.18
460.23	8669.05
460.44	8955.77
460.65	9080.69
460.85	9006.97
461.06	8920.95
461.27	9015.16
461.48	9207.67
461.69	9179.00
461.89	8867.70
462.10	9416.56
462.31	9133.94
462.52	9211.76
462.73	9246.58
462.94	9557.87
463.14	9555.82
463.35	9455.47
463.56	9891.69
463.77	9736.04
463.98	9664.36
464.18	9625.45
464.39	10024.81
464.60	10030.95
464.81	10051.43
465.02	9824.11
465.23	10227.56
465.43	9914.22
465.64	10227.56
465.85	10086.25
466.06	10069.86
466.27	10399.59
466.47	10413.92
466.68	10397.54
466.89	10301.28
467.10	10606.43
467.30	10352.48
467.51	10559.33
467.72	10596.19
467.93	10436.45
468.14	10651.49
468.34	10895.19
468.55	10946.39
468.76	11020.12
468.97	10737.50
469.17	11120.47
469.38	11384.66
469.59	11276.12
469.80	11214.68
470.01	11237.20
470.21	11134.81
470.42	11349.84
470.63	11626.32
470.84	11468.62
471.04	11652.94
471.25	11781.96
471.46	11784.01
471.67	11968.33
471.87	11808.59
472.08	12113.74
472.29	12185.41
472.50	11835.21
472.70	12064.58
472.91	12281.67
473.12	12529.47
473.33	12496.71
473.53	12775.23
473.74	12543.81
473.95	12685.12
474.16	12814.14
474.36	12662.59
474.57	12990.27
474.78	13225.78
474.99	12961.59
475.19	13233.97
475.40	13475.63
475.61	13573.94
475.81	13612.85
476.02	13807.41
476.23	13588.27
476.44	13778.73
476.64	14163.75
476.85	14055.21
477.06	14143.27
477.27	14348.07
477.47	14130.98
477.68	14366.50
477.89	14462.76
478.09	14544.67
478.30	14663.46
478.51	14634.78
478.71	14708.51
478.92	14855.97
479.13	15021.85
479.34	15165.21
479.54	15154.97
479.75	15331.09
479.96	15240.98
480.16	15281.94
480.37	15408.92
480.58	15673.10
480.78	15877.90
480.99	15691.54
481.20	15761.17
481.41	16027.40
481.61	16107.27
481.82	16299.78
482.03	16467.72
482.23	16318.22
482.44	16586.50
482.65	16637.70
482.85	16877.31
483.06	16838.40
483.27	16871.17
483.47	16822.02
483.68	16815.87
483.89	17256.18
484.09	17272.57
484.30	17301.24
484.51	17618.68
484.71	17835.76
484.92	17596.15
485.13	17839.86
485.33	17770.22
485.54	17657.59
485.75	17905.39
485.95	18413.29
486.16	18263.79
486.37	18427.62
486.57	18075.37
486.78	18446.05
486.98	18607.84
487.19	18933.47
487.40	18681.57
487.60	18798.31
487.81	19005.15
488.02	18941.66
488.22	19058.40
488.43	19353.30
488.64	19259.10
488.84	19246.81
489.05	19707.60
489.25	19531.48
489.46	19875.54
489.67	19582.68
489.87	19879.63
490.08	19953.36
490.29	20025.04
490.49	20408.01
490.70	20424.39
490.90	20485.83
491.11	20410.06
491.32	20698.82
491.52	20489.93
491.73	20436.68
491.94	20735.68
492.14	20924.10
492.35	21063.36
492.55	20790.98
492.76	20977.34
492.97	21507.77
493.17	21470.90
493.38	21565.11
493.58	21632.69
493.79	21853.87
494.00	21575.35
494.20	21417.66
494.41	21778.10
494.61	21991.09
494.82	22124.21
495.02	22232.75
495.23	22632.10
495.44	22218.41
495.64	22576.81
495.85	22689.45
496.05	22531.75
496.26	22754.98
496.47	22824.61
496.67	22603.43
496.88	22849.19
497.08	22648.49
497.29	23244.45
497.49	23043.74
497.70	23436.95
497.91	23201.44
498.11	23260.83
498.32	23410.33
498.52	23482.01
498.73	23811.73
498.93	23754.39
499.14	23897.75
499.34	24028.82
499.55	23899.80
499.76	23805.59
499.96	24315.53
500.17	24114.83
500.37	24161.94
500.58	24086.16
500.78	24659.59
500.99	24159.89
501.19	24641.16
501.40	24387.21
501.60	24671.88
501.81	24518.28
502.02	24755.85
502.22	24643.21
502.43	24805.00
502.63	25251.45
502.84	25226.88
503.04	25032.32
503.25	25628.28
503.45	25120.38
503.66	25472.64
503.86	25333.37
504.07	25683.58
504.27	25419.39
504.48	25785.97
504.68	25446.01
504.89	25833.08
505.09	26007.16
505.30	25636.47
505.50	26506.86
505.71	26005.11
505.91	26080.88
506.12	26156.66
506.32	26009.20
506.53	26310.25
506.73	26570.35
506.94	26324.59
507.14	26320.49
507.35	26703.46
507.55	26660.46
507.76	26695.27
507.96	26660.46
508.17	26594.92
508.37	26781.29
508.58	26865.25
508.78	27070.05
508.99	27178.59
509.19	27244.13
509.40	27422.30
509.60	27412.06
509.81	27051.62
510.01	27237.98
510.22	27268.70
510.42	27352.67
510.63	27534.94
510.83	27682.39
511.04	27559.52
511.24	27819.61
511.44	27887.19
511.65	28010.07
511.85	27795.03
512.06	27979.35
512.26	27938.39
512.47	28411.47
512.67	28128.85
512.88	28339.79
513.08	28202.58
513.29	28401.23
513.49	28431.95
513.69	28327.50
513.90	28702.28
514.10	28829.26
514.31	28534.35
514.51	28448.33
514.72	28667.47
514.92	28550.73
515.13	28642.89
515.33	28857.93
515.53	28798.54
515.74	29083.20
515.94	29152.84
516.15	29226.56
516.35	28892.74
516.56	29169.22
516.76	28747.34
516.96	29283.91
517.17	29048.39
517.37	29378.11
517.58	29357.63
517.78	29611.58
517.99	29769.27
518.19	29658.68
518.39	29720.12
518.60	29787.71
518.80	29990.45
519.01	29931.06
519.21	29894.20
519.41	29808.19
519.62	30008.89
519.82	29963.83
520.03	30617.13
520.23	30172.72
520.43	30039.61
520.64	30522.93
520.84	30639.66
521.05	30447.15
521.25	30813.74
521.45	30815.79
521.66	30858.79
521.86	31022.63
522.07	30854.70
522.27	30787.11
522.47	31280.67
522.68	31432.22
522.88	31309.35
523.08	31774.24
523.29	31493.66
523.49	31434.27
523.70	31430.18
523.90	31825.43
524.10	31813.15
524.31	31989.27
524.51	31542.81
524.71	32433.68
524.92	32019.99
525.12	32355.86
525.33	32327.19
525.53	32263.70
525.73	32339.47
525.94	32466.45
526.14	32474.64
526.34	32441.87
526.55	32355.86
526.75	32790.03
526.95	32773.64
527.16	32783.88
527.36	32986.63
527.56	32986.63
527.77	33547.78
527.97	33472.00
528.17	33207.81
528.38	33277.44
528.58	33895.93
528.78	33721.85
528.99	33781.24
529.19	34135.54
529.39	33691.13
529.60	33902.07
529.80	34239.99
530.00	33787.39
530.21	34508.27
530.41	34495.99
530.61	34596.34
530.82	34723.31
531.02	34639.34
531.22	34579.95
531.43	34663.92
531.63	34813.42
531.83	35352.04
532.04	35354.08
532.24	35374.56
532.44	35476.96
532.64	35472.87
532.85	35587.55
533.05	35761.63
533.25	35749.34
533.46	35896.80
533.66	36113.88
533.86	35933.66
534.07	36660.69
534.27	36101.59
534.47	36369.88
534.67	36529.62
534.88	36199.90
535.08	36404.69
535.28	36855.25
535.49	36738.51
535.69	37330.37
535.89	36908.49
536.09	36984.27
536.30	37479.88
536.50	37045.71
536.70	37541.32
536.91	37520.84
537.11	37475.78
537.31	37764.54
537.51	38053.31
537.72	38071.74
537.92	37840.32
538.12	38170.04
538.32	38237.62
538.53	38673.84
538.73	37653.95
538.93	38190.52
539.13	38241.72
539.34	38718.90
539.54	38507.96
539.74	39062.96
539.94	38661.55
540.15	38843.82
540.35	39255.46
540.55	38864.30
540.75	38999.47
540.96	38999.47
541.16	39171.50
541.36	39173.55
541.56	39167.40
541.77	39660.96
541.97	39253.42
542.17	39638.44
542.37	39443.88
542.58	39691.68
542.78	39509.41
542.98	39703.97
543.18	40056.22
543.38	40433.05
543.59	40398.23
543.79	39976.35
543.99	40086.94
544.19	40607.12
544.40	40529.30
544.60	40519.06
544.80	40691.09
545.00	40883.60
545.20	40916.37
545.41	40492.44
545.61	40727.95
545.81	40940.94
546.01	40793.49
546.21	41022.86
546.42	40699.28
546.62	41198.99
546.82	40678.80
547.02	41495.94
547.22	41639.30
547.43	41366.92
547.63	41557.38
547.83	41354.63
548.03	41352.58
548.23	41731.46
548.44	41385.35
548.64	41676.16
548.84	41866.63
549.04	41878.91
549.24	41729.41
549.45	42169.72
549.65	41866.63
549.85	41919.87
550.05	42503.54
550.25	41995.65
550.45	42638.71
550.66	42143.10
550.86	41764.23
551.06	42431.86
551.26	42982.77
551.46	42802.55
551.66	42632.57
551.87	42417.53
552.07	42593.65
552.27	43052.40
552.47	42866.03
552.67	43363.69
552.87	43042.16
553.07	42845.55
553.28	43136.37
553.48	43171.18
553.68	42909.04
553.88	43339.11
554.08	43208.04
554.28	43109.74
554.48	42874.23
554.69	43967.84
554.89	43404.65
555.09	43132.27
555.29	43199.85
555.49	43500.90
555.69	43519.34
555.89	43644.26
556.10	43953.51
556.30	43808.10
556.50	44078.43
556.70	43562.34
556.90	44074.34
557.10	44080.48
557.30	44234.08
557.50	43849.06
557.70	44350.81
557.91	44016.99
558.11	44129.63
558.31	44406.11
558.51	44139.87
558.71	44053.86
558.91	44617.05
559.11	44270.94
559.31	44057.95
559.51	44117.34
559.72	44565.85
559.92	44445.02
560.12	44369.24
560.32	44442.97
560.52	44279.13
560.72	44741.97
560.92	45040.98
561.12	45126.99
561.32	44770.64
561.52	44750.17
561.72	45231.44
561.93	44715.35
562.13	45489.48
562.33	44696.92
562.53	45681.99
562.73	45223.25
562.93	45153.62
563.13	45292.88
563.33	45063.50
563.53	45530.44
563.73	44938.58
563.93	45311.31
564.13	45626.70
564.33	45696.33
564.53	45573.45
564.74	45987.14
564.94	45610.31
565.14	45432.14
565.34	45237.58
565.54	45636.94
565.74	45847.88
565.94	46128.45
566.14	45847.88
566.34	45636.94
566.54	46628.15
566.74	45800.77
566.94	46085.44
567.14	45851.97
567.34	45622.60
567.54	46073.15
567.74	45714.76
567.94	45569.35
568.14	46310.72
568.34	46228.80
568.54	46429.50
568.74	46329.15
568.94	45972.80
569.14	46892.34
569.34	46624.06
569.54	46472.51
569.75	46001.47
569.95	46339.39
570.15	46546.23
570.35	47166.77
570.55	46558.52
570.75	46533.95
570.95	46761.27
571.15	46810.42
571.35	46843.19
571.55	47283.50
571.75	46699.83
571.95	47359.28
572.15	47209.78
572.35	47121.71
572.55	46937.40
572.75	47537.45
572.95	47568.17
573.15	47322.41
573.35	47287.60
573.55	46906.68
573.75	47441.20
573.95	47621.42
574.15	47502.64
574.35	47969.57
574.55	47228.21
574.75	47125.81
574.95	47914.28
575.15	47574.31
575.34	47523.11
575.54	47564.07
575.74	48186.66
575.94	47809.83
576.14	47426.86
576.34	47967.52
576.54	47977.76
576.74	47959.33
576.94	48014.63
577.14	47789.35
577.34	48233.76
577.54	48387.36
577.74	48088.35
577.94	48280.86
578.14	48440.60
578.34	48454.94
578.54	47938.85
578.74	47879.46
578.94	48735.51
579.14	48426.27
579.34	48583.96
579.54	48301.34
579.74	48594.20
579.94	48438.56
580.13	49155.35
580.33	48821.53
580.53	48768.28
580.73	49253.65
580.93	48760.09
581.13	49145.11
581.33	49618.19
581.53	49634.57
581.73	49552.65
581.93	49423.63
582.13	49489.16
582.33	49593.61
582.53	49515.79
582.73	49759.50
582.92	49605.90
583.12	49607.95
583.32	49722.63
583.52	49161.49
583.72	49845.51
583.92	49739.02
584.12	49976.58
584.32	50445.57
584.52	50382.08
584.72	50281.73
584.92	50328.83
585.11	50732.28
585.31	50173.19
585.51	50732.28
585.71	50492.67
585.91	50975.99
586.11	50089.22
586.31	50410.75
586.51	50470.14
586.71	50566.40
586.91	50681.08
587.10	50953.46
587.30	50918.65
587.50	50631.93
587.70	50920.70
587.90	50861.30
588.10	51135.73
588.30	50857.21
588.50	51133.68
588.69	50943.22
588.89	50992.37
589.09	51111.16
589.29	51160.31
589.49	51731.69
589.69	51115.25
589.89	51612.91
590.08	51016.95
590.28	51795.18
590.48	51266.80
590.68	51377.39
590.88	52106.47
591.08	51621.10
591.28	51672.30
591.47	52079.85
591.67	51961.06
591.87	52280.55
592.07	52231.40
592.27	51856.62
592.47	52274.40
592.67	52116.71
592.86	51860.71
593.06	52329.70
593.26	52313.31
593.46	52008.17
593.66	51997.93
593.86	52294.88
594.05	52198.63
594.25	52565.21
594.45	52292.83
594.65	52407.52
594.85	51846.38
595.05	52786.39
595.24	52301.03
595.44	52870.36
595.64	52581.60
595.84	52651.23
596.04	52651.23
596.23	53171.41
596.43	53265.62
596.63	52890.84
596.83	52966.62
597.03	53677.26
597.22	53662.93
597.42	52772.06
597.62	53732.56
597.82	53621.97
598.02	53976.26
598.21	53368.02
598.41	52669.66
598.61	53568.72
598.81	53052.63
599.01	54121.67
599.20	53804.24
599.40	53425.36
599.60	53648.59
599.80	53869.77
600.00	53755.08
600.19	54291.65
600.39	54066.38
600.59	54162.63
600.79	54123.72
600.98	53556.43
601.18	54308.04
601.38	54377.67
601.58	54774.97
601.78	54459.58
601.97	54275.27
602.17	54443.20
602.37	54695.10
602.57	54629.57
602.76	54721.72
602.96	54310.08
603.16	54844.60
603.36	54916.28
603.55	55250.10
603.75	54580.42
603.95	55071.93
604.15	54926.52
604.34	55133.37
604.54	54883.51
604.74	55221.43
604.94	55018.68
605.13	55207.09
605.33	55327.92
605.53	54998.20
605.73	55778.48
605.92	55352.50
606.12	55846.06
606.32	55694.51
606.52	55461.04
606.71	55774.38
606.91	56026.28
607.11	55620.78
607.30	56173.73
607.50	55745.71
607.70	56493.22
607.90	55676.08
608.09	55604.40
608.29	55964.84
608.49	55723.18
608.68	55917.74
608.88	56179.88
609.08	56022.19
609.28	56474.79
609.47	56255.65
609.67	56464.55
609.87	56020.14
610.06	56851.61
610.26	56243.37
610.46	56423.59
610.66	56319.14
610.85	56409.25
611.05	56530.08
611.25	56286.37
611.44	56278.18
611.64	56743.07
611.84	56243.37
612.03	56378.53
612.23	56728.73
612.43	56794.27
612.62	56214.69
612.82	57083.03
613.02	56886.43
613.21	57134.23
613.41	55860.40
613.61	56949.92
613.80	56263.85
614.00	56730.78
614.20	57080.98
614.39	56730.78
614.59	56644.77
614.79	56542.37
614.98	56874.14
615.18	56716.45
615.38	56886.43
615.57	56579.23
615.77	56792.22
615.97	57316.50
616.16	57285.78
616.36	57275.54
616.56	57019.55
616.75	57058.46
616.95	56853.66
617.15	57025.69
617.34	56685.73
617.54	56911.00
617.74	57001.11
617.93	57054.36
618.13	56429.73
618.32	57046.17
618.52	56452.26
618.72	56790.17
618.91	56947.87
619.11	56964.25
619.31	57242.77
619.50	56755.36
619.70	56523.94
619.90	57085.08
620.09	57080.98
620.29	56525.99
620.48	56765.60
620.68	56999.07
620.88	56833.18
621.07	57119.90
621.27	56892.57
621.46	56603.81
621.66	56751.26
621.86	56620.19
622.05	56534.18
622.25	57275.54
622.44	56818.84
622.64	56655.01
622.84	56734.88
623.03	56640.67
623.23	56929.44
623.42	56835.23
623.62	56941.72
623.82	57310.36
624.01	56769.69
624.21	57334.93
624.40	56868.00
624.60	56806.56
624.80	56851.61
624.99	56454.31
625.19	56583.33
625.38	56861.85
625.58	57117.85
625.77	56931.48
625.97	57093.27
626.17	56528.03
626.36	57244.82
626.56	57054.36
626.75	56501.41
626.95	57052.31
627.14	56685.73
627.34	57214.10
627.54	57029.79
627.73	57052.31
627.93	56773.79
628.12	56620.19
628.32	56980.63
628.51	57017.50
628.71	56947.87
628.90	56894.62
629.10	56911.00
629.30	56777.89
629.49	56917.15
629.69	57144.47
629.88	57296.02
630.08	57613.46
630.27	56960.15
630.47	57293.97
630.66	57017.50
630.86	57021.59
631.05	56900.76
631.25	57185.43
631.44	57035.93
631.64	57146.52
631.84	57423.00
632.03	57652.37
632.23	56900.76
632.42	57009.31
632.62	57390.23
632.81	56865.95
633.01	57169.05
633.20	57656.46
633.40	57068.70
633.59	57298.07
633.79	56868.00
633.98	57459.86
634.18	57226.39
634.37	57267.35
634.57	57685.14
634.76	57814.16
634.96	57199.77
635.15	57103.51
635.35	57080.98
635.54	56718.49
635.74	57289.88
635.93	57242.77
636.13	57345.17
636.32	57224.34
636.52	56714.40
636.71	57095.32
636.91	57310.36
637.10	57412.76
637.30	57070.75
637.49	57416.85
637.69	57238.68
637.88	57324.69
638.08	56896.67
638.27	57511.06
638.46	57324.69
638.66	57398.42
638.85	57715.86
639.05	57326.74
639.24	57701.52
639.44	57351.32
639.63	57668.75
639.83	57279.64
640.02	57177.24
640.22	57273.49
640.41	57965.71
640.61	57410.71
640.80	57777.29
640.99	56956.06
641.19	58320.01
641.38	57486.48
641.58	57070.75
641.77	57279.64
641.97	56923.29
642.16	57496.72
642.36	57590.93
642.55	57750.67
642.74	57537.68
642.94	58272.90
643.13	57509.01
643.33	57771.15
643.52	58100.87
643.72	57750.67
643.91	58004.62
644.10	57717.90
644.30	58324.10
644.49	57902.22
644.69	57885.84
644.88	57914.51
645.08	57760.91
645.27	58078.35
645.46	57795.73
645.66	58082.44
645.85	57797.77
646.05	57691.28
646.24	58152.07
646.43	57967.76
646.63	58832.00
646.82	58481.80
647.02	58336.39
647.21	58320.01
647.40	58008.71
647.60	58420.36
647.79	58395.78
647.99	57934.99
648.18	57826.45
648.37	58258.57
648.57	58530.95
648.76	58352.77
648.96	58279.05
649.15	58584.19
649.34	58664.06
649.54	58692.74
649.73	58309.77
649.92	58514.56
650.12	58375.30
650.31	58543.23
650.51	58842.24
650.70	58301.57
650.89	58446.98
651.09	59036.80
651.28	58807.42
651.47	58578.05
651.67	58885.25
651.86	58901.63
652.06	58758.27
652.25	58813.57
652.44	58526.85
652.64	58520.71
652.83	58408.07
653.02	58512.52
653.22	58297.48
653.41	58672.26
653.60	58186.89
653.80	58381.45
653.99	58784.90
654.18	58713.22
654.38	58719.36
654.57	59229.30
654.76	58733.70
654.96	58578.05
655.15	58678.40
655.34	58592.39
655.54	58512.52
655.73	58786.94
655.92	59014.27
656.12	58838.14
656.31	59159.67
656.50	58539.14
656.70	58995.84
656.89	58506.37
657.08	58889.34
657.28	58363.01
657.47	58784.90
657.66	59047.04
657.86	59382.90
658.05	59212.92
658.24	59145.34
658.43	58856.57
658.63	58924.16
658.82	58975.36
659.01	58930.30
659.21	58616.96
659.40	59137.15
659.59	58725.50
659.79	59094.14
659.98	59128.95
660.17	59102.33
660.36	58498.18
660.56	59069.56
660.75	58834.05
660.94	59126.91
661.14	58813.57
661.33	58887.29
661.52	59044.99
661.71	59143.29
661.91	58731.65
662.10	58664.06
662.29	59307.13
662.49	59114.62
662.68	59157.63
662.87	59217.02
663.06	59327.61
663.26	58786.94
663.45	59522.16
663.64	59161.72
663.83	59530.36
664.03	58924.16
664.22	58915.96
664.41	59327.61
664.60	58754.18
664.80	59239.54
664.99	58885.25
665.18	58979.45
665.37	58987.64
665.57	59118.71
665.76	58969.21
665.95	59116.67
666.14	58635.39
666.34	58864.77
666.53	59143.29
666.72	59020.41
666.91	59190.39
667.11	58578.05
667.30	59131.00
667.49	59262.07
667.68	59372.66
667.87	58774.66
668.07	59010.17
668.26	58750.08
668.45	59176.06
668.64	58492.04
668.84	59120.76
669.03	59446.39
669.22	59126.91
669.41	59610.23
669.60	59278.46
669.80	58834.05
669.99	59159.67
670.18	58453.12
670.37	59196.54
670.57	59274.36
670.76	58485.89
670.95	58958.97
671.14	58631.30
671.33	58584.19
671.53	59300.98
671.72	58623.11
671.91	58920.06
672.10	58422.40
672.29	58981.50
672.48	58856.57
672.68	59126.91
672.87	58604.67
673.06	58584.19
673.25	58725.50
673.44	58832.00
673.64	58586.24
673.83	59022.46
674.02	58889.34
674.21	58678.40
674.40	58619.01
674.59	58727.55
674.79	58489.99
674.98	58547.33
675.17	59427.96
675.36	58418.31
675.55	59077.75
675.74	59032.70
675.94	58872.96
676.13	58813.57
676.32	58713.22
676.51	59364.47
676.70	58715.26
676.89	58969.21
677.08	59391.09
677.28	58334.34
677.47	58901.63
677.66	59217.02
677.85	58758.27
678.04	59077.75
678.23	59139.19
678.42	58901.63
678.62	58277.00
678.81	59044.99
679.00	58838.14
679.19	59124.86
679.38	58971.26
679.57	59073.66
679.76	58371.21
679.96	58909.82
680.15	58748.03
680.34	58555.52
680.53	58326.15
680.72	58872.96
680.91	58389.64
681.10	58520.71
681.29	59030.65
681.48	58600.58
681.68	58418.31
681.87	58655.87
682.06	58537.09
682.25	58219.66
682.44	58795.13
682.63	58487.94
682.82	57975.95
683.01	58244.23
683.20	57840.78
683.39	58803.33
683.59	58492.04
683.78	58401.92
683.97	58250.38
684.16	58186.89
684.35	58219.66
684.54	58104.97
684.73	57877.64
684.92	58090.63
685.11	58072.20
685.30	57998.48
685.49	58582.15
685.69	58115.21
685.88	57939.08
686.07	57842.83
686.26	57832.59
686.45	58135.69
686.64	58160.26
686.83	58047.63
687.02	58256.52
687.21	58166.41
687.40	57822.35
687.59	58041.48
687.78	57853.07
687.97	58264.71
688.16	57717.90
688.35	57865.36
688.54	57566.35
688.74	58193.03
688.93	57394.32
689.12	57937.04
689.31	57742.48
689.50	58287.24
689.69	57570.45
689.88	57537.68
690.07	57799.82
690.26	57521.30
690.45	57681.04
690.64	57455.76
690.83	57455.76
691.02	57279.64
691.21	57722.00
691.40	57891.98
691.59	57713.81
691.78	57595.03
691.97	58064.01
692.16	57287.83
692.35	57595.03
692.54	57848.97
692.73	57490.58
692.92	57496.72
693.11	57488.53
693.30	57635.98
693.49	57447.57
693.68	57181.34
693.87	57064.60
694.06	56861.85
694.25	57267.35
694.44	57048.22
694.63	56962.20
694.82	57091.22
695.01	56890.52
695.20	57148.57
695.39	57218.20
695.58	56863.90
695.77	56886.43
695.96	56921.24
696.15	56997.02
696.34	56587.42
696.53	56745.12
696.72	56923.29
696.91	56446.11
697.10	56413.35
697.29	56644.77
697.48	57095.32
697.67	56280.23
697.86	56308.90
698.05	56665.25
698.24	57046.17
698.43	56120.49
698.62	57070.75
698.81	56257.70
699.00	56464.55
699.19	55858.35
699.38	56837.28
699.57	56136.87
699.76	56956.06
699.95	56302.76
700.14	56202.41
700.32	56255.65
700.51	56083.62
700.70	56126.63
700.89	56091.82
701.08	56333.48
701.27	56362.15
701.46	56091.82
701.65	55729.33
701.84	56493.22
702.03	55755.95
702.22	56020.14
702.41	55989.42
702.60	56011.95
702.79	55690.41
702.98	55737.52
703.17	55712.94
703.35	55651.50
703.54	55901.36
703.73	55999.66
703.92	55944.36
704.11	55880.88
704.30	55319.73
704.49	55729.33
704.68	55567.54
704.87	55614.64
705.06	55401.65
705.25	55444.66
705.43	55669.93
705.62	55989.42
705.81	55121.08
706.00	55663.79
706.19	55049.40
706.38	54842.56
706.57	55407.79
706.76	55194.81
706.95	55522.48
707.14	55024.82
707.32	55360.69
707.51	55116.98
707.70	54942.91
707.89	54996.15
708.08	55030.97
708.27	55186.61
708.46	55418.03
708.65	54846.65
708.84	55002.30
709.02	54883.51
709.21	54826.17
709.40	55317.68
709.59	55157.94
709.78	54418.63
709.97	54848.70
710.16	54717.63
710.34	54240.45
710.53	54627.52
710.72	54338.75
710.91	54260.93
711.10	54627.52
711.29	54361.28
711.48	54432.96
711.66	54379.71
711.85	54111.43
712.04	54734.01
712.23	54334.66
712.42	54533.31
712.61	54564.03
712.80	54355.14
712.98	54514.88
713.17	54334.66
713.36	54101.19
713.55	54133.96
713.74	54146.25
713.93	54355.14
714.11	54832.32
714.30	53642.45
714.49	54015.18
714.68	53880.01
714.87	54084.81
715.06	54129.86
715.24	54715.58
715.43	53511.38
715.62	53263.57
715.81	53603.53
716.00	54101.19
716.18	53609.68
716.37	53173.46
716.56	53124.31
716.75	54176.97
716.94	53570.77
717.12	53009.62
717.31	53501.14
717.50	53499.09
717.69	53210.32
717.88	52942.04
718.06	53531.86
718.25	53785.80
718.44	53376.21
718.63	53451.98
718.82	52589.79
719.00	52894.94
719.19	52929.75
719.38	52894.94
719.57	52827.35
719.76	52389.09
719.94	52567.26
720.13	52573.41
720.32	52696.28
720.51	53134.55
720.69	52778.20
720.88	52462.82
721.07	52237.54
721.26	51909.86
721.44	52397.28
721.63	52335.84
721.82	52145.38
722.01	51518.70
722.20	52352.23
722.38	51715.31
722.57	51418.35
722.76	51614.96
722.95	52149.48
723.13	51819.75
723.32	51172.60
723.51	51088.63
723.70	51418.35
723.88	51211.51
724.07	51365.10
724.26	51055.86
724.44	50756.86
724.63	51340.53
724.82	51154.16
725.01	50928.89
725.19	51467.50
725.38	50920.70
725.57	51125.49
725.76	51209.46
725.94	50793.72
726.13	50701.56
726.32	50324.74
726.51	50777.34
726.69	51320.05
726.88	51037.43
727.07	50816.25
727.25	51262.71
727.44	50681.08
727.63	50590.97
727.82	50570.49
728.00	51117.30
728.19	50967.80
728.38	51094.77
728.56	50478.33
728.75	51039.48
728.94	50900.22
729.12	50849.02
729.31	50932.98
729.50	50345.22
729.69	50715.90
729.87	50715.90
730.06	50599.16
730.25	50468.09
730.43	51066.10
730.62	50550.01
730.81	50633.98
730.99	50517.25
731.18	50392.32
731.37	50683.13
731.55	50892.02
731.74	51049.72
731.93	50433.28
732.11	50672.89
732.30	50818.30
732.49	50269.44
732.67	50365.70
732.86	50222.34
733.05	50363.65
733.23	50111.75
733.42	50185.47
733.61	50566.40
733.79	50099.46
733.98	50279.68
734.17	49939.72
734.35	50105.60
734.54	50181.38
734.73	50195.71
734.91	49988.87
735.10	50083.08
735.29	50033.92
735.47	49949.96
735.66	50273.54
735.84	49980.68
736.03	49536.27
736.22	50269.44
736.40	49980.68
736.59	50177.28
736.78	49769.74
736.96	50216.19
737.15	50097.41
737.33	49632.52
737.52	49741.06
737.71	50070.79
737.89	50070.79
738.08	49583.37
738.27	49665.29
738.45	50150.66
738.64	49775.88
738.82	49222.93
739.01	49696.01
739.20	49782.02
739.38	49159.44
739.57	49917.19
739.75	49196.31
739.94	49128.72
740.13	49581.32
740.31	49200.40
740.50	49521.93
740.68	49489.16
740.87	49480.97
741.06	49272.08
741.24	49204.50
741.43	49345.81
741.61	49200.40
741.80	48850.20
741.99	48880.92
742.17	48770.33
742.36	49354.00
742.54	49308.94
742.73	49165.59
742.91	49052.95
743.10	49151.25
743.29	49141.01
743.47	49116.43
743.66	49179.92
743.84	48801.05
744.03	48954.64
744.21	48948.50
744.40	48971.03
744.59	48903.45
744.77	48829.72
744.96	48624.92
745.14	48647.45
745.33	48950.55
745.51	48805.14
745.70	48753.94
745.88	48719.13
746.07	48979.22
746.26	47981.86
746.44	48010.53
746.63	48438.56
746.81	48577.82
747.00	47559.98
747.18	48688.41
747.37	48047.39
747.55	48039.20
747.74	48620.83
747.92	47707.43
748.11	47656.23
748.29	48373.02
748.48	48018.72
748.66	47863.08
748.85	48272.67
749.03	47990.05
749.22	48033.06
749.41	47961.38
749.59	47682.86
749.78	47760.68
749.96	47385.90
750.15	48002.34
750.33	48176.42
750.52	48133.41
750.70	48094.50
750.89	47676.71
751.07	47473.96
751.26	47885.61
751.44	47129.90
751.63	47664.42
751.81	47592.75
752.00	47355.18
752.18	47822.12
752.37	47408.43
752.55	47123.76
752.74	46998.83
752.92	47160.62
753.10	47158.58
753.29	47365.42
753.47	47045.94
753.66	46908.72
753.84	47160.62
754.03	46822.71
754.21	46959.92
754.40	46916.92
754.58	47088.95
754.77	47101.23
754.95	46730.55
755.14	46835.00
755.32	46708.02
755.51	46300.48
755.69	46757.17
755.88	46462.27
756.06	46861.62
756.24	46679.35
756.43	46077.25
756.61	46310.72
756.80	46110.02
756.98	46150.98
757.17	46710.07
757.35	46241.09
757.54	46349.63
757.72	46241.09
757.90	46232.89
758.09	46011.71
758.27	46396.73
758.46	45884.74
758.64	46212.41
758.83	46198.08
759.01	46253.37
759.19	45897.03
759.38	45692.23
759.56	46048.58
759.75	45950.27
759.93	45655.37
760.12	45657.42
760.30	45884.74
760.48	45417.80
760.67	45886.79
760.85	45806.92
761.04	45368.65
761.22	45978.95
761.40	46185.79
761.59	45864.26
761.77	45430.09
761.96	45370.70
762.14	45466.95
762.32	45069.65
762.51	44895.57
762.69	45208.91
762.88	45452.62
763.06	45075.79
763.24	45321.55
763.43	45442.38
763.61	45057.36
763.80	44875.09
763.98	45194.57
764.16	44805.46
764.35	44326.24
764.53	43961.70
764.72	45038.93
764.90	44782.93
765.08	44793.17
765.27	44369.24
765.45	44420.44
765.63	43615.59
765.82	44571.99
766.00	44275.04
766.18	44471.64
766.37	44592.47
766.55	44316.00
766.74	44332.38
766.92	44342.62
767.10	44275.04
767.29	44078.43
767.47	44139.87
767.65	44268.89
767.84	43668.84
768.02	44240.22
768.20	43429.23
768.39	43990.37
768.57	44146.01
768.75	43775.33
768.94	43525.48
769.12	43761.00
769.30	43402.60
769.49	43629.93
769.67	43500.90
769.85	43375.98
770.04	43152.75
770.22	43339.11
770.40	42737.01
770.59	42968.43
770.77	43384.17
770.95	43294.06
771.14	43046.26
771.32	42427.77
771.50	42202.49
771.69	42564.98
771.87	42681.72
772.05	43115.89
772.24	42259.84
772.42	42585.46
772.60	42886.51
772.78	42474.87
772.97	42833.27
773.15	42751.35
773.33	42665.33
773.52	42712.44
773.70	42708.34
773.88	42890.61
774.07	42532.22
774.25	42325.37
774.43	43013.49
774.61	42870.13
774.80	42790.26
774.98	42741.11
775.16	42665.33
775.34	42900.85
775.53	42460.54
775.71	42589.56
775.89	42950.00
776.08	42515.83
776.26	42765.68
776.44	42204.54
776.62	42579.32
776.81	42478.97
776.99	42644.85
777.17	42767.73
777.35	42607.99
777.54	43154.80
777.72	42401.14
777.90	42644.85
778.08	42622.33
778.27	42440.06
778.45	42835.31
778.63	43134.32
778.81	42653.05
779.00	43287.92
779.18	42902.90
779.36	43511.14
779.54	42716.53
779.73	43111.79
779.91	43378.03
780.09	43072.88
780.27	43111.79
780.46	43513.19
780.64	43570.54
780.82	42898.80
781.00	43525.48
781.19	43371.88
781.37	43216.24
781.55	43115.89
781.73	43791.72
781.91	43312.49
782.10	43398.51
782.28	43265.39
782.46	43220.33
782.64	43634.02
782.82	43433.32
783.01	43631.97
783.19	43271.53
783.37	43595.11
783.55	43375.98
783.74	43939.17
783.92	43122.03
784.10	43978.08
784.28	43883.87
784.46	43246.96
784.64	43382.12
784.83	43304.30
785.01	43638.12
785.19	43345.26
785.37	43453.80
785.55	43562.34
785.74	43218.28
785.92	43533.67
786.10	43611.49
786.28	43435.37
786.46	43099.50
786.64	43091.31
786.83	42878.32
787.01	43013.49
787.19	43214.19
787.37	43322.73
787.55	42751.35
787.74	43031.92
787.92	42894.71
788.10	42560.89
788.28	42579.32
788.46	42761.59
788.64	42687.86
788.82	43222.38
789.01	42816.88
789.19	42786.16
789.37	42560.89
789.55	42831.22
789.73	42208.64
789.91	42167.68
790.09	42718.58
790.28	42206.59
790.46	41938.30
790.64	42233.21
790.82	42171.77
791.00	42294.65
791.18	41831.81
791.36	41684.36
791.55	42098.05
791.73	41926.02
791.91	41581.96
792.09	41614.72
792.27	41637.25
792.45	41964.93
792.63	41545.09
792.81	41432.46
793.00	41229.71
793.18	41115.02
793.36	41307.53
793.54	41168.27
793.72	41024.91
793.90	40574.36
794.08	40734.10
794.26	40764.82
794.44	40517.01
794.62	40494.49
794.81	40797.59
794.99	40244.63
795.17	40379.80
795.35	40109.47
795.53	40148.38
795.71	40387.99
795.89	40031.65
796.07	39450.02
796.25	39966.11
796.43	40072.60
796.61	39599.52
796.80	39357.86
796.98	39931.29
797.16	39538.08
797.34	39488.93
797.52	39208.36
797.70	39548.32
797.88	39120.30
798.06	38610.35
798.24	38956.46
798.42	38944.17
798.60	38337.98
798.78	38792.62
798.96	38647.22
799.14	38774.19
799.32	38784.43
799.51	38647.22
799.69	38675.89
799.87	38430.13
800.05	38204.86
800.23	38114.75
800.41	37815.74
800.59	37760.45
800.77	37344.71
800.95	37522.88
801.13	37590.47
801.31	37369.29
801.49	37408.20
801.67	37338.57
801.85	37354.95
802.03	37225.93
802.21	36924.88
802.39	36937.16
802.57	37303.75
802.75	36789.71
802.93	37084.62
803.11	36353.49
803.29	36773.33
803.47	36435.41
803.65	36885.97
803.83	36496.85
804.01	36400.60
804.19	35991.00
804.37	36056.54
804.55	36459.99
804.73	36572.63
804.91	35931.61
805.09	35997.15
805.27	35679.71
805.45	35632.61
805.63	35628.51
805.81	35425.76
805.99	35610.08
806.17	35745.25
806.35	35558.88
806.53	35149.29
806.71	35366.37
806.89	35325.41
807.07	35145.19
807.25	35378.66
807.43	34694.64
807.61	34958.83
807.79	35100.14
807.97	35001.83
808.15	34784.75
808.33	34762.22
808.51	34657.78
808.69	34586.10
808.87	34321.91
809.05	34389.49
809.23	33816.06
809.41	34049.53
809.59	34166.26
809.77	34110.97
809.95	33846.78
810.13	33908.22
810.31	33893.88
810.49	34090.49
810.67	33836.54
810.84	33635.84
811.02	33560.06
811.20	33209.86
811.38	33664.51
811.56	33418.75
811.74	33510.91
811.92	33203.72
812.10	33512.96
812.28	33486.34
812.46	33234.44
812.64	33607.17
812.82	33064.46
813.00	33369.60
813.18	33084.94
813.36	32661.01
813.53	32923.15
813.71	32755.21
813.89	32814.60
814.07	32429.59
814.25	32761.36
814.43	32482.83
814.61	32335.38
814.79	32122.39
814.97	32357.91
815.15	32749.07
815.33	31940.12
815.50	32112.15
815.68	32325.14
815.86	32204.31
816.04	32384.53
816.22	32036.38
816.40	32050.71
816.58	31766.04
816.76	31993.37
816.94	31491.62
817.11	32005.66
817.29	31974.94
817.47	31430.18
817.65	31378.98
817.83	31798.81
818.01	31616.54
818.19	31268.39
818.37	31157.80
818.54	31079.97
818.72	31268.39
818.90	30987.82
819.08	31049.25
819.26	31100.45
819.44	31034.92
819.62	30881.32
819.80	31196.71
819.97	31462.94
820.15	31225.38
820.33	30578.22
820.51	31237.67
820.69	30633.52
820.87	30746.15
821.05	30914.09
821.22	30344.75
821.40	30670.38
821.58	30064.18
821.76	30391.86
821.94	30008.89
822.12	30438.96
822.29	30322.23
822.47	29818.42
822.65	30019.13
822.83	30105.14
823.01	30064.18
823.19	30336.56
823.36	29662.78
823.54	29826.62
823.72	29828.66
823.90	29838.90
824.08	29398.59
824.25	29865.53
824.43	29322.82
824.61	29269.57
824.79	29500.99
824.97	29730.36
825.15	29673.02
825.32	29302.34
825.50	29275.71
825.68	29296.19
825.86	29673.02
826.04	29421.12
826.21	29171.27
826.39	29163.08
826.57	29005.38
826.75	28974.66
826.93	28616.27
827.10	28698.19
827.28	28851.78
827.46	29253.19
827.64	28872.26
827.81	28839.50
827.99	28782.15
828.17	28730.95
828.35	28679.75
828.53	28665.42
828.70	28792.39
828.88	28649.03
829.06	28405.33
829.24	28683.85
829.41	28390.99
829.59	28730.95
829.77	28638.80
829.95	28325.46
830.12	28206.67
830.30	28143.19
830.48	28646.99
830.66	28378.70
830.84	28495.44
831.01	28134.99
831.19	28116.56
831.37	28091.99
831.55	28100.18
831.72	27915.86
831.90	28036.69
832.08	28001.88
832.25	27553.37
832.43	27764.31
832.61	27661.91
832.79	27719.26
832.96	27932.25
833.14	27819.61
833.32	27766.36
833.50	27989.59
833.67	27684.44
833.85	27438.69
834.03	27330.14
834.20	27686.49
834.38	27694.68
834.56	27434.59
834.74	27225.70
834.91	27260.51
835.09	27221.60
835.27	27133.54
835.44	27317.86
835.62	26848.87
835.80	27168.35
835.98	27254.37
836.15	27113.06
836.33	27049.57
836.51	27328.10
836.68	27084.39
836.86	26908.26
837.04	26783.34
837.21	27020.90
837.39	26881.64
837.57	26959.46
837.75	26818.15
837.92	26752.62
838.10	26633.83
838.28	26338.93
838.45	26416.75
838.63	26650.22
838.81	26639.98
838.98	26084.98
839.16	26173.04
839.34	26383.98
839.51	26523.24
839.69	25958.00
839.87	26156.66
840.04	26095.22
840.22	26558.06
840.40	26160.75
840.57	25857.65
840.75	26132.08
840.93	25759.35
841.10	25902.71
841.28	26142.32
841.46	25749.11
841.63	26482.28
841.81	25816.69
841.98	26064.50
842.16	25814.65
842.34	26033.78
842.51	25706.10
842.69	26052.21
842.87	25691.77
843.04	25958.00
843.22	25550.46
843.40	25560.70
843.57	25427.58
843.75	25689.72
843.92	25702.01
844.10	25343.61
844.28	25302.65
844.45	25456.25
844.63	25710.20
844.81	25122.43
844.98	25448.06
845.16	25134.72
845.33	25505.40
845.51	25249.41
845.69	25187.97
845.86	24915.59
846.04	24974.98
846.21	24958.60
846.39	24972.93
846.57	24878.72
846.74	25206.40
846.92	24860.29
847.09	24878.72
847.27	24753.80
847.45	24929.92
847.62	24952.45
847.80	24641.16
847.97	24895.11
848.15	24716.93
848.32	24315.53
848.50	24852.10
848.68	24366.73
848.85	24692.36
849.03	24245.90
849.20	24776.33
849.38	24524.43
849.56	24671.88
849.73	24465.03
849.91	24491.66
850.08	24854.15
850.26	24073.87
850.43	24063.63
850.61	24391.31
850.78	24077.97
850.96	24538.76
851.14	23959.19
851.31	24161.94
851.49	23965.33
851.66	24075.92
851.84	24006.29
852.01	24088.21
852.19	23998.10
852.36	23901.84
852.54	23991.95
852.71	23842.45
852.89	23776.92
853.07	24182.42
853.24	23781.01
853.42	23746.20
853.59	23748.25
853.77	23697.05
853.94	23875.22
854.12	23639.70
854.29	23436.95
854.47	23699.09
854.64	23447.19
854.82	23549.59
854.99	23707.29
855.17	23451.29
855.34	23701.14
855.52	23551.64
855.69	23396.00
855.87	23307.93
856.04	22974.11
856.22	23217.82
856.39	22996.64
856.57	23295.64
856.74	22972.07
856.92	23152.29
857.09	23033.50
857.27	23107.23
857.44	23037.60
857.62	22877.86
857.79	22775.46
857.97	23144.09
858.14	23131.81
858.32	22898.34
858.49	23092.90
858.67	22652.58
858.84	22867.62
859.02	22396.59
859.19	22634.15
859.37	22736.55
859.54	22374.06
859.72	22953.63
859.89	22535.85
860.06	22783.65
860.24	22556.33
860.41	22820.52
860.59	22324.91
860.76	22513.32
860.94	22367.91
861.11	22304.43
861.29	22359.72
861.46	22412.97
861.64	21970.61
861.81	22267.56
861.98	22351.53
862.16	22103.73
862.33	22128.30
862.51	22210.22
862.68	22113.97
862.86	22290.09
863.03	22089.39
863.21	21931.70
863.38	21950.13
863.55	21974.70
863.73	21915.31
863.90	22007.47
864.08	21952.18
864.25	21925.55
864.43	22042.29
864.60	21583.54
864.77	21638.84
864.95	21749.43
865.12	21552.82
865.30	21599.93
865.47	21270.20
865.64	21720.76
865.82	21702.32
865.99	21679.80
866.17	21415.61
866.34	21810.87
866.51	21466.81
866.69	21558.97
866.86	21544.63
867.04	21362.36
867.21	21257.92
867.38	21511.86
867.56	21092.03
867.73	21194.43
867.91	21028.54
868.08	21094.08
868.25	20997.82
868.43	21151.42
868.60	21130.94
868.78	21192.38
868.95	21079.74
869.12	21137.09
869.30	20856.51
869.47	20801.22
869.64	20676.29
869.82	20831.94
869.99	20575.94
870.16	20938.43
870.34	20440.78
870.51	20717.25
870.69	20543.17
870.86	20516.55
871.03	20500.17
871.21	20561.61
871.38	20553.41
871.55	20498.12
871.73	20147.92
871.90	20321.99
872.07	20223.69
872.25	20004.56
872.42	20156.11
872.59	20033.23
872.77	20117.20
872.94	19979.98
873.11	19789.52
873.29	20121.29
873.46	20012.75
873.63	20090.57
873.81	19814.10
873.98	19574.49
874.15	20045.52
874.33	19570.39
874.50	19597.01
874.67	19924.69
874.85	19496.66
875.02	19674.84
875.19	19429.08
875.37	19459.80
875.54	19381.98
875.71	19529.43
875.88	19328.73
876.06	19320.54
876.23	19306.20
876.40	19205.85
876.58	19377.88
876.75	19035.87
876.92	19408.60
877.10	18994.91
877.27	19033.82
877.44	18992.86
877.61	18931.42
877.79	18945.76
877.96	19023.58
878.13	18769.63
878.31	18779.87
878.48	18804.45
878.65	18659.04
878.82	18507.49
879.00	18831.07
879.17	18534.12
879.34	18884.32
879.51	18360.04
879.69	18468.58
879.86	18616.04
880.03	18415.34
880.21	18323.18
880.38	18554.60
880.55	18394.86
880.72	18503.40
880.90	18304.74
881.07	18304.74
881.24	18216.68
881.41	18269.93
881.59	18259.69
881.76	18163.43
881.93	18124.52
882.10	18163.43
882.28	18009.84
882.45	17977.07
882.62	17934.06
882.79	18335.46
882.96	17712.88
883.14	17983.21
883.31	18042.60
883.48	17997.55
883.65	18333.42
883.83	18001.65
884.00	17929.97
884.17	17837.81
884.34	17981.17
884.51	17755.89
884.69	17723.12
884.86	17966.83
885.03	17741.55
885.20	17370.87
885.38	17483.51
885.55	17698.55
885.72	17678.07
885.89	17712.88
886.06	17725.17
886.24	17536.76
886.41	17467.13
886.58	17534.71
886.75	17833.71
886.92	17303.29
887.10	17479.41
887.27	17506.04
887.44	17266.42
887.61	17682.16
887.78	17460.98
887.95	17432.31
888.13	17295.10
888.30	17235.70
888.47	17110.78
888.64	17374.97
888.81	17039.10
888.99	17170.17
889.16	16955.13
889.33	17213.18
889.50	16815.87
889.67	16948.99
889.84	16611.07
890.01	17061.63
890.19	16877.31
890.36	16916.22
890.53	16938.75
890.70	16602.88
890.87	16531.20
891.04	16883.45
891.22	16617.22
891.39	16592.64
891.56	16801.54
891.73	16801.54
891.90	16563.97
892.07	16703.23
892.24	16611.07
892.42	16408.33
892.59	16699.14
892.76	16316.17
892.93	16445.19
893.10	16652.03
893.27	16439.05
893.44	16183.05
893.61	16117.51
893.79	16418.57
893.96	16256.78
894.13	16291.59
894.30	16541.44
894.47	16160.52
894.64	16525.06
894.81	16234.25
894.98	16426.76
895.15	16285.45
895.33	16080.65
895.50	16037.64
895.67	16498.44
895.84	16101.13
896.01	16238.34
896.18	16041.74
896.35	16248.58
896.52	16068.36
896.69	16054.03
896.86	16209.67
897.04	16060.17
897.21	16305.93
897.38	16086.79
897.55	16168.71
897.72	16228.10
897.89	16269.06
898.06	16019.21
898.23	16207.62
898.40	16068.36
898.57	16228.10
898.74	15908.62
898.91	15978.25
899.08	15697.68
899.26	16092.94
899.43	16090.89
899.60	16008.97
899.77	16080.65
899.94	15918.86
900.11	15820.56
900.28	16051.98
900.45	15961.87
900.62	15746.83
900.79	15974.16
900.96	15953.68
901.13	15847.18
901.30	15888.14
901.47	15935.24
901.64	15855.37
901.81	16025.36
901.98	16068.36
902.15	16109.32
902.32	15650.58
902.49	16062.22
902.66	16070.41
902.83	15752.98
903.01	15974.16
903.18	15941.39
903.35	15750.93
903.52	15757.07
903.69	15929.10
903.86	15882.00
904.03	15929.10
904.20	16135.95
904.37	16144.14
904.54	15507.22
904.71	15798.03
904.88	15865.61
905.05	15861.52
905.22	15707.92
905.39	15851.28
905.56	16019.21
905.73	15812.37
905.90	15789.84
906.07	15963.92
906.24	15937.29
906.41	15613.71
906.58	15873.81
906.75	15937.29
906.92	15572.75
907.09	15849.23
907.26	15740.69
907.43	15587.09
907.60	15730.45
907.77	15806.22
907.93	16051.98
908.10	15998.73
908.27	15863.57
908.44	15714.06
908.61	15666.96
908.78	15613.71
908.95	15898.38
909.12	15808.27
909.29	15757.07
909.46	15535.89
909.63	15748.88
909.80	15564.56
909.97	15800.08
910.14	15580.95
910.31	15658.77
910.48	15451.92
910.65	15748.88
910.82	15535.89
910.99	15314.71
911.16	15531.80
911.33	15546.13
911.50	15519.51
911.66	15458.07
911.83	15519.51
912.00	15154.97
912.17	15152.92
912.34	14925.60
912.51	15161.11
912.68	15079.19
912.85	15171.35
913.02	15322.90
913.19	15247.13
913.36	15425.30
913.53	15269.66
913.70	15148.82
913.86	15195.93
914.03	15073.05
914.20	15144.73
914.37	15130.39
914.54	15089.43
914.71	14962.46
914.88	14933.79
915.05	14855.97
915.22	14825.25
915.39	14907.16
915.55	14878.49
915.72	14823.20
915.89	14481.19
916.06	14655.26
916.23	14712.61
916.40	14610.21
916.57	14415.65
916.74	14366.50
916.91	14393.12
917.07	14315.30
917.24	14331.69
917.41	14499.62
917.58	14526.24
917.75	14227.24
917.92	14362.40
918.09	14421.80
918.26	14436.13
918.42	14298.92
918.59	14354.21
918.76	14067.50
918.93	14040.87
919.10	13883.18
919.27	13954.86
919.44	13987.63
919.60	14077.74
919.77	13885.23
919.94	13897.52
920.11	13729.58
920.28	13899.56
920.45	13743.92
920.61	13510.45
920.78	13627.18
920.95	13588.27
921.12	13365.04
921.29	13377.33
921.46	13535.03
921.62	13340.47
921.79	13324.08
921.96	13322.04
922.13	13461.30
922.30	13250.36
922.47	13258.55
922.63	12975.93
922.80	13272.89
922.97	13029.18
923.14	12988.22
923.31	13068.09
923.47	12764.99
923.64	13113.14
923.81	12721.98
923.98	12732.22
924.15	12781.37
924.32	12764.99
924.48	12767.04
924.65	12820.28
924.82	12484.42
924.99	12343.11
925.15	12386.12
925.32	12457.79
925.49	12283.72
925.66	12197.70
925.83	12283.72
925.99	12240.71
926.16	12234.57
926.33	12183.37
926.50	12085.06
926.67	12156.74
926.83	12099.40
927.00	11880.27
927.17	11859.79
927.34	11587.41
927.50	11878.22
927.67	12103.50
927.84	11642.70
928.01	11837.26
928.17	11507.54
928.34	11708.24
928.51	11251.54
928.68	11560.78
928.84	11485.01
929.01	11409.23
929.18	11159.38
929.35	11435.86
929.51	11317.08
929.68	10981.21
929.85	11276.12
930.02	11104.09
930.18	11028.31
930.35	10930.01
930.52	10919.77
930.69	10991.45
930.85	10631.01
931.02	10733.40
931.19	10749.79
931.36	10725.21
931.52	10583.90
931.69	10680.16
931.86	10676.06
932.02	10473.31
932.19	10544.99
932.36	10409.83
932.53	10547.04
932.69	10327.91
932.86	10377.06
933.03	10289.00
933.19	10053.48
933.36	10219.36
933.53	10241.89
933.70	10080.10
933.86	10084.20
934.03	9914.22
934.20	9842.54
934.36	9973.61
934.53	9746.28
934.70	9461.62
934.86	9465.71
935.03	9416.56
935.20	9480.05
935.36	9467.76
935.53	9449.33
935.70	9316.21
935.86	9400.18
936.03	9086.84
936.20	9072.50
936.36	8908.66
936.53	8925.05
936.70	8662.91
936.86	8976.25
937.03	8664.96
937.20	8499.07
937.36	8652.67
937.53	8161.16
937.70	8314.75
937.86	8308.61
938.03	8175.49
938.20	8308.61
938.36	8042.37
938.53	7927.69
938.70	7872.39
938.86	7817.10
939.03	7591.82
939.20	7565.20
939.36	7692.17
939.53	7546.76
939.70	7589.77
939.86	7333.78
940.03	7133.08
940.19	6895.51
940.36	6999.96
940.53	7075.73
940.69	6989.72
940.86	6909.85
941.03	6721.43
941.19	6672.28
941.36	6733.72
941.52	6635.42
941.69	6576.03
941.86	6504.35
942.02	6461.34
942.19	6465.44
942.35	6225.82
942.52	6197.15
942.69	6223.78
942.85	6066.08
943.02	5949.35
943.18	6080.42
943.35	6154.15
943.52	5951.40
943.68	5973.92
943.85	5963.68
944.01	5865.38
944.18	5787.56
944.35	5963.68
944.51	5779.37
944.68	5654.44
944.84	5844.90
945.01	5552.04
945.17	5650.35
945.34	5615.53
945.51	5611.43
945.67	5525.42
945.84	5527.47
946.00	5382.06
946.17	5660.59
946.33	5496.75
946.50	5664.68
946.67	5576.62
946.83	5427.12
947.00	5531.56
947.16	5482.41
947.33	5468.08
947.49	5490.60
947.66	5380.01
947.82	5420.97
947.99	5410.73
948.16	5615.53
948.32	5345.20
948.49	5509.04
948.65	5511.08
948.82	5425.07
948.98	5369.77
949.15	5474.22
949.31	5453.74
949.48	5400.49
949.64	5474.22
949.81	5504.94
949.97	5431.21
950.14	5554.09
950.30	5488.56
950.47	5470.12
950.63	5529.52
950.80	5681.07
950.96	5511.08
951.13	5521.32
951.30	5552.04
951.46	5541.80
951.63	5654.44
951.79	5611.43
951.96	5629.87
952.12	5525.42
952.29	5554.09
952.45	5533.61
952.62	5601.19
952.78	5574.57
952.94	5474.22
953.11	5566.38
953.27	5541.80
953.44	5717.93
953.60	5660.59
953.77	5621.67
953.93	5648.30
954.10	5703.59
954.26	5504.94
954.43	5724.07
954.59	5615.53
954.76	5662.63
954.92	5662.63
955.09	5762.98
955.25	5517.23
955.42	5590.95
955.58	5857.19
955.75	5701.54
955.91	5685.16
956.07	5722.02
956.24	5775.27
956.40	5646.25
956.57	5756.84
956.73	5482.41
956.90	5701.54
957.06	5584.81
957.23	5584.81
957.39	5529.52
957.56	5640.11
957.72	5660.59
957.88	5713.83
958.05	5746.60
958.21	5853.09
958.38	5717.93
958.54	5767.08
958.71	5793.70
958.87	5771.18
959.03	5707.69
959.20	5808.04
959.36	5685.16
959.53	5646.25
959.69	5572.52
959.85	5633.96
960.02	5640.11
960.18	5590.95
960.35	5531.56
960.51	5646.25
960.68	5550.00
960.84	5541.80
961.00	5541.80
961.17	5619.63
961.33	5699.50
961.50	5619.63
961.66	5732.26
961.82	5541.80
961.99	5619.63
962.15	5515.18
962.31	5502.89
962.48	5623.72
962.64	5771.18
962.81	5611.43
962.97	5588.91
963.13	5621.67
963.30	5623.72
963.46	5582.76
963.62	5492.65
963.79	5511.08
963.95	5431.21
964.12	5550.00
964.28	5529.52
964.44	5547.95
964.61	5494.70
964.77	5414.83
964.93	5519.28
965.10	5425.07
965.26	5443.50
965.42	5502.89
965.59	5519.28
965.75	5447.60
965.92	5482.41
966.08	5435.31
966.24	5533.61
966.41	5519.28
966.57	5472.17
966.73	5492.65
966.90	5531.56
967.06	5459.88
967.22	5433.26
967.39	5459.88
967.55	5386.16
967.71	5431.21
967.88	5281.71
968.04	5414.83
968.20	5431.21
968.37	5408.69
968.53	5306.29
968.69	5382.06
968.85	5332.91
969.02	5377.97
969.18	5484.46
969.34	5427.12
969.51	5437.36
969.67	5302.19
969.83	5103.54
970.00	5437.36
970.16	5205.94
970.32	5263.28
970.48	5398.45
970.65	5212.08
970.81	5177.26
970.97	5054.39
971.14	5205.94
971.30	5390.25
971.46	5132.21
971.63	5195.70
971.79	5240.75
971.95	5205.94
972.11	5132.21
972.28	5124.02
972.44	5095.35
972.60	5074.87
972.76	5156.79
972.93	5105.59
973.09	5240.75
973.25	5050.29
973.42	5040.05
973.58	5107.63
973.74	5050.29
973.90	4935.60
974.07	5023.67
974.23	5031.86
974.39	5142.45
974.55	4960.18
974.72	5046.20
974.88	4941.75
975.04	4865.97
975.20	4968.37
975.37	4945.84
975.53	4945.84
975.69	4925.36
975.85	4915.12
976.01	4954.04
976.18	4974.52
976.34	4976.56
976.50	4890.55
976.66	4894.65
976.83	4786.10
976.99	4984.76
977.15	4814.77
977.31	4749.24
977.47	4859.83
977.64	4847.54
977.80	4835.25
977.96	4724.66
978.12	4712.38
978.29	4695.99
978.45	4603.83
978.61	4659.13
978.77	4685.75
978.93	4581.31
979.10	4679.61
979.26	4669.37
979.42	4650.94
979.58	4573.11
979.74	4550.59
979.91	4591.55
980.07	4671.42
980.23	4638.65
980.39	4468.67
980.55	4583.35
980.71	4501.44
980.88	4491.20
981.04	4380.61
981.20	4546.49
981.36	4552.63
981.52	4603.83
981.68	4378.56
981.85	4554.68
982.01	4523.96
982.17	4345.79
982.33	4423.61
982.49	4607.93
982.65	4343.74
982.82	4456.38
982.98	4429.76
983.14	4310.97
983.30	4468.67
983.46	4505.53
983.62	4360.13
983.79	4374.46
983.95	4409.28
984.11	4319.17
984.27	4396.99
984.43	4353.98
984.59	4255.68
984.75	4339.65
984.91	4442.04
985.08	4394.94
985.24	4177.86
985.40	4286.40
985.56	4229.06
985.72	4304.83
985.88	4343.74
986.04	4237.25
986.20	4138.94
986.37	4239.30
986.53	4151.23
986.69	4218.82
986.85	4034.50
987.01	4192.19
987.17	4267.97
987.33	3975.11
987.49	4089.79
987.65	4163.52
987.82	4175.81
987.98	4022.21
988.14	4050.88
988.30	4100.03
988.46	4032.45
988.62	3979.20
988.78	4009.92
988.94	3985.35
989.10	4007.87
989.26	4007.87
989.42	4003.78
989.59	3973.06
989.75	3872.71
989.91	4032.45
990.07	3872.71
990.23	4009.92
990.39	3850.18
990.55	3962.82
990.71	3809.22
990.87	3925.96
991.03	3813.32
991.19	3878.85
991.35	3878.85
991.51	3893.19
991.67	3887.04
991.83	3809.22
992.00	3889.09
992.16	3921.86
992.32	3846.09
992.48	3854.28
992.64	3768.26
992.80	3749.83
992.96	3731.40
993.12	3737.54
993.28	3723.21
993.44	3715.02
993.60	3655.62
993.76	3719.11
993.92	3723.21
994.08	3717.06
994.24	3737.54
994.40	3624.90
994.56	3698.63
994.72	3690.44
994.88	3672.01
995.04	3610.57
995.20	3559.37
995.36	3588.04
995.52	3655.62
995.68	3712.97
995.84	3577.80
996.00	3633.10
996.16	3551.18
996.32	3456.97
996.48	3495.88
996.64	3631.05
996.80	3532.75
996.96	3561.42
997.12	3506.12
997.28	3518.41
997.44	3508.17
997.60	3497.93
997.76	3477.45
997.92	3485.64
998.08	3483.59
998.24	3377.10
998.40	3459.02
998.56	3377.10
998.72	3354.57
998.88	3418.06
999.04	3428.30
999.20	3483.59
999.36	3375.05
999.52	3368.91
999.68	3321.81
999.84	3428.30
1000.00	3360.72
1000.16	3383.24
1000.32	3284.94
1000.48	3485.64
1000.64	3211.22
1000.80	3321.81
1000.95	3194.83
1001.11	3344.33
1001.27	3092.43
1001.43	3385.29
1001.59	3217.36
1001.75	3205.07
1001.91	3284.94
1002.07	3141.58
1002.23	3276.75
1002.39	3334.09
1002.55	3284.94
1002.71	3082.19
1002.87	3078.10
1003.03	3217.36
1003.19	3059.67
1003.34	3262.41
1003.50	3139.54
1003.66	3155.92
1003.82	3125.20
1003.98	3090.38
1004.14	3123.15
1004.30	3108.82
1004.46	2973.65
1004.62	3084.24
1004.78	3071.95
1004.94	3139.54
1005.09	3039.19
1005.25	3051.47
1005.41	3061.71
1005.57	3184.59
1005.73	3028.95
1005.89	2975.70
1006.05	3039.19
1006.21	3024.85
1006.37	3004.37
1006.52	2955.22
1006.68	2953.17
1006.84	3065.81
1007.00	2961.36
1007.16	3092.43
1007.32	2969.55
1007.48	2856.92
1007.64	2985.94
1007.79	2957.27
1007.95	2895.83
1008.11	2969.55
1008.27	2844.63
1008.43	2951.12
1008.59	2871.25
1008.75	2893.78
1008.91	2854.87
1009.06	2904.02
1009.22	2908.12
1009.38	2998.23
1009.54	2820.05
1009.70	2787.29
1009.86	2789.33
1010.01	2822.10
1010.17	2852.82
1010.33	2830.29
1010.49	2805.72
1010.65	2865.11
1010.81	2807.77
1010.96	2779.09
1011.12	2777.05
1011.28	2734.04
1011.44	2895.83
1011.60	2688.98
1011.76	2670.55
1011.91	2908.12
1012.07	2625.50
1012.23	2621.40
1012.39	2711.51
1012.55	2682.84
1012.71	2715.61
1012.86	2615.26
1013.02	2641.88
1013.18	2658.26
1013.34	2742.23
1013.50	2682.84
1013.65	2666.46
1013.81	2619.35
1013.97	2688.98
1014.13	2633.69
1014.29	2598.87
1014.44	2707.41
1014.60	2625.50
1014.76	2566.10
1014.92	2637.78
1015.07	2660.31
1015.23	2572.25
1015.39	2611.16
1015.55	2576.34
1015.71	2621.40
1015.86	2529.24
1016.02	2500.57
1016.18	2484.19
1016.34	2574.30
1016.49	2637.78
1016.65	2615.26
1016.81	2512.86
1016.97	2543.58
1017.12	2576.34
1017.28	2445.27
1017.44	2502.62
1017.60	2500.57
1017.75	2557.91
1017.91	2441.18
1018.07	2602.97
1018.23	2539.48
1018.38	2445.27
1018.54	2387.93
1018.70	2543.58
1018.86	2408.41
1019.01	2387.93
1019.17	2412.51
1019.33	2500.57
1019.49	2498.52
1019.64	2541.53
1019.80	2471.90
1019.96	2451.42
1020.12	2435.03
1020.27	2375.64
1020.43	2451.42
1020.59	2385.88
1020.74	2420.70
1020.90	2326.49
1021.06	2355.16
1021.22	2469.85
1021.37	2398.17
1021.53	2387.93
1021.69	2402.27
1021.84	2248.67
1022.00	2301.92
1022.16	2236.38
1022.31	2301.92
1022.47	2445.27
1022.63	2410.46
1022.79	2185.18
1022.94	2316.25
1023.10	2312.16
1023.26	2287.58
1023.41	2234.33
1023.57	2346.97
1023.73	2267.10
1023.88	2342.88
1024.04	2199.52
1024.20	2289.63
1024.35	2267.10
1024.51	2303.96
1024.67	2277.34
1024.82	2318.30
1024.98	2238.43
1025.14	2244.57
1025.29	2154.46
1025.45	2254.81
1025.61	2140.13
1025.76	2232.29
1025.92	2170.85
1026.08	2273.25
1026.23	2236.38
1026.39	2230.24
1026.55	2154.46
1026.70	2232.29
1026.86	2162.66
1027.02	2349.02
1027.17	2125.79
1027.33	2166.75
1027.48	2185.18
1027.64	2160.61
1027.80	2150.37
1027.95	2172.89
1028.11	2058.21
1028.27	2185.18
1028.42	2168.80
1028.58	2174.94
1028.73	2123.74
1028.89	2039.78
1029.05	2232.29
1029.20	2283.49
>>>>>End Processed Spectral Data<<<<<
