SpectraSuite Data File
++++++++++++++++++++++++++++++++++++
Date: Fri Jun 02 14:42:00 CEST 2017
User: INFO_000
Dark Spectrum Present: No
Reference Spectrum Present: No
Number of Sampled Component Spectra: 1
Spectrometers: USB4H00879
Integration Time (usec): 80000 (USB4H00879)
Spectra Averaged: 1 (USB4H00879)
Boxcar Smoothing: 0 (USB4H00879)
Correct for Electrical Dark: No (USB4H00879)
Strobe/Lamp Enabled: No (USB4H00879)
Correct for Detector Non-linearity: No (USB4H00879)
Correct for Stray Light: No (USB4H00879)
Number of Pixels in Processed Spectrum: 3648
>>>>>Begin Processed Spectral Data<<<<<
345.13	1267.69
345.34	1267.69
345.56	1267.69
345.78	1312.75
345.99	1349.61
346.21	1738.73
346.42	1656.81
346.64	1644.52
346.86	1769.44
347.07	1621.99
347.29	1683.43
347.50	1617.90
347.72	1675.24
347.94	1847.27
348.15	1511.40
348.37	1693.67
348.59	1738.73
348.80	1669.09
349.02	1742.82
349.23	1894.37
349.45	1863.65
349.67	1867.75
349.88	1769.44
350.10	1904.61
350.31	1804.26
350.53	1765.35
350.75	1900.52
350.96	1804.26
351.18	1855.46
351.39	1910.75
351.61	1847.27
351.82	1890.28
352.04	1990.63
352.26	1802.21
352.47	1906.66
352.69	1933.28
352.90	1814.50
353.12	1863.65
353.34	1906.66
353.55	1937.38
353.77	1837.03
353.98	1894.37
354.20	1814.50
354.41	1918.95
354.63	1892.32
354.85	2041.82
355.06	1884.13
355.28	1798.12
355.49	1839.08
355.71	1916.90
355.92	1832.93
356.14	1894.37
356.35	1843.17
356.57	1859.56
356.79	1904.61
357.00	1900.52
357.22	1935.33
357.43	1822.69
357.65	1941.47
357.86	1767.40
358.08	1961.95
358.29	1929.19
358.51	2045.92
358.72	2025.44
358.94	1937.38
359.16	1990.63
359.37	1927.14
359.59	1994.72
359.80	1968.10
360.02	1957.86
360.23	2025.44
360.45	2093.02
360.66	1923.04
360.88	1884.13
361.09	1945.57
361.31	2007.01
361.52	1953.76
361.74	2027.49
361.95	2025.44
362.17	1923.04
362.38	2064.35
362.60	1945.57
362.81	1988.58
363.03	2000.87
363.24	2000.87
363.46	2000.87
363.67	2035.68
363.89	1974.24
364.10	2031.58
364.32	1904.61
364.53	2060.26
364.75	1945.57
364.96	1984.48
365.18	1998.82
365.39	1982.43
365.61	1896.42
365.82	2107.36
366.04	1970.15
366.25	2000.87
366.47	2054.11
366.68	2082.78
366.90	1910.75
367.11	2002.91
367.33	2041.82
367.54	2056.16
367.76	2017.25
367.97	2125.79
368.19	2043.87
368.40	2050.02
368.62	2011.11
368.83	1961.95
369.05	2056.16
369.26	1947.62
369.48	1986.53
369.69	1984.48
369.91	2084.83
370.12	2056.16
370.33	2084.83
370.55	2060.26
370.76	2023.39
370.98	2146.27
371.19	2041.82
371.41	2064.35
371.62	2052.06
371.84	1974.24
372.05	2187.23
372.27	2082.78
372.48	2084.83
372.69	2111.46
372.91	2185.18
373.12	2136.03
373.34	2097.12
373.55	2150.37
373.77	2234.33
373.98	2097.12
374.20	2213.85
374.41	2248.67
374.62	2140.13
374.84	2215.90
375.05	2199.52
375.27	2205.66
375.48	2199.52
375.70	2170.85
375.91	2203.61
376.12	2281.44
376.34	2244.57
376.55	2293.72
376.77	2265.05
376.98	2174.94
377.19	2082.78
377.41	2150.37
377.62	2222.05
377.84	2199.52
378.05	2306.01
378.27	2142.18
378.48	2375.64
378.69	2392.03
378.91	2334.68
379.12	2308.06
379.34	2240.48
379.55	2322.40
379.76	2295.77
379.98	2183.13
380.19	2285.53
380.41	2246.62
380.62	2340.83
380.83	2160.61
381.05	2193.37
381.26	2338.78
381.47	2279.39
381.69	2267.10
381.90	2408.41
382.12	2224.09
382.33	2244.57
382.54	2187.23
382.76	2322.40
382.97	2306.01
383.19	2279.39
383.40	2441.18
383.61	2392.03
383.83	2318.30
384.04	2326.49
384.25	2394.08
384.47	2490.33
384.68	2394.08
384.89	2334.68
385.11	2416.60
385.32	2443.23
385.54	2410.46
385.75	2406.36
385.96	2428.89
386.18	2475.99
386.39	2453.47
386.60	2275.29
386.82	2412.51
387.03	2527.19
387.24	2506.71
387.46	2535.39
387.67	2488.28
387.88	2559.96
388.10	2506.71
388.31	2492.38
388.52	2584.54
388.74	2516.95
388.95	2566.10
389.16	2547.67
389.38	2527.19
389.59	2621.40
389.80	2701.27
390.02	2529.24
390.23	2611.16
390.44	2648.02
390.66	2555.86
390.87	2541.53
391.08	2660.31
391.30	2785.24
391.51	2670.55
391.72	2684.89
391.94	2668.50
392.15	2656.22
392.36	2609.11
392.58	2611.16
392.79	2754.52
393.00	2719.70
393.22	2734.04
393.43	2877.40
393.64	2809.81
393.85	2791.38
394.07	2602.97
394.28	2799.57
394.49	2840.53
394.71	2801.62
394.92	2893.78
395.13	2750.42
395.35	2797.53
395.56	2756.57
395.77	2830.29
395.98	2879.44
396.20	2969.55
396.41	2848.72
396.62	2940.88
396.84	2924.50
397.05	2846.68
397.26	2969.55
397.47	3012.56
397.69	2852.82
397.90	3127.25
398.11	2949.08
398.32	2891.73
398.54	2867.16
398.75	2852.82
398.96	2897.88
399.18	3168.21
399.39	3098.58
399.60	3131.34
399.81	2928.60
400.03	2957.27
400.24	3377.10
400.45	2983.89
400.66	3074.00
400.88	3108.82
401.09	3203.02
401.30	3047.38
401.51	3248.08
401.73	3180.50
401.94	3194.83
402.15	3190.74
402.36	3284.94
402.58	3211.22
402.79	3235.79
403.00	3227.60
403.21	3286.99
403.43	3219.41
403.64	3297.23
403.85	3160.02
404.06	3340.24
404.27	3209.17
404.49	3203.02
404.70	3262.41
404.91	3389.39
405.12	3237.84
405.34	3243.98
405.55	3557.32
405.76	3166.16
405.97	3235.79
406.19	3413.96
406.40	3272.65
406.61	3356.62
406.82	3436.49
407.03	3350.48
407.25	3387.34
407.46	3520.46
407.67	3434.44
407.88	3477.45
408.09	3465.16
408.31	3436.49
408.52	3565.51
408.73	3411.92
408.94	3336.14
409.15	3563.47
409.37	3547.08
409.58	3540.94
409.79	3590.09
410.00	3629.00
410.21	3514.31
410.43	3565.51
410.64	3413.96
410.85	3557.32
411.06	3565.51
411.27	3606.47
411.48	3651.53
411.70	3755.97
411.91	3700.68
412.12	3766.21
412.33	3665.86
412.54	3651.53
412.76	3887.04
412.97	3766.21
413.18	3616.71
413.39	3694.54
413.60	3624.90
413.81	3772.36
414.03	3751.88
414.24	3739.59
414.45	3950.53
414.66	3743.69
414.87	3868.61
415.08	3780.55
415.30	3772.36
415.51	3841.99
415.72	3778.50
415.93	3844.04
416.14	3874.76
416.35	3921.86
416.56	3823.56
416.78	4057.03
416.99	3930.05
417.20	3899.33
417.41	4052.93
417.62	3968.96
417.83	4116.42
418.04	4091.84
418.26	4038.59
418.47	3878.85
418.68	3960.77
418.89	4075.46
419.10	4257.73
419.31	4065.22
419.52	4157.38
419.73	4034.50
419.95	4132.80
420.16	4081.60
420.37	4089.79
420.58	4251.58
420.79	3885.00
421.00	4134.85
421.21	4319.17
421.42	4245.44
421.63	4192.19
421.85	4169.66
422.06	4284.35
422.27	4255.68
422.48	4251.58
422.69	4382.65
422.90	4386.75
423.11	4462.52
423.32	4345.79
423.53	4466.62
423.75	4452.28
423.96	4675.51
424.17	4419.52
424.38	4687.80
424.59	4472.76
424.80	4712.38
425.01	4581.31
425.22	4509.63
425.43	4495.29
425.64	4863.93
425.85	4790.20
426.06	4759.48
426.28	4769.72
426.49	4632.51
426.70	4700.09
426.91	4792.25
427.12	4890.55
427.33	4726.71
427.54	4786.10
427.75	4827.06
427.96	4902.84
428.17	4782.01
428.38	5066.67
428.59	4972.47
428.80	4962.23
429.01	5132.21
429.23	5019.57
429.44	5173.17
429.65	5224.37
429.86	5148.59
430.07	4902.84
430.28	4892.60
430.49	5242.80
430.70	5337.01
430.91	5228.46
431.12	5107.63
431.33	5388.21
431.54	5318.57
431.75	5296.05
431.96	5287.86
432.17	5255.09
432.38	5398.45
432.59	5539.76
432.80	5390.25
433.01	5412.78
433.22	5541.80
433.43	5455.79
433.64	5457.84
433.85	5404.59
434.06	5476.27
434.27	5476.27
434.49	5627.82
434.70	5693.35
434.91	5722.02
435.12	5693.35
435.33	5576.62
435.54	5584.81
435.75	5476.27
435.96	5709.74
436.17	5570.48
436.38	5750.70
436.59	5836.71
436.80	5625.77
437.01	5900.20
437.22	6080.42
437.43	5910.44
437.64	5629.87
437.85	6059.94
438.06	5937.06
438.27	5912.49
438.48	5935.01
438.69	6053.80
438.90	5953.45
439.11	5961.64
439.32	5965.73
439.53	6033.32
439.74	6184.87
439.95	6182.82
440.16	6072.23
440.37	5955.49
440.57	5990.31
440.78	6301.60
440.99	6371.23
441.20	6346.66
441.41	6053.80
441.62	6360.99
441.83	6109.09
442.04	6524.83
442.25	6266.78
442.46	6168.48
442.67	6410.14
442.88	6827.93
443.09	6217.63
443.30	6406.05
443.51	6504.35
443.72	6641.56
443.93	6395.81
444.14	6688.67
444.35	6434.72
444.56	6623.13
444.77	6463.39
444.98	6616.99
445.19	6580.12
445.40	6614.94
445.61	6571.93
445.81	6680.47
446.02	6707.10
446.23	6881.18
446.44	6608.80
446.65	6614.94
446.86	6637.47
447.07	6893.46
447.28	6948.76
447.49	6942.61
447.70	6817.69
447.91	6930.33
448.12	7004.05
448.33	7075.73
448.54	6991.77
448.74	6887.32
448.95	6938.52
449.16	6981.53
449.37	7307.15
449.58	7085.97
449.79	7344.02
450.00	7118.74
450.21	7010.20
450.42	7360.40
450.63	7315.34
450.84	7264.15
451.05	7425.93
451.25	7249.81
451.46	7182.23
451.67	7415.69
451.88	7417.74
452.09	7276.43
452.30	7454.61
452.51	7350.16
452.72	7473.04
452.93	7739.27
453.13	7382.93
453.34	7647.12
453.55	7729.03
453.76	7575.44
453.97	7903.11
454.18	7665.55
454.39	7985.03
454.60	7831.43
454.81	7882.63
455.01	7921.54
455.22	7628.68
455.43	7993.22
455.64	8140.68
455.85	8220.55
456.06	8253.31
456.27	8091.52
456.48	8056.71
456.68	8347.52
456.89	8331.14
457.10	8415.10
457.31	8292.23
457.52	8390.53
457.73	8306.56
457.94	8753.02
458.14	8228.74
458.35	8753.02
458.56	8570.75
458.77	8404.86
458.98	8642.43
459.19	8589.18
459.39	8642.43
459.60	8830.84
459.81	8714.11
460.02	8984.44
460.23	8849.27
460.44	9037.69
460.65	8986.49
460.85	8888.18
461.06	9084.79
461.27	8912.76
461.48	9123.70
461.69	9348.98
461.89	8972.15
462.10	9305.97
462.31	9097.08
462.52	9109.36
462.73	9162.61
462.94	9721.71
463.14	9213.81
463.35	9355.12
463.56	10000.23
463.77	9641.84
463.98	9541.49
464.18	9809.77
464.39	9738.09
464.60	9887.59
464.81	10018.66
465.02	9875.31
465.23	10506.08
465.43	9963.37
465.64	10356.58
465.85	10053.48
466.06	9977.70
466.27	10559.33
466.47	10542.94
466.68	10352.48
466.89	10442.59
467.10	10381.15
467.30	10424.16
467.51	10667.87
467.72	10956.63
467.93	10669.92
468.14	10751.84
468.34	10899.29
468.55	10919.77
468.76	10876.76
468.97	10850.14
469.17	11261.78
469.38	11333.46
469.59	11423.57
469.80	11255.64
470.01	11351.89
470.21	11206.48
470.42	11640.65
470.63	11654.99
470.84	11247.44
471.04	11773.77
471.25	11663.18
471.46	11751.24
471.67	12033.86
471.87	11886.41
472.08	12238.66
472.29	12128.07
472.50	11951.95
472.70	12025.67
472.91	12214.09
473.12	12451.65
473.33	12584.77
473.53	12871.48
473.74	12633.92
473.95	12779.32
474.16	12562.24
474.36	12926.78
474.57	12969.79
474.78	13262.65
474.99	12980.03
475.19	12906.30
475.40	13434.68
475.61	13309.75
475.81	13668.14
476.02	13659.95
476.23	13694.77
476.44	13748.01
476.64	14145.32
476.85	14235.43
477.06	13985.58
477.27	14481.19
477.47	14343.97
477.68	14219.05
477.89	14618.40
478.09	14552.87
478.30	14563.11
478.51	14501.67
478.71	14821.15
478.92	14870.30
479.13	15034.14
479.34	15130.39
479.54	15157.02
479.75	15359.77
479.96	15333.14
480.16	15355.67
480.37	15257.37
480.58	15552.27
480.78	15963.92
480.99	15791.89
481.20	15951.63
481.41	16305.93
481.61	16076.55
481.82	16412.42
482.03	16381.70
482.23	16365.32
482.44	16535.30
482.65	16684.80
482.85	16815.87
483.06	16482.05
483.27	16932.61
483.47	16858.88
483.68	17231.61
483.89	17159.93
484.09	17274.62
484.30	17207.03
484.51	17833.71
484.71	17585.91
484.92	17549.04
485.13	17776.37
485.33	18042.60
485.54	17741.55
485.75	18149.10
485.95	18099.95
486.16	18188.01
486.37	18501.35
486.57	18564.84
486.78	18388.71
486.98	18556.64
487.19	18663.14
487.40	18794.21
487.60	18736.87
487.81	19085.02
488.02	19058.40
488.22	19005.15
488.43	19357.40
488.64	19594.96
488.84	19418.84
489.05	19580.63
489.25	19185.37
489.46	19818.19
489.67	19850.96
489.87	20090.57
490.08	20008.65
490.29	19855.06
490.49	20418.25
490.70	20485.83
490.90	20362.95
491.11	20637.38
491.32	20745.92
491.52	20692.68
491.73	20842.18
491.94	20911.81
492.14	20707.01
492.35	21210.81
492.55	21374.65
492.76	21343.93
492.97	21518.01
493.17	21173.95
493.38	21687.99
493.58	21579.45
493.79	21956.27
494.00	21423.80
494.20	21753.52
494.41	21710.52
494.61	21923.51
494.82	22044.34
495.02	21900.98
495.23	22052.53
495.44	22138.54
495.64	22597.29
495.85	22664.87
496.05	22849.19
496.26	22529.70
496.47	23060.13
496.67	22879.91
496.88	22943.39
497.08	23058.08
497.29	23047.84
497.49	23281.31
497.70	23152.29
497.91	23420.57
498.11	23457.43
498.32	23754.39
498.52	23844.50
498.73	23983.76
498.93	23662.23
499.14	23957.14
499.34	24274.57
499.55	23897.75
499.76	24059.54
499.96	24286.86
500.17	24084.11
500.37	24495.75
500.58	24186.51
500.78	24426.12
500.99	24430.22
501.19	24657.54
501.40	24790.66
501.60	24508.04
501.81	24712.84
502.02	24870.53
502.22	24749.70
502.43	24987.27
502.63	24909.44
502.84	25126.53
503.04	25245.31
503.25	25269.89
503.45	25579.13
503.66	25603.71
503.86	25579.13
504.07	25755.26
504.27	25532.03
504.48	25974.39
504.68	25788.02
504.89	26080.88
505.09	25904.76
505.30	26091.12
505.50	26076.79
505.71	26097.27
505.91	26285.68
506.12	26353.26
506.32	26252.91
506.53	26494.57
506.73	26521.20
506.94	26637.93
507.14	26257.01
507.35	26809.96
507.55	26625.64
507.76	26812.01
507.96	26949.22
508.17	26850.92
508.37	27246.18
508.58	26728.04
508.78	26881.64
508.99	27405.92
509.19	27008.61
509.40	27332.19
509.60	27285.09
509.81	27502.17
510.01	27190.88
510.22	27575.90
510.42	27463.26
510.63	27463.26
510.83	27502.17
511.04	27672.15
511.24	27811.42
511.44	28229.20
511.65	27936.34
511.85	27924.05
512.06	27917.91
512.26	28210.77
512.47	28376.66
512.67	27948.63
512.88	28126.80
513.08	28008.02
513.29	28284.50
513.49	28581.45
513.69	28585.55
513.90	28669.51
514.10	28567.12
514.31	28937.80
514.51	28720.71
514.72	28769.86
514.92	29011.53
515.13	28991.05
515.33	28827.21
515.53	29193.79
515.74	29158.98
515.94	29382.21
516.15	29249.09
516.35	28857.93
516.56	29564.48
516.76	29179.46
516.96	29331.01
517.17	29457.98
517.37	29427.26
517.58	29566.52
517.78	29726.27
517.99	29539.90
518.19	29847.10
518.39	29754.94
518.60	30113.33
518.80	29961.78
519.01	29926.97
519.21	29853.24
519.41	29744.70
519.62	30285.36
519.82	30240.31
520.03	30398.00
520.23	30350.90
520.43	30508.59
520.64	30688.81
520.84	30680.62
521.05	30809.64
521.25	31045.16
521.45	30656.04
521.66	30969.38
521.86	30905.90
522.07	31100.45
522.27	30975.53
522.47	30957.10
522.68	31378.98
522.88	31198.76
523.08	31772.19
523.29	31602.21
523.49	31551.01
523.70	31903.26
523.90	32046.62
524.10	31720.99
524.31	32099.86
524.51	31944.22
524.71	32437.78
524.92	32269.84
525.12	32302.61
525.33	32421.39
525.53	32441.87
525.73	32579.09
525.94	32648.72
526.14	32624.14
526.34	32779.79
526.55	32884.23
526.75	33017.35
526.95	33232.39
527.16	33050.12
527.36	33308.16
527.56	33293.83
527.77	33576.45
527.97	33236.48
528.17	33644.03
528.38	33658.37
528.58	33179.14
528.78	33715.71
528.99	34035.19
529.19	34199.03
529.39	33486.34
529.60	34387.44
529.80	34317.81
530.00	34428.40
530.21	34612.72
530.41	34729.45
530.61	34403.83
530.82	34651.63
531.02	34532.85
531.22	34450.93
531.43	34866.67
531.63	35294.69
531.83	35448.29
532.04	35495.39
532.24	35120.62
532.44	35306.98
532.64	35593.70
532.85	35597.79
533.05	35595.74
533.25	35839.45
533.46	35816.93
533.66	36140.50
533.86	35962.33
534.07	36582.87
534.27	36109.78
534.47	36447.70
534.67	36529.62
534.88	36713.94
535.08	36478.42
535.28	36728.27
535.49	37144.01
535.69	36961.74
535.89	37213.64
536.09	37129.67
536.30	37412.29
536.50	37510.60
536.70	37586.37
536.91	37248.46
537.11	37621.19
537.31	37479.88
537.51	37959.10
537.72	38282.68
537.92	38147.51
538.12	38610.35
538.32	37967.29
538.53	38225.34
538.73	37998.01
538.93	38456.76
539.13	38507.96
539.34	38133.18
539.54	38610.35
539.74	39089.58
539.94	39144.87
540.15	38659.51
540.35	38935.98
540.55	39134.63
540.75	39181.74
540.96	39316.90
541.16	39613.86
541.36	39134.63
541.56	39214.51
541.77	39919.01
541.97	39609.76
542.17	39642.53
542.37	39953.82
542.58	39839.14
542.78	39644.58
542.98	40035.74
543.18	40076.70
543.38	40523.16
543.59	40492.44
543.79	39675.30
543.99	39923.10
544.19	40295.83
544.40	40146.33
544.60	40514.97
544.80	40676.76
545.00	40330.65
545.20	40891.79
545.41	40697.24
545.61	41096.59
545.81	41053.58
546.01	41063.82
546.21	41008.53
546.42	40865.17
546.62	41432.46
546.82	41067.92
547.02	41309.58
547.22	41428.36
547.43	41393.54
547.63	41686.40
547.83	41594.25
548.03	41596.29
548.23	41495.94
548.44	42055.04
548.64	41784.71
548.84	41977.22
549.04	41784.71
549.24	42460.54
549.45	42179.96
549.65	41579.91
549.85	41823.62
550.05	42415.48
550.25	41723.27
550.45	42849.65
550.66	42370.43
550.86	42005.89
551.06	42577.27
551.26	42550.65
551.46	42700.15
551.66	42476.92
551.87	42784.12
552.07	42923.38
552.27	42648.95
552.47	43038.06
552.67	43332.97
552.87	42988.91
553.07	42917.23
553.28	43453.80
553.48	42818.93
553.68	43406.70
553.88	43466.09
554.08	43591.01
554.28	43373.93
554.48	43287.92
554.69	43273.58
554.89	43672.93
555.09	43545.96
555.29	43480.42
555.49	43746.66
555.69	43687.27
555.89	43746.66
556.10	44365.15
556.30	43978.08
556.50	43521.38
556.70	43681.13
556.90	44053.86
557.10	44098.91
557.30	44070.24
557.50	44162.40
557.70	44197.21
557.91	44361.05
558.11	44006.75
558.31	44377.43
558.51	44127.58
558.71	44416.35
558.91	44658.01
559.11	44449.11
559.31	44610.90
559.51	44567.90
559.72	44739.93
559.92	44774.74
560.12	44586.33
560.32	44766.55
560.52	44612.95
560.72	44805.46
560.92	44850.52
561.12	45274.45
561.32	45174.09
561.52	44635.48
561.72	45368.65
561.93	44852.56
562.13	44938.58
562.33	44842.32
562.53	45327.69
562.73	44537.18
562.93	45170.00
563.13	45479.24
563.33	45270.35
563.53	45745.48
563.73	45346.12
563.93	45626.70
564.13	45782.34
564.33	45403.47
564.53	45638.98
564.74	45722.95
564.94	45278.54
565.14	45409.61
565.34	45679.94
565.54	45653.32
565.74	46015.81
565.94	45980.99
566.14	45532.49
566.34	45745.48
566.54	46427.45
566.74	45925.70
566.94	46046.53
567.14	46488.89
567.34	45821.25
567.54	46216.51
567.74	45679.94
567.94	45589.83
568.14	46572.86
568.34	46449.98
568.54	46181.70
568.74	46404.92
568.94	46347.58
569.14	46699.83
569.34	46681.40
569.54	46499.13
569.75	46458.17
569.95	46671.16
570.15	47002.93
570.35	46409.02
570.55	46654.78
570.75	46431.55
570.95	46923.06
571.15	47072.56
571.35	47076.66
571.55	47240.50
571.75	46703.93
571.95	47355.18
572.15	47183.15
572.35	47254.83
572.55	47232.30
572.75	47332.65
572.95	47281.45
573.15	47371.57
573.35	47533.35
573.55	47035.70
573.75	47390.00
573.95	47783.21
574.15	47488.30
574.35	47703.34
574.55	47484.20
574.75	47494.44
574.95	47662.38
575.15	47760.68
575.34	47723.82
575.54	47588.65
575.74	48084.26
575.94	48141.60
576.14	47746.34
576.34	48198.94
576.54	48067.87
576.74	48379.17
576.94	48022.82
577.14	48440.60
577.34	48395.55
577.54	48157.99
577.74	48258.34
577.94	48485.66
578.14	48727.32
578.34	48940.31
578.54	48082.21
578.74	48125.22
578.94	48694.55
579.14	48844.05
579.34	49083.67
579.54	48774.42
579.74	49714.44
579.94	49122.58
580.13	49116.43
580.33	48829.72
580.53	49618.19
580.73	49378.57
580.93	49108.24
581.13	48815.38
581.33	49698.06
581.53	49448.21
581.73	49032.47
581.93	49470.73
582.13	49661.19
582.33	49530.12
582.53	49317.14
582.73	49796.36
582.92	49802.50
583.12	49739.02
583.32	49845.51
583.52	49542.41
583.72	50033.92
583.92	49841.42
584.12	49952.01
584.32	50464.00
584.52	50017.54
584.72	50345.22
584.92	50134.28
585.11	51188.98
585.31	50685.18
585.51	50478.33
585.71	50298.11
585.91	50994.42
586.11	50576.64
586.31	50496.77
586.51	50068.74
586.71	51049.72
586.91	51336.43
587.10	50916.60
587.30	51066.10
587.50	51279.09
587.70	51246.32
587.90	51324.14
588.10	50625.79
588.30	51393.78
588.50	51487.98
588.69	51006.71
588.89	50996.47
589.09	51422.45
589.29	51676.40
589.49	51395.82
589.69	51246.32
589.89	51510.51
590.08	51336.43
590.28	51799.27
590.48	51735.79
590.68	51537.13
590.88	51721.45
591.08	52147.43
591.28	51571.95
591.47	52098.28
591.67	51934.44
591.87	52296.93
592.07	51883.24
592.27	52378.85
592.47	52081.89
592.67	52270.31
592.86	52374.75
593.06	52511.97
593.26	52428.00
593.46	52155.62
593.66	51916.01
593.86	52352.23
594.05	52438.24
594.25	52862.17
594.45	52456.67
594.65	52561.12
594.85	51750.12
595.05	52434.14
595.24	53148.88
595.44	52747.48
595.64	52763.87
595.84	52770.01
596.04	53073.11
596.23	53028.05
596.43	53101.78
596.63	53468.37
596.83	53163.22
597.03	53200.08
597.22	53865.67
597.42	53370.07
597.62	53761.23
597.82	53595.34
598.02	53439.70
598.21	53812.43
598.41	53587.15
598.61	54142.15
598.81	53679.31
599.01	53845.19
599.20	54039.75
599.40	53761.23
599.60	53990.60
599.80	53755.08
600.00	54082.76
600.19	54355.14
600.39	54174.92
600.59	54236.36
600.79	54217.92
600.98	54396.10
601.18	54310.08
601.38	54166.73
601.58	54707.39
601.78	54613.18
601.97	54494.40
602.17	55039.16
602.37	55221.43
602.57	54537.41
602.76	54895.80
602.96	54387.91
603.16	55016.63
603.36	54590.66
603.55	54887.61
603.75	54785.21
603.95	55131.32
604.15	55178.42
604.34	55289.01
604.54	55579.82
604.74	55149.75
604.94	55041.21
605.13	55624.88
605.33	55669.93
605.53	55262.39
605.73	55483.57
605.92	55618.74
606.12	55702.70
606.32	55676.08
606.52	56155.30
606.71	55405.75
606.91	55606.45
607.11	55678.13
607.30	55835.82
607.50	55927.98
607.70	55952.55
607.90	56196.26
608.09	55770.28
608.29	56149.16
608.49	56231.08
608.68	56247.46
608.88	55637.17
609.08	56214.69
609.28	56446.11
609.47	56446.11
609.67	56493.22
609.87	56061.10
610.06	56695.97
610.26	56702.11
610.46	56640.67
610.66	56399.01
610.85	56362.15
611.05	56413.35
611.25	56917.15
611.44	56462.50
611.64	56628.38
611.84	56288.42
612.03	56327.33
612.23	56722.59
612.43	57132.18
612.62	56249.51
612.82	56868.00
613.02	56794.27
613.21	56734.88
613.41	56669.34
613.61	56753.31
613.80	56554.66
614.00	57113.75
614.20	57062.55
614.39	56908.96
614.59	57468.05
614.79	57123.99
614.98	56921.24
615.18	57261.21
615.38	57205.91
615.57	57025.69
615.77	56845.47
615.97	56843.42
616.16	57269.40
616.36	56917.15
616.56	56874.14
616.75	56849.56
616.95	56341.67
617.15	56829.08
617.34	56949.92
617.54	56587.42
617.74	57705.62
617.93	57136.28
618.13	56923.29
618.32	56943.77
618.52	56888.48
618.72	56573.09
618.91	57054.36
619.11	56706.21
619.31	57048.22
619.50	57152.66
619.70	56603.81
619.90	57048.22
620.09	57037.98
620.29	57062.55
620.48	57162.90
620.68	57060.51
620.88	56542.37
621.07	57244.82
621.27	56902.81
621.46	56683.68
621.66	56765.60
621.86	56929.44
622.05	56599.71
622.25	57488.53
622.44	56954.01
622.64	56632.48
622.84	57003.16
623.03	56525.99
623.23	56784.03
623.42	57117.85
623.62	57169.05
623.82	57070.75
624.01	56794.27
624.21	56906.91
624.40	56997.02
624.60	56706.21
624.80	56804.51
624.99	57218.20
625.19	56880.28
625.38	56571.04
625.58	57199.77
625.77	56751.26
625.97	56888.48
626.17	57050.27
626.36	56843.42
626.56	57089.18
626.75	56599.71
626.95	57676.94
627.14	56931.48
627.34	57472.15
627.54	56671.39
627.73	57074.84
627.93	57003.16
628.12	56655.01
628.32	57021.59
628.51	57089.18
628.71	56689.82
628.90	56777.89
629.10	57154.71
629.30	56757.41
629.49	57336.98
629.69	56988.83
629.88	57042.07
630.08	57242.77
630.27	57347.22
630.47	57361.56
630.66	56997.02
630.86	57447.57
631.05	57023.64
631.25	57336.98
631.44	57246.87
631.64	56994.97
631.84	56718.49
632.03	57408.66
632.23	57064.60
632.42	57590.93
632.62	57437.33
632.81	57113.75
633.01	57121.94
633.20	57316.50
633.40	57173.14
633.59	57488.53
633.79	56779.93
633.98	57253.01
634.18	57226.39
634.37	57005.21
634.57	56999.07
634.76	57310.36
634.96	57064.60
635.15	57635.98
635.35	57035.93
635.54	57468.05
635.74	57449.62
635.93	57134.23
636.13	57625.74
636.32	57574.55
636.52	57091.22
636.71	57455.76
636.91	57500.82
637.10	57513.11
637.30	57302.17
637.49	56980.63
637.69	57674.90
637.88	57957.52
638.08	57236.63
638.27	57881.74
638.46	57310.36
638.66	57341.08
638.85	57517.20
639.05	57412.76
639.24	57349.27
639.44	57590.93
639.63	57572.50
639.83	57877.64
640.02	57726.10
640.22	57404.56
640.41	57975.95
640.61	57570.45
640.80	57875.60
640.99	57754.77
641.19	58016.91
641.38	57207.96
641.58	57433.24
641.77	57154.71
641.97	57722.00
642.16	57861.26
642.36	57623.70
642.55	58315.91
642.74	57615.50
642.94	58242.18
643.13	57826.45
643.33	57873.55
643.52	57750.67
643.72	58289.29
643.91	58096.78
644.10	57803.92
644.30	58150.02
644.49	57818.25
644.69	58348.68
644.88	58145.93
645.08	58053.77
645.27	57820.30
645.46	57740.43
645.66	58031.24
645.85	58074.25
646.05	58502.28
646.24	58352.77
646.43	57867.40
646.63	58467.46
646.82	58342.53
647.02	58277.00
647.21	58021.00
647.40	58395.78
647.60	58377.35
647.79	58672.26
647.99	58176.65
648.18	57846.93
648.37	58520.71
648.57	58387.59
648.76	58582.15
648.96	58492.04
649.15	58754.18
649.34	58283.14
649.54	58762.37
649.73	58354.82
649.92	58647.68
650.12	58786.94
650.31	58791.04
650.51	58889.34
650.70	58836.09
650.89	58754.18
651.09	59409.53
651.28	58963.07
651.47	58909.82
651.67	58776.70
651.86	59061.37
652.06	58340.49
652.25	58913.92
652.44	58375.30
652.64	59028.60
652.83	58719.36
653.02	58186.89
653.22	58459.27
653.41	58250.38
653.60	58922.11
653.80	58797.18
653.99	58823.81
654.18	58532.99
654.38	58883.20
654.57	58666.11
654.76	58741.89
654.96	58414.21
655.15	58614.91
655.34	58870.91
655.54	58414.21
655.73	58666.11
655.92	58942.59
656.12	59112.57
656.31	58682.50
656.50	58983.55
656.70	58848.38
656.89	58676.35
657.08	59137.15
657.28	58696.83
657.47	58674.30
657.66	59501.68
657.86	59057.27
658.05	58737.79
658.24	59036.80
658.43	58733.70
658.63	59051.13
658.82	58803.33
659.01	59266.17
659.21	59309.18
659.40	59331.70
659.59	59253.88
659.79	59257.98
659.98	59307.13
660.17	59319.41
660.36	59329.65
660.56	59053.18
660.75	59184.25
660.94	58897.53
661.14	58946.68
661.33	59016.32
661.52	58750.08
661.71	59456.63
661.91	58997.88
662.10	58739.84
662.29	59745.39
662.49	58856.57
662.68	59307.13
662.87	58834.05
663.06	59427.96
663.26	59395.19
663.45	59425.91
663.64	59395.19
663.83	59524.21
664.03	59278.46
664.22	59483.25
664.41	59561.08
664.60	58956.92
664.80	58877.05
664.99	59182.20
665.18	59077.75
665.37	59370.61
665.57	59339.89
665.76	58918.01
665.95	59348.09
666.14	58651.78
666.34	58836.09
666.53	59292.79
666.72	59208.82
666.91	58950.78
667.11	58754.18
667.30	59430.01
667.49	59346.04
667.68	59053.18
667.87	58975.36
668.07	59720.82
668.26	58993.79
668.45	58905.73
668.64	59001.98
668.84	59509.88
669.03	59475.06
669.22	59255.93
669.41	58852.48
669.60	59339.89
669.80	58809.47
669.99	59217.02
670.18	59178.10
670.37	58887.29
670.57	59561.08
670.76	59268.22
670.95	59120.76
671.14	58938.49
671.33	58418.31
671.53	59788.40
671.72	59184.25
671.91	58963.07
672.10	58676.35
672.29	59223.16
672.48	58997.88
672.68	59118.71
672.87	58436.74
673.06	58752.13
673.25	58655.87
673.44	58473.60
673.64	58997.88
673.83	58711.17
674.02	59288.70
674.21	58377.35
674.40	59186.30
674.59	58727.55
674.79	58520.71
674.98	58950.78
675.17	59237.50
675.36	58602.63
675.55	59425.91
675.74	58657.92
675.94	58582.15
676.13	58997.88
676.32	58692.74
676.51	59182.20
676.70	59047.04
676.89	58846.33
677.08	59325.56
677.28	58373.25
677.47	59225.21
677.66	59311.22
677.85	58389.64
678.04	58932.35
678.23	58958.97
678.42	58911.87
678.62	58946.68
678.81	59327.61
679.00	58993.79
679.19	59587.70
679.38	59012.22
679.57	58664.06
679.76	58694.78
679.96	58639.49
680.15	58705.02
680.34	59067.51
680.53	58662.02
680.72	58782.85
680.91	58940.54
681.10	58684.54
681.29	58879.10
681.48	58231.94
681.68	58659.97
681.87	58489.99
682.06	58672.26
682.25	58467.46
682.44	58766.46
682.63	58655.87
682.82	58215.56
683.01	58467.46
683.20	58668.16
683.39	58463.36
683.59	58352.77
683.78	58049.67
683.97	58528.90
684.16	58145.93
684.35	58334.34
684.54	58381.45
684.73	57783.44
684.92	58438.79
685.11	57885.84
685.30	58287.24
685.49	58576.00
685.69	58399.88
685.88	58508.42
686.07	58004.62
686.26	57986.19
686.45	58170.50
686.64	58248.33
686.83	57765.01
687.02	58035.34
687.21	58008.71
687.40	58348.68
687.59	58385.54
687.78	58176.65
687.97	58350.73
688.16	58068.11
688.35	58145.93
688.54	57719.95
688.74	58068.11
688.93	57840.78
689.12	57939.08
689.31	58393.73
689.50	58053.77
689.69	57793.68
689.88	57291.93
690.07	57932.94
690.26	57635.98
690.45	57834.64
690.64	57480.34
690.83	57400.47
691.02	57771.15
691.21	57558.16
691.40	57320.60
691.59	57746.57
691.78	57869.45
691.97	57584.79
692.16	57261.21
692.35	57889.93
692.54	57898.12
692.73	57660.56
692.92	57394.32
693.11	57343.12
693.30	57547.92
693.49	57568.40
693.68	57314.45
693.87	57279.64
694.06	57296.02
694.25	57414.80
694.44	56888.48
694.63	57234.58
694.82	57312.41
695.01	57265.30
695.20	57480.34
695.39	57255.06
695.58	57574.55
695.77	56824.99
695.96	56751.26
696.15	56956.06
696.34	57068.70
696.53	57293.97
696.72	57445.52
696.91	56861.85
697.10	57181.34
697.29	56644.77
697.48	57195.67
697.67	56626.34
697.86	56448.16
698.05	56741.02
698.24	56747.17
698.43	56536.23
698.62	56781.98
698.81	56349.86
699.00	56908.96
699.19	56511.65
699.38	56265.89
699.57	56429.73
699.76	56988.83
699.95	56145.06
700.14	56194.21
700.32	55964.84
700.51	56177.83
700.70	56599.71
700.89	56497.31
701.08	56042.66
701.27	55884.97
701.46	56341.67
701.65	55522.48
701.84	56132.78
702.03	56366.24
702.22	56054.95
702.41	55841.96
702.60	56485.03
702.79	56229.03
702.98	55606.45
703.17	55563.44
703.35	55782.57
703.54	55600.30
703.73	56276.13
703.92	55780.52
704.11	55821.48
704.30	56116.39
704.49	55981.23
704.68	55714.99
704.87	55473.33
705.06	55893.16
705.25	55489.71
705.43	55289.01
705.62	55739.57
705.81	55555.25
706.00	55461.04
706.19	55168.18
706.38	55440.56
706.57	55375.03
706.76	55465.14
706.95	55758.00
707.14	55477.43
707.32	54760.64
707.51	54684.86
707.70	54842.56
707.89	55172.28
708.08	55035.06
708.27	55276.72
708.46	55155.89
708.65	55133.37
708.84	55153.85
709.02	54873.27
709.21	55000.25
709.40	54820.03
709.59	54990.01
709.78	54600.89
709.97	54803.64
710.16	54453.44
710.34	54604.99
710.53	54764.73
710.72	54088.90
710.91	54547.65
711.10	54875.32
711.29	54559.94
711.48	54600.89
711.66	55100.60
711.85	54770.88
712.04	54185.16
712.23	55026.87
712.42	54752.44
712.61	54619.33
712.80	54072.52
712.98	54478.02
713.17	54598.85
713.36	54258.88
713.55	54559.94
713.74	54392.00
713.93	54326.47
714.11	53773.52
714.30	53875.91
714.49	53880.01
714.68	54191.30
714.87	54473.92
715.06	54389.95
715.24	54158.53
715.43	53902.54
715.62	53716.17
715.81	53386.45
716.00	54140.10
716.18	53327.06
716.37	53400.79
716.56	53601.49
716.75	53974.22
716.94	53650.64
717.12	53126.36
717.31	53722.32
717.50	53507.28
717.69	53144.79
717.88	53415.12
718.06	53912.78
718.25	53630.16
718.44	53208.28
718.63	53517.52
718.82	52921.56
719.00	52876.51
719.19	52786.39
719.38	53138.65
719.57	52374.75
719.76	52473.06
719.94	52047.08
720.13	52503.77
720.32	52335.84
720.51	52395.23
720.69	52120.80
720.88	52528.35
721.07	52675.80
721.26	52327.65
721.44	52327.65
721.63	52473.06
721.82	52008.17
722.01	52178.15
722.20	51999.97
722.38	51514.61
722.57	51791.08
722.76	51827.95
722.95	51735.79
723.13	51748.07
723.32	51469.55
723.51	51602.67
723.70	50826.49
723.88	51598.57
724.07	51399.92
724.26	51494.13
724.44	50865.40
724.63	51760.36
724.82	51098.87
725.01	51178.74
725.19	51172.60
725.38	51041.53
725.57	51072.24
725.76	50707.71
725.94	50730.23
726.13	50652.41
726.32	51158.26
726.51	50838.78
726.69	51479.79
726.88	51062.00
727.07	51221.75
727.25	50695.42
727.44	50932.98
727.63	51113.20
727.82	50593.02
728.00	50961.65
728.19	50758.91
728.38	50928.89
728.56	50769.15
728.75	51025.14
728.94	51049.72
729.12	50846.97
729.31	50892.02
729.50	50689.27
729.69	50752.76
729.87	50722.04
730.06	50537.72
730.25	50644.22
730.43	50863.35
730.62	50468.09
730.81	50482.43
730.99	50900.22
731.18	50472.19
731.37	50679.03
731.55	50476.29
731.74	50830.58
731.93	50799.86
732.11	50902.26
732.30	50377.98
732.49	50435.33
732.67	50799.86
732.86	50357.50
733.05	50150.66
733.23	50349.31
733.42	50480.38
733.61	50279.68
733.79	50498.81
733.98	50576.64
734.17	50164.99
734.35	50414.85
734.54	50545.92
734.73	50509.05
734.91	50334.98
735.10	50089.22
735.29	50607.36
735.47	49437.97
735.66	50101.51
735.84	49788.17
736.03	49972.49
736.22	49853.70
736.40	49964.29
736.59	50279.68
736.78	49632.52
736.96	49849.61
737.15	50152.71
737.33	50216.19
737.52	50337.02
737.71	49747.21
737.89	49796.36
738.08	49544.46
738.27	49386.77
738.45	50203.91
738.64	50003.20
738.82	49939.72
739.01	49472.78
739.20	49669.39
739.38	49542.41
739.57	49677.58
739.75	50025.73
739.94	49532.17
740.13	49413.39
740.31	49534.22
740.50	49804.55
740.68	49397.01
740.87	49394.96
741.06	49657.10
741.24	49210.64
741.43	49227.02
741.61	49374.48
741.80	48821.53
741.99	49308.94
742.17	49331.47
742.36	49480.97
742.54	49020.18
742.73	49206.55
742.91	49483.02
743.10	49128.72
743.29	49192.21
743.47	49011.99
743.66	48895.25
743.84	49157.39
744.03	49138.96
744.21	48895.25
744.40	49190.16
744.59	48649.50
744.77	48813.34
744.96	48149.79
745.14	49173.78
745.33	48622.87
745.51	48641.31
745.70	49005.84
745.88	48190.75
746.07	48448.80
746.26	48297.25
746.44	48596.25
746.63	48452.89
746.81	48133.41
747.00	47981.86
747.18	48780.57
747.37	48391.45
747.55	48581.91
747.74	48659.74
747.92	47801.64
748.11	48280.86
748.29	48438.56
748.48	48229.66
748.66	47867.17
748.85	48358.69
749.03	48176.42
749.22	48313.63
749.41	47568.17
749.59	48117.03
749.78	47801.64
749.96	47551.79
750.15	47953.19
750.33	47901.99
750.52	47981.86
750.70	47613.23
750.89	47803.69
751.07	47469.87
751.26	47764.78
751.44	47607.08
751.63	47543.59
751.81	47605.03
752.00	47490.35
752.18	47457.58
752.37	47236.40
752.55	47365.42
752.74	47111.47
752.92	47263.02
753.10	47314.22
753.29	47285.55
753.47	47228.21
753.66	47031.60
753.84	47177.01
754.03	47234.35
754.21	46794.04
754.40	46830.90
754.58	47035.70
754.77	46935.35
754.95	46777.65
755.14	46777.65
755.32	46892.34
755.51	46740.79
755.69	46546.23
755.88	46409.02
756.06	46783.80
756.24	46445.88
756.43	46478.65
756.61	46478.65
756.80	46800.18
756.98	46105.92
757.17	46622.01
757.35	46589.24
757.54	46316.86
757.72	46566.71
757.90	46267.71
758.09	46200.13
758.27	45780.29
758.46	46140.74
758.64	45864.26
758.83	46595.38
759.01	46449.98
759.19	45913.41
759.38	45841.73
759.56	46095.68
759.75	46001.47
759.93	45897.03
760.12	45974.85
760.30	45761.86
760.48	46003.52
760.67	45937.99
760.85	45782.34
761.04	46007.62
761.22	45976.90
761.40	45514.06
761.59	45659.46
761.77	45364.56
761.96	45757.77
762.14	45436.23
762.32	45456.71
762.51	45114.70
762.69	45718.85
762.88	45313.36
763.06	45477.19
763.24	45110.61
763.43	45374.80
763.61	44758.36
763.80	45092.18
763.98	44811.60
764.16	45034.83
764.35	44490.07
764.53	44397.91
764.72	44649.81
764.90	44731.73
765.08	44930.39
765.27	44881.24
765.45	44291.42
765.63	44270.94
765.82	44750.17
766.00	43910.50
766.18	44334.43
766.37	44678.49
766.55	44346.72
766.74	44586.33
766.92	44098.91
767.10	44332.38
767.29	44168.54
767.47	43965.79
767.65	44268.89
767.84	43849.06
768.02	44150.11
768.20	43613.54
768.39	43947.36
768.57	44066.14
768.75	43910.50
768.94	44197.21
769.12	43541.86
769.30	43713.89
769.49	43177.33
769.67	43767.14
769.85	43304.30
770.04	43208.04
770.22	43189.61
770.40	43330.92
770.59	43218.28
770.77	43199.85
770.95	42960.24
771.14	43068.78
771.32	42954.10
771.50	43066.73
771.69	42804.59
771.87	43181.42
772.05	43009.39
772.24	42732.92
772.42	43310.44
772.60	42546.55
772.78	43029.87
772.97	42685.81
773.15	43148.65
773.33	42790.26
773.52	42415.48
773.70	42915.19
773.88	43027.82
774.07	42435.96
774.25	42612.09
774.43	42685.81
774.61	42491.26
774.80	42839.41
774.98	43076.97
775.16	42861.94
775.34	43107.69
775.53	42526.07
775.71	42800.50
775.89	43038.06
776.08	42489.21
776.26	42724.72
776.44	43013.49
776.62	42495.35
776.81	42464.63
776.99	42665.33
777.17	42597.75
777.35	43029.87
777.54	42995.06
777.72	42497.40
777.90	43124.08
778.08	43007.34
778.27	42726.77
778.45	43220.33
778.63	43128.17
778.81	42669.43
779.00	43537.77
779.18	42644.85
779.36	43292.01
779.54	42755.44
779.73	43218.28
779.91	43416.94
780.09	43451.75
780.27	43498.86
780.46	43337.07
780.64	43398.51
780.82	43177.33
781.00	43398.51
781.19	43505.00
781.37	43752.80
781.55	43289.96
781.73	43642.21
781.91	43537.77
782.10	43711.84
782.28	43611.49
782.46	43236.72
782.64	43623.78
782.82	43177.33
783.01	43826.53
783.19	43887.97
783.37	43509.10
783.55	43627.88
783.74	43578.73
783.92	43429.23
784.10	43930.98
784.28	43855.20
784.46	43603.30
784.64	43222.38
784.83	43582.82
785.01	43904.35
785.19	43683.17
785.37	43599.21
785.55	43636.07
785.74	43185.52
785.92	43171.18
786.10	43312.49
786.28	43621.73
786.46	43255.15
786.64	42777.97
786.83	43357.55
787.01	43277.68
787.19	43128.17
787.37	43447.66
787.55	43275.63
787.74	42816.88
787.92	43445.61
788.10	42884.47
788.28	42616.18
788.46	43279.72
788.64	42968.43
788.82	43144.56
789.01	42794.36
789.19	42839.41
789.37	42378.62
789.55	42673.52
789.73	42315.13
789.91	42237.31
790.09	42134.91
790.28	42308.99
790.46	42225.02
790.64	42163.58
790.82	42141.05
791.00	41768.32
791.18	41811.33
791.36	42093.95
791.55	41610.63
791.73	41635.20
791.91	41899.39
792.09	41928.06
792.27	41719.17
792.45	41780.61
792.63	41686.40
792.81	41604.49
793.00	41305.48
793.18	41518.47
793.36	41713.03
793.54	41055.63
793.72	41252.23
793.90	41190.80
794.08	40924.56
794.26	40842.64
794.44	40633.75
794.62	40809.87
794.81	40969.61
794.99	40482.20
795.17	40304.02
795.35	40148.38
795.53	40045.98
795.71	40267.16
795.89	39986.59
796.07	39939.49
796.25	39945.63
796.43	39515.56
796.61	39769.51
796.80	39683.49
796.98	39626.15
797.16	38987.18
797.34	39507.37
797.52	39280.04
797.70	39439.78
797.88	39073.20
798.06	38911.41
798.24	39155.11
798.42	38778.29
798.60	39011.76
798.78	38393.27
798.96	38788.53
799.14	38661.55
799.32	38847.92
799.51	38532.53
799.69	38720.95
799.87	38317.50
800.05	38211.00
800.23	38280.63
800.41	37973.44
800.59	38344.12
800.77	37541.32
800.95	37461.44
801.13	37850.56
801.31	37416.39
801.49	37690.82
801.67	37342.66
801.85	37557.70
802.03	37338.57
802.21	37066.19
802.39	37144.01
802.57	37283.27
802.75	36615.63
802.93	36959.69
803.11	36660.69
803.29	36658.64
803.47	36156.89
803.65	36814.29
803.83	36615.63
804.01	36464.08
804.19	36435.41
804.37	36228.57
804.55	36365.78
804.73	36457.94
804.91	36097.50
805.09	35784.16
805.27	35632.61
805.45	35870.17
805.63	35659.23
805.81	35851.74
805.99	35796.45
806.17	35710.43
806.35	35362.28
806.53	35182.06
806.71	35247.59
806.89	35427.81
807.07	35243.49
807.25	35440.10
807.43	34713.07
807.61	35620.32
807.79	35093.99
807.97	34706.93
808.15	34862.57
808.33	34794.99
808.51	34782.70
808.69	34938.35
808.87	34586.10
809.05	34665.97
809.23	34373.11
809.41	34170.36
809.59	34393.59
809.77	34096.63
809.95	34004.47
810.13	33945.08
810.31	34010.62
810.49	33859.07
810.67	34027.00
810.84	34012.66
811.02	33721.85
811.20	33750.52
811.38	33682.94
811.56	33506.82
811.74	33650.17
811.92	33304.07
812.10	33383.94
812.28	33232.39
812.46	33418.75
812.64	33369.60
812.82	33121.80
813.00	33072.65
813.18	33414.66
813.36	33113.61
813.53	32687.63
813.71	33033.74
813.89	32673.29
814.07	32531.98
814.25	32667.15
814.43	32568.85
814.61	32308.76
814.79	32626.19
814.97	32216.60
815.15	32161.30
815.33	31862.30
815.50	32013.85
815.68	31966.74
815.86	32507.41
816.04	32042.52
816.22	32060.95
816.40	32265.75
816.58	31602.21
816.76	31548.96
816.94	31970.84
817.11	31886.87
817.29	31673.88
817.47	31397.41
817.65	31495.71
817.83	32128.53
818.01	31149.60
818.19	31448.61
818.37	31372.83
818.54	30893.61
818.72	31184.42
818.90	31000.10
819.08	31235.62
819.26	31141.41
819.44	30836.27
819.62	31161.89
819.80	31133.22
819.97	30707.24
820.15	31061.54
820.33	30664.24
820.51	30971.43
820.69	30502.45
820.87	30719.53
821.05	31012.39
821.22	30711.34
821.40	30617.13
821.58	30291.51
821.76	30848.55
821.94	30393.90
822.12	30420.53
822.29	30303.79
822.47	29980.21
822.65	30291.51
822.83	29982.26
823.01	30144.05
823.19	29535.81
823.36	30019.13
823.54	29693.50
823.72	29746.75
823.90	29924.92
824.08	29230.66
824.25	29701.69
824.43	29519.42
824.61	29423.17
824.79	29171.27
824.97	29607.48
825.15	29580.86
825.32	29339.20
825.50	29570.62
825.68	29081.16
825.86	29453.89
826.04	29204.03
826.21	29220.42
826.39	29023.81
826.57	28980.81
826.75	28794.44
826.93	28966.47
827.10	29003.33
827.28	28821.06
827.46	29156.93
827.64	29062.72
827.81	29236.80
827.99	28839.50
828.17	28927.56
828.35	28796.49
828.53	28567.12
828.70	28802.63
828.88	28763.72
829.06	28642.89
829.24	28730.95
829.41	28409.42
829.59	28806.73
829.77	28466.77
829.95	28759.63
830.12	28423.76
830.30	28139.09
830.48	28284.50
830.66	28413.52
830.84	28280.40
831.01	27973.21
831.19	28102.23
831.37	28206.67
831.55	27897.43
831.72	27807.32
831.90	28251.73
832.08	28087.89
832.25	28057.17
832.43	27991.64
832.61	27420.25
832.79	28075.60
832.96	27711.07
833.14	27870.81
833.32	27692.63
833.50	27792.98
833.67	27612.76
833.85	27934.29
834.03	27268.70
834.20	27747.93
834.38	27614.81
834.56	27672.15
834.74	27164.26
834.91	27307.62
835.09	27223.65
835.27	27012.71
835.44	27209.31
835.62	26906.21
835.80	27229.79
835.98	27237.98
836.15	26996.32
836.33	26787.43
836.51	26941.03
836.68	26728.04
836.86	26795.62
837.04	27211.36
837.21	27045.48
837.39	26850.92
837.57	26920.55
837.75	26725.99
837.92	26250.86
838.10	26496.62
838.28	26652.27
838.45	26560.11
838.63	26058.35
838.81	26648.17
838.98	26340.97
839.16	26599.02
839.34	26226.29
839.51	26482.28
839.69	25992.82
839.87	26150.51
840.04	26257.01
840.22	26353.26
840.40	26168.94
840.57	25949.81
840.75	26502.76
840.93	25663.10
841.10	26013.30
841.28	26168.94
841.46	25960.05
841.63	26173.04
841.81	25912.95
841.98	25769.59
842.16	26039.92
842.34	26041.97
842.51	25503.35
842.69	26078.83
842.87	25798.26
843.04	25871.99
843.22	25656.95
843.40	25521.79
843.57	25742.97
843.75	25388.67
843.92	25532.03
844.10	25529.98
844.28	25548.41
844.45	25304.70
844.63	25511.55
844.81	25323.13
844.98	25273.98
845.16	25323.13
845.33	25220.74
845.51	25505.40
845.69	25288.32
845.86	25030.27
846.04	25198.21
846.21	25278.08
846.39	24942.21
846.57	25122.43
846.74	25013.89
846.92	24872.58
847.09	24817.29
847.27	24790.66
847.45	24888.96
847.62	24979.07
847.80	24841.86
847.97	25030.27
848.15	24893.06
848.32	24409.74
848.50	24637.06
848.68	24501.90
848.85	24708.74
849.03	24505.99
849.20	24649.35
849.38	24284.81
849.56	24438.41
849.73	24305.29
849.91	24456.84
850.08	24538.76
850.26	24391.31
850.43	24301.20
850.61	24272.53
850.78	24198.80
850.96	24180.37
851.14	24153.74
851.31	24442.51
851.49	24000.15
851.66	24180.37
851.84	24114.83
852.01	24047.25
852.19	23998.10
852.36	24172.18
852.54	24166.03
852.71	24086.16
852.89	23809.68
853.07	23666.33
853.24	23744.15
853.42	23703.19
853.59	23508.63
853.77	23688.85
853.94	23844.50
854.12	23971.47
854.29	23375.52
854.47	23461.53
854.64	23514.78
854.82	23391.90
854.99	23484.06
855.17	23649.94
855.34	23281.31
855.52	23746.20
855.69	23312.03
855.87	23170.72
856.04	23324.32
856.22	23334.56
856.39	23396.00
856.57	22988.45
856.74	23428.76
856.92	23443.10
857.09	23051.94
857.27	23133.86
857.44	23242.40
857.62	23406.23
857.79	22900.39
857.97	22757.03
858.14	23058.08
858.32	22759.08
858.49	23244.45
858.67	22947.49
858.84	22920.87
859.02	22861.48
859.19	22836.90
859.37	22697.64
859.54	22615.72
859.72	22560.42
859.89	22480.55
860.06	22761.12
860.24	22734.50
860.41	22658.73
860.59	22251.18
860.76	22431.40
860.94	22331.05
861.11	22681.25
861.29	22144.69
861.46	22384.30
861.64	22146.73
861.81	22470.31
861.98	22580.90
862.16	21634.74
862.33	21989.04
862.51	22206.13
862.68	22331.05
862.86	22091.44
863.03	22015.66
863.21	22064.82
863.38	21964.46
863.55	21870.26
863.73	22138.54
863.90	21915.31
864.08	21972.66
864.25	22130.35
864.43	21976.75
864.60	21530.30
864.77	21315.26
864.95	21786.29
865.12	21630.65
865.30	21798.58
865.47	21765.81
865.64	21483.19
865.82	21526.20
865.99	21767.86
866.17	21661.37
866.34	21616.31
866.51	21434.04
866.69	21391.03
866.86	21614.26
867.04	21657.27
867.21	21415.61
867.38	21388.99
867.56	21386.94
867.73	20928.19
867.91	21438.14
868.08	21212.86
868.25	20760.26
868.43	21194.43
868.60	20907.71
868.78	21092.03
868.95	21235.39
869.12	21067.45
869.30	20930.24
869.47	21135.04
869.64	20666.05
869.82	20926.14
869.99	20561.61
870.16	21108.41
870.34	20520.65
870.51	20850.37
870.69	20573.89
870.86	20252.36
871.03	20514.50
871.21	20438.73
871.38	20711.11
871.55	20483.78
871.73	20369.10
871.90	20577.99
872.07	20276.94
872.25	20162.25
872.42	20217.55
872.59	20149.96
872.77	20086.48
872.94	20078.29
873.11	19820.24
873.29	20219.60
873.46	19830.48
873.63	19912.40
873.81	20068.05
873.98	19742.42
874.15	19814.10
874.33	19726.04
874.50	19463.90
874.67	19615.44
874.85	19695.32
875.02	19574.49
875.19	19531.48
875.37	19672.79
875.54	19338.97
875.71	19439.32
875.88	19502.81
876.06	19463.90
876.23	19326.68
876.40	19539.67
876.58	19326.68
876.75	19222.23
876.92	19072.73
877.10	19195.61
877.27	19224.28
877.44	18984.67
877.61	19140.32
877.79	18847.46
877.96	19035.87
878.13	19052.25
878.31	18663.14
878.48	18657.00
878.65	18810.59
878.82	18775.78
879.00	18966.24
879.17	18740.96
879.34	18972.38
879.51	18577.12
879.69	18480.87
879.86	18534.12
880.03	18249.45
880.21	18185.96
880.38	18140.91
880.55	18319.08
880.72	18382.57
880.90	18218.73
881.07	18450.15
881.24	18206.44
881.41	18339.56
881.59	18321.13
881.76	18300.65
881.93	18108.14
882.10	18161.39
882.28	18163.43
882.45	18220.78
882.62	17952.49
882.79	18370.28
882.96	17903.34
883.14	18061.04
883.31	18056.94
883.48	17909.49
883.65	17964.78
883.83	18167.53
884.00	18081.52
884.17	17915.63
884.34	18124.52
884.51	18067.18
884.69	17829.62
884.86	17813.23
885.03	17813.23
885.20	17440.50
885.38	17841.90
885.55	17747.70
885.72	17694.45
885.89	17569.52
886.06	17583.86
886.24	17700.59
886.41	17508.08
886.58	17729.27
886.75	17587.96
886.92	17383.16
887.10	17637.11
887.27	17403.64
887.44	17532.66
887.61	17547.00
887.78	17573.62
887.95	17702.64
888.13	17391.35
888.30	17110.78
888.47	17190.65
888.64	17141.50
888.81	17018.62
888.99	17241.85
889.16	16922.37
889.33	16914.17
889.50	16953.09
889.67	16789.25
889.84	16883.45
890.01	16805.63
890.19	16852.73
890.36	16948.99
890.53	16760.58
890.70	16834.30
890.87	17006.33
891.04	16869.12
891.22	16774.91
891.39	16502.53
891.56	16539.40
891.73	16740.10
891.90	16559.88
892.07	16592.64
892.24	16797.44
892.42	16324.36
892.59	16572.16
892.76	16543.49
892.93	16379.65
893.10	16731.90
893.27	16385.80
893.44	16385.80
893.61	16461.57
893.79	16518.92
893.96	16293.64
894.13	16643.84
894.30	16338.69
894.47	16217.86
894.64	16512.77
894.81	16340.74
894.98	16484.10
895.15	16283.40
895.33	16150.28
895.50	16172.81
895.67	16277.26
895.84	16369.41
896.01	16211.72
896.18	15820.56
896.35	16346.89
896.52	16107.27
896.69	16078.60
896.86	16224.01
897.04	16062.22
897.21	16416.52
897.38	16150.28
897.55	16244.49
897.72	15900.43
897.89	15941.39
898.06	16404.23
898.23	16123.66
898.40	16094.99
898.57	16228.10
898.74	15927.05
898.91	15818.51
899.08	16211.72
899.26	16230.15
899.43	16002.83
899.60	15961.87
899.77	16078.60
899.94	15957.77
900.11	16039.69
900.28	16150.28
900.45	15773.46
900.62	15834.89
900.79	15945.48
900.96	15830.80
901.13	15847.18
901.30	15994.64
901.47	15914.77
901.64	15679.25
901.81	16084.75
901.98	15912.72
902.15	16213.77
902.32	15945.48
902.49	16103.18
902.66	16097.03
902.83	15865.61
903.01	15918.86
903.18	15908.62
903.35	16045.84
903.52	15994.64
903.69	15970.06
903.86	15957.77
904.03	15908.62
904.20	16453.38
904.37	16017.16
904.54	15894.29
904.71	16049.93
904.88	15843.09
905.05	15902.48
905.22	15812.37
905.39	15683.34
905.56	16004.88
905.73	15892.24
905.90	15712.02
906.07	15867.66
906.24	15953.68
906.41	15943.44
906.58	16119.56
906.75	15816.46
906.92	15718.16
907.09	15513.36
907.26	15863.57
907.43	15757.07
907.60	15775.50
907.77	16002.83
907.93	15804.17
908.10	15894.29
908.27	15654.67
908.44	15712.02
908.61	15544.08
908.78	15855.37
908.95	15855.37
909.12	15671.06
909.29	15499.03
909.46	15453.97
909.63	15683.34
909.80	15994.64
909.97	15691.54
910.14	15548.18
910.31	15787.79
910.48	15699.73
910.65	15507.22
910.82	15544.08
910.99	15390.49
911.16	15480.60
911.33	15537.94
911.50	15568.66
911.66	15367.96
911.83	15447.83
912.00	15138.58
912.17	15202.07
912.34	15345.43
912.51	15259.42
912.68	15261.46
912.85	15261.46
913.02	15318.81
913.19	15071.00
913.36	15468.31
913.53	14976.80
913.70	15157.02
913.86	15218.46
914.03	15247.13
914.20	15138.58
914.37	15339.29
914.54	15032.09
914.71	15185.69
914.88	14956.32
915.05	14841.63
915.22	14862.11
915.39	14862.11
915.55	14716.70
915.72	14667.55
915.89	14612.26
916.06	14675.74
916.23	14692.13
916.40	14634.78
916.57	14552.87
916.74	14716.70
916.91	14524.19
917.07	14296.87
917.24	14542.63
917.41	14307.11
917.58	14606.11
917.75	14548.77
917.92	14219.05
918.09	14305.06
918.26	14155.56
918.42	14229.29
918.59	14296.87
918.76	14022.44
918.93	14169.90
919.10	13903.66
919.27	13950.76
919.44	14204.71
919.60	14098.22
919.77	13739.82
919.94	13838.12
920.11	13938.48
920.28	13786.93
920.45	13868.84
920.61	13729.58
920.78	13616.94
920.95	13557.55
921.12	13664.05
921.29	13451.06
921.46	13532.98
921.62	13348.66
921.79	13483.83
921.96	13317.94
922.13	13203.25
922.30	13346.61
922.47	13053.75
922.63	13178.68
922.80	13127.48
922.97	12996.41
923.14	13002.55
923.31	13133.62
923.47	12830.52
923.64	13072.18
923.81	12922.68
923.98	12945.21
924.15	12607.30
924.32	12955.45
924.48	12638.02
924.65	12775.23
924.82	12363.59
924.99	12457.79
925.15	12476.23
925.32	12410.69
925.49	12283.72
925.66	12083.02
925.83	12418.88
925.99	12009.29
926.16	12382.02
926.33	12363.59
926.50	12066.63
926.67	12144.45
926.83	12128.07
927.00	12031.82
927.17	11876.17
927.34	11583.31
927.50	11812.68
927.67	11972.43
927.84	11882.31
928.01	12074.82
928.17	11536.21
928.34	11634.51
928.51	11439.95
928.68	11351.89
928.84	11398.99
929.01	11329.36
929.18	11083.61
929.35	11497.30
929.51	11251.54
929.68	11089.75
929.85	11126.61
930.02	11138.90
930.18	11276.12
930.35	11161.43
930.52	10991.45
930.69	10889.05
930.85	10837.85
931.02	10682.20
931.19	10856.28
931.36	10731.36
931.52	10696.54
931.69	10501.98
931.86	10624.86
932.02	10501.98
932.19	10608.48
932.36	10422.11
932.53	10569.57
932.69	10215.27
932.86	10456.93
933.03	10391.39
933.19	10063.72
933.36	10264.42
933.53	10125.16
933.70	10139.49
933.86	10035.05
934.03	10213.22
934.20	9811.82
934.36	9957.22
934.53	9557.87
934.70	9834.35
934.86	9850.73
935.03	9385.84
935.20	9539.44
935.36	9312.11
935.53	9258.87
935.70	9156.47
935.86	9201.52
936.03	9037.69
936.20	9023.35
936.36	8920.95
936.53	9015.16
936.70	8949.62
936.86	9121.65
937.03	8689.53
937.20	8628.09
937.36	8609.66
937.53	8433.54
937.70	8181.64
937.86	8247.17
938.03	8046.47
938.20	8198.02
938.36	8071.04
938.53	8134.53
938.70	7688.07
938.86	7870.34
939.03	7606.16
939.20	7438.22
939.36	7380.88
939.53	7516.05
939.70	7614.35
939.86	7171.99
940.03	7219.09
940.19	7114.64
940.36	7098.26
940.53	7034.77
940.69	6993.81
940.86	6975.38
941.03	6635.42
941.19	6860.70
941.36	6805.40
941.52	6576.03
941.69	6385.57
941.86	6514.59
942.02	6508.44
942.19	6397.85
942.35	6326.18
942.52	6148.00
942.69	6223.78
942.85	6031.27
943.02	6055.84
943.18	6115.23
943.35	6023.08
943.52	5988.26
943.68	5859.24
943.85	5818.28
944.01	5676.97
944.18	5767.08
944.35	5943.21
944.51	5756.84
944.68	5640.11
944.84	5695.40
945.01	5668.78
945.17	5656.49
945.34	5668.78
945.51	5812.14
945.67	5668.78
945.84	5586.86
946.00	5504.94
946.17	5496.75
946.33	5482.41
946.50	5525.42
946.67	5418.93
946.83	5375.92
947.00	5621.67
947.16	5619.63
947.33	5480.36
947.49	5416.88
947.66	5414.83
947.82	5519.28
947.99	5402.54
948.16	5502.89
948.32	5369.77
948.49	5644.20
948.65	5525.42
948.82	5580.71
948.98	5457.84
949.15	5328.81
949.31	5441.45
949.48	5490.60
949.64	5552.04
949.81	5488.56
949.97	5451.69
950.14	5484.46
950.30	5443.50
950.47	5513.13
950.63	5636.01
950.80	5560.24
950.96	5490.60
951.13	5451.69
951.30	5670.83
951.46	5584.81
951.63	5646.25
951.79	5498.80
951.96	5623.72
952.12	5496.75
952.29	5562.28
952.45	5382.06
952.62	5599.15
952.78	5625.77
952.94	5476.27
953.11	5656.49
953.27	5269.42
953.44	5719.98
953.60	5713.83
953.77	5734.31
953.93	5590.95
954.10	5689.26
954.26	5709.74
954.43	5457.84
954.59	5658.54
954.76	5701.54
954.92	5580.71
955.09	5545.90
955.25	5652.39
955.42	5609.39
955.58	5609.39
955.75	5689.26
955.91	5623.72
956.07	5638.06
956.24	5701.54
956.40	5709.74
956.57	5728.17
956.73	5666.73
956.90	5660.59
957.06	5662.63
957.23	5715.88
957.39	5746.60
957.56	5681.07
957.72	5672.87
957.88	5541.80
958.05	5767.08
958.21	5820.33
958.38	5707.69
958.54	5638.06
958.71	5691.31
958.87	5599.15
959.03	5547.95
959.20	5681.07
959.36	5588.91
959.53	5558.19
959.69	5631.91
959.85	5771.18
960.02	5656.49
960.18	5619.63
960.35	5697.45
960.51	5681.07
960.68	5597.10
960.84	5705.64
961.00	5601.19
961.17	5625.77
961.33	5590.95
961.50	5640.11
961.66	5582.76
961.82	5625.77
961.99	5652.39
962.15	5670.83
962.31	5601.19
962.48	5541.80
962.64	5509.04
962.81	5722.02
962.97	5607.34
963.13	5670.83
963.30	5619.63
963.46	5529.52
963.62	5597.10
963.79	5550.00
963.95	5599.15
964.12	5611.43
964.28	5541.80
964.44	5584.81
964.61	5537.71
964.77	5484.46
964.93	5633.96
965.10	5470.12
965.26	5425.07
965.42	5535.66
965.59	5443.50
965.75	5519.28
965.92	5650.35
966.08	5586.86
966.24	5527.47
966.41	5400.49
966.57	5384.11
966.73	5578.67
966.90	5353.39
967.06	5384.11
967.22	5365.68
967.39	5332.91
967.55	5287.86
967.71	5404.59
967.88	5466.03
968.04	5470.12
968.20	5291.95
968.37	5337.01
968.53	5289.90
968.69	5404.59
968.85	5263.28
969.02	5218.22
969.18	5283.76
969.34	5232.56
969.51	5500.84
969.67	5308.34
969.83	5205.94
970.00	5451.69
970.16	5269.42
970.32	5234.61
970.48	5287.86
970.65	5234.61
970.81	5232.56
970.97	5232.56
971.14	5197.74
971.30	5263.28
971.46	5128.11
971.63	5238.70
971.79	5195.70
971.95	5285.81
972.11	5087.15
972.28	5183.41
972.44	5255.09
972.60	5042.10
972.76	5017.52
972.93	5040.05
973.09	5191.60
973.25	5046.20
973.42	5005.24
973.58	5105.59
973.74	5085.11
973.90	5113.78
974.07	5007.28
974.23	5060.53
974.39	5023.67
974.55	4984.76
974.72	5017.52
974.88	5003.19
975.04	5017.52
975.20	4906.93
975.37	5083.06
975.53	4886.45
975.69	4882.36
975.85	4911.03
976.01	4794.29
976.18	4958.13
976.34	4825.01
976.50	4929.46
976.66	5015.48
976.83	4790.20
976.99	4847.54
977.15	4853.69
977.31	4769.72
977.47	4988.85
977.64	4786.10
977.80	4749.24
977.96	4571.07
978.12	4743.10
978.29	4661.18
978.45	4663.22
978.61	4642.75
978.77	4870.07
978.93	4601.79
979.10	4714.42
979.26	4771.77
979.42	4710.33
979.58	4526.01
979.74	4652.98
979.91	4720.57
980.07	4560.83
980.23	4546.49
980.39	4630.46
980.55	4644.79
980.71	4607.93
980.88	4538.30
981.04	4499.39
981.20	4507.58
981.36	4595.64
981.52	4593.59
981.68	4474.81
981.85	4478.91
982.01	4546.49
982.17	4407.23
982.33	4493.24
982.49	4478.91
982.65	4308.93
982.82	4351.93
982.98	4403.13
983.14	4337.60
983.30	4519.87
983.46	4454.33
983.62	4376.51
983.79	4407.23
983.95	4347.84
984.11	4286.40
984.27	4548.54
984.43	4353.98
984.59	4186.05
984.75	4296.64
984.91	4200.38
985.08	4462.52
985.24	4163.52
985.40	4149.18
985.56	4214.72
985.72	4356.03
985.88	4206.53
986.04	4247.49
986.20	4173.76
986.37	4267.97
986.53	4227.01
986.69	4167.62
986.85	4061.12
987.01	4020.16
987.17	4184.00
987.33	4050.88
987.49	4149.18
987.65	4052.93
987.82	4038.59
987.98	4063.17
988.14	4124.61
988.30	4163.52
988.46	4016.07
988.62	4116.42
988.78	4173.76
988.94	3995.59
989.10	4011.97
989.26	3925.96
989.42	3911.62
989.59	3852.23
989.75	4007.87
989.91	3899.33
990.07	3841.99
990.23	3813.32
990.39	3950.53
990.55	3911.62
990.71	3887.04
990.87	3905.48
991.03	3923.91
991.19	3862.47
991.35	3821.51
991.51	3846.09
991.67	3854.28
991.83	3710.92
992.00	3891.14
992.16	3868.61
992.32	3866.56
992.48	3905.48
992.64	3798.98
992.80	3755.97
992.96	3686.34
993.12	3913.67
993.28	3786.69
993.44	3657.67
993.60	3710.92
993.76	3737.54
993.92	3737.54
994.08	3725.26
994.24	3762.12
994.40	3698.63
994.56	3729.35
994.72	3704.78
994.88	3608.52
995.04	3753.93
995.20	3542.99
995.36	3629.00
995.52	3629.00
995.68	3547.08
995.84	3549.13
996.00	3725.26
996.16	3624.90
996.32	3721.16
996.48	3514.31
996.64	3629.00
996.80	3663.82
996.96	3510.22
997.12	3508.17
997.28	3567.56
997.44	3577.80
997.60	3510.22
997.76	3456.97
997.92	3491.79
998.08	3477.45
998.24	3387.34
998.40	3463.12
998.56	3459.02
998.72	3383.24
998.88	3403.72
999.04	3362.76
999.20	3530.70
999.36	3258.32
999.52	3469.26
999.68	3346.38
999.84	3424.20
1000.00	3297.23
1000.16	3499.98
1000.32	3360.72
1000.48	3489.74
1000.64	3237.84
1000.80	3231.69
1000.95	3205.07
1001.11	3321.81
1001.27	3190.74
1001.43	3348.43
1001.59	3282.89
1001.75	3252.17
1001.91	3305.42
1002.07	3239.89
1002.23	3278.80
1002.39	3231.69
1002.55	3272.65
1002.71	3286.99
1002.87	3186.64
1003.03	3098.58
1003.19	3084.24
1003.34	3225.55
1003.50	3121.10
1003.66	3258.32
1003.82	3168.21
1003.98	3117.01
1004.14	3100.62
1004.30	3074.00
1004.46	3078.10
1004.62	3094.48
1004.78	3125.20
1004.94	3102.67
1005.09	3090.38
1005.25	3106.77
1005.41	2998.23
1005.57	3196.88
1005.73	3014.61
1005.89	3098.58
1006.05	3024.85
1006.21	3092.43
1006.37	2981.84
1006.52	2944.98
1006.68	2969.55
1006.84	3227.60
1007.00	2987.99
1007.16	3004.37
1007.32	2856.92
1007.48	3028.95
1007.64	3026.90
1007.79	2985.94
1007.95	2811.86
1008.11	2967.51
1008.27	2899.92
1008.43	2942.93
1008.59	2897.88
1008.75	2918.36
1008.91	2856.92
1009.06	2967.51
1009.22	2863.06
1009.38	2936.79
1009.54	2785.24
1009.70	2893.78
1009.86	2805.72
1010.01	2854.87
1010.17	2785.24
1010.33	2854.87
1010.49	2803.67
1010.65	2871.25
1010.81	2674.65
1010.96	2777.05
1011.12	2662.36
1011.28	2693.08
1011.44	2826.20
1011.60	2715.61
1011.76	2723.80
1011.91	2736.09
1012.07	2748.37
1012.23	2770.90
1012.39	2652.12
1012.55	2830.29
1012.71	2637.78
1012.86	2611.16
1013.02	2770.90
1013.18	2637.78
1013.34	2625.50
1013.50	2682.84
1013.65	2680.79
1013.81	2625.50
1013.97	2506.71
1014.13	2650.07
1014.29	2641.88
1014.44	2666.46
1014.60	2631.64
1014.76	2578.39
1014.92	2664.41
1015.07	2613.21
1015.23	2586.58
1015.39	2519.00
1015.55	2566.10
1015.71	2559.96
1015.86	2551.77
1016.02	2467.80
1016.18	2598.87
1016.34	2637.78
1016.49	2547.67
1016.65	2525.15
1016.81	2580.44
1016.97	2559.96
1017.12	2521.05
1017.28	2514.91
1017.44	2592.73
1017.60	2422.75
1017.75	2488.28
1017.91	2562.01
1018.07	2439.13
1018.23	2510.81
1018.38	2533.34
1018.54	2498.52
1018.70	2531.29
1018.86	2461.66
1019.01	2330.59
1019.17	2510.81
1019.33	2471.90
1019.49	2414.56
1019.64	2428.89
1019.80	2480.09
1019.96	2459.61
1020.12	2443.23
1020.27	2439.13
1020.43	2379.74
1020.59	2353.12
1020.74	2387.93
1020.90	2379.74
1021.06	2406.36
1021.22	2361.31
1021.37	2410.46
1021.53	2308.06
1021.69	2475.99
1021.84	2271.20
1022.00	2367.45
1022.16	2246.62
1022.31	2412.51
1022.47	2420.70
1022.63	2371.55
1022.79	2220.00
1022.94	2316.25
1023.10	2281.44
1023.26	2328.54
1023.41	2242.53
1023.57	2236.38
1023.73	2308.06
1023.88	2281.44
1024.04	2340.83
1024.20	2330.59
1024.35	2283.49
1024.51	2265.05
1024.67	2244.57
1024.82	2306.01
1024.98	2191.33
1025.14	2273.25
1025.29	2176.99
1025.45	2310.11
1025.61	2162.66
1025.76	2226.14
1025.92	2187.23
1026.08	2326.49
1026.23	2281.44
1026.39	2289.63
1026.55	2150.37
1026.70	2082.78
1026.86	2164.70
1027.02	2185.18
1027.17	2176.99
1027.33	2234.33
1027.48	2105.31
1027.64	2160.61
1027.80	2166.75
1027.95	2226.14
1028.11	2035.68
1028.27	2160.61
1028.42	2109.41
1028.58	2181.09
1028.73	2023.39
1028.89	2080.74
1029.05	2140.13
1029.20	2199.52
>>>>>End Processed Spectral Data<<<<<
