SpectraSuite Data File
++++++++++++++++++++++++++++++++++++
Date: Fri Jun 02 14:42:00 CEST 2017
User: INFO_000
Dark Spectrum Present: No
Reference Spectrum Present: No
Number of Sampled Component Spectra: 1
Spectrometers: USB4H00879
Integration Time (usec): 80000 (USB4H00879)
Spectra Averaged: 1 (USB4H00879)
Boxcar Smoothing: 0 (USB4H00879)
Correct for Electrical Dark: No (USB4H00879)
Strobe/Lamp Enabled: No (USB4H00879)
Correct for Detector Non-linearity: No (USB4H00879)
Correct for Stray Light: No (USB4H00879)
Number of Pixels in Processed Spectrum: 3648
>>>>>Begin Processed Spectral Data<<<<<
345.13	1296.36
345.34	1296.36
345.56	1296.36
345.78	1308.65
345.99	1345.52
346.21	1740.77
346.42	1691.62
346.64	1665.00
346.86	1783.78
347.07	1681.38
347.29	1818.60
347.50	1624.04
347.72	1697.77
347.94	1691.62
348.15	1511.40
348.37	1632.23
348.59	1626.09
348.80	1615.85
349.02	1810.40
349.23	1912.80
349.45	1728.49
349.67	1910.75
349.88	1808.36
350.10	1916.90
350.31	1779.68
350.53	1841.12
350.75	1935.33
350.96	1800.16
351.18	1875.94
351.39	1886.18
351.61	1804.26
351.82	1898.47
352.04	1841.12
352.26	1845.22
352.47	1834.98
352.69	1904.61
352.90	1816.55
353.12	1880.04
353.34	1773.54
353.55	1955.81
353.77	1914.85
353.98	1808.36
354.20	1814.50
354.41	1902.56
354.63	1976.29
354.85	2066.40
355.06	1863.65
355.28	1759.21
355.49	1853.41
355.71	1890.28
355.92	1849.32
356.14	2031.58
356.35	1816.55
356.57	1884.13
356.79	1925.09
357.00	1837.03
357.22	1978.34
357.43	1855.46
357.65	1912.80
357.86	1867.75
358.08	1968.10
358.29	1945.57
358.51	1961.95
358.72	2004.96
358.94	1927.14
359.16	1902.56
359.37	1933.28
359.59	2023.39
359.80	2013.15
360.02	1957.86
360.23	1937.38
360.45	1970.15
360.66	1914.85
360.88	1757.16
361.09	1920.99
361.31	2068.45
361.52	1972.19
361.74	2109.41
361.95	2066.40
362.17	2000.87
362.38	2168.80
362.60	1947.62
362.81	1992.67
363.03	2019.30
363.24	1884.13
363.46	2117.60
363.67	2004.96
363.89	1933.28
364.10	1957.86
364.32	1943.52
364.53	2060.26
364.75	1906.66
364.96	2017.25
365.18	1964.00
365.39	2007.01
365.61	1976.29
365.82	2183.13
366.04	2015.20
366.25	1935.33
366.47	2056.16
366.68	2019.30
366.90	1935.33
367.11	2068.45
367.33	2047.97
367.54	2070.50
367.76	2039.78
367.97	2047.97
368.19	2062.30
368.40	2009.06
368.62	2000.87
368.83	1931.23
369.05	2041.82
369.26	1980.39
369.48	1996.77
369.69	2029.54
369.91	2047.97
370.12	1992.67
370.33	2170.85
370.55	1992.67
370.76	2043.87
370.98	2140.13
371.19	2039.78
371.41	1974.24
371.62	2066.40
371.84	2043.87
372.05	2215.90
372.27	1972.19
372.48	2109.41
372.69	2072.54
372.91	2115.55
373.12	2119.65
373.34	2062.30
373.55	2088.93
373.77	2265.05
373.98	2084.83
374.20	2195.42
374.41	2242.53
374.62	2148.32
374.84	2197.47
375.05	2154.46
375.27	2164.70
375.48	2154.46
375.70	2144.22
375.91	2244.57
376.12	2191.33
376.34	2197.47
376.55	2185.18
376.77	2254.81
376.98	2166.75
377.19	2138.08
377.41	2228.19
377.62	2209.76
377.84	2310.11
378.05	2369.50
378.27	2213.85
378.48	2371.55
378.69	2392.03
378.91	2287.58
379.12	2299.87
379.34	2199.52
379.55	2279.39
379.76	2332.64
379.98	2164.70
380.19	2209.76
380.41	2230.24
380.62	2359.26
380.83	2344.92
381.05	2228.19
381.26	2402.27
381.47	2371.55
381.69	2271.20
381.90	2459.61
382.12	2322.40
382.33	2342.88
382.54	2363.36
382.76	2389.98
382.97	2303.96
383.19	2273.25
383.40	2400.22
383.61	2359.26
383.83	2418.65
384.04	2349.02
384.25	2357.21
384.47	2500.57
384.68	2484.19
384.89	2283.49
385.11	2242.53
385.32	2394.08
385.54	2365.40
385.75	2322.40
385.96	2410.46
386.18	2344.92
386.39	2469.85
386.60	2338.78
386.82	2514.91
387.03	2410.46
387.24	2484.19
387.46	2494.43
387.67	2523.10
387.88	2494.43
388.10	2500.57
388.31	2488.28
388.52	2557.91
388.74	2572.25
388.95	2523.10
389.16	2543.58
389.38	2590.68
389.59	2631.64
389.80	2715.61
390.02	2492.38
390.23	2600.92
390.44	2598.87
390.66	2555.86
390.87	2572.25
391.08	2729.94
391.30	2682.84
391.51	2707.41
391.72	2666.46
391.94	2686.94
392.15	2770.90
392.36	2625.50
392.58	2617.30
392.79	2688.98
393.00	2764.76
393.22	2850.77
393.43	2727.89
393.64	2781.14
393.85	2789.33
394.07	2641.88
394.28	2813.91
394.49	2775.00
394.71	2949.08
394.92	2836.44
395.13	2775.00
395.35	2793.43
395.56	2854.87
395.77	2891.73
395.98	2910.16
396.20	2842.58
396.41	2869.20
396.62	2908.12
396.84	2865.11
397.05	2871.25
397.26	2983.89
397.47	2899.92
397.69	2838.48
397.90	3069.91
398.11	2916.31
398.32	2971.60
398.54	2885.59
398.75	2873.30
398.96	2936.79
399.18	3071.95
399.39	3055.57
399.60	3084.24
399.81	2994.13
400.03	3065.81
400.24	3270.61
400.45	3178.45
400.66	3121.10
400.88	2994.13
401.09	3184.59
401.30	3110.86
401.51	3227.60
401.73	3123.15
401.94	3182.54
402.15	3149.78
402.36	3268.56
402.58	3231.69
402.79	3243.98
403.00	3239.89
403.21	3258.32
403.43	3235.79
403.64	3393.48
403.85	3205.07
404.06	3379.15
404.27	3254.22
404.49	3211.22
404.70	3221.45
404.91	3346.38
405.12	3278.80
405.34	3379.15
405.55	3459.02
405.76	3233.74
405.97	3344.33
406.19	3499.98
406.40	3258.32
406.61	3409.87
406.82	3432.40
407.03	3446.73
407.25	3477.45
407.46	3551.18
407.67	3530.70
407.88	3629.00
408.09	3510.22
408.31	3426.25
408.52	3450.83
408.73	3399.63
408.94	3516.36
409.15	3559.37
409.37	3532.75
409.58	3360.72
409.79	3579.85
410.00	3637.19
410.21	3502.03
410.43	3526.60
410.64	3534.79
410.85	3612.62
411.06	3659.72
411.27	3667.91
411.48	3667.91
411.70	3719.11
411.91	3753.93
412.12	3719.11
412.33	3735.50
412.54	3690.44
412.76	3743.69
412.97	3706.82
413.18	3542.99
413.39	3784.65
413.60	3760.07
413.81	3825.61
414.03	3655.62
414.24	3559.37
414.45	3862.47
414.66	3690.44
414.87	3825.61
415.08	3719.11
415.30	3850.18
415.51	3864.52
415.72	3762.12
415.93	3803.08
416.14	4001.73
416.35	3915.72
416.56	3938.24
416.78	3809.22
416.99	3829.70
417.20	3889.09
417.41	4054.98
417.62	3878.85
417.83	4130.75
418.04	3981.25
418.26	4093.89
418.47	4014.02
418.68	4179.90
418.89	4110.27
419.10	4249.54
419.31	4042.69
419.52	4200.38
419.73	4065.22
419.95	4206.53
420.16	4089.79
420.37	4157.38
420.58	4194.24
420.79	4046.79
421.00	4184.00
421.21	4270.01
421.42	4120.51
421.63	4257.73
421.85	4175.81
422.06	4214.72
422.27	4403.13
422.48	4257.73
422.69	4376.51
422.90	4485.05
423.11	4366.27
423.32	4427.71
423.53	4456.38
423.75	4456.38
423.96	4691.90
424.17	4519.87
424.38	4593.59
424.59	4515.77
424.80	4818.87
425.01	4583.35
425.22	4530.11
425.43	4454.33
425.64	4777.91
425.85	4687.80
426.06	4734.90
426.28	4739.00
426.49	4640.70
426.70	4749.24
426.91	4806.58
427.12	4949.94
427.33	4849.59
427.54	4636.60
427.75	4759.48
427.96	4863.93
428.17	4933.56
428.38	4954.04
428.59	5173.17
428.80	4951.99
429.01	5033.91
429.23	5105.59
429.44	5224.37
429.65	5058.48
429.86	5107.63
430.07	5042.10
430.28	4978.61
430.49	5099.44
430.70	5160.88
430.91	5144.50
431.12	5189.55
431.33	5343.15
431.54	5308.34
431.75	5326.77
431.96	5205.94
432.17	5277.62
432.38	5337.01
432.59	5556.14
432.80	5390.25
433.01	5572.52
433.22	5476.27
433.43	5386.16
433.64	5441.45
433.85	5310.38
434.06	5631.91
434.27	5463.98
434.49	5631.91
434.70	5789.61
434.91	5664.68
435.12	5623.72
435.33	5676.97
435.54	5574.57
435.75	5572.52
435.96	5672.87
436.17	5672.87
436.38	5748.65
436.59	5781.42
436.80	5711.78
437.01	6078.37
437.22	6016.93
437.43	5840.81
437.64	5834.66
437.85	5973.92
438.06	6076.32
438.27	5851.05
438.48	5812.14
438.69	6115.23
438.90	5986.21
439.11	5769.13
439.32	5990.31
439.53	6035.36
439.74	6143.91
439.95	6047.65
440.16	6084.52
440.37	6158.24
440.57	6156.19
440.78	6107.04
440.99	6107.04
441.20	6201.25
441.41	6047.65
441.62	6332.32
441.83	5982.12
442.04	6389.66
442.25	6393.76
442.46	6164.39
442.67	6371.23
442.88	6524.83
443.09	6299.55
443.30	6268.83
443.51	6363.04
443.72	6580.12
443.93	6352.80
444.14	6668.19
444.35	6360.99
444.56	6490.01
444.77	6694.81
444.98	6653.85
445.19	6832.02
445.40	6688.67
445.61	6541.21
445.81	6774.68
446.02	6852.50
446.23	6707.10
446.44	6461.34
446.65	6662.04
446.86	6842.26
447.07	6748.06
447.28	6971.29
447.49	6817.69
447.70	6809.50
447.91	6795.16
448.12	6922.13
448.33	7034.77
448.54	7047.06
448.74	6987.67
448.95	7047.06
449.16	6944.66
449.37	7239.57
449.58	7032.72
449.79	7231.38
450.00	6967.19
450.21	7233.43
450.42	7237.52
450.63	7301.01
450.84	7272.34
451.05	7450.51
451.25	7384.98
451.46	7137.17
451.67	7440.27
451.88	7563.15
452.09	7380.88
452.30	7466.89
452.51	7401.36
452.72	7579.53
452.93	7776.14
453.13	7477.13
453.34	7595.92
453.55	7624.59
453.76	7741.32
453.97	7876.49
454.18	7831.43
454.39	7815.05
454.60	7673.74
454.81	7792.52
455.01	7966.60
455.22	7620.49
455.43	7954.31
455.64	8191.88
455.85	8220.55
456.06	8042.37
456.27	8109.96
456.48	7935.88
456.68	8099.72
456.89	8222.59
457.10	8306.56
457.31	8327.04
457.52	8247.17
457.73	8384.38
457.94	8619.90
458.14	8294.27
458.35	8779.64
458.56	8562.56
458.77	8447.87
458.98	8677.24
459.19	8669.05
459.39	8669.05
459.60	8945.53
459.81	8621.95
460.02	8986.49
460.23	8951.67
460.44	9076.60
460.65	8984.44
460.85	9299.83
461.06	9109.36
461.27	8945.53
461.48	9498.48
461.69	9482.10
461.89	8947.58
462.10	9314.16
462.31	9092.98
462.52	9224.05
462.73	9240.44
462.94	9551.73
463.14	9463.66
463.35	9439.09
463.56	9785.19
463.77	9867.11
463.98	9641.84
464.18	9549.68
464.39	9838.44
464.60	9918.31
464.81	9989.99
465.02	9942.89
465.23	9946.98
465.43	10022.76
465.64	10280.80
465.85	10123.11
466.06	10092.39
466.27	10375.01
466.47	10176.36
466.68	10719.07
466.89	10325.86
467.10	10549.09
467.30	10501.98
467.51	10534.75
467.72	10737.50
467.93	10514.27
468.14	10528.61
468.34	10913.63
468.55	10843.99
468.76	11186.01
468.97	10782.56
469.17	11126.61
469.38	11497.30
469.59	11493.20
469.80	11251.54
470.01	11200.34
470.21	11333.46
470.42	11784.01
470.63	11611.98
470.84	11497.30
471.04	11675.47
471.25	11870.03
471.46	11861.84
471.67	12091.21
471.87	12021.58
472.08	12193.61
472.29	12244.81
472.50	11970.38
472.70	12248.90
472.91	12154.69
473.12	12418.88
473.33	12443.46
473.53	12650.30
473.74	12476.23
473.95	12842.81
474.16	12898.11
474.36	12803.90
474.57	13031.23
474.78	13272.89
474.99	13111.10
475.19	13061.94
475.40	13430.58
475.61	13629.23
475.81	13537.07
476.02	13743.92
476.23	13403.96
476.44	13807.41
476.64	13913.90
476.85	14335.78
477.06	14032.68
477.27	14155.56
477.47	14468.90
477.68	14331.69
477.89	14507.81
478.09	14425.89
478.30	14683.94
478.51	14898.97
478.71	14792.48
478.92	14817.05
479.13	15079.19
479.34	15212.31
479.54	15079.19
479.75	15218.46
479.96	15249.18
480.16	15413.01
480.37	15513.36
480.58	15677.20
480.78	15832.85
480.99	15849.23
481.20	15847.18
481.41	16166.67
481.61	16213.77
481.82	16473.86
482.03	16424.71
482.23	16473.86
482.44	16807.68
482.65	16748.29
482.85	16787.20
483.06	16690.95
483.27	16881.41
483.47	16729.86
483.68	17190.65
483.89	17215.23
484.09	17417.97
484.30	17168.12
484.51	17559.28
484.71	17622.77
484.92	17555.19
485.13	17911.53
485.33	17805.04
485.54	17907.44
485.75	17962.73
485.95	18208.49
486.16	18435.81
486.37	18312.94
486.57	18372.33
486.78	18454.25
486.98	18491.11
487.19	18912.99
487.40	19062.49
487.60	18763.49
487.81	19154.65
488.02	18988.77
488.22	18992.86
488.43	19496.66
488.64	19439.32
488.84	19502.81
489.05	19433.18
489.25	19361.50
489.46	19758.80
489.67	19728.08
489.87	20043.47
490.08	20008.65
490.29	19953.36
490.49	20414.15
490.70	20256.46
490.90	20367.05
491.11	20637.38
491.32	20428.49
491.52	20520.65
491.73	20494.02
491.94	20897.47
492.14	20582.09
492.35	21229.24
492.55	21036.74
492.76	21280.44
492.97	21524.15
493.17	21327.55
493.38	21505.72
493.58	21630.65
493.79	21827.25
494.00	21520.06
494.20	21862.07
494.41	21739.19
494.61	22044.34
494.82	21960.37
495.02	22242.99
495.23	22189.74
495.44	22380.20
495.64	22478.50
495.85	22564.52
496.05	22650.53
496.26	22468.27
496.47	22998.69
496.67	22673.06
496.88	22970.02
497.08	22705.83
497.29	23221.92
497.49	22996.64
497.70	23080.61
497.91	23502.49
498.11	23541.40
498.32	23533.21
498.52	23680.66
498.73	23723.67
498.93	23742.10
499.14	23924.37
499.34	24045.20
499.55	24161.94
499.76	23934.61
499.96	23950.99
500.17	24368.78
500.37	24569.48
500.58	24227.47
500.78	24080.02
500.99	24643.21
501.19	24688.26
501.40	24542.86
501.60	24639.11
501.81	24870.53
502.02	24755.85
502.22	24811.14
502.43	25194.11
502.63	25364.09
502.84	25417.34
503.04	25120.38
503.25	25292.41
503.45	24944.26
503.66	25540.22
503.86	25478.78
504.07	25718.39
504.27	25405.05
504.48	26117.75
504.68	25835.13
504.89	26041.97
505.09	26201.71
505.30	26164.85
505.50	26013.30
505.71	25933.43
505.91	26320.49
506.12	26156.66
506.32	26582.63
506.53	26207.86
506.73	26269.30
506.94	26760.81
507.14	26355.31
507.35	26881.64
507.55	26904.17
507.76	26842.73
507.96	26809.96
508.17	26793.58
508.37	26869.35
508.58	27037.28
508.78	26762.86
508.99	27528.80
509.19	27450.97
509.40	27651.67
509.60	27387.49
509.81	27514.46
510.01	27274.85
510.22	27235.94
510.42	27602.52
510.63	27594.33
510.83	27571.80
511.04	27965.01
511.24	28149.33
511.44	27821.66
511.65	27792.98
511.85	27885.14
512.06	27954.77
512.26	28208.72
512.47	28192.34
512.67	27987.54
512.88	28522.06
513.08	28134.99
513.29	28446.29
513.49	28257.87
513.69	28266.06
513.90	28675.66
514.10	28528.20
514.31	28749.39
514.51	28636.75
514.72	28724.81
514.92	28798.54
515.13	28804.68
515.33	29244.99
515.53	29175.36
515.74	28771.91
515.94	28986.95
516.15	29017.67
516.35	29273.67
516.56	29447.74
516.76	29144.64
516.96	29496.89
517.17	29523.52
517.37	29707.83
517.58	29503.04
517.78	29697.59
517.99	29810.23
518.19	29611.58
518.39	29697.59
518.60	30254.64
518.80	29857.34
519.01	30055.99
519.21	29843.00
519.41	30275.12
519.62	29879.86
519.82	30488.11
520.03	30275.12
520.23	30191.16
520.43	30092.85
520.64	30676.52
520.84	30893.61
521.05	30744.11
521.25	30983.72
521.45	30905.90
521.66	30676.52
521.86	30701.10
522.07	30971.43
522.27	31147.56
522.47	31321.63
522.68	31407.65
522.88	31391.26
523.08	31479.33
523.29	31483.42
523.49	31772.19
523.70	31735.32
523.90	32128.53
524.10	31960.60
524.31	32273.94
524.51	32030.23
524.71	32181.78
524.92	32339.47
525.12	32273.94
525.33	32251.41
525.53	32462.35
525.73	33072.65
525.94	32759.31
526.14	32583.18
526.34	32771.60
526.55	32929.29
526.75	33021.45
526.95	33117.70
527.16	33027.59
527.36	33164.81
527.56	33304.07
527.77	33353.22
527.97	33134.09
528.17	33725.95
528.38	33523.20
528.58	33752.57
528.78	34096.63
528.99	33881.60
529.19	34049.53
529.39	33588.74
529.60	34221.56
529.80	34393.59
530.00	34268.66
530.21	34670.06
530.41	34326.00
530.61	34719.21
530.82	34477.55
531.02	34473.46
531.22	34815.47
531.43	34971.11
531.63	35016.17
531.83	35249.64
532.04	35479.01
532.24	35085.80
532.44	35802.59
532.64	35603.94
532.85	36091.35
533.05	36111.83
533.25	35941.85
533.46	36085.21
533.66	36500.95
533.86	36027.87
534.07	36443.60
534.27	35999.19
534.47	36636.11
534.67	36447.70
534.88	36206.04
535.08	36670.93
535.28	37094.86
535.49	36980.17
535.69	37307.85
535.89	36992.46
536.09	37117.39
536.30	37670.34
536.50	37283.27
536.70	37531.08
536.91	37721.54
537.11	37791.17
537.31	37817.79
537.51	37934.53
537.72	37846.46
537.92	38127.03
538.12	38632.88
538.32	38088.12
538.53	38403.51
538.73	38284.73
538.93	38223.29
539.13	38864.30
539.34	38632.88
539.54	38260.15
539.74	39093.68
539.94	38546.87
540.15	38792.62
540.35	39251.37
540.55	38880.69
540.75	39306.66
540.96	39290.28
541.16	39265.70
541.36	39476.65
541.56	39394.73
541.77	39886.24
541.97	39626.15
542.17	39806.37
542.37	40058.27
542.58	39949.73
542.78	39466.41
542.98	39736.74
543.18	40023.45
543.38	40320.41
543.59	40254.87
543.79	40086.94
543.99	40031.65
544.19	40586.64
544.40	40680.85
544.60	40785.30
544.80	40566.16
545.00	40572.31
545.20	40609.17
545.41	40469.91
545.61	41008.53
545.81	41176.46
546.01	41031.05
546.21	41029.01
546.42	41016.72
546.62	41596.29
546.82	41248.14
547.02	41516.42
547.22	41532.81
547.43	41334.15
547.63	41313.67
547.83	41706.88
548.03	41155.98
548.23	42173.82
548.44	41547.14
548.64	41971.07
548.84	42065.28
549.04	41915.78
549.24	42456.44
549.45	42372.47
549.65	41821.57
549.85	41739.65
550.05	42452.34
550.25	42618.23
550.45	42929.52
550.66	42896.75
550.86	42263.93
551.06	42706.29
551.26	42634.61
551.46	42780.02
551.66	42521.98
551.87	42689.91
552.07	42720.63
552.27	42782.07
552.47	43115.89
552.67	42769.78
552.87	43169.13
553.07	43142.51
553.28	43406.70
553.48	43330.92
553.68	43189.61
553.88	43701.61
554.08	43390.31
554.28	43408.75
554.48	43367.79
554.69	43236.72
554.89	43582.82
555.09	43548.01
555.29	43492.71
555.49	43779.43
555.69	43599.21
555.89	43625.83
556.10	43623.78
556.30	43726.18
556.50	43742.56
556.70	43691.37
556.90	44361.05
557.10	44635.48
557.30	43838.82
557.50	44328.28
557.70	44485.98
557.91	44344.67
558.11	44471.64
558.31	44299.61
558.51	44143.97
558.71	44490.07
558.91	44817.75
559.11	44645.72
559.31	44352.86
559.51	44221.79
559.72	44711.25
559.92	44864.85
560.12	44606.81
560.32	44741.97
560.52	44557.66
560.72	44543.32
560.92	44936.53
561.12	45147.47
561.32	45073.74
561.52	44887.38
561.72	45358.41
561.93	45174.09
562.13	45131.09
562.33	44610.90
562.53	45481.29
562.73	45071.70
562.93	44879.19
563.13	45667.66
563.33	44983.63
563.53	45958.47
563.73	45315.40
563.93	45151.57
564.13	45622.60
564.33	45593.93
564.53	45473.10
564.74	45423.95
564.94	45372.75
565.14	45661.51
565.34	45522.25
565.54	45860.16
565.74	45987.14
565.94	45499.72
566.14	45536.59
566.34	45444.43
566.54	46204.22
566.74	45987.14
566.94	46087.49
567.14	46167.36
567.34	45872.45
567.54	46189.89
567.74	46472.51
567.94	46013.76
568.14	46466.36
568.34	46318.91
568.54	46353.72
568.74	46415.16
568.94	46296.38
569.14	46966.07
569.34	46607.67
569.54	46413.12
569.75	46314.81
569.95	46146.88
570.15	46925.11
570.35	46607.67
570.55	46769.46
570.75	46312.77
570.95	46994.74
571.15	47211.82
571.35	46970.16
571.55	46777.65
571.75	47047.99
571.95	46921.01
572.15	46947.64
572.35	47414.57
572.55	47400.24
572.75	47041.84
572.95	47185.20
573.15	47342.89
573.35	47328.56
573.55	47017.27
573.75	47037.75
573.95	47777.06
574.15	47310.13
574.35	47740.20
574.55	47590.70
574.75	47168.82
574.95	47703.34
575.15	47469.87
575.34	47668.52
575.54	47738.15
575.74	47965.48
575.94	48117.03
576.14	47717.67
576.34	48620.83
576.54	47918.37
576.74	47691.05
576.94	47830.31
577.14	48340.25
577.34	48448.80
577.54	48026.92
577.74	48272.67
577.94	48600.35
578.14	48395.55
578.34	48530.72
578.54	47887.65
578.74	48370.97
578.94	48864.53
579.14	48674.07
579.34	49022.23
579.54	48739.61
579.74	49233.17
579.94	49089.81
580.13	49159.44
580.33	48921.88
580.53	48964.88
580.73	49255.70
580.93	49446.16
581.13	49257.74
581.33	49450.25
581.53	49554.70
581.73	49245.46
581.93	49472.78
582.13	49726.73
582.33	49880.33
582.53	49691.91
582.73	49990.92
582.92	49653.00
583.12	50023.68
583.32	49755.40
583.52	49855.75
583.72	50312.45
583.92	49825.03
584.12	49880.33
584.32	50629.88
584.52	50255.11
584.72	50011.40
584.92	50222.34
585.11	50975.99
585.31	50717.95
585.51	50541.82
585.71	50666.75
585.91	50967.80
586.11	50644.22
586.31	50382.08
586.51	50599.16
586.71	51019.00
586.91	51307.76
587.10	50867.45
587.30	50752.76
587.50	51107.06
587.70	51350.77
587.90	51279.09
588.10	51033.33
588.30	51164.40
588.50	51375.34
588.69	51131.64
588.89	51143.92
589.09	51715.31
589.29	51451.12
589.49	51885.29
589.69	51025.14
589.89	51680.49
590.08	51703.02
590.28	51365.10
590.48	51770.60
590.68	51965.16
590.88	52034.79
591.08	52266.21
591.28	51836.14
591.47	52311.27
591.67	52143.33
591.87	52204.77
592.07	51713.26
592.27	52321.51
592.47	52026.60
592.67	51848.42
592.86	52098.28
593.06	52645.08
593.26	52098.28
593.46	52706.52
593.66	52319.46
593.86	52798.68
594.05	52552.93
594.25	52667.61
594.45	52356.32
594.65	52274.40
594.85	52446.43
595.05	52544.73
595.24	52507.87
595.44	52839.64
595.64	52503.77
595.84	53130.45
596.04	52876.51
596.23	52937.94
596.43	53292.24
596.63	52978.90
596.83	52991.19
597.03	53640.40
597.22	53695.69
597.42	53091.54
597.62	53654.73
597.82	53689.55
598.02	53656.78
598.21	53634.25
598.41	53527.76
598.61	53798.09
598.81	53820.62
599.01	53841.10
599.20	53642.45
599.40	53646.54
599.60	53949.64
599.80	54336.71
600.00	54138.05
600.19	54076.61
600.39	53847.24
600.59	54322.37
600.79	54621.37
600.98	54006.98
601.18	54523.07
601.38	54451.39
601.58	54736.06
601.78	54621.37
601.97	54031.56
602.17	55059.64
602.37	54611.13
602.57	55030.97
602.76	55100.60
602.96	54715.58
603.16	55127.22
603.36	54699.20
603.55	54969.53
603.75	54723.77
603.95	54987.96
604.15	55289.01
604.34	55008.44
604.54	55465.14
604.74	55325.88
604.94	55383.22
605.13	55106.74
605.33	55835.82
605.53	55172.28
605.73	55776.43
605.92	55686.32
606.12	56026.28
606.32	56018.09
606.52	55000.25
606.71	55870.64
606.91	56226.98
607.11	55653.55
607.30	56081.58
607.50	55717.04
607.70	56161.45
607.90	56286.37
608.09	55913.64
608.29	55649.45
608.49	56028.33
608.68	56171.69
608.88	56552.61
609.08	56274.09
609.28	56542.37
609.47	56288.42
609.67	56591.52
609.87	56562.85
610.06	56614.05
610.26	56546.47
610.46	56861.85
610.66	56476.83
610.85	56829.08
611.05	56687.78
611.25	57009.31
611.44	56720.54
611.64	56446.11
611.84	56777.89
612.03	56747.17
612.23	56507.55
612.43	56644.77
612.62	56800.41
612.82	56818.84
613.02	57253.01
613.21	57234.58
613.41	56585.38
613.61	56630.43
613.80	56263.85
614.00	56954.01
614.20	56894.62
614.39	56925.34
614.59	57062.55
614.79	56630.43
614.98	56847.52
615.18	56988.83
615.38	56915.10
615.57	57199.77
615.77	57144.47
615.97	56894.62
616.16	57066.65
616.36	57275.54
616.56	57042.07
616.75	57001.11
616.95	56810.65
617.15	57013.40
617.34	56994.97
617.54	56958.11
617.74	57144.47
617.93	56964.25
618.13	56853.66
618.32	56900.76
618.52	56523.94
618.72	56698.01
618.91	56923.29
619.11	56652.96
619.31	56845.47
619.50	57132.18
619.70	56626.34
619.90	56913.05
620.09	56779.93
620.29	56915.10
620.48	57160.86
620.68	57506.96
620.88	57035.93
621.07	57054.36
621.27	56997.02
621.46	56884.38
621.66	56421.54
621.86	56818.84
622.05	57001.11
622.25	57590.93
622.44	56939.68
622.64	56579.23
622.84	57300.12
623.03	56612.00
623.23	56646.82
623.42	56941.72
623.62	57328.79
623.82	57685.14
624.01	56855.71
624.21	57326.74
624.40	57357.46
624.60	57193.62
624.80	57238.68
624.99	56734.88
625.19	56767.65
625.38	57138.33
625.58	56992.92
625.77	56896.67
625.97	57001.11
626.17	56829.08
626.36	57119.90
626.56	57029.79
626.75	56824.99
626.95	57273.49
627.14	56636.58
627.34	57451.67
627.54	56759.45
627.73	57269.40
627.93	57042.07
628.12	56878.24
628.32	57263.25
628.51	57232.53
628.71	57291.93
628.90	57072.79
629.10	57263.25
629.30	57289.88
629.49	57410.71
629.69	56923.29
629.88	56644.77
630.08	57468.05
630.27	57359.51
630.47	57001.11
630.66	57394.32
630.86	57619.60
631.05	56714.40
631.25	57177.24
631.44	57212.06
631.64	57101.46
631.84	57461.91
632.03	57767.05
632.23	57078.94
632.42	58037.39
632.62	57218.20
632.81	56857.76
633.01	57238.68
633.20	57167.00
633.40	57023.64
633.59	56816.80
633.79	57150.62
633.98	57541.78
634.18	57875.60
634.37	57332.89
634.57	57054.36
634.76	57449.62
634.96	57257.11
635.15	57398.42
635.35	56992.92
635.54	57349.27
635.74	57728.14
635.93	56929.44
636.13	57631.89
636.32	57482.39
636.52	57339.03
636.71	57267.35
636.91	57414.80
637.10	57476.24
637.30	57226.39
637.49	57734.29
637.69	57283.73
637.88	57760.91
638.08	57617.55
638.27	57578.64
638.46	57605.26
638.66	57521.30
638.85	57511.06
639.05	57934.99
639.24	57765.01
639.44	57738.38
639.63	57556.11
639.83	57746.57
640.02	57736.34
640.22	57670.80
640.41	58094.73
640.61	57228.44
640.80	57586.83
640.99	57701.52
641.19	58004.62
641.38	57599.12
641.58	57572.50
641.77	57570.45
641.97	57332.89
642.16	57228.44
642.36	58078.35
642.55	57971.85
642.74	57441.43
642.94	58240.14
643.13	57693.33
643.33	58104.97
643.52	57869.45
643.72	58248.33
643.91	58096.78
644.10	58246.28
644.30	58260.62
644.49	57871.50
644.69	58635.39
644.88	58320.01
645.08	57808.01
645.27	57889.93
645.46	57832.59
645.66	58252.42
645.85	58250.38
646.05	58250.38
646.24	58109.07
646.43	58121.35
646.63	58803.33
646.82	58559.62
647.02	58659.97
647.21	58686.59
647.40	57945.23
647.60	58764.42
647.79	58311.81
647.99	58580.10
648.18	58168.46
648.37	58651.78
648.57	58522.76
648.76	58920.06
648.96	58619.01
649.15	58762.37
649.34	58750.08
649.54	58514.56
649.73	58457.22
649.92	58705.02
650.12	58799.23
650.31	58127.50
650.51	58436.74
650.70	58422.40
650.89	58430.60
651.09	58897.53
651.28	58600.58
651.47	58897.53
651.67	58905.73
651.86	58858.62
652.06	58233.99
652.25	59053.18
652.44	58918.01
652.64	58508.42
652.83	58639.49
653.02	58569.86
653.22	58664.06
653.41	58971.26
653.60	58913.92
653.80	58576.00
653.99	59059.32
654.18	58897.53
654.38	58774.66
654.57	59012.22
654.76	59104.38
654.96	58870.91
655.15	58707.07
655.34	58813.57
655.54	58702.98
655.73	59217.02
655.92	59131.00
656.12	58971.26
656.31	58590.34
656.50	59098.23
656.70	58918.01
656.89	58655.87
657.08	59102.33
657.28	59032.70
657.47	59018.36
657.66	59257.98
657.86	59114.62
658.05	58930.30
658.24	59249.78
658.43	58909.82
658.63	58963.07
658.82	59192.44
659.01	59559.03
659.21	59069.56
659.40	59382.90
659.59	58975.36
659.79	59233.40
659.98	59210.87
660.17	59589.75
660.36	59210.87
660.56	59079.80
660.75	59520.12
660.94	59335.80
661.14	59057.27
661.33	59219.06
661.52	58913.92
661.71	59053.18
661.91	59032.70
662.10	59098.23
662.29	58950.78
662.49	59290.74
662.68	59446.39
662.87	59190.39
663.06	59221.11
663.26	59430.01
663.45	59231.35
663.64	59098.23
663.83	59292.79
664.03	59120.76
664.22	59298.94
664.41	59217.02
664.60	59135.10
664.80	59044.99
664.99	58850.43
665.18	59233.40
665.37	59065.47
665.57	59245.69
665.76	58608.77
665.95	59190.39
666.14	59311.22
666.34	59053.18
666.53	59229.30
666.72	58940.54
666.91	58889.34
667.11	59286.65
667.30	59491.44
667.49	59241.59
667.68	58979.45
667.87	58576.00
668.07	59376.76
668.26	59143.29
668.45	58977.40
668.64	59010.17
668.84	59483.25
669.03	59325.56
669.22	59284.60
669.41	59161.72
669.60	59497.59
669.80	58580.10
669.99	59196.54
670.18	59157.63
670.37	58940.54
670.57	59397.24
670.76	59071.61
670.95	58909.82
671.14	58803.33
671.33	59163.77
671.53	59290.74
671.72	59225.21
671.91	59253.88
672.10	58809.47
672.29	58905.73
672.48	58750.08
672.68	59069.56
672.87	59085.95
673.06	59169.91
673.25	58963.07
673.44	58694.78
673.64	58799.23
673.83	58729.60
674.02	58905.73
674.21	58924.16
674.40	58971.26
674.59	58989.69
674.79	58950.78
674.98	58954.88
675.17	59135.10
675.36	58709.12
675.55	59155.58
675.74	58715.26
675.94	58815.61
676.13	58911.87
676.32	58930.30
676.51	59569.27
676.70	59145.34
676.89	58817.66
677.08	59356.28
677.28	58649.73
677.47	59432.05
677.66	59507.83
677.85	58635.39
678.04	59274.36
678.23	59466.87
678.42	59024.51
678.62	59006.08
678.81	59008.12
679.00	58662.02
679.19	59249.78
679.38	58854.53
679.57	58893.44
679.76	58815.61
679.96	58903.68
680.15	59069.56
680.34	58762.37
680.53	58680.45
680.72	58918.01
680.91	59362.42
681.10	58434.69
681.29	58799.23
681.48	58782.85
681.68	58811.52
681.87	58772.61
682.06	58823.81
682.25	58440.84
682.44	58643.59
682.63	58930.30
682.82	58195.08
683.01	58320.01
683.20	58258.57
683.39	58438.79
683.59	58215.56
683.78	58045.58
683.97	58182.79
684.16	58651.78
684.35	58203.27
684.54	58426.50
684.73	58209.42
684.92	58088.59
685.11	58113.16
685.30	58029.19
685.49	58315.91
685.69	58088.59
685.88	58348.68
686.07	58119.31
686.26	58033.29
686.45	57967.76
686.64	58217.61
686.83	58315.91
687.02	57851.02
687.21	58123.40
687.40	58078.35
687.59	58061.96
687.78	58279.05
687.97	58182.79
688.16	58250.38
688.35	57640.08
688.54	58254.47
688.74	57930.89
688.93	58057.87
689.12	58184.84
689.31	57713.81
689.50	57910.41
689.69	57570.45
689.88	57441.43
690.07	57656.46
690.26	57775.25
690.45	58307.72
690.64	57732.24
690.83	58000.52
691.02	57490.58
691.21	57392.28
691.40	57660.56
691.59	58064.01
691.78	57654.42
691.97	57957.52
692.16	57707.66
692.35	57750.67
692.54	57824.40
692.73	57584.79
692.92	57689.23
693.11	57683.09
693.30	57195.67
693.49	57777.29
693.68	57752.72
693.87	56960.15
694.06	57416.85
694.25	57384.08
694.44	57283.73
694.63	57431.19
694.82	57298.07
695.01	57150.62
695.20	57455.76
695.39	57037.98
695.58	57048.22
695.77	57087.13
695.96	57025.69
696.15	57070.75
696.34	56669.34
696.53	57379.99
696.72	57216.15
696.91	56761.50
697.10	57107.61
697.29	56095.91
697.48	56980.63
697.67	56630.43
697.86	56413.35
698.05	56718.49
698.24	57033.88
698.43	56495.27
698.62	57074.84
698.81	56245.41
699.00	57083.03
699.19	56263.85
699.38	56245.41
699.57	56116.39
699.76	56614.05
699.95	56456.35
700.14	56181.93
700.32	56308.90
700.51	56265.89
700.70	56495.27
700.89	56681.63
701.08	56743.07
701.27	56325.28
701.46	56816.80
701.65	56044.71
701.84	56419.49
702.03	56093.86
702.22	55774.38
702.41	56104.10
702.60	56341.67
702.79	55868.59
702.98	55895.21
703.17	55858.35
703.35	55588.02
703.54	55964.84
703.73	56138.92
703.92	55626.93
704.11	55981.23
704.30	55545.01
704.49	55610.54
704.68	55676.08
704.87	55565.49
705.06	55661.74
705.25	55555.25
705.43	55538.86
705.62	55864.49
705.81	55788.72
706.00	55344.31
706.19	55235.77
706.38	54983.86
706.57	55653.55
706.76	55303.35
706.95	55866.54
707.14	55155.89
707.32	55170.23
707.51	55039.16
707.70	55837.87
707.89	55278.77
708.08	55280.82
708.27	54951.10
708.46	55608.50
708.65	55076.02
708.84	55350.45
709.02	55370.93
709.21	55133.37
709.40	55407.79
709.59	54617.28
709.78	54680.77
709.97	55147.70
710.16	54848.70
710.34	54768.83
710.53	55106.74
710.72	54746.30
710.91	54662.33
711.10	54723.77
711.29	54695.10
711.48	54906.04
711.66	54822.08
711.85	54400.19
712.04	54555.84
712.23	54633.66
712.42	54283.46
712.61	54471.87
712.80	54594.75
712.98	54981.82
713.17	54355.14
713.36	54299.84
713.55	54146.25
713.74	54219.97
713.93	54600.89
714.11	54283.46
714.30	54174.92
714.49	53703.88
714.68	54473.92
714.87	54084.81
715.06	53990.60
715.24	53949.64
715.43	54156.49
715.62	53646.54
715.81	53699.79
716.00	54262.98
716.18	53322.96
716.37	53632.21
716.56	53089.49
716.75	53902.54
716.94	53187.80
717.12	53609.68
717.31	53544.14
717.50	53386.45
717.69	53550.29
717.88	53642.45
718.06	53581.01
718.25	53888.20
718.44	53150.93
718.63	53150.93
718.82	52514.01
719.00	52925.66
719.19	52856.03
719.38	53361.87
719.57	52393.18
719.76	52761.82
719.94	52434.14
720.13	52163.81
720.32	52675.80
720.51	52722.91
720.69	52366.56
720.88	52434.14
721.07	52188.39
721.26	51873.00
721.44	52284.64
721.63	52358.37
721.82	51754.22
722.01	51598.57
722.20	52442.34
722.38	51950.82
722.57	51698.92
722.76	52032.74
722.95	51952.87
723.13	51596.52
723.32	51502.32
723.51	51619.05
723.70	51266.80
723.88	51436.78
724.07	51244.27
724.26	51782.89
724.44	50951.41
724.63	51498.22
724.82	50984.18
725.01	51336.43
725.19	51518.70
725.38	51047.67
725.57	51404.02
725.76	51176.69
725.94	50636.03
726.13	50771.19
726.32	51023.09
726.51	50625.79
726.69	51361.01
726.88	50889.98
727.07	51338.48
727.25	50259.20
727.44	51072.24
727.63	50640.12
727.82	50830.58
728.00	51051.76
728.19	50652.41
728.38	51311.86
728.56	50435.33
728.75	50457.85
728.94	50564.35
729.12	50763.00
729.31	50640.12
729.50	50853.11
729.69	50394.37
729.87	50814.20
730.06	50676.99
730.25	50414.85
730.43	51307.76
730.62	50453.76
730.81	50633.98
730.99	50797.82
731.18	50859.26
731.37	51148.02
731.55	50760.95
731.74	50861.30
731.93	50742.52
732.11	50859.26
732.30	50787.58
732.49	50234.63
732.67	50607.36
732.86	50388.22
733.05	50771.19
733.23	50087.17
733.42	50373.89
733.61	50332.93
733.79	50226.43
733.98	50679.03
734.17	50199.81
734.35	50652.41
734.54	50234.63
734.73	50750.71
734.91	50210.05
735.10	50490.62
735.29	50375.94
735.47	50001.16
735.66	49755.40
735.84	50081.03
736.03	49653.00
736.22	50681.08
736.40	49827.08
736.59	50185.47
736.78	49880.33
736.96	50050.31
737.15	50003.20
737.33	49974.53
737.52	49870.09
737.71	49878.28
737.89	50201.86
738.08	49478.92
738.27	49642.76
738.45	49941.77
738.64	49978.63
738.82	49921.29
739.01	49995.01
739.20	49601.80
739.38	49714.44
739.57	50113.80
739.75	49558.80
739.94	49714.44
740.13	49534.22
740.31	49313.04
740.50	49419.53
740.68	49229.07
740.87	49583.37
741.06	49577.23
741.24	49685.77
741.43	49382.67
741.61	49990.92
741.80	49263.89
741.99	49001.75
742.17	49212.69
742.36	49216.78
742.54	49444.11
742.73	49317.14
742.91	49521.93
743.10	49157.39
743.29	49653.00
743.47	49253.65
743.66	48925.97
743.84	49673.48
744.03	49112.34
744.21	48637.21
744.40	49380.62
744.59	48485.66
744.77	48733.46
744.96	48717.08
745.14	49255.70
745.33	48827.67
745.51	48764.18
745.70	49032.47
745.88	48805.14
746.07	48831.77
746.26	48342.30
746.44	48248.10
746.63	48497.95
746.81	48432.41
747.00	48258.34
747.18	48545.05
747.37	48391.45
747.55	48356.64
747.74	48485.66
747.92	48002.34
748.11	48321.82
748.29	48223.52
748.48	48045.35
748.66	47953.19
748.85	48096.55
749.03	48305.44
749.22	48231.71
749.41	47975.72
749.59	48203.04
749.78	48166.18
749.96	47459.63
750.15	47846.69
750.33	47967.52
750.52	47936.80
750.70	47883.56
750.89	47693.10
751.07	47582.51
751.26	47850.79
751.44	47732.01
751.63	47674.66
751.81	47361.33
752.00	47418.67
752.18	47840.55
752.37	48002.34
752.55	47625.51
752.74	47437.10
752.92	47078.71
753.10	47211.82
753.29	47686.95
753.47	47060.27
753.66	47064.37
753.84	47353.13
754.03	47246.64
754.21	46992.69
754.40	47312.17
754.58	47062.32
754.77	47127.86
754.95	46501.18
755.14	47252.78
755.32	46990.64
755.51	46282.05
755.69	46341.44
755.88	46642.49
756.06	46779.70
756.24	46734.65
756.43	46738.74
756.61	46882.10
756.80	46861.62
756.98	46177.60
757.17	46155.07
757.35	46810.42
757.54	46087.49
757.72	46427.45
757.90	46269.76
758.09	46140.74
758.27	46456.12
758.46	46024.00
758.64	46198.08
758.83	46093.63
759.01	46546.23
759.19	45958.47
759.38	45755.72
759.56	46443.84
759.75	45725.00
759.93	45972.80
760.12	45581.64
760.30	46026.05
760.48	46052.67
760.67	45694.28
760.85	45815.11
761.04	46064.96
761.22	45561.16
761.40	45536.59
761.59	46034.24
761.77	45493.58
761.96	45475.15
762.14	45526.35
762.32	45382.99
762.51	44997.97
762.69	45182.29
762.88	45188.43
763.06	45509.96
763.24	45430.09
763.43	45299.02
763.61	45063.50
763.80	45159.76
763.98	44963.15
764.16	44895.57
764.35	44717.40
764.53	44643.67
764.72	45014.35
764.90	44506.46
765.08	44795.22
765.27	44881.24
765.45	44766.55
765.63	44209.50
765.82	44705.11
766.00	44299.61
766.18	44076.38
766.37	44539.22
766.55	44191.07
766.74	44322.14
766.92	44418.39
767.10	44391.77
767.29	44316.00
767.47	44090.72
767.65	44221.79
767.84	44090.72
768.02	44537.18
768.20	44016.99
768.39	44184.93
768.57	43777.38
768.75	43849.06
768.94	43750.76
769.12	43971.94
769.30	43482.47
769.49	44045.66
769.67	43763.04
769.85	43173.23
770.04	43654.50
770.22	43042.16
770.40	43408.75
770.59	43289.96
770.77	43603.30
770.95	43392.36
771.14	43193.71
771.32	43038.06
771.50	42878.32
771.69	42964.34
771.87	43347.31
772.05	43087.21
772.24	42794.36
772.42	43011.44
772.60	42911.09
772.78	42796.40
772.97	42775.92
773.15	42935.66
773.33	42823.03
773.52	42636.66
773.70	42626.42
773.88	42972.53
774.07	42411.38
774.25	42454.39
774.43	42870.13
774.61	42575.22
774.80	42554.74
774.98	42773.88
775.16	42906.99
775.34	42706.29
775.53	42732.92
775.71	43359.59
775.89	43013.49
776.08	42730.87
776.26	42669.43
776.44	42714.48
776.62	42673.52
776.81	42714.48
776.99	42571.13
777.17	42399.10
777.35	43107.69
777.54	43263.34
777.72	42745.20
777.90	42671.48
778.08	43025.78
778.27	42810.74
778.45	43210.09
778.63	43152.75
778.81	42790.26
779.00	43353.45
779.18	43378.03
779.36	43203.95
779.54	43179.37
779.73	42759.54
779.91	42980.72
780.09	42917.23
780.27	43787.62
780.46	43621.73
780.64	43343.21
780.82	43339.11
781.00	43201.90
781.19	43289.96
781.37	43650.41
781.55	43484.52
781.73	43812.20
781.91	43109.74
782.10	43541.86
782.28	43257.20
782.46	43298.16
782.64	43611.49
782.82	43357.55
783.01	43511.14
783.19	43597.16
783.37	43517.29
783.55	43386.22
783.74	43595.11
783.92	43109.74
784.10	44062.05
784.28	43908.45
784.46	43500.90
784.64	43623.78
784.83	43476.33
785.01	43736.42
785.19	43664.74
785.37	43722.08
785.55	43474.28
785.74	43060.59
785.92	43615.59
786.10	43775.33
786.28	43672.93
786.46	43070.83
786.64	42978.67
786.83	43375.98
787.01	43212.14
787.19	43216.24
787.37	43308.40
787.55	43015.54
787.74	43095.41
787.92	42714.48
788.10	42755.44
788.28	42988.91
788.46	43216.24
788.64	42362.23
788.82	43054.45
789.01	42866.03
789.19	42491.26
789.37	42548.60
789.55	42501.50
789.73	42501.50
789.91	42128.77
790.09	42411.38
790.28	42446.20
790.46	42225.02
790.64	42388.86
790.82	42255.74
791.00	42341.75
791.18	41794.95
791.36	41901.44
791.55	42155.39
791.73	42081.66
791.91	41950.59
792.09	41690.50
792.27	41762.18
792.45	41659.78
792.63	41239.95
792.81	41817.47
793.00	41436.55
793.18	41301.39
793.36	41053.58
793.54	40918.42
793.72	41031.05
793.90	41080.21
794.08	40592.79
794.26	41151.88
794.44	40535.45
794.62	40504.73
794.81	40654.23
794.99	40471.96
795.17	40582.55
795.35	40230.30
795.53	40263.07
795.71	40512.92
795.89	40273.31
796.07	40074.65
796.25	39779.74
796.43	39984.54
796.61	39423.40
796.80	39456.17
796.98	39732.64
797.16	39554.47
797.34	39548.32
797.52	39400.87
797.70	39421.35
797.88	39159.21
798.06	38792.62
798.24	38825.39
798.42	38919.60
798.60	38757.81
798.78	38475.19
798.96	39048.62
799.14	38372.79
799.32	38530.48
799.51	38376.89
799.69	38630.83
799.87	38532.53
800.05	38294.97
800.23	37813.70
800.41	37877.18
800.59	38120.89
800.77	37885.37
800.95	37377.48
801.13	37412.29
801.31	37459.40
801.49	37574.08
801.67	37795.26
801.85	37602.75
802.03	37148.11
802.21	37246.41
802.39	36994.51
802.57	37227.98
802.75	36818.38
802.93	37178.82
803.11	36955.60
803.29	36595.15
803.47	36554.19
803.65	36875.73
803.83	36705.74
804.01	36558.29
804.19	35974.62
804.37	36345.30
804.55	36173.27
804.73	36015.58
804.91	35829.21
805.09	36042.20
805.27	35829.21
805.45	35880.41
805.63	36146.65
805.81	35667.42
805.99	35907.04
806.17	35704.29
806.35	35667.42
806.53	35298.79
806.71	35595.74
806.89	35362.28
807.07	35452.39
807.25	35272.17
807.43	35046.89
807.61	35397.09
807.79	35245.54
807.97	34739.69
808.15	35188.20
808.33	34868.72
808.51	34545.14
808.69	34698.73
808.87	34420.21
809.05	34477.55
809.23	34244.09
809.41	34270.71
809.59	34354.68
809.77	34821.61
809.95	33965.56
810.13	34207.22
810.31	34074.10
810.49	33859.07
810.67	34221.56
810.84	33994.23
811.02	34067.96
811.20	33773.05
811.38	33988.09
811.56	33558.02
811.74	33570.30
811.92	33369.60
812.10	33381.89
812.28	33420.80
812.46	33140.23
812.64	33332.74
812.82	32822.80
813.00	33043.98
813.18	33412.61
813.36	32712.20
813.53	32687.63
813.71	32822.80
813.89	32755.21
814.07	32738.83
814.25	32542.22
814.43	32327.19
814.61	32208.40
814.79	32251.41
814.97	32513.55
815.15	32816.65
815.33	32396.82
815.50	32220.69
815.68	32241.17
815.86	32407.06
816.04	31669.79
816.22	32175.64
816.40	32552.46
816.58	31899.16
816.76	31854.11
816.94	31815.19
817.11	31825.43
817.29	31942.17
817.47	31571.49
817.65	31307.30
817.83	31442.46
818.01	31438.37
818.19	31430.18
818.37	31370.79
818.54	31104.55
818.72	31073.83
818.90	31151.65
819.08	31282.72
819.26	31172.13
819.44	31002.15
819.62	31329.83
819.80	30871.08
819.97	31032.87
820.15	30897.70
820.33	30694.96
820.51	30832.17
820.69	30520.88
820.87	30840.36
821.05	30914.09
821.22	30647.85
821.40	30717.48
821.58	30912.04
821.76	30037.56
821.94	30506.54
822.12	30311.99
822.29	30559.79
822.47	29898.30
822.65	30443.06
822.83	30127.67
823.01	30180.92
823.19	29937.21
823.36	29759.03
823.54	29976.12
823.72	29865.53
823.90	29816.38
824.08	29425.22
824.25	29640.25
824.43	29531.71
824.61	29509.18
824.79	29474.37
824.97	29595.20
825.15	29838.90
825.32	29443.65
825.50	29064.77
825.68	29310.53
825.86	29578.81
826.04	29578.81
826.21	29138.50
826.39	28927.56
826.57	29210.18
826.75	29034.05
826.93	28929.61
827.10	28882.50
827.28	28882.50
827.46	29009.48
827.64	28978.76
827.81	28876.36
827.99	28851.78
828.17	28784.20
828.35	28722.76
828.53	28847.69
828.70	28409.42
828.88	28393.04
829.06	29025.86
829.24	28700.23
829.41	28294.74
829.59	28442.19
829.77	28454.48
829.95	28339.79
830.12	28227.15
830.30	28534.35
830.48	28261.97
830.66	28472.91
830.84	28302.93
831.01	28139.09
831.19	28204.63
831.37	28284.50
831.55	28073.56
831.72	27770.46
831.90	27790.94
832.08	28028.50
832.25	27854.42
832.43	27825.75
832.61	27762.26
832.79	27844.18
832.96	27825.75
833.14	27827.80
833.32	27883.09
833.50	27835.99
833.67	27627.10
833.85	27792.98
834.03	27647.58
834.20	27809.37
834.38	27702.87
834.56	27256.42
834.74	27334.24
834.91	27428.45
835.09	27510.36
835.27	27053.67
835.44	27430.49
835.62	27237.98
835.80	27082.34
835.98	27080.29
836.15	27027.04
836.33	27215.46
836.51	27360.86
836.68	26934.88
836.86	27108.96
837.04	26832.49
837.21	26848.87
837.39	26920.55
837.57	27096.67
837.75	27008.61
837.92	26498.67
838.10	26510.96
838.28	26285.68
838.45	26885.73
838.63	26709.61
838.81	26506.86
838.98	26429.04
839.16	26261.10
839.34	26349.17
839.51	26383.98
839.69	26054.26
839.87	26257.01
840.04	26447.47
840.22	26222.19
840.40	26340.97
840.57	25820.79
840.75	26257.01
840.93	25865.85
841.10	25917.04
841.28	26320.49
841.46	25945.72
841.63	26048.11
841.81	26087.03
841.98	25988.72
842.16	25802.36
842.34	25886.32
842.51	25714.30
842.69	26201.71
842.87	25810.55
843.04	25763.45
843.22	25646.71
843.40	25550.46
843.57	25947.76
843.75	25798.26
843.92	25634.42
844.10	25349.76
844.28	25552.51
844.45	25439.87
844.63	25355.90
844.81	25316.99
844.98	25554.55
845.16	25325.18
845.33	25155.20
845.51	25566.84
845.69	24972.93
845.86	25312.89
846.04	25034.37
846.21	25292.41
846.39	25261.69
846.57	25339.52
846.74	24950.40
846.92	24901.25
847.09	24972.93
847.27	24274.57
847.45	25132.67
847.62	25052.80
847.80	24684.17
847.97	24573.58
848.15	24598.15
848.32	24600.20
848.50	24688.26
848.68	24596.10
848.85	24505.99
849.03	24307.34
849.20	24581.77
849.38	24526.47
849.56	24645.26
849.73	24485.51
849.91	24870.53
850.08	24764.04
850.26	24194.70
850.43	24338.06
850.61	24276.62
850.78	24118.93
850.96	24544.91
851.14	24057.49
851.31	24336.01
851.49	23889.56
851.66	24131.22
851.84	24057.49
852.01	24151.70
852.19	23928.47
852.36	24274.57
852.54	24143.50
852.71	23664.28
852.89	24016.53
853.07	23738.01
853.24	23668.37
853.42	23973.52
853.59	23699.09
853.77	23439.00
853.94	23621.27
854.12	23907.99
854.29	23264.92
854.47	23404.19
854.64	23475.87
854.82	23649.94
854.99	23862.93
855.17	23309.98
855.34	23334.56
855.52	23623.32
855.69	23582.36
855.87	23377.56
856.04	23387.80
856.22	23338.65
856.39	22818.47
856.57	23357.08
856.74	23246.49
856.92	23467.67
857.09	22894.24
857.27	23246.49
857.44	23402.14
857.62	23006.88
857.79	23043.74
857.97	23160.48
858.14	23090.85
858.32	22965.92
858.49	22791.84
858.67	22965.92
858.84	22615.72
859.02	22967.97
859.19	22845.09
859.37	22642.34
859.54	22642.34
859.72	22783.65
859.89	22863.52
860.06	22582.95
860.24	22671.01
860.41	22902.43
860.59	22341.29
860.76	22509.22
860.94	22437.55
861.11	22580.90
861.29	22628.01
861.46	22427.31
861.64	22292.14
861.81	22355.63
861.98	22273.71
862.16	22093.49
862.33	22085.30
862.51	22032.05
862.68	22013.62
862.86	22372.01
863.03	22146.73
863.21	22052.53
863.38	21943.99
863.55	21950.13
863.73	22120.11
863.90	22036.14
864.08	22007.47
864.25	22195.89
864.43	22056.62
864.60	21774.00
864.77	21808.82
864.95	21794.48
865.12	21368.51
865.30	21845.68
865.47	21671.61
865.64	21544.63
865.82	21671.61
865.99	22036.14
866.17	21583.54
866.34	21534.39
866.51	21360.31
866.69	21554.87
866.86	21518.01
867.04	21335.74
867.21	21358.27
867.38	21407.42
867.56	21044.93
867.73	21372.60
867.91	21118.65
868.08	21135.04
868.25	21135.04
868.43	20817.60
868.60	20995.78
868.78	20938.43
868.95	21239.48
869.12	21223.10
869.30	20754.12
869.47	20885.19
869.64	20590.28
869.82	20999.87
869.99	20737.73
870.16	20915.90
870.34	20653.76
870.51	20704.96
870.69	20651.72
870.86	20655.81
871.03	20403.91
871.21	20543.17
871.38	20434.63
871.55	20448.97
871.73	20338.38
871.90	20473.54
872.07	20252.36
872.25	20043.47
872.42	20131.53
872.59	20227.79
872.77	19984.08
872.94	20293.32
873.11	19963.60
873.29	20238.03
873.46	19986.13
873.63	20049.61
873.81	19982.03
873.98	19693.27
874.15	19863.25
874.33	20045.52
874.50	19711.70
874.67	19750.61
874.85	19965.65
875.02	19810.00
875.19	19570.39
875.37	19554.01
875.54	19465.94
875.71	19535.57
875.88	19173.08
876.06	19484.37
876.23	19289.82
876.40	19207.90
876.58	19197.66
876.75	19175.13
876.92	19367.64
877.10	19121.88
877.27	19275.48
877.44	19168.99
877.61	18976.48
877.79	18906.85
877.96	18874.08
878.13	18968.29
878.31	19015.39
878.48	18734.82
878.65	18695.91
878.82	18466.53
879.00	18788.07
879.17	18726.63
879.34	18693.86
879.51	18792.16
879.69	18353.90
879.86	18274.03
880.03	18323.18
880.21	18370.28
880.38	18476.77
880.55	18458.34
880.72	18294.50
880.90	18259.69
881.07	18437.86
881.24	18466.53
881.41	18401.00
881.59	18323.18
881.76	18153.20
881.93	18183.91
882.10	17970.93
882.28	18104.04
882.45	18206.44
882.62	18032.36
882.79	18136.81
882.96	17633.01
883.14	18061.04
883.31	18063.08
883.48	18048.75
883.65	18099.95
883.83	17829.62
884.00	18028.27
884.17	17778.42
884.34	17962.73
884.51	17993.45
884.69	17860.34
884.86	17860.34
885.03	17772.27
885.20	17700.59
885.38	17774.32
885.55	17596.15
885.72	17549.04
885.89	17397.49
886.06	17569.52
886.24	17712.88
886.41	17497.84
886.58	17585.91
886.75	17628.92
886.92	17350.39
887.10	17563.38
887.27	17250.04
887.44	17696.50
887.61	17534.71
887.78	17493.75
887.95	17477.37
888.13	17520.37
888.30	17104.64
888.47	17125.11
888.64	17340.15
888.81	17061.63
888.99	17028.86
889.16	16957.18
889.33	16979.71
889.50	16967.42
889.67	16740.10
889.84	16940.80
890.01	16858.88
890.19	16756.48
890.36	16889.60
890.53	16580.36
890.70	16703.23
890.87	16609.03
891.04	16658.18
891.22	16766.72
891.39	16660.23
891.56	16510.72
891.73	16750.34
891.90	16283.40
892.07	16471.81
892.24	16606.98
892.42	16510.72
892.59	16424.71
892.76	16373.51
892.93	16402.18
893.10	16752.38
893.27	16543.49
893.44	16148.23
893.61	16049.93
893.79	16391.94
893.96	16457.48
894.13	16092.94
894.30	16439.05
894.47	16371.46
894.64	16377.61
894.81	16406.28
894.98	16234.25
895.15	16324.36
895.33	16305.93
895.50	16072.46
895.67	16334.60
895.84	16398.09
896.01	15972.11
896.18	16193.29
896.35	16482.05
896.52	16283.40
896.69	16037.64
896.86	16232.20
897.04	16230.15
897.21	16074.51
897.38	16125.71
897.55	16209.67
897.72	15970.06
897.89	16078.60
898.06	16168.71
898.23	16060.17
898.40	16236.30
898.57	15996.68
898.74	15988.49
898.91	15996.68
899.08	16232.20
899.26	15918.86
899.43	16195.34
899.60	15775.50
899.77	15918.86
899.94	15877.90
900.11	15830.80
900.28	16037.64
900.45	15922.96
900.62	15929.10
900.79	15945.48
900.96	15834.89
901.13	16109.32
901.30	15970.06
901.47	15871.76
901.64	16105.23
901.81	16011.02
901.98	15789.84
902.15	16340.74
902.32	16178.95
902.49	15875.85
902.66	15886.09
902.83	15931.15
903.01	15855.37
903.18	15984.40
903.35	16039.69
903.52	15836.94
903.69	16281.35
903.86	16078.60
904.03	16037.64
904.20	15996.68
904.37	16387.85
904.54	16000.78
904.71	16015.12
904.88	15937.29
905.05	15908.62
905.22	16113.42
905.39	15861.52
905.56	15765.26
905.73	15755.02
905.90	15845.13
906.07	15978.25
906.24	15863.57
906.41	16006.92
906.58	15802.13
906.75	16103.18
906.92	15709.97
907.09	15916.81
907.26	15695.63
907.43	15642.39
907.60	15654.67
907.77	15836.94
907.93	15914.77
908.10	15724.30
908.27	15789.84
908.44	15445.78
908.61	15871.76
908.78	15771.41
908.95	15855.37
909.12	15673.10
909.29	15562.51
909.46	15660.82
909.63	15820.56
909.80	15750.93
909.97	15691.54
910.14	15699.73
910.31	15705.87
910.48	15720.21
910.65	15824.65
910.82	15435.54
910.99	15535.89
911.16	15546.13
911.33	15437.59
911.50	15427.35
911.66	15361.81
911.83	15490.84
912.00	15363.86
912.17	15079.19
912.34	15359.77
912.51	15509.27
912.68	15378.20
912.85	15105.82
913.02	15370.01
913.19	15101.72
913.36	15163.16
913.53	15177.50
913.70	15118.11
913.86	15439.64
914.03	15146.78
914.20	15163.16
914.37	15406.87
914.54	15159.06
914.71	15038.23
914.88	15048.47
915.05	14995.23
915.22	14972.70
915.39	14925.60
915.55	14911.26
915.72	14847.77
915.89	14788.38
916.06	14593.83
916.23	14708.51
916.40	14456.61
916.57	14671.65
916.74	14665.50
916.91	14391.08
917.07	14583.59
917.24	14481.19
917.41	14497.57
917.58	14495.52
917.75	14378.79
917.92	14194.47
918.09	14348.07
918.26	14372.64
918.42	14489.38
918.59	14493.47
918.76	14126.89
918.93	14044.97
919.10	13924.14
919.27	14126.89
919.44	14192.42
919.60	14331.69
919.77	13911.85
919.94	13764.40
920.11	13956.91
920.28	13950.76
920.45	13655.86
920.61	13723.44
920.78	13762.35
920.95	13702.96
921.12	13709.10
921.29	13420.34
921.46	13479.73
921.62	13375.28
921.79	13573.94
921.96	13332.28
922.13	13229.88
922.30	13143.86
922.47	13111.10
922.63	13086.52
922.80	13090.62
922.97	13254.45
923.14	12865.34
923.31	13078.33
923.47	12826.43
923.64	13023.03
923.81	12816.19
923.98	12859.20
924.15	12744.51
924.32	12779.32
924.48	12584.77
924.65	12623.68
924.82	12508.99
924.99	12599.10
925.15	12410.69
925.32	12476.23
925.49	12169.03
925.66	12367.68
925.83	12195.65
925.99	12353.35
926.16	12095.30
926.33	12308.29
926.50	12064.58
926.67	12132.17
926.83	12181.32
927.00	11984.71
927.17	11890.51
927.34	11939.66
927.50	11945.80
927.67	12146.50
927.84	11700.05
928.01	11749.20
928.17	11648.85
928.34	11747.15
928.51	11552.59
928.68	11474.77
928.84	11579.22
929.01	11253.59
929.18	11396.95
929.35	11208.53
929.51	11190.10
929.68	11059.03
929.85	11151.19
930.02	11206.48
930.18	11108.18
930.35	10985.30
930.52	11073.37
930.69	10932.06
930.85	10983.26
931.02	10850.14
931.19	10798.94
931.36	10637.15
931.52	10686.30
931.69	10561.37
931.86	10729.31
932.02	10495.84
932.19	10370.91
932.36	10473.31
932.53	10438.50
932.69	10327.91
932.86	10254.18
933.03	10489.70
933.19	10178.40
933.36	10366.82
933.53	10135.40
933.70	9889.64
933.86	10004.33
934.03	9989.99
934.20	9922.41
934.36	9932.65
934.53	9697.13
934.70	9613.17
934.86	9555.82
935.03	9521.01
935.20	9480.05
935.36	9322.35
935.53	9334.64
935.70	9322.35
935.86	9058.17
936.03	9226.10
936.20	9015.16
936.36	9041.78
936.53	8859.51
936.70	8816.51
936.86	9029.49
937.03	8939.38
937.20	8552.32
937.36	8689.53
937.53	8353.66
937.70	8300.42
937.86	8218.50
938.03	8241.03
938.20	8277.89
938.36	8095.62
938.53	8052.61
938.70	7796.62
938.86	7845.77
939.03	7606.16
939.20	7622.54
939.36	7509.90
939.53	7509.90
939.70	7675.79
939.86	7223.19
940.03	7233.43
940.19	7067.54
940.36	6991.77
940.53	7059.35
940.69	6827.93
940.86	6922.13
941.03	6786.97
941.19	6705.05
941.36	6625.18
941.52	6580.12
941.69	6426.53
941.86	6547.36
942.02	6389.66
942.19	6391.71
942.35	6328.22
942.52	6215.59
942.69	6219.68
942.85	6121.38
943.02	6127.52
943.18	6039.46
943.35	6074.28
943.52	6115.23
943.68	5885.86
943.85	5808.04
944.01	5795.75
944.18	5844.90
944.35	5758.89
944.51	5709.74
944.68	5590.95
944.84	5812.14
945.01	5623.72
945.17	5672.87
945.34	5767.08
945.51	5676.97
945.67	5666.73
945.84	5523.37
946.00	5445.55
946.17	5611.43
946.33	5431.21
946.50	5478.32
946.67	5429.17
946.83	5599.15
947.00	5525.42
947.16	5388.21
947.33	5400.49
947.49	5554.09
947.66	5513.13
947.82	5365.68
947.99	5513.13
948.16	5607.34
948.32	5330.86
948.49	5648.30
948.65	5445.55
948.82	5556.14
948.98	5531.56
949.15	5373.87
949.31	5627.82
949.48	5435.31
949.64	5539.76
949.81	5574.57
949.97	5373.87
950.14	5568.43
950.30	5476.27
950.47	5668.78
950.63	5449.64
950.80	5371.82
950.96	5470.12
951.13	5455.79
951.30	5537.71
951.46	5482.41
951.63	5595.05
951.79	5689.26
951.96	5681.07
952.12	5662.63
952.29	5619.63
952.45	5629.87
952.62	5613.48
952.78	5521.32
952.94	5506.99
953.11	5603.24
953.27	5447.60
953.44	5711.78
953.60	5519.28
953.77	5658.54
953.93	5662.63
954.10	5617.58
954.26	5705.64
954.43	5576.62
954.59	5654.44
954.76	5648.30
954.92	5660.59
955.09	5758.89
955.25	5593.00
955.42	5660.59
955.58	5783.46
955.75	5631.91
955.91	5652.39
956.07	5719.98
956.24	5773.22
956.40	5773.22
956.57	5730.22
956.73	5666.73
956.90	5681.07
957.06	5715.88
957.23	5629.87
957.39	5771.18
957.56	5726.12
957.72	5562.28
957.88	5580.71
958.05	5805.99
958.21	5793.70
958.38	5638.06
958.54	5558.19
958.71	5681.07
958.87	5623.72
959.03	5545.90
959.20	5701.54
959.36	5607.34
959.53	5656.49
959.69	5689.26
959.85	5810.09
960.02	5654.44
960.18	5633.96
960.35	5636.01
960.51	5732.26
960.68	5521.32
960.84	5623.72
961.00	5629.87
961.17	5490.60
961.33	5703.59
961.50	5668.78
961.66	5666.73
961.82	5588.91
961.99	5724.07
962.15	5676.97
962.31	5457.84
962.48	5664.68
962.64	5656.49
962.81	5664.68
962.97	5691.31
963.13	5728.17
963.30	5619.63
963.46	5586.86
963.62	5482.41
963.79	5623.72
963.95	5404.59
964.12	5656.49
964.28	5631.91
964.44	5568.43
964.61	5447.60
964.77	5539.76
964.93	5566.38
965.10	5662.63
965.26	5496.75
965.42	5506.99
965.59	5441.45
965.75	5377.97
965.92	5636.01
966.08	5492.65
966.24	5523.37
966.41	5568.43
966.57	5437.36
966.73	5500.84
966.90	5504.94
967.06	5435.31
967.22	5386.16
967.39	5431.21
967.55	5390.25
967.71	5423.02
967.88	5367.73
968.04	5357.49
968.20	5380.01
968.37	5287.86
968.53	5220.27
968.69	5408.69
968.85	5459.88
969.02	5382.06
969.18	5433.26
969.34	5341.10
969.51	5246.90
969.67	5302.19
969.83	5181.36
970.00	5408.69
970.16	5455.79
970.32	5314.48
970.48	5253.04
970.65	5175.22
970.81	5091.25
970.97	5269.42
971.14	5124.02
971.30	5263.28
971.46	5164.98
971.63	5154.74
971.79	5191.60
971.95	5228.46
972.11	5097.39
972.28	5210.03
972.44	5205.94
972.60	5158.83
972.76	5132.21
972.93	5150.64
973.09	5023.67
973.25	5128.11
973.42	5005.24
973.58	5144.50
973.74	5117.87
973.90	5158.83
974.07	5070.77
974.23	5160.88
974.39	4925.36
974.55	5023.67
974.72	5087.15
974.88	4911.03
975.04	4999.09
975.20	4939.70
975.37	5025.72
975.53	4868.02
975.69	4943.80
975.85	4882.36
976.01	4980.66
976.18	4968.37
976.34	4870.07
976.50	4992.95
976.66	4931.51
976.83	4913.08
976.99	4861.88
977.15	4784.06
977.31	4804.53
977.47	4929.46
977.64	4777.91
977.80	4759.48
977.96	4784.06
978.12	4741.05
978.29	4786.10
978.45	4802.49
978.61	4665.27
978.77	4886.45
978.93	4767.67
979.10	4687.80
979.26	4747.19
979.42	4667.32
979.58	4587.45
979.74	4597.69
979.91	4726.71
980.07	4685.75
980.23	4577.21
980.39	4556.73
980.55	4448.19
980.71	4505.53
980.88	4497.34
981.04	4454.33
981.20	4640.70
981.36	4505.53
981.52	4536.25
981.68	4460.48
981.85	4511.68
982.01	4485.05
982.17	4480.96
982.33	4503.48
982.49	4452.28
982.65	4364.22
982.82	4327.36
982.98	4392.89
983.14	4282.30
983.30	4378.56
983.46	4542.39
983.62	4425.66
983.79	4384.70
983.95	4308.93
984.11	4308.93
984.27	4298.69
984.43	4403.13
984.59	4247.49
984.75	4335.55
984.91	4313.02
985.08	4302.78
985.24	4184.00
985.40	4319.17
985.56	4331.45
985.72	4353.98
985.88	4339.65
986.04	4173.76
986.20	4136.90
986.37	4247.49
986.53	4003.78
986.69	4325.31
986.85	4081.60
987.01	4210.62
987.17	4222.91
987.33	4155.33
987.49	3903.43
987.65	4296.64
987.82	4161.47
987.98	4001.73
988.14	4046.79
988.30	4167.62
988.46	4081.60
988.62	4085.70
988.78	3985.35
988.94	3995.59
989.10	4097.99
989.26	4106.18
989.42	3909.57
989.59	3882.95
989.75	3932.10
989.91	4130.75
990.07	3815.37
990.23	3868.61
990.39	3977.16
990.55	3999.68
990.71	3770.31
990.87	3940.29
991.03	4024.26
991.19	3819.46
991.35	3893.19
991.51	3792.84
991.67	3981.25
991.83	3876.80
992.00	3917.76
992.16	3844.04
992.32	3934.15
992.48	3901.38
992.64	3796.93
992.80	3751.88
992.96	3745.73
993.12	3934.15
993.28	3780.55
993.44	3706.82
993.60	3827.65
993.76	3885.00
993.92	3698.63
994.08	3731.40
994.24	3731.40
994.40	3717.06
994.56	3764.17
994.72	3643.34
994.88	3721.16
995.04	3772.36
995.20	3706.82
995.36	3471.31
995.52	3639.24
995.68	3708.87
995.84	3577.80
996.00	3694.54
996.16	3534.79
996.32	3448.78
996.48	3493.83
996.64	3620.81
996.80	3624.90
996.96	3600.33
997.12	3573.71
997.28	3452.88
997.44	3467.21
997.60	3528.65
997.76	3436.49
997.92	3530.70
998.08	3405.77
998.24	3420.11
998.40	3497.93
998.56	3520.46
998.72	3420.11
998.88	3350.48
999.04	3528.65
999.20	3428.30
999.36	3389.39
999.52	3483.59
999.68	3330.00
999.84	3338.19
1000.00	3375.05
1000.16	3387.34
1000.32	3276.75
1000.48	3411.92
1000.64	3268.56
1000.80	3309.52
1000.95	3213.26
1001.11	3383.24
1001.27	3299.28
1001.43	3260.37
1001.59	3176.40
1001.75	3182.54
1001.91	3278.80
1002.07	3278.80
1002.23	3219.41
1002.39	3121.10
1002.55	3301.33
1002.71	3129.30
1002.87	3223.50
1003.03	3149.78
1003.19	3155.92
1003.34	3295.18
1003.50	3174.35
1003.66	3145.68
1003.82	3223.50
1003.98	3121.10
1004.14	3172.30
1004.30	3024.85
1004.46	3098.58
1004.62	3049.43
1004.78	3014.61
1004.94	3094.48
1005.09	3190.74
1005.25	3106.77
1005.41	3024.85
1005.57	3160.02
1005.73	3061.71
1005.89	3047.38
1006.05	3067.86
1006.21	3047.38
1006.37	2897.88
1006.52	2936.79
1006.68	2979.79
1006.84	3114.96
1007.00	2940.88
1007.16	3018.71
1007.32	2893.78
1007.48	2893.78
1007.64	2906.07
1007.79	2938.84
1007.95	2826.20
1008.11	3004.37
1008.27	2840.53
1008.43	2996.18
1008.59	2885.59
1008.75	2969.55
1008.91	2916.31
1009.06	2822.10
1009.22	2899.92
1009.38	2854.87
1009.54	2893.78
1009.70	2834.39
1009.86	2947.03
1010.01	2897.88
1010.17	2850.77
1010.33	2834.39
1010.49	2762.71
1010.65	2942.93
1010.81	2752.47
1010.96	2768.85
1011.12	2766.81
1011.28	2807.77
1011.44	2777.05
1011.60	2807.77
1011.76	2719.70
1011.91	2748.37
1012.07	2709.46
1012.23	2633.69
1012.39	2748.37
1012.55	2727.89
1012.71	2668.50
1012.86	2703.32
1013.02	2691.03
1013.18	2639.83
1013.34	2764.76
1013.50	2758.61
1013.65	2715.61
1013.81	2729.94
1013.97	2654.17
1014.13	2625.50
1014.29	2711.51
1014.44	2729.94
1014.60	2682.84
1014.76	2600.92
1014.92	2641.88
1015.07	2652.12
1015.23	2574.30
1015.39	2559.96
1015.55	2654.17
1015.71	2580.44
1015.86	2629.59
1016.02	2547.67
1016.18	2523.10
1016.34	2564.06
1016.49	2592.73
1016.65	2529.24
1016.81	2617.30
1016.97	2570.20
1017.12	2559.96
1017.28	2496.47
1017.44	2418.65
1017.60	2502.62
1017.75	2615.26
1017.91	2547.67
1018.07	2457.56
1018.23	2535.39
1018.38	2490.33
1018.54	2437.08
1018.70	2525.15
1018.86	2412.51
1019.01	2355.16
1019.17	2447.32
1019.33	2523.10
1019.49	2498.52
1019.64	2447.32
1019.80	2400.22
1019.96	2459.61
1020.12	2420.70
1020.27	2445.27
1020.43	2414.56
1020.59	2467.80
1020.74	2373.60
1020.90	2471.90
1021.06	2504.67
1021.22	2355.16
1021.37	2340.83
1021.53	2287.58
1021.69	2463.71
1021.84	2330.59
1022.00	2297.82
1022.16	2308.06
1022.31	2351.07
1022.47	2248.67
1022.63	2312.16
1022.79	2197.47
1022.94	2289.63
1023.10	2435.03
1023.26	2396.12
1023.41	2301.92
1023.57	2201.57
1023.73	2344.92
1023.88	2271.20
1024.04	2252.77
1024.20	2187.23
1024.35	2306.01
1024.51	2412.51
1024.67	2310.11
1024.82	2322.40
1024.98	2142.18
1025.14	2215.90
1025.29	2299.87
1025.45	2353.12
1025.61	2240.48
1025.76	2224.09
1025.92	2324.44
1026.08	2310.11
1026.23	2189.28
1026.39	2252.77
1026.55	2187.23
1026.70	2109.41
1026.86	2232.29
1027.02	2269.15
1027.17	2205.66
1027.33	2193.37
1027.48	2138.08
1027.64	2240.48
1027.80	2162.66
1027.95	2217.95
1028.11	2148.32
1028.27	2207.71
1028.42	2172.89
1028.58	2127.84
1028.73	2056.16
1028.89	1994.72
1029.05	2322.40
1029.20	2174.94
>>>>>End Processed Spectral Data<<<<<
