SpectraSuite Data File
++++++++++++++++++++++++++++++++++++
Date: Fri Jun 02 14:44:37 CEST 2017
User: INFO_000
Dark Spectrum Present: No
Reference Spectrum Present: No
Number of Sampled Component Spectra: 1
Spectrometers: USB4H00879
Integration Time (usec): 80000 (USB4H00879)
Spectra Averaged: 1 (USB4H00879)
Boxcar Smoothing: 0 (USB4H00879)
Correct for Electrical Dark: No (USB4H00879)
Strobe/Lamp Enabled: No (USB4H00879)
Correct for Detector Non-linearity: No (USB4H00879)
Correct for Stray Light: No (USB4H00879)
Number of Pixels in Processed Spectrum: 3648
>>>>>Begin Processed Spectral Data<<<<<
345.13	1306.60
345.34	1306.60
345.56	1306.60
345.78	1322.99
345.99	1351.66
346.21	1691.62
346.42	1662.95
346.64	1597.42
346.86	1839.08
347.07	1660.90
347.29	1626.09
347.50	1617.90
347.72	1642.47
347.94	1738.73
348.15	1597.42
348.37	1591.27
348.59	1726.44
348.80	1699.81
349.02	1785.83
349.23	1812.45
349.45	1802.21
349.67	1943.52
349.88	1845.22
350.10	1959.91
350.31	1861.60
350.53	1855.46
350.75	2009.06
350.96	1791.97
351.18	1853.41
351.39	1845.22
351.61	1808.36
351.82	1853.41
352.04	1871.84
352.26	1834.98
352.47	1888.23
352.69	1918.95
352.90	1724.39
353.12	1875.94
353.34	1914.85
353.55	1978.34
353.77	1869.80
353.98	1867.75
354.20	1882.08
354.41	1918.95
354.63	1890.28
354.85	2000.87
355.06	1929.19
355.28	1822.69
355.49	1837.03
355.71	1906.66
355.92	1910.75
356.14	1875.94
356.35	1869.80
356.57	1816.55
356.79	1923.04
357.00	1937.38
357.22	1923.04
357.43	1896.42
357.65	1947.62
357.86	1810.40
358.08	1871.84
358.29	1951.71
358.51	1964.00
358.72	1841.12
358.94	1955.81
359.16	1906.66
359.37	1959.91
359.59	1949.67
359.80	2013.15
360.02	1949.67
360.23	1945.57
360.45	2017.25
360.66	1927.14
360.88	1806.31
361.09	1871.84
361.31	1964.00
361.52	1943.52
361.74	2088.93
361.95	2093.02
362.17	1916.90
362.38	2070.50
362.60	2041.82
362.81	1914.85
363.03	1968.10
363.24	2025.44
363.46	2125.79
363.67	2050.02
363.89	2043.87
364.10	1953.76
364.32	1978.34
364.53	2058.21
364.75	1882.08
364.96	2043.87
365.18	2023.39
365.39	1980.39
365.61	1927.14
365.82	2068.45
366.04	1978.34
366.25	1972.19
366.47	2021.35
366.68	2007.01
366.90	1912.80
367.11	2168.80
367.33	2090.98
367.54	2109.41
367.76	1918.95
367.97	2131.94
368.19	2029.54
368.40	2084.83
368.62	1959.91
368.83	2013.15
369.05	1998.82
369.26	1957.86
369.48	1998.82
369.69	2043.87
369.91	2070.50
370.12	2093.02
370.33	2187.23
370.55	2011.11
370.76	2039.78
370.98	2093.02
371.19	1990.63
371.41	2050.02
371.62	2023.39
371.84	2074.59
372.05	2215.90
372.27	2007.01
372.48	2045.92
372.69	2166.75
372.91	2125.79
373.12	2224.09
373.34	2052.06
373.55	2193.37
373.77	2158.56
373.98	2082.78
374.20	2125.79
374.41	2172.89
374.62	2127.84
374.84	2105.31
375.05	2164.70
375.27	2105.31
375.48	2168.80
375.70	2117.60
375.91	2176.99
376.12	2326.49
376.34	2156.51
376.55	2150.37
376.77	2226.14
376.98	2105.31
377.19	2133.98
377.41	2189.28
377.62	2273.25
377.84	2263.01
378.05	2387.93
378.27	2236.38
378.48	2306.01
378.69	2418.65
378.91	2314.20
379.12	2252.77
379.34	2166.75
379.55	2230.24
379.76	2312.16
379.98	2213.85
380.19	2256.86
380.41	2193.37
380.62	2281.44
380.83	2246.62
381.05	2185.18
381.26	2363.36
381.47	2285.53
381.69	2244.57
381.90	2410.46
382.12	2346.97
382.33	2293.72
382.54	2265.05
382.76	2326.49
382.97	2314.20
383.19	2205.66
383.40	2346.97
383.61	2328.54
383.83	2314.20
384.04	2322.40
384.25	2336.73
384.47	2426.84
384.68	2299.87
384.89	2328.54
385.11	2336.73
385.32	2316.25
385.54	2306.01
385.75	2287.58
385.96	2371.55
386.18	2428.89
386.39	2402.27
386.60	2373.60
386.82	2377.69
387.03	2408.41
387.24	2492.38
387.46	2484.19
387.67	2506.71
387.88	2502.62
388.10	2465.75
388.31	2492.38
388.52	2510.81
388.74	2527.19
388.95	2469.85
389.16	2568.15
389.38	2492.38
389.59	2598.87
389.80	2641.88
390.02	2478.04
390.23	2568.15
390.44	2549.72
390.66	2551.77
390.87	2531.29
391.08	2660.31
391.30	2809.81
391.51	2623.45
391.72	2672.60
391.94	2621.40
392.15	2668.50
392.36	2609.11
392.58	2596.82
392.79	2623.45
393.00	2680.79
393.22	2688.98
393.43	2756.57
393.64	2805.72
393.85	2781.14
394.07	2695.13
394.28	2795.48
394.49	2705.37
394.71	2684.89
394.92	2844.63
395.13	2693.08
395.35	2777.05
395.56	2736.09
395.77	2813.91
395.98	2842.58
396.20	2770.90
396.41	2822.10
396.62	2887.64
396.84	2822.10
397.05	2887.64
397.26	2914.26
397.47	2938.84
397.69	2756.57
397.90	3067.86
398.11	2883.54
398.32	2854.87
398.54	2881.49
398.75	2875.35
398.96	2881.49
399.18	3100.62
399.39	2969.55
399.60	3051.47
399.81	2959.31
400.03	2959.31
400.24	3325.90
400.45	2992.08
400.66	3002.32
400.88	3104.72
401.09	3246.03
401.30	3014.61
401.51	3172.30
401.73	3016.66
401.94	3172.30
402.15	3092.43
402.36	3170.26
402.58	3239.89
402.79	3164.11
403.00	3243.98
403.21	3215.31
403.43	3213.26
403.64	3231.69
403.85	3096.53
404.06	3461.07
404.27	3096.53
404.49	3268.56
404.70	3094.48
404.91	3346.38
405.12	3223.50
405.34	3284.94
405.55	3397.58
405.76	3186.64
405.97	3270.61
406.19	3426.25
406.40	3223.50
406.61	3350.48
406.82	3448.78
407.03	3315.66
407.25	3213.26
407.46	3389.39
407.67	3338.19
407.88	3547.08
408.09	3366.86
408.31	3311.57
408.52	3497.93
408.73	3280.85
408.94	3364.81
409.15	3549.13
409.37	3575.75
409.58	3442.64
409.79	3583.95
410.00	3637.19
410.21	3430.35
410.43	3487.69
410.64	3444.68
410.85	3602.38
411.06	3598.28
411.27	3629.00
411.48	3540.94
411.70	3583.95
411.91	3553.23
412.12	3762.12
412.33	3706.82
412.54	3563.47
412.76	3704.78
412.97	3614.66
413.18	3551.18
413.39	3583.95
413.60	3651.53
413.81	3639.24
414.03	3536.84
414.24	3663.82
414.45	3758.02
414.66	3622.86
414.87	3745.73
415.08	3815.37
415.30	3753.93
415.51	3764.17
415.72	3698.63
415.93	3715.02
416.14	3850.18
416.35	3805.13
416.56	3825.61
416.78	3862.47
416.99	3882.95
417.20	3954.63
417.41	3856.33
417.62	3878.85
417.83	3981.25
418.04	3938.24
418.26	3905.48
418.47	4054.98
418.68	4052.93
418.89	4155.33
419.10	4192.19
419.31	4069.31
419.52	4169.66
419.73	4046.79
419.95	4128.70
420.16	3973.06
420.37	4014.02
420.58	4048.83
420.79	3940.29
421.00	4104.13
421.21	4132.80
421.42	4050.88
421.63	4130.75
421.85	4040.64
422.06	4120.51
422.27	4222.91
422.48	4282.30
422.69	4229.06
422.90	4276.16
423.11	4235.20
423.32	4237.25
423.53	4333.50
423.75	4167.62
423.96	4470.72
424.17	4335.55
424.38	4585.40
424.59	4566.97
424.80	4579.26
425.01	4351.93
425.22	4388.80
425.43	4466.62
425.64	4665.27
425.85	4597.69
426.06	4476.86
426.28	4530.11
426.49	4493.24
426.70	4612.03
426.91	4652.98
427.12	4640.70
427.33	4710.33
427.54	4583.35
427.75	4796.34
427.96	4954.04
428.17	4626.36
428.38	4749.24
428.59	4837.30
428.80	4730.81
429.01	4882.36
429.23	4872.12
429.44	4933.56
429.65	4906.93
429.86	4980.66
430.07	4810.68
430.28	4896.69
430.49	5048.24
430.70	5066.67
430.91	5078.96
431.12	5062.58
431.33	5179.31
431.54	5228.46
431.75	5179.31
431.96	5160.88
432.17	5246.90
432.38	5050.29
432.59	5474.22
432.80	5341.10
433.01	5300.14
433.22	5334.96
433.43	5394.35
433.64	5300.14
433.85	5429.17
434.06	5357.49
434.27	5384.11
434.49	5425.07
434.70	5433.26
434.91	5511.08
435.12	5490.60
435.33	5461.93
435.54	5523.37
435.75	5437.36
435.96	5412.78
436.17	5429.17
436.38	5687.21
436.59	5758.89
436.80	5554.09
437.01	5851.05
437.22	5709.74
437.43	5728.17
437.64	5695.40
437.85	5765.03
438.06	5762.98
438.27	5785.51
438.48	5853.09
438.69	5814.18
438.90	5896.10
439.11	5701.54
439.32	5945.25
439.53	5808.04
439.74	5908.39
439.95	5971.88
440.16	6010.79
440.37	6021.03
440.57	5832.62
440.78	5955.49
440.99	6045.60
441.20	5984.16
441.41	5953.45
441.62	6111.14
441.83	5969.83
442.04	6160.29
442.25	5998.50
442.46	6217.63
442.67	6195.11
442.88	6647.71
443.09	6123.43
443.30	6197.15
443.51	6272.93
443.72	6393.76
443.93	6072.23
444.14	6373.28
444.35	6238.11
444.56	6369.18
444.77	6297.50
444.98	6371.23
445.19	6434.72
445.40	6346.66
445.61	6352.80
445.81	6512.54
446.02	6590.36
446.23	6420.38
446.44	6360.99
446.65	6612.89
446.86	6639.51
447.07	6709.15
447.28	6793.11
447.49	6668.19
447.70	6500.25
447.91	6760.34
448.12	6682.52
448.33	6793.11
448.54	6872.98
448.74	6762.39
448.95	6922.13
449.16	6729.63
449.37	7161.75
449.58	6817.69
449.79	7022.48
450.00	6795.16
450.21	6864.79
450.42	7110.55
450.63	7012.24
450.84	6836.12
451.05	6989.72
451.25	6944.66
451.46	6936.47
451.67	7081.88
451.88	7335.82
452.09	7176.08
452.30	7124.88
452.51	7083.92
452.72	7223.19
452.93	7544.72
453.13	7239.57
453.34	7079.83
453.55	7380.88
453.76	7409.55
453.97	7624.59
454.18	7378.83
454.39	7579.53
454.60	7522.19
454.81	7393.17
455.01	7661.45
455.22	7323.54
455.43	7538.57
455.64	7757.71
455.85	7905.16
456.06	7901.06
456.27	7679.88
456.48	7688.07
456.68	7905.16
456.89	7931.78
457.10	7942.02
457.31	8028.04
457.52	8003.46
457.73	7923.59
457.94	8189.83
458.14	8093.57
458.35	8333.18
458.56	8349.57
458.77	8091.52
458.98	8210.31
459.19	8232.83
459.39	8529.79
459.60	8511.36
459.81	8380.29
460.02	8578.94
460.23	8529.79
460.44	8707.96
460.65	8705.92
460.85	8720.25
461.06	8845.18
461.27	8585.08
461.48	8681.34
461.69	8998.77
461.89	8630.14
462.10	9006.97
462.31	8714.11
462.52	8900.47
462.73	9037.69
462.94	9277.30
463.14	9232.24
463.35	9219.96
463.56	9518.96
463.77	9572.21
463.98	9217.91
464.18	9355.12
464.39	9607.02
464.60	9607.02
464.81	9774.95
465.02	9537.39
465.23	10006.38
465.43	9568.11
465.64	9959.27
465.85	9869.16
466.06	9678.70
466.27	10215.27
466.47	10137.45
466.68	10145.64
466.89	10096.49
467.10	10467.17
467.30	10164.07
467.51	10301.28
467.72	10559.33
467.93	10403.68
468.14	10514.27
468.34	10663.77
468.55	10602.33
468.76	10698.59
468.97	10551.14
469.17	10960.73
469.38	10948.44
469.59	10993.50
469.80	10940.25
470.01	10911.58
470.21	11110.23
470.42	11063.13
470.63	11312.98
470.84	11261.78
471.04	11489.10
471.25	11525.97
471.46	11421.52
471.67	11775.82
471.87	11532.11
472.08	11890.51
472.29	11964.23
472.50	11568.98
472.70	11730.76
472.91	11915.08
473.12	12201.80
473.33	12097.35
473.53	12347.20
473.74	12189.51
473.95	12640.06
474.16	12371.78
474.36	12445.51
474.57	12726.08
474.78	12975.93
474.99	12640.06
475.19	12558.14
475.40	13209.40
475.61	13053.75
475.81	13063.99
476.02	13401.91
476.23	13113.14
476.44	13260.60
476.64	13508.40
476.85	13512.50
477.06	13510.45
477.27	13856.56
477.47	13918.00
477.68	14022.44
477.89	14094.12
478.09	14090.02
478.30	14135.08
478.51	14130.98
478.71	14483.24
478.92	14311.21
479.13	14296.87
479.34	14536.48
479.54	14636.83
479.75	14794.53
479.96	14679.84
480.16	14956.32
480.37	14905.12
480.58	15206.17
480.78	15345.43
480.99	15236.89
481.20	15605.52
481.41	15413.01
481.61	15771.41
481.82	15703.82
482.03	15671.06
482.23	15691.54
482.44	16002.83
482.65	15935.24
482.85	16107.27
483.06	16267.02
483.27	16123.66
483.47	16271.11
483.68	16248.58
483.89	16221.96
484.09	16533.25
484.30	16508.68
484.51	16760.58
484.71	16920.32
484.92	16883.45
485.13	17110.78
485.33	17129.21
485.54	16948.99
485.75	17284.86
485.95	17295.10
486.16	17460.98
486.37	17549.04
486.57	17542.90
486.78	17585.91
486.98	17712.88
487.19	17975.02
487.40	18065.13
487.60	18122.48
487.81	18376.42
488.02	18198.25
488.22	17968.88
488.43	18489.06
488.64	18382.57
488.84	18581.22
489.05	18681.57
489.25	18552.55
489.46	18976.48
489.67	18947.81
489.87	19171.04
490.08	19240.67
490.29	19087.07
490.49	19482.33
490.70	19521.24
490.90	19775.19
491.11	19379.93
491.32	19650.26
491.52	19668.69
491.73	19793.62
491.94	19762.90
492.14	19627.73
492.35	20102.86
492.55	20180.68
492.76	20502.22
492.97	20444.87
493.17	20569.80
493.38	20514.50
493.58	20895.43
493.79	21001.92
494.00	20741.83
494.20	20797.12
494.41	21147.33
494.61	21257.92
494.82	21290.68
495.02	21290.68
495.23	21556.92
495.44	21415.61
495.64	21579.45
495.85	21667.51
496.05	21923.51
496.26	21614.26
496.47	21925.55
496.67	21755.57
496.88	22163.12
497.08	22177.45
497.29	22173.36
497.49	22283.95
497.70	22443.69
497.91	22423.21
498.11	22615.72
498.32	22830.76
498.52	22570.66
498.73	23064.22
498.93	23000.74
499.14	22865.57
499.34	23238.30
499.55	23178.91
499.76	23266.97
499.96	23346.84
500.17	23314.08
500.37	23377.56
500.58	23396.00
500.78	23649.94
500.99	23574.17
501.19	23879.32
501.40	23701.14
501.60	23760.53
501.81	23887.51
502.02	24213.13
502.22	23817.88
502.43	24561.29
502.63	24295.05
502.84	24663.69
503.04	24442.51
503.25	24501.90
503.45	24643.21
503.66	24747.65
503.86	24901.25
504.07	24856.20
504.27	24929.92
504.48	25370.24
504.68	25030.27
504.89	25247.36
505.09	25286.27
505.30	25400.96
505.50	25482.88
505.71	25517.69
505.91	25470.59
506.12	25677.43
506.32	25587.32
506.53	25812.60
506.73	25861.75
506.94	25931.38
507.14	25804.41
507.35	25634.42
507.55	26095.22
507.76	25966.20
507.96	26211.95
508.17	26539.63
508.37	26320.49
508.58	26496.62
508.78	26635.88
508.99	26619.50
509.19	26682.98
509.40	26375.79
509.60	26639.98
509.81	26738.28
510.01	26775.14
510.22	26717.80
510.42	26836.58
510.63	26869.35
510.83	26799.72
511.04	26781.29
511.24	27371.10
511.44	27256.42
511.65	27219.55
511.85	26961.51
512.06	27405.92
512.26	27371.10
512.47	27303.52
512.67	27700.83
512.88	27434.59
513.08	27270.75
513.29	27614.81
513.49	27379.29
513.69	27678.30
513.90	27954.77
514.10	27641.43
514.31	27856.47
514.51	28153.43
514.72	27616.86
514.92	27835.99
515.13	27872.85
515.33	28096.08
515.53	28077.65
515.74	28149.33
515.94	28286.54
516.15	28358.22
516.35	28104.28
516.56	28337.74
516.76	28257.87
516.96	28503.63
517.17	28462.67
517.37	28653.13
517.58	28470.86
517.78	28497.49
517.99	28571.21
518.19	28581.45
518.39	28747.34
518.60	28751.43
518.80	29132.36
519.01	29185.60
519.21	28972.61
519.41	29222.47
519.62	29361.73
519.82	29169.22
520.03	29027.91
520.23	29339.20
520.43	29075.01
520.64	29482.56
520.84	29775.42
521.05	29460.03
521.25	29402.69
521.45	29728.31
521.66	30058.04
521.86	29668.92
522.07	29691.45
522.27	29750.84
522.47	29998.65
522.68	30273.07
522.88	30099.00
523.08	30232.11
523.29	30185.01
523.49	30066.23
523.70	30651.95
523.90	30817.83
524.10	30305.84
524.31	30807.59
524.51	30338.61
524.71	30776.87
524.92	30572.08
525.12	31041.06
525.33	30815.79
525.53	31188.52
525.73	31526.43
525.94	31147.56
526.14	31131.17
526.34	31346.21
526.55	31411.74
526.75	31270.43
526.95	31632.93
527.16	31495.71
527.36	31766.04
527.56	32060.95
527.77	31647.26
527.97	32153.11
528.17	31925.78
528.38	32030.23
528.58	32058.90
528.78	32280.08
528.99	32149.01
529.19	32642.57
529.39	32445.97
529.60	32513.55
529.80	32634.38
530.00	32757.26
530.21	32982.54
530.41	32978.44
530.61	32900.62
530.82	33254.92
531.02	32976.39
531.22	32853.51
531.43	33234.44
531.63	33551.87
531.83	33723.90
532.04	34049.53
532.24	33142.28
532.44	33951.23
532.64	34084.34
532.85	34135.54
533.05	34039.29
533.25	33791.48
533.46	34192.89
533.66	34403.83
533.86	34186.74
534.07	34760.17
534.27	34600.43
534.47	34674.16
534.67	34893.29
534.88	34758.13
535.08	34692.59
535.28	35143.14
535.49	35032.55
535.69	35599.84
535.89	35304.93
536.09	35423.72
536.30	36074.97
536.50	35845.60
536.70	36189.66
536.91	36242.90
537.11	35890.65
537.31	36224.47
537.51	36197.85
537.72	36658.64
537.92	36593.11
538.12	36832.72
538.32	36261.33
538.53	36845.01
538.73	36511.19
538.93	36498.90
539.13	36814.29
539.34	36937.16
539.54	36957.64
539.74	37543.36
539.94	37076.43
540.15	37297.61
540.35	37793.22
540.55	37578.18
540.75	37291.46
540.96	37596.61
541.16	37754.30
541.36	37819.84
541.56	37989.82
541.77	38280.63
541.97	38090.17
542.17	38450.61
542.37	38327.74
542.58	38520.24
542.78	38507.96
542.98	38530.48
543.18	38755.76
543.38	38925.74
543.59	38872.49
543.79	38626.74
543.99	39161.26
544.19	38802.86
544.40	39097.77
544.60	39368.10
544.80	39251.37
545.00	39228.84
545.20	39493.03
545.41	39048.62
545.61	39116.20
545.81	39728.55
546.01	39982.49
546.21	39806.37
546.42	39921.05
546.62	40066.46
546.82	39992.73
547.02	39794.08
547.22	39978.40
547.43	40314.26
547.63	40498.58
547.83	40420.76
548.03	40111.52
548.23	40527.25
548.44	40371.61
548.64	40541.59
548.84	40775.06
549.04	40521.11
549.24	41098.64
549.45	41115.02
549.65	40811.92
549.85	40756.63
550.05	40996.24
550.25	41094.54
550.45	41811.33
550.66	41293.19
550.86	41379.21
551.06	41710.98
551.26	41756.03
551.46	41645.44
551.66	41485.70
551.87	41391.50
552.07	41909.63
552.27	41661.83
552.47	41966.98
552.67	41936.26
552.87	41635.20
553.07	41887.10
553.28	41821.57
553.48	42466.68
553.68	42421.62
553.88	42855.79
554.08	42075.52
554.28	42351.99
554.48	42319.23
554.69	42648.95
554.89	42497.40
555.09	42218.88
555.29	42761.59
555.49	42583.41
555.69	42724.72
555.89	43296.11
556.10	42978.67
556.30	42435.96
556.50	42909.04
556.70	42825.07
556.90	43074.93
557.10	42847.60
557.30	42540.41
557.50	43371.88
557.70	43257.20
557.91	43242.86
558.11	42876.27
558.31	43093.36
558.51	42997.10
558.71	43316.59
558.91	43386.22
559.11	43013.49
559.31	43167.09
559.51	43013.49
559.72	43390.31
559.92	44010.85
560.12	43566.44
560.32	43388.27
560.52	43478.38
560.72	43900.26
560.92	43666.79
561.12	43558.25
561.32	44053.86
561.52	43548.01
561.72	43965.79
561.93	43748.71
562.13	43959.65
562.33	43795.81
562.53	44467.55
562.73	43500.90
562.93	43537.77
563.13	43812.20
563.33	44307.80
563.53	44336.48
563.73	43910.50
563.93	43881.83
564.13	44127.58
564.33	44473.69
564.53	43990.37
564.74	44588.38
564.94	44133.73
565.14	44092.77
565.34	44189.02
565.54	44166.49
565.74	44086.62
565.94	44442.97
566.14	44430.68
566.34	44174.69
566.54	44586.33
566.74	44002.66
566.94	44502.36
567.14	44410.20
567.34	44209.50
567.54	44561.75
567.74	44182.88
567.94	44168.54
568.14	44795.22
568.34	44504.41
568.54	44528.98
568.74	44764.50
568.94	44488.03
569.14	44756.31
569.34	44731.73
569.54	44895.57
569.75	44404.06
569.95	44696.92
570.15	45065.55
570.35	45247.82
570.55	44520.79
570.75	44715.35
570.95	44780.88
571.15	44856.66
571.35	44746.07
571.55	44895.57
571.75	45061.46
571.95	45151.57
572.15	44889.43
572.35	45167.95
572.55	44920.15
572.75	45016.40
572.95	45520.20
573.15	45616.46
573.35	45241.68
573.55	45602.12
573.75	45249.87
573.95	45389.13
574.15	45356.36
574.35	45612.36
574.55	45512.01
574.75	45202.77
574.95	45458.76
575.15	45512.01
575.34	45765.96
575.54	45620.55
575.74	45794.63
575.94	45606.22
576.14	45788.49
576.34	45880.64
576.54	45993.28
576.74	45712.71
576.94	45835.59
577.14	45831.49
577.34	46372.16
577.54	45786.44
577.74	45884.74
577.94	46189.89
578.14	46368.06
578.34	46597.43
578.54	45503.82
578.74	46046.53
578.94	45970.75
579.14	46490.94
579.34	46249.28
579.54	46306.62
579.74	46998.83
579.94	46773.56
580.13	46818.61
580.33	46366.01
580.53	46949.68
580.73	46533.95
580.93	46873.91
581.13	46900.53
581.33	46992.69
581.53	47226.16
581.73	47031.60
581.93	47166.77
582.13	47086.90
582.33	47236.40
582.53	47465.77
582.73	47404.33
582.92	47494.44
583.12	47582.51
583.32	47412.52
583.52	47111.47
583.72	47734.06
583.92	47422.76
584.12	47306.03
584.32	48135.46
584.52	48057.63
584.72	48053.54
584.92	48389.41
585.11	48307.49
585.31	48016.68
585.51	48223.52
585.71	47793.45
585.91	48686.36
586.11	48567.58
586.31	48362.78
586.51	48481.56
586.71	48362.78
586.91	48600.35
587.10	48528.67
587.30	48665.88
587.50	48213.28
587.70	48813.34
587.90	49026.32
588.10	49048.85
588.30	48807.19
588.50	49534.22
588.69	48966.93
588.89	48655.64
589.09	49102.10
589.29	49009.94
589.49	49710.35
589.69	48938.26
589.89	49564.94
590.08	49659.15
590.28	49294.61
590.48	49388.81
590.68	49034.52
590.88	49550.60
591.08	49822.98
591.28	49278.22
591.47	50418.94
591.67	49982.73
591.87	50115.84
592.07	50175.23
592.27	50185.47
592.47	50189.57
592.67	50156.80
592.86	50349.31
593.06	50134.28
593.26	50562.30
593.46	50478.33
593.66	50451.71
593.86	50582.78
594.05	50490.62
594.25	51078.39
594.45	50945.27
594.65	50709.75
594.85	50353.41
595.05	51225.84
595.24	51164.40
595.44	51090.68
595.64	50910.46
595.84	51303.67
596.04	51205.36
596.23	51254.51
596.43	51512.56
596.63	51100.92
596.83	51281.14
597.03	51303.67
597.22	51852.52
597.42	51809.51
597.62	51479.79
597.82	51795.18
598.02	51807.47
598.21	52604.13
598.41	51856.62
598.61	52081.89
598.81	51934.44
599.01	52163.81
599.20	52098.28
599.40	51860.71
599.60	52684.00
599.80	52692.19
600.00	52585.69
600.19	52356.32
600.39	52255.97
600.59	52952.28
600.79	52548.83
600.98	52444.38
601.18	52995.29
601.38	52747.48
601.58	53179.60
601.78	52835.55
601.97	53372.11
602.17	53552.33
602.37	53165.27
602.57	53302.48
602.76	53773.52
602.96	53034.20
603.16	53501.14
603.36	53636.30
603.55	53986.50
603.75	54021.32
603.95	53540.05
604.15	54121.67
604.34	54047.94
604.54	54523.07
604.74	53912.78
604.94	54428.87
605.13	54113.48
605.33	54461.63
605.53	54095.05
605.73	54230.21
605.92	54394.05
606.12	54760.64
606.32	54265.03
606.52	54244.55
606.71	54285.51
606.91	54170.82
607.11	54508.74
607.30	54664.38
607.50	54785.21
607.70	54768.83
607.90	54547.65
608.09	54801.60
608.29	54744.25
608.49	55178.42
608.68	54840.51
608.88	55336.12
609.08	55065.78
609.28	55235.77
609.47	54744.25
609.67	55022.78
609.87	55178.42
610.06	55352.50
610.26	55428.27
610.46	55276.72
610.66	55383.22
610.85	55538.86
611.05	55123.13
611.25	55207.09
611.44	55452.85
611.64	55350.45
611.84	54965.43
612.03	55534.77
612.23	55045.30
612.43	55430.32
612.62	55510.19
612.82	56341.67
613.02	55096.50
613.21	55391.41
613.41	55350.45
613.61	55669.93
613.80	54959.29
614.00	55571.63
614.20	55383.22
614.39	55258.29
614.59	55555.25
614.79	55557.30
614.98	55260.34
615.18	55514.29
615.38	56120.49
615.57	55182.52
615.77	55510.19
615.97	56040.62
616.16	55418.03
616.36	55329.97
616.56	55559.34
616.75	55123.13
616.95	55264.44
617.15	55203.00
617.34	55551.15
617.54	55219.38
617.74	55899.31
617.93	55635.12
618.13	55194.81
618.32	55755.95
618.52	55647.41
618.72	55348.40
618.91	55055.54
619.11	55205.05
619.31	55133.37
619.50	54936.76
619.70	54916.28
619.90	55123.13
620.09	55237.81
620.29	55182.52
620.48	55022.78
620.68	55680.17
620.88	54949.05
621.07	55323.83
621.27	55157.94
621.46	54672.57
621.66	54811.84
621.86	55436.47
622.05	55168.18
622.25	55792.81
622.44	54955.19
622.64	54826.17
622.84	55098.55
623.03	54641.85
623.23	54834.36
623.42	55047.35
623.62	55098.55
623.82	55239.86
624.01	54750.40
624.21	55084.22
624.40	54711.49
624.60	55139.51
624.80	54686.91
624.99	55127.22
625.19	54684.86
625.38	55137.46
625.58	54676.67
625.77	54580.42
625.97	55006.39
626.17	54543.55
626.36	54197.44
626.56	54731.96
626.75	54518.98
626.95	55043.26
627.14	54478.02
627.34	55178.42
627.54	54473.92
627.73	54785.21
627.93	54883.51
628.12	54340.80
628.32	54756.54
628.51	54691.01
628.71	54461.63
628.90	54789.31
629.10	54486.21
629.30	54633.66
629.49	54842.56
629.69	54709.44
629.88	54473.92
630.08	54783.16
630.27	54584.51
630.47	54631.61
630.66	54363.33
630.86	54916.28
631.05	54795.45
631.25	54826.17
631.44	54535.36
631.64	54586.56
631.84	54953.15
632.03	55399.60
632.23	54559.94
632.42	55094.46
632.62	54891.71
632.81	54242.50
633.01	54518.98
633.20	54947.00
633.40	54734.01
633.59	54465.73
633.79	54316.23
633.98	54654.14
634.18	54627.52
634.37	54574.27
634.57	54568.13
634.76	54705.34
634.96	54826.17
635.15	54494.40
635.35	54666.43
635.54	54527.17
635.74	54346.95
635.93	54312.13
636.13	55080.12
636.32	54332.61
636.52	54377.67
636.71	54453.44
636.91	54652.09
637.10	54549.70
637.30	55313.59
637.49	54336.71
637.69	54408.39
637.88	54725.82
638.08	54404.29
638.27	55289.01
638.46	54670.53
638.66	54994.10
638.85	54879.42
639.05	54381.76
639.24	54750.40
639.44	54764.73
639.63	54445.25
639.83	55112.89
640.02	54822.08
640.22	54729.92
640.41	55039.16
640.61	54629.57
640.80	54838.46
640.99	54740.16
641.19	55112.89
641.38	54875.32
641.58	54760.64
641.77	54674.62
641.97	54432.96
642.16	55071.93
642.36	54877.37
642.55	55127.22
642.74	54965.43
642.94	55280.82
643.13	54858.94
643.33	55542.96
643.52	55338.16
643.72	55041.21
643.91	55260.34
644.10	55362.74
644.30	55594.16
644.49	55682.22
644.69	55860.40
644.88	55624.88
645.08	55055.54
645.27	55178.42
645.46	55409.84
645.66	55559.34
645.85	55203.00
646.05	55665.84
646.24	55141.56
646.43	55450.80
646.63	55801.00
646.82	55661.74
647.02	55606.45
647.21	55755.95
647.40	55295.16
647.60	55669.93
647.79	56253.61
647.99	55719.09
648.18	55682.22
648.37	56122.54
648.57	55936.17
648.76	56272.04
648.96	56116.39
649.15	56116.39
649.34	56331.43
649.54	56120.49
649.73	55596.21
649.92	56165.54
650.12	55794.86
650.31	56206.50
650.51	55876.78
650.70	56431.78
650.89	56157.35
651.09	56620.19
651.28	56257.70
651.47	56798.37
651.67	56321.19
651.86	56769.69
652.06	56093.86
652.25	56482.98
652.44	56202.41
652.64	56319.14
652.83	56171.69
653.02	55837.87
653.22	56247.46
653.41	56304.80
653.60	56030.38
653.80	56482.98
653.99	56530.08
654.18	56573.09
654.38	56493.22
654.57	56894.62
654.76	56399.01
654.96	56806.56
655.15	56536.23
655.34	56276.13
655.54	55954.60
655.73	57013.40
655.92	56622.24
656.12	56804.51
656.31	56878.24
656.50	56810.65
656.70	56691.87
656.89	56882.33
657.08	56888.48
657.28	57019.55
657.47	56857.76
657.66	56984.73
657.86	56677.54
658.05	57007.26
658.24	56794.27
658.43	56812.70
658.63	57326.74
658.82	57255.06
659.01	57078.94
659.21	57058.46
659.40	56931.48
659.59	57345.17
659.79	57887.88
659.98	57210.01
660.17	57472.15
660.36	57095.32
660.56	57402.52
660.75	57308.31
660.94	57373.84
661.14	57611.41
661.33	57369.75
661.52	56741.02
661.71	57779.34
661.91	57197.72
662.10	57031.83
662.29	57531.54
662.49	57048.22
662.68	57427.09
662.87	57425.04
663.06	57549.97
663.26	57425.04
663.45	57894.03
663.64	57556.11
663.83	57779.34
664.03	58021.00
664.22	57828.49
664.41	58295.43
664.60	57558.16
664.80	57590.93
664.99	57914.51
665.18	57685.14
665.37	57861.26
665.57	57552.02
665.76	57199.77
665.95	57758.86
666.14	57379.99
666.34	57531.54
666.53	57562.26
666.72	57873.55
666.91	57994.38
667.11	57474.20
667.30	57760.91
667.49	58094.73
667.68	57611.41
667.87	57863.31
668.07	57992.33
668.26	57717.90
668.45	57992.33
668.64	57463.96
668.84	58459.27
669.03	57955.47
669.22	57767.05
669.41	58088.59
669.60	57875.60
669.80	57582.74
669.99	58205.32
670.18	57820.30
670.37	57910.41
670.57	58565.76
670.76	57523.35
670.95	58373.25
671.14	57848.97
671.33	57865.36
671.53	58166.41
671.72	58145.93
671.91	57963.66
672.10	57775.25
672.29	57498.77
672.48	57547.92
672.68	58070.15
672.87	57619.60
673.06	57603.22
673.25	57611.41
673.44	57701.52
673.64	57556.11
673.83	58229.90
674.02	57943.18
674.21	57308.31
674.40	58356.87
674.59	57846.93
674.79	57367.70
674.98	57306.26
675.17	57996.43
675.36	57867.40
675.55	57879.69
675.74	57736.34
675.94	57955.47
676.13	58021.00
676.32	57916.56
676.51	58127.50
676.70	57889.93
676.89	57992.33
677.08	58016.91
677.28	57910.41
677.47	58195.08
677.66	57873.55
677.85	57455.76
678.04	57959.56
678.23	58082.44
678.42	57818.25
678.62	57595.03
678.81	58002.57
679.00	57777.29
679.19	57990.28
679.38	57635.98
679.57	57351.32
679.76	57787.53
679.96	57930.89
680.15	57365.65
680.34	57433.24
680.53	57834.64
680.72	57646.22
680.91	57629.84
681.10	57486.48
681.29	57545.87
681.48	57349.27
681.68	57793.68
681.87	57275.54
682.06	57511.06
682.25	56439.97
682.44	57406.61
682.63	57570.45
682.82	57185.43
683.01	57169.05
683.20	56480.93
683.39	56857.76
683.59	56984.73
683.78	56868.00
683.97	57080.98
684.16	56818.84
684.35	56908.96
684.54	56939.68
684.73	56980.63
684.92	57160.86
685.11	56997.02
685.30	56550.56
685.49	57119.90
685.69	56530.08
685.88	56923.29
686.07	56558.75
686.26	56691.87
686.45	57029.79
686.64	56722.59
686.83	56452.26
687.02	56601.76
687.21	56865.95
687.40	56462.50
687.59	56630.43
687.78	56691.87
687.97	56931.48
688.16	56257.70
688.35	56435.87
688.54	56286.37
688.74	56368.29
688.93	56167.59
689.12	55938.22
689.31	56235.17
689.50	56165.54
689.69	56181.93
689.88	56186.02
690.07	56329.38
690.26	55876.78
690.45	56229.03
690.64	55495.86
690.83	55835.82
691.02	55649.45
691.21	55518.38
691.40	55774.38
691.59	56063.14
691.78	55704.75
691.97	55680.17
692.16	55585.97
692.35	56034.47
692.54	55981.23
692.73	55571.63
692.92	55671.98
693.11	55702.70
693.30	55434.42
693.49	55354.55
693.68	55481.52
693.87	55456.95
694.06	55172.28
694.25	55073.98
694.44	55057.59
694.63	55272.63
694.82	55217.33
695.01	54504.64
695.20	54985.91
695.39	54656.19
695.58	54932.67
695.77	54361.28
695.96	54570.18
696.15	54807.74
696.34	54850.75
696.53	54705.34
696.72	54625.47
696.91	54539.46
697.10	55057.59
697.29	54027.46
697.48	54893.75
697.67	54265.03
697.86	54064.33
698.05	54420.67
698.24	54568.13
698.43	53818.57
698.62	54047.94
698.81	53839.05
699.00	54455.49
699.19	53961.93
699.38	54217.92
699.57	53826.76
699.76	54607.04
699.95	54076.61
700.14	53560.53
700.32	53953.74
700.51	53755.08
700.70	53923.02
700.89	53869.77
701.08	53564.62
701.27	53781.71
701.46	53933.26
701.65	53275.86
701.84	53736.65
702.03	53368.02
702.22	52985.05
702.41	53226.71
702.60	53195.99
702.79	53494.99
702.98	53384.40
703.17	53542.10
703.35	53331.15
703.54	53128.41
703.73	53355.73
703.92	53286.10
704.11	53079.25
704.30	53355.73
704.49	53148.88
704.68	52933.85
704.87	52739.29
705.06	52735.20
705.25	52962.52
705.43	52677.85
705.62	53101.78
705.81	52839.64
706.00	52825.31
706.19	52460.77
706.38	52692.19
706.57	52987.10
706.76	52847.83
706.95	52737.24
707.14	52331.75
707.32	52276.45
707.51	52196.58
707.70	52411.62
707.89	52237.54
708.08	52276.45
708.27	52991.19
708.46	52417.76
708.65	52325.60
708.84	52444.38
709.02	52540.64
709.21	52407.52
709.40	52006.12
709.59	51942.63
709.78	51856.62
709.97	52038.89
710.16	52002.02
710.34	52188.39
710.53	52393.18
710.72	51862.76
710.91	51969.26
711.10	51700.97
711.29	51942.63
711.48	51854.57
711.66	51649.77
711.85	51729.64
712.04	51563.76
712.23	51647.72
712.42	51639.53
712.61	51956.97
712.80	51426.54
712.98	51690.73
713.17	51354.86
713.36	51356.91
713.55	51551.47
713.74	51240.18
713.93	51674.35
714.11	51121.40
714.30	50830.58
714.49	51264.75
714.68	51541.23
714.87	51213.55
715.06	51662.06
715.24	50783.48
715.43	51287.28
715.62	50871.54
715.81	50918.65
716.00	50967.80
716.18	50550.01
716.37	50697.47
716.56	50873.59
716.75	51086.58
716.94	51111.16
717.12	50584.83
717.31	51014.90
717.50	50965.75
717.69	50238.72
717.88	50527.48
718.06	50621.69
718.25	50937.08
718.44	50261.25
718.63	50246.91
718.82	50287.87
719.00	50457.85
719.19	49837.32
719.38	49964.29
719.57	50148.61
719.76	50121.99
719.94	49861.90
720.13	49784.07
720.32	50181.38
720.51	50076.93
720.69	49667.34
720.88	49837.32
721.07	50175.23
721.26	49677.58
721.44	49829.13
721.63	49079.57
721.82	49214.74
722.01	49282.32
722.20	49919.24
722.38	49714.44
722.57	48831.77
722.76	49476.88
722.95	49331.47
723.13	49181.97
723.32	49362.19
723.51	49120.53
723.70	48940.31
723.88	49040.66
724.07	48850.20
724.26	48631.07
724.44	48450.84
724.63	49247.50
724.82	48594.20
725.01	48592.15
725.19	48977.17
725.38	48737.56
725.57	48672.03
725.76	49175.83
725.94	48373.02
726.13	48135.46
726.32	48844.05
726.51	48358.69
726.69	49202.45
726.88	48809.24
727.07	48448.80
727.25	48364.83
727.44	48706.84
727.63	48203.04
727.82	48762.14
728.00	48600.35
728.19	48659.74
728.38	48733.46
728.56	48170.27
728.75	49315.09
728.94	48715.03
729.12	49116.43
729.31	48649.50
729.50	48526.62
729.69	48968.98
729.87	48530.72
730.06	48467.23
730.25	48964.88
730.43	48577.82
730.62	48305.44
730.81	49116.43
730.99	48846.10
731.18	48418.08
731.37	48747.80
731.55	48944.41
731.74	48567.58
731.93	49120.53
732.11	48778.52
732.30	48428.32
732.49	48022.82
732.67	48450.84
732.86	48487.71
733.05	48581.91
733.23	48608.54
733.42	48706.84
733.61	48518.43
733.79	48303.39
733.98	48594.20
734.17	48903.45
734.35	48723.22
734.54	48538.91
734.73	48389.41
734.91	48317.73
735.10	48514.33
735.29	48766.23
735.47	47985.96
735.66	48639.26
735.84	48000.29
736.03	48157.99
736.22	48678.17
736.40	47873.32
736.59	48561.44
736.78	48280.86
736.96	48352.54
737.15	48409.89
737.33	48168.22
737.52	48084.26
737.71	48364.83
737.89	48215.33
738.08	48139.55
738.27	48166.18
738.45	48317.73
738.64	48381.21
738.82	48321.82
739.01	48229.66
739.20	47936.80
739.38	48260.38
739.57	48571.67
739.75	48289.06
739.94	47879.46
740.13	48043.30
740.31	47600.94
740.50	47873.32
740.68	48332.06
740.87	48321.82
741.06	48545.05
741.24	48080.16
741.43	47777.06
741.61	48207.14
741.80	47629.61
741.99	47439.15
742.17	47600.94
742.36	48045.35
742.54	47676.71
742.73	47832.36
742.91	48112.93
743.10	47945.00
743.29	47951.14
743.47	48178.46
743.66	47568.17
743.84	48088.35
744.03	47807.78
744.21	47684.90
744.40	47832.36
744.59	47248.69
744.77	47408.43
744.96	47619.37
745.14	47734.06
745.33	47535.40
745.51	47490.35
745.70	47404.33
745.88	47291.69
746.07	47473.96
746.26	47375.66
746.44	46771.51
746.63	47000.88
746.81	47586.60
747.00	47222.06
747.18	47336.75
747.37	47701.29
747.55	47209.78
747.74	47635.75
747.92	47097.14
748.11	46986.55
748.29	47123.76
748.48	47252.78
748.66	46796.09
748.85	47250.74
749.03	46773.56
749.22	47134.00
749.41	47029.55
749.59	46980.40
749.78	46771.51
749.96	46730.55
750.15	46914.87
750.33	46548.28
750.52	47037.75
750.70	47150.38
750.89	46691.64
751.07	46609.72
751.26	46566.71
751.44	46306.62
751.63	46818.61
751.81	46462.27
752.00	46660.92
752.18	46888.24
752.37	46667.06
752.55	46474.55
752.74	46511.42
752.92	46527.80
753.10	46009.67
753.29	46206.27
753.47	46660.92
753.66	45681.99
753.84	46802.23
754.03	46220.61
754.21	46157.12
754.40	46509.37
754.58	46228.80
754.77	45946.18
754.95	46179.65
755.14	46173.50
755.32	45759.81
755.51	45677.90
755.69	45950.27
755.88	45925.70
756.06	46325.05
756.24	45802.82
756.43	45747.53
756.61	45663.56
756.80	45516.11
756.98	45430.09
757.17	46046.53
757.35	45612.36
757.54	45473.10
757.72	45741.38
757.90	45417.80
758.09	45630.79
758.27	45172.05
758.46	45055.31
758.64	44963.15
758.83	45579.59
759.01	45299.02
759.19	45178.19
759.38	45213.01
759.56	45303.12
759.75	45176.14
759.93	44619.10
760.12	44799.32
760.30	44965.20
760.48	44922.19
760.67	44840.28
760.85	45288.78
761.04	44907.86
761.22	44803.41
761.40	44686.68
761.59	44696.92
761.77	44819.80
761.96	44733.78
762.14	44574.04
762.32	44778.84
762.51	44385.63
762.69	44258.65
762.88	44856.66
763.06	44311.90
763.24	44428.63
763.43	44649.81
763.61	44203.36
763.80	44285.28
763.98	44078.43
764.16	44266.84
764.35	44221.79
764.53	43312.49
764.72	43754.85
764.90	43781.48
765.08	44154.21
765.27	43703.65
765.45	43505.00
765.63	43513.19
765.82	43687.27
766.00	43507.05
766.18	43658.60
766.37	43711.84
766.55	43447.66
766.74	43603.30
766.92	43097.45
767.10	42952.05
767.29	42943.86
767.47	42843.51
767.65	43390.31
767.84	42933.62
768.02	43183.47
768.20	42874.23
768.39	43054.45
768.57	43072.88
768.75	42792.31
768.94	42745.20
769.12	42962.29
769.30	42507.64
769.49	42448.25
769.67	42300.79
769.85	42349.95
770.04	42595.70
770.22	42018.17
770.40	42612.09
770.59	42302.84
770.77	42345.85
770.95	42169.72
771.14	42007.94
771.32	41674.12
771.50	41719.17
771.69	41639.30
771.87	42524.02
772.05	42057.09
772.24	41422.22
772.42	41661.83
772.60	41907.58
772.78	41469.32
772.97	41725.32
773.15	41643.40
773.33	41710.98
773.52	41424.26
773.70	41420.17
773.88	41450.89
774.07	41221.52
774.25	41485.70
774.43	41301.39
774.61	41299.34
774.80	41538.95
774.98	41465.22
775.16	41491.85
775.34	41233.80
775.53	41489.80
775.71	41426.31
775.89	41371.02
776.08	41045.39
776.26	41684.36
776.44	41497.99
776.62	41323.91
776.81	41155.98
776.99	41526.66
777.17	41444.74
777.35	41504.13
777.54	41670.02
777.72	41098.64
777.90	41342.35
778.08	41747.84
778.27	41233.80
778.45	41510.28
778.63	41584.01
778.81	41260.43
779.00	41846.15
779.18	41592.20
779.36	41885.06
779.54	41641.35
779.73	41905.54
779.91	41926.02
780.09	41786.75
780.27	41756.03
780.46	41762.18
780.64	41975.17
780.82	41796.99
781.00	41704.84
781.19	42012.03
781.37	41993.60
781.55	41936.26
781.73	42259.84
781.91	41756.03
782.10	41770.37
782.28	41612.68
782.46	41942.40
782.64	42139.00
782.82	41653.64
783.01	42251.64
783.19	42308.99
783.37	42141.05
783.55	42130.81
783.74	41850.24
783.92	41618.82
784.10	42243.45
784.28	41866.63
784.46	41487.75
784.64	41688.45
784.83	41700.74
785.01	42306.94
785.19	41485.70
785.37	41592.20
785.55	41860.48
785.74	41811.33
785.92	41573.77
786.10	41733.51
786.28	42003.84
786.46	41368.97
786.64	41352.58
786.83	41115.02
787.01	41500.04
787.19	41411.98
787.37	41411.98
787.55	41379.21
787.74	41067.92
787.92	41162.12
788.10	40856.98
788.28	41018.77
788.46	41008.53
788.64	40881.55
788.82	40988.05
789.01	40932.75
789.19	41059.73
789.37	40377.75
789.55	40584.60
789.73	40383.90
789.91	40119.71
790.09	40361.37
790.28	40215.96
790.46	40127.90
790.64	40295.83
790.82	40287.64
791.00	39931.29
791.18	40234.39
791.36	39775.65
791.55	39966.11
791.73	39783.84
791.91	39679.39
792.09	39620.00
792.27	39665.06
792.45	39996.83
792.63	39417.25
792.81	39615.91
793.00	39382.44
793.18	39515.56
793.36	39120.30
793.54	39050.67
793.72	38835.63
793.90	39095.72
794.08	38938.03
794.26	39007.66
794.44	38325.69
794.62	38661.55
794.81	38727.09
794.99	38178.23
795.17	38501.81
795.35	38176.19
795.53	38442.42
795.71	38493.62
795.89	38057.40
796.07	37844.41
796.25	37619.14
796.43	38075.84
796.61	37529.03
796.80	37533.12
796.98	37793.22
797.16	37549.51
797.34	37410.25
797.52	37502.40
797.70	37440.96
797.88	36984.27
798.06	36943.31
798.24	36675.02
798.42	37144.01
798.60	36763.09
798.78	36459.99
798.96	36804.05
799.14	36412.88
799.32	36572.63
799.51	36251.09
799.69	36515.28
799.87	36822.48
800.05	36040.15
800.23	36218.33
800.41	36154.84
800.59	36177.37
800.77	35878.36
800.95	35167.72
801.13	35720.67
801.31	35337.70
801.49	35468.77
801.67	35384.80
801.85	35216.87
802.03	34921.96
802.21	34979.31
802.39	35132.90
802.57	34895.34
802.75	34737.65
802.93	34762.22
803.11	34860.52
803.29	34708.97
803.47	34547.18
803.65	34645.49
803.83	34495.99
804.01	34440.69
804.19	34176.50
804.37	34074.10
804.55	33961.47
804.73	34100.73
804.91	34272.76
805.09	34108.92
805.27	33887.74
805.45	33912.31
805.63	34010.62
805.81	33773.05
805.99	33783.29
806.17	33963.51
806.35	33682.94
806.53	33371.65
806.71	33697.28
806.89	32968.20
807.07	33299.97
807.25	33295.88
807.43	33185.29
807.61	33451.52
807.79	32857.61
807.97	32902.67
808.15	32747.02
808.33	32632.33
808.51	32603.66
808.69	32876.04
808.87	32732.68
809.05	32503.31
809.23	32347.67
809.41	32249.36
809.59	32402.96
809.77	32460.30
809.95	32232.98
810.13	32370.19
810.31	31632.93
810.49	32036.38
810.67	32251.41
810.84	31923.74
811.02	32142.87
811.20	32120.34
811.38	31696.41
811.56	31708.70
811.74	32011.80
811.92	31456.80
812.10	31241.76
812.28	31538.72
812.46	31198.76
812.64	31409.70
812.82	30834.22
813.00	31446.56
813.18	31387.17
813.36	31206.95
813.53	31192.61
813.71	31016.49
813.89	30959.14
814.07	30815.79
814.25	31254.05
814.43	30946.86
814.61	30746.15
814.79	30586.41
814.97	30907.94
815.15	30725.68
815.33	30324.27
815.50	30291.51
815.68	30760.49
815.86	30627.37
816.04	30565.93
816.22	29941.30
816.40	29863.48
816.58	30391.86
816.76	30283.31
816.94	29910.58
817.11	30330.42
817.29	30412.34
817.47	30207.54
817.65	29843.00
817.83	30064.18
818.01	29580.86
818.19	29922.87
818.37	29791.80
818.54	29208.13
818.72	29486.65
818.90	29410.88
819.08	29603.39
819.26	29695.55
819.44	29681.21
819.62	29521.47
819.80	29572.67
819.97	29578.81
820.15	29447.74
820.33	29156.93
820.51	29206.08
820.69	28835.40
820.87	29414.98
821.05	29242.95
821.22	28898.89
821.40	29054.53
821.58	28995.14
821.76	28974.66
821.94	28558.92
822.12	28845.64
822.29	28689.99
822.47	28655.18
822.65	28771.91
822.83	29017.67
823.01	28687.95
823.19	28440.14
823.36	28792.39
823.54	28515.92
823.72	28436.05
823.90	28360.27
824.08	27823.70
824.25	28235.35
824.43	28030.55
824.61	28208.72
824.79	28079.70
824.97	28194.39
825.15	28292.69
825.32	28216.91
825.50	27854.42
825.68	27833.94
825.86	28198.48
826.04	28110.42
826.21	27889.24
826.39	27706.97
826.57	27997.78
826.75	27479.64
826.93	27731.54
827.10	27872.85
827.28	27520.60
827.46	28169.81
827.64	27661.91
827.81	27551.32
827.99	27913.81
828.17	27377.25
828.35	27420.25
828.53	27438.69
828.70	27590.24
828.88	27399.77
829.06	27500.12
829.24	27510.36
829.41	27348.57
829.59	27453.02
829.77	27319.90
829.95	27375.20
830.12	27174.50
830.30	27362.91
830.48	27029.09
830.66	27084.39
830.84	27215.46
831.01	27100.77
831.19	27102.82
831.37	27002.47
831.55	26957.41
831.72	26736.23
831.90	26748.52
832.08	26885.73
832.25	26875.49
832.43	26986.08
832.61	26859.11
832.79	26437.23
832.96	27203.17
833.14	26740.33
833.32	27018.85
833.50	27045.48
833.67	26562.15
833.85	26846.82
834.03	26236.53
834.20	26383.98
834.38	26576.49
834.56	26615.40
834.74	26541.68
834.91	26682.98
835.09	26705.51
835.27	26056.31
835.44	26431.08
835.62	25880.18
835.80	26179.18
835.98	26429.04
836.15	26058.35
836.33	25974.39
836.51	26340.97
836.68	26076.79
836.86	26048.11
837.04	26019.44
837.21	25878.13
837.39	25978.48
837.57	26084.98
837.75	26050.16
837.92	25646.71
838.10	25790.07
838.28	25607.80
838.45	25925.24
838.63	25460.35
838.81	25800.31
838.98	25624.18
839.16	25382.52
839.34	25642.62
839.51	25597.56
839.69	25183.87
839.87	25550.46
840.04	25304.70
840.22	25671.29
840.40	25601.66
840.57	25638.52
840.75	25155.20
840.93	25060.99
841.10	25222.78
841.28	25636.47
841.46	25478.78
841.63	25435.77
841.81	25357.95
841.98	25439.87
842.16	25222.78
842.34	24931.97
842.51	25020.03
842.69	25296.51
842.87	24905.35
843.04	24983.17
843.22	25005.70
843.40	25204.35
843.57	24915.59
843.75	24970.88
843.92	24848.00
844.10	25003.65
844.28	24852.10
844.45	24985.22
844.63	24632.97
844.81	24596.10
844.98	24712.84
845.16	24438.41
845.33	24694.41
845.51	24624.78
845.69	24411.79
845.86	24444.56
846.04	24045.20
846.21	24678.02
846.39	24333.96
846.57	24733.32
846.74	24456.84
846.92	23959.19
847.09	24481.42
847.27	23873.17
847.45	24297.10
847.62	24385.16
847.80	24241.81
847.97	24096.40
848.15	24075.92
848.32	24045.20
848.50	24082.06
848.68	23944.85
848.85	23971.47
849.03	23848.60
849.20	23887.51
849.38	23985.81
849.56	24280.72
849.73	23867.03
849.91	24213.13
850.08	23899.80
850.26	23809.68
850.43	23793.30
850.61	23867.03
850.78	23531.16
850.96	23658.14
851.14	23479.96
851.31	23934.61
851.49	23608.98
851.66	23854.74
851.84	23723.67
852.01	23654.04
852.19	23860.88
852.36	23955.09
852.54	23242.40
852.71	23580.31
852.89	23293.60
853.07	23252.64
853.24	23482.01
853.42	23228.06
853.59	22951.59
853.77	23322.27
853.94	23520.92
854.12	23377.56
854.29	23156.38
854.47	23375.52
854.64	23029.41
854.82	23236.25
854.99	22961.83
855.17	23070.37
855.34	22777.51
855.52	22910.63
855.69	23203.49
855.87	22830.76
856.04	22625.96
856.22	22789.80
856.39	22965.92
856.57	22587.05
856.74	22873.76
856.92	22980.26
857.09	22797.99
857.27	22640.29
857.44	23078.56
857.62	22478.50
857.79	22511.27
857.97	22562.47
858.14	22628.01
858.32	22517.42
858.49	22826.66
858.67	22656.68
858.84	22501.03
859.02	22714.02
859.19	22165.17
859.37	22193.84
859.54	22113.97
859.72	22630.05
859.89	22750.88
860.06	22601.38
860.24	22281.90
860.41	22394.54
860.59	22058.67
860.76	22267.56
860.94	21941.94
861.11	21964.46
861.29	22081.20
861.46	22046.38
861.64	21853.87
861.81	21964.46
861.98	22087.34
862.16	21640.89
862.33	21499.58
862.51	21573.30
862.68	21882.55
862.86	21585.59
863.03	21853.87
863.21	21620.41
863.38	21700.28
863.55	21575.35
863.73	21710.52
863.90	21731.00
864.08	21733.04
864.25	21663.41
864.43	21534.39
864.60	21472.95
864.77	21567.16
864.95	21231.29
865.12	21151.42
865.30	21597.88
865.47	21282.49
865.64	21110.46
865.82	21163.71
865.99	21307.07
866.17	21098.17
866.34	21300.92
866.51	21227.20
866.69	21235.39
866.86	21087.93
867.04	21106.37
867.21	21157.57
867.38	20942.53
867.56	21094.08
867.73	20893.38
867.91	20795.07
868.08	20946.62
868.25	20815.55
868.43	20459.21
868.60	20682.44
868.78	21067.45
868.95	20930.24
869.12	20903.62
869.30	20381.38
869.47	20573.89
869.64	20627.14
869.82	20295.37
869.99	20262.60
870.16	20641.48
870.34	20350.67
870.51	20375.24
870.69	20424.39
870.86	20238.03
871.03	20321.99
871.21	20133.58
871.38	20369.10
871.55	20197.07
871.73	20057.81
871.90	20000.46
872.07	20119.24
872.25	19756.75
872.42	19758.80
872.59	19533.53
872.77	19941.07
872.94	19554.01
873.11	19515.09
873.29	19646.16
873.46	19537.62
873.63	19771.09
873.81	19771.09
873.98	19502.81
874.15	19637.97
874.33	19259.10
874.50	19295.96
874.67	19308.25
874.85	19392.22
875.02	19304.15
875.19	19109.60
875.37	19138.27
875.54	19123.93
875.71	19381.98
875.88	18968.29
876.06	18996.96
876.23	19013.34
876.40	18984.67
876.58	18855.65
876.75	18820.83
876.92	18677.48
877.10	18876.13
877.27	18857.70
877.44	18712.29
877.61	18536.17
877.79	18599.65
877.96	18562.79
878.13	18478.82
878.31	18663.14
878.48	18675.43
878.65	18599.65
878.82	18206.44
879.00	18568.93
879.17	18349.80
879.34	18384.62
879.51	18327.27
879.69	17927.92
879.86	18134.76
880.03	18085.61
880.21	17665.78
880.38	17983.21
880.55	18091.76
880.72	17860.34
880.90	18206.44
881.07	17958.64
881.24	17860.34
881.41	17899.25
881.59	17725.17
881.76	17800.94
881.93	17510.13
882.10	17430.26
882.28	17346.30
882.45	17700.59
882.62	17819.38
882.79	17663.73
882.96	17301.24
883.14	17667.83
883.31	17633.01
883.48	17516.28
883.65	17508.08
883.83	17628.92
884.00	17503.99
884.17	17516.28
884.34	17442.55
884.51	17346.30
884.69	17221.37
884.86	17243.90
885.03	17340.15
885.20	17039.10
885.38	17397.49
885.55	17291.00
885.72	17178.36
885.89	17235.70
886.06	17237.75
886.24	17110.78
886.41	17272.57
886.58	17209.08
886.75	17266.42
886.92	16867.07
887.10	17284.86
887.27	16731.90
887.44	16957.18
887.61	17231.61
887.78	17059.58
887.95	17004.28
888.13	16680.71
888.30	16774.91
888.47	16789.25
888.64	17026.81
888.81	16748.29
888.99	16563.97
889.16	16559.88
889.33	16477.96
889.50	16387.85
889.67	16502.53
889.84	16357.13
890.01	16527.11
890.19	16508.68
890.36	16492.29
890.53	16482.05
890.70	16385.80
890.87	16408.33
891.04	16234.25
891.22	16330.50
891.39	16213.77
891.56	15986.44
891.73	16037.64
891.90	15986.44
892.07	15886.09
892.24	15861.52
892.42	15888.14
892.59	15853.33
892.76	15767.31
892.93	15951.63
893.10	15857.42
893.27	15990.54
893.44	15732.50
893.61	15695.63
893.79	15867.66
893.96	15773.46
894.13	15671.06
894.30	15718.16
894.47	15527.70
894.64	15798.03
894.81	15646.48
894.98	15707.92
895.15	15806.22
895.33	15888.14
895.50	15562.51
895.67	15718.16
895.84	15607.57
896.01	15703.82
896.18	15634.19
896.35	15767.31
896.52	15523.60
896.69	15589.14
896.86	15812.37
897.04	15537.94
897.21	15560.47
897.38	15396.63
897.55	15566.61
897.72	15396.63
897.89	15660.82
898.06	15542.03
898.23	15427.35
898.40	15312.66
898.57	15451.92
898.74	15587.09
898.91	15560.47
899.08	15580.95
899.26	15660.82
899.43	15501.08
899.60	15539.99
899.77	15370.01
899.94	15191.83
900.11	15124.25
900.28	15353.62
900.45	15408.92
900.62	15374.10
900.79	15527.70
900.96	15343.38
901.13	15345.43
901.30	15152.92
901.47	15228.70
901.64	15615.76
901.81	15267.61
901.98	15181.59
902.15	15163.16
902.32	15216.41
902.49	15294.23
902.66	15318.81
902.83	15286.04
903.01	15058.71
903.18	15183.64
903.35	15415.06
903.52	15064.86
903.69	15056.67
903.86	15273.75
904.03	15281.94
904.20	15419.16
904.37	15349.53
904.54	15183.64
904.71	15214.36
904.88	14882.59
905.05	15027.99
905.22	15470.36
905.39	15298.33
905.56	15136.54
905.73	15236.89
905.90	15116.06
906.07	15179.54
906.24	15370.01
906.41	15036.19
906.58	15277.85
906.75	15453.97
906.92	14878.49
907.09	14952.22
907.26	15044.38
907.43	14989.08
907.60	14939.93
907.77	14894.88
907.93	15163.16
908.10	14982.94
908.27	15257.37
908.44	14929.69
908.61	14892.83
908.78	15011.61
908.95	14997.28
909.12	15017.75
909.29	14804.77
909.46	14917.40
909.63	15157.02
909.80	15077.15
909.97	14921.50
910.14	15052.57
910.31	14698.27
910.48	14833.44
910.65	14874.40
910.82	14751.52
910.99	14679.84
911.16	14761.76
911.33	14829.34
911.50	14651.17
911.66	14368.55
911.83	14724.90
912.00	14513.95
912.17	14434.08
912.34	14538.53
912.51	14751.52
912.68	14434.08
912.85	14429.99
913.02	14559.01
913.19	14436.13
913.36	14532.39
913.53	14454.56
913.70	14341.93
913.86	14544.67
914.03	14151.46
914.20	14567.20
914.37	14411.56
914.54	14104.36
914.71	14173.99
914.88	14225.19
915.05	14018.35
915.22	14120.74
915.39	13989.67
915.55	14051.11
915.72	14110.50
915.89	13946.67
916.06	13965.10
916.23	14001.96
916.40	13895.47
916.57	13782.83
916.74	13778.73
916.91	13739.82
917.07	13807.41
917.24	13598.51
917.41	13786.93
917.58	13582.13
917.75	13696.82
917.92	13666.10
918.09	13483.83
918.26	13745.97
918.42	13479.73
918.59	13567.79
918.76	13479.73
918.93	13268.79
919.10	13338.42
919.27	13242.17
919.44	13262.65
919.60	13367.09
919.77	13150.01
919.94	13014.84
920.11	13080.38
920.28	13193.01
920.45	13004.60
920.61	13139.77
920.78	12769.09
920.95	12855.10
921.12	12656.45
921.29	12621.63
921.46	12691.26
921.62	12713.79
921.79	12750.65
921.96	12650.30
922.13	12377.92
922.30	12689.21
922.47	12556.10
922.63	12195.65
922.80	12519.23
922.97	12119.88
923.14	12156.74
923.31	12351.30
923.47	12117.83
923.64	12371.78
923.81	12177.22
923.98	12111.69
924.15	12056.39
924.32	12048.20
924.48	11882.31
924.65	12169.03
924.82	11851.60
924.99	11734.86
925.15	11947.85
925.32	11841.36
925.49	11614.03
925.66	11614.03
925.83	11398.99
925.99	11663.18
926.16	11638.61
926.33	11460.43
926.50	11364.18
926.67	11437.91
926.83	11257.68
927.00	11370.32
927.17	11163.48
927.34	11138.90
927.50	11198.29
927.67	11292.50
927.84	11231.06
928.01	11091.80
928.17	10973.02
928.34	10919.77
928.51	10958.68
928.68	11067.22
928.84	10610.53
929.01	10780.51
929.18	10784.60
929.35	10776.41
929.51	10508.13
929.68	10551.14
929.85	10559.33
930.02	10518.37
930.18	10604.38
930.35	10598.24
930.52	10375.01
930.69	10440.54
930.85	10383.20
931.02	10368.87
931.19	10274.66
931.36	10215.27
931.52	9983.85
931.69	10190.69
931.86	10004.33
932.02	9934.70
932.19	10059.62
932.36	9906.02
932.53	9934.70
932.69	9731.95
932.86	9858.92
933.03	9828.20
933.19	9701.23
933.36	9701.23
933.53	9723.76
933.70	9635.69
933.86	9557.87
934.03	9510.77
934.20	9348.98
934.36	9482.10
934.53	9291.63
934.70	9113.46
934.86	9256.82
935.03	9015.16
935.20	9203.57
935.36	8820.60
935.53	8949.62
935.70	8830.84
935.86	8748.92
936.03	8664.96
936.20	8548.22
936.36	8521.60
936.53	8521.60
936.70	8306.56
936.86	8474.49
937.03	8214.40
937.20	8030.09
937.36	8292.23
937.53	7894.92
937.70	8064.90
937.86	7815.05
938.03	7864.20
938.20	7810.95
938.36	7677.83
938.53	7618.44
938.70	7399.31
938.86	7516.05
939.03	7231.38
939.20	7047.06
939.36	7184.27
939.53	7106.45
939.70	7354.26
939.86	6913.94
940.03	6934.42
940.19	6713.24
940.36	6721.43
940.53	6705.05
940.69	6674.33
940.86	6592.41
941.03	6391.71
941.19	6377.37
941.36	6449.05
941.52	6268.83
941.69	6262.69
941.86	6148.00
942.02	6166.43
942.19	6172.58
942.35	6119.33
942.52	5949.35
942.69	5957.54
942.85	5795.75
943.02	5894.05
943.18	5801.90
943.35	5679.02
943.52	5740.46
943.68	5519.28
943.85	5672.87
944.01	5564.33
944.18	5597.10
944.35	5627.82
944.51	5615.53
944.68	5474.22
944.84	5463.98
945.01	5365.68
945.17	5582.76
945.34	5490.60
945.51	5521.32
945.67	5472.17
945.84	5343.15
946.00	5310.38
946.17	5339.05
946.33	5248.94
946.50	5312.43
946.67	5386.16
946.83	5181.36
947.00	5404.59
947.16	5269.42
947.33	5302.19
947.49	5273.52
947.66	5220.27
947.82	5367.73
947.99	5250.99
948.16	5289.90
948.32	5275.57
948.49	5220.27
948.65	5322.67
948.82	5246.90
948.98	5169.07
949.15	5250.99
949.31	5353.39
949.48	5205.94
949.64	5257.14
949.81	5390.25
949.97	5162.93
950.14	5324.72
950.30	5242.80
950.47	5334.96
950.63	5312.43
950.80	5207.98
950.96	5273.52
951.13	5373.87
951.30	5396.40
951.46	5296.05
951.63	5431.21
951.79	5410.73
951.96	5320.62
952.12	5195.70
952.29	5314.48
952.45	5353.39
952.62	5238.70
952.78	5390.25
952.94	5529.52
953.11	5273.52
953.27	5287.86
953.44	5447.60
953.60	5386.16
953.77	5373.87
953.93	5363.63
954.10	5355.44
954.26	5537.71
954.43	5310.38
954.59	5490.60
954.76	5609.39
954.92	5377.97
955.09	5416.88
955.25	5386.16
955.42	5480.36
955.58	5570.48
955.75	5472.17
955.91	5445.55
956.07	5513.13
956.24	5521.32
956.40	5498.80
956.57	5550.00
956.73	5560.24
956.90	5504.94
957.06	5328.81
957.23	5517.23
957.39	5494.70
957.56	5552.04
957.72	5337.01
957.88	5420.97
958.05	5529.52
958.21	5558.19
958.38	5459.88
958.54	5457.84
958.71	5693.35
958.87	5515.18
959.03	5504.94
959.20	5527.47
959.36	5570.48
959.53	5377.97
959.69	5435.31
959.85	5525.42
960.02	5394.35
960.18	5490.60
960.35	5416.88
960.51	5560.24
960.68	5384.11
960.84	5396.40
961.00	5445.55
961.17	5420.97
961.33	5345.20
961.50	5517.23
961.66	5341.10
961.82	5480.36
961.99	5466.03
962.15	5523.37
962.31	5316.53
962.48	5472.17
962.64	5406.64
962.81	5625.77
962.97	5363.63
963.13	5451.69
963.30	5412.78
963.46	5406.64
963.62	5316.53
963.79	5396.40
963.95	5287.86
964.12	5263.28
964.28	5400.49
964.44	5410.73
964.61	5294.00
964.77	5443.50
964.93	5513.13
965.10	5345.20
965.26	5230.51
965.42	5445.55
965.59	5275.57
965.75	5314.48
965.92	5339.05
966.08	5349.29
966.24	5320.62
966.41	5181.36
966.57	5312.43
966.73	5423.02
966.90	5414.83
967.06	5199.79
967.22	5318.57
967.39	5193.65
967.55	5332.91
967.71	5271.47
967.88	5263.28
968.04	5216.18
968.20	5173.17
968.37	5277.62
968.53	5181.36
968.69	5197.74
968.85	5328.81
969.02	5214.13
969.18	5185.46
969.34	5087.15
969.51	5177.26
969.67	5160.88
969.83	5087.15
970.00	5210.03
970.16	5220.27
970.32	5150.64
970.48	5300.14
970.65	5109.68
970.81	5160.88
970.97	5093.30
971.14	4997.04
971.30	5228.46
971.46	5042.10
971.63	4992.95
971.79	5124.02
971.95	5142.45
972.11	4911.03
972.28	4921.27
972.44	5195.70
972.60	4896.69
972.76	5025.72
972.93	4908.98
973.09	5066.67
973.25	5076.91
973.42	4876.21
973.58	4896.69
973.74	4931.51
973.90	4984.76
974.07	4913.08
974.23	4747.19
974.39	4919.22
974.55	4886.45
974.72	4708.28
974.88	4839.35
975.04	4927.41
975.20	4857.78
975.37	4976.56
975.53	4855.73
975.69	4890.55
975.85	4919.22
976.01	4722.62
976.18	4745.14
976.34	4739.00
976.50	4769.72
976.66	4745.14
976.83	4800.44
976.99	4732.86
977.15	4749.24
977.31	4599.74
977.47	4837.30
977.64	4644.79
977.80	4677.56
977.96	4714.42
978.12	4640.70
978.29	4544.44
978.45	4743.10
978.61	4700.09
978.77	4730.81
978.93	4620.22
979.10	4661.18
979.26	4638.65
979.42	4552.63
979.58	4396.99
979.74	4595.64
979.91	4540.35
980.07	4493.24
980.23	4521.92
980.39	4495.29
980.55	4583.35
980.71	4423.61
980.88	4308.93
981.04	4388.80
981.20	4405.18
981.36	4532.15
981.52	4499.39
981.68	4485.05
981.85	4437.95
982.01	4446.14
982.17	4433.85
982.33	4401.08
982.49	4554.68
982.65	4259.78
982.82	4372.41
982.98	4435.90
983.14	4427.71
983.30	4394.94
983.46	4458.43
983.62	4378.56
983.79	4298.69
983.95	4196.29
984.11	4122.56
984.27	4243.39
984.43	4255.68
984.59	4288.45
984.75	4263.87
984.91	4073.41
985.08	4302.78
985.24	4253.63
985.40	4145.09
985.56	4097.99
985.72	4089.79
985.88	4276.16
986.04	4186.05
986.20	4128.70
986.37	4112.32
986.53	4091.84
986.69	4171.71
986.85	4057.03
987.01	4241.34
987.17	4212.67
987.33	4038.59
987.49	4081.60
987.65	4067.27
987.82	4073.41
987.98	3954.63
988.14	4001.73
988.30	4057.03
988.46	4087.75
988.62	3944.39
988.78	3911.62
988.94	3983.30
989.10	3909.57
989.26	4022.21
989.42	3882.95
989.59	3907.52
989.75	3942.34
989.91	3876.80
990.07	3772.36
990.23	3803.08
990.39	3811.27
990.55	4009.92
990.71	3782.60
990.87	3841.99
991.03	3907.52
991.19	3792.84
991.35	3813.32
991.51	3827.65
991.67	3987.40
991.83	3764.17
992.00	3782.60
992.16	3903.43
992.32	3805.13
992.48	3764.17
992.64	3723.21
992.80	3663.82
992.96	3702.73
993.12	3682.25
993.28	3825.61
993.44	3731.40
993.60	3774.41
993.76	3725.26
993.92	3573.71
994.08	3706.82
994.24	3710.92
994.40	3606.47
994.56	3731.40
994.72	3534.79
994.88	3626.95
995.04	3596.23
995.20	3608.52
995.36	3565.51
995.52	3590.09
995.68	3522.51
995.84	3547.08
996.00	3692.49
996.16	3581.90
996.32	3448.78
996.48	3518.41
996.64	3600.33
996.80	3438.54
996.96	3579.85
997.12	3616.71
997.28	3418.06
997.44	3444.68
997.60	3469.26
997.76	3428.30
997.92	3514.31
998.08	3485.64
998.24	3456.97
998.40	3551.18
998.56	3452.88
998.72	3327.95
998.88	3348.43
999.04	3264.46
999.20	3377.10
999.36	3325.90
999.52	3475.40
999.68	3413.96
999.84	3418.06
1000.00	3309.52
1000.16	3330.00
1000.32	3293.13
1000.48	3352.52
1000.64	3358.67
1000.80	3280.85
1000.95	3231.69
1001.11	3248.08
1001.27	3168.21
1001.43	3213.26
1001.59	3293.13
1001.75	3198.93
1001.91	3170.26
1002.07	3256.27
1002.23	3127.25
1002.39	3248.08
1002.55	3178.45
1002.71	3108.82
1002.87	3182.54
1003.03	3100.62
1003.19	3162.06
1003.34	3268.56
1003.50	3028.95
1003.66	3262.41
1003.82	3127.25
1003.98	3149.78
1004.14	3129.30
1004.30	3094.48
1004.46	3123.15
1004.62	3004.37
1004.78	3051.47
1004.94	3024.85
1005.09	3065.81
1005.25	3076.05
1005.41	3121.10
1005.57	2967.51
1005.73	3110.86
1005.89	2967.51
1006.05	3053.52
1006.21	3028.95
1006.37	2969.55
1006.52	3002.32
1006.68	2869.20
1006.84	3096.53
1007.00	2951.12
1007.16	2938.84
1007.32	2930.64
1007.48	2932.69
1007.64	2908.12
1007.79	2920.40
1007.95	2885.59
1008.11	3004.37
1008.27	2852.82
1008.43	2858.96
1008.59	2867.16
1008.75	2996.18
1008.91	2918.36
1009.06	2912.21
1009.22	2897.88
1009.38	2879.44
1009.54	2912.21
1009.70	2770.90
1009.86	2861.01
1010.01	2895.83
1010.17	2738.13
1010.33	2770.90
1010.49	2873.30
1010.65	2871.25
1010.81	2725.85
1010.96	2877.40
1011.12	2822.10
1011.28	2752.47
1011.44	2809.81
1011.60	2756.57
1011.76	2695.13
1011.91	2793.43
1012.07	2623.45
1012.23	2629.59
1012.39	2682.84
1012.55	2688.98
1012.71	2668.50
1012.86	2650.07
1013.02	2596.82
1013.18	2660.31
1013.34	2674.65
1013.50	2721.75
1013.65	2680.79
1013.81	2715.61
1013.97	2682.84
1014.13	2654.17
1014.29	2598.87
1014.44	2746.33
1014.60	2557.91
1014.76	2633.69
1014.92	2553.82
1015.07	2594.78
1015.23	2578.39
1015.39	2535.39
1015.55	2510.81
1015.71	2547.67
1015.86	2582.49
1016.02	2535.39
1016.18	2453.47
1016.34	2510.81
1016.49	2578.39
1016.65	2543.58
1016.81	2457.56
1016.97	2596.82
1017.12	2598.87
1017.28	2461.66
1017.44	2480.09
1017.60	2555.86
1017.75	2465.75
1017.91	2465.75
1018.07	2564.06
1018.23	2504.67
1018.38	2480.09
1018.54	2473.95
1018.70	2416.60
1018.86	2482.14
1019.01	2361.31
1019.17	2480.09
1019.33	2451.42
1019.49	2406.36
1019.64	2412.51
1019.80	2512.86
1019.96	2420.70
1020.12	2441.18
1020.27	2342.88
1020.43	2355.16
1020.59	2475.99
1020.74	2510.81
1020.90	2439.13
1021.06	2346.97
1021.22	2308.06
1021.37	2365.40
1021.53	2355.16
1021.69	2412.51
1021.84	2277.34
1022.00	2365.40
1022.16	2271.20
1022.31	2346.97
1022.47	2289.63
1022.63	2385.88
1022.79	2197.47
1022.94	2281.44
1023.10	2342.88
1023.26	2232.29
1023.41	2293.72
1023.57	2318.30
1023.73	2222.05
1023.88	2285.53
1024.04	2183.13
1024.20	2328.54
1024.35	2320.35
1024.51	2275.29
1024.67	2174.94
1024.82	2213.85
1024.98	2201.57
1025.14	2306.01
1025.29	2207.71
1025.45	2279.39
1025.61	2148.32
1025.76	2207.71
1025.92	2195.42
1026.08	2246.62
1026.23	2232.29
1026.39	2236.38
1026.55	2158.56
1026.70	2263.01
1026.86	2066.40
1027.02	2209.76
1027.17	2211.81
1027.33	2211.81
1027.48	2197.47
1027.64	2197.47
1027.80	2203.61
1027.95	2256.86
1028.11	2037.73
1028.27	2183.13
1028.42	2142.18
1028.58	2095.07
1028.73	2105.31
1028.89	2095.07
1029.05	2252.77
1029.20	2197.47
>>>>>End Processed Spectral Data<<<<<
