SpectraSuite Data File
++++++++++++++++++++++++++++++++++++
Date: Fri Jun 02 14:44:32 CEST 2017
User: INFO_000
Dark Spectrum Present: No
Reference Spectrum Present: No
Number of Sampled Component Spectra: 1
Spectrometers: USB4H00879
Integration Time (usec): 80000 (USB4H00879)
Spectra Averaged: 1 (USB4H00879)
Boxcar Smoothing: 0 (USB4H00879)
Correct for Electrical Dark: No (USB4H00879)
Strobe/Lamp Enabled: No (USB4H00879)
Correct for Detector Non-linearity: No (USB4H00879)
Correct for Stray Light: No (USB4H00879)
Number of Pixels in Processed Spectrum: 3648
>>>>>Begin Processed Spectral Data<<<<<
345.13	1277.93
345.34	1277.93
345.56	1277.93
345.78	1249.26
345.99	1261.55
346.21	1736.68
346.42	1699.81
346.64	1617.90
346.86	1794.02
347.07	1765.35
347.29	1742.82
347.50	1593.32
347.72	1775.59
347.94	1757.16
348.15	1574.89
348.37	1632.23
348.59	1724.39
348.80	1611.75
349.02	1722.34
349.23	1730.53
349.45	1734.63
349.67	1808.36
349.88	1609.70
350.10	1939.43
350.31	1787.88
350.53	1732.58
350.75	1822.69
350.96	1593.32
351.18	1832.93
351.39	1744.87
351.61	1658.85
351.82	1804.26
352.04	1765.35
352.26	1761.25
352.47	1814.50
352.69	1806.31
352.90	1697.77
353.12	1691.62
353.34	1789.92
353.55	1839.08
353.77	1771.49
353.98	1773.54
354.20	1740.77
354.41	1791.97
354.63	1822.69
354.85	1943.52
355.06	1777.64
355.28	1628.14
355.49	1834.98
355.71	1826.79
355.92	1714.15
356.14	1880.04
356.35	1757.16
356.57	1781.73
356.79	1863.65
357.00	1687.53
357.22	1802.21
357.43	1748.97
357.65	1853.41
357.86	1746.92
358.08	1847.27
358.29	1839.08
358.51	1828.84
358.72	1855.46
358.94	1804.26
359.16	1839.08
359.37	1798.12
359.59	1853.41
359.80	1873.89
360.02	1906.66
360.23	1851.36
360.45	1955.81
360.66	1832.93
360.88	1650.66
361.09	1746.92
361.31	1851.36
361.52	1822.69
361.74	1982.43
361.95	2004.96
362.17	1781.73
362.38	1923.04
362.60	1894.37
362.81	1830.88
363.03	1869.80
363.24	1900.52
363.46	1882.08
363.67	1888.23
363.89	1800.16
364.10	1939.43
364.32	1806.31
364.53	1912.80
364.75	1796.07
364.96	1880.04
365.18	1939.43
365.39	1916.90
365.61	1855.46
365.82	2000.87
366.04	1877.99
366.25	1740.77
366.47	1828.84
366.68	1863.65
366.90	1800.16
367.11	1929.19
367.33	1906.66
367.54	2007.01
367.76	1968.10
367.97	2033.63
368.19	1822.69
368.40	1972.19
368.62	1863.65
368.83	1800.16
369.05	1882.08
369.26	1812.45
369.48	1906.66
369.69	1857.51
369.91	1923.04
370.12	1859.56
370.33	2002.91
370.55	1820.64
370.76	1873.89
370.98	2000.87
371.19	1916.90
371.41	1855.46
371.62	1951.71
371.84	1953.76
372.05	1992.67
372.27	1890.28
372.48	1972.19
372.69	1937.38
372.91	2052.06
373.12	1990.63
373.34	1834.98
373.55	2009.06
373.77	1951.71
373.98	2009.06
374.20	2047.97
374.41	2162.66
374.62	2025.44
374.84	2078.69
375.05	2043.87
375.27	2043.87
375.48	2080.74
375.70	2109.41
375.91	2099.17
376.12	2179.04
376.34	1982.43
376.55	1990.63
376.77	2011.11
376.98	2000.87
377.19	1957.86
377.41	2019.30
377.62	2136.03
377.84	2185.18
378.05	2226.14
378.27	2060.26
378.48	2123.74
378.69	2316.25
378.91	2338.78
379.12	2146.27
379.34	2101.22
379.55	2158.56
379.76	2183.13
379.98	2146.27
380.19	2154.46
380.41	2172.89
380.62	2183.13
380.83	2142.18
381.05	2023.39
381.26	2287.58
381.47	2115.55
381.69	2287.58
381.90	2263.01
382.12	2099.17
382.33	2185.18
382.54	2201.57
382.76	2273.25
382.97	2168.80
383.19	2109.41
383.40	2273.25
383.61	2263.01
383.83	2242.53
384.04	2228.19
384.25	2373.60
384.47	2258.91
384.68	2263.01
384.89	2189.28
385.11	2273.25
385.32	2379.74
385.54	2242.53
385.75	2338.78
385.96	2387.93
386.18	2295.77
386.39	2295.77
386.60	2275.29
386.82	2338.78
387.03	2410.46
387.24	2420.70
387.46	2392.03
387.67	2463.71
387.88	2500.57
388.10	2344.92
388.31	2416.60
388.52	2578.39
388.74	2443.23
388.95	2539.48
389.16	2404.32
389.38	2414.56
389.59	2566.10
389.80	2576.34
390.02	2441.18
390.23	2645.98
390.44	2453.47
390.66	2553.82
390.87	2363.36
391.08	2519.00
391.30	2678.74
391.51	2576.34
391.72	2582.49
391.94	2697.17
392.15	2721.75
392.36	2545.63
392.58	2508.76
392.79	2588.63
393.00	2607.06
393.22	2748.37
393.43	2707.41
393.64	2738.13
393.85	2781.14
394.07	2699.22
394.28	2668.50
394.49	2777.05
394.71	2697.17
394.92	2828.24
395.13	2725.85
395.35	2650.07
395.56	2764.76
395.77	2840.53
395.98	2850.77
396.20	2877.40
396.41	2740.18
396.62	2901.97
396.84	2766.81
397.05	2711.51
397.26	2797.53
397.47	2959.31
397.69	2846.68
397.90	3037.14
398.11	2942.93
398.32	2848.72
398.54	2904.02
398.75	2826.20
398.96	2912.21
399.18	3053.52
399.39	2920.40
399.60	2955.22
399.81	2934.74
400.03	2920.40
400.24	3321.81
400.45	2940.88
400.66	3037.14
400.88	2975.70
401.09	3235.79
401.30	3076.05
401.51	3227.60
401.73	3104.72
401.94	3033.04
402.15	3182.54
402.36	3209.17
402.58	3213.26
402.79	3172.30
403.00	3274.70
403.21	3170.26
403.43	3325.90
403.64	3270.61
403.85	3170.26
404.06	3256.27
404.27	3164.11
404.49	3137.49
404.70	3160.02
404.91	3289.04
405.12	3264.46
405.34	3241.93
405.55	3440.59
405.76	3151.82
405.97	3176.40
406.19	3362.76
406.40	3278.80
406.61	3323.85
406.82	3307.47
407.03	3354.57
407.25	3262.41
407.46	3387.34
407.67	3450.83
407.88	3485.64
408.09	3479.50
408.31	3325.90
408.52	3452.88
408.73	3370.96
408.94	3387.34
409.15	3393.48
409.37	3467.21
409.58	3575.75
409.79	3444.68
410.00	3629.00
410.21	3499.98
410.43	3573.71
410.64	3397.58
410.85	3614.66
411.06	3547.08
411.27	3518.41
411.48	3696.58
411.70	3534.79
411.91	3688.39
412.12	3639.24
412.33	3657.67
412.54	3596.23
412.76	3719.11
412.97	3676.10
413.18	3594.19
413.39	3678.15
413.60	3653.58
413.81	3700.68
414.03	3592.14
414.24	3553.23
414.45	3889.09
414.66	3653.58
414.87	3749.83
415.08	3719.11
415.30	3784.65
415.51	3770.31
415.72	3831.75
415.93	3733.45
416.14	3755.97
416.35	3784.65
416.56	3667.91
416.78	3829.70
416.99	3936.20
417.20	3928.00
417.41	3891.14
417.62	3968.96
417.83	4007.87
418.04	3868.61
418.26	3999.68
418.47	3993.54
418.68	3956.68
418.89	4083.65
419.10	4032.45
419.31	3917.76
419.52	4069.31
419.73	4050.88
419.95	4132.80
420.16	4036.55
420.37	4093.89
420.58	4145.09
420.79	3928.00
421.00	4048.83
421.21	4136.90
421.42	4163.52
421.63	4167.62
421.85	4038.59
422.06	4173.76
422.27	4212.67
422.48	4310.97
422.69	4267.97
422.90	4282.30
423.11	4194.24
423.32	4306.88
423.53	4253.63
423.75	4454.33
423.96	4571.07
424.17	4460.48
424.38	4509.63
424.59	4462.52
424.80	4618.17
425.01	4511.68
425.22	4337.60
425.43	4370.37
425.64	4753.34
425.85	4775.86
426.06	4513.72
426.28	4446.14
426.49	4564.92
426.70	4472.76
426.91	4636.60
427.12	4712.38
427.33	4603.83
427.54	4601.79
427.75	4655.03
427.96	4812.73
428.17	4769.72
428.38	4812.73
428.59	5058.48
428.80	4784.06
429.01	4927.41
429.23	4714.42
429.44	5044.15
429.65	5062.58
429.86	5062.58
430.07	4874.17
430.28	4927.41
430.49	5097.39
430.70	5070.77
430.91	5164.98
431.12	5027.76
431.33	5156.79
431.54	5134.26
431.75	5181.36
431.96	5181.36
432.17	5158.83
432.38	5177.26
432.59	5377.97
432.80	5439.40
433.01	5296.05
433.22	5361.58
433.43	5398.45
433.64	5314.48
433.85	5291.95
434.06	5433.26
434.27	5396.40
434.49	5425.07
434.70	5578.67
434.91	5545.90
435.12	5478.32
435.33	5472.17
435.54	5500.84
435.75	5347.25
435.96	5539.76
436.17	5476.27
436.38	5615.53
436.59	5785.51
436.80	5449.64
437.01	5846.95
437.22	5902.25
437.43	5746.60
437.64	5576.62
437.85	5935.01
438.06	5795.75
438.27	5758.89
438.48	5795.75
438.69	5828.52
438.90	5791.66
439.11	5820.33
439.32	5898.15
439.53	5773.22
439.74	5994.40
439.95	6057.89
440.16	5826.47
440.37	5883.81
440.57	5924.77
440.78	5906.34
440.99	5992.36
441.20	5935.01
441.41	5855.14
441.62	6068.13
441.83	5951.40
442.04	6145.95
442.25	6088.61
442.46	6088.61
442.67	6258.59
442.88	6567.84
443.09	6096.80
443.30	6141.86
443.51	6184.87
443.72	6356.90
443.93	6172.58
444.14	6447.01
444.35	6207.39
444.56	6449.05
444.77	6346.66
444.98	6438.81
445.19	6399.90
445.40	6401.95
445.61	6500.25
445.81	6463.39
446.02	6481.82
446.23	6502.30
446.44	6463.39
446.65	6426.53
446.86	6588.32
447.07	6592.41
447.28	6819.74
447.49	6776.73
447.70	6649.75
447.91	6520.73
448.12	6647.71
448.33	6967.19
448.54	6766.49
448.74	6756.25
448.95	6821.78
449.16	6686.62
449.37	7024.53
449.58	7014.29
449.79	7151.51
450.00	6862.74
450.21	7059.35
450.42	7133.08
450.63	7098.26
450.84	7038.87
451.05	6959.00
451.25	7040.92
451.46	7055.25
451.67	7147.41
451.88	7221.14
452.09	7241.62
452.30	7284.62
452.51	7112.60
452.72	7456.65
452.93	7708.55
453.13	7288.72
453.34	7391.12
453.55	7468.94
453.76	7333.78
453.97	7765.90
454.18	7499.66
454.39	7708.55
454.60	7520.14
454.81	7569.29
455.01	7880.58
455.22	7401.36
455.43	7704.46
455.64	7862.15
455.85	7905.16
456.06	8095.62
456.27	7872.39
456.48	7782.28
456.68	7960.45
456.89	7835.53
457.10	8241.03
457.31	7980.93
457.52	7978.89
457.73	7962.50
457.94	8230.79
458.14	8003.46
458.35	8505.21
458.56	8198.02
458.77	8140.68
458.98	8339.33
459.19	8368.00
459.39	8394.62
459.60	8548.22
459.81	8316.80
460.02	8703.87
460.23	8675.20
460.44	8689.53
460.65	8535.93
460.85	8867.70
461.06	8892.28
461.27	8568.70
461.48	8968.06
461.69	8857.46
461.89	8707.96
462.10	9054.07
462.31	8834.94
462.52	8931.19
462.73	8951.67
462.94	9127.80
463.14	9203.57
463.35	9097.08
463.56	9478.00
463.77	9561.97
463.98	9187.19
464.18	9228.15
464.39	9404.27
464.60	9682.80
464.81	9486.19
465.02	9758.57
465.23	9654.12
465.43	9791.34
465.64	9879.40
465.85	9914.22
466.06	9690.99
466.27	10260.32
466.47	10053.48
466.68	10084.20
466.89	9832.30
467.10	10239.84
467.30	10143.59
467.51	10143.59
467.72	10458.98
467.93	10325.86
468.14	10411.87
468.34	10618.72
468.55	10602.33
468.76	10651.49
468.97	10461.02
469.17	10762.08
469.38	10649.44
469.59	11087.70
469.80	10692.44
470.01	10866.52
470.21	11079.51
470.42	11124.57
470.63	11110.23
470.84	11024.22
471.04	11505.49
471.25	11394.90
471.46	11405.14
471.67	11644.75
471.87	11476.82
472.08	11618.13
472.29	11843.40
472.50	11534.16
472.70	11765.58
472.91	11693.90
473.12	12144.45
473.33	12066.63
473.53	12154.69
473.74	12021.58
473.95	12222.28
474.16	12498.75
474.36	12519.23
474.57	12408.64
474.78	12830.52
474.99	12605.25
475.19	12683.07
475.40	12871.48
475.61	13217.59
475.81	13141.82
476.02	13279.03
476.23	12996.41
476.44	13156.15
476.64	13465.39
476.85	13580.08
477.06	13494.07
477.27	13770.54
477.47	13911.85
477.68	13952.81
477.89	14163.75
478.09	13956.91
478.30	14200.62
478.51	14149.42
478.71	13969.19
478.92	14331.69
479.13	14599.97
479.34	14675.74
479.54	14741.28
479.75	14513.95
479.96	14804.77
480.16	14931.74
480.37	15173.40
480.58	15214.36
480.78	15476.50
480.99	15386.39
481.20	15335.19
481.41	15572.75
481.61	15755.02
481.82	15781.65
482.03	15634.19
482.23	15675.15
482.44	16031.50
482.65	16260.87
482.85	16338.69
483.06	16324.36
483.27	16295.69
483.47	16557.83
483.68	16445.19
483.89	16686.85
484.09	16678.66
484.30	16752.38
484.51	17092.35
484.71	17131.26
484.92	17075.96
485.13	17075.96
485.33	17338.10
485.54	17309.43
485.75	17358.58
485.95	17725.17
486.16	17510.13
486.37	17696.50
486.57	17751.79
486.78	17802.99
486.98	18095.85
487.19	18159.34
487.40	18106.09
487.60	18271.98
487.81	18376.42
488.02	18364.14
488.22	18335.46
488.43	18577.12
488.64	18648.80
488.84	18743.01
489.05	19019.49
489.25	18888.42
489.46	19142.36
489.67	19058.40
489.87	19357.40
490.08	19113.69
490.29	19177.18
490.49	19381.98
490.70	19629.78
490.90	19801.81
491.11	19803.86
491.32	20123.34
491.52	19867.34
491.73	19896.02
491.94	20049.61
492.14	19783.38
492.35	20141.77
492.55	20330.19
492.76	20225.74
492.97	20602.57
493.17	20514.50
493.38	20922.05
493.58	21014.21
493.79	20922.05
494.00	20727.49
494.20	20827.84
494.41	21012.16
494.61	21225.15
494.82	21259.96
495.02	21231.29
495.23	21378.75
495.44	21542.58
495.64	21649.08
495.85	21640.89
496.05	21763.76
496.26	21677.75
496.47	22154.93
496.67	21829.30
496.88	22232.75
497.08	21956.27
497.29	22161.07
497.49	22103.73
497.70	22257.32
497.91	22380.20
498.11	22392.49
498.32	22681.25
498.52	22529.70
498.73	23037.60
498.93	22630.05
499.14	23103.14
499.34	23029.41
499.55	22984.35
499.76	22853.28
499.96	22939.30
500.17	23305.88
500.37	23545.50
500.58	23637.66
500.78	23365.28
500.99	23545.50
501.19	23979.67
501.40	23783.06
501.60	23572.12
501.81	23684.76
502.02	23983.76
502.22	23856.79
502.43	24055.44
502.63	24293.01
502.84	24213.13
503.04	24379.02
503.25	24094.35
503.45	24512.14
503.66	24536.71
503.86	24624.78
504.07	24641.16
504.27	24612.49
504.48	25073.28
504.68	24696.46
504.89	25224.83
505.09	25233.02
505.30	25048.71
505.50	25419.39
505.71	25183.87
505.91	25278.08
506.12	25181.82
506.32	25630.33
506.53	25409.15
506.73	25534.07
506.94	25615.99
507.14	25667.19
507.35	25765.49
507.55	26048.11
507.76	25937.52
507.96	25648.76
508.17	25867.89
508.37	25898.61
508.58	25925.24
508.78	26398.32
508.99	26099.31
509.19	26087.03
509.40	26740.33
509.60	26410.60
509.81	26408.56
510.01	26394.22
510.22	26574.44
510.42	26836.58
510.63	26519.15
510.83	26508.91
511.04	26781.29
511.24	26551.91
511.44	26809.96
511.65	26871.40
511.85	27313.76
512.06	26846.82
512.26	27131.49
512.47	27174.50
512.67	27352.67
512.88	27334.24
513.08	27137.63
513.29	27561.56
513.49	27543.13
513.69	27498.08
513.90	27821.66
514.10	27510.36
514.31	27817.56
514.51	28077.65
514.72	27776.60
514.92	27532.89
515.13	27696.73
515.33	27862.61
515.53	28089.94
515.74	27995.73
515.94	28081.75
516.15	28268.11
516.35	27942.49
516.56	28483.15
516.76	27948.63
516.96	28522.06
517.17	28343.89
517.37	28462.67
517.58	28628.56
517.78	28739.15
517.99	29029.96
518.19	28900.94
518.39	28989.00
518.60	29177.41
518.80	28886.60
519.01	28857.93
519.21	29070.92
519.41	29085.25
519.62	29023.81
519.82	29232.71
520.03	29640.25
520.23	29697.59
520.43	29431.36
520.64	29746.75
520.84	29773.37
521.05	29554.24
521.25	29660.73
521.45	29711.93
521.66	30129.72
521.86	29648.44
522.07	29855.29
522.27	30021.17
522.47	30168.63
522.68	30215.73
522.88	30058.04
523.08	30557.74
523.29	30330.42
523.49	30547.50
523.70	30748.20
523.90	30795.31
524.10	30713.39
524.31	30981.67
524.51	30594.61
524.71	31254.05
524.92	31082.02
525.12	31077.93
525.33	31233.57
525.53	31481.38
525.73	31503.90
525.94	31325.73
526.14	31440.42
526.34	31505.95
526.55	31495.71
526.75	31602.21
526.95	31944.22
527.16	31514.14
527.36	31761.95
527.56	31927.83
527.77	32042.52
527.97	32204.31
528.17	32222.74
528.38	32572.94
528.58	32312.85
528.78	32364.05
528.99	32310.80
529.19	32720.40
529.39	32566.80
529.60	33080.84
529.80	32882.19
530.00	33019.40
530.21	33019.40
530.41	33107.46
530.61	33162.76
530.82	33222.15
531.02	33156.61
531.22	33295.88
531.43	33134.09
531.63	33689.09
531.83	33986.04
532.04	34174.45
532.24	33424.90
532.44	34295.28
532.64	34231.80
532.85	34471.41
533.05	34115.06
533.25	34571.76
533.46	34452.98
533.66	34625.01
533.86	34721.26
534.07	34827.76
534.27	34729.45
534.47	35251.69
534.67	35079.66
534.88	34948.59
535.08	34713.07
535.28	35425.76
535.49	35288.55
535.69	35821.02
535.89	35247.59
536.09	36083.16
536.30	36257.24
536.50	35898.84
536.70	36298.20
536.91	35886.56
537.11	35880.41
537.31	36251.09
537.51	36347.35
537.72	36363.73
537.92	36548.05
538.12	36754.90
538.32	36572.63
538.53	36787.66
538.73	36883.92
538.93	36908.49
539.13	37156.30
539.34	37082.57
539.54	37111.24
539.74	37537.22
539.94	37311.94
540.15	37352.90
540.35	37746.11
540.55	37680.58
540.75	37590.47
540.96	37520.84
541.16	37983.68
541.36	38065.60
541.56	38237.62
541.77	38139.32
541.97	38020.54
542.17	38077.88
542.37	38311.35
542.58	38530.48
542.78	38106.55
542.98	38612.40
543.18	38700.47
543.38	39001.52
543.59	38657.46
543.79	38524.34
543.99	38766.00
544.19	39099.82
544.40	39081.39
544.60	39089.58
544.80	39280.04
545.00	39466.41
545.20	39425.45
545.41	39497.13
545.61	39622.05
545.81	39636.39
546.01	39620.00
546.21	39568.80
546.42	39701.92
546.62	39923.10
546.82	39957.92
547.02	40557.97
547.22	40025.50
547.43	39839.14
547.63	40129.95
547.83	40390.04
548.03	39818.66
548.23	40379.80
548.44	40375.70
548.64	40476.05
548.84	40730.00
549.04	40488.34
549.24	41055.63
549.45	41153.93
549.65	40779.15
549.85	40889.74
550.05	40904.08
550.25	41053.58
550.45	41409.93
550.66	41397.64
550.86	41354.63
551.06	41545.09
551.26	41117.07
551.46	41665.92
551.66	41686.40
551.87	41405.83
552.07	41481.61
552.27	41467.27
552.47	41729.41
552.67	41801.09
552.87	41407.88
553.07	41778.56
553.28	41960.83
553.48	41848.19
553.68	41987.46
553.88	42136.96
554.08	42085.76
554.28	41758.08
554.48	41989.50
554.69	42206.59
554.89	42118.53
555.09	42468.73
555.29	42069.37
555.49	42237.31
555.69	42286.46
555.89	42268.03
556.10	42751.35
556.30	42349.95
556.50	42415.48
556.70	42448.25
556.90	42786.16
557.10	42571.13
557.30	42464.63
557.50	43234.67
557.70	43109.74
557.91	42747.25
558.11	42515.83
558.31	42829.17
558.51	42739.06
558.71	42644.85
558.91	43322.73
559.11	42796.40
559.31	43111.79
559.51	42636.66
559.72	42972.53
559.92	43476.33
560.12	43095.41
560.32	43509.10
560.52	42755.44
560.72	43345.26
560.92	43490.66
561.12	42952.05
561.32	43306.35
561.52	43234.67
561.72	43570.54
561.93	42737.01
562.13	43713.89
562.33	43218.28
562.53	43863.39
562.73	43455.85
562.93	43505.00
563.13	43302.25
563.33	43195.76
563.53	43804.00
563.73	43292.01
563.93	43382.12
564.13	44436.83
564.33	44027.23
564.53	43660.65
564.74	44453.21
564.94	43924.83
565.14	43867.49
565.34	43976.03
565.54	44135.77
565.74	43961.70
565.94	44303.71
566.14	44178.78
566.34	44320.09
566.54	44307.80
566.74	43890.02
566.94	44086.62
567.14	44340.57
567.34	44184.93
567.54	44320.09
567.74	43881.83
567.94	44047.71
568.14	44410.20
568.34	44678.49
568.54	44522.84
568.74	44858.71
568.94	44367.20
569.14	44766.55
569.34	44752.21
569.54	45126.99
569.75	44506.46
569.95	44602.71
570.15	45086.03
570.35	44774.74
570.55	44766.55
570.75	44932.43
570.95	45075.79
571.15	44782.93
571.35	44914.00
571.55	45299.02
571.75	44873.04
571.95	45491.53
572.15	45053.26
572.35	45323.60
572.55	45266.25
572.75	45446.47
572.95	45040.98
573.15	45593.93
573.35	45387.08
573.55	45403.47
573.75	45372.75
573.95	45587.78
574.15	45811.01
574.35	45610.31
574.55	45671.75
574.75	45417.80
574.95	45626.70
575.15	45518.15
575.34	45571.40
575.54	45946.18
575.74	45948.23
575.94	46126.40
576.14	45946.18
576.34	46331.20
576.54	45958.47
576.74	46443.84
576.94	46081.34
577.14	46290.24
577.34	46581.05
577.54	46368.06
577.74	46513.47
577.94	46822.71
578.14	46632.25
578.34	47234.35
578.54	46449.98
578.74	46726.46
578.94	47289.65
579.14	46783.80
579.34	47037.75
579.54	47113.52
579.74	47318.32
579.94	47011.12
580.13	47539.50
580.33	47283.50
580.53	47199.54
580.73	47527.21
580.93	47500.59
581.13	47303.98
581.33	47615.27
581.53	47654.18
581.73	47781.16
581.93	47772.97
582.13	47805.73
582.33	47645.99
582.53	48157.99
582.73	47994.15
582.92	48196.90
583.12	48356.64
583.32	48145.70
583.52	48141.60
583.72	48200.99
583.92	48147.75
584.12	48198.94
584.32	48895.25
584.52	48674.07
584.72	48500.00
584.92	48723.22
585.11	49239.31
585.31	48944.41
585.51	49184.02
585.71	49128.72
585.91	48379.17
586.11	49016.08
586.31	48950.55
586.51	49329.42
586.71	49083.67
586.91	49345.81
587.10	49638.67
587.30	49345.81
587.50	49704.20
587.70	49517.84
587.90	49366.29
588.10	49591.56
588.30	49751.30
588.50	49847.56
588.69	49595.66
588.89	49388.81
589.09	50111.75
589.29	49865.99
589.49	50296.06
589.69	49650.95
589.89	50138.37
590.08	50005.25
590.28	49974.53
590.48	50222.34
590.68	50345.22
590.88	50259.20
591.08	50253.06
591.28	50099.46
591.47	50769.15
591.67	50341.12
591.87	50507.01
592.07	50648.32
592.27	50283.78
592.47	50545.92
592.67	50844.92
592.86	50566.40
593.06	50631.93
593.26	50699.51
593.46	50713.85
593.66	50797.82
593.86	50943.22
594.05	51000.57
594.25	51180.79
594.45	50500.86
594.65	51365.10
594.85	51123.44
595.05	51188.98
595.24	51565.81
595.44	50978.04
595.64	51504.37
595.84	51483.89
596.04	51614.96
596.23	51791.08
596.43	51477.74
596.63	51574.00
596.83	51655.92
597.03	51623.15
597.22	51746.03
597.42	52010.21
597.62	52098.28
597.82	51770.60
598.02	51539.18
598.21	51887.34
598.41	51715.31
598.61	52473.06
598.81	52167.91
599.01	51729.64
599.20	51987.69
599.40	52217.06
599.60	52542.69
599.80	52176.10
600.00	52118.76
600.19	52356.32
600.39	52329.70
600.59	52442.34
600.79	52391.14
600.98	52540.64
601.18	52901.08
601.38	53185.75
601.58	52770.01
601.78	52174.05
601.97	52634.84
602.17	53193.94
602.37	52757.72
602.57	52673.76
602.76	53468.37
602.96	52505.82
603.16	53081.30
603.36	52706.52
603.55	53392.59
603.75	53017.82
603.95	53273.81
604.15	53359.83
604.34	52933.85
604.54	53568.72
604.74	53335.25
604.94	53146.84
605.13	53943.50
605.33	53390.55
605.53	53329.11
605.73	53794.00
605.92	53239.00
606.12	53726.41
606.32	53826.76
606.52	53447.89
606.71	53478.61
606.91	54136.01
607.11	53550.29
607.30	53546.19
607.50	53695.69
607.70	54074.57
607.90	53519.57
608.09	53970.12
608.29	53597.39
608.49	53699.79
608.68	54160.58
608.88	54133.96
609.08	54326.47
609.28	54344.90
609.47	53957.83
609.67	54242.50
609.87	54009.03
610.06	54121.67
610.26	54011.08
610.46	53890.25
610.66	53884.11
610.85	54680.77
611.05	54490.30
611.25	54467.78
611.44	53984.46
611.64	54580.42
611.84	53904.59
612.03	54570.18
612.23	54498.50
612.43	54666.43
612.62	54441.15
612.82	54482.11
613.02	54265.03
613.21	54590.66
613.41	54666.43
613.61	54099.14
613.80	53929.16
614.00	54514.88
614.20	54625.47
614.39	54578.37
614.59	54979.77
614.79	54164.68
614.98	54238.40
615.18	54797.50
615.38	54836.41
615.57	54916.28
615.77	54543.55
615.97	54631.61
616.16	54463.68
616.36	54746.30
616.56	55002.30
616.75	55057.59
616.95	54375.62
617.15	54486.21
617.34	54838.46
617.54	54082.76
617.74	54969.53
617.93	54551.74
618.13	54289.60
618.32	54467.78
618.52	54447.30
618.72	54596.80
618.91	54631.61
619.11	54467.78
619.31	54576.32
619.50	54760.64
619.70	54355.14
619.90	54469.82
620.09	54871.23
620.29	54799.55
620.48	54949.05
620.68	54940.86
620.88	54072.52
621.07	54533.31
621.27	55065.78
621.46	54744.25
621.66	54746.30
621.86	54832.32
622.05	54643.90
622.25	54973.63
622.44	54326.47
622.64	54639.81
622.84	54842.56
623.03	54105.29
623.23	55211.19
623.42	54830.27
623.62	55362.74
623.82	55022.78
624.01	54869.18
624.21	54783.16
624.40	54893.75
624.60	54820.03
624.80	54746.30
624.99	54494.40
625.19	54375.62
625.38	55219.38
625.58	55284.92
625.77	55041.21
625.97	54680.77
626.17	54676.67
626.36	54736.06
626.56	55211.19
626.75	54576.32
626.95	55227.57
627.14	54910.14
627.34	55321.78
627.54	54891.71
627.73	54783.16
627.93	55246.00
628.12	54791.36
628.32	55192.76
628.51	55014.58
628.71	54752.44
628.90	55286.96
629.10	55297.20
629.30	55473.33
629.49	54654.14
629.69	55205.05
629.88	55174.33
630.08	55387.31
630.27	55379.12
630.47	55442.61
630.66	55276.72
630.86	55829.68
631.05	54820.03
631.25	55438.51
631.44	55669.93
631.64	55473.33
631.84	55770.28
632.03	55884.97
632.23	55540.91
632.42	55710.89
632.62	55549.10
632.81	55223.48
633.01	55334.07
633.20	55581.87
633.40	55624.88
633.59	55817.39
633.79	55125.17
633.98	55776.43
634.18	55600.30
634.37	55661.74
634.57	55418.03
634.76	55975.08
634.96	55536.82
635.15	55936.17
635.35	55375.03
635.54	55776.43
635.74	56347.81
635.93	55530.67
636.13	55809.20
636.32	56155.30
636.52	55424.18
636.71	55798.96
636.91	56136.87
637.10	56480.93
637.30	55448.75
637.49	55878.83
637.69	55825.58
637.88	56218.79
638.08	55477.43
638.27	56034.47
638.46	55766.19
638.66	56054.95
638.85	55889.07
639.05	56341.67
639.24	56059.05
639.44	55874.73
639.63	56325.28
639.83	56751.26
640.02	55782.57
640.22	55780.52
640.41	56642.72
640.61	55700.65
640.80	56157.35
640.99	55831.72
641.19	56100.01
641.38	55968.94
641.58	56278.18
641.77	56063.14
641.97	55948.46
642.16	56253.61
642.36	56589.47
642.55	56493.22
642.74	56128.68
642.94	56724.64
643.13	56061.10
643.33	56292.52
643.52	56704.16
643.72	56493.22
643.91	56186.02
644.10	56433.83
644.30	56464.55
644.49	56407.20
644.69	56726.69
644.88	56335.52
645.08	56198.31
645.27	56304.80
645.46	56038.57
645.66	57119.90
645.85	56243.37
646.05	56636.58
646.24	56431.78
646.43	56351.91
646.63	57005.21
646.82	56591.52
647.02	56401.06
647.21	56593.57
647.40	56321.19
647.60	56831.13
647.79	56945.82
647.99	56964.25
648.18	56374.44
648.37	57111.70
648.57	56523.94
648.76	57013.40
648.96	56536.23
649.15	56810.65
649.34	57054.36
649.54	56911.00
649.73	56792.22
649.92	56915.10
650.12	56728.73
650.31	56704.16
650.51	56790.17
650.70	57025.69
650.89	56913.05
651.09	57158.81
651.28	56767.65
651.47	56822.94
651.67	57173.14
651.86	57521.30
652.06	56554.66
652.25	56673.44
652.44	56562.85
652.64	56521.89
652.83	56702.11
653.02	56376.48
653.22	56734.88
653.41	56997.02
653.60	56087.72
653.80	56710.30
653.99	56487.07
654.18	56761.50
654.38	56638.62
654.57	56620.19
654.76	56685.73
654.96	56753.31
655.15	57058.46
655.34	56661.15
655.54	56261.80
655.73	56790.17
655.92	56741.02
656.12	56476.83
656.31	56683.68
656.50	56802.46
656.70	56861.85
656.89	56095.91
657.08	57199.77
657.28	56302.76
657.47	56753.31
657.66	57001.11
657.86	56693.92
658.05	56738.97
658.24	57037.98
658.43	56521.89
658.63	56923.29
658.82	57042.07
659.01	56702.11
659.21	56700.06
659.40	56482.98
659.59	56751.26
659.79	56775.84
659.98	56833.18
660.17	56882.33
660.36	56536.23
660.56	56403.11
660.75	56523.94
660.94	56827.04
661.14	56710.30
661.33	56644.77
661.52	56505.51
661.71	56917.15
661.91	56294.56
662.10	56579.23
662.29	57003.16
662.49	56468.64
662.68	56597.66
662.87	56755.36
663.06	56677.54
663.26	56775.84
663.45	57099.42
663.64	56859.80
663.83	56915.10
664.03	56898.72
664.22	56474.79
664.41	57021.59
664.60	56519.84
664.80	56503.46
664.99	56435.87
665.18	56108.20
665.37	56855.71
665.57	56827.04
665.76	56259.75
665.95	56612.00
666.14	56908.96
666.34	56626.34
666.53	56206.50
666.72	56528.03
666.91	56554.66
667.11	56169.64
667.30	56939.68
667.49	56859.80
667.68	56542.37
667.87	56568.99
668.07	56804.51
668.26	56591.52
668.45	56720.54
668.64	56349.86
668.84	57031.83
669.03	56753.31
669.22	56548.51
669.41	56542.37
669.60	56796.32
669.80	56579.23
669.99	56673.44
670.18	56847.52
670.37	56480.93
670.57	56700.06
670.76	56409.25
670.95	56845.47
671.14	56568.99
671.33	56196.26
671.53	56927.39
671.72	56321.19
671.91	56595.62
672.10	56788.13
672.29	56482.98
672.48	56284.33
672.68	56814.75
672.87	56300.71
673.06	56313.00
673.25	56296.61
673.44	56624.29
673.64	56720.54
673.83	56370.34
674.02	56493.22
674.21	56530.08
674.40	56655.01
674.59	56239.27
674.79	56159.40
674.98	56333.48
675.17	56464.55
675.36	56595.62
675.55	56702.11
675.74	56497.31
675.94	56962.20
676.13	56667.30
676.32	56824.99
676.51	56409.25
676.70	56982.68
676.89	56302.76
677.08	57142.42
677.28	56239.27
677.47	57136.28
677.66	56599.71
677.85	56444.07
678.04	56816.80
678.23	57025.69
678.42	56829.08
678.62	56396.96
678.81	56843.42
679.00	56470.69
679.19	57480.34
679.38	56607.90
679.57	56396.96
679.76	56425.64
679.96	56968.35
680.15	56716.45
680.34	56775.84
680.53	56419.49
680.72	56368.29
680.91	56827.04
681.10	56472.74
681.29	56824.99
681.48	56562.85
681.68	56755.36
681.87	56702.11
682.06	56489.12
682.25	56630.43
682.44	56485.03
682.63	56761.50
682.82	56476.83
683.01	56364.20
683.20	56032.42
683.39	56460.45
683.59	56403.11
683.78	56323.24
683.97	55868.59
684.16	56661.15
684.35	56374.44
684.54	56452.26
684.73	56177.83
684.92	56591.52
685.11	56071.34
685.30	56554.66
685.49	56384.68
685.69	56579.23
685.88	56253.61
686.07	56411.30
686.26	56315.04
686.45	56302.76
686.64	56292.52
686.83	56188.07
687.02	56358.05
687.21	56544.42
687.40	56595.62
687.59	56337.57
687.78	56411.30
687.97	56562.85
688.16	56362.15
688.35	56196.26
688.54	56212.65
688.74	55913.64
688.93	56331.43
689.12	55932.07
689.31	56249.51
689.50	56206.50
689.69	55637.17
689.88	55887.02
690.07	55999.66
690.26	56286.37
690.45	56472.74
690.64	55948.46
690.83	56028.33
691.02	56417.44
691.21	56128.68
691.40	55710.89
691.59	56085.67
691.78	55786.67
691.97	56050.86
692.16	55868.59
692.35	55944.36
692.54	56079.53
692.73	56482.98
692.92	55667.89
693.11	56278.18
693.30	55923.88
693.49	55768.24
693.68	55676.08
693.87	55819.44
694.06	55616.69
694.25	55649.45
694.44	55327.92
694.63	55641.26
694.82	55862.44
695.01	56009.90
695.20	55723.18
695.39	55559.34
695.58	55747.76
695.77	55422.13
695.96	55336.12
696.15	55456.95
696.34	55248.05
696.53	55581.87
696.72	55465.14
696.91	55264.44
697.10	55542.96
697.29	55217.33
697.48	55649.45
697.67	55555.25
697.86	55270.58
698.05	55141.56
698.24	55379.12
698.43	54934.71
698.62	55477.43
698.81	54736.06
699.00	55557.30
699.19	54848.70
699.38	55217.33
699.57	54768.83
699.76	55520.43
699.95	54785.21
700.14	54490.30
700.32	54930.62
700.51	54717.63
700.70	54961.34
700.89	55104.70
701.08	54815.93
701.27	55024.82
701.46	54777.02
701.65	54381.76
701.84	54949.05
702.03	54260.93
702.22	54392.00
702.41	54400.19
702.60	54764.73
702.79	54518.98
702.98	54195.40
703.17	54363.33
703.35	54097.09
703.54	54199.49
703.73	54432.96
703.92	54547.65
704.11	54609.09
704.30	53976.26
704.49	54342.85
704.68	53929.16
704.87	54080.71
705.06	53654.73
705.25	53843.15
705.43	53802.19
705.62	54289.60
705.81	53804.24
706.00	54334.66
706.19	53163.22
706.38	53880.01
706.57	53599.44
706.76	53464.27
706.95	53445.84
707.14	53656.78
707.32	53384.40
707.51	53253.33
707.70	53761.23
707.89	53282.00
708.08	53607.63
708.27	53798.09
708.46	54131.91
708.65	53269.72
708.84	53773.52
709.02	53687.50
709.21	53538.00
709.40	53535.95
709.59	53394.64
709.78	52710.62
709.97	53318.87
710.16	52884.70
710.34	52819.16
710.53	53353.68
710.72	52671.71
710.91	52849.88
711.10	52645.08
711.29	53118.17
711.48	53179.60
711.66	52524.25
711.85	52260.07
712.04	52747.48
712.23	52534.49
712.42	52362.46
712.61	52514.01
712.80	52409.57
712.98	52491.49
713.17	52374.75
713.36	52217.06
713.55	52149.48
713.74	52110.56
713.93	52481.25
714.11	51875.05
714.30	51926.25
714.49	51858.66
714.68	52303.07
714.87	52380.90
715.06	52458.72
715.24	52141.28
715.43	52169.96
715.62	51664.11
715.81	51522.80
716.00	51752.17
716.18	51156.21
716.37	51395.82
716.56	51303.67
716.75	52075.75
716.94	51412.21
717.12	50885.88
717.31	51395.82
717.50	51440.88
717.69	51100.92
717.88	51229.94
718.06	51268.85
718.25	51664.11
718.44	51023.09
718.63	50945.27
718.82	50576.64
719.00	50664.70
719.19	50812.15
719.38	50545.92
719.57	50400.51
719.76	50111.75
719.94	50027.78
720.13	50486.53
720.32	50425.09
720.51	50240.77
720.69	50085.12
720.88	49847.56
721.07	50443.52
721.26	49956.10
721.44	50222.34
721.63	49929.48
721.82	49573.13
722.01	49052.95
722.20	49814.79
722.38	49337.62
722.57	49036.56
722.76	49552.65
722.95	49863.94
723.13	49583.37
723.32	49026.32
723.51	48631.07
723.70	48958.74
723.88	49075.48
724.07	48940.31
724.26	49007.89
724.44	48278.82
724.63	49331.47
724.82	48600.35
725.01	48743.70
725.19	49001.75
725.38	48461.08
725.57	48198.94
725.76	48563.48
725.94	48471.32
726.13	48352.54
726.32	48440.60
726.51	48344.35
726.69	48925.97
726.88	48669.98
727.07	48626.97
727.25	48383.26
727.44	48745.75
727.63	48618.78
727.82	48483.61
728.00	48518.43
728.19	48405.79
728.38	48229.66
728.56	48543.00
728.75	48532.76
728.94	48031.01
729.12	48444.70
729.31	48336.16
729.50	48223.52
729.69	48348.45
729.87	48497.95
730.06	47945.00
730.25	48303.39
730.43	48651.55
730.62	48198.94
730.81	48469.28
730.99	48076.07
731.18	48078.11
731.37	48618.78
731.55	48928.02
731.74	48413.98
731.93	48090.40
732.11	48592.15
732.30	48248.10
732.49	48198.94
732.67	48287.01
732.86	47990.05
733.05	47957.28
733.23	47645.99
733.42	47981.86
733.61	48139.55
733.79	47856.93
733.98	48094.50
734.17	48071.97
734.35	48076.07
734.54	48508.19
734.73	48016.68
734.91	47637.80
735.10	47820.07
735.29	48342.30
735.47	47353.13
735.66	47506.73
735.84	47852.84
736.03	47617.32
736.22	48002.34
736.40	48086.31
736.59	47867.17
736.78	47465.77
736.96	47840.55
737.15	47953.19
737.33	47656.23
737.52	47645.99
737.71	47559.98
737.89	47758.63
738.08	47559.98
738.27	47578.41
738.45	47803.69
738.64	47832.36
738.82	47281.45
739.01	47371.57
739.20	46996.79
739.38	47568.17
739.57	47635.75
739.75	47627.56
739.94	47658.28
740.13	47400.24
740.31	47164.72
740.50	47287.60
740.68	47430.96
740.87	47492.40
741.06	47545.64
741.24	47185.20
741.43	46980.40
741.61	47064.37
741.80	47312.17
741.99	46896.44
742.17	47275.31
742.36	47349.04
742.54	47301.93
742.73	47195.44
742.91	47105.33
743.10	46757.17
743.29	47400.24
743.47	47422.76
743.66	47224.11
743.84	47121.71
744.03	46804.28
744.21	46794.04
744.40	47131.95
744.59	46961.97
744.77	46699.83
744.96	46734.65
745.14	46638.39
745.33	46935.35
745.51	46779.70
745.70	47299.89
745.88	46515.51
746.07	46806.33
746.26	46470.46
746.44	46585.15
746.63	46411.07
746.81	46634.30
747.00	46452.03
747.18	46652.73
747.37	46697.78
747.55	46511.42
747.74	47107.38
747.92	46249.28
748.11	46613.82
748.29	46757.17
748.48	46585.15
748.66	46093.63
748.85	46388.54
749.03	46677.30
749.22	46400.83
749.41	46730.55
749.59	46648.63
749.78	46400.83
749.96	46277.95
750.15	46093.63
750.33	46773.56
750.52	46396.73
750.70	46241.09
750.89	46060.87
751.07	46032.19
751.26	46241.09
751.44	45854.02
751.63	45913.41
751.81	45925.70
752.00	45987.14
752.18	46374.20
752.37	45585.74
752.55	46021.95
752.74	46007.62
752.92	45915.46
753.10	45903.17
753.29	45788.49
753.47	45919.56
753.66	45493.58
753.84	45638.98
754.03	46077.25
754.21	45804.87
754.40	45929.80
754.58	45839.68
754.77	45995.33
754.95	45659.46
755.14	45600.07
755.32	45667.66
755.51	45231.44
755.69	45518.15
755.88	45112.66
756.06	45362.51
756.24	45350.22
756.43	45438.28
756.61	45053.26
756.80	45346.12
756.98	44760.40
757.17	45157.71
757.35	45186.38
757.54	45004.11
757.72	45450.57
757.90	44965.20
758.09	45057.36
758.27	44858.71
758.46	44561.75
758.64	45116.75
758.83	45012.31
759.01	44873.04
759.19	44891.48
759.38	44690.77
759.56	45004.11
759.75	44918.10
759.93	44631.38
760.12	44402.01
760.30	44823.89
760.48	44963.15
760.67	44821.84
760.85	44496.22
761.04	44457.31
761.22	44709.21
761.40	44449.11
761.59	44537.18
761.77	44416.35
761.96	44369.24
762.14	44111.20
762.32	44254.56
762.51	44184.93
762.69	44606.81
762.88	44217.69
763.06	44440.92
763.24	44180.83
763.43	44635.48
763.61	44229.98
763.80	43937.12
763.98	43797.86
764.16	44055.90
764.35	43593.06
764.53	43332.97
764.72	43717.99
764.90	43818.34
765.08	43564.39
765.27	43756.90
765.45	43480.42
765.63	43234.67
765.82	43580.78
766.00	43435.37
766.18	43459.94
766.37	43375.98
766.55	42945.90
766.74	43177.33
766.92	43216.24
767.10	42943.86
767.29	42755.44
767.47	42655.09
767.65	42683.76
767.84	42757.49
768.02	42976.62
768.20	42763.64
768.39	42808.69
768.57	42986.86
768.75	42442.10
768.94	42548.60
769.12	42931.57
769.30	42259.84
769.49	42296.70
769.67	42431.86
769.85	42059.13
770.04	42599.80
770.22	42200.44
770.40	42128.77
770.59	42374.52
770.77	42278.27
770.95	42026.37
771.14	42481.02
771.32	41745.80
771.50	41319.82
771.69	42032.51
771.87	42081.66
772.05	41928.06
772.24	41608.58
772.42	41835.91
772.60	41831.81
772.78	41444.74
772.97	41362.82
773.15	42059.13
773.33	41397.64
773.52	41338.25
773.70	41680.26
773.88	41618.82
774.07	41784.71
774.25	41172.36
774.43	41541.00
774.61	41852.29
774.80	41921.92
774.98	41682.31
775.16	41551.24
775.34	41624.96
775.53	41653.64
775.71	41897.34
775.89	41536.90
776.08	41627.01
776.26	41737.60
776.44	41661.83
776.62	41866.63
776.81	41198.99
776.99	41194.89
777.17	41532.81
777.35	41282.95
777.54	41674.12
777.72	41483.66
777.90	41530.76
778.08	41680.26
778.27	41702.79
778.45	41627.01
778.63	41850.24
778.81	41252.23
779.00	42145.15
779.18	41856.39
779.36	42032.51
779.54	41813.38
779.73	41944.45
779.91	41936.26
780.09	41825.67
780.27	42212.73
780.46	41772.42
780.64	42153.34
780.82	41866.63
781.00	42222.97
781.19	42014.08
781.37	41825.67
781.55	41983.36
781.73	42468.73
781.91	42071.42
782.10	42218.88
782.28	41909.63
782.46	42370.43
782.64	42073.47
782.82	41852.29
783.01	42300.79
783.19	41833.86
783.37	41917.82
783.55	41866.63
783.74	42308.99
783.92	42050.94
784.10	42149.24
784.28	42362.23
784.46	41528.71
784.64	42087.81
784.83	42165.63
785.01	41813.38
785.19	42046.85
785.37	42302.84
785.55	41692.55
785.74	41588.10
785.92	41686.40
786.10	42435.96
786.28	42360.19
786.46	41502.09
786.64	41399.69
786.83	41696.64
787.01	41655.68
787.19	41393.54
787.37	41262.47
787.55	41436.55
787.74	41381.26
787.92	41715.08
788.10	40760.72
788.28	41405.83
788.46	41235.85
788.64	40916.37
788.82	41117.07
789.01	40764.82
789.19	41125.26
789.37	40687.00
789.55	40768.91
789.73	40574.36
789.91	40480.15
790.09	40877.46
790.28	40713.62
790.46	40134.04
790.64	40361.37
790.82	40127.90
791.00	40088.99
791.18	39837.09
791.36	40310.17
791.55	40635.80
791.73	39722.40
791.91	39847.33
792.09	39732.64
792.27	39769.51
792.45	40105.37
792.63	39968.16
792.81	39904.67
793.00	39687.59
793.18	39419.30
793.36	39191.98
793.54	39298.47
793.72	39265.70
793.90	39269.80
794.08	39077.29
794.26	38786.48
794.44	38604.21
794.62	38587.83
794.81	38751.66
794.99	38688.18
795.17	38815.15
795.35	38483.38
795.53	38550.96
795.71	38700.47
795.89	37836.22
796.07	38079.93
796.25	38346.17
796.43	38006.20
796.61	38094.27
796.80	37854.65
796.98	37967.29
797.16	37600.71
797.34	37395.91
797.52	37418.44
797.70	37727.68
797.88	37541.32
798.06	37131.72
798.24	37436.87
798.42	36996.56
798.60	36955.60
798.78	36742.61
798.96	36974.03
799.14	36685.26
799.32	36541.91
799.51	36820.43
799.69	36797.90
799.87	36611.54
800.05	36247.00
800.23	36165.08
800.41	36160.98
800.59	36376.02
800.77	36021.72
800.95	35687.90
801.13	35913.18
801.31	35687.90
801.49	35849.69
801.67	35732.96
801.85	35446.24
802.03	35204.58
802.21	35433.96
802.39	35329.51
802.57	35186.15
802.75	35159.53
802.93	35315.17
803.11	34727.41
803.29	34964.97
803.47	34897.39
803.65	34803.18
803.83	34614.77
804.01	34538.99
804.19	34383.35
804.37	34141.69
804.55	34342.39
804.73	34379.25
804.91	34291.19
805.09	34440.69
805.27	34143.74
805.45	34375.16
805.63	33994.23
805.81	34108.92
805.99	33789.44
806.17	33871.36
806.35	33732.09
806.53	33568.26
806.71	33928.70
806.89	33766.91
807.07	33650.17
807.25	33406.47
807.43	33304.07
807.61	33721.85
807.79	33209.86
807.97	33314.31
808.15	33144.33
808.33	32982.54
808.51	32855.56
808.69	33134.09
808.87	32847.37
809.05	32642.57
809.23	32658.96
809.41	32405.01
809.59	32540.18
809.77	32611.85
809.95	32364.05
810.13	32681.49
810.31	32273.94
810.49	32411.15
810.67	32374.29
810.84	32083.48
811.02	32099.86
811.20	31880.73
811.38	31946.26
811.56	31868.44
811.74	31938.07
811.92	31917.59
812.10	31706.65
812.28	31954.46
812.46	31577.63
812.64	31587.87
812.82	31378.98
813.00	31432.22
813.18	31917.59
813.36	31579.68
813.53	31346.21
813.71	31266.34
813.89	31376.93
814.07	31225.38
814.25	31170.08
814.43	31014.44
814.61	30731.82
814.79	30975.53
814.97	30854.70
815.15	31241.76
815.33	30729.77
815.50	30414.38
815.68	30574.13
815.86	30948.90
816.04	30615.08
816.22	30469.68
816.40	30490.16
816.58	30451.25
816.76	30512.69
816.94	30004.79
817.11	30363.18
817.29	30414.38
817.47	30389.81
817.65	29972.02
817.83	30133.81
818.01	29722.17
818.19	29799.99
818.37	29986.36
818.54	30133.81
818.72	29625.92
818.90	29689.40
819.08	29689.40
819.26	29804.09
819.44	29578.81
819.62	29804.09
819.80	29566.52
819.97	29570.62
820.15	29427.26
820.33	29630.01
820.51	29412.93
820.69	29240.90
820.87	29675.07
821.05	29648.44
821.22	29109.83
821.40	29595.20
821.58	29152.84
821.76	29156.93
821.94	29163.08
822.12	29126.21
822.29	29312.58
822.47	29015.62
822.65	29331.01
822.83	29032.00
823.01	28833.35
823.19	28722.76
823.36	28458.57
823.54	28790.34
823.72	28859.98
823.90	28456.53
824.08	28505.68
824.25	28462.67
824.43	28132.95
824.61	28558.92
824.79	28223.06
824.97	28503.63
825.15	28642.89
825.32	28411.47
825.50	28178.00
825.68	28194.39
825.86	28100.18
826.04	28155.47
826.21	28081.75
826.39	28317.26
826.57	27852.38
826.75	27922.01
826.93	28034.64
827.10	27752.02
827.28	28315.22
827.46	27989.59
827.64	27983.44
827.81	27670.11
827.99	27944.53
828.17	27684.44
828.35	27739.74
828.53	28096.08
828.70	27502.17
828.88	27528.80
829.06	27909.72
829.24	27414.11
829.41	27487.84
829.59	27713.11
829.77	27264.61
829.95	27324.00
830.12	27504.22
830.30	27367.01
830.48	27588.19
830.66	27631.19
830.84	27401.82
831.01	27027.04
831.19	27420.25
831.37	27018.85
831.55	27321.95
831.72	27250.27
831.90	27068.00
832.08	27272.80
832.25	27256.42
832.43	26969.70
832.61	27049.57
832.79	26861.16
832.96	26852.97
833.14	27037.28
833.32	27074.15
833.50	27160.16
833.67	26801.77
833.85	26900.07
834.03	26562.15
834.20	27201.12
834.38	26777.19
834.56	26732.14
834.74	26777.19
834.91	26635.88
835.09	26533.48
835.27	26392.17
835.44	26353.26
835.62	26181.23
835.80	26584.68
835.98	26306.16
836.15	26406.51
836.33	26242.67
836.51	26257.01
836.68	26025.59
836.86	26101.36
837.04	26072.69
837.21	26203.76
837.39	26115.70
837.57	25970.29
837.75	26160.75
837.92	25720.44
838.10	25763.45
838.28	25638.52
838.45	25915.00
838.63	25929.33
838.81	25677.43
838.98	25544.31
839.16	25527.93
839.34	25579.13
839.51	25794.17
839.69	25349.76
839.87	25734.78
840.04	25693.82
840.22	25953.91
840.40	25839.22
840.57	25128.58
840.75	25464.44
840.93	25136.77
841.10	25450.11
841.28	25495.16
841.46	25562.75
841.63	25521.79
841.81	25118.34
841.98	25507.45
842.16	25368.19
842.34	25304.70
842.51	25181.82
842.69	25458.30
842.87	25054.85
843.04	25200.26
843.22	25089.67
843.40	24970.88
843.57	25218.69
843.75	25515.64
843.92	25222.78
844.10	24977.03
844.28	25091.71
844.45	25034.37
844.63	24792.71
844.81	24579.72
844.98	24944.26
845.16	24604.30
845.33	24702.60
845.51	24741.51
845.69	24536.71
845.86	24501.90
846.04	24700.55
846.21	24704.65
846.39	24596.10
846.57	24258.19
846.74	24473.23
846.92	24555.15
847.09	24303.25
847.27	24452.75
847.45	24272.53
847.62	24385.16
847.80	24307.34
847.97	24372.88
848.15	24037.01
848.32	24147.60
848.50	24149.65
848.68	24225.42
848.85	24170.13
849.03	23946.90
849.20	24129.17
849.38	23676.57
849.56	24006.29
849.73	23613.08
849.91	23901.84
850.08	23889.56
850.26	23854.74
850.43	23760.53
850.61	23903.89
850.78	23772.82
850.96	23789.20
851.14	23637.66
851.31	23873.17
851.49	23541.40
851.66	23547.54
851.84	23326.36
852.01	23271.07
852.19	23408.28
852.36	23537.30
852.54	23604.89
852.71	23379.61
852.89	23572.12
853.07	23307.93
853.24	23334.56
853.42	23324.32
853.59	23283.36
853.77	23303.84
853.94	23439.00
854.12	23199.39
854.29	23152.29
854.47	23371.42
854.64	23090.85
854.82	22970.02
854.99	23148.19
855.17	23121.57
855.34	22994.59
855.52	23041.70
855.69	22894.24
855.87	22748.84
856.04	22769.32
856.22	22900.39
856.39	22427.31
856.57	22658.73
856.74	22730.41
856.92	22830.76
857.09	22359.72
857.27	22308.52
857.44	22572.71
857.62	22451.88
857.79	22652.58
857.97	22535.85
858.14	22466.22
858.32	22439.59
858.49	22460.07
858.67	22574.76
858.84	22202.03
859.02	22390.44
859.19	22238.89
859.37	22271.66
859.54	22122.16
859.72	22343.34
859.89	22255.28
860.06	22255.28
860.24	21927.60
860.41	22181.55
860.59	21755.57
860.76	22265.52
860.94	21800.63
861.11	22208.17
861.29	21907.12
861.46	21929.65
861.64	21743.28
861.81	21827.25
861.98	21628.60
862.16	21567.16
862.33	21423.80
862.51	21391.03
862.68	21702.32
862.86	21487.29
863.03	21348.03
863.21	21518.01
863.38	21448.38
863.55	21544.63
863.73	21444.28
863.90	21165.76
864.08	21309.11
864.25	21388.99
864.43	21352.12
864.60	21460.66
864.77	20901.57
864.95	21071.55
865.12	20870.85
865.30	20729.54
865.47	21061.31
865.64	21106.37
865.82	21194.43
865.99	21065.41
866.17	21100.22
866.34	20879.04
866.51	20950.72
866.69	20680.39
866.86	20938.43
867.04	20950.72
867.21	20637.38
867.38	20618.95
867.56	20575.94
867.73	20678.34
867.91	20410.06
868.08	20623.05
868.25	20508.36
868.43	20426.44
868.60	20489.93
868.78	20248.27
868.95	20780.74
869.12	20518.60
869.30	20207.31
869.47	20575.94
869.64	20104.91
869.82	20008.65
869.99	19990.22
870.16	20170.44
870.34	20162.25
870.51	20217.55
870.69	19656.40
870.86	19918.54
871.03	19973.84
871.21	19814.10
871.38	19877.58
871.55	19394.26
871.73	19711.70
871.90	19773.14
872.07	19504.85
872.25	19332.82
872.42	19429.08
872.59	19535.57
872.77	19603.16
872.94	19511.00
873.11	19492.57
873.29	19566.29
873.46	19406.55
873.63	19314.39
873.81	19175.13
873.98	19033.82
874.15	19037.92
874.33	18841.31
874.50	18976.48
874.67	18890.46
874.85	19093.21
875.02	18800.35
875.19	18767.59
875.37	18878.18
875.54	18544.36
875.71	18810.59
875.88	18734.82
876.06	18773.73
876.23	18644.71
876.40	18534.12
876.58	18716.39
876.75	18536.17
876.92	18085.61
877.10	18450.15
877.27	18394.86
877.44	18249.45
877.61	17968.88
877.79	18325.22
877.96	18122.48
878.13	18243.31
878.31	18018.03
878.48	18108.14
878.65	17843.95
878.82	17934.06
879.00	17929.97
879.17	18015.98
879.34	18251.50
879.51	17993.45
879.69	17635.06
879.86	17530.61
880.03	17723.12
880.21	17594.10
880.38	17536.76
880.55	17565.43
880.72	17817.33
880.90	17401.59
881.07	17469.17
881.24	17501.94
881.41	17600.24
881.59	17362.68
881.76	17491.70
881.93	17377.01
882.10	17196.79
882.28	17202.94
882.45	17362.68
882.62	17215.23
882.79	17174.27
882.96	17151.74
883.14	17340.15
883.31	17225.47
883.48	17215.23
883.65	17301.24
883.83	17190.65
884.00	17161.98
884.17	17043.20
884.34	17309.43
884.51	17172.22
884.69	17174.27
884.86	17073.92
885.03	16766.72
885.20	16789.25
885.38	16996.09
885.55	16869.12
885.72	16789.25
885.89	17030.91
886.06	16805.63
886.24	16895.74
886.41	16723.71
886.58	16834.30
886.75	17116.92
886.92	16592.64
887.10	16879.36
887.27	16426.76
887.44	16705.28
887.61	16854.78
887.78	16715.52
887.95	16561.92
888.13	16305.93
888.30	16385.80
888.47	16379.65
888.64	16488.20
888.81	16402.18
888.99	16070.41
889.16	16119.56
889.33	16062.22
889.50	15970.06
889.67	16310.02
889.84	16152.33
890.01	16084.75
890.19	16146.19
890.36	15904.53
890.53	15933.20
890.70	16006.92
890.87	15859.47
891.04	15734.54
891.22	15843.09
891.39	15752.98
891.56	15648.53
891.73	15984.40
891.90	15867.66
892.07	15511.32
892.24	15681.30
892.42	15599.38
892.59	15675.15
892.76	15494.93
892.93	15587.09
893.10	15521.56
893.27	15691.54
893.44	15474.45
893.61	15431.44
893.79	15617.81
893.96	15380.25
894.13	15656.72
894.30	15509.27
894.47	15374.10
894.64	15523.60
894.81	15515.41
894.98	15431.44
895.15	15537.94
895.33	15458.07
895.50	15298.33
895.67	15476.50
895.84	15304.47
896.01	15417.11
896.18	15308.57
896.35	15533.84
896.52	15126.30
896.69	15468.31
896.86	15566.61
897.04	15431.44
897.21	15126.30
897.38	15085.34
897.55	15402.77
897.72	15453.97
897.89	15445.78
898.06	15116.06
898.23	15193.88
898.40	15132.44
898.57	15249.18
898.74	15257.37
898.91	15154.97
899.08	15038.23
899.26	15019.80
899.43	15234.84
899.60	15109.91
899.77	15273.75
899.94	15075.10
900.11	14935.84
900.28	15048.47
900.45	15054.62
900.62	15234.84
900.79	15109.91
900.96	15071.00
901.13	15288.09
901.30	15283.99
901.47	15038.23
901.64	15357.72
901.81	15208.22
901.98	15124.25
902.15	15222.55
902.32	15005.47
902.49	15087.39
902.66	15302.42
902.83	15062.81
903.01	14837.53
903.18	15238.94
903.35	15290.13
903.52	15204.12
903.69	15333.14
903.86	15324.95
904.03	15011.61
904.20	15165.21
904.37	15312.66
904.54	14995.23
904.71	15185.69
904.88	15152.92
905.05	15273.75
905.22	15146.78
905.39	14964.51
905.56	15089.43
905.73	14837.53
905.90	15181.59
906.07	15150.87
906.24	15154.97
906.41	15068.95
906.58	14958.36
906.75	14976.80
906.92	14929.69
907.09	15071.00
907.26	15095.58
907.43	14901.02
907.60	15027.99
907.77	15157.02
907.93	15054.62
908.10	15073.05
908.27	14989.08
908.44	15105.82
908.61	14929.69
908.78	14724.90
908.95	14964.51
909.12	15099.67
909.29	14888.73
909.46	14999.32
909.63	14853.92
909.80	14935.84
909.97	14995.23
910.14	14925.60
910.31	14780.19
910.48	15019.80
910.65	14849.82
910.82	14577.44
910.99	14817.05
911.16	14642.98
911.33	14743.33
911.50	14716.70
911.66	14700.32
911.83	14935.84
912.00	14749.47
912.17	14516.00
912.34	14700.32
912.51	14642.98
912.68	14374.69
912.85	14548.77
913.02	14642.98
913.19	14456.61
913.36	14610.21
913.53	14616.35
913.70	14468.90
913.86	14749.47
914.03	14436.13
914.20	14276.39
914.37	14194.47
914.54	14466.85
914.71	14470.95
914.88	14184.23
915.05	14116.65
915.22	14212.90
915.39	14210.86
915.55	14069.55
915.72	13975.34
915.89	14096.17
916.06	14004.01
916.23	13897.52
916.40	13809.45
916.57	13973.29
916.74	14065.45
916.91	13870.89
917.07	14143.27
917.24	13811.50
917.41	13850.41
917.58	13608.75
917.75	13893.42
917.92	13922.09
918.09	13760.30
918.26	13866.80
918.42	13717.29
918.59	13580.08
918.76	13555.51
918.93	13406.00
919.10	13387.57
919.27	13479.73
919.44	13565.74
919.60	13446.96
919.77	13453.11
919.94	13410.10
920.11	13309.75
920.28	13295.41
920.45	13174.58
920.61	13037.37
920.78	13133.62
920.95	13113.14
921.12	13168.44
921.29	13127.48
921.46	12930.87
921.62	12810.04
921.79	12926.78
921.96	12916.54
922.13	12842.81
922.30	12959.55
922.47	12615.49
922.63	12668.73
922.80	12486.47
922.97	12437.31
923.14	12336.96
923.31	12848.96
923.47	12418.88
923.64	12529.47
923.81	12291.91
923.98	12627.78
924.15	12226.37
924.32	12414.79
924.48	12377.92
924.65	12267.33
924.82	12214.09
924.99	12054.34
925.15	11915.08
925.32	12128.07
925.49	11714.38
925.66	11820.88
925.83	11804.49
925.99	11659.09
926.16	11738.96
926.33	11999.05
926.50	11642.70
926.67	11857.74
926.83	11695.95
927.00	11614.03
927.17	11540.30
927.34	11251.54
927.50	11421.52
927.67	11726.67
927.84	11370.32
928.01	11423.57
928.17	11224.92
928.34	11102.04
928.51	11267.92
928.68	11050.84
928.84	10948.44
929.01	11026.26
929.18	10872.67
929.35	10829.66
929.51	10989.40
929.68	10739.55
929.85	10669.92
930.02	10839.90
930.18	10725.21
930.35	10766.17
930.52	10504.03
930.69	10551.14
930.85	10739.55
931.02	10401.63
931.19	10358.63
931.36	10360.67
931.52	10450.78
931.69	10389.35
931.86	10225.51
932.02	10276.71
932.19	10225.51
932.36	10186.60
932.53	10100.58
932.69	10084.20
932.86	10102.63
933.03	9961.32
933.19	9809.77
933.36	9992.04
933.53	9944.94
933.70	9770.86
933.86	9805.67
934.03	9869.16
934.20	9506.67
934.36	9824.11
934.53	9541.49
934.70	9463.66
934.86	9340.79
935.03	9230.20
935.20	9410.42
935.36	9207.67
935.53	9064.31
935.70	8990.58
935.86	9074.55
936.03	8849.27
936.20	8753.02
936.36	8740.73
936.53	8777.59
936.70	8816.51
936.86	8783.74
937.03	8626.04
937.20	8468.35
937.36	8404.86
937.53	8017.80
937.70	8146.82
937.86	8091.52
938.03	8087.43
938.20	8161.16
938.36	7804.81
938.53	7813.00
938.70	7669.64
938.86	7675.79
939.03	7532.43
939.20	7391.12
939.36	7356.30
939.53	7360.40
939.70	7372.69
939.86	7180.18
940.03	6946.71
940.19	7024.53
940.36	6915.99
940.53	6940.57
940.69	6801.30
940.86	6764.44
941.03	6659.99
941.19	6434.72
941.36	6598.56
941.52	6496.16
941.69	6401.95
941.86	6258.59
942.02	6315.94
942.19	6188.96
942.35	6145.95
942.52	6014.88
942.69	5959.59
942.85	5924.77
943.02	5932.97
943.18	5992.36
943.35	5902.25
943.52	5838.76
943.68	5851.05
943.85	5771.18
944.01	5709.74
944.18	5599.15
944.35	5803.94
944.51	5629.87
944.68	5574.57
944.84	5615.53
945.01	5451.69
945.17	5672.87
945.34	5463.98
945.51	5537.71
945.67	5650.35
945.84	5468.08
946.00	5386.16
946.17	5494.70
946.33	5257.14
946.50	5488.56
946.67	5484.46
946.83	5412.78
947.00	5570.48
947.16	5398.45
947.33	5410.73
947.49	5451.69
947.66	5330.86
947.82	5541.80
947.99	5300.14
948.16	5375.92
948.32	5250.99
948.49	5466.03
948.65	5400.49
948.82	5453.74
948.98	5283.76
949.15	5220.27
949.31	5380.01
949.48	5492.65
949.64	5564.33
949.81	5328.81
949.97	5351.34
950.14	5318.57
950.30	5269.42
950.47	5423.02
950.63	5455.79
950.80	5357.49
950.96	5380.01
951.13	5601.19
951.30	5564.33
951.46	5457.84
951.63	5529.52
951.79	5414.83
951.96	5506.99
952.12	5562.28
952.29	5443.50
952.45	5463.98
952.62	5566.38
952.78	5578.67
952.94	5603.24
953.11	5529.52
953.27	5345.20
953.44	5609.39
953.60	5459.88
953.77	5582.76
953.93	5521.32
954.10	5543.85
954.26	5404.59
954.43	5459.88
954.59	5627.82
954.76	5603.24
954.92	5584.81
955.09	5697.45
955.25	5654.44
955.42	5459.88
955.58	5572.52
955.75	5570.48
955.91	5517.23
956.07	5480.36
956.24	5654.44
956.40	5672.87
956.57	5644.20
956.73	5601.19
956.90	5515.18
957.06	5474.22
957.23	5568.43
957.39	5380.01
957.56	5648.30
957.72	5664.68
957.88	5533.61
958.05	5642.15
958.21	5638.06
958.38	5640.11
958.54	5623.72
958.71	5582.76
958.87	5586.86
959.03	5580.71
959.20	5588.91
959.36	5478.32
959.53	5441.45
959.69	5576.62
959.85	5648.30
960.02	5463.98
960.18	5568.43
960.35	5629.87
960.51	5537.71
960.68	5498.80
960.84	5513.13
961.00	5564.33
961.17	5506.99
961.33	5556.14
961.50	5431.21
961.66	5617.58
961.82	5459.88
961.99	5574.57
962.15	5539.76
962.31	5418.93
962.48	5625.77
962.64	5496.75
962.81	5525.42
962.97	5603.24
963.13	5717.93
963.30	5470.12
963.46	5502.89
963.62	5511.08
963.79	5425.07
963.95	5369.77
964.12	5459.88
964.28	5423.02
964.44	5371.82
964.61	5558.19
964.77	5562.28
964.93	5615.53
965.10	5353.39
965.26	5396.40
965.42	5427.12
965.59	5492.65
965.75	5357.49
965.92	5418.93
966.08	5445.55
966.24	5414.83
966.41	5390.25
966.57	5402.54
966.73	5420.97
966.90	5480.36
967.06	5334.96
967.22	5361.58
967.39	5365.68
967.55	5341.10
967.71	5330.86
967.88	5203.89
968.04	5406.64
968.20	5271.47
968.37	5146.55
968.53	5263.28
968.69	5316.53
968.85	5418.93
969.02	5187.50
969.18	5314.48
969.34	5318.57
969.51	5281.71
969.67	5433.26
969.83	5042.10
970.00	5386.16
970.16	5099.44
970.32	5173.17
970.48	5326.77
970.65	5091.25
970.81	5066.67
970.97	5154.74
971.14	5044.15
971.30	5193.65
971.46	4995.00
971.63	5074.87
971.79	5140.40
971.95	5150.64
972.11	4958.13
972.28	4968.37
972.44	5091.25
972.60	4951.99
972.76	5103.54
972.93	4951.99
973.09	5058.48
973.25	4997.04
973.42	4898.74
973.58	5015.48
973.74	5087.15
973.90	4968.37
974.07	4931.51
974.23	4978.61
974.39	4935.60
974.55	5050.29
974.72	4919.22
974.88	4812.73
975.04	4870.07
975.20	4931.51
975.37	4880.31
975.53	4868.02
975.69	4816.82
975.85	4784.06
976.01	4751.29
976.18	4894.65
976.34	4853.69
976.50	4782.01
976.66	4802.49
976.83	4865.97
976.99	4734.90
977.15	4640.70
977.31	4626.36
977.47	4822.97
977.64	4663.22
977.80	4566.97
977.96	4695.99
978.12	4757.43
978.29	4640.70
978.45	4554.68
978.61	4693.94
978.77	4550.59
978.93	4526.01
979.10	4579.26
979.26	4628.41
979.42	4544.44
979.58	4466.62
979.74	4417.47
979.91	4501.44
980.07	4493.24
980.23	4505.53
980.39	4501.44
980.55	4503.48
980.71	4446.14
980.88	4517.82
981.04	4466.62
981.20	4442.04
981.36	4435.90
981.52	4460.48
981.68	4386.75
981.85	4351.93
982.01	4378.56
982.17	4290.49
982.33	4296.64
982.49	4515.77
982.65	4272.06
982.82	4360.13
982.98	4267.97
983.14	4241.34
983.30	4411.32
983.46	4384.70
983.62	4349.89
983.79	4220.86
983.95	4198.34
984.11	4239.30
984.27	4292.54
984.43	4204.48
984.59	4202.43
984.75	4370.37
984.91	4204.48
985.08	4253.63
985.24	4130.75
985.40	4007.87
985.56	4167.62
985.72	4130.75
985.88	4163.52
986.04	3985.35
986.20	4061.12
986.37	4018.11
986.53	4120.51
986.69	4114.37
986.85	4122.56
987.01	4100.03
987.17	4147.14
987.33	4005.83
987.49	4036.55
987.65	4036.55
987.82	4143.04
987.98	3964.87
988.14	4067.27
988.30	4014.02
988.46	3946.44
988.62	4040.64
988.78	4071.36
988.94	3905.48
989.10	3829.70
989.26	3796.93
989.42	3921.86
989.59	3780.55
989.75	3811.27
989.91	3917.76
990.07	3739.59
990.23	3819.46
990.39	3880.90
990.55	3899.33
990.71	3852.23
990.87	3751.88
991.03	3829.70
991.19	3737.54
991.35	3798.98
991.51	3737.54
991.67	3856.33
991.83	3821.51
992.00	3762.12
992.16	3895.24
992.32	3762.12
992.48	3731.40
992.64	3645.38
992.80	3692.49
992.96	3688.39
993.12	3653.58
993.28	3663.82
993.44	3655.62
993.60	3641.29
993.76	3649.48
993.92	3682.25
994.08	3674.06
994.24	3708.87
994.40	3577.80
994.56	3624.90
994.72	3577.80
994.88	3631.05
995.04	3559.37
995.20	3499.98
995.36	3524.55
995.52	3553.23
995.68	3583.95
995.84	3469.26
996.00	3598.28
996.16	3518.41
996.32	3481.55
996.48	3450.83
996.64	3596.23
996.80	3362.76
996.96	3383.24
997.12	3381.20
997.28	3358.67
997.44	3303.37
997.60	3395.53
997.76	3409.87
997.92	3436.49
998.08	3387.34
998.24	3344.33
998.40	3377.10
998.56	3364.81
998.72	3321.81
998.88	3299.28
999.04	3268.56
999.20	3416.01
999.36	3344.33
999.52	3377.10
999.68	3340.24
999.84	3256.27
1000.00	3250.13
1000.16	3336.14
1000.32	3256.27
1000.48	3346.38
1000.64	3203.02
1000.80	3248.08
1000.95	3153.87
1001.11	3264.46
1001.27	2981.84
1001.43	3293.13
1001.59	3151.82
1001.75	3043.28
1001.91	3268.56
1002.07	3096.53
1002.23	3141.58
1002.39	3139.54
1002.55	3129.30
1002.71	3102.67
1002.87	3088.34
1003.03	3061.71
1003.19	3117.01
1003.34	3145.68
1003.50	3004.37
1003.66	3172.30
1003.82	3108.82
1003.98	3076.05
1004.14	3026.90
1004.30	3053.52
1004.46	3008.47
1004.62	3055.57
1004.78	2947.03
1004.94	3084.24
1005.09	3082.19
1005.25	3026.90
1005.41	2994.13
1005.57	2910.16
1005.73	2875.35
1005.89	2854.87
1006.05	3022.80
1006.21	3035.09
1006.37	2826.20
1006.52	2912.21
1006.68	2838.48
1006.84	2963.41
1007.00	2879.44
1007.16	2858.96
1007.32	2904.02
1007.48	2842.58
1007.64	2875.35
1007.79	2834.39
1007.95	2830.29
1008.11	2967.51
1008.27	2770.90
1008.43	2779.09
1008.59	2858.96
1008.75	2867.16
1008.91	2785.24
1009.06	2756.57
1009.22	2740.18
1009.38	2834.39
1009.54	2740.18
1009.70	2736.09
1009.86	2740.18
1010.01	2818.00
1010.17	2713.56
1010.33	2797.53
1010.49	2658.26
1010.65	2719.70
1010.81	2660.31
1010.96	2664.41
1011.12	2713.56
1011.28	2623.45
1011.44	2787.29
1011.60	2609.11
1011.76	2643.93
1011.91	2691.03
1012.07	2525.15
1012.23	2568.15
1012.39	2562.01
1012.55	2576.34
1012.71	2547.67
1012.86	2600.92
1013.02	2617.30
1013.18	2594.78
1013.34	2584.54
1013.50	2639.83
1013.65	2555.86
1013.81	2486.23
1013.97	2478.04
1014.13	2584.54
1014.29	2469.85
1014.44	2637.78
1014.60	2484.19
1014.76	2486.23
1014.92	2459.61
1015.07	2475.99
1015.23	2566.10
1015.39	2428.89
1015.55	2516.95
1015.71	2516.95
1015.86	2463.71
1016.02	2447.32
1016.18	2402.27
1016.34	2435.03
1016.49	2441.18
1016.65	2459.61
1016.81	2408.41
1016.97	2369.50
1017.12	2437.08
1017.28	2457.56
1017.44	2248.67
1017.60	2330.59
1017.75	2336.73
1017.91	2369.50
1018.07	2506.71
1018.23	2369.50
1018.38	2326.49
1018.54	2269.15
1018.70	2301.92
1018.86	2349.02
1019.01	2310.11
1019.17	2344.92
1019.33	2480.09
1019.49	2297.82
1019.64	2295.77
1019.80	2289.63
1019.96	2303.96
1020.12	2363.36
1020.27	2242.53
1020.43	2230.24
1020.59	2228.19
1020.74	2308.06
1020.90	2246.62
1021.06	2142.18
1021.22	2222.05
1021.37	2154.46
1021.53	2160.61
1021.69	2220.00
1021.84	2105.31
1022.00	2148.32
1022.16	2199.52
1022.31	2164.70
1022.47	2222.05
1022.63	2107.36
1022.79	2136.03
1022.94	2154.46
1023.10	2303.96
1023.26	2156.51
1023.41	2090.98
1023.57	2037.73
1023.73	2101.22
1023.88	2029.54
1024.04	2047.97
1024.20	2125.79
1024.35	2125.79
1024.51	2148.32
1024.67	2140.13
1024.82	2146.27
1024.98	1951.71
1025.14	2097.12
1025.29	2007.01
1025.45	2031.58
1025.61	2002.91
1025.76	2009.06
1025.92	1994.72
1026.08	2058.21
1026.23	2082.78
1026.39	1994.72
1026.55	2029.54
1026.70	2004.96
1026.86	2054.11
1027.02	1998.82
1027.17	2088.93
1027.33	1937.38
1027.48	1929.19
1027.64	2013.15
1027.80	1953.76
1027.95	1961.95
1028.11	1896.42
1028.27	1953.76
1028.42	2043.87
1028.58	1904.61
1028.73	1933.28
1028.89	1888.23
1029.05	2033.63
1029.20	1869.80
>>>>>End Processed Spectral Data<<<<<
