SpectraSuite Data File
++++++++++++++++++++++++++++++++++++
Date: Fri Jun 02 14:44:37 CEST 2017
User: INFO_000
Dark Spectrum Present: No
Reference Spectrum Present: No
Number of Sampled Component Spectra: 1
Spectrometers: USB4H00879
Integration Time (usec): 80000 (USB4H00879)
Spectra Averaged: 1 (USB4H00879)
Boxcar Smoothing: 0 (USB4H00879)
Correct for Electrical Dark: No (USB4H00879)
Strobe/Lamp Enabled: No (USB4H00879)
Correct for Detector Non-linearity: No (USB4H00879)
Correct for Stray Light: No (USB4H00879)
Number of Pixels in Processed Spectrum: 3648
>>>>>Begin Processed Spectral Data<<<<<
345.13	1275.88
345.34	1275.88
345.56	1275.88
345.78	1263.60
345.99	1224.69
346.21	1609.70
346.42	1669.09
346.64	1617.90
346.86	1703.91
347.07	1603.56
347.29	1744.87
347.50	1574.89
347.72	1689.57
347.94	1687.53
348.15	1566.70
348.37	1615.85
348.59	1714.15
348.80	1630.18
349.02	1808.36
349.23	1824.74
349.45	1771.49
349.67	1855.46
349.88	1785.83
350.10	1896.42
350.31	1847.27
350.53	1845.22
350.75	2007.01
350.96	1822.69
351.18	1867.75
351.39	1867.75
351.61	1789.92
351.82	1906.66
352.04	1935.33
352.26	1748.97
352.47	1957.86
352.69	1972.19
352.90	1794.02
353.12	1896.42
353.34	1855.46
353.55	1976.29
353.77	1945.57
353.98	1814.50
354.20	1847.27
354.41	1875.94
354.63	1908.71
354.85	2074.59
355.06	1961.95
355.28	1767.40
355.49	1884.13
355.71	1916.90
355.92	1865.70
356.14	1937.38
356.35	1832.93
356.57	1886.18
356.79	1939.43
357.00	1873.89
357.22	1910.75
357.43	1867.75
357.65	1972.19
357.86	1791.97
358.08	1951.71
358.29	1953.76
358.51	2023.39
358.72	2066.40
358.94	1920.99
359.16	1920.99
359.37	1972.19
359.59	1882.08
359.80	2019.30
360.02	2004.96
360.23	1906.66
360.45	1957.86
360.66	1880.04
360.88	1888.23
361.09	1888.23
361.31	1927.14
361.52	1972.19
361.74	2076.64
361.95	2095.07
362.17	1986.53
362.38	2142.18
362.60	2058.21
362.81	2056.16
363.03	1920.99
363.24	1998.82
363.46	2066.40
363.67	2062.30
363.89	2086.88
364.10	2013.15
364.32	1953.76
364.53	2095.07
364.75	1880.04
364.96	2031.58
365.18	1941.47
365.39	1994.72
365.61	1910.75
365.82	2072.54
366.04	1994.72
366.25	1978.34
366.47	2078.69
366.68	1986.53
366.90	1988.58
367.11	2090.98
367.33	2027.49
367.54	1974.24
367.76	2000.87
367.97	2093.02
368.19	2019.30
368.40	2109.41
368.62	2029.54
368.83	2025.44
369.05	1986.53
369.26	1982.43
369.48	1974.24
369.69	1986.53
369.91	2058.21
370.12	2082.78
370.33	2095.07
370.55	2023.39
370.76	1966.05
370.98	2068.45
371.19	2045.92
371.41	2060.26
371.62	2039.78
371.84	1994.72
372.05	2228.19
372.27	2123.74
372.48	2041.82
372.69	2078.69
372.91	2191.33
373.12	2203.61
373.34	2093.02
373.55	2189.28
373.77	2070.50
373.98	2097.12
374.20	2195.42
374.41	2205.66
374.62	2074.59
374.84	2160.61
375.05	2140.13
375.27	2150.37
375.48	2117.60
375.70	2103.26
375.91	2197.47
376.12	2260.96
376.34	2144.22
376.55	2246.62
376.77	2224.09
376.98	2142.18
377.19	2123.74
377.41	2133.98
377.62	2093.02
377.84	2269.15
378.05	2340.83
378.27	2138.08
378.48	2283.49
378.69	2430.94
378.91	2299.87
379.12	2256.86
379.34	2260.96
379.55	2287.58
379.76	2234.33
379.98	2224.09
380.19	2285.53
380.41	2201.57
380.62	2387.93
380.83	2273.25
381.05	2158.56
381.26	2441.18
381.47	2203.61
381.69	2248.67
381.90	2418.65
382.12	2265.05
382.33	2246.62
382.54	2308.06
382.76	2318.30
382.97	2338.78
383.19	2320.35
383.40	2402.27
383.61	2334.68
383.83	2263.01
384.04	2246.62
384.25	2361.31
384.47	2432.99
384.68	2482.14
384.89	2379.74
385.11	2295.77
385.32	2400.22
385.54	2385.88
385.75	2359.26
385.96	2392.03
386.18	2410.46
386.39	2416.60
386.60	2398.17
386.82	2351.07
387.03	2373.60
387.24	2414.56
387.46	2516.95
387.67	2453.47
387.88	2490.33
388.10	2473.95
388.31	2570.20
388.52	2559.96
388.74	2537.43
388.95	2535.39
389.16	2564.06
389.38	2570.20
389.59	2535.39
389.80	2650.07
390.02	2521.05
390.23	2541.53
390.44	2625.50
390.66	2635.74
390.87	2555.86
391.08	2510.81
391.30	2648.02
391.51	2625.50
391.72	2666.46
391.94	2674.65
392.15	2711.51
392.36	2645.98
392.58	2508.76
392.79	2635.74
393.00	2662.36
393.22	2693.08
393.43	2770.90
393.64	2717.65
393.85	2727.89
394.07	2729.94
394.28	2740.18
394.49	2795.48
394.71	2772.95
394.92	2850.77
395.13	2795.48
395.35	2738.13
395.56	2738.13
395.77	2762.71
395.98	2787.29
396.20	2846.68
396.41	2869.20
396.62	2967.51
396.84	2781.14
397.05	2867.16
397.26	2789.33
397.47	2953.17
397.69	2834.39
397.90	3084.24
398.11	2809.81
398.32	2930.64
398.54	2883.54
398.75	2895.83
398.96	2926.55
399.18	2983.89
399.39	2944.98
399.60	3014.61
399.81	2918.36
400.03	2875.35
400.24	3231.69
400.45	3047.38
400.66	3035.09
400.88	2998.23
401.09	3110.86
401.30	3100.62
401.51	3188.69
401.73	3094.48
401.94	3178.45
402.15	3198.93
402.36	3057.62
402.58	3125.20
402.79	3237.84
403.00	3227.60
403.21	3200.98
403.43	3231.69
403.64	3262.41
403.85	3186.64
404.06	3270.61
404.27	3164.11
404.49	3149.78
404.70	3241.93
404.91	3248.08
405.12	3299.28
405.34	3321.81
405.55	3370.96
405.76	3164.11
405.97	3237.84
406.19	3258.32
406.40	3190.74
406.61	3315.66
406.82	3346.38
407.03	3332.05
407.25	3370.96
407.46	3454.92
407.67	3362.76
407.88	3418.06
408.09	3428.30
408.31	3446.73
408.52	3387.34
408.73	3420.11
408.94	3282.89
409.15	3538.89
409.37	3633.10
409.58	3575.75
409.79	3571.66
410.00	3588.04
410.21	3399.63
410.43	3489.74
410.64	3436.49
410.85	3471.31
411.06	3571.66
411.27	3575.75
411.48	3649.48
411.70	3489.74
411.91	3610.57
412.12	3549.13
412.33	3688.39
412.54	3647.43
412.76	3819.46
412.97	3700.68
413.18	3676.10
413.39	3674.06
413.60	3614.66
413.81	3637.19
414.03	3712.97
414.24	3608.52
414.45	3753.93
414.66	3606.47
414.87	3911.62
415.08	3690.44
415.30	3590.09
415.51	3776.45
415.72	3809.22
415.93	3856.33
416.14	3880.90
416.35	3923.91
416.56	3870.66
416.78	3819.46
416.99	3928.00
417.20	3852.23
417.41	3936.20
417.62	3862.47
417.83	3932.10
418.04	4026.31
418.26	3973.06
418.47	3893.19
418.68	3923.91
418.89	4034.50
419.10	4110.27
419.31	4016.07
419.52	4040.64
419.73	4120.51
419.95	4104.13
420.16	4038.59
420.37	4048.83
420.58	4153.28
420.79	4022.21
421.00	4009.92
421.21	4222.91
421.42	4095.94
421.63	4206.53
421.85	4194.24
422.06	4227.01
422.27	4194.24
422.48	4050.88
422.69	4290.49
422.90	4304.83
423.11	4198.34
423.32	4220.86
423.53	4323.26
423.75	4310.97
423.96	4364.22
424.17	4353.98
424.38	4415.42
424.59	4554.68
424.80	4607.93
425.01	4476.86
425.22	4401.08
425.43	4394.94
425.64	4603.83
425.85	4620.22
426.06	4646.84
426.28	4507.58
426.49	4419.52
426.70	4542.39
426.91	4571.07
427.12	4599.74
427.33	4599.74
427.54	4702.14
427.75	4665.27
427.96	4884.41
428.17	4796.34
428.38	4878.26
428.59	5015.48
428.80	4831.16
429.01	4833.21
429.23	4771.77
429.44	5005.24
429.65	4964.28
429.86	4937.65
430.07	4933.56
430.28	4913.08
430.49	5095.35
430.70	5152.69
430.91	5175.22
431.12	4939.70
431.33	5083.06
431.54	5179.31
431.75	5162.93
431.96	5228.46
432.17	5347.25
432.38	5085.11
432.59	5486.51
432.80	5337.01
433.01	5197.74
433.22	5472.17
433.43	5423.02
433.64	5330.86
433.85	5312.43
434.06	5433.26
434.27	5302.19
434.49	5537.71
434.70	5560.24
434.91	5521.32
435.12	5713.83
435.33	5556.14
435.54	5582.76
435.75	5330.86
435.96	5738.41
436.17	5396.40
436.38	5752.74
436.59	5783.46
436.80	5611.43
437.01	5789.61
437.22	5826.47
437.43	5758.89
437.64	5582.76
437.85	5838.76
438.06	5846.95
438.27	5722.02
438.48	5742.50
438.69	5849.00
438.90	5816.23
439.11	5805.99
439.32	5935.01
439.53	5902.25
439.74	5973.92
439.95	5988.26
440.16	5984.16
440.37	5984.16
440.57	5922.73
440.78	5939.11
440.99	6186.91
441.20	6002.60
441.41	5894.05
441.62	6074.28
441.83	5867.43
442.04	6090.66
442.25	6152.10
442.46	6098.85
442.67	6309.79
442.88	6578.08
443.09	6045.60
443.30	6311.84
443.51	6227.87
443.72	6475.68
443.93	6176.67
444.14	6551.45
444.35	6051.75
444.56	6356.90
444.77	6260.64
444.98	6485.92
445.19	6465.44
445.40	6317.98
445.61	6453.15
445.81	6612.89
446.02	6469.53
446.23	6387.61
446.44	6436.77
446.65	6514.59
446.86	6490.01
447.07	6641.56
447.28	6760.34
447.49	6623.13
447.70	6727.58
447.91	6565.79
448.12	6717.34
448.33	6752.15
448.54	6766.49
448.74	6717.34
448.95	6746.01
449.16	6729.63
449.37	6940.57
449.58	6815.64
449.79	7020.44
450.00	6944.66
450.21	7002.01
450.42	7055.25
450.63	6967.19
450.84	6838.17
451.05	7106.45
451.25	6973.33
451.46	6858.65
451.67	7274.38
451.88	7247.76
452.09	7182.23
452.30	7143.32
452.51	6989.72
452.72	7346.06
452.93	7524.24
453.13	7247.76
453.34	7331.73
453.55	7382.93
453.76	7227.28
453.97	7540.62
454.18	7444.37
454.39	7483.28
454.60	7483.28
454.81	7688.07
455.01	7583.63
455.22	7255.95
455.43	7694.22
455.64	7724.94
455.85	7901.06
456.06	8023.94
456.27	7860.10
456.48	7761.80
456.68	7716.75
456.89	7935.88
457.10	8030.09
457.31	8050.57
457.52	8007.56
457.73	8109.96
457.94	8212.35
458.14	7802.76
458.35	8517.50
458.56	8230.79
458.77	8243.07
458.98	8372.10
459.19	8441.73
459.39	8527.74
459.60	8515.45
459.81	8456.06
460.02	8650.62
460.23	8599.42
460.44	8853.37
460.65	8738.68
460.85	8705.92
461.06	8761.21
461.27	8617.85
461.48	9039.73
461.69	9006.97
461.89	8646.52
462.10	8982.39
462.31	8822.65
462.52	8783.74
462.73	9101.17
462.94	9164.66
463.14	9269.11
463.35	8963.96
463.56	9764.72
463.77	9566.06
463.98	9316.21
464.18	9551.73
464.39	9482.10
464.60	9903.98
464.81	9729.90
465.02	9785.19
465.23	9908.07
465.43	9686.89
465.64	10096.49
465.85	10014.57
466.06	9840.49
466.27	10182.50
466.47	10258.28
466.68	10332.00
466.89	10108.77
467.10	10487.65
467.30	10231.65
467.51	10336.10
467.72	10569.57
467.93	10370.91
468.14	10665.82
468.34	10702.68
468.55	10753.88
468.76	10925.91
468.97	10571.61
469.17	11034.46
469.38	10991.45
469.59	11194.20
469.80	10846.04
470.01	10790.75
470.21	11259.73
470.42	11374.42
470.63	11442.00
470.84	11396.95
471.04	11591.50
471.25	11732.81
471.46	11331.41
471.67	12072.78
471.87	11677.52
472.08	11822.92
472.29	12095.30
472.50	11763.53
472.70	11738.96
472.91	11980.62
473.12	12175.17
473.33	12031.82
473.53	12224.33
473.74	12105.54
473.95	12304.20
474.16	12382.02
474.36	12441.41
474.57	12783.42
474.78	12881.72
474.99	12709.69
475.19	12650.30
475.40	13307.70
475.61	13049.66
475.81	13242.17
476.02	13332.28
476.23	13104.95
476.44	13426.48
476.64	13406.00
476.85	13729.58
477.06	13680.43
477.27	13922.09
477.47	13788.97
477.68	13924.14
477.89	14010.15
478.09	13909.80
478.30	14167.85
478.51	14106.41
478.71	14303.01
478.92	14489.38
479.13	14602.02
479.34	14612.26
479.54	14546.72
479.75	14552.87
479.96	14630.69
480.16	14952.22
480.37	14911.26
480.58	14962.46
480.78	15322.90
480.99	15134.49
481.20	15349.53
481.41	15470.36
481.61	15535.89
481.82	15691.54
482.03	15826.70
482.23	15738.64
482.44	15937.29
482.65	16199.43
482.85	16107.27
483.06	16140.04
483.27	16054.03
483.47	16125.71
483.68	16576.26
483.89	16514.82
484.09	16353.03
484.30	16647.94
484.51	16721.66
484.71	17043.20
484.92	16705.28
485.13	17086.20
485.33	17075.96
485.54	17002.24
485.75	17172.22
485.95	17356.54
486.16	17534.71
486.37	17598.20
486.57	17821.42
486.78	17743.60
486.98	17829.62
487.19	17706.74
487.40	17934.06
487.60	17833.71
487.81	18073.32
488.02	18159.34
488.22	18171.63
488.43	18183.91
488.64	18319.08
488.84	18743.01
489.05	18839.26
489.25	18652.90
489.46	19066.59
489.67	18712.29
489.87	19023.58
490.08	19113.69
490.29	18935.52
490.49	19461.85
490.70	19488.47
490.90	19795.67
491.11	19664.60
491.32	19500.76
491.52	19646.16
491.73	19791.57
491.94	19953.36
492.14	19853.01
492.35	20448.97
492.55	20334.28
492.76	20430.54
492.97	20422.34
493.17	20854.47
493.38	20453.06
493.58	20876.99
493.79	20997.82
494.00	20856.51
494.20	20715.20
494.41	21235.39
494.61	21214.91
494.82	21280.44
495.02	21305.02
495.23	21593.78
495.44	21798.58
495.64	21647.03
495.85	21804.72
496.05	21847.73
496.26	21823.16
496.47	22208.17
496.67	21997.23
496.88	22329.00
497.08	22183.60
497.29	22449.83
497.49	22390.44
497.70	22646.44
497.91	22380.20
498.11	22671.01
498.32	22464.17
498.52	22689.45
498.73	23004.83
498.93	23039.65
499.14	23293.60
499.34	23287.45
499.55	23727.77
499.76	23482.01
499.96	23570.07
500.17	23680.66
500.37	23584.41
500.58	23658.14
500.78	23594.65
500.99	24043.15
501.19	23969.43
501.40	24086.16
501.60	24155.79
501.81	24223.37
502.02	24151.70
502.22	23754.39
502.43	24069.78
502.63	24542.86
502.84	24721.03
503.04	24802.95
503.25	24505.99
503.45	24966.79
503.66	24825.48
503.86	24860.29
504.07	25202.30
504.27	24907.40
504.48	25339.52
504.68	25259.65
504.89	25441.92
505.09	25419.39
505.30	25364.09
505.50	25751.16
505.71	25730.68
505.91	25183.87
506.12	25763.45
506.32	25511.55
506.53	26009.20
506.73	25765.49
506.94	26001.01
507.14	26125.94
507.35	26148.46
507.55	26375.79
507.76	25984.63
507.96	25833.08
508.17	26146.42
508.37	26211.95
508.58	26584.68
508.78	26625.64
508.99	26644.07
509.19	26531.44
509.40	26615.40
509.60	26570.35
509.81	26889.83
510.01	26613.35
510.22	26883.69
510.42	26852.97
510.63	26818.15
510.83	26742.38
511.04	26615.40
511.24	27154.02
511.44	26887.78
511.65	27225.70
511.85	26943.08
512.06	27461.21
512.26	27545.18
512.47	27414.11
512.67	27422.30
512.88	27301.47
513.08	27162.21
513.29	27827.80
513.49	27577.95
513.69	27444.83
513.90	27786.84
514.10	27758.17
514.31	27799.13
514.51	27709.02
514.72	27885.14
514.92	27858.52
515.13	27922.01
515.33	27879.00
515.53	27977.30
515.74	28102.23
515.94	28069.46
516.15	28290.64
516.35	27915.86
516.56	28182.10
516.76	28483.15
516.96	28247.63
517.17	28255.82
517.37	28354.13
517.58	28132.95
517.78	28460.62
517.99	28552.78
518.19	28972.61
518.39	28747.34
518.60	28862.02
518.80	28679.75
519.01	29095.49
519.21	28829.26
519.41	28855.88
519.62	28626.51
519.82	29392.45
520.03	29277.76
520.23	29085.25
520.43	29277.76
520.64	29355.58
520.84	29197.89
521.05	29204.03
521.25	29742.65
521.45	29466.17
521.66	29914.68
521.86	29609.53
522.07	29699.64
522.27	29812.28
522.47	29607.48
522.68	29929.02
522.88	29955.64
523.08	30359.09
523.29	30174.77
523.49	30414.38
523.70	30502.45
523.90	30414.38
524.10	30467.63
524.31	30844.46
524.51	30295.60
524.71	30776.87
524.92	30594.61
525.12	31159.84
525.33	30656.04
525.53	31100.45
525.73	31413.79
525.94	31430.18
526.14	31256.10
526.34	31194.66
526.55	31309.35
526.75	31198.76
526.95	31508.00
527.16	31430.18
527.36	31413.79
527.56	31559.20
527.77	31897.11
527.97	31790.62
528.17	31585.82
528.38	32218.64
528.58	32212.50
528.78	32353.81
528.99	32417.30
529.19	32601.61
529.39	32204.31
529.60	32919.05
529.80	32622.09
530.00	32638.48
530.21	32863.75
530.41	32798.22
530.61	32710.16
530.82	33302.02
531.02	32742.92
531.22	33428.99
531.43	33809.92
531.63	33467.91
531.83	33545.73
532.04	33920.51
532.24	33582.59
532.44	34270.71
532.64	33918.46
532.85	34375.16
533.05	34072.06
533.25	34428.40
533.46	34330.10
533.66	34938.35
533.86	34473.46
534.07	34838.00
534.27	34289.14
534.47	35120.62
534.67	35341.80
534.88	35212.77
535.08	35042.79
535.28	35704.29
535.49	35818.97
535.69	35618.27
535.89	35436.00
536.09	36005.34
536.30	35571.17
536.50	35945.95
536.70	36269.53
536.91	36169.18
537.11	36359.64
537.31	36552.15
537.51	36339.16
537.72	36484.56
537.92	36871.63
538.12	36797.90
538.32	36621.78
538.53	37082.57
538.73	37027.28
538.93	36758.99
539.13	37291.46
539.34	37459.40
539.54	37019.08
539.74	37676.48
539.94	37612.99
540.15	37590.47
540.35	37635.52
540.55	37795.26
540.75	38170.04
540.96	37770.69
541.16	37950.91
541.36	37838.27
541.56	38127.03
541.77	38514.10
541.97	38200.76
542.17	38483.38
542.37	38634.93
542.58	39009.71
542.78	38655.41
542.98	38432.18
543.18	39075.24
543.38	39396.77
543.59	39476.65
543.79	39065.00
543.99	39347.62
544.19	39593.38
544.40	39241.13
544.60	39701.92
544.80	39161.26
545.00	39861.66
545.20	39830.94
545.41	39583.14
545.61	39929.25
545.81	40058.27
546.01	40383.90
546.21	40404.38
546.42	39994.78
546.62	40316.31
546.82	40103.32
547.02	40316.31
547.22	40449.43
547.43	40738.19
547.63	40304.02
547.83	40803.73
548.03	40580.50
548.23	40594.84
548.44	40867.22
548.64	40932.75
548.84	41108.88
549.04	41219.47
549.24	41375.11
549.45	41729.41
549.65	40863.12
549.85	41182.60
550.05	41420.17
550.25	41303.43
550.45	42124.67
550.66	41590.15
550.86	41381.26
551.06	42505.59
551.26	41909.63
551.46	41639.30
551.66	42120.57
551.87	41837.95
552.07	41989.50
552.27	41991.55
552.47	41915.78
552.67	42323.32
552.87	42050.94
553.07	42141.05
553.28	42110.33
553.48	42409.34
553.68	42022.27
553.88	42577.27
554.08	42425.72
554.28	42526.07
554.48	42233.21
554.69	42243.45
554.89	42325.37
555.09	42556.79
555.29	42032.51
555.49	42575.22
555.69	42538.36
555.89	42429.82
556.10	43156.85
556.30	42308.99
556.50	43119.98
556.70	42589.56
556.90	42618.23
557.10	42876.27
557.30	42980.72
557.50	43101.55
557.70	43365.74
557.91	43195.76
558.11	43457.90
558.31	42935.66
558.51	42892.66
558.71	43308.40
558.91	43502.95
559.11	43361.64
559.31	43459.94
559.51	43234.67
559.72	42997.10
559.92	43496.81
560.12	43398.51
560.32	43636.07
560.52	43187.56
560.72	43375.98
560.92	43609.45
561.12	43453.80
561.32	44109.15
561.52	43304.30
561.72	44096.86
561.93	43580.78
562.13	43445.61
562.33	43392.36
562.53	44090.72
562.73	43445.61
562.93	43767.14
563.13	43691.37
563.33	43185.52
563.53	43709.80
563.73	43445.61
563.93	43926.88
564.13	44086.62
564.33	43720.04
564.53	43834.72
564.74	44205.41
564.94	43300.20
565.14	44148.06
565.34	43879.78
565.54	44408.15
565.74	43664.74
565.94	44172.64
566.14	44254.56
566.34	43930.98
566.54	44174.69
566.74	44008.80
566.94	44117.34
567.14	44711.25
567.34	44008.80
567.54	44084.58
567.74	44307.80
567.94	44203.36
568.14	44545.37
568.34	44348.76
568.54	44191.07
568.74	44553.56
568.94	44322.14
569.14	44772.69
569.34	44418.39
569.54	44600.66
569.75	44055.90
569.95	44391.77
570.15	44703.06
570.35	44449.11
570.55	44608.86
570.75	44559.70
570.95	44307.80
571.15	44897.62
571.35	44787.03
571.55	45059.41
571.75	44586.33
571.95	44688.73
572.15	44645.72
572.35	45208.91
572.55	45190.48
572.75	44852.56
572.95	45040.98
573.15	45405.52
573.35	44993.87
573.55	45229.39
573.75	45000.02
573.95	45313.36
574.15	45282.64
574.35	45677.90
574.55	45311.31
574.75	44840.28
574.95	45270.35
575.15	45286.73
575.34	45469.00
575.54	45159.76
575.74	45278.54
575.94	45878.60
576.14	45677.90
576.34	45550.92
576.54	46126.40
576.74	46105.92
576.94	45421.90
577.14	46357.82
577.34	46363.96
577.54	45681.99
577.74	45921.60
577.94	46132.54
578.14	46521.66
578.34	46562.62
578.54	45720.90
578.74	46347.58
578.94	46333.24
579.14	46388.54
579.34	46521.66
579.54	46525.75
579.74	46624.06
579.94	46570.81
580.13	46699.83
580.33	46695.74
580.53	46708.02
580.73	47004.98
580.93	46890.29
581.13	47129.90
581.33	47387.95
581.53	47338.80
581.73	47717.67
581.93	47310.13
582.13	47469.87
582.33	47580.46
582.53	47650.09
582.73	47377.71
582.92	47234.35
583.12	47760.68
583.32	47424.81
583.52	47377.71
583.72	47813.93
583.92	47650.09
584.12	47938.85
584.32	48137.51
584.52	48145.70
584.72	47949.09
584.92	48799.00
585.11	48532.76
585.31	48284.96
585.51	48647.45
585.71	48182.56
585.91	49052.95
586.11	48700.70
586.31	48633.11
586.51	48799.00
586.71	48684.31
586.91	49194.26
587.10	49284.37
587.30	48995.60
587.50	49038.61
587.70	49759.50
587.90	49116.43
588.10	49218.83
588.30	49167.63
588.50	49691.91
588.69	49270.03
588.89	49349.90
589.09	49630.47
589.29	49753.35
589.49	49808.65
589.69	49577.23
589.89	50328.83
590.08	50175.23
590.28	49702.15
590.48	49691.91
590.68	50232.58
590.88	50341.12
591.08	50408.70
591.28	49747.21
591.47	50267.39
591.67	50633.98
591.87	50654.46
592.07	50775.29
592.27	50879.74
592.47	50765.05
592.67	50881.78
592.86	50726.14
593.06	51027.19
593.26	51019.00
593.46	50679.03
593.66	50812.15
593.86	51041.53
594.05	51135.73
594.25	51563.76
594.45	51059.96
594.65	51180.79
594.85	50945.27
595.05	51696.88
595.24	51764.46
595.44	51361.01
595.64	51586.28
595.84	51533.04
596.04	52217.06
596.23	51444.98
596.43	51838.18
596.63	52172.00
596.83	51844.33
597.03	52247.78
597.22	52194.53
597.42	51944.68
597.62	52671.71
597.82	52335.84
598.02	52884.70
598.21	52565.21
598.41	52004.07
598.61	52761.82
598.81	52577.50
599.01	52722.91
599.20	52737.24
599.40	52419.81
599.60	52931.80
599.80	52763.87
600.00	52915.42
600.19	53505.23
600.39	53269.72
600.59	53333.20
600.79	53187.80
600.98	53021.91
601.18	53634.25
601.38	53372.11
601.58	53873.87
601.78	53501.14
601.97	53593.29
602.17	54127.81
602.37	53830.86
602.57	53372.11
602.76	53933.26
602.96	53675.21
603.16	54285.51
603.36	54273.22
603.55	54113.48
603.75	53935.30
603.95	53699.79
604.15	53826.76
604.34	54160.58
604.54	54299.84
604.74	54156.49
604.94	54678.72
605.13	54713.53
605.33	54201.54
605.53	54473.92
605.73	54938.81
605.92	54424.77
606.12	54973.63
606.32	54983.86
606.52	54613.18
606.71	54621.37
606.91	54928.57
607.11	54643.90
607.30	55010.49
607.50	55157.94
607.70	55739.57
607.90	55037.11
608.09	54854.84
608.29	55053.50
608.49	55172.28
608.68	55071.93
608.88	55162.04
609.08	54811.84
609.28	55125.17
609.47	54967.48
609.67	55477.43
609.87	55332.02
610.06	55481.52
610.26	55321.78
610.46	55452.85
610.66	54949.05
610.85	55282.87
611.05	55129.27
611.25	55368.88
611.44	54850.75
611.64	55434.42
611.84	55026.87
612.03	55174.33
612.23	55336.12
612.43	55448.75
612.62	55696.56
612.82	55313.59
613.02	55227.57
613.21	55356.60
613.41	55272.63
613.61	55440.56
613.80	55252.15
614.00	55219.38
614.20	55579.82
614.39	55176.37
614.59	55350.45
614.79	55196.85
614.98	55073.98
615.18	55315.64
615.38	55514.29
615.57	55174.33
615.77	55616.69
615.97	55717.04
616.16	55344.31
616.36	55137.46
616.56	55315.64
616.75	55418.03
616.95	55225.53
617.15	55104.70
617.34	55205.05
617.54	54959.29
617.74	55434.42
617.93	55635.12
618.13	54908.09
618.32	54832.32
618.52	54942.91
618.72	54942.91
618.91	55139.51
619.11	54779.07
619.31	55514.29
619.50	55039.16
619.70	54774.97
619.90	55135.41
620.09	55153.85
620.29	54797.50
620.48	55268.53
620.68	55145.65
620.88	54572.22
621.07	54940.86
621.27	54793.40
621.46	54396.10
621.66	54478.02
621.86	54838.46
622.05	55030.97
622.25	55364.79
622.44	54942.91
622.64	54633.66
622.84	54760.64
623.03	54404.29
623.23	54858.94
623.42	54654.14
623.62	55209.14
623.82	54600.89
624.01	54662.33
624.21	54621.37
624.40	53976.26
624.60	54590.66
624.80	54359.23
624.99	54334.66
625.19	54435.01
625.38	54656.19
625.58	54604.99
625.77	54779.07
625.97	54648.00
626.17	53959.88
626.36	54447.30
626.56	54535.36
626.75	53896.39
626.95	54744.25
627.14	53994.70
627.34	54924.47
627.54	54195.40
627.73	54547.65
627.93	54314.18
628.12	53900.49
628.32	54045.90
628.51	54301.89
628.71	54166.73
628.90	54588.61
629.10	54396.10
629.30	54338.75
629.49	54662.33
629.69	53998.79
629.88	54238.40
630.08	54621.37
630.27	54478.02
630.47	54301.89
630.66	54621.37
630.86	54697.15
631.05	54043.85
631.25	54473.92
631.44	54334.66
631.64	54285.51
631.84	54099.14
632.03	55170.23
632.23	54400.19
632.42	54744.25
632.62	54541.50
632.81	54506.69
633.01	54418.63
633.20	54699.20
633.40	54254.79
633.59	54310.08
633.79	54111.43
633.98	54174.92
634.18	54746.30
634.37	54656.19
634.57	54566.08
634.76	54385.86
634.96	54396.10
635.15	54742.20
635.35	54305.99
635.54	54113.48
635.74	54645.95
635.93	54183.11
636.13	54424.77
636.32	54770.88
636.52	54084.81
636.71	54588.61
636.91	55071.93
637.10	54793.40
637.30	54361.28
637.49	54531.26
637.69	54625.47
637.88	54705.34
638.08	54412.48
638.27	54961.34
638.46	55123.13
638.66	54815.93
638.85	54760.64
639.05	54641.85
639.24	55200.95
639.44	54764.73
639.63	54545.60
639.83	55002.30
640.02	54660.29
640.22	54625.47
640.41	55063.74
640.61	54762.68
640.80	55221.43
640.99	54957.24
641.19	55116.98
641.38	55174.33
641.58	54998.20
641.77	55186.61
641.97	54830.27
642.16	54817.98
642.36	55200.95
642.55	55317.68
642.74	54564.03
642.94	55563.44
643.13	54869.18
643.33	55407.79
643.52	55671.98
643.72	55565.49
643.91	55098.55
644.10	55450.80
644.30	55823.53
644.49	55655.60
644.69	55790.76
644.88	55297.20
645.08	55276.72
645.27	55833.77
645.46	55661.74
645.66	55776.43
645.85	55393.46
646.05	55481.52
646.24	55684.27
646.43	55370.93
646.63	56233.13
646.82	55970.99
647.02	56104.10
647.21	56333.48
647.40	55762.09
647.60	56048.81
647.79	56497.31
647.99	56472.74
648.18	55958.70
648.37	57037.98
648.57	56812.70
648.76	55923.88
648.96	56292.52
649.15	56898.72
649.34	57042.07
649.54	56429.73
649.73	56229.03
649.92	56382.63
650.12	56771.74
650.31	56536.23
650.51	56456.35
650.70	57056.41
650.89	56728.73
651.09	57179.29
651.28	56790.17
651.47	57015.45
651.67	56423.59
651.86	57328.79
652.06	56384.68
652.25	57009.31
652.44	57078.94
652.64	56614.05
652.83	56976.54
653.02	56753.31
653.22	57224.34
653.41	56822.94
653.60	56808.61
653.80	56720.54
653.99	57003.16
654.18	56888.48
654.38	57015.45
654.57	56870.04
654.76	57220.25
654.96	57078.94
655.15	57332.89
655.34	57060.51
655.54	57005.21
655.73	56849.56
655.92	57783.44
656.12	57461.91
656.31	57480.34
656.50	57326.74
656.70	57799.82
656.89	57789.58
657.08	57562.26
657.28	57726.10
657.47	57771.15
657.66	57644.18
657.86	57529.49
658.05	57830.54
658.24	57799.82
658.43	57300.12
658.63	57922.70
658.82	57986.19
659.01	57572.50
659.21	58295.43
659.40	57699.47
659.59	57722.00
659.79	58082.44
659.98	57332.89
660.17	57857.17
660.36	57832.59
660.56	57631.89
660.75	57787.53
660.94	58205.32
661.14	58393.73
661.33	57980.04
661.52	57822.35
661.71	58537.09
661.91	57742.48
662.10	57832.59
662.29	58571.91
662.49	58125.45
662.68	58233.99
662.87	58127.50
663.06	58397.83
663.26	58373.25
663.45	58012.81
663.64	58109.07
663.83	58258.57
664.03	58455.17
664.22	58162.31
664.41	58178.70
664.60	58436.74
664.80	58236.04
664.99	58233.99
665.18	58381.45
665.37	58373.25
665.57	58037.39
665.76	58049.67
665.95	57978.00
666.14	58043.53
666.34	57650.32
666.53	58268.81
666.72	58086.54
666.91	58383.49
667.11	58172.55
667.30	58453.12
667.49	58385.54
667.68	58401.92
667.87	58014.86
668.07	58674.30
668.26	58231.94
668.45	58299.53
668.64	58078.35
668.84	58854.53
669.03	58596.48
669.22	58336.39
669.41	58012.81
669.60	58377.35
669.80	57939.08
669.99	58025.10
670.18	58186.89
670.37	58317.96
670.57	58051.72
670.76	57869.45
670.95	58412.16
671.14	58197.13
671.33	57865.36
671.53	58823.81
671.72	57941.13
671.91	58406.02
672.10	57865.36
672.29	58043.53
672.48	57861.26
672.68	58365.06
672.87	58121.35
673.06	58061.96
673.25	57463.96
673.44	57877.64
673.64	57765.01
673.83	57889.93
674.02	57902.22
674.21	57549.97
674.40	58193.03
674.59	57570.45
674.79	57695.38
674.98	57582.74
675.17	58088.59
675.36	57543.83
675.55	57900.17
675.74	57975.95
675.94	57709.71
676.13	57613.46
676.32	58014.86
676.51	57914.51
676.70	57650.32
676.89	57984.14
677.08	58049.67
677.28	57488.53
677.47	57932.94
677.66	58135.69
677.85	57558.16
678.04	58078.35
678.23	58025.10
678.42	57949.32
678.62	57343.12
678.81	57791.63
679.00	57644.18
679.19	58057.87
679.38	57406.61
679.57	57324.69
679.76	57373.84
679.96	57881.74
680.15	57111.70
680.34	57027.74
680.53	57373.84
680.72	57255.06
680.91	57191.58
681.10	57656.46
681.29	57758.86
681.48	57793.68
681.68	57173.14
681.87	57244.82
682.06	57652.37
682.25	56992.92
682.44	57160.86
682.63	57205.91
682.82	56982.68
683.01	56771.74
683.20	56505.51
683.39	56923.29
683.59	56743.07
683.78	56591.52
683.97	56734.88
684.16	56460.45
684.35	56781.98
684.54	56538.27
684.73	56120.49
684.92	56300.71
685.11	56702.11
685.30	56341.67
685.49	56906.91
685.69	56399.01
685.88	56128.68
686.07	56456.35
686.26	56145.06
686.45	56313.00
686.64	56380.58
686.83	56251.56
687.02	56087.72
687.21	56392.87
687.40	56171.69
687.59	55696.56
687.78	55819.44
687.97	56009.90
688.16	56085.67
688.35	55620.78
688.54	55735.47
688.74	55905.45
688.93	55958.70
689.12	55991.47
689.31	55633.07
689.50	55936.17
689.69	55657.65
689.88	55372.98
690.07	55948.46
690.26	55465.14
690.45	55749.81
690.64	55604.40
690.83	55311.54
691.02	55321.78
691.21	55469.23
691.40	55116.98
691.59	55145.65
691.78	55088.31
691.97	55395.51
692.16	55555.25
692.35	55426.23
692.54	55164.09
692.73	55235.77
692.92	55080.12
693.11	55137.46
693.30	55108.79
693.49	54793.40
693.68	54807.74
693.87	55104.70
694.06	54082.76
694.25	54772.92
694.44	54703.29
694.63	55219.38
694.82	54619.33
695.01	54613.18
695.20	54473.92
695.39	54228.16
695.58	54076.61
695.77	54267.08
695.96	54490.30
696.15	54305.99
696.34	53966.02
696.53	54009.03
696.72	54475.97
696.91	54256.84
697.10	54486.21
697.29	53818.57
697.48	54408.39
697.67	53800.14
697.86	53646.54
698.05	53679.31
698.24	54287.56
698.43	53933.26
698.62	54222.02
698.81	53464.27
699.00	53699.79
699.19	53609.68
699.38	54125.77
699.57	53138.65
699.76	53767.37
699.95	53423.31
700.14	53511.38
700.32	53507.28
700.51	53404.88
700.70	53843.15
700.89	53544.14
701.08	53525.71
701.27	53298.39
701.46	53382.35
701.65	52817.11
701.84	53355.73
702.03	53318.87
702.22	53034.20
702.41	52974.81
702.60	52952.28
702.79	52856.03
702.98	53095.64
703.17	52935.90
703.35	52741.34
703.54	52833.50
703.73	52913.37
703.92	53220.56
704.11	53202.13
704.30	52569.31
704.49	52747.48
704.68	52483.30
704.87	52522.21
705.06	52544.73
705.25	52315.36
705.43	52446.43
705.62	52591.84
705.81	52444.38
706.00	52630.75
706.19	51936.49
706.38	52591.84
706.57	52458.72
706.76	52006.12
706.95	52501.73
707.14	52247.78
707.32	52053.22
707.51	52057.32
707.70	52339.94
707.89	51860.71
708.08	52034.79
708.27	52108.52
708.46	52460.77
708.65	51891.43
708.84	52245.73
709.02	52679.90
709.21	52133.09
709.40	51907.82
709.59	52139.24
709.78	51844.33
709.97	52112.61
710.16	51836.14
710.34	52335.84
710.53	52083.94
710.72	51348.72
710.91	51909.86
711.10	51930.34
711.29	51827.95
711.48	52024.55
711.66	51858.66
711.85	51594.48
712.04	51713.26
712.23	51930.34
712.42	51948.78
712.61	51530.99
712.80	51406.06
712.98	51815.66
713.17	51412.21
713.36	51592.43
713.55	51348.72
713.74	51453.17
713.93	51524.85
714.11	51393.78
714.30	51655.92
714.49	51342.58
714.68	51944.68
714.87	51279.09
715.06	51766.51
715.24	51334.38
715.43	51053.81
715.62	51109.11
715.81	50992.37
716.00	51080.44
716.18	50902.26
716.37	50775.29
716.56	50625.79
716.75	51371.25
716.94	50918.65
717.12	50853.11
717.31	51268.85
717.50	51361.01
717.69	50670.84
717.88	50777.34
718.06	51131.64
718.25	51332.34
718.44	50427.13
718.63	50877.69
718.82	50519.29
719.00	50697.47
719.19	50926.84
719.38	50564.35
719.57	50279.68
719.76	50531.58
719.94	50261.25
720.13	50418.94
720.32	50636.03
720.51	50574.59
720.69	50511.10
720.88	50095.36
721.07	50062.60
721.26	50033.92
721.44	49999.11
721.63	50023.68
721.82	49859.85
722.01	50019.59
722.20	50119.94
722.38	49845.51
722.57	48919.83
722.76	49919.24
722.95	49366.29
723.13	49536.27
723.32	49603.85
723.51	49235.22
723.70	48952.60
723.88	49315.09
724.07	49233.17
724.26	49480.97
724.44	49218.83
724.63	49354.00
724.82	49235.22
725.01	49403.15
725.19	49055.00
725.38	49431.82
725.57	48977.17
725.76	49143.06
725.94	48915.73
726.13	48923.93
726.32	49222.93
726.51	49104.15
726.69	49394.96
726.88	49405.20
727.07	49251.60
727.25	49423.63
727.44	49495.31
727.63	49356.05
727.82	49345.81
728.00	49126.67
728.19	49231.12
728.38	49566.99
728.56	48807.19
728.75	49503.50
728.94	48715.03
729.12	49149.20
729.31	48962.84
729.50	48727.32
729.69	49222.93
729.87	48825.62
730.06	49102.10
730.25	49034.52
730.43	49591.56
730.62	49093.91
730.81	49073.43
730.99	49233.17
731.18	48940.31
731.37	49321.23
731.55	49540.36
731.74	49415.44
731.93	49425.68
732.11	49536.27
732.30	49562.89
732.49	49057.04
732.67	48854.29
732.86	48913.69
733.05	48891.16
733.23	48438.56
733.42	49149.20
733.61	49274.13
733.79	49169.68
733.98	48936.21
734.17	49059.09
734.35	48852.25
734.54	49192.21
734.73	48729.37
734.91	49198.35
735.10	48848.15
735.29	49173.78
735.47	48751.90
735.66	49229.07
735.84	49173.78
736.03	48799.00
736.22	48948.50
736.40	48504.09
736.59	49009.94
736.78	49476.88
736.96	49141.01
737.15	48973.08
737.33	48403.74
737.52	48600.35
737.71	48768.28
737.89	48796.95
738.08	48680.22
738.27	49055.00
738.45	48928.02
738.64	49136.91
738.82	48815.38
739.01	48731.42
739.20	48723.22
739.38	48676.12
739.57	48612.63
739.75	48624.92
739.94	48500.00
740.13	48755.99
740.31	48780.57
740.50	48221.47
740.68	48799.00
740.87	48717.08
741.06	48495.90
741.24	48356.64
741.43	48246.05
741.61	48268.58
741.80	48174.37
741.99	48274.72
742.17	48157.99
742.36	48555.29
742.54	48319.77
742.73	48370.97
742.91	48428.32
743.10	48145.70
743.29	48583.96
743.47	48700.70
743.66	48244.00
743.84	48186.66
744.03	48399.65
744.21	48270.62
744.40	48579.87
744.59	47842.60
744.77	48293.15
744.96	48166.18
745.14	47926.56
745.33	48293.15
745.51	47852.84
745.70	48184.61
745.88	48162.08
746.07	47775.02
746.26	47922.47
746.44	47562.03
746.63	47762.73
746.81	47953.19
747.00	47596.84
747.18	47881.51
747.37	47488.30
747.55	47586.60
747.74	48004.39
747.92	47426.86
748.11	47498.54
748.29	47527.21
748.48	47523.11
748.66	47566.12
748.85	47174.96
749.03	47547.69
749.22	47818.02
749.41	46892.34
749.59	47322.41
749.78	47559.98
749.96	46947.64
750.15	47469.87
750.33	47420.72
750.52	47285.55
750.70	47203.63
750.89	47207.73
751.07	46830.90
751.26	46732.60
751.44	47027.51
751.63	46779.70
751.81	46693.69
752.00	46542.14
752.18	46718.26
752.37	46613.82
752.55	46912.82
752.74	46347.58
752.92	46255.42
753.10	46538.04
753.29	46587.19
753.47	46378.30
753.66	46210.37
753.84	46439.74
754.03	46388.54
754.21	46001.47
754.40	46490.94
754.58	46314.81
754.77	46185.79
754.95	46294.33
755.14	46157.12
755.32	46253.37
755.51	45964.61
755.69	45796.68
755.88	46087.49
756.06	45948.23
756.24	45645.13
756.43	45849.92
756.61	45927.75
756.80	45624.65
756.98	45462.86
757.17	45796.68
757.35	45647.18
757.54	45489.48
757.72	45790.53
757.90	45555.02
758.09	45307.21
758.27	45317.45
758.46	45182.29
758.64	45434.19
758.83	45143.38
759.01	45598.02
759.19	45290.83
759.38	44778.84
759.56	45368.65
759.75	44981.59
759.93	45028.69
760.12	44868.95
760.30	45083.98
760.48	45305.16
760.67	44957.01
760.85	44952.91
761.04	45217.10
761.22	44914.00
761.40	44342.62
761.59	44875.09
761.77	44615.00
761.96	44844.37
762.14	44660.05
762.32	44510.55
762.51	44404.06
762.69	44135.77
762.88	44571.99
763.06	44440.92
763.24	44604.76
763.43	44391.77
763.61	44256.60
763.80	44242.27
763.98	44051.81
764.16	43548.01
764.35	43879.78
764.53	43353.45
764.72	43611.49
764.90	43887.97
765.08	43531.62
765.27	43345.26
765.45	43564.39
765.63	43281.77
765.82	43545.96
766.00	43498.86
766.18	42988.91
766.37	43627.88
766.55	43355.50
766.74	43294.06
766.92	43251.05
767.10	43015.54
767.29	42587.51
767.47	42487.16
767.65	42931.57
767.84	42270.08
768.02	43146.61
768.20	42368.38
768.39	42595.70
768.57	42571.13
768.75	42861.94
768.94	42638.71
769.12	42417.53
769.30	42169.72
769.49	42227.07
769.67	42141.05
769.85	42364.28
770.04	42323.32
770.22	42091.90
770.40	41729.41
770.59	41731.46
770.77	42003.84
770.95	42050.94
771.14	41770.37
771.32	41880.96
771.50	41561.48
771.69	41749.89
771.87	41678.21
772.05	41440.65
772.24	40881.55
772.42	41416.07
772.60	41047.44
772.78	41000.33
772.97	41483.66
773.15	41506.18
773.33	41487.75
773.52	40932.75
773.70	41299.34
773.88	41147.79
774.07	40732.05
774.25	40967.57
774.43	41192.84
774.61	41209.23
774.80	41035.15
774.98	40928.66
775.16	41256.33
775.34	41399.69
775.53	40629.65
775.71	41176.46
775.89	41010.57
776.08	41145.74
776.26	40947.09
776.44	40983.95
776.62	40834.45
776.81	40881.55
776.99	41338.25
777.17	41055.63
777.35	40891.79
777.54	40986.00
777.72	41229.71
777.90	40938.90
778.08	41287.05
778.27	41141.64
778.45	41391.50
778.63	41342.35
778.81	40967.57
779.00	41219.47
779.18	41112.97
779.36	41260.43
779.54	41090.44
779.73	41330.06
779.91	41821.57
780.09	41506.18
780.27	41614.72
780.46	40766.87
780.64	41436.55
780.82	41299.34
781.00	41045.39
781.19	41618.82
781.37	41708.93
781.55	41254.28
781.73	41899.39
781.91	41436.55
782.10	41530.76
782.28	41465.22
782.46	41262.47
782.64	41637.25
782.82	41227.66
783.01	41168.27
783.19	41792.90
783.37	41076.11
783.55	41637.25
783.74	41700.74
783.92	41375.11
784.10	41776.51
784.28	41383.30
784.46	41065.87
784.64	41569.67
784.83	41350.54
785.01	41643.40
785.19	41395.59
785.37	41600.39
785.55	41561.48
785.74	40994.19
785.92	41252.23
786.10	41665.92
786.28	41285.00
786.46	40746.39
786.64	41053.58
786.83	41074.06
787.01	41112.97
787.19	41248.14
787.37	41178.51
787.55	40889.74
787.74	40727.95
787.92	40830.35
788.10	40873.36
788.28	40478.10
788.46	40570.26
788.64	40385.94
788.82	40963.47
789.01	40474.01
789.19	40656.28
789.37	40136.09
789.55	40277.40
789.73	39882.14
789.91	39703.97
790.09	40088.99
790.28	39962.01
790.46	39796.13
790.64	40132.00
790.82	39480.74
791.00	39402.92
791.18	39663.01
791.36	39769.51
791.55	39810.46
791.73	39294.38
791.91	39517.60
792.09	39163.31
792.27	39196.07
792.45	39697.83
792.63	39462.31
792.81	39077.29
793.00	39155.11
793.18	38917.55
793.36	39116.20
793.54	39011.76
793.72	38905.26
793.90	38880.69
794.08	38366.65
794.26	38561.20
794.44	38313.40
794.62	37885.37
794.81	38090.17
794.99	38069.69
795.17	38229.43
795.35	37891.52
795.53	38186.43
795.71	38315.45
795.89	37676.48
796.07	37746.11
796.25	37410.25
796.43	37359.05
796.61	37477.83
796.80	37787.07
796.98	37893.57
797.16	37111.24
797.34	37313.99
797.52	37137.87
797.70	37205.45
797.88	36777.42
798.06	36765.14
798.24	36777.42
798.42	36879.82
798.60	36488.66
798.78	36326.87
798.96	36564.43
799.14	36591.06
799.32	36672.98
799.51	35763.68
799.69	36611.54
799.87	36148.70
800.05	35614.18
800.23	36120.02
800.41	35839.45
800.59	36156.89
800.77	35890.65
800.95	35171.82
801.13	35608.03
801.31	35261.93
801.49	35522.02
801.67	35366.37
801.85	35458.53
802.03	35485.15
802.21	35245.54
802.39	34899.44
802.57	35040.75
802.75	34905.58
802.93	34711.02
803.11	34516.47
803.29	34838.00
803.47	34614.77
803.65	34622.96
803.83	34319.86
804.01	34584.05
804.19	34053.62
804.37	34127.35
804.55	34186.74
804.73	34192.89
804.91	34022.90
805.09	33951.23
805.27	34110.97
805.45	34330.10
805.63	34039.29
805.81	33678.85
805.99	33842.68
806.17	33910.27
806.35	33748.48
806.53	33467.91
806.71	33519.10
806.89	33181.19
807.07	33601.02
807.25	33263.11
807.43	33328.64
807.61	33582.59
807.79	33267.20
807.97	33013.26
808.15	33277.44
808.33	33115.65
808.51	32775.69
808.69	33056.26
808.87	32364.05
809.05	32722.44
809.23	32615.95
809.41	32116.25
809.59	32222.74
809.77	32564.75
809.95	32386.58
810.13	32638.48
810.31	32167.45
810.49	32300.56
810.67	32067.09
810.84	32321.04
811.02	32126.49
811.20	31929.88
811.38	32005.66
811.56	31708.70
811.74	31807.00
811.92	31491.62
812.10	31575.58
812.28	32054.81
812.46	31956.50
812.64	31653.40
812.82	31661.60
813.00	31493.66
813.18	31505.95
813.36	31256.10
813.53	31192.61
813.71	31266.34
813.89	30883.37
814.07	31047.21
814.25	31184.42
814.43	31034.92
814.61	30938.66
814.79	30772.78
814.97	30662.19
815.15	30578.22
815.33	30873.13
815.50	30826.03
815.68	30959.14
815.86	30832.17
816.04	30594.61
816.22	30668.33
816.40	30467.63
816.58	30363.18
816.76	30283.31
816.94	30400.05
817.11	30533.17
817.29	30490.16
817.47	30170.68
817.65	30113.33
817.83	30144.05
818.01	30086.71
818.19	30115.38
818.37	29406.78
818.54	29609.53
818.72	29591.10
818.90	29980.21
819.08	29806.14
819.26	30053.94
819.44	29660.73
819.62	29691.45
819.80	29615.68
819.97	29650.49
820.15	29437.50
820.33	29494.85
820.51	29638.20
820.69	29621.82
820.87	29380.16
821.05	29697.59
821.22	29515.33
821.40	29365.82
821.58	29464.13
821.76	29199.94
821.94	28911.17
822.12	29050.44
822.29	29054.53
822.47	28857.93
822.65	29349.44
822.83	29007.43
823.01	28710.47
823.19	28812.87
823.36	28440.14
823.54	28616.27
823.72	28495.44
823.90	28759.63
824.08	28524.11
824.25	28513.87
824.43	28243.54
824.61	28118.61
824.79	28685.90
824.97	28272.21
825.15	28354.13
825.32	28753.48
825.50	28194.39
825.68	28436.05
825.86	28614.22
826.04	28517.96
826.21	28268.11
826.39	28202.58
826.57	28134.99
826.75	28024.40
826.93	27948.63
827.10	27854.42
827.28	28071.51
827.46	28327.50
827.64	28161.62
827.81	27717.21
827.99	27686.49
828.17	27938.39
828.35	27598.43
828.53	27835.99
828.70	28030.55
828.88	27881.05
829.06	27561.56
829.24	27848.28
829.41	27686.49
829.59	27741.78
829.77	27709.02
829.95	27799.13
830.12	27395.68
830.30	27399.77
830.48	27512.41
830.66	27733.59
830.84	27547.23
831.01	27207.26
831.19	27596.38
831.37	27369.05
831.55	27412.06
831.72	27205.22
831.90	27291.23
832.08	27131.49
832.25	26779.24
832.43	27014.76
832.61	26893.93
832.79	26967.65
832.96	27070.05
833.14	27252.32
833.32	27586.14
833.50	27264.61
833.67	26938.98
833.85	27068.00
834.03	26738.28
834.20	26981.99
834.38	26973.80
834.56	27252.32
834.74	26728.04
834.91	26938.98
835.09	26596.97
835.27	26754.66
835.44	26605.16
835.62	26193.52
835.80	26306.16
835.98	26535.53
836.15	26488.43
836.33	26574.44
836.51	26513.00
836.68	25970.29
836.86	26437.23
837.04	26330.73
837.21	26197.62
837.39	26517.10
837.57	26551.91
837.75	26375.79
837.92	26164.85
838.10	26039.92
838.28	26046.07
838.45	25990.77
838.63	25935.48
838.81	25808.50
838.98	26033.78
839.16	25790.07
839.34	25960.05
839.51	25511.55
839.69	25540.22
839.87	25831.03
840.04	25847.41
840.22	25990.77
840.40	25720.44
840.57	25820.79
840.75	25912.95
840.93	25554.55
841.10	25695.86
841.28	25681.53
841.46	25534.07
841.63	25630.33
841.81	25511.55
841.98	25663.10
842.16	25691.77
842.34	25355.90
842.51	25175.68
842.69	25482.88
842.87	25288.32
843.04	25532.03
843.22	25271.93
843.40	25351.81
843.57	25181.82
843.75	25286.27
843.92	25142.91
844.10	25202.30
844.28	25321.09
844.45	24979.07
844.63	25513.59
844.81	25181.82
844.98	25153.15
845.16	25095.81
845.33	25276.03
845.51	24958.60
845.69	24753.80
845.86	24794.76
846.04	25116.29
846.21	24872.58
846.39	24823.43
846.57	25007.75
846.74	24786.57
846.92	24587.91
847.09	24577.67
847.27	24594.06
847.45	24575.62
847.62	24755.85
847.80	24641.16
847.97	24436.36
848.15	24192.65
848.32	24026.77
848.50	24536.71
848.68	24063.63
848.85	24112.78
849.03	23850.64
849.20	24239.76
849.38	24327.82
849.56	24194.70
849.73	24020.63
849.91	24196.75
850.08	24053.39
850.26	24071.82
850.43	24090.26
850.61	24336.01
850.78	23772.82
850.96	23918.23
851.14	24002.19
851.31	24020.63
851.49	23674.52
851.66	23840.40
851.84	23793.30
852.01	24071.82
852.19	23611.03
852.36	23950.99
852.54	23754.39
852.71	23682.71
852.89	23529.11
853.07	23905.94
853.24	23602.84
853.42	23498.39
853.59	23492.25
853.77	23240.35
853.94	23643.80
854.12	23578.26
854.29	23379.61
854.47	23381.66
854.64	23291.55
854.82	23352.99
854.99	23256.73
855.17	23146.14
855.34	23125.66
855.52	23348.89
855.69	23199.39
855.87	23074.46
856.04	22701.73
856.22	23269.02
856.39	22908.58
856.57	23068.32
856.74	22871.72
856.92	23000.74
857.09	22802.08
857.27	23092.90
857.44	23037.60
857.62	22642.34
857.79	22691.49
857.97	22949.54
858.14	22785.70
858.32	22587.05
858.49	22728.36
858.67	22554.28
858.84	22466.22
859.02	22257.32
859.19	22339.24
859.37	22195.89
859.54	22462.12
859.72	22660.77
859.89	22439.59
860.06	22556.33
860.24	22367.91
860.41	22630.05
860.59	22030.00
860.76	22654.63
860.94	21812.92
861.11	22513.32
861.29	22050.48
861.46	22034.10
861.64	21792.44
861.81	22032.05
861.98	22040.24
862.16	22081.20
862.33	21814.96
862.51	21540.54
862.68	22085.30
862.86	21841.59
863.03	21857.97
863.21	21370.55
863.38	21739.19
863.55	21634.74
863.73	21532.34
863.90	21536.44
864.08	21391.03
864.25	21368.51
864.43	21563.06
864.60	21526.20
864.77	21288.64
864.95	21477.05
865.12	21180.09
865.30	21554.87
865.47	21446.33
865.64	21341.88
865.82	21288.64
865.99	21466.81
866.17	21462.71
866.34	21329.59
866.51	20811.46
866.69	21169.85
866.86	21130.94
867.04	21055.17
867.21	21149.37
867.38	21020.35
867.56	20842.18
867.73	20778.69
867.91	20963.01
868.08	20764.36
868.25	20561.61
868.43	20682.44
868.60	20600.52
868.78	20416.20
868.95	20786.88
869.12	20438.73
869.30	20653.76
869.47	20559.56
869.64	20354.76
869.82	20307.66
869.99	20377.29
870.16	20344.52
870.34	20250.32
870.51	20348.62
870.69	20197.07
870.86	20125.39
871.03	20248.27
871.21	20117.20
871.38	20180.68
871.55	19869.39
871.73	20049.61
871.90	19943.12
872.07	20096.72
872.25	19846.87
872.42	19990.22
872.59	19683.03
872.77	20033.23
872.94	19631.83
873.11	19791.57
873.29	19678.93
873.46	19762.90
873.63	19521.24
873.81	19492.57
873.98	19224.28
874.15	19611.35
874.33	19357.40
874.50	19093.21
874.67	19091.16
874.85	19271.39
875.02	19298.01
875.19	19080.92
875.37	19269.34
875.54	18980.57
875.71	18970.33
875.88	18972.38
876.06	18943.71
876.23	18992.86
876.40	18773.73
876.58	18704.10
876.75	18568.93
876.92	18773.73
877.10	18710.24
877.27	18591.46
877.44	18548.45
877.61	18282.22
877.79	18685.67
877.96	18190.06
878.13	18388.71
878.31	18216.68
878.48	18589.41
878.65	18470.63
878.82	18331.37
879.00	18173.67
879.17	17938.16
879.34	17997.55
879.51	18005.74
879.69	17786.61
879.86	18018.03
880.03	17958.64
880.21	17858.29
880.38	18032.36
880.55	18026.22
880.72	17704.69
880.90	17923.82
881.07	17751.79
881.24	17772.27
881.41	17630.96
881.59	17399.54
881.76	17807.09
881.93	17436.41
882.10	17503.99
882.28	17555.19
882.45	17684.21
882.62	17538.80
882.79	17815.28
882.96	17059.58
883.14	17600.24
883.31	17450.74
883.48	17551.09
883.65	17483.51
883.83	17430.26
884.00	17485.56
884.17	17307.38
884.34	17522.42
884.51	17262.33
884.69	17219.32
884.86	17207.03
885.03	17231.61
885.20	16871.17
885.38	17321.72
885.55	17014.52
885.72	17151.74
885.89	17159.93
886.06	17209.08
886.24	16885.50
886.41	16850.69
886.58	17094.40
886.75	17045.24
886.92	16715.52
887.10	16977.66
887.27	16688.90
887.44	16652.03
887.61	16690.95
887.78	16887.55
887.95	16727.81
888.13	16400.13
888.30	16426.76
888.47	16549.64
888.64	16367.37
888.81	16715.52
888.99	16518.92
889.16	16267.02
889.33	16338.69
889.50	16248.58
889.67	16453.38
889.84	16305.93
890.01	16252.68
890.19	16420.61
890.36	16498.44
890.53	16135.95
890.70	16207.62
890.87	16017.16
891.04	16076.55
891.22	15914.77
891.39	15898.38
891.56	16019.21
891.73	16025.36
891.90	15894.29
892.07	15648.53
892.24	15994.64
892.42	15748.88
892.59	15845.13
892.76	15877.90
892.93	15793.94
893.10	15709.97
893.27	15535.89
893.44	15660.82
893.61	15562.51
893.79	15537.94
893.96	15634.19
894.13	15714.06
894.30	15531.80
894.47	15492.88
894.64	15417.11
894.81	15548.18
894.98	15640.34
895.15	15529.75
895.33	15505.17
895.50	15425.30
895.67	15427.35
895.84	15468.31
896.01	15408.92
896.18	15339.29
896.35	15601.43
896.52	15550.23
896.69	15269.66
896.86	15548.18
897.04	15472.40
897.21	15275.80
897.38	15699.73
897.55	15343.38
897.72	15539.99
897.89	15138.58
898.06	15283.99
898.23	15226.65
898.40	15382.29
898.57	15183.64
898.74	15071.00
898.91	15327.00
899.08	15425.30
899.26	15333.14
899.43	15298.33
899.60	15261.46
899.77	15226.65
899.94	15288.09
900.11	15154.97
900.28	15122.20
900.45	15173.40
900.62	15040.28
900.79	15105.82
900.96	15068.95
901.13	15324.95
901.30	14989.08
901.47	15087.39
901.64	15083.29
901.81	15105.82
901.98	15240.98
902.15	15109.91
902.32	14941.98
902.49	15347.48
902.66	14954.27
902.83	15128.35
903.01	15091.48
903.18	15177.50
903.35	15077.15
903.52	15075.10
903.69	15200.02
903.86	15345.43
904.03	15019.80
904.20	15435.54
904.37	15120.15
904.54	15085.34
904.71	15251.22
904.88	15083.29
905.05	14982.94
905.22	15243.03
905.39	15062.81
905.56	15001.37
905.73	14911.26
905.90	15015.71
906.07	15075.10
906.24	15173.40
906.41	15083.29
906.58	14946.08
906.75	14952.22
906.92	14796.57
907.09	14976.80
907.26	15003.42
907.43	15001.37
907.60	15019.80
907.77	15169.30
907.93	14901.02
908.10	14952.22
908.27	14966.56
908.44	15040.28
908.61	14888.73
908.78	14880.54
908.95	14841.63
909.12	14726.94
909.29	14966.56
909.46	14749.47
909.63	15040.28
909.80	15025.95
909.97	14784.29
910.14	14657.31
910.31	14728.99
910.48	14823.20
910.65	14649.12
910.82	14647.07
910.99	14698.27
911.16	14624.54
911.33	14704.42
911.50	14843.68
911.66	14427.94
911.83	14608.16
912.00	14456.61
912.17	14313.25
912.34	14452.52
912.51	14268.20
912.68	14257.96
912.85	14552.87
913.02	14507.81
913.19	14380.84
913.36	14364.45
913.53	14180.14
913.70	14257.96
913.86	14452.52
914.03	14262.05
914.20	14286.63
914.37	14303.01
914.54	14061.35
914.71	14173.99
914.88	14178.09
915.05	13993.77
915.22	14173.99
915.39	14108.46
915.55	14077.74
915.72	13780.78
915.89	13870.89
916.06	13653.81
916.23	13821.74
916.40	13883.18
916.57	13786.93
916.74	13815.60
916.91	13735.73
917.07	13780.78
917.24	13618.99
917.41	13745.97
917.58	13516.59
917.75	13635.38
917.92	13213.49
918.09	13532.98
918.26	13424.44
918.42	13590.32
918.59	13455.15
918.76	13426.48
918.93	13018.94
919.10	13213.49
919.27	13199.16
919.44	13463.35
919.60	13195.06
919.77	13254.45
919.94	13166.39
920.11	13215.54
920.28	13150.01
920.45	12920.63
920.61	12791.61
920.78	12906.30
920.95	12912.44
921.12	12918.59
921.29	12611.39
921.46	12592.96
921.62	12519.23
921.79	12738.37
921.96	12681.02
922.13	12451.65
922.30	12513.09
922.47	12343.11
922.63	12465.99
922.80	12431.17
922.97	12111.69
923.14	12162.89
923.31	12209.99
923.47	11994.95
923.64	12271.43
923.81	12132.17
923.98	12187.46
924.15	12109.64
924.32	12152.65
924.48	11863.88
924.65	12099.40
924.82	11788.11
924.99	11777.87
925.15	11589.46
925.32	12031.82
925.49	11554.64
925.66	11767.63
925.83	11638.61
925.99	11564.88
926.16	11665.23
926.33	11425.62
926.50	11325.27
926.67	11478.86
926.83	11388.75
927.00	11503.44
927.17	11364.18
927.34	11147.09
927.50	11214.68
927.67	11398.99
927.84	11292.50
928.01	11183.96
928.17	11169.62
928.34	11143.00
928.51	10753.88
928.68	10846.04
928.84	10852.19
929.01	10549.09
929.18	10608.48
929.35	10622.81
929.51	10698.59
929.68	10479.46
929.85	10653.53
930.02	10645.34
930.18	10440.54
930.35	10340.19
930.52	10504.03
930.69	10454.88
930.85	10342.24
931.02	10205.03
931.19	10239.84
931.36	10215.27
931.52	10309.47
931.69	10245.99
931.86	10030.95
932.02	10098.53
932.19	10119.01
932.36	9981.80
932.53	9873.26
932.69	9551.73
932.86	9758.57
933.03	9785.19
933.19	9647.98
933.36	9707.37
933.53	9865.07
933.70	9561.97
933.86	9627.50
934.03	9412.46
934.20	9506.67
934.36	9551.73
934.53	9072.50
934.70	9199.48
934.86	9174.90
935.03	8875.90
935.20	8968.06
935.36	8939.38
935.53	8773.50
935.70	8828.79
935.86	8789.88
936.03	8691.58
936.20	8693.63
936.36	8558.46
936.53	8413.06
936.70	8324.99
936.86	8601.47
937.03	8329.09
937.20	8155.01
937.36	8310.66
937.53	7956.36
937.70	7899.02
937.86	7653.26
938.03	7788.43
938.20	7870.34
938.36	7716.75
938.53	7704.46
938.70	7333.78
938.86	7694.22
939.03	7425.93
939.20	7344.02
939.36	7163.79
939.53	7118.74
939.70	7440.27
939.86	6928.28
940.03	6799.26
940.19	6631.32
940.36	6750.10
940.53	6637.47
940.69	6707.10
940.86	6610.84
941.03	6616.99
941.19	6393.76
941.36	6571.93
941.52	6164.39
941.69	6420.38
941.86	6107.04
942.02	6113.19
942.19	6000.55
942.35	6227.87
942.52	5867.43
942.69	6055.84
942.85	5728.17
943.02	5961.64
943.18	5922.73
943.35	5781.42
943.52	5736.36
943.68	5593.00
943.85	5558.19
944.01	5560.24
944.18	5865.38
944.35	5676.97
944.51	5443.50
944.68	5529.52
944.84	5349.29
945.01	5482.41
945.17	5547.95
945.34	5554.09
945.51	5466.03
945.67	5457.84
945.84	5484.46
946.00	5259.18
946.17	5386.16
946.33	5267.38
946.50	5230.51
946.67	5418.93
946.83	5369.77
947.00	5380.01
947.16	5396.40
947.33	5279.66
947.49	5326.77
947.66	5177.26
947.82	5298.10
947.99	5164.98
948.16	5343.15
948.32	5310.38
948.49	5328.81
948.65	5330.86
948.82	5189.55
948.98	5361.58
949.15	5287.86
949.31	5279.66
949.48	5457.84
949.64	5314.48
949.81	5461.93
949.97	5246.90
950.14	5316.53
950.30	5236.66
950.47	5269.42
950.63	5377.97
950.80	5517.23
950.96	5369.77
951.13	5328.81
951.30	5324.72
951.46	5332.91
951.63	5527.47
951.79	5287.86
951.96	5474.22
952.12	5253.04
952.29	5353.39
952.45	5248.94
952.62	5400.49
952.78	5550.00
952.94	5337.01
953.11	5384.11
953.27	5459.88
953.44	5646.25
953.60	5472.17
953.77	5638.06
953.93	5400.49
954.10	5435.31
954.26	5550.00
954.43	5445.55
954.59	5488.56
954.76	5476.27
954.92	5461.93
955.09	5545.90
955.25	5398.45
955.42	5453.74
955.58	5613.48
955.75	5451.69
955.91	5382.06
956.07	5668.78
956.24	5519.28
956.40	5488.56
956.57	5683.11
956.73	5425.07
956.90	5408.69
957.06	5541.80
957.23	5412.78
957.39	5480.36
957.56	5515.18
957.72	5517.23
957.88	5566.38
958.05	5492.65
958.21	5582.76
958.38	5590.95
958.54	5633.96
958.71	5623.72
958.87	5611.43
959.03	5543.85
959.20	5541.80
959.36	5410.73
959.53	5496.75
959.69	5402.54
959.85	5523.37
960.02	5558.19
960.18	5472.17
960.35	5629.87
960.51	5664.68
960.68	5439.40
960.84	5459.88
961.00	5572.52
961.17	5470.12
961.33	5722.02
961.50	5543.85
961.66	5623.72
961.82	5408.69
961.99	5541.80
962.15	5633.96
962.31	5441.45
962.48	5681.07
962.64	5547.95
962.81	5482.41
962.97	5435.31
963.13	5361.58
963.30	5416.88
963.46	5320.62
963.62	5517.23
963.79	5527.47
963.95	5373.87
964.12	5416.88
964.28	5451.69
964.44	5390.25
964.61	5414.83
964.77	5402.54
964.93	5482.41
965.10	5443.50
965.26	5410.73
965.42	5322.67
965.59	5404.59
965.75	5431.21
965.92	5496.75
966.08	5431.21
966.24	5406.64
966.41	5312.43
966.57	5410.73
966.73	5285.81
966.90	5382.06
967.06	5447.60
967.22	5375.92
967.39	5183.41
967.55	5212.08
967.71	5267.38
967.88	5318.57
968.04	5302.19
968.20	5273.52
968.37	5134.26
968.53	5111.73
968.69	5267.38
968.85	5197.74
969.02	5230.51
969.18	5228.46
969.34	5136.31
969.51	5146.55
969.67	5306.29
969.83	5097.39
970.00	5289.90
970.16	5207.98
970.32	5269.42
970.48	5341.10
970.65	5156.79
970.81	5085.11
970.97	5115.83
971.14	5040.05
971.30	5156.79
971.46	5136.31
971.63	5148.59
971.79	5136.31
971.95	5107.63
972.11	4941.75
972.28	5240.75
972.44	5164.98
972.60	4970.42
972.76	5023.67
972.93	4997.04
973.09	4925.36
973.25	5054.39
973.42	4933.56
973.58	5081.01
973.74	4954.04
973.90	4951.99
974.07	4941.75
974.23	5017.52
974.39	4986.80
974.55	4863.93
974.72	4968.37
974.88	4804.53
975.04	4919.22
975.20	4915.12
975.37	4874.17
975.53	4857.78
975.69	4843.45
975.85	4837.30
976.01	4827.06
976.18	4857.78
976.34	4837.30
976.50	4904.89
976.66	4853.69
976.83	4835.25
976.99	4861.88
977.15	4820.92
977.31	4679.61
977.47	4841.40
977.64	4763.58
977.80	4777.91
977.96	4712.38
978.12	4800.44
978.29	4757.43
978.45	4673.46
978.61	4636.60
978.77	4667.32
978.93	4644.79
979.10	4718.52
979.26	4667.32
979.42	4695.99
979.58	4569.02
979.74	4513.72
979.91	4693.94
980.07	4517.82
980.23	4540.35
980.39	4569.02
980.55	4534.20
980.71	4505.53
980.88	4472.76
981.04	4425.66
981.20	4431.80
981.36	4577.21
981.52	4497.34
981.68	4388.80
981.85	4526.01
982.01	4497.34
982.17	4421.56
982.33	4415.42
982.49	4388.80
982.65	4304.83
982.82	4540.35
982.98	4401.08
983.14	4405.18
983.30	4474.81
983.46	4327.36
983.62	4431.80
983.79	4220.86
983.95	4288.45
984.11	4210.62
984.27	4323.26
984.43	4325.31
984.59	4175.81
984.75	4292.54
984.91	4208.58
985.08	4284.35
985.24	4181.95
985.40	4284.35
985.56	4280.25
985.72	4247.49
985.88	4108.23
986.04	4208.58
986.20	4186.05
986.37	4259.78
986.53	4102.08
986.69	4147.14
986.85	4038.59
987.01	4134.85
987.17	4145.09
987.33	4171.71
987.49	4046.79
987.65	4024.26
987.82	4011.97
987.98	4028.35
988.14	4110.27
988.30	4059.07
988.46	4165.57
988.62	4065.22
988.78	4034.50
988.94	3956.68
989.10	4046.79
989.26	3930.05
989.42	3968.96
989.59	3825.61
989.75	3999.68
989.91	3940.29
990.07	3770.31
990.23	3792.84
990.39	3928.00
990.55	3905.48
990.71	3887.04
990.87	3880.90
991.03	3864.52
991.19	3702.73
991.35	3737.54
991.51	3813.32
991.67	3934.15
991.83	3815.37
992.00	3833.80
992.16	3780.55
992.32	3801.03
992.48	3940.29
992.64	3649.48
992.80	3780.55
992.96	3739.59
993.12	3706.82
993.28	3655.62
993.44	3733.45
993.60	3835.85
993.76	3708.87
993.92	3723.21
994.08	3778.50
994.24	3715.02
994.40	3606.47
994.56	3733.45
994.72	3698.63
994.88	3618.76
995.04	3751.88
995.20	3655.62
995.36	3581.90
995.52	3551.18
995.68	3600.33
995.84	3653.58
996.00	3723.21
996.16	3567.56
996.32	3440.59
996.48	3565.51
996.64	3639.24
996.80	3518.41
996.96	3461.07
997.12	3534.79
997.28	3479.50
997.44	3518.41
997.60	3430.35
997.76	3477.45
997.92	3551.18
998.08	3516.36
998.24	3448.78
998.40	3434.44
998.56	3403.72
998.72	3258.32
998.88	3413.96
999.04	3381.20
999.20	3362.76
999.36	3401.68
999.52	3426.25
999.68	3350.48
999.84	3330.00
1000.00	3325.90
1000.16	3366.86
1000.32	3336.14
1000.48	3420.11
1000.64	3237.84
1000.80	3217.36
1000.95	3293.13
1001.11	3258.32
1001.27	3266.51
1001.43	3418.06
1001.59	3225.55
1001.75	3217.36
1001.91	3198.93
1002.07	3143.63
1002.23	3260.37
1002.39	3133.39
1002.55	3229.65
1002.71	3190.74
1002.87	3162.06
1003.03	3114.96
1003.19	3133.39
1003.34	3149.78
1003.50	3125.20
1003.66	3235.79
1003.82	3213.26
1003.98	3037.14
1004.14	3160.02
1004.30	3055.57
1004.46	3018.71
1004.62	3080.14
1004.78	3033.04
1004.94	3074.00
1005.09	3102.67
1005.25	3106.77
1005.41	3043.28
1005.57	3033.04
1005.73	3071.95
1005.89	2916.31
1006.05	3043.28
1006.21	3043.28
1006.37	2901.97
1006.52	2942.93
1006.68	2875.35
1006.84	3055.57
1007.00	2813.91
1007.16	3041.23
1007.32	2924.50
1007.48	2885.59
1007.64	2977.75
1007.79	2910.16
1007.95	2832.34
1008.11	3071.95
1008.27	2996.18
1008.43	2936.79
1008.59	2877.40
1008.75	2957.27
1008.91	2846.68
1009.06	2863.06
1009.22	2842.58
1009.38	2850.77
1009.54	2850.77
1009.70	2713.56
1009.86	2871.25
1010.01	2818.00
1010.17	2734.04
1010.33	2869.20
1010.49	2715.61
1010.65	2858.96
1010.81	2711.51
1010.96	2828.24
1011.12	2764.76
1011.28	2668.50
1011.44	2785.24
1011.60	2736.09
1011.76	2637.78
1011.91	2787.29
1012.07	2641.88
1012.23	2697.17
1012.39	2705.37
1012.55	2629.59
1012.71	2672.60
1012.86	2711.51
1013.02	2723.80
1013.18	2654.17
1013.34	2645.98
1013.50	2754.52
1013.65	2676.70
1013.81	2660.31
1013.97	2545.63
1014.13	2682.84
1014.29	2586.58
1014.44	2762.71
1014.60	2602.97
1014.76	2557.91
1014.92	2580.44
1015.07	2617.30
1015.23	2648.02
1015.39	2537.43
1015.55	2549.72
1015.71	2553.82
1015.86	2600.92
1016.02	2568.15
1016.18	2549.72
1016.34	2543.58
1016.49	2576.34
1016.65	2607.06
1016.81	2574.30
1016.97	2613.21
1017.12	2543.58
1017.28	2494.43
1017.44	2498.52
1017.60	2525.15
1017.75	2494.43
1017.91	2475.99
1018.07	2494.43
1018.23	2500.57
1018.38	2389.98
1018.54	2496.47
1018.70	2494.43
1018.86	2422.75
1019.01	2375.64
1019.17	2379.74
1019.33	2537.43
1019.49	2498.52
1019.64	2494.43
1019.80	2363.36
1019.96	2469.85
1020.12	2473.95
1020.27	2330.59
1020.43	2322.40
1020.59	2457.56
1020.74	2396.12
1020.90	2443.23
1021.06	2340.83
1021.22	2375.64
1021.37	2406.36
1021.53	2289.63
1021.69	2344.92
1021.84	2279.39
1022.00	2359.26
1022.16	2267.10
1022.31	2334.68
1022.47	2330.59
1022.63	2289.63
1022.79	2183.13
1022.94	2289.63
1023.10	2322.40
1023.26	2244.57
1023.41	2230.24
1023.57	2236.38
1023.73	2359.26
1023.88	2326.49
1024.04	2283.49
1024.20	2213.85
1024.35	2230.24
1024.51	2295.77
1024.67	2207.71
1024.82	2322.40
1024.98	2232.29
1025.14	2289.63
1025.29	2273.25
1025.45	2220.00
1025.61	2238.43
1025.76	2277.34
1025.92	2226.14
1026.08	2215.90
1026.23	2144.22
1026.39	2236.38
1026.55	2156.51
1026.70	2242.53
1026.86	2080.74
1027.02	2211.81
1027.17	2265.05
1027.33	2265.05
1027.48	2195.42
1027.64	2172.89
1027.80	2090.98
1027.95	2174.94
1028.11	2076.64
1028.27	2172.89
1028.42	2078.69
1028.58	2142.18
1028.73	2082.78
1028.89	1994.72
1029.05	2160.61
1029.20	2215.90
>>>>>End Processed Spectral Data<<<<<
