SpectraSuite Data File
++++++++++++++++++++++++++++++++++++
Date: Fri Jun 02 14:44:34 CEST 2017
User: INFO_000
Dark Spectrum Present: No
Reference Spectrum Present: No
Number of Sampled Component Spectra: 1
Spectrometers: USB4H00879
Integration Time (usec): 80000 (USB4H00879)
Spectra Averaged: 1 (USB4H00879)
Boxcar Smoothing: 0 (USB4H00879)
Correct for Electrical Dark: No (USB4H00879)
Strobe/Lamp Enabled: No (USB4H00879)
Correct for Detector Non-linearity: No (USB4H00879)
Correct for Stray Light: No (USB4H00879)
Number of Pixels in Processed Spectrum: 3648
>>>>>Begin Processed Spectral Data<<<<<
345.13	1282.03
345.34	1282.03
345.56	1282.03
345.78	1327.08
345.99	1277.93
346.21	1708.01
346.42	1683.43
346.64	1662.95
346.86	1687.53
347.07	1621.99
347.29	1699.81
347.50	1671.14
347.72	1609.70
347.94	1742.82
348.15	1626.09
348.37	1652.71
348.59	1708.01
348.80	1673.19
349.02	1775.59
349.23	1873.89
349.45	1867.75
349.67	1841.12
349.88	1804.26
350.10	1955.81
350.31	1857.51
350.53	1855.46
350.75	1890.28
350.96	1738.73
351.18	1855.46
351.39	1859.56
351.61	1724.39
351.82	1933.28
352.04	1896.42
352.26	1802.21
352.47	1810.40
352.69	1839.08
352.90	1794.02
353.12	1871.84
353.34	1894.37
353.55	1947.62
353.77	1925.09
353.98	1830.88
354.20	1929.19
354.41	1974.24
354.63	1892.32
354.85	2058.21
355.06	1974.24
355.28	1841.12
355.49	1896.42
355.71	1861.60
355.92	1830.88
356.14	1902.56
356.35	1843.17
356.57	1845.22
356.79	1904.61
357.00	1875.94
357.22	1949.67
357.43	1841.12
357.65	1892.32
357.86	1875.94
358.08	1912.80
358.29	1880.04
358.51	1980.39
358.72	2011.11
358.94	1945.57
359.16	1980.39
359.37	1955.81
359.59	1986.53
359.80	1996.77
360.02	1894.37
360.23	1978.34
360.45	2086.88
360.66	1896.42
360.88	1900.52
361.09	1933.28
361.31	1914.85
361.52	1984.48
361.74	1978.34
361.95	2041.82
362.17	1974.24
362.38	2142.18
362.60	2025.44
362.81	1945.57
363.03	1974.24
363.24	1988.58
363.46	2000.87
363.67	1986.53
363.89	2029.54
364.10	2025.44
364.32	1968.10
364.53	1978.34
364.75	1904.61
364.96	1945.57
365.18	2039.78
365.39	2011.11
365.61	1980.39
365.82	2111.46
366.04	2031.58
366.25	1898.47
366.47	1990.63
366.68	2072.54
366.90	1968.10
367.11	2064.35
367.33	2064.35
367.54	2019.30
367.76	2045.92
367.97	2136.03
368.19	2113.50
368.40	2041.82
368.62	2019.30
368.83	1992.67
369.05	2043.87
369.26	2004.96
369.48	1982.43
369.69	1970.15
369.91	2088.93
370.12	1964.00
370.33	2127.84
370.55	2017.25
370.76	2076.64
370.98	2080.74
371.19	1953.76
371.41	2072.54
371.62	2058.21
371.84	2015.20
372.05	2174.94
372.27	1994.72
372.48	2103.26
372.69	2136.03
372.91	2168.80
373.12	2189.28
373.34	2045.92
373.55	2007.01
373.77	2146.27
373.98	2066.40
374.20	2056.16
374.41	2258.91
374.62	2181.09
374.84	2117.60
375.05	2162.66
375.27	2138.08
375.48	2179.04
375.70	2162.66
375.91	2215.90
376.12	2285.53
376.34	2154.46
376.55	2199.52
376.77	2256.86
376.98	2174.94
377.19	2133.98
377.41	2166.75
377.62	2158.56
377.84	2277.34
378.05	2322.40
378.27	2170.85
378.48	2357.21
378.69	2287.58
378.91	2273.25
379.12	2209.76
379.34	2330.59
379.55	2291.68
379.76	2260.96
379.98	2273.25
380.19	2271.20
380.41	2254.81
380.62	2277.34
380.83	2312.16
381.05	2217.95
381.26	2437.08
381.47	2297.82
381.69	2392.03
381.90	2383.84
382.12	2283.49
382.33	2275.29
382.54	2308.06
382.76	2328.54
382.97	2346.97
383.19	2224.09
383.40	2299.87
383.61	2279.39
383.83	2250.72
384.04	2344.92
384.25	2310.11
384.47	2447.32
384.68	2394.08
384.89	2310.11
385.11	2287.58
385.32	2453.47
385.54	2351.07
385.75	2344.92
385.96	2461.66
386.18	2475.99
386.39	2328.54
386.60	2342.88
386.82	2316.25
387.03	2432.99
387.24	2494.43
387.46	2453.47
387.67	2519.00
387.88	2541.53
388.10	2435.03
388.31	2490.33
388.52	2486.23
388.74	2562.01
388.95	2590.68
389.16	2555.86
389.38	2432.99
389.59	2605.02
389.80	2639.83
390.02	2596.82
390.23	2631.64
390.44	2584.54
390.66	2484.19
390.87	2523.10
391.08	2492.38
391.30	2668.50
391.51	2582.49
391.72	2619.35
391.94	2699.22
392.15	2648.02
392.36	2600.92
392.58	2578.39
392.79	2658.26
393.00	2756.57
393.22	2756.57
393.43	2721.75
393.64	2764.76
393.85	2832.34
394.07	2721.75
394.28	2676.70
394.49	2820.05
394.71	2789.33
394.92	2801.62
395.13	2703.32
395.35	2826.20
395.56	2756.57
395.77	2731.99
395.98	2811.86
396.20	2891.73
396.41	2908.12
396.62	2852.82
396.84	2787.29
397.05	2795.48
397.26	2885.59
397.47	2961.36
397.69	2781.14
397.90	2910.16
398.11	2877.40
398.32	2848.72
398.54	2899.92
398.75	2938.84
398.96	2994.13
399.18	3164.11
399.39	2981.84
399.60	3104.72
399.81	2967.51
400.03	2877.40
400.24	3239.89
400.45	2930.64
400.66	3041.23
400.88	3004.37
401.09	3090.38
401.30	3067.86
401.51	3137.49
401.73	3235.79
401.94	3280.85
402.15	3141.58
402.36	3112.91
402.58	3174.35
402.79	3137.49
403.00	3125.20
403.21	3264.46
403.43	3252.17
403.64	3305.42
403.85	3110.86
404.06	3248.08
404.27	3125.20
404.49	3176.40
404.70	3053.52
404.91	3276.75
405.12	3219.41
405.34	3209.17
405.55	3387.34
405.76	3209.17
405.97	3301.33
406.19	3330.00
406.40	3223.50
406.61	3264.46
406.82	3340.24
407.03	3268.56
407.25	3352.52
407.46	3401.68
407.67	3477.45
407.88	3456.97
408.09	3413.96
408.31	3334.09
408.52	3436.49
408.73	3493.83
408.94	3407.82
409.15	3379.15
409.37	3502.03
409.58	3475.40
409.79	3370.96
410.00	3557.32
410.21	3444.68
410.43	3567.56
410.64	3442.64
410.85	3528.65
411.06	3540.94
411.27	3526.60
411.48	3579.85
411.70	3434.44
411.91	3588.04
412.12	3540.94
412.33	3633.10
412.54	3698.63
412.76	3684.30
412.97	3715.02
413.18	3649.48
413.39	3737.54
413.60	3659.72
413.81	3807.17
414.03	3710.92
414.24	3678.15
414.45	3731.40
414.66	3700.68
414.87	3798.98
415.08	3600.33
415.30	3727.30
415.51	3811.27
415.72	3733.45
415.93	3723.21
416.14	3729.35
416.35	3921.86
416.56	3772.36
416.78	3792.84
416.99	3903.43
417.20	3835.85
417.41	3985.35
417.62	3944.39
417.83	3805.13
418.04	4009.92
418.26	3825.61
418.47	4007.87
418.68	4007.87
418.89	3882.95
419.10	4136.90
419.31	4118.47
419.52	4069.31
419.73	4046.79
419.95	4184.00
420.16	4054.98
420.37	4032.45
420.58	3995.59
420.79	3971.01
421.00	4118.47
421.21	4186.05
421.42	4020.16
421.63	4190.14
421.85	4140.99
422.06	4196.29
422.27	4179.90
422.48	4089.79
422.69	4267.97
422.90	4190.14
423.11	4263.87
423.32	4296.64
423.53	4433.85
423.75	4409.28
423.96	4505.53
424.17	4405.18
424.38	4362.17
424.59	4446.14
424.80	4630.46
425.01	4540.35
425.22	4503.48
425.43	4407.23
425.64	4511.68
425.85	4667.32
426.06	4505.53
426.28	4495.29
426.49	4476.86
426.70	4538.30
426.91	4569.02
427.12	4587.45
427.33	4753.34
427.54	4759.48
427.75	4687.80
427.96	4786.10
428.17	4679.61
428.38	4845.49
428.59	4861.88
428.80	4761.53
429.01	4865.97
429.23	4855.73
429.44	4984.76
429.65	5050.29
429.86	4931.51
430.07	4902.84
430.28	4872.12
430.49	5136.31
430.70	5164.98
430.91	5126.07
431.12	5078.96
431.33	5119.92
431.54	5279.66
431.75	5054.39
431.96	5167.03
432.17	5058.48
432.38	5130.16
432.59	5326.77
432.80	5337.01
433.01	5330.86
433.22	5517.23
433.43	5242.80
433.64	5265.33
433.85	5269.42
434.06	5414.83
434.27	5296.05
434.49	5539.76
434.70	5521.32
434.91	5564.33
435.12	5478.32
435.33	5468.08
435.54	5560.24
435.75	5316.53
435.96	5537.71
436.17	5506.99
436.38	5742.50
436.59	5574.57
436.80	5541.80
437.01	5795.75
437.22	5828.52
437.43	5771.18
437.64	5513.13
437.85	5801.90
438.06	5779.37
438.27	5593.00
438.48	5851.05
438.69	5971.88
438.90	5838.76
439.11	5814.18
439.32	5777.32
439.53	5853.09
439.74	5988.26
439.95	5986.21
440.16	6008.74
440.37	5863.33
440.57	5947.30
440.78	6039.46
440.99	6086.56
441.20	6227.87
441.41	5861.29
441.62	5984.16
441.83	5836.71
442.04	6121.38
442.25	6004.64
442.46	6023.08
442.67	6195.11
442.88	6621.08
443.09	6018.98
443.30	5984.16
443.51	6164.39
443.72	6358.94
443.93	6193.06
444.14	6459.29
444.35	6342.56
444.56	6299.55
444.77	6291.36
444.98	6395.81
445.19	6414.24
445.40	6483.87
445.61	6479.77
445.81	6518.68
446.02	6647.71
446.23	6463.39
446.44	6324.13
446.65	6530.97
446.86	6592.41
447.07	6582.17
447.28	6674.33
447.49	6686.62
447.70	6586.27
447.91	6709.15
448.12	6668.19
448.33	6731.67
448.54	6770.58
448.74	6565.79
448.95	6778.78
449.16	6852.50
449.37	6993.81
449.58	6713.24
449.79	7192.47
450.00	6813.59
450.21	6999.96
450.42	7071.64
450.63	7116.69
450.84	6999.96
451.05	7020.44
451.25	7057.30
451.46	6872.98
451.67	7321.49
451.88	7219.09
452.09	7184.27
452.30	7135.12
452.51	7167.89
452.72	7298.96
452.93	7456.65
453.13	7339.92
453.34	7286.67
453.55	7186.32
453.76	7364.50
453.97	7706.51
454.18	7520.14
454.39	7464.85
454.60	7597.96
454.81	7569.29
455.01	7718.79
455.22	7276.43
455.43	7763.85
455.64	7792.52
455.85	7968.65
456.06	7993.22
456.27	7802.76
456.48	7929.74
456.68	7868.30
456.89	7849.86
457.10	7923.59
457.31	8058.76
457.52	7993.22
457.73	8081.28
457.94	8157.06
458.14	7919.50
458.35	8521.60
458.56	8345.47
458.77	8306.56
458.98	8179.59
459.19	8263.55
459.39	8472.45
459.60	8578.94
459.81	8277.89
460.02	8574.85
460.23	8587.13
460.44	8695.68
460.65	8791.93
460.85	8781.69
461.06	9006.97
461.27	8515.45
461.48	8834.94
461.69	8963.96
461.89	8675.20
462.10	8957.82
462.31	8847.22
462.52	9129.84
462.73	8908.66
462.94	9187.19
463.14	9219.96
463.35	9170.80
463.56	9527.15
463.77	9377.65
463.98	9359.22
464.18	9348.98
464.39	9541.49
464.60	9742.19
464.81	9715.56
465.02	9635.69
465.23	9838.44
465.43	9709.42
465.64	10135.40
465.85	9744.24
466.06	9951.08
466.27	10266.47
466.47	10207.08
466.68	10145.64
466.89	10051.43
467.10	10325.86
467.30	10170.21
467.51	10278.76
467.72	10540.90
467.93	10342.24
468.14	10620.77
468.34	10585.95
468.55	10882.91
468.76	10618.72
468.97	10649.44
469.17	10725.21
469.38	10983.26
469.59	11046.74
469.80	10800.99
470.01	11026.26
470.21	11036.50
470.42	11132.76
470.63	11097.94
470.84	11192.15
471.04	11341.65
471.25	11296.60
471.46	11411.28
471.67	11519.82
471.87	11556.69
472.08	11849.55
472.29	11966.28
472.50	11650.89
472.70	11722.57
472.91	11847.50
473.12	12146.50
473.33	12054.34
473.53	12140.36
473.74	12058.44
473.95	12435.27
474.16	12535.62
474.36	12465.99
474.57	12470.08
474.78	12683.07
474.99	12439.36
475.19	12541.76
475.40	12896.06
475.61	13160.25
475.81	13018.94
476.02	13201.21
476.23	13225.78
476.44	13348.66
476.64	13532.98
476.85	13694.77
477.06	13549.36
477.27	13760.30
477.47	13797.17
477.68	13987.63
477.89	13762.35
478.09	13850.41
478.30	14176.04
478.51	14047.02
478.71	14440.23
478.92	14190.38
479.13	14417.70
479.34	14382.88
479.54	14497.57
479.75	14548.77
479.96	14640.93
480.16	14901.02
480.37	15015.71
480.58	14999.32
480.78	15179.54
480.99	15019.80
481.20	15216.41
481.41	15347.48
481.61	15468.31
481.82	15576.85
482.03	15546.13
482.23	15435.54
482.44	15943.44
482.65	16127.75
482.85	16244.49
483.06	16117.51
483.27	16246.54
483.47	16146.19
483.68	16303.88
483.89	16539.40
484.09	16502.53
484.30	16641.79
484.51	16688.90
484.71	17247.99
484.92	16926.46
485.13	17200.89
485.33	16729.86
485.54	17219.32
485.75	17436.41
485.95	17401.59
486.16	17321.72
486.37	17551.09
486.57	17573.62
486.78	17508.08
486.98	17729.27
487.19	17966.83
487.40	18401.00
487.60	17989.36
487.81	18450.15
488.02	18300.65
488.22	18124.52
488.43	18540.26
488.64	18728.67
488.84	18786.02
489.05	19033.82
489.25	18697.95
489.46	19154.65
489.67	19046.11
489.87	19283.67
490.08	19287.77
490.29	19201.76
490.49	19531.48
490.70	19474.13
490.90	19568.34
491.11	19508.95
491.32	19750.61
491.52	19904.21
491.73	19996.37
491.94	19891.92
492.14	19732.18
492.35	20264.65
492.55	20600.52
492.76	20203.21
492.97	20596.42
493.17	20686.53
493.38	20772.55
493.58	20942.53
493.79	20881.09
494.00	20905.66
494.20	20711.11
494.41	21157.57
494.61	21470.90
494.82	21399.23
495.02	21286.59
495.23	21352.12
495.44	21702.32
495.64	21511.86
495.85	21804.72
496.05	21851.83
496.26	21548.73
496.47	22152.88
496.67	21984.94
496.88	22372.01
497.08	22068.91
497.29	22554.28
497.49	22242.99
497.70	22423.21
497.91	22587.05
498.11	22757.03
498.32	22810.28
498.52	22822.56
498.73	23123.62
498.93	23025.31
499.14	23250.59
499.34	23140.00
499.55	23416.47
499.76	23279.26
499.96	23410.33
500.17	23432.86
500.37	23535.26
500.58	23580.31
500.78	23846.55
500.99	23522.97
501.19	23922.32
501.40	23922.32
501.60	23932.56
501.81	23895.70
502.02	24065.68
502.22	23787.16
502.43	24374.92
502.63	24366.73
502.84	24422.03
503.04	24274.57
503.25	24485.51
503.45	24579.72
503.66	24462.99
503.86	24696.46
504.07	24985.22
504.27	24747.65
504.48	25114.24
504.68	24766.09
504.89	25337.47
505.09	25153.15
505.30	25087.62
505.50	25331.33
505.71	25259.65
505.91	25452.16
506.12	25376.38
506.32	25691.77
506.53	25450.11
506.73	25831.03
506.94	25513.59
507.14	25759.35
507.35	25634.42
507.55	25710.20
507.76	25953.91
507.96	25794.17
508.17	25929.33
508.37	26175.09
508.58	26136.18
508.78	26312.30
508.99	26289.77
509.19	26304.11
509.40	26465.90
509.60	26322.54
509.81	26515.05
510.01	26513.00
510.22	26289.77
510.42	26553.96
510.63	26644.07
510.83	26736.23
511.04	26723.94
511.24	26746.47
511.44	26644.07
511.65	26607.21
511.85	26793.58
512.06	26834.53
512.26	27104.87
512.47	26967.65
512.67	27164.26
512.88	27147.87
513.08	26893.93
513.29	27186.79
513.49	27332.19
513.69	27444.83
513.90	27192.93
514.10	27334.24
514.31	27592.28
514.51	27713.11
514.72	27498.08
514.92	27555.42
515.13	27561.56
515.33	27547.23
515.53	27672.15
515.74	27770.46
515.94	27805.27
516.15	28022.36
516.35	27831.90
516.56	27936.34
516.76	27899.48
516.96	28218.96
517.17	28278.35
517.37	28665.42
517.58	28319.31
517.78	28458.57
517.99	28431.95
518.19	28890.70
518.39	28735.05
518.60	28804.68
518.80	28724.81
519.01	28677.71
519.21	29027.91
519.41	28931.65
519.62	28960.33
519.82	28909.13
520.03	28882.50
520.23	29058.63
520.43	28986.95
520.64	29627.96
520.84	29443.65
521.05	29277.76
521.25	29707.83
521.45	29388.35
521.66	29802.04
521.86	29576.76
522.07	29484.61
522.27	29664.83
522.47	29847.10
522.68	30260.79
522.88	29703.74
523.08	30228.02
523.29	30160.44
523.49	30346.80
523.70	30064.18
523.90	30162.48
524.10	30289.46
524.31	30438.96
524.51	30424.62
524.71	31071.78
524.92	30567.98
525.12	31176.23
525.33	31092.26
525.53	31204.90
525.73	31604.25
525.94	31133.22
526.14	31378.98
526.34	31342.11
526.55	31626.78
526.75	31704.60
526.95	31776.28
527.16	31526.43
527.36	31884.83
527.56	31831.58
527.77	31974.94
527.97	31919.64
528.17	32196.12
528.38	32249.36
528.58	32542.22
528.78	32570.90
528.99	32380.43
529.19	32392.72
529.39	32192.02
529.60	32712.20
529.80	33005.06
530.00	32667.15
530.21	33269.25
530.41	33091.08
530.61	33099.27
530.82	33154.57
531.02	33502.72
531.22	33369.60
531.43	33803.77
531.63	33560.06
531.83	34037.24
532.04	34096.63
532.24	33728.00
532.44	34538.99
532.64	34538.99
532.85	34395.64
533.05	34729.45
533.25	34336.24
533.46	34588.14
533.66	34665.97
533.86	34668.02
534.07	34969.07
534.27	34629.10
534.47	35200.49
534.67	35454.44
534.88	35151.34
535.08	35290.60
535.28	35589.60
535.49	35829.21
535.69	35597.79
535.89	35810.78
536.09	36148.70
536.30	36529.62
536.50	36271.57
536.70	36281.81
536.91	36273.62
537.11	36406.74
537.31	36767.18
537.51	36732.37
537.72	37045.71
537.92	37045.71
538.12	36861.39
538.32	37207.50
538.53	37125.58
538.73	36969.93
538.93	37047.75
539.13	36939.21
539.34	37469.64
539.54	37236.17
539.74	37594.56
539.94	37402.05
540.15	37756.35
540.35	37569.99
540.55	38145.47
540.75	37823.93
540.96	38131.13
541.16	37987.77
541.36	38124.99
541.56	38565.30
541.77	38376.89
541.97	38280.63
542.17	38802.86
542.37	38645.17
542.58	38759.86
542.78	38688.18
542.98	38651.31
543.18	38823.34
543.38	39134.63
543.59	38731.18
543.79	39073.20
543.99	39237.03
544.19	39056.81
544.40	39161.26
544.60	39417.25
544.80	39419.30
545.00	39316.90
545.20	39511.46
545.41	39529.89
545.61	39400.87
545.81	39919.01
546.01	39581.09
546.21	39927.20
546.42	39978.40
546.62	39843.23
546.82	39347.62
547.02	40469.91
547.22	39839.14
547.43	39865.76
547.63	40287.64
547.83	40445.33
548.03	39873.95
548.23	40486.29
548.44	40203.67
548.64	40222.11
548.84	40504.73
549.04	40218.01
549.24	40906.13
549.45	41069.97
549.65	40633.75
549.85	40789.39
550.05	41112.97
550.25	40748.43
550.45	41184.65
550.66	41037.20
550.86	40510.87
551.06	41223.56
551.26	41280.91
551.46	41280.91
551.66	41207.18
551.87	41121.16
552.07	41373.06
552.27	41309.58
552.47	41534.85
552.67	41420.17
552.87	41334.15
553.07	41618.82
553.28	41543.05
553.48	41950.59
553.68	41829.76
553.88	41876.86
554.08	41876.86
554.28	41448.84
554.48	41348.49
554.69	41950.59
554.89	41954.69
555.09	41868.67
555.29	41604.49
555.49	42032.51
555.69	41983.36
555.89	42253.69
556.10	42044.80
556.30	42120.57
556.50	42300.79
556.70	42145.15
556.90	42280.31
557.10	42368.38
557.30	42024.32
557.50	42294.65
557.70	42929.52
557.91	42605.94
558.11	42581.37
558.31	42892.66
558.51	42368.38
558.71	42661.24
558.91	42769.78
559.11	42253.69
559.31	42943.86
559.51	42622.33
559.72	42653.05
559.92	43003.25
560.12	42435.96
560.32	42902.90
560.52	42538.36
560.72	42927.47
560.92	42952.05
561.12	42984.82
561.32	43328.87
561.52	42538.36
561.72	43226.48
561.93	42704.24
562.13	43058.54
562.33	42874.23
562.53	43955.55
562.73	43072.88
562.93	43197.80
563.13	42947.95
563.33	43091.31
563.53	43529.58
563.73	43103.60
563.93	43492.71
564.13	43767.14
564.33	43373.93
564.53	43613.54
564.74	43957.60
564.94	43472.23
565.14	43591.01
565.34	43644.26
565.54	43877.73
565.74	43689.32
565.94	43973.98
566.14	43605.35
566.34	43545.96
566.54	44307.80
566.74	44062.05
566.94	44035.42
567.14	44113.25
567.34	43685.22
567.54	43971.94
567.74	44094.82
567.94	43947.36
568.14	44320.09
568.34	43873.63
568.54	44332.38
568.74	44381.53
568.94	44250.46
569.14	44639.57
569.34	44514.65
569.54	44610.90
569.75	44174.69
569.95	44531.03
570.15	45157.71
570.35	44965.20
570.55	44557.66
570.75	44367.20
570.95	44948.82
571.15	45047.12
571.35	44918.10
571.55	45301.07
571.75	44723.54
571.95	45333.84
572.15	44961.11
572.35	45405.52
572.55	45505.87
572.75	45305.16
572.95	45768.01
573.15	45681.99
573.35	45358.41
573.55	45329.74
573.75	45557.06
573.95	45563.21
574.15	45602.12
574.35	45802.82
574.55	45634.89
574.75	45233.49
574.95	45958.47
575.15	45335.88
575.34	45888.84
575.54	45962.56
575.74	45663.56
575.94	46445.88
576.14	45802.82
576.34	46458.17
576.54	46507.32
576.74	46087.49
576.94	46411.07
577.14	46646.58
577.34	47033.65
577.54	46699.83
577.74	46490.94
577.94	46738.74
578.14	46708.02
578.34	46923.06
578.54	46486.84
578.74	46761.27
578.94	46867.76
579.14	46867.76
579.34	46675.26
579.54	47011.12
579.74	47285.55
579.94	47072.56
580.13	47367.47
580.33	47256.88
580.53	47525.16
580.73	47424.81
580.93	47367.47
581.13	47510.83
581.33	48149.79
581.53	47844.65
581.73	47953.19
581.93	48033.06
582.13	48401.69
582.33	47779.11
582.53	47631.66
582.73	48004.39
582.92	47922.47
583.12	48196.90
583.32	48065.83
583.52	48133.41
583.72	48731.42
583.92	48076.07
584.12	48516.38
584.32	48708.89
584.52	48416.03
584.72	48782.62
584.92	48737.56
585.11	49247.50
585.31	48817.43
585.51	49011.99
585.71	49042.71
585.91	49184.02
586.11	49184.02
586.31	49114.39
586.51	48997.65
586.71	49171.73
586.91	49896.71
587.10	49493.26
587.30	49345.81
587.50	49288.46
587.70	49413.39
587.90	49689.87
588.10	49409.29
588.30	49630.47
588.50	50013.44
588.69	49679.63
588.89	49767.69
589.09	50072.84
589.29	49810.70
589.49	50351.36
589.69	49865.99
589.89	50476.29
590.08	50287.87
590.28	49937.67
590.48	50224.39
590.68	50009.35
590.88	50208.00
591.08	50119.94
591.28	50019.59
591.47	50504.96
591.67	50504.96
591.87	50539.77
592.07	50869.50
592.27	50687.23
592.47	50582.78
592.67	50599.16
592.86	50642.17
593.06	50853.11
593.26	50869.50
593.46	51006.71
593.66	50746.62
593.86	50550.01
594.05	51016.95
594.25	51229.94
594.45	50787.58
594.65	51135.73
594.85	50609.40
595.05	51401.97
595.24	50853.11
595.44	51328.24
595.64	50990.33
595.84	51365.10
596.04	51623.15
596.23	51434.74
596.43	51961.06
596.63	51770.60
596.83	51674.35
597.03	51870.95
597.22	51891.43
597.42	51901.67
597.62	52053.22
597.82	52067.56
598.02	51725.55
598.21	51922.15
598.41	51721.45
598.61	52139.24
598.81	52106.47
599.01	52337.89
599.20	51922.15
599.40	52135.14
599.60	52202.72
599.80	52225.25
600.00	52399.33
600.19	52315.36
600.39	52380.90
600.59	52468.96
600.79	52653.28
600.98	52014.31
601.18	52622.56
601.38	52638.94
601.58	52806.87
601.78	52597.98
601.97	52436.19
602.17	53259.48
602.37	52692.19
602.57	52479.20
602.76	53021.91
602.96	52477.15
603.16	53200.08
603.36	52868.31
603.55	53480.66
603.75	52851.93
603.95	53204.18
604.15	53263.57
604.34	53359.83
604.54	53138.65
604.74	53451.98
604.94	53402.83
605.13	53236.95
605.33	53202.13
605.53	53413.07
605.73	53595.34
605.92	53146.84
606.12	53646.54
606.32	53679.31
606.52	53329.11
606.71	53578.96
606.91	54283.46
607.11	53361.87
607.30	53591.25
607.50	53982.41
607.70	53978.31
607.90	53871.82
608.09	53605.58
608.29	53992.65
608.49	54158.53
608.68	53712.08
608.88	54023.37
609.08	54136.01
609.28	53855.43
609.47	53538.00
609.67	54656.19
609.87	54375.62
610.06	54090.95
610.26	53785.80
610.46	54938.81
610.66	54062.28
610.85	53957.83
611.05	54043.85
611.25	54469.82
611.44	54172.87
611.64	54396.10
611.84	54009.03
612.03	54158.53
612.23	54416.58
612.43	54093.00
612.62	54164.68
612.82	54267.08
613.02	54248.64
613.21	54246.60
613.41	53978.31
613.61	54799.55
613.80	54154.44
614.00	54269.12
614.20	54314.18
614.39	54342.85
614.59	54588.61
614.79	54334.66
614.98	54207.68
615.18	54346.95
615.38	54504.64
615.57	54142.15
615.77	54404.29
615.97	54379.71
616.16	54549.70
616.36	54510.78
616.56	54281.41
616.75	54953.15
616.95	54217.92
617.15	54455.49
617.34	54480.06
617.54	54271.17
617.74	54701.25
617.93	55157.94
618.13	54138.05
618.32	54080.71
618.52	54150.34
618.72	54760.64
618.91	54301.89
619.11	54394.05
619.31	54471.87
619.50	54457.54
619.70	54201.54
619.90	54330.56
620.09	54273.22
620.29	54543.55
620.48	54533.31
620.68	54996.15
620.88	53945.54
621.07	54549.70
621.27	54961.34
621.46	54338.75
621.66	54592.70
621.86	54568.13
622.05	53980.36
622.25	54969.53
622.44	54324.42
622.64	54541.50
622.84	54715.58
623.03	54408.39
623.23	54473.92
623.42	54588.61
623.62	54738.11
623.82	54789.31
624.01	54502.59
624.21	54387.91
624.40	54561.98
624.60	54455.49
624.80	54738.11
624.99	54766.78
625.19	54338.75
625.38	54987.96
625.58	54938.81
625.77	54238.40
625.97	54686.91
626.17	54273.22
626.36	54363.33
626.56	54740.16
626.75	54262.98
626.95	54891.71
627.14	54471.87
627.34	54901.95
627.54	54318.28
627.73	54772.92
627.93	54688.96
628.12	54154.44
628.32	54899.90
628.51	55014.58
628.71	54768.83
628.90	54729.92
629.10	54623.42
629.30	54633.66
629.49	54834.36
629.69	54645.95
629.88	55080.12
630.08	55088.31
630.27	55243.96
630.47	55229.62
630.66	54590.66
630.86	55291.06
631.05	54512.83
631.25	54850.75
631.44	55041.21
631.64	54828.22
631.84	55000.25
632.03	55606.45
632.23	55106.74
632.42	55112.89
632.62	55418.03
632.81	54977.72
633.01	55104.70
633.20	55446.71
633.40	55303.35
633.59	55155.89
633.79	54848.70
633.98	55241.91
634.18	55061.69
634.37	55487.67
634.57	55456.95
634.76	55790.76
634.96	55432.37
635.15	55350.45
635.35	55446.71
635.54	55555.25
635.74	55702.70
635.93	55071.93
636.13	55706.80
636.32	55956.65
636.52	55348.40
636.71	55100.60
636.91	55497.91
637.10	55024.82
637.30	55717.04
637.49	55497.91
637.69	55622.83
637.88	56097.96
638.08	55499.95
638.27	55887.02
638.46	55448.75
638.66	56140.97
638.85	55956.65
639.05	56067.24
639.24	55919.79
639.44	55489.71
639.63	56468.64
639.83	56112.30
640.02	55596.21
640.22	56452.26
640.41	56114.34
640.61	55714.99
640.80	55911.59
640.99	56054.95
641.19	56272.04
641.38	55690.41
641.58	56333.48
641.77	55631.02
641.97	56194.21
642.16	55641.26
642.36	56159.40
642.55	56106.15
642.74	55950.51
642.94	56294.56
643.13	56380.58
643.33	56294.56
643.52	56669.34
643.72	56568.99
643.91	56128.68
644.10	56681.63
644.30	56648.86
644.49	56773.79
644.69	56839.32
644.88	56548.51
645.08	56040.62
645.27	56278.18
645.46	56077.48
645.66	56777.89
645.85	56313.00
646.05	56824.99
646.24	56507.55
646.43	56384.68
646.63	57148.57
646.82	56708.25
647.02	56245.41
647.21	56605.86
647.40	56702.11
647.60	56786.08
647.79	57015.45
647.99	56599.71
648.18	56325.28
648.37	57523.35
648.57	57361.56
648.76	56896.67
648.96	56630.43
649.15	57472.15
649.34	57001.11
649.54	57126.04
649.73	57203.86
649.92	57179.29
650.12	57308.31
650.31	56915.10
650.51	57382.04
650.70	57390.23
650.89	56489.12
651.09	57881.74
651.28	57279.64
651.47	57343.12
651.67	57308.31
651.86	57521.30
652.06	57164.95
652.25	57570.45
652.44	57218.20
652.64	56646.82
652.83	57070.75
653.02	56954.01
653.22	56960.15
653.41	57148.57
653.60	56947.87
653.80	57083.03
653.99	57078.94
654.18	56857.76
654.38	57435.28
654.57	57017.50
654.76	56886.43
654.96	57138.33
655.15	57009.31
655.34	57005.21
655.54	57019.55
655.73	57296.02
655.92	57715.86
656.12	57455.76
656.31	57152.66
656.50	57177.24
656.70	57377.94
656.89	56982.68
657.08	57177.24
657.28	57054.36
657.47	57080.98
657.66	57318.55
657.86	56997.02
658.05	57470.10
658.24	57537.68
658.43	56736.93
658.63	57343.12
658.82	57099.42
659.01	57435.28
659.21	57488.53
659.40	57359.51
659.59	56812.70
659.79	57263.25
659.98	56939.68
660.17	57029.79
660.36	57142.42
660.56	56997.02
660.75	57429.14
660.94	57085.08
661.14	57140.38
661.33	57382.04
661.52	56933.53
661.71	57451.67
661.91	56972.44
662.10	56798.37
662.29	57570.45
662.49	57078.94
662.68	57113.75
662.87	57625.74
663.06	57293.97
663.26	57212.06
663.45	57343.12
663.64	56962.20
663.83	57308.31
664.03	57191.58
664.22	57025.69
664.41	57392.28
664.60	57070.75
664.80	57314.45
664.99	57109.66
665.18	57179.29
665.37	57455.76
665.57	57009.31
665.76	56796.32
665.95	56667.30
666.14	56532.13
666.34	57201.82
666.53	56870.04
666.72	56554.66
666.91	56771.74
667.11	56698.01
667.30	57126.04
667.49	56999.07
667.68	56759.45
667.87	56589.47
668.07	56669.34
668.26	56890.52
668.45	57005.21
668.64	56614.05
668.84	57109.66
669.03	57115.80
669.22	56444.07
669.41	56886.43
669.60	56947.87
669.80	56779.93
669.99	56982.68
670.18	56720.54
670.37	56814.75
670.57	56972.44
670.76	56646.82
670.95	57037.98
671.14	56448.16
671.33	56587.42
671.53	57095.32
671.72	56681.63
671.91	56503.46
672.10	56251.56
672.29	56310.95
672.48	56560.80
672.68	56663.20
672.87	55968.94
673.06	56573.09
673.25	56239.27
673.44	56427.68
673.64	56419.49
673.83	56439.97
674.02	56612.00
674.21	56390.82
674.40	56476.83
674.59	56132.78
674.79	56415.40
674.98	56249.51
675.17	56718.49
675.36	56095.91
675.55	56454.31
675.74	55948.46
675.94	56523.94
676.13	56472.74
676.32	56296.61
676.51	56847.52
676.70	56224.93
676.89	56308.90
677.08	56593.57
677.28	55966.89
677.47	56652.96
677.66	56747.17
677.85	56255.65
678.04	56575.14
678.23	56616.10
678.42	56353.96
678.62	55784.62
678.81	56487.07
679.00	55960.75
679.19	56472.74
679.38	56161.45
679.57	56444.07
679.76	56040.62
679.96	56194.21
680.15	56097.96
680.34	56358.05
680.53	55784.62
680.72	56052.90
680.91	56290.47
681.10	55882.92
681.29	56673.44
681.48	56077.48
681.68	55805.10
681.87	56108.20
682.06	55891.12
682.25	55620.78
682.44	55649.45
682.63	56036.52
682.82	55919.79
683.01	56044.71
683.20	55422.13
683.39	55905.45
683.59	55555.25
683.78	55706.80
683.97	55678.13
684.16	55659.69
684.35	55565.49
684.54	55377.08
684.73	55682.22
684.92	55485.62
685.11	55387.31
685.30	55266.48
685.49	55864.49
685.69	55919.79
685.88	55641.26
686.07	55344.31
686.26	55415.99
686.45	55626.93
686.64	55614.64
686.83	55551.15
687.02	55268.53
687.21	55770.28
687.40	55272.63
687.59	55334.07
687.78	55456.95
687.97	55731.37
688.16	55131.32
688.35	55377.08
688.54	55219.38
688.74	55260.34
688.93	54957.24
689.12	55049.40
689.31	55911.59
689.50	55297.20
689.69	55424.18
689.88	54971.58
690.07	55370.93
690.26	55381.17
690.45	55493.81
690.64	55065.78
690.83	54805.69
691.02	54805.69
691.21	54854.84
691.40	55194.81
691.59	54756.54
691.78	54744.25
691.97	55270.58
692.16	54883.51
692.35	55360.69
692.54	55301.30
692.73	55319.73
692.92	55246.00
693.11	55020.73
693.30	55235.77
693.49	55162.04
693.68	54908.09
693.87	54891.71
694.06	54727.87
694.25	54998.20
694.44	54408.39
694.63	55172.28
694.82	55071.93
695.01	54686.91
695.20	54793.40
695.39	54414.53
695.58	54041.80
695.77	54592.70
695.96	54957.24
696.15	54555.84
696.34	54408.39
696.53	54480.06
696.72	55151.80
696.91	54518.98
697.10	54600.89
697.29	54150.34
697.48	55420.08
697.67	54512.83
697.86	54301.89
698.05	54383.81
698.24	54334.66
698.43	54033.61
698.62	54578.37
698.81	54320.32
699.00	54973.63
699.19	54533.31
699.38	54584.51
699.57	54031.56
699.76	54766.78
699.95	54355.14
700.14	53980.36
700.32	54148.29
700.51	53787.85
700.70	54711.49
700.89	54523.07
701.08	54269.12
701.27	54115.53
701.46	54768.83
701.65	53798.09
701.84	54031.56
702.03	54256.84
702.22	54111.43
702.41	54492.35
702.60	54095.05
702.79	53959.88
702.98	53830.86
703.17	54146.25
703.35	53740.75
703.54	54004.94
703.73	54260.93
703.92	54432.96
704.11	54058.18
704.30	53853.39
704.49	53679.31
704.68	53834.95
704.87	53875.91
705.06	53796.04
705.25	53503.18
705.43	53959.88
705.62	54199.49
705.81	53703.88
706.00	53951.69
706.19	53413.07
706.38	53576.91
706.57	53814.47
706.76	53382.35
706.95	53462.22
707.14	53624.01
707.32	53705.93
707.51	53601.49
707.70	53843.15
707.89	53232.85
708.08	53249.24
708.27	53187.80
708.46	53597.39
708.65	53394.64
708.84	53732.56
709.02	53722.32
709.21	53486.80
709.40	53515.47
709.59	53404.88
709.78	53138.65
709.97	53951.69
710.16	52839.64
710.34	53402.83
710.53	53406.93
710.72	52987.10
710.91	53361.87
711.10	53302.48
711.29	53329.11
711.48	53372.11
711.66	53386.45
711.85	53163.22
712.04	53271.76
712.23	52921.56
712.42	53171.41
712.61	53212.37
712.80	53046.49
712.98	53083.35
713.17	52851.93
713.36	53359.83
713.55	52774.11
713.74	52983.00
713.93	52903.13
714.11	52776.15
714.30	52583.65
714.49	52774.11
714.68	53032.15
714.87	52819.16
715.06	53048.53
715.24	52262.11
715.43	52759.77
715.62	52305.12
715.81	52614.37
716.00	52411.62
716.18	52202.72
716.37	51975.40
716.56	52274.40
716.75	52542.69
716.94	52657.37
717.12	51944.68
717.31	52270.31
717.50	52010.21
717.69	52110.56
717.88	52049.13
718.06	52176.10
718.25	52413.66
718.44	51389.68
718.63	52010.21
718.82	51629.29
719.00	51543.28
719.19	51852.52
719.38	51922.15
719.57	51719.40
719.76	51240.18
719.94	50887.93
720.13	50754.81
720.32	51002.61
720.51	51152.12
720.69	51004.66
720.88	51062.00
721.07	51023.09
721.26	50500.86
721.44	50949.37
721.63	50928.89
721.82	50803.96
722.01	50584.83
722.20	50885.88
722.38	50328.83
722.57	50312.45
722.76	50418.94
722.95	50507.01
723.13	49970.44
723.32	50545.92
723.51	50607.36
723.70	50210.05
723.88	50244.87
724.07	50097.41
724.26	50042.12
724.44	49310.99
724.63	50076.93
724.82	50412.80
725.01	49855.75
725.19	49995.01
725.38	50238.72
725.57	49354.00
725.76	49753.35
725.94	49511.69
726.13	49566.99
726.32	49724.68
726.51	49435.92
726.69	49741.06
726.88	49771.78
727.07	49626.38
727.25	49550.60
727.44	49628.43
727.63	49650.95
727.82	49706.25
728.00	49476.88
728.19	49378.57
728.38	49671.43
728.56	48944.41
728.75	49732.87
728.94	49022.23
729.12	49384.72
729.31	48743.70
729.50	49274.13
729.69	49323.28
729.87	49194.26
730.06	49270.03
730.25	48981.27
730.43	49214.74
730.62	49243.41
730.81	49431.82
730.99	49169.68
731.18	48739.61
731.37	49323.28
731.55	49085.72
731.74	49315.09
731.93	48741.66
732.11	49229.07
732.30	49401.10
732.49	48850.20
732.67	48635.16
732.86	48854.29
733.05	49255.70
733.23	48387.36
733.42	48727.32
733.61	48946.45
733.79	48868.63
733.98	48690.46
734.17	48526.62
734.35	48872.73
734.54	48643.35
734.73	48755.99
734.91	48637.21
735.10	48284.96
735.29	48651.55
735.47	48383.26
735.66	48270.62
735.84	48614.68
736.03	48276.77
736.22	48819.48
736.40	47834.41
736.59	48284.96
736.78	47990.05
736.96	48235.81
737.15	48248.10
737.33	48143.65
737.52	48379.17
737.71	47873.32
737.89	47945.00
738.08	47895.85
738.27	47723.82
738.45	48399.65
738.64	48280.86
738.82	48086.31
739.01	47832.36
739.20	47777.06
739.38	47361.33
739.57	47658.28
739.75	47963.43
739.94	47109.43
740.13	47551.79
740.31	47265.07
740.50	47533.35
740.68	47463.72
740.87	47621.42
741.06	47824.17
741.24	47555.88
741.43	47168.82
741.61	47412.52
741.80	47390.00
741.99	47060.27
742.17	47433.00
742.36	47322.41
742.54	47127.86
742.73	47244.59
742.91	47252.78
743.10	47273.26
743.29	47039.79
743.47	47136.05
743.66	47080.75
743.84	47205.68
744.03	46832.95
744.21	47009.07
744.40	47043.89
744.59	46857.52
744.77	46914.87
744.96	46732.60
745.14	46839.09
745.33	46839.09
745.51	46374.20
745.70	46779.70
745.88	46894.39
746.07	46318.91
746.26	46406.97
746.44	46165.31
746.63	46519.61
746.81	46382.40
747.00	45960.51
747.18	46073.15
747.37	46234.94
747.55	46359.87
747.74	46198.08
747.92	45958.47
748.11	46253.37
748.29	45888.84
748.48	46228.80
748.66	45628.74
748.85	46107.97
749.03	46067.01
749.22	45952.32
749.41	45778.25
749.59	45780.29
749.78	45729.09
749.96	45602.12
750.15	45620.55
750.33	45655.37
750.52	45774.15
750.70	45585.74
750.89	45145.42
751.07	45208.91
751.26	45405.52
751.44	45243.73
751.63	45598.02
751.81	45231.44
752.00	44916.05
752.18	45356.36
752.37	45526.35
752.55	45024.59
752.74	44975.44
752.92	45032.78
753.10	44797.27
753.29	45094.22
753.47	44985.68
753.66	44275.04
753.84	45126.99
754.03	44643.67
754.21	44754.26
754.40	45063.50
754.58	44780.88
754.77	44672.34
754.95	44647.77
755.14	44594.52
755.32	44633.43
755.51	44320.09
755.69	44344.67
755.88	44600.66
756.06	44326.24
756.24	44103.01
756.43	43980.13
756.61	44080.48
756.80	44068.19
756.98	43883.87
757.17	44166.49
757.35	44068.19
757.54	44055.90
757.72	44021.09
757.90	44123.49
758.09	44115.29
758.27	43963.75
758.46	43918.69
758.64	44023.14
758.83	44019.04
759.01	43711.84
759.19	43763.04
759.38	43734.37
759.56	43851.11
759.75	43885.92
759.93	43664.74
760.12	43607.40
760.30	43447.66
760.48	43591.01
760.67	43343.21
760.85	43900.26
761.04	43375.98
761.22	43609.45
761.40	43107.69
761.59	43148.65
761.77	43357.55
761.96	43488.62
762.14	43574.63
762.32	42890.61
762.51	43154.80
762.69	43066.73
762.88	42868.08
763.06	42937.71
763.24	43498.86
763.43	43244.91
763.61	42831.22
763.80	42882.42
763.98	42800.50
764.16	42749.30
764.35	42603.89
764.53	41876.86
764.72	42642.81
764.90	42616.18
765.08	42562.93
765.27	42763.64
765.45	42055.04
765.63	42132.86
765.82	42372.47
766.00	41866.63
766.18	42392.95
766.37	42321.27
766.55	42202.49
766.74	42251.64
766.92	41940.35
767.10	42157.44
767.29	42091.90
767.47	41729.41
767.65	41891.20
767.84	41575.81
768.02	42141.05
768.20	41856.39
768.39	41893.25
768.57	41934.21
768.75	41600.39
768.94	41801.09
769.12	41833.86
769.30	41522.57
769.49	41354.63
769.67	41258.38
769.85	41229.71
770.04	41510.28
770.22	41477.51
770.40	41328.01
770.59	41313.67
770.77	41481.61
770.95	41534.85
771.14	40902.03
771.32	40859.02
771.50	41016.72
771.69	40879.50
771.87	41309.58
772.05	40709.52
772.24	40662.42
772.42	40897.94
772.60	41000.33
772.78	41088.40
772.97	40590.74
773.15	41178.51
773.33	40926.61
773.52	40809.87
773.70	40625.56
773.88	40940.94
774.07	40275.35
774.25	40566.16
774.43	40854.93
774.61	40998.29
774.80	41059.73
774.98	40783.25
775.16	40600.98
775.34	40795.54
775.53	40801.68
775.71	40830.35
775.89	40881.55
776.08	40613.27
776.26	40869.26
776.44	40656.28
776.62	40902.03
776.81	40605.08
776.99	40867.22
777.17	40971.66
777.35	40959.38
777.54	41252.23
777.72	40785.30
777.90	41170.32
778.08	41176.46
778.27	41151.88
778.45	41229.71
778.63	41588.10
778.81	41149.84
779.00	41428.36
779.18	41371.02
779.36	41127.31
779.54	41246.09
779.73	41463.18
779.91	41760.13
780.09	41647.49
780.27	41876.86
780.46	41282.95
780.64	42294.65
780.82	41719.17
781.00	41538.95
781.19	41706.88
781.37	42081.66
781.55	42210.68
781.73	41999.74
781.91	41844.10
782.10	41897.34
782.28	41667.97
782.46	42055.04
782.64	42274.17
782.82	41866.63
783.01	41962.88
783.19	41891.20
783.37	42272.12
783.55	41647.49
783.74	42005.89
783.92	41772.42
784.10	42165.63
784.28	41966.98
784.46	41991.55
784.64	41917.82
784.83	42073.47
785.01	42401.14
785.19	41690.50
785.37	42495.35
785.55	42044.80
785.74	41526.66
785.92	41727.36
786.10	42042.75
786.28	42030.46
786.46	41731.46
786.64	41416.07
786.83	41776.51
787.01	41424.26
787.19	41956.74
787.37	41506.18
787.55	41878.91
787.74	41186.70
787.92	41561.48
788.10	41590.15
788.28	41514.37
788.46	41811.33
788.64	41182.60
788.82	41481.61
789.01	41432.46
789.19	41338.25
789.37	41033.10
789.55	41090.44
789.73	41287.05
789.91	40928.66
790.09	41063.82
790.28	40740.24
790.46	40465.81
790.64	40940.94
790.82	41090.44
791.00	40658.32
791.18	40629.65
791.36	40519.06
791.55	40932.75
791.73	40121.76
791.91	40304.02
792.09	40670.61
792.27	40656.28
792.45	40699.28
792.63	40404.38
792.81	40465.81
793.00	40123.80
793.18	39925.15
793.36	40246.68
793.54	39900.58
793.72	40080.80
793.90	39970.21
794.08	39699.87
794.26	39777.70
794.44	39466.41
794.62	39124.40
794.81	39355.82
794.99	39273.90
795.17	39146.92
795.35	39208.36
795.53	39251.37
795.71	39220.65
795.89	39007.66
796.07	38776.24
796.25	39112.11
796.43	38978.99
796.61	38598.07
796.80	38053.31
796.98	38856.11
797.16	38358.45
797.34	38653.36
797.52	37871.04
797.70	38790.58
797.88	38034.88
798.06	37776.83
798.24	38061.50
798.42	37846.46
798.60	37653.95
798.78	37985.72
798.96	37895.61
799.14	37332.42
799.32	37551.56
799.51	37430.72
799.69	37952.96
799.87	37416.39
800.05	37248.46
800.23	37297.61
800.41	37062.09
800.59	36869.58
800.77	36787.66
800.95	36685.26
801.13	36756.94
801.31	36296.15
801.49	36476.37
801.67	36552.15
801.85	36515.28
802.03	36349.40
802.21	36318.68
802.39	36136.41
802.57	35696.10
802.75	36128.22
802.93	35730.91
803.11	35841.50
803.29	35816.93
803.47	35890.65
803.65	35681.76
803.83	35911.13
804.01	35497.44
804.19	35411.43
804.37	35399.14
804.55	35145.19
804.73	35638.75
804.91	35040.75
805.09	35403.24
805.27	35175.91
805.45	34895.34
805.63	35098.09
805.81	34907.63
805.99	34944.49
806.17	34979.31
806.35	34788.85
806.53	34735.60
806.71	34686.45
806.89	34778.61
807.07	34653.68
807.25	34764.27
807.43	34268.66
807.61	34319.86
807.79	34563.57
807.97	34119.16
808.15	34266.61
808.33	34008.57
808.51	34004.47
808.69	33969.66
808.87	33396.23
809.05	33474.05
809.23	33766.91
809.41	33949.18
809.59	33449.47
809.77	33441.28
809.95	33132.04
810.13	33170.95
810.31	33089.03
810.49	33326.60
810.67	33283.59
810.84	33101.32
811.02	32984.58
811.20	32927.24
811.38	33201.67
811.56	32398.87
811.74	32980.49
811.92	32372.24
812.10	32949.77
812.28	32769.55
812.46	32636.43
812.64	32429.59
812.82	32071.19
813.00	32593.42
813.18	32421.39
813.36	32116.25
813.53	32122.39
813.71	31970.84
813.89	31663.64
814.07	31925.78
814.25	31503.90
814.43	31395.36
814.61	31731.23
814.79	31520.29
814.97	31553.05
815.15	31897.11
815.33	31122.98
815.50	31153.70
815.68	31651.36
815.86	31524.38
816.04	31030.82
816.22	31464.99
816.40	31192.61
816.58	31063.59
816.76	31376.93
816.94	31333.92
817.11	31297.06
817.29	30907.94
817.47	30805.55
817.65	30727.72
817.83	30815.79
818.01	30377.52
818.19	30404.14
818.37	30430.77
818.54	30049.85
818.72	29851.19
818.90	30479.92
819.08	30211.64
819.26	30619.18
819.44	30318.13
819.62	30264.88
819.80	30154.29
819.97	29996.60
820.15	29840.95
820.33	29722.17
820.51	29826.62
820.69	29937.21
820.87	29722.17
821.05	29810.23
821.22	29617.72
821.40	29728.31
821.58	29447.74
821.76	29652.54
821.94	29265.47
822.12	29107.78
822.29	29308.48
822.47	28956.23
822.65	29486.65
822.83	29132.36
823.01	29537.85
823.19	29081.16
823.36	29091.40
823.54	29257.28
823.72	28733.00
823.90	28694.09
824.08	28866.12
824.25	28722.76
824.43	28501.58
824.61	28370.51
824.79	28587.60
824.97	28440.14
825.15	28556.88
825.32	28620.36
825.50	28393.04
825.68	28378.70
825.86	28552.78
826.04	28749.39
826.21	28333.65
826.39	28554.83
826.57	28261.97
826.75	27936.34
826.93	28061.27
827.10	28419.66
827.28	28073.56
827.46	27989.59
827.64	28182.10
827.81	28163.67
827.99	28175.95
828.17	27813.46
828.35	27858.52
828.53	27649.63
828.70	27715.16
828.88	27784.79
829.06	27620.95
829.24	27717.21
829.41	27485.79
829.59	27506.27
829.77	27295.33
829.95	27602.52
830.12	27096.67
830.30	27522.65
830.48	27416.16
830.66	27416.16
830.84	27135.59
831.01	27254.37
831.19	27147.87
831.37	27350.62
831.55	27078.24
831.72	26852.97
831.90	26975.84
832.08	27115.11
832.25	26838.63
832.43	26996.32
832.61	27119.20
832.79	26844.77
832.96	26650.22
833.14	26998.37
833.32	27016.80
833.50	26830.44
833.67	26580.59
833.85	26611.31
834.03	26508.91
834.20	26560.11
834.38	26586.73
834.56	26521.20
834.74	26246.77
834.91	26386.03
835.09	26175.09
835.27	26160.75
835.44	26232.43
835.62	25712.25
835.80	25998.96
835.98	26175.09
836.15	26044.02
836.33	25636.47
836.51	26338.93
836.68	25583.23
836.86	26013.30
837.04	25904.76
837.21	25941.62
837.39	25960.05
837.57	25570.94
837.75	25867.89
837.92	25671.29
838.10	25605.75
838.28	25300.61
838.45	25374.33
838.63	25151.10
838.81	25534.07
838.98	25212.54
839.16	25290.37
839.34	25159.30
839.51	25259.65
839.69	25204.35
839.87	25319.04
840.04	24794.76
840.22	24948.36
840.40	24979.07
840.57	24931.97
840.75	25040.51
840.93	24673.93
841.10	25122.43
841.28	25296.51
841.46	24909.44
841.63	24860.29
841.81	24870.53
841.98	24940.16
842.16	25048.71
842.34	24966.79
842.51	24469.13
842.69	24870.53
842.87	24776.33
843.04	24503.95
843.22	24495.75
843.40	24477.32
843.57	24456.84
843.75	24643.21
843.92	24587.91
844.10	24489.61
844.28	24405.64
844.45	24561.29
844.63	24235.66
844.81	24125.07
844.98	23852.69
845.16	23832.21
845.33	24305.29
845.51	24630.92
845.69	23961.23
845.86	24024.72
846.04	23705.24
846.21	23801.49
846.39	23785.11
846.57	23922.32
846.74	24037.01
846.92	23545.50
847.09	23658.14
847.27	23672.47
847.45	23676.57
847.62	23678.61
847.80	23864.98
847.97	23516.83
848.15	23666.33
848.32	23559.83
848.50	23774.87
848.68	23393.95
848.85	23416.47
849.03	23256.73
849.20	23412.38
849.38	23172.77
849.56	23436.95
849.73	23180.96
849.91	23465.63
850.08	23434.91
850.26	22980.26
850.43	23209.63
850.61	23264.92
850.78	22828.71
850.96	23219.87
851.14	22955.68
851.31	22884.00
851.49	22978.21
851.66	22808.23
851.84	22996.64
852.01	22963.87
852.19	22802.08
852.36	22865.57
852.54	22859.43
852.71	22890.15
852.89	22765.22
853.07	22648.49
853.24	22515.37
853.42	22701.73
853.59	22439.59
853.77	22769.32
853.94	22466.22
854.12	22513.32
854.29	22138.54
854.47	22537.90
854.64	22466.22
854.82	22464.17
854.99	22607.53
855.17	22486.70
855.34	22240.94
855.52	22435.50
855.69	22079.15
855.87	22136.49
856.04	21825.20
856.22	22214.32
856.39	22202.03
856.57	22224.56
856.74	22007.47
856.92	21829.30
857.09	21651.13
857.27	21903.03
857.44	21950.13
857.62	22007.47
857.79	22183.60
857.97	21765.81
858.14	21948.08
858.32	21706.42
858.49	21794.48
858.67	21860.02
858.84	21647.03
859.02	21657.27
859.19	21423.80
859.37	21837.49
859.54	21507.77
859.72	21831.35
859.89	21601.97
860.06	21296.83
860.24	21178.04
860.41	21483.19
860.59	21339.83
860.76	21407.42
860.94	21030.59
861.11	21444.28
861.29	21143.23
861.46	21421.75
861.64	20815.55
861.81	21096.13
861.98	20952.77
862.16	21075.65
862.33	21044.93
862.51	21016.26
862.68	21042.88
862.86	20815.55
863.03	20704.96
863.21	20639.43
863.38	20770.50
863.55	20801.22
863.73	20897.47
863.90	20934.34
864.08	20915.90
864.25	20825.79
864.43	20627.14
864.60	20633.29
864.77	20760.26
864.95	20565.70
865.12	20698.82
865.30	20569.80
865.47	20565.70
865.64	20629.19
865.82	20676.29
865.99	20887.23
866.17	20471.50
866.34	20467.40
866.51	20283.08
866.69	20321.99
866.86	20338.38
867.04	20270.79
867.21	20393.67
867.38	19984.08
867.56	20100.81
867.73	20201.16
867.91	20109.01
868.08	20197.07
868.25	20278.99
868.43	19879.63
868.60	20242.12
868.78	19990.22
868.95	20192.97
869.12	20053.71
869.30	19838.67
869.47	20014.80
869.64	19619.54
869.82	19875.54
869.99	19349.21
870.16	20051.66
870.34	19877.58
870.51	19803.86
870.69	19476.18
870.86	19607.25
871.03	19764.95
871.21	19267.29
871.38	19791.57
871.55	19470.04
871.73	19334.87
871.90	19488.47
872.07	18986.72
872.25	19181.28
872.42	18978.53
872.59	19166.94
872.77	19179.23
872.94	19154.65
873.11	19039.97
873.29	19285.72
873.46	18779.87
873.63	19093.21
873.81	18767.59
873.98	18697.95
874.15	18919.14
874.33	18988.77
874.50	18689.76
874.67	18667.24
874.85	18704.10
875.02	18841.31
875.19	18583.27
875.37	18681.57
875.54	18747.11
875.71	18527.97
875.88	18390.76
876.06	18364.14
876.23	18394.86
876.40	18357.99
876.58	18271.98
876.75	18444.01
876.92	18333.42
877.10	18306.79
877.27	18284.26
877.44	18097.90
877.61	18136.81
877.79	17993.45
877.96	17966.83
878.13	18138.86
878.31	17665.78
878.48	17764.08
878.65	17975.02
878.82	17909.49
879.00	17647.35
879.17	17813.23
879.34	17936.11
879.51	17737.46
879.69	17714.93
879.86	17630.96
880.03	17540.85
880.21	17499.89
880.38	17739.51
880.55	17424.12
880.72	17460.98
880.90	17495.80
881.07	17745.65
881.24	17551.09
881.41	17612.53
881.59	17575.67
881.76	17610.48
881.93	17391.35
882.10	17186.55
882.28	17149.69
882.45	17534.71
882.62	17338.10
882.79	17395.45
882.96	17250.04
883.14	17219.32
883.31	17626.87
883.48	17264.38
883.65	17325.82
883.83	17424.12
884.00	17477.37
884.17	17254.14
884.34	17303.29
884.51	17182.46
884.69	17194.75
884.86	16989.95
885.03	17170.17
885.20	16871.17
885.38	17071.87
885.55	16684.80
885.72	17047.29
885.89	17071.87
886.06	16899.84
886.24	17049.34
886.41	17104.64
886.58	16981.76
886.75	17153.79
886.92	16688.90
887.10	16924.41
887.27	16736.00
887.44	16602.88
887.61	16865.02
887.78	16717.57
887.95	16649.99
888.13	16717.57
888.30	16611.07
888.47	16557.83
888.64	16721.66
888.81	16619.27
888.99	16350.98
889.16	16350.98
889.33	16494.34
889.50	16332.55
889.67	16379.65
889.84	16156.43
890.01	16205.58
890.19	16168.71
890.36	16437.00
890.53	16453.38
890.70	16248.58
890.87	16244.49
891.04	16088.84
891.22	16092.94
891.39	16017.16
891.56	16011.02
891.73	16021.26
891.90	16021.26
892.07	15808.27
892.24	15910.67
892.42	15957.77
892.59	15707.92
892.76	16011.02
892.93	15959.82
893.10	15918.86
893.27	15990.54
893.44	15722.26
893.61	15757.07
893.79	15746.83
893.96	15900.43
894.13	15808.27
894.30	15759.12
894.47	15841.04
894.64	15986.44
894.81	15953.68
894.98	15785.74
895.15	15734.54
895.33	15640.34
895.50	15671.06
895.67	15693.58
895.84	15574.80
896.01	15599.38
896.18	15589.14
896.35	15951.63
896.52	15669.01
896.69	15613.71
896.86	15775.50
897.04	15789.84
897.21	15564.56
897.38	15724.30
897.55	15724.30
897.72	15617.81
897.89	15499.03
898.06	15687.44
898.23	15476.50
898.40	15658.77
898.57	15658.77
898.74	15560.47
898.91	15402.77
899.08	15525.65
899.26	15736.59
899.43	15531.80
899.60	15589.14
899.77	15406.87
899.94	15394.58
900.11	15283.99
900.28	15535.89
900.45	15327.00
900.62	15441.68
900.79	15568.66
900.96	15398.68
901.13	15615.76
901.30	15453.97
901.47	15404.82
901.64	15673.10
901.81	15488.79
901.98	15392.53
902.15	15677.20
902.32	15527.70
902.49	15482.64
902.66	15535.89
902.83	15689.49
903.01	15406.87
903.18	15490.84
903.35	15574.80
903.52	15558.42
903.69	15775.50
903.86	15798.03
904.03	15388.44
904.20	15621.91
904.37	15515.41
904.54	15367.96
904.71	15316.76
904.88	15662.86
905.05	15529.75
905.22	15791.89
905.39	15335.19
905.56	15400.72
905.73	15623.95
905.90	15472.40
906.07	15556.37
906.24	15511.32
906.41	15419.16
906.58	15220.50
906.75	15415.06
906.92	15294.23
907.09	15392.53
907.26	15304.47
907.43	15343.38
907.60	15142.68
907.77	15660.82
907.93	15544.08
908.10	15331.09
908.27	15499.03
908.44	15347.48
908.61	15290.13
908.78	15324.95
908.95	15630.10
909.12	15382.29
909.29	15419.16
909.46	15523.60
909.63	15197.98
909.80	15220.50
909.97	15247.13
910.14	15329.05
910.31	15288.09
910.48	15251.22
910.65	15216.41
910.82	15208.22
910.99	14892.83
911.16	14982.94
911.33	14991.13
911.50	15120.15
911.66	14989.08
911.83	15183.64
912.00	14855.97
912.17	14933.79
912.34	15013.66
912.51	14954.27
912.68	14757.66
912.85	14929.69
913.02	14950.17
913.19	15056.67
913.36	14956.32
913.53	15015.71
913.70	14841.63
913.86	14849.82
914.03	14763.81
914.20	14931.74
914.37	14675.74
914.54	14618.40
914.71	14614.30
914.88	14624.54
915.05	14595.87
915.22	14518.05
915.39	14462.76
915.55	14645.02
915.72	14552.87
915.89	14505.76
916.06	14260.01
916.23	14393.12
916.40	14190.38
916.57	14343.97
916.74	14237.48
916.91	14530.34
917.07	13956.91
917.24	14329.64
917.41	14020.39
917.58	14237.48
917.75	13895.47
917.92	13928.24
918.09	13842.22
918.26	14020.39
918.42	14157.61
918.59	13872.94
918.76	13889.32
918.93	13840.17
919.10	13795.12
919.27	13807.41
919.44	13932.33
919.60	13770.54
919.77	13778.73
919.94	13688.62
920.11	13690.67
920.28	13571.89
920.45	13414.20
920.61	13319.99
920.78	13385.52
920.95	13610.80
921.12	13340.47
921.29	13147.96
921.46	13213.49
921.62	13012.79
921.79	12984.12
921.96	13043.51
922.13	13041.46
922.30	12767.04
922.47	12898.11
922.63	12945.21
922.80	12826.43
922.97	12683.07
923.14	12678.97
923.31	12779.32
923.47	12437.31
923.64	12787.52
923.81	12535.62
923.98	12549.95
924.15	12334.92
924.32	12576.58
924.48	12480.32
924.65	12494.66
924.82	12388.16
924.99	12289.86
925.15	11970.38
925.32	12216.13
925.49	12015.43
925.66	12060.49
925.83	12001.10
925.99	12066.63
926.16	12033.86
926.33	12179.27
926.50	11880.27
926.67	11915.08
926.83	11874.12
927.00	11790.16
927.17	11806.54
927.34	11661.13
927.50	11587.41
927.67	11857.74
927.84	11466.58
928.01	11542.35
928.17	11298.64
928.34	11278.16
928.51	11444.05
928.68	11403.09
928.84	11415.38
929.01	11345.75
929.18	11110.23
929.35	11089.75
929.51	10977.11
929.68	10864.47
929.85	11104.09
930.02	11075.42
930.18	10721.12
930.35	10829.66
930.52	10463.07
930.69	10762.08
930.85	10727.26
931.02	10532.70
931.19	10536.80
931.36	10391.39
931.52	10577.76
931.69	10329.95
931.86	10370.91
932.02	10366.82
932.19	10211.17
932.36	10370.91
932.53	10182.50
932.69	10162.02
932.86	10387.30
933.03	10063.72
933.19	9959.27
933.36	9914.22
933.53	9912.17
933.70	9832.30
933.86	10043.24
934.03	9746.28
934.20	9400.18
934.36	9772.91
934.53	9338.74
934.70	9389.94
934.86	9496.43
935.03	9269.11
935.20	9199.48
935.36	8963.96
935.53	9058.17
935.70	9299.83
935.86	9234.29
936.03	8970.10
936.20	8730.49
936.36	8793.98
936.53	8763.26
936.70	8628.09
936.86	8828.79
937.03	8654.72
937.20	8238.98
937.36	8351.62
937.53	8087.43
937.70	8069.00
937.86	8095.62
938.03	7952.26
938.20	8087.43
938.36	7868.30
938.53	7817.10
938.70	7774.09
938.86	7667.60
939.03	7679.88
939.20	7411.60
939.36	7407.50
939.53	7417.74
939.70	7382.93
939.86	7114.64
940.03	6934.42
940.19	6950.81
940.36	6928.28
940.53	6868.89
940.69	6670.23
940.86	6674.33
941.03	6598.56
941.19	6506.40
941.36	6393.76
941.52	6459.29
941.69	6406.05
941.86	6360.99
942.02	6135.71
942.19	6250.40
942.35	6211.49
942.52	6117.28
942.69	6008.74
942.85	5916.58
943.02	6039.46
943.18	5865.38
943.35	5842.85
943.52	6025.12
943.68	5705.64
943.85	5789.61
944.01	5879.72
944.18	5748.65
944.35	5590.95
944.51	5623.72
944.68	5523.37
944.84	5509.04
945.01	5420.97
945.17	5445.55
945.34	5584.81
945.51	5701.54
945.67	5486.51
945.84	5382.06
946.00	5326.77
946.17	5326.77
946.33	5328.81
946.50	5484.46
946.67	5441.45
946.83	5318.57
947.00	5576.62
947.16	5330.86
947.33	5310.38
947.49	5431.21
947.66	5226.42
947.82	5367.73
947.99	5283.76
948.16	5382.06
948.32	5359.53
948.49	5337.01
948.65	5388.21
948.82	5296.05
948.98	5339.05
949.15	5322.67
949.31	5357.49
949.48	5459.88
949.64	5326.77
949.81	5318.57
949.97	5244.85
950.14	5443.50
950.30	5375.92
950.47	5386.16
950.63	5191.60
950.80	5404.59
950.96	5416.88
951.13	5468.08
951.30	5343.15
951.46	5349.29
951.63	5375.92
951.79	5476.27
951.96	5447.60
952.12	5427.12
952.29	5337.01
952.45	5300.14
952.62	5468.08
952.78	5435.31
952.94	5418.93
953.11	5445.55
953.27	5289.90
953.44	5525.42
953.60	5429.17
953.77	5550.00
953.93	5461.93
954.10	5484.46
954.26	5478.32
954.43	5328.81
954.59	5466.03
954.76	5636.01
954.92	5513.13
955.09	5418.93
955.25	5398.45
955.42	5541.80
955.58	5609.39
955.75	5509.04
955.91	5322.67
956.07	5681.07
956.24	5486.51
956.40	5476.27
956.57	5531.56
956.73	5420.97
956.90	5543.85
957.06	5459.88
957.23	5607.34
957.39	5427.12
957.56	5619.63
957.72	5506.99
957.88	5527.47
958.05	5488.56
958.21	5668.78
958.38	5486.51
958.54	5390.25
958.71	5486.51
958.87	5500.84
959.03	5457.84
959.20	5334.96
959.36	5443.50
959.53	5402.54
959.69	5386.16
959.85	5558.19
960.02	5357.49
960.18	5474.22
960.35	5519.28
960.51	5408.69
960.68	5502.89
960.84	5429.17
961.00	5502.89
961.17	5521.32
961.33	5500.84
961.50	5562.28
961.66	5363.63
961.82	5496.75
961.99	5492.65
962.15	5562.28
962.31	5367.73
962.48	5402.54
962.64	5476.27
962.81	5517.23
962.97	5455.79
963.13	5484.46
963.30	5472.17
963.46	5296.05
963.62	5271.47
963.79	5373.87
963.95	5320.62
964.12	5453.74
964.28	5418.93
964.44	5253.04
964.61	5416.88
964.77	5255.09
964.93	5586.86
965.10	5345.20
965.26	5390.25
965.42	5265.33
965.59	5320.62
965.75	5318.57
965.92	5285.81
966.08	5363.63
966.24	5337.01
966.41	5320.62
966.57	5287.86
966.73	5367.73
966.90	5197.74
967.06	5197.74
967.22	5234.61
967.39	5128.11
967.55	5218.22
967.71	5334.96
967.88	5144.50
968.04	5007.28
968.20	5185.46
968.37	5078.96
968.53	5128.11
968.69	5158.83
968.85	5285.81
969.02	5111.73
969.18	5228.46
969.34	5078.96
969.51	5142.45
969.67	5250.99
969.83	5068.72
970.00	5234.61
970.16	5050.29
970.32	5038.00
970.48	5128.11
970.65	5001.14
970.81	5027.76
970.97	4947.89
971.14	4929.46
971.30	4988.85
971.46	5048.24
971.63	5050.29
971.79	5105.59
971.95	5054.39
972.11	4960.18
972.28	4927.41
972.44	4904.89
972.60	5048.24
972.76	4906.93
972.93	4730.81
973.09	4966.32
973.25	4812.73
973.42	4911.03
973.58	5011.38
973.74	5001.14
973.90	4962.23
974.07	4812.73
974.23	4868.02
974.39	4857.78
974.55	4865.97
974.72	4894.65
974.88	4736.95
975.04	4808.63
975.20	4675.51
975.37	4734.90
975.53	4743.10
975.69	4671.42
975.85	4679.61
976.01	4753.34
976.18	4675.51
976.34	4782.01
976.50	4788.15
976.66	4775.86
976.83	4800.44
976.99	4585.40
977.15	4632.51
977.31	4573.11
977.47	4732.86
977.64	4597.69
977.80	4536.25
977.96	4583.35
978.12	4552.63
978.29	4566.97
978.45	4497.34
978.61	4523.96
978.77	4667.32
978.93	4485.05
979.10	4550.59
979.26	4521.92
979.42	4483.00
979.58	4429.76
979.74	4431.80
979.91	4411.32
980.07	4360.13
980.23	4431.80
980.39	4495.29
980.55	4403.13
980.71	4394.94
980.88	4349.89
981.04	4298.69
981.20	4435.90
981.36	4270.01
981.52	4394.94
981.68	4413.37
981.85	4382.65
982.01	4317.12
982.17	4270.01
982.33	4218.82
982.49	4315.07
982.65	4343.74
982.82	4280.25
982.98	4220.86
983.14	4249.54
983.30	4294.59
983.46	4253.63
983.62	4237.25
983.79	4253.63
983.95	4083.65
984.11	4063.17
984.27	4249.54
984.43	4247.49
984.59	4206.53
984.75	4147.14
984.91	4210.62
985.08	4220.86
985.24	4106.18
985.40	4089.79
985.56	4165.57
985.72	4120.51
985.88	4163.52
986.04	4067.27
986.20	4089.79
986.37	4016.07
986.53	3971.01
986.69	4007.87
986.85	4001.73
987.01	4044.74
987.17	4075.46
987.33	3997.64
987.49	3950.53
987.65	4026.31
987.82	3948.48
987.98	3932.10
988.14	3993.54
988.30	4081.60
988.46	3866.56
988.62	3854.28
988.78	3934.15
988.94	3956.68
989.10	3762.12
989.26	3735.50
989.42	3827.65
989.59	3766.21
989.75	3762.12
989.91	3844.04
990.07	3723.21
990.23	3794.89
990.39	3798.98
990.55	3817.41
990.71	3620.81
990.87	3862.47
991.03	3770.31
991.19	3690.44
991.35	3667.91
991.51	3827.65
991.67	3825.61
991.83	3751.88
992.00	3686.34
992.16	3700.68
992.32	3645.38
992.48	3657.67
992.64	3547.08
992.80	3755.97
992.96	3522.51
993.12	3712.97
993.28	3600.33
993.44	3633.10
993.60	3547.08
993.76	3631.05
993.92	3577.80
994.08	3569.61
994.24	3588.04
994.40	3616.71
994.56	3592.14
994.72	3495.88
994.88	3477.45
995.04	3483.59
995.20	3518.41
995.36	3530.70
995.52	3596.23
995.68	3477.45
995.84	3553.23
996.00	3575.75
996.16	3555.27
996.32	3399.63
996.48	3428.30
996.64	3465.16
996.80	3499.98
996.96	3375.05
997.12	3405.77
997.28	3401.68
997.44	3307.47
997.60	3403.72
997.76	3420.11
997.92	3436.49
998.08	3383.24
998.24	3317.71
998.40	3370.96
998.56	3299.28
998.72	3299.28
998.88	3289.04
999.04	3370.96
999.20	3311.57
999.36	3342.28
999.52	3358.67
999.68	3342.28
999.84	3278.80
1000.00	3276.75
1000.16	3368.91
1000.32	3344.33
1000.48	3424.20
1000.64	3297.23
1000.80	3190.74
1000.95	3117.01
1001.11	3213.26
1001.27	3127.25
1001.43	3147.73
1001.59	3080.14
1001.75	3153.87
1001.91	3096.53
1002.07	3157.97
1002.23	3082.19
1002.39	3114.96
1002.55	3176.40
1002.71	3119.06
1002.87	3018.71
1003.03	3076.05
1003.19	3133.39
1003.34	3164.11
1003.50	3172.30
1003.66	3170.26
1003.82	3084.24
1003.98	3000.27
1004.14	3000.27
1004.30	2975.70
1004.46	2953.17
1004.62	3074.00
1004.78	2973.65
1004.94	3055.57
1005.09	2965.46
1005.25	3006.42
1005.41	2936.79
1005.57	2983.89
1005.73	2904.02
1005.89	2961.36
1006.05	2973.65
1006.21	2881.49
1006.37	2953.17
1006.52	2877.40
1006.68	2738.13
1006.84	2979.79
1007.00	2850.77
1007.16	3002.32
1007.32	2840.53
1007.48	2822.10
1007.64	2822.10
1007.79	2846.68
1007.95	2805.72
1008.11	2951.12
1008.27	2856.92
1008.43	2787.29
1008.59	2811.86
1008.75	2885.59
1008.91	2779.09
1009.06	2844.63
1009.22	2785.24
1009.38	2766.81
1009.54	2748.37
1009.70	2705.37
1009.86	2826.20
1010.01	2772.95
1010.17	2674.65
1010.33	2764.76
1010.49	2590.68
1010.65	2762.71
1010.81	2680.79
1010.96	2721.75
1011.12	2695.13
1011.28	2621.40
1011.44	2764.76
1011.60	2752.47
1011.76	2691.03
1011.91	2721.75
1012.07	2617.30
1012.23	2609.11
1012.39	2621.40
1012.55	2678.74
1012.71	2557.91
1012.86	2631.64
1013.02	2607.06
1013.18	2645.98
1013.34	2564.06
1013.50	2666.46
1013.65	2670.55
1013.81	2602.97
1013.97	2557.91
1014.13	2635.74
1014.29	2576.34
1014.44	2596.82
1014.60	2600.92
1014.76	2535.39
1014.92	2451.42
1015.07	2514.91
1015.23	2592.73
1015.39	2482.14
1015.55	2525.15
1015.71	2572.25
1015.86	2541.53
1016.02	2500.57
1016.18	2428.89
1016.34	2519.00
1016.49	2387.93
1016.65	2578.39
1016.81	2514.91
1016.97	2570.20
1017.12	2504.67
1017.28	2496.47
1017.44	2353.12
1017.60	2387.93
1017.75	2445.27
1017.91	2508.76
1018.07	2447.32
1018.23	2467.80
1018.38	2459.61
1018.54	2351.07
1018.70	2404.32
1018.86	2387.93
1019.01	2488.28
1019.17	2338.78
1019.33	2478.04
1019.49	2385.88
1019.64	2306.01
1019.80	2426.84
1019.96	2416.60
1020.12	2418.65
1020.27	2340.83
1020.43	2371.55
1020.59	2383.84
1020.74	2346.97
1020.90	2361.31
1021.06	2406.36
1021.22	2465.75
1021.37	2392.03
1021.53	2306.01
1021.69	2248.67
1021.84	2289.63
1022.00	2318.30
1022.16	2328.54
1022.31	2312.16
1022.47	2283.49
1022.63	2414.56
1022.79	2291.68
1022.94	2205.66
1023.10	2398.17
1023.26	2303.96
1023.41	2248.67
1023.57	2172.89
1023.73	2303.96
1023.88	2322.40
1024.04	2222.05
1024.20	2154.46
1024.35	2306.01
1024.51	2217.95
1024.67	2287.58
1024.82	2301.92
1024.98	2133.98
1025.14	2297.82
1025.29	2207.71
1025.45	2193.37
1025.61	2140.13
1025.76	2230.24
1025.92	2263.01
1026.08	2193.37
1026.23	2162.66
1026.39	2273.25
1026.55	2150.37
1026.70	2144.22
1026.86	2088.93
1027.02	2234.33
1027.17	2111.46
1027.33	2220.00
1027.48	2164.70
1027.64	2062.30
1027.80	2101.22
1027.95	2191.33
1028.11	2015.20
1028.27	2142.18
1028.42	2133.98
1028.58	2031.58
1028.73	2115.55
1028.89	2023.39
1029.05	2109.41
1029.20	2113.50
>>>>>End Processed Spectral Data<<<<<
