SpectraSuite Data File
++++++++++++++++++++++++++++++++++++
Date: Fri Jun 02 14:44:31 CEST 2017
User: INFO_000
Dark Spectrum Present: No
Reference Spectrum Present: No
Number of Sampled Component Spectra: 1
Spectrometers: USB4H00879
Integration Time (usec): 80000 (USB4H00879)
Spectra Averaged: 1 (USB4H00879)
Boxcar Smoothing: 0 (USB4H00879)
Correct for Electrical Dark: No (USB4H00879)
Strobe/Lamp Enabled: No (USB4H00879)
Correct for Detector Non-linearity: No (USB4H00879)
Correct for Stray Light: No (USB4H00879)
Number of Pixels in Processed Spectrum: 3648
>>>>>Begin Processed Spectral Data<<<<<
345.13	1290.22
345.34	1290.22
345.56	1290.22
345.78	1331.18
345.99	1247.21
346.21	1791.97
346.42	1726.44
346.64	1667.05
346.86	1734.63
347.07	1634.28
347.29	1705.96
347.50	1597.42
347.72	1675.24
347.94	1742.82
348.15	1607.66
348.37	1544.17
348.59	1673.19
348.80	1624.04
349.02	1769.44
349.23	1681.38
349.45	1638.38
349.67	1703.91
349.88	1763.30
350.10	1816.55
350.31	1714.15
350.53	1722.34
350.75	1808.36
350.96	1708.01
351.18	1722.34
351.39	1818.60
351.61	1652.71
351.82	1650.66
352.04	1798.12
352.26	1736.68
352.47	1738.73
352.69	1781.73
352.90	1621.99
353.12	1677.29
353.34	1724.39
353.55	1730.53
353.77	1712.10
353.98	1699.81
354.20	1644.52
354.41	1808.36
354.63	1763.30
354.85	1814.50
355.06	1759.21
355.28	1675.24
355.49	1699.81
355.71	1683.43
355.92	1650.66
356.14	1691.62
356.35	1665.00
356.57	1644.52
356.79	1748.97
357.00	1650.66
357.22	1738.73
357.43	1644.52
357.65	1773.54
357.86	1693.67
358.08	1720.29
358.29	1697.77
358.51	1755.11
358.72	1777.64
358.94	1640.42
359.16	1730.53
359.37	1722.34
359.59	1636.33
359.80	1765.35
360.02	1738.73
360.23	1728.49
360.45	1751.01
360.66	1697.77
360.88	1609.70
361.09	1667.05
361.31	1689.57
361.52	1679.33
361.74	1785.83
361.95	1828.84
362.17	1648.61
362.38	1843.17
362.60	1816.55
362.81	1753.06
363.03	1617.90
363.24	1671.14
363.46	1767.40
363.67	1742.82
363.89	1738.73
364.10	1761.25
364.32	1658.85
364.53	1726.44
364.75	1626.09
364.96	1724.39
365.18	1699.81
365.39	1695.72
365.61	1658.85
365.82	1777.64
366.04	1667.05
366.25	1681.38
366.47	1744.87
366.68	1648.61
366.90	1634.28
367.11	1783.78
367.33	1759.21
367.54	1705.96
367.76	1681.38
367.97	1798.12
368.19	1726.44
368.40	1708.01
368.62	1656.81
368.83	1587.18
369.05	1789.92
369.26	1621.99
369.48	1689.57
369.69	1726.44
369.91	1757.16
370.12	1634.28
370.33	1759.21
370.55	1662.95
370.76	1712.10
370.98	1765.35
371.19	1656.81
371.41	1650.66
371.62	1644.52
371.84	1673.19
372.05	1740.77
372.27	1640.42
372.48	1738.73
372.69	1710.05
372.91	1798.12
373.12	1771.49
373.34	1705.96
373.55	1771.49
373.77	1880.04
373.98	1703.91
374.20	1796.07
374.41	1810.40
374.62	1650.66
374.84	1779.68
375.05	1671.14
375.27	1712.10
375.48	1773.54
375.70	1748.97
375.91	1757.16
376.12	1818.60
376.34	1681.38
376.55	1732.58
376.77	1798.12
376.98	1660.90
377.19	1648.61
377.41	1681.38
377.62	1699.81
377.84	1820.64
378.05	1884.13
378.27	1685.48
378.48	1804.26
378.69	1832.93
378.91	1796.07
379.12	1728.49
379.34	1697.77
379.55	1714.15
379.76	1789.92
379.98	1638.38
380.19	1710.05
380.41	1722.34
380.62	1740.77
380.83	1710.05
381.05	1691.62
381.26	1822.69
381.47	1683.43
381.69	1738.73
381.90	1873.89
382.12	1757.16
382.33	1648.61
382.54	1669.09
382.76	1738.73
382.97	1771.49
383.19	1669.09
383.40	1656.81
383.61	1667.05
383.83	1607.66
384.04	1687.53
384.25	1703.91
384.47	1834.98
384.68	1718.25
384.89	1667.05
385.11	1626.09
385.32	1744.87
385.54	1718.25
385.75	1640.42
385.96	1773.54
386.18	1646.57
386.39	1855.46
386.60	1701.86
386.82	1617.90
387.03	1748.97
387.24	1794.02
387.46	1769.44
387.67	1765.35
387.88	1759.21
388.10	1679.33
388.31	1697.77
388.52	1783.78
388.74	1722.34
388.95	1693.67
389.16	1746.92
389.38	1646.57
389.59	1773.54
389.80	1787.88
390.02	1763.30
390.23	1812.45
390.44	1699.81
390.66	1724.39
390.87	1617.90
391.08	1722.34
391.30	1804.26
391.51	1687.53
391.72	1755.11
391.94	1730.53
392.15	1785.83
392.36	1736.68
392.58	1734.63
392.79	1734.63
393.00	1726.44
393.22	1822.69
393.43	1740.77
393.64	1779.68
393.85	1789.92
394.07	1744.87
394.28	1734.63
394.49	1773.54
394.71	1796.07
394.92	1808.36
395.13	1626.09
395.35	1769.44
395.56	1703.91
395.77	1806.31
395.98	1759.21
396.20	1791.97
396.41	1755.11
396.62	1806.31
396.84	1773.54
397.05	1630.18
397.26	1708.01
397.47	1859.56
397.69	1697.77
397.90	1933.28
398.11	1806.31
398.32	1660.90
398.54	1710.05
398.75	1812.45
398.96	1800.16
399.18	1873.89
399.39	1705.96
399.60	1779.68
399.81	1748.97
400.03	1685.48
400.24	2013.15
400.45	1777.64
400.66	1802.21
400.88	1626.09
401.09	1912.80
401.30	1748.97
401.51	1837.03
401.73	1746.92
401.94	1720.29
402.15	1814.50
402.36	1837.03
402.58	1769.44
402.79	1824.74
403.00	1757.16
403.21	1828.84
403.43	1894.37
403.64	1767.40
403.85	1808.36
404.06	1814.50
404.27	1656.81
404.49	1755.11
404.70	1708.01
404.91	1818.60
405.12	1812.45
405.34	1869.80
405.55	1900.52
405.76	1683.43
405.97	1757.16
406.19	1974.24
406.40	1777.64
406.61	1873.89
406.82	1703.91
407.03	1744.87
407.25	1732.58
407.46	1880.04
407.67	1859.56
407.88	2011.11
408.09	1841.12
408.31	1679.33
408.52	1820.64
408.73	1806.31
408.94	1798.12
409.15	1806.31
409.37	1816.55
409.58	1839.08
409.79	1740.77
410.00	1916.90
410.21	1839.08
410.43	1843.17
410.64	1662.95
410.85	1748.97
411.06	1849.32
411.27	1773.54
411.48	1789.92
411.70	1857.51
411.91	1880.04
412.12	1898.47
412.33	1986.53
412.54	1728.49
412.76	1830.88
412.97	1947.62
413.18	1753.06
413.39	1771.49
413.60	1906.66
413.81	1830.88
414.03	1796.07
414.24	1781.73
414.45	1994.72
414.66	1785.83
414.87	1830.88
415.08	1751.01
415.30	1927.14
415.51	1798.12
415.72	1777.64
415.93	1818.60
416.14	1783.78
416.35	1773.54
416.56	1841.12
416.78	1869.80
416.99	1853.41
417.20	1896.42
417.41	1978.34
417.62	1837.03
417.83	1964.00
418.04	1804.26
418.26	2004.96
418.47	1888.23
418.68	1925.09
418.89	1884.13
419.10	2060.26
419.31	1912.80
419.52	1884.13
419.73	1828.84
419.95	1992.67
420.16	1714.15
420.37	1880.04
420.58	1841.12
420.79	1753.06
421.00	1789.92
421.21	1863.65
421.42	1918.95
421.63	1902.56
421.85	1920.99
422.06	1873.89
422.27	1875.94
422.48	1880.04
422.69	1816.55
422.90	1970.15
423.11	1818.60
423.32	1978.34
423.53	1966.05
423.75	1837.03
423.96	1877.99
424.17	1982.43
424.38	2060.26
424.59	1951.71
424.80	1953.76
425.01	1974.24
425.22	1834.98
425.43	1900.52
425.64	1984.48
425.85	2183.13
426.06	2197.47
426.28	2041.82
426.49	1751.01
426.70	1853.41
426.91	1968.10
427.12	2021.35
427.33	2035.68
427.54	2035.68
427.75	2002.91
427.96	2140.13
428.17	2076.64
428.38	1880.04
428.59	2013.15
428.80	1941.47
429.01	2017.25
429.23	1939.43
429.44	1902.56
429.65	2050.02
429.86	2086.88
430.07	2101.22
430.28	2045.92
430.49	2056.16
430.70	1902.56
430.91	2281.44
431.12	2115.55
431.33	1961.95
431.54	2244.57
431.75	2041.82
431.96	2095.07
432.17	2160.61
432.38	2258.91
432.59	2103.26
432.80	2213.85
433.01	2131.94
433.22	2058.21
433.43	2088.93
433.64	2215.90
433.85	2142.18
434.06	2172.89
434.27	1949.67
434.49	2047.97
434.70	2312.16
434.91	2088.93
435.12	2215.90
435.33	2146.27
435.54	2174.94
435.75	2017.25
435.96	2099.17
436.17	2160.61
436.38	2242.53
436.59	2127.84
436.80	1976.29
437.01	2174.94
437.22	2267.10
437.43	2269.15
437.64	2056.16
437.85	2281.44
438.06	2408.41
438.27	1904.61
438.48	2293.72
438.69	2107.36
438.90	2258.91
439.11	2267.10
439.32	2482.14
439.53	2113.50
439.74	2195.42
439.95	2303.96
440.16	2174.94
440.37	2258.91
440.57	2238.43
440.78	2359.26
440.99	2490.33
441.20	2197.47
441.41	2244.57
441.62	2220.00
441.83	2232.29
442.04	2306.01
442.25	2316.25
442.46	2312.16
442.67	2244.57
442.88	2447.32
443.09	2275.29
443.30	2203.61
443.51	2230.24
443.72	2410.46
443.93	2371.55
444.14	2576.34
444.35	2115.55
444.56	2254.81
444.77	2205.66
444.98	2576.34
445.19	2727.89
445.40	2328.54
445.61	2164.70
445.81	2334.68
446.02	2650.07
446.23	2281.44
446.44	2383.84
446.65	2682.84
446.86	2813.91
447.07	3024.85
447.28	2418.65
447.49	2377.69
447.70	2711.51
447.91	2650.07
448.12	2377.69
448.33	2754.52
448.54	2617.30
448.74	2328.54
448.95	2639.83
449.16	2473.95
449.37	2676.70
449.58	2820.05
449.79	2809.81
450.00	2494.43
450.21	2564.06
450.42	2727.89
450.63	2754.52
450.84	2471.90
451.05	2957.27
451.25	2551.77
451.46	2691.03
451.67	2779.09
451.88	2775.00
452.09	2670.55
452.30	2465.75
452.51	2678.74
452.72	2662.36
452.93	3084.24
453.13	2449.37
453.34	2697.17
453.55	2922.45
453.76	2815.96
453.97	3026.90
454.18	2322.40
454.39	2723.80
454.60	2820.05
454.81	2707.41
455.01	2654.17
455.22	2451.42
455.43	2846.68
455.64	2977.75
455.85	2752.47
456.06	3123.15
456.27	2920.40
456.48	2883.54
456.68	3000.27
456.89	3172.30
457.10	2996.18
457.31	2717.65
457.52	2633.69
457.73	2795.48
457.94	3049.43
458.14	2928.60
458.35	3385.29
458.56	2725.85
458.77	3014.61
458.98	3182.54
459.19	3139.54
459.39	3258.32
459.60	3360.72
459.81	3020.75
460.02	3313.61
460.23	3225.55
460.44	3465.16
460.65	3194.83
460.85	3104.72
461.06	3160.02
461.27	3057.62
461.48	3278.80
461.69	3276.75
461.89	3096.53
462.10	3233.74
462.31	2908.12
462.52	3387.34
462.73	3397.58
462.94	3557.32
463.14	3545.03
463.35	3403.72
463.56	3626.95
463.77	3573.71
463.98	3485.64
464.18	3137.49
464.39	4089.79
464.60	3778.50
464.81	3692.49
465.02	3854.28
465.23	3844.04
465.43	4016.07
465.64	3729.35
465.85	3459.02
466.06	3710.92
466.27	4145.09
466.47	4272.06
466.68	3819.46
466.89	3764.17
467.10	3784.65
467.30	3596.23
467.51	4282.30
467.72	3958.72
467.93	3934.15
468.14	3885.00
468.34	4388.80
468.55	3954.63
468.76	4136.90
468.97	3755.97
469.17	4411.32
469.38	4140.99
469.59	4392.89
469.80	3899.33
470.01	4501.44
470.21	3958.72
470.42	4603.83
470.63	4523.96
470.84	4593.59
471.04	4247.49
471.25	4759.48
471.46	4306.88
471.67	5001.14
471.87	4741.05
472.08	4693.94
472.29	4734.90
472.50	4462.52
472.70	4882.36
472.91	4478.91
473.12	4677.56
473.33	4483.00
473.53	4837.30
473.74	4583.35
473.95	5175.22
474.16	5083.06
474.36	4773.82
474.57	5283.76
474.78	5138.35
474.99	5562.28
475.19	4851.64
475.40	5437.36
475.61	5593.00
475.81	5003.19
476.02	5281.71
476.23	5283.76
476.44	5285.81
476.64	5431.21
476.85	5636.01
477.06	5463.98
477.27	5984.16
477.47	5994.40
477.68	5994.40
477.89	5648.30
478.09	5621.67
478.30	5443.50
478.51	5568.43
478.71	5676.97
478.92	5914.53
479.13	6061.99
479.34	6154.15
479.54	6154.15
479.75	6111.14
479.96	6389.66
480.16	5859.24
480.37	6236.06
480.58	6393.76
480.78	6627.23
480.99	6342.56
481.20	6401.95
481.41	6115.23
481.61	6352.80
481.82	6856.60
482.03	6547.36
482.23	6490.01
482.44	6686.62
482.65	7262.10
482.85	6985.62
483.06	6846.36
483.27	6913.94
483.47	6870.94
483.68	6868.89
483.89	6930.33
484.09	7319.44
484.30	7237.52
484.51	7010.20
484.71	7237.52
484.92	7372.69
485.13	7348.11
485.33	7456.65
485.54	7255.95
485.75	7071.64
485.95	7573.39
486.16	7432.08
486.37	7618.44
486.57	7331.73
486.78	7380.88
486.98	7845.77
487.19	7393.17
487.40	7788.43
487.60	7444.37
487.81	7806.86
488.02	7581.58
488.22	7690.12
488.43	7954.31
488.64	7763.85
488.84	7833.48
489.05	8191.88
489.25	7901.06
489.46	7798.66
489.67	8087.43
489.87	8628.09
490.08	8183.68
490.29	8497.02
490.49	8247.17
490.70	8662.91
490.90	8200.07
491.11	8247.17
491.32	8525.69
491.52	8300.42
491.73	8664.96
491.94	8298.37
492.14	8714.11
492.35	8712.06
492.55	8556.41
492.76	8515.45
492.97	8841.08
493.17	8652.67
493.38	8808.31
493.58	9338.74
493.79	9103.22
494.00	9234.29
494.20	8947.58
494.41	9838.44
494.61	9451.38
494.82	9420.66
495.02	8988.53
495.23	9682.80
495.44	9166.71
495.64	9570.16
495.85	9570.16
496.05	9678.70
496.26	9564.01
496.47	9531.25
496.67	9316.21
496.88	10372.96
497.08	9598.83
497.29	9912.17
497.49	9944.94
497.70	9738.09
497.91	9615.21
498.11	9930.60
498.32	10239.84
498.52	9774.95
498.73	9850.73
498.93	10391.39
499.14	10235.75
499.34	10055.53
499.55	10620.77
499.76	9670.51
499.96	10444.64
500.17	10051.43
500.37	10213.22
500.58	10278.76
500.78	10010.47
500.99	9992.04
501.19	10473.31
501.40	10528.61
501.60	10082.15
501.81	10493.79
502.02	10760.03
502.22	10209.12
502.43	10704.73
502.63	10534.75
502.84	11280.21
503.04	10544.99
503.25	10878.81
503.45	10631.01
503.66	10573.66
503.86	10669.92
504.07	10282.85
504.27	10375.01
504.48	10792.80
504.68	10948.44
504.89	10819.42
505.09	10862.43
505.30	10612.57
505.50	11143.00
505.71	10874.71
505.91	11689.81
506.12	11147.09
506.32	10936.15
506.53	11036.50
506.73	11229.01
506.94	11452.24
507.14	10921.82
507.35	11157.33
507.55	10938.20
507.76	11163.48
507.96	11339.60
508.17	11317.08
508.37	11007.83
508.58	11616.08
508.78	11120.47
508.99	11925.32
509.19	10987.35
509.40	11468.62
509.60	12007.24
509.81	11708.24
510.01	11464.53
510.22	11548.50
510.42	11648.85
510.63	11683.66
510.83	11462.48
511.04	11513.68
511.24	11796.30
511.44	11339.60
511.65	11898.70
511.85	11470.67
512.06	11880.27
512.26	11863.88
512.47	11980.62
512.67	11814.73
512.88	11763.53
513.08	11988.81
513.29	11904.84
513.49	11708.24
513.69	11689.81
513.90	11986.76
514.10	11966.28
514.31	12230.47
514.51	12132.17
514.72	12322.63
514.92	12197.70
515.13	11691.85
515.33	12105.54
515.53	11937.61
515.74	12312.39
515.94	12115.78
516.15	12435.27
516.35	11745.10
516.56	12152.65
516.76	12031.82
516.96	12400.45
517.17	12724.03
517.37	12117.83
517.58	12343.11
517.78	12476.23
517.99	12701.50
518.19	12601.15
518.39	12578.62
518.60	13340.47
518.80	12605.25
519.01	13051.70
519.21	12689.21
519.41	13162.30
519.62	12384.07
519.82	12764.99
520.03	12977.98
520.23	12681.02
520.43	12488.51
520.64	13786.93
520.84	12988.22
521.05	12898.11
521.25	12728.13
521.45	13029.18
521.66	13006.65
521.86	12873.53
522.07	12977.98
522.27	13377.33
522.47	13094.71
522.68	13215.54
522.88	12918.59
523.08	13403.96
523.29	13074.23
523.49	13215.54
523.70	13455.15
523.90	13332.28
524.10	13598.51
524.31	13453.11
524.51	13000.51
524.71	13348.66
524.92	13291.32
525.12	13420.34
525.33	13459.25
525.53	13528.88
525.73	14051.11
525.94	13690.67
526.14	13766.45
526.34	13705.01
526.55	13973.29
526.75	13874.99
526.95	14210.86
527.16	14038.83
527.36	13881.13
527.56	13858.60
527.77	13895.47
527.97	14153.51
528.17	14065.45
528.38	14090.02
528.58	13958.96
528.78	13979.43
528.99	13975.34
529.19	14485.28
529.39	13928.24
529.60	14083.88
529.80	14362.40
530.00	13795.12
530.21	14788.38
530.41	14538.53
530.61	15134.49
530.82	14477.09
531.02	14325.54
531.22	14481.19
531.43	14640.93
531.63	15005.47
531.83	14726.94
532.04	14939.93
532.24	14831.39
532.44	14946.08
532.64	14911.26
532.85	15585.04
533.05	15347.48
533.25	14937.88
533.46	15165.21
533.66	15359.77
533.86	15058.71
534.07	15566.61
534.27	15032.09
534.47	15503.12
534.67	15341.33
534.88	15066.91
535.08	15646.48
535.28	15994.64
535.49	15634.19
535.69	15818.51
535.89	16056.08
536.09	15841.04
536.30	15732.50
536.50	15402.77
536.70	15603.47
536.91	15218.46
537.11	15845.13
537.31	16121.61
537.51	15976.20
537.72	16299.78
537.92	16117.51
538.12	16406.28
538.32	15931.15
538.53	16385.80
538.73	15929.10
538.93	15953.68
539.13	16293.64
539.34	16361.22
539.54	16066.31
539.74	16492.29
539.94	16303.88
540.15	16625.41
540.35	16185.10
540.55	16291.59
540.75	16484.10
540.96	16668.42
541.16	16621.31
541.36	16363.27
541.56	16508.68
541.77	16822.02
541.97	16434.95
542.17	16684.80
542.37	17032.96
542.58	16744.19
542.78	17002.24
542.98	16680.71
543.18	17065.72
543.38	17043.20
543.59	16869.12
543.79	16678.66
543.99	17037.05
544.19	16848.64
544.40	16996.09
544.60	17231.61
544.80	17176.31
545.00	17047.29
545.20	17016.57
545.41	17100.54
545.61	16905.98
545.81	17055.48
546.01	17465.08
546.21	17125.11
546.42	17266.42
546.62	17479.41
546.82	17041.15
547.02	17405.69
547.22	17403.64
547.43	17393.40
547.63	17307.38
547.83	17624.82
548.03	16844.54
548.23	17458.93
548.44	17686.26
548.64	18063.08
548.84	17628.92
549.04	17569.52
549.24	17850.10
549.45	18982.62
549.65	17477.37
549.85	17768.18
550.05	17819.38
550.25	17647.35
550.45	18194.15
550.66	17725.17
550.86	17766.13
551.06	18198.25
551.26	17809.14
551.46	17673.97
551.66	17889.01
551.87	17669.87
552.07	17856.24
552.27	17866.48
552.47	17858.29
552.67	17962.73
552.87	18030.32
553.07	17917.68
553.28	18034.41
553.48	18118.38
553.68	17805.04
553.88	18214.63
554.08	17919.73
554.28	18476.77
554.48	17891.06
554.69	18228.97
554.89	18028.27
555.09	18511.59
555.29	18048.75
555.49	18409.19
555.69	18169.58
555.89	18114.28
556.10	18241.26
556.30	18091.76
556.50	18431.72
556.70	18056.94
556.90	18282.22
557.10	18564.84
557.30	18304.74
557.50	18642.66
557.70	18677.48
557.91	18546.40
558.11	18446.05
558.31	18847.46
558.51	18476.77
558.71	18460.39
558.91	18538.21
559.11	18575.08
559.31	18464.49
559.51	18403.05
559.72	18661.09
559.92	18439.91
560.12	18288.36
560.32	18829.02
560.52	18560.74
560.72	18534.12
560.92	18734.82
561.12	18904.80
561.32	18960.09
561.52	18585.32
561.72	18849.50
561.93	18513.64
562.13	19060.45
562.33	18968.29
562.53	19068.64
562.73	18818.78
562.93	18683.62
563.13	19150.56
563.33	18456.29
563.53	18810.59
563.73	18665.19
563.93	19095.26
564.13	19044.06
564.33	19107.55
564.53	18837.22
564.74	18802.40
564.94	18847.46
565.14	19171.04
565.34	19005.15
565.54	18904.80
565.74	18677.48
565.94	19320.54
566.14	18941.66
566.34	18908.90
566.54	19050.21
566.74	18964.19
566.94	19531.48
567.14	19203.80
567.34	19015.39
567.54	19115.74
567.74	19365.59
567.94	19035.87
568.14	19218.14
568.34	19488.47
568.54	19594.96
568.74	19244.76
568.94	19148.51
569.14	19703.51
569.34	19633.88
569.54	19420.89
569.75	18974.43
569.95	19560.15
570.15	19465.94
570.35	19535.57
570.55	19146.46
570.75	19343.06
570.95	19605.20
571.15	19373.78
571.35	19570.39
571.55	19824.34
571.75	19293.91
571.95	19756.75
572.15	19150.56
572.35	19343.06
572.55	19502.81
572.75	19525.33
572.95	19375.83
573.15	19513.05
573.35	19910.35
573.55	19351.26
573.75	19005.15
573.95	19605.20
574.15	19646.16
574.35	19881.68
574.55	19470.04
574.75	19701.46
574.95	19926.74
575.15	19482.33
575.34	19472.09
575.54	19705.56
575.74	20113.10
575.94	19529.43
576.14	19670.74
576.34	19646.16
576.54	20066.00
576.74	19846.87
576.94	19992.27
577.14	19803.86
577.34	19850.96
577.54	19773.14
577.74	19934.93
577.94	20121.29
578.14	20309.71
578.34	20221.64
578.54	19930.83
578.74	20225.74
578.94	19836.63
579.14	19764.95
579.34	19863.25
579.54	20260.55
579.74	20197.07
579.94	20195.02
580.13	20164.30
580.33	19758.80
580.53	19635.92
580.73	20309.71
580.93	20174.54
581.13	20072.14
581.33	19990.22
581.53	20690.63
581.73	20197.07
581.93	20221.64
582.13	20483.78
582.33	20418.25
582.53	20674.24
582.73	20575.94
582.92	20621.00
583.12	20614.85
583.32	20192.97
583.52	20301.51
583.72	21018.30
583.92	20590.28
584.12	20479.69
584.32	20928.19
584.52	20496.07
584.72	20950.72
584.92	20674.24
585.11	21112.51
585.31	21073.60
585.51	20393.67
585.71	20889.28
585.91	21069.50
586.11	20756.16
586.31	20793.03
586.51	20709.06
586.71	20803.27
586.91	20553.41
587.10	21024.45
587.30	20938.43
587.50	20870.85
587.70	20739.78
587.90	21104.32
588.10	21061.31
588.30	21063.36
588.50	20958.91
588.69	21077.69
588.89	20973.25
589.09	21083.84
589.29	21350.07
589.49	21335.74
589.69	20545.22
589.89	21630.65
590.08	21309.11
590.28	20934.34
590.48	21161.66
590.68	21178.04
590.88	21280.44
591.08	21167.80
591.28	20868.80
591.47	21298.88
591.67	21040.83
591.87	21219.00
592.07	20977.34
592.27	21493.43
592.47	21249.72
592.67	21382.84
592.86	21448.38
593.06	21499.58
593.26	21577.40
593.46	21384.89
593.66	21241.53
593.86	21712.56
594.05	21544.63
594.25	21810.87
594.45	21345.98
594.65	21468.86
594.85	21376.70
595.05	21345.98
595.24	21237.44
595.44	21348.03
595.64	21292.73
595.84	22034.10
596.04	21343.93
596.23	21540.54
596.43	21878.45
596.63	21731.00
596.83	21546.68
597.03	21921.46
597.22	22240.94
597.42	21952.18
597.62	21900.98
597.82	21892.79
598.02	21628.60
598.21	21878.45
598.41	21546.68
598.61	21755.57
598.81	21460.66
599.01	22060.72
599.20	22116.01
599.40	21644.98
599.60	22068.91
599.80	21817.01
600.00	22054.58
600.19	21868.21
600.39	21747.38
600.59	22058.67
600.79	21798.58
600.98	22304.43
601.18	22050.48
601.38	22220.46
601.58	22275.76
601.78	22226.60
601.97	22245.04
602.17	22453.93
602.37	22333.10
602.57	22259.37
602.76	22273.71
602.96	22402.73
603.16	22275.76
603.36	22324.91
603.55	22433.45
603.75	22204.08
603.95	22359.72
604.15	22455.98
604.34	22433.45
604.54	22537.90
604.74	22507.18
604.94	22709.93
605.13	22329.00
605.33	22529.70
605.53	22537.90
605.73	22437.55
605.92	22460.07
606.12	22863.52
606.32	22599.34
606.52	22445.74
606.71	22412.97
606.91	22470.31
607.11	22472.36
607.30	22619.81
607.50	22443.69
607.70	23064.22
607.90	22589.10
608.09	22498.98
608.29	22787.75
608.49	23072.42
608.68	22668.97
608.88	22593.19
609.08	22425.26
609.28	23025.31
609.47	22689.45
609.67	22920.87
609.87	22986.40
610.06	23107.23
610.26	23254.69
610.46	23223.97
610.66	22822.56
610.85	22871.72
611.05	22787.75
611.25	22841.00
611.44	22894.24
611.64	22740.64
611.84	23133.86
612.03	22847.14
612.23	22603.43
612.43	23189.15
612.62	22826.66
612.82	23176.86
613.02	23328.41
613.21	23047.84
613.41	22918.82
613.61	23318.17
613.80	22881.95
614.00	22711.97
614.20	22730.41
614.39	23152.29
614.59	23043.74
614.79	22953.63
614.98	22943.39
615.18	22662.82
615.38	23053.98
615.57	22886.05
615.77	23668.37
615.97	22978.21
616.16	23140.00
616.36	23041.70
616.56	23217.82
616.75	22785.70
616.95	22601.38
617.15	23252.64
617.34	22740.64
617.54	23043.74
617.74	23207.58
617.93	23283.36
618.13	22816.42
618.32	23002.78
618.52	23117.47
618.72	22922.91
618.91	22812.32
619.11	22754.98
619.31	22650.53
619.50	22589.10
619.70	22711.97
619.90	23008.93
620.09	23191.20
620.29	22628.01
620.48	22941.35
620.68	23303.84
620.88	22935.20
621.07	23045.79
621.27	22982.31
621.46	22822.56
621.66	22779.56
621.86	22453.93
622.05	22793.89
622.25	22986.40
622.44	22689.45
622.64	22441.64
622.84	22636.20
623.03	22541.99
623.23	22644.39
623.42	22896.29
623.62	22984.35
623.82	23023.26
624.01	23076.51
624.21	22886.05
624.40	22777.51
624.60	22496.94
624.80	22748.84
624.99	22488.74
625.19	22593.19
625.38	23084.70
625.58	22773.41
625.77	22771.36
625.97	22847.14
626.17	22550.18
626.36	22967.97
626.56	23174.81
626.75	22511.27
626.95	22922.91
627.14	22615.72
627.34	22841.00
627.54	22789.80
627.73	22933.15
627.93	22986.40
628.12	22752.93
628.32	23049.89
628.51	22619.81
628.71	23023.26
628.90	22529.70
629.10	22709.93
629.30	22781.60
629.49	22515.37
629.69	22705.83
629.88	22865.57
630.08	23350.94
630.27	22617.77
630.47	22859.43
630.66	22834.85
630.86	23154.33
631.05	22609.58
631.25	22949.54
631.44	22732.45
631.64	22853.28
631.84	22841.00
632.03	22732.45
632.23	22757.03
632.42	22816.42
632.62	22730.41
632.81	22603.43
633.01	22884.00
633.20	23197.34
633.40	22933.15
633.59	22972.07
633.79	22890.15
633.98	22810.28
634.18	22734.50
634.37	23125.66
634.57	22824.61
634.76	22828.71
634.96	22558.38
635.15	23279.26
635.35	22742.69
635.54	22834.85
635.74	22972.07
635.93	22417.07
636.13	22576.81
636.32	22783.65
636.52	22763.17
636.71	22742.69
636.91	22699.69
637.10	22957.73
637.30	22613.67
637.49	22703.78
637.69	22904.48
637.88	22965.92
638.08	22560.42
638.27	22906.53
638.46	22570.66
638.66	22806.18
638.85	22980.26
639.05	22806.18
639.24	22843.04
639.44	23140.00
639.63	23062.18
639.83	22845.09
640.02	22914.72
640.22	22808.23
640.41	22554.28
640.61	22824.61
640.80	22572.71
640.99	22671.01
641.19	23068.32
641.38	22990.50
641.58	22904.48
641.77	22687.40
641.97	22525.61
642.16	22628.01
642.36	22863.52
642.55	22648.49
642.74	22863.52
642.94	22822.56
643.13	22435.50
643.33	23033.50
643.52	22730.41
643.72	22884.00
643.91	22671.01
644.10	22754.98
644.30	23023.26
644.49	22812.32
644.69	22877.86
644.88	22945.44
645.08	23041.70
645.27	22933.15
645.46	22894.24
645.66	22877.86
645.85	22505.13
646.05	22955.68
646.24	22920.87
646.43	22668.97
646.63	22873.76
646.82	22699.69
647.02	23238.30
647.21	23004.83
647.40	22793.89
647.60	22955.68
647.79	23148.19
647.99	22963.87
648.18	22994.59
648.37	23375.52
648.57	23283.36
648.76	22628.01
648.96	22873.76
649.15	22894.24
649.34	23475.87
649.54	22935.20
649.73	22744.74
649.92	23144.09
650.12	23262.88
650.31	22826.66
650.51	23111.33
650.70	23066.27
650.89	22802.08
651.09	23035.55
651.28	23164.57
651.47	22898.34
651.67	23291.55
651.86	23520.92
652.06	22853.28
652.25	23422.62
652.44	22662.82
652.64	23082.66
652.83	22869.67
653.02	22826.66
653.22	23035.55
653.41	22941.35
653.60	23154.33
653.80	22589.10
653.99	22978.21
654.18	23039.65
654.38	22978.21
654.57	23160.48
654.76	23068.32
654.96	22933.15
655.15	22777.51
655.34	23131.81
655.54	22574.76
655.73	22974.11
655.92	22922.91
656.12	22945.44
656.31	22963.87
656.50	23535.26
656.70	23111.33
656.89	22916.77
657.08	23058.08
657.28	22877.86
657.47	22992.55
657.66	23316.12
657.86	22906.53
658.05	23039.65
658.24	23019.17
658.43	22914.72
658.63	22871.72
658.82	22734.50
659.01	23258.78
659.21	23467.67
659.40	22785.70
659.59	22943.39
659.79	23082.66
659.98	23154.33
660.17	22937.25
660.36	23017.12
660.56	23043.74
660.75	23152.29
660.94	22920.87
661.14	22990.50
661.33	22793.89
661.52	22816.42
661.71	22800.04
661.91	22800.04
662.10	22668.97
662.29	23131.81
662.49	23326.36
662.68	22580.90
662.87	22783.65
663.06	23228.06
663.26	22888.10
663.45	23021.22
663.64	22714.02
663.83	22582.95
664.03	23305.88
664.22	23021.22
664.41	23309.98
664.60	23264.92
664.80	22822.56
664.99	22781.60
665.18	22859.43
665.37	23004.83
665.57	22937.25
665.76	22916.77
665.95	22959.78
666.14	22576.81
666.34	22814.37
666.53	22843.04
666.72	22720.17
666.91	22658.73
667.11	22873.76
667.30	22597.29
667.49	23060.13
667.68	22998.69
667.87	22929.06
668.07	22892.19
668.26	22679.21
668.45	22466.22
668.64	22605.48
668.84	23051.94
669.03	22988.45
669.22	22804.13
669.41	22890.15
669.60	22443.69
669.80	22709.93
669.99	22726.31
670.18	22611.62
670.37	23113.38
670.57	22967.97
670.76	22890.15
670.95	22828.71
671.14	22445.74
671.33	22427.31
671.53	22865.57
671.72	22972.07
671.91	22650.53
672.10	22689.45
672.29	22673.06
672.48	22574.76
672.68	22656.68
672.87	22673.06
673.06	22802.08
673.25	22462.12
673.44	22652.58
673.64	22527.66
673.83	22552.23
674.02	22464.17
674.21	22972.07
674.40	22740.64
674.59	22339.24
674.79	22632.10
674.98	22642.34
675.17	22873.76
675.36	22636.20
675.55	22613.67
675.74	22226.60
675.94	22546.09
676.13	22656.68
676.32	22828.71
676.51	22675.11
676.70	22738.60
676.89	22716.07
677.08	22671.01
677.28	22404.78
677.47	22419.11
677.66	22804.13
677.85	22388.39
678.04	22390.44
678.23	22664.87
678.42	22384.30
678.62	22521.51
678.81	22982.31
679.00	22224.56
679.19	22746.79
679.38	22501.03
679.57	22079.15
679.76	22462.12
679.96	22587.05
680.15	22329.00
680.34	22220.46
680.53	22384.30
680.72	22630.05
680.91	22075.06
681.10	22343.34
681.29	22480.55
681.48	22312.62
681.68	22302.38
681.87	22290.09
682.06	22607.53
682.25	21960.37
682.44	22369.96
682.63	22673.06
682.82	22054.58
683.01	21956.27
683.20	21857.97
683.39	22648.49
683.59	21755.57
683.78	22095.53
683.97	22212.27
684.16	21747.38
684.35	21583.54
684.54	22326.96
684.73	22255.28
684.92	22054.58
685.11	22040.24
685.30	21847.73
685.49	22183.60
685.69	21745.33
685.88	22030.00
686.07	21810.87
686.26	21943.99
686.45	21964.46
686.64	22300.33
686.83	22025.90
687.02	21808.82
687.21	22191.79
687.40	21839.54
687.59	22240.94
687.78	22109.87
687.97	21962.42
688.16	21810.87
688.35	21421.75
688.54	21892.79
688.74	21921.46
688.93	21900.98
689.12	21798.58
689.31	21860.02
689.50	21481.14
689.69	21757.62
689.88	21718.71
690.07	21700.28
690.26	21595.83
690.45	21679.80
690.64	21419.71
690.83	21640.89
691.02	21518.01
691.21	21233.34
691.40	21423.80
691.59	21872.31
691.78	21913.27
691.97	21384.89
692.16	21927.60
692.35	21436.09
692.54	21407.42
692.73	21698.23
692.92	21882.55
693.11	21819.06
693.30	21659.32
693.49	21776.05
693.68	21227.20
693.87	21733.04
694.06	21176.00
694.25	21188.28
694.44	21591.73
694.63	21339.83
694.82	21253.82
695.01	21554.87
695.20	21489.34
695.39	21268.16
695.58	21466.81
695.77	21069.50
695.96	20975.30
696.15	21049.02
696.34	20977.34
696.53	21300.92
696.72	21073.60
696.91	21089.98
697.10	21104.32
697.29	20909.76
697.48	21589.69
697.67	21274.30
697.86	20876.99
698.05	21483.19
698.24	21255.87
698.43	20815.55
698.62	21073.60
698.81	20772.55
699.00	21305.02
699.19	20729.54
699.38	21401.27
699.57	20637.38
699.76	20967.10
699.95	20825.79
700.14	20799.17
700.32	20952.77
700.51	20807.36
700.70	20760.26
700.89	20948.67
701.08	20821.70
701.27	20618.95
701.46	21083.84
701.65	20410.06
701.84	20729.54
702.03	20774.60
702.22	20750.02
702.41	21051.07
702.60	20647.62
702.79	20410.06
702.98	20903.62
703.17	20444.87
703.35	20747.97
703.54	20610.76
703.73	20745.92
703.92	20508.36
704.11	20375.24
704.30	20434.63
704.49	20528.84
704.68	20467.40
704.87	20047.57
705.06	20090.57
705.25	19986.13
705.43	20369.10
705.62	20367.05
705.81	20457.16
706.00	20799.17
706.19	20276.94
706.38	20045.52
706.57	20485.83
706.76	20248.27
706.95	20262.60
707.14	20156.11
707.32	19793.62
707.51	19799.76
707.70	19988.18
707.89	20000.46
708.08	20365.00
708.27	19959.50
708.46	19953.36
708.65	19891.92
708.84	20313.80
709.02	20066.00
709.21	19918.54
709.40	20127.44
709.59	20082.38
709.78	19721.94
709.97	19599.06
710.16	20072.14
710.34	19783.38
710.53	19781.33
710.72	19861.20
710.91	19971.79
711.10	19838.67
711.29	19816.15
711.48	19642.07
711.66	19418.84
711.85	19304.15
712.04	19916.50
712.23	19766.99
712.42	19687.12
712.61	19453.66
712.80	19566.29
712.98	19490.52
713.17	19236.57
713.36	19709.65
713.55	19496.66
713.74	19146.46
713.93	19242.71
714.11	19572.44
714.30	19183.32
714.49	19623.64
714.68	19480.28
714.87	19343.06
715.06	19912.40
715.24	19338.97
715.43	19359.45
715.62	18642.66
715.81	19074.78
716.00	19089.12
716.18	19119.84
716.37	18775.78
716.56	18937.57
716.75	19080.92
716.94	18894.56
717.12	19326.68
717.31	18898.66
717.50	18648.80
717.69	18947.81
717.88	19138.27
718.06	18999.01
718.25	18976.48
718.44	18636.52
718.63	19035.87
718.82	18542.31
719.00	18593.51
719.19	19224.28
719.38	18673.38
719.57	18984.67
719.76	18337.51
719.94	18323.18
720.13	18542.31
720.32	18968.29
720.51	18079.47
720.69	18341.61
720.88	18392.81
721.07	18192.11
721.26	18030.32
721.44	18208.49
721.63	18263.79
721.82	17919.73
722.01	18263.79
722.20	18333.42
722.38	17870.58
722.57	17741.55
722.76	18265.83
722.95	17942.25
723.13	17544.95
723.32	17829.62
723.51	17821.42
723.70	17915.63
723.88	17886.96
724.07	17600.24
724.26	18140.91
724.44	17450.74
724.63	18011.89
724.82	17592.05
725.01	17522.42
725.19	17622.77
725.38	17729.27
725.57	17477.37
725.76	17805.04
725.94	17508.08
726.13	17260.28
726.32	17667.83
726.51	17340.15
726.69	17778.42
726.88	17764.08
727.07	17927.92
727.25	17243.90
727.44	17671.92
727.63	17368.82
727.82	17243.90
728.00	17336.06
728.19	17483.51
728.38	17460.98
728.56	17143.55
728.75	17549.04
728.94	17200.89
729.12	17182.46
729.31	17315.58
729.50	17407.73
729.69	17489.65
729.87	17108.73
730.06	17129.21
730.25	17286.90
730.43	17735.41
730.62	16940.80
730.81	16936.70
730.99	17051.39
731.18	16617.22
731.37	17196.79
731.55	16905.98
731.74	17121.02
731.93	17080.06
732.11	16895.74
732.30	17084.16
732.49	16592.64
732.67	16570.12
732.86	16539.40
733.05	16523.01
733.23	16836.35
733.42	16506.63
733.61	16725.76
733.79	16887.55
733.98	16682.75
734.17	16262.92
734.35	16576.26
734.54	16760.58
734.73	16781.06
734.91	16584.45
735.10	16776.96
735.29	16445.19
735.47	16387.85
735.66	16529.16
735.84	16488.20
736.03	16385.80
736.22	16572.16
736.40	16086.79
736.59	16271.11
736.78	16291.59
736.96	16762.62
737.15	16236.30
737.33	16217.86
737.52	16207.62
737.71	16252.68
737.89	16172.81
738.08	16064.27
738.27	15970.06
738.45	16135.95
738.64	16338.69
738.82	16035.60
739.01	15877.90
739.20	16350.98
739.38	16195.34
739.57	16154.38
739.75	15988.49
739.94	15664.91
740.13	16023.31
740.31	16258.82
740.50	15929.10
740.68	15822.61
740.87	15906.57
741.06	16238.34
741.24	15986.44
741.43	16109.32
741.61	15527.70
741.80	15943.44
741.99	15974.16
742.17	15869.71
742.36	15478.55
742.54	15339.29
742.73	15847.18
742.91	15490.84
743.10	15636.24
743.29	15681.30
743.47	15806.22
743.66	15355.67
743.84	15283.99
744.03	15572.75
744.21	15687.44
744.40	15564.56
744.59	15470.36
744.77	15357.72
744.96	15558.42
745.14	15732.50
745.33	15640.34
745.51	15480.60
745.70	15236.89
745.88	15331.09
746.07	15464.21
746.26	15554.32
746.44	15728.40
746.63	15331.09
746.81	15763.22
747.00	15267.61
747.18	15267.61
747.37	15173.40
747.55	15730.45
747.74	15863.57
747.92	15638.29
748.11	15370.01
748.29	15247.13
748.48	15337.24
748.66	14999.32
748.85	15025.95
749.03	15140.63
749.22	15005.47
749.41	15126.30
749.59	15202.07
749.78	15290.13
749.96	14862.11
750.15	15302.42
750.33	15214.36
750.52	14927.64
750.70	15314.71
750.89	15048.47
751.07	14780.19
751.26	14898.97
751.44	14634.78
751.63	15257.37
751.81	15083.29
752.00	14882.59
752.18	15105.82
752.37	15111.96
752.55	14847.77
752.74	14888.73
752.92	14827.29
753.10	14923.55
753.29	15005.47
753.47	14956.32
753.66	14847.77
753.84	14780.19
754.03	14618.40
754.21	14356.26
754.40	15001.37
754.58	14991.13
754.77	14923.55
754.95	14690.08
755.14	14401.32
755.32	14716.70
755.51	14540.58
755.69	14794.53
755.88	14405.41
756.06	14927.64
756.24	14804.77
756.43	14724.90
756.61	14534.43
756.80	14323.49
756.98	14772.00
757.17	14739.23
757.35	14411.56
757.54	14845.73
757.72	14731.04
757.90	14204.71
758.09	14495.52
758.27	14356.26
758.46	14417.70
758.64	14536.48
758.83	14634.78
759.01	14391.08
759.19	14491.43
759.38	14649.12
759.56	14505.76
759.75	14483.24
759.93	14454.56
760.12	14427.94
760.30	14329.64
760.48	14298.92
760.67	14421.80
760.85	14032.68
761.04	14546.72
761.22	14552.87
761.40	13950.76
761.59	14509.86
761.77	13883.18
761.96	14395.17
762.14	14221.10
762.32	14470.95
762.51	14227.24
762.69	14255.91
762.88	14241.57
763.06	13930.28
763.24	14298.92
763.43	14286.63
763.61	14061.35
763.80	13688.62
763.98	14057.26
764.16	13936.43
764.35	13475.63
764.53	13504.31
764.72	13934.38
764.90	13741.87
765.08	13649.71
765.27	14049.07
765.45	13557.55
765.63	13840.17
765.82	13981.48
766.00	13965.10
766.18	13754.16
766.37	13762.35
766.55	13819.69
766.74	13911.85
766.92	13541.17
767.10	13598.51
767.29	13616.94
767.47	13793.07
767.65	13780.78
767.84	13885.23
768.02	13963.05
768.20	13483.83
768.39	13848.36
768.57	13496.11
768.75	13328.18
768.94	13553.46
769.12	13414.20
769.30	13498.16
769.49	13825.84
769.67	13500.21
769.85	13563.70
770.04	13438.77
770.22	13356.85
770.40	13426.48
770.59	13160.25
770.77	13549.36
770.95	13274.93
771.14	13387.57
771.32	12894.01
771.50	13373.24
771.69	13240.12
771.87	13229.88
772.05	13139.77
772.24	12945.21
772.42	12945.21
772.60	13016.89
772.78	13426.48
772.97	13172.54
773.15	13188.92
773.33	13580.08
773.52	13004.60
773.70	13399.86
773.88	12986.17
774.07	12986.17
774.25	12554.05
774.43	13233.97
774.61	12986.17
774.80	13109.05
774.98	12889.92
775.16	12730.17
775.34	12861.24
775.53	12828.48
775.71	13213.49
775.89	13559.60
776.08	13172.54
776.26	13104.95
776.44	12873.53
776.62	12967.74
776.81	12756.80
776.99	13082.42
777.17	13430.58
777.35	13406.00
777.54	13299.51
777.72	13270.84
777.90	13090.62
778.08	13342.52
778.27	13029.18
778.45	13369.14
778.63	13236.02
778.81	12959.55
779.00	13377.33
779.18	13469.49
779.36	13391.67
779.54	13383.48
779.73	13360.95
779.91	13289.27
780.09	13154.10
780.27	13295.41
780.46	13166.39
780.64	12891.96
780.82	13221.69
781.00	12955.45
781.19	13338.42
781.37	13496.11
781.55	13614.90
781.73	13516.59
781.91	13088.57
782.10	13270.84
782.28	13840.17
782.46	13563.70
782.64	13418.29
782.82	13489.97
783.01	13854.51
783.19	13379.38
783.37	13334.32
783.55	13215.54
783.74	13369.14
783.92	13137.72
784.10	13485.87
784.28	13602.61
784.46	12980.03
784.64	13082.42
784.83	13395.76
785.01	13293.37
785.19	13715.25
785.37	13975.34
785.55	13338.42
785.74	13213.49
785.92	13129.53
786.10	13242.17
786.28	13203.25
786.46	13492.02
786.64	13094.71
786.83	13258.55
787.01	13401.91
787.19	13348.66
787.37	13494.07
787.55	13498.16
787.74	13348.66
787.92	13072.18
788.10	13324.08
788.28	13178.68
788.46	13113.14
788.64	13045.56
788.82	13242.17
789.01	13262.65
789.19	13344.56
789.37	13248.31
789.55	12928.83
789.73	13223.73
789.91	13084.47
790.09	12773.18
790.28	12838.72
790.46	12853.05
790.64	13242.17
790.82	12879.68
791.00	12922.68
791.18	12848.96
791.36	13061.94
791.55	12871.48
791.73	12842.81
791.91	12691.26
792.09	12597.06
792.27	12513.09
792.45	12939.07
792.63	13242.17
792.81	12447.55
793.00	12808.00
793.18	12654.40
793.36	12767.04
793.54	12437.31
793.72	12470.08
793.90	12390.21
794.08	12498.75
794.26	12697.41
794.44	11857.74
794.62	12277.57
794.81	12574.53
794.99	12402.50
795.17	12562.24
795.35	12392.26
795.53	12414.79
795.71	12572.48
795.89	12048.20
796.07	12052.30
796.25	12283.72
796.43	12414.79
796.61	12232.52
796.80	11755.34
796.98	12121.93
797.16	11798.35
797.34	11937.61
797.52	11642.70
797.70	11962.19
797.88	12185.41
798.06	11999.05
798.24	12005.19
798.42	11953.99
798.60	12277.57
798.78	11456.34
798.96	11843.40
799.14	11726.67
799.32	11984.71
799.51	11347.79
799.69	11593.55
799.87	11679.57
800.05	11568.98
800.23	11558.74
800.41	11611.98
800.59	11515.73
800.77	11263.83
800.95	11394.90
801.13	11536.21
801.31	11476.82
801.49	11841.36
801.67	11231.06
801.85	11161.43
802.03	11059.03
802.21	10870.62
802.39	11163.48
802.57	11304.79
802.75	11183.96
802.93	11218.77
803.11	11149.14
803.29	10952.54
803.47	11087.70
803.65	11069.27
803.83	11095.89
804.01	11028.31
804.19	10737.50
804.37	11112.28
804.55	11163.48
804.73	11157.33
804.91	10762.08
805.09	11327.32
805.27	10819.42
805.45	11190.10
805.63	10927.96
805.81	10487.65
805.99	10966.87
806.17	10467.17
806.35	10829.66
806.53	10411.87
806.71	10698.59
806.89	10458.98
807.07	10538.85
807.25	10524.51
807.43	10688.35
807.61	11065.18
807.79	10686.30
807.97	10444.64
808.15	10678.11
808.33	10723.16
808.51	10411.87
808.69	10719.07
808.87	10399.59
809.05	10602.33
809.23	10108.77
809.41	10090.34
809.59	9725.80
809.77	10260.32
809.95	10250.08
810.13	10626.91
810.31	10211.17
810.49	9994.09
810.67	10053.48
810.84	10348.39
811.02	10145.64
811.20	9799.53
811.38	10180.45
811.56	9617.26
811.74	9922.41
811.92	9946.98
812.10	9981.80
812.28	10088.29
812.46	9912.17
812.64	9885.55
812.82	9650.03
813.00	9521.01
813.18	9670.51
813.36	9736.04
813.53	9940.84
813.71	10033.00
813.89	9809.77
814.07	9584.49
814.25	9744.24
814.43	9695.08
814.61	9488.24
814.79	9146.23
814.97	9774.95
815.15	9893.74
815.33	9142.13
815.50	9637.74
815.68	9426.80
815.86	9746.28
816.04	9600.88
816.22	9179.00
816.40	9447.28
816.58	9539.44
816.76	9150.32
816.94	9451.38
817.11	9488.24
817.29	9445.23
817.47	9285.49
817.65	9305.97
817.83	9467.76
818.01	9080.69
818.19	9006.97
818.37	9492.34
818.54	9041.78
818.72	9209.72
818.90	9092.98
819.08	8966.01
819.26	9375.60
819.44	9209.72
819.62	9303.92
819.80	8736.63
819.97	8879.99
820.15	8865.66
820.33	8888.18
820.51	8621.95
820.69	8949.62
820.87	8918.90
821.05	8896.38
821.22	8722.30
821.40	8789.88
821.58	8763.26
821.76	8783.74
821.94	8556.41
822.12	8994.68
822.29	8636.28
822.47	8742.78
822.65	8963.96
822.83	8718.20
823.01	8757.11
823.19	8329.09
823.36	8488.83
823.54	8595.32
823.72	8750.97
823.90	8718.20
824.08	8499.07
824.25	8595.32
824.43	8365.95
824.61	8578.94
824.79	8507.26
824.97	8142.72
825.15	8253.31
825.32	8380.29
825.50	8468.35
825.68	8228.74
825.86	8574.85
826.04	8161.16
826.21	8546.17
826.39	8398.72
826.57	8185.73
826.75	8451.97
826.93	7796.62
827.10	8236.93
827.28	8417.15
827.46	8275.84
827.64	8034.18
827.81	8259.46
827.99	7980.93
828.17	7978.89
828.35	7952.26
828.53	7909.26
828.70	8363.90
828.88	7901.06
829.06	7815.05
829.24	8054.66
829.41	8249.22
829.59	8003.46
829.77	8066.95
829.95	8044.42
830.12	7589.77
830.30	7999.37
830.48	7888.78
830.66	7600.01
830.84	7837.58
831.01	7849.86
831.19	7311.25
831.37	7692.17
831.55	7460.75
831.72	7393.17
831.90	7643.02
832.08	7573.39
832.25	7290.77
832.43	7679.88
832.61	7407.50
832.79	7339.92
832.96	7503.76
833.14	7485.33
833.32	7567.24
833.50	7423.89
833.67	7325.58
833.85	7395.22
834.03	7335.82
834.20	7403.41
834.38	7442.32
834.56	7575.44
834.74	6989.72
834.91	7382.93
835.09	7073.68
835.27	7282.58
835.44	7434.13
835.62	6705.05
835.80	6860.70
835.98	6760.34
836.15	7171.99
836.33	7194.51
836.51	6717.34
836.68	7485.33
836.86	7335.82
837.04	7376.78
837.21	7055.25
837.39	6950.81
837.57	7186.32
837.75	6850.46
837.92	7159.70
838.10	7032.72
838.28	6901.65
838.45	6844.31
838.63	6967.19
838.81	6852.50
838.98	7159.70
839.16	6600.60
839.34	7153.55
839.51	6969.24
839.69	6995.86
839.87	6655.90
840.04	6895.51
840.22	8200.07
840.40	6997.91
840.57	6670.23
840.75	6895.51
840.93	6578.08
841.10	6897.56
841.28	6791.06
841.46	6342.56
841.63	6870.94
841.81	6631.32
841.98	6541.21
842.16	6649.75
842.34	6768.54
842.51	6350.75
842.69	6561.69
842.87	6922.13
843.04	6463.39
843.22	6238.11
843.40	6399.90
843.57	6412.19
843.75	6496.16
843.92	6545.31
844.10	6530.97
844.28	6399.90
844.45	6602.65
844.63	6717.34
844.81	6600.60
844.98	6766.49
845.16	6600.60
845.33	6645.66
845.51	6604.70
845.69	6360.99
845.86	6530.97
846.04	6352.80
846.21	6340.51
846.39	6598.56
846.57	6217.63
846.74	6070.18
846.92	6563.74
847.09	6152.10
847.27	6021.03
847.45	6281.12
847.62	6213.54
847.80	6293.41
847.97	6377.37
848.15	6229.92
848.32	6340.51
848.50	6186.91
848.68	6100.90
848.85	6193.06
849.03	6205.35
849.20	6293.41
849.38	6010.79
849.56	6231.97
849.73	5740.46
849.91	6035.36
850.08	6418.33
850.26	6213.54
850.43	6123.43
850.61	6229.92
850.78	5715.88
850.96	6170.53
851.14	5605.29
851.31	6244.26
851.49	6135.71
851.66	6135.71
851.84	6043.56
852.01	6014.88
852.19	6016.93
852.36	6152.10
852.54	5599.15
852.71	5746.60
852.89	6131.62
853.07	6121.38
853.24	5767.08
853.42	6061.99
853.59	6311.84
853.77	6055.84
853.94	6530.97
854.12	6342.56
854.29	5771.18
854.47	5869.48
854.64	6047.65
854.82	5846.95
854.99	6066.08
855.17	5957.54
855.34	5797.80
855.52	6027.17
855.69	6240.16
855.87	5846.95
856.04	5709.74
856.22	5842.85
856.39	5457.84
856.57	5955.49
856.74	5892.01
856.92	5801.90
857.09	5681.07
857.27	5527.47
857.44	5881.77
857.62	5515.18
857.79	5531.56
857.97	5857.19
858.14	5550.00
858.32	5373.87
858.49	5578.67
858.67	5912.49
858.84	5531.56
859.02	5732.26
859.19	5382.06
859.37	5447.60
859.54	5363.63
859.72	5615.53
859.89	5517.23
860.06	5443.50
860.24	5597.10
860.41	5351.34
860.59	5015.48
860.76	5605.29
860.94	5392.30
861.11	5162.93
861.29	5662.63
861.46	5304.24
861.64	5443.50
861.81	5513.13
861.98	5195.70
862.16	5148.59
862.33	4966.32
862.51	4988.85
862.68	5474.22
862.86	5328.81
863.03	5402.54
863.21	4984.76
863.38	5459.88
863.55	5386.16
863.73	5414.83
863.90	5164.98
864.08	5185.46
864.25	5404.59
864.43	5332.91
864.60	4966.32
864.77	5148.59
864.95	5375.92
865.12	5083.06
865.30	5564.33
865.47	5369.77
865.64	5162.93
865.82	5066.67
865.99	5171.12
866.17	5250.99
866.34	5195.70
866.51	4847.54
866.69	4935.60
866.86	5742.50
867.04	5238.70
867.21	5375.92
867.38	4870.07
867.56	4892.60
867.73	5345.20
867.91	4870.07
868.08	4915.12
868.25	5181.36
868.43	5222.32
868.60	4835.25
868.78	4753.34
868.95	4831.16
869.12	4937.65
869.30	5074.87
869.47	4796.34
869.64	5009.33
869.82	4902.84
869.99	5111.73
870.16	5087.15
870.34	5210.03
870.51	4908.98
870.69	4736.95
870.86	4771.77
871.03	4798.39
871.21	5033.91
871.38	5244.85
871.55	4884.41
871.73	4626.36
871.90	4593.59
872.07	4870.07
872.25	4399.04
872.42	4595.64
872.59	4624.31
872.77	4753.34
872.94	4714.42
873.11	4718.52
873.29	4947.89
873.46	4880.31
873.63	4648.89
873.81	4628.41
873.98	4976.56
874.15	4358.08
874.33	4337.60
874.50	4370.37
874.67	4710.33
874.85	4388.80
875.02	4624.31
875.19	4548.54
875.37	4552.63
875.54	4411.32
875.71	4517.82
875.88	4448.19
876.06	4487.10
876.23	4294.59
876.40	4480.96
876.58	4505.53
876.75	4282.30
876.92	4302.78
877.10	4356.03
877.27	4114.37
877.44	4042.69
877.61	4046.79
877.79	4392.89
877.96	4435.90
878.13	4511.68
878.31	4288.45
878.48	4351.93
878.65	4204.48
878.82	4202.43
879.00	4128.70
879.17	4075.46
879.34	4073.41
879.51	4011.97
879.69	3801.03
879.86	4108.23
880.03	3856.33
880.21	4014.02
880.38	4372.41
880.55	4175.81
880.72	4345.79
880.90	4059.07
881.07	3923.91
881.24	4296.64
881.41	3952.58
881.59	4263.87
881.76	4175.81
881.93	4057.03
882.10	3909.57
882.28	3979.20
882.45	4085.70
882.62	3975.11
882.79	4087.75
882.96	3798.98
883.14	3860.42
883.31	3862.47
883.48	3870.66
883.65	3819.46
883.83	3940.29
884.00	4085.70
884.17	3983.30
884.34	4089.79
884.51	3952.58
884.69	3860.42
884.86	3706.82
885.03	3846.09
885.20	3629.00
885.38	4272.06
885.55	3571.66
885.72	4024.26
885.89	3983.30
886.06	3590.09
886.24	3745.73
886.41	3872.71
886.58	4089.79
886.75	3960.77
886.92	3891.14
887.10	3676.10
887.27	3655.62
887.44	4149.18
887.61	3833.80
887.78	3686.34
887.95	3928.00
888.13	3567.56
888.30	3551.18
888.47	3887.04
888.64	3622.86
888.81	4194.24
888.99	3516.36
889.16	3567.56
889.33	3579.85
889.50	3575.75
889.67	3440.59
889.84	3542.99
890.01	3493.83
890.19	3891.14
890.36	3626.95
890.53	3706.82
890.70	3483.59
890.87	3665.86
891.04	3715.02
891.22	3608.52
891.39	3375.05
891.56	3360.72
891.73	3463.12
891.90	3354.57
892.07	3162.06
892.24	3518.41
892.42	3350.48
892.59	3426.25
892.76	3706.82
892.93	3381.20
893.10	3397.58
893.27	3303.37
893.44	3428.30
893.61	3493.83
893.79	3592.14
893.96	3100.62
894.13	3542.99
894.30	3176.40
894.47	3672.01
894.64	3735.50
894.81	3121.10
894.98	3585.99
895.15	3602.38
895.33	3469.26
895.50	3520.46
895.67	3524.55
895.84	3454.92
896.01	3364.81
896.18	3008.47
896.35	3659.72
896.52	3307.47
896.69	3241.93
896.86	3364.81
897.04	3688.39
897.21	3194.83
897.38	3268.56
897.55	3295.18
897.72	3291.09
897.89	3311.57
898.06	3620.81
898.23	3223.50
898.40	3393.48
898.57	3069.91
898.74	3155.92
898.91	3276.75
899.08	3141.58
899.26	3735.50
899.43	3334.09
899.60	2987.99
899.77	3639.24
899.94	3215.31
900.11	3008.47
900.28	3057.62
900.45	3289.04
900.62	3170.26
900.79	3264.46
900.96	3403.72
901.13	3332.05
901.30	3039.19
901.47	2926.55
901.64	3024.85
901.81	3172.30
901.98	3010.51
902.15	3276.75
902.32	3057.62
902.49	3166.16
902.66	3256.27
902.83	3278.80
903.01	3104.72
903.18	3123.15
903.35	2985.94
903.52	3010.51
903.69	3188.69
903.86	3018.71
904.03	3401.68
904.20	3368.91
904.37	3055.57
904.54	3008.47
904.71	3274.70
904.88	3149.78
905.05	2942.93
905.22	3223.50
905.39	3231.69
905.56	3133.39
905.73	3295.18
905.90	3241.93
906.07	2875.35
906.24	3010.51
906.41	3243.98
906.58	3571.66
906.75	3229.65
906.92	3250.13
907.09	3078.10
907.26	3348.43
907.43	3117.01
907.60	2983.89
907.77	3217.36
907.93	2854.87
908.10	2854.87
908.27	3114.96
908.44	3160.02
908.61	2887.64
908.78	3002.32
908.95	3360.72
909.12	3065.81
909.29	2973.65
909.46	2961.36
909.63	3065.81
909.80	3170.26
909.97	3121.10
910.14	3153.87
910.31	2811.86
910.48	3028.95
910.65	3106.77
910.82	3231.69
910.99	3143.63
911.16	3391.44
911.33	3000.27
911.50	2971.60
911.66	2740.18
911.83	3053.52
912.00	2883.54
912.17	2766.81
912.34	2865.11
912.51	2994.13
912.68	2775.00
912.85	3436.49
913.02	3155.92
913.19	2836.44
913.36	2734.04
913.53	2934.74
913.70	2582.49
913.86	3246.03
914.03	2865.11
914.20	3043.28
914.37	3047.38
914.54	2983.89
914.71	2781.14
914.88	3018.71
915.05	2758.61
915.22	2691.03
915.39	2977.75
915.55	2873.30
915.72	2926.55
915.89	2715.61
916.06	2955.22
916.23	2924.50
916.40	2846.68
916.57	2590.68
916.74	2635.74
916.91	2754.52
917.07	2555.86
917.24	2572.25
917.41	2768.85
917.58	2813.91
917.75	2633.69
917.92	2523.10
918.09	2768.85
918.26	2727.89
918.42	2678.74
918.59	2709.46
918.76	2504.67
918.93	2473.95
919.10	2566.10
919.27	2664.41
919.44	2746.33
919.60	2957.27
919.77	2457.56
919.94	2527.19
920.11	2766.81
920.28	2652.12
920.45	2641.88
920.61	2492.38
920.78	2555.86
920.95	2832.34
921.12	2543.58
921.29	2605.02
921.46	2273.25
921.62	2248.67
921.79	2359.26
921.96	2473.95
922.13	2457.56
922.30	2318.30
922.47	2355.16
922.63	2258.91
922.80	2228.19
922.97	2326.49
923.14	2068.45
923.31	2195.42
923.47	2353.12
923.64	2531.29
923.81	2514.91
923.98	2199.52
924.15	2402.27
924.32	2340.83
924.48	2246.62
924.65	2547.67
924.82	2041.82
924.99	2226.14
925.15	2031.58
925.32	2512.86
925.49	2148.32
925.66	2574.30
925.83	2181.09
925.99	2103.26
926.16	2459.61
926.33	2181.09
926.50	1968.10
926.67	2101.22
926.83	2148.32
927.00	2365.40
927.17	2203.61
927.34	1992.67
927.50	2191.33
927.67	2234.33
927.84	2238.43
928.01	2226.14
928.17	2101.22
928.34	2004.96
928.51	2027.49
928.68	2095.07
928.84	2027.49
929.01	1964.00
929.18	1970.15
929.35	2017.25
929.51	2007.01
929.68	1855.46
929.85	1892.32
930.02	2041.82
930.18	2023.39
930.35	2025.44
930.52	1976.29
930.69	2025.44
930.85	2002.91
931.02	1918.95
931.19	1959.91
931.36	1959.91
931.52	1986.53
931.69	2039.78
931.86	2080.74
932.02	1908.71
932.19	1806.31
932.36	2033.63
932.53	1935.33
932.69	1828.84
932.86	1953.76
933.03	1955.81
933.19	1830.88
933.36	2007.01
933.53	1982.43
933.70	2002.91
933.86	1892.32
934.03	1961.95
934.20	1796.07
934.36	2011.11
934.53	1699.81
934.70	1777.64
934.86	1839.08
935.03	1726.44
935.20	1861.60
935.36	1902.56
935.53	1759.21
935.70	1785.83
935.86	1890.28
936.03	1693.67
936.20	1667.05
936.36	1742.82
936.53	1812.45
936.70	1806.31
936.86	1925.09
937.03	1824.74
937.20	1765.35
937.36	1867.75
937.53	1689.57
937.70	1738.73
937.86	1798.12
938.03	1781.73
938.20	2031.58
938.36	1810.40
938.53	1726.44
938.70	1658.85
938.86	1755.11
939.03	1746.92
939.20	1679.33
939.36	1695.72
939.53	1773.54
939.70	1884.13
939.86	1796.07
940.03	1697.77
940.19	1621.99
940.36	1722.34
940.53	1755.11
940.69	1650.66
940.86	1730.53
941.03	1636.33
941.19	1671.14
941.36	1669.09
941.52	1740.77
941.69	1724.39
941.86	1712.10
942.02	1804.26
942.19	1781.73
942.35	1791.97
942.52	1697.77
942.69	1673.19
942.85	1662.95
943.02	1699.81
943.18	1705.96
943.35	1644.52
943.52	1699.81
943.68	1607.66
943.85	1689.57
944.01	1740.77
944.18	1675.24
944.35	1746.92
944.51	1648.61
944.68	1626.09
944.84	1634.28
945.01	1603.56
945.17	1648.61
945.34	1685.48
945.51	1683.43
945.67	1712.10
945.84	1714.15
946.00	1669.09
946.17	1626.09
946.33	1564.65
946.50	1712.10
946.67	1665.00
946.83	1683.43
947.00	1673.19
947.16	1671.14
947.33	1621.99
947.49	1650.66
947.66	1591.27
947.82	1722.34
947.99	1607.66
948.16	1695.72
948.32	1593.32
948.49	1785.83
948.65	1753.06
948.82	1656.81
948.98	1765.35
949.15	1626.09
949.31	1718.25
949.48	1697.77
949.64	1632.23
949.81	1578.98
949.97	1642.47
950.14	1667.05
950.30	1511.40
950.47	1716.20
950.63	1671.14
950.80	1650.66
950.96	1593.32
951.13	1609.70
951.30	1665.00
951.46	1650.66
951.63	1603.56
951.79	1656.81
951.96	1751.01
952.12	1640.42
952.29	1720.29
952.45	1654.76
952.62	1648.61
952.78	1634.28
952.94	1646.57
953.11	1615.85
953.27	1507.30
953.44	1685.48
953.60	1654.76
953.77	1697.77
953.93	1673.19
954.10	1656.81
954.26	1632.23
954.43	1662.95
954.59	1732.58
954.76	1722.34
954.92	1652.71
955.09	1638.38
955.25	1552.36
955.42	1607.66
955.58	1671.14
955.75	1660.90
955.91	1521.64
956.07	1634.28
956.24	1683.43
956.40	1652.71
956.57	1699.81
956.73	1583.08
956.90	1601.51
957.06	1640.42
957.23	1568.74
957.39	1609.70
957.56	1636.33
957.72	1540.07
957.88	1597.42
958.05	1624.04
958.21	1650.66
958.38	1642.47
958.54	1628.14
958.71	1697.77
958.87	1595.37
959.03	1611.75
959.20	1587.18
959.36	1572.84
959.53	1626.09
959.69	1599.46
959.85	1619.94
960.02	1501.16
960.18	1673.19
960.35	1720.29
960.51	1744.87
960.68	1497.07
960.84	1615.85
961.00	1603.56
961.17	1662.95
961.33	1628.14
961.50	1585.13
961.66	1697.77
961.82	1540.07
961.99	1687.53
962.15	1646.57
962.31	1681.38
962.48	1673.19
962.64	1699.81
962.81	1626.09
962.97	1613.80
963.13	1638.38
963.30	1671.14
963.46	1658.85
963.62	1609.70
963.79	1662.95
963.95	1630.18
964.12	1617.90
964.28	1708.01
964.44	1609.70
964.61	1746.92
964.77	1677.29
964.93	1775.59
965.10	1624.04
965.26	1578.98
965.42	1650.66
965.59	1560.55
965.75	1556.46
965.92	1697.77
966.08	1697.77
966.24	1611.75
966.41	1650.66
966.57	1683.43
966.73	1665.00
966.90	1712.10
967.06	1572.84
967.22	1619.94
967.39	1673.19
967.55	1603.56
967.71	1656.81
967.88	1615.85
968.04	1621.99
968.20	1603.56
968.37	1546.22
968.53	1642.47
968.69	1558.50
968.85	1628.14
969.02	1652.71
969.18	1681.38
969.34	1675.24
969.51	1648.61
969.67	1687.53
969.83	1560.55
970.00	1718.25
970.16	1667.05
970.32	1570.79
970.48	1732.58
970.65	1593.32
970.81	1599.46
970.97	1615.85
971.14	1503.21
971.30	1726.44
971.46	1599.46
971.63	1656.81
971.79	1744.87
971.95	1667.05
972.11	1572.84
972.28	1615.85
972.44	1652.71
972.60	1605.61
972.76	1615.85
972.93	1615.85
973.09	1763.30
973.25	1667.05
973.42	1556.46
973.58	1703.91
973.74	1636.33
973.90	1714.15
974.07	1607.66
974.23	1605.61
974.39	1726.44
974.55	1599.46
974.72	1621.99
974.88	1464.30
975.04	1724.39
975.20	1636.33
975.37	1740.77
975.53	1654.76
975.69	1687.53
975.85	1597.42
976.01	1609.70
976.18	1585.13
976.34	1593.32
976.50	1607.66
976.66	1701.86
976.83	1558.50
976.99	1556.46
977.15	1673.19
977.31	1558.50
977.47	1693.67
977.64	1675.24
977.80	1681.38
977.96	1654.76
978.12	1611.75
978.29	1648.61
978.45	1560.55
978.61	1597.42
978.77	1699.81
978.93	1628.14
979.10	1595.37
979.26	1630.18
979.42	1681.38
979.58	1476.59
979.74	1613.80
979.91	1591.27
980.07	1617.90
980.23	1601.51
980.39	1654.76
980.55	1591.27
980.71	1572.84
980.88	1566.70
981.04	1667.05
981.20	1585.13
981.36	1654.76
981.52	1630.18
981.68	1621.99
981.85	1603.56
982.01	1595.37
982.17	1546.22
982.33	1677.29
982.49	1708.01
982.65	1632.23
982.82	1624.04
982.98	1529.83
983.14	1556.46
983.30	1699.81
983.46	1634.28
983.62	1685.48
983.79	1593.32
983.95	1624.04
984.11	1499.11
984.27	1599.46
984.43	1646.57
984.59	1597.42
984.75	1648.61
984.91	1609.70
985.08	1621.99
985.24	1572.84
985.40	1593.32
985.56	1603.56
985.72	1581.03
985.88	1720.29
986.04	1597.42
986.20	1613.80
986.37	1662.95
986.53	1548.26
986.69	1624.04
986.85	1542.12
987.01	1570.79
987.17	1652.71
987.33	1601.51
987.49	1583.08
987.65	1689.57
987.82	1640.42
987.98	1525.74
988.14	1658.85
988.30	1671.14
988.46	1581.03
988.62	1650.66
988.78	1681.38
988.94	1648.61
989.10	1607.66
989.26	1599.46
989.42	1574.89
989.59	1533.93
989.75	1665.00
989.91	1671.14
990.07	1566.70
990.23	1597.42
990.39	1578.98
990.55	1624.04
990.71	1599.46
990.87	1609.70
991.03	1593.32
991.19	1576.94
991.35	1572.84
991.51	1585.13
991.67	1669.09
991.83	1632.23
992.00	1609.70
992.16	1607.66
992.32	1689.57
992.48	1693.67
992.64	1564.65
992.80	1677.29
992.96	1595.37
993.12	1628.14
993.28	1646.57
993.44	1667.05
993.60	1687.53
993.76	1595.37
993.92	1652.71
994.08	1621.99
994.24	1597.42
994.40	1607.66
994.56	1646.57
994.72	1585.13
994.88	1542.12
995.04	1640.42
995.20	1634.28
995.36	1607.66
995.52	1660.90
995.68	1652.71
995.84	1591.27
996.00	1679.33
996.16	1640.42
996.32	1546.22
996.48	1607.66
996.64	1755.11
996.80	1523.69
996.96	1667.05
997.12	1613.80
997.28	1583.08
997.44	1589.22
997.60	1609.70
997.76	1529.83
997.92	1624.04
998.08	1607.66
998.24	1558.50
998.40	1675.24
998.56	1658.85
998.72	1572.84
998.88	1560.55
999.04	1630.18
999.20	1703.91
999.36	1599.46
999.52	1714.15
999.68	1611.75
999.84	1720.29
1000.00	1687.53
1000.16	1689.57
1000.32	1550.31
1000.48	1759.21
1000.64	1548.26
1000.80	1611.75
1000.95	1533.93
1001.11	1652.71
1001.27	1570.79
1001.43	1634.28
1001.59	1527.78
1001.75	1607.66
1001.91	1642.47
1002.07	1605.61
1002.23	1595.37
1002.39	1583.08
1002.55	1572.84
1002.71	1611.75
1002.87	1585.13
1003.03	1576.94
1003.19	1605.61
1003.34	1656.81
1003.50	1533.93
1003.66	1716.20
1003.82	1624.04
1003.98	1626.09
1004.14	1632.23
1004.30	1652.71
1004.46	1527.78
1004.62	1624.04
1004.78	1619.94
1004.94	1648.61
1005.09	1650.66
1005.25	1687.53
1005.41	1695.72
1005.57	1624.04
1005.73	1648.61
1005.89	1613.80
1006.05	1646.57
1006.21	1679.33
1006.37	1568.74
1006.52	1509.35
1006.68	1578.98
1006.84	1691.62
1007.00	1564.65
1007.16	1585.13
1007.32	1613.80
1007.48	1646.57
1007.64	1626.09
1007.79	1568.74
1007.95	1525.74
1008.11	1658.85
1008.27	1572.84
1008.43	1636.33
1008.59	1599.46
1008.75	1605.61
1008.91	1656.81
1009.06	1564.65
1009.22	1581.03
1009.38	1585.13
1009.54	1691.62
1009.70	1574.89
1009.86	1640.42
1010.01	1673.19
1010.17	1624.04
1010.33	1656.81
1010.49	1583.08
1010.65	1654.76
1010.81	1507.30
1010.96	1642.47
1011.12	1538.02
1011.28	1583.08
1011.44	1646.57
1011.60	1576.94
1011.76	1609.70
1011.91	1671.14
1012.07	1574.89
1012.23	1511.40
1012.39	1585.13
1012.55	1603.56
1012.71	1568.74
1012.86	1585.13
1013.02	1621.99
1013.18	1593.32
1013.34	1583.08
1013.50	1626.09
1013.65	1683.43
1013.81	1626.09
1013.97	1607.66
1014.13	1640.42
1014.29	1638.38
1014.44	1619.94
1014.60	1581.03
1014.76	1630.18
1014.92	1617.90
1015.07	1568.74
1015.23	1658.85
1015.39	1599.46
1015.55	1615.85
1015.71	1675.24
1015.86	1523.69
1016.02	1560.55
1016.18	1560.55
1016.34	1609.70
1016.49	1587.18
1016.65	1583.08
1016.81	1581.03
1016.97	1681.38
1017.12	1615.85
1017.28	1583.08
1017.44	1585.13
1017.60	1540.07
1017.75	1642.47
1017.91	1642.47
1018.07	1564.65
1018.23	1632.23
1018.38	1591.27
1018.54	1632.23
1018.70	1583.08
1018.86	1564.65
1019.01	1615.85
1019.17	1652.71
1019.33	1656.81
1019.49	1671.14
1019.64	1634.28
1019.80	1556.46
1019.96	1685.48
1020.12	1724.39
1020.27	1621.99
1020.43	1550.31
1020.59	1646.57
1020.74	1626.09
1020.90	1632.23
1021.06	1609.70
1021.22	1650.66
1021.37	1632.23
1021.53	1542.12
1021.69	1675.24
1021.84	1468.39
1022.00	1583.08
1022.16	1574.89
1022.31	1593.32
1022.47	1617.90
1022.63	1630.18
1022.79	1519.59
1022.94	1638.38
1023.10	1683.43
1023.26	1632.23
1023.41	1691.62
1023.57	1568.74
1023.73	1646.57
1023.88	1591.27
1024.04	1601.51
1024.20	1660.90
1024.35	1673.19
1024.51	1566.70
1024.67	1597.42
1024.82	1691.62
1024.98	1589.22
1025.14	1578.98
1025.29	1609.70
1025.45	1695.72
1025.61	1521.64
1025.76	1587.18
1025.92	1574.89
1026.08	1607.66
1026.23	1662.95
1026.39	1652.71
1026.55	1630.18
1026.70	1560.55
1026.86	1607.66
1027.02	1578.98
1027.17	1681.38
1027.33	1626.09
1027.48	1640.42
1027.64	1597.42
1027.80	1533.93
1027.95	1658.85
1028.11	1581.03
1028.27	1665.00
1028.42	1697.77
1028.58	1642.47
1028.73	1636.33
1028.89	1568.74
1029.05	1703.91
1029.20	1658.85
>>>>>End Processed Spectral Data<<<<<
