SpectraSuite Data File
++++++++++++++++++++++++++++++++++++
Date: Fri Jun 02 14:44:36 CEST 2017
User: INFO_000
Dark Spectrum Present: No
Reference Spectrum Present: No
Number of Sampled Component Spectra: 1
Spectrometers: USB4H00879
Integration Time (usec): 80000 (USB4H00879)
Spectra Averaged: 1 (USB4H00879)
Boxcar Smoothing: 0 (USB4H00879)
Correct for Electrical Dark: No (USB4H00879)
Strobe/Lamp Enabled: No (USB4H00879)
Correct for Detector Non-linearity: No (USB4H00879)
Correct for Stray Light: No (USB4H00879)
Number of Pixels in Processed Spectrum: 3648
>>>>>Begin Processed Spectral Data<<<<<
345.13	1314.80
345.34	1314.80
345.56	1314.80
345.78	1255.40
345.99	1239.02
346.21	1726.44
346.42	1597.42
346.64	1585.13
346.86	1832.93
347.07	1656.81
347.29	1722.34
347.50	1671.14
347.72	1658.85
347.94	1736.68
348.15	1503.21
348.37	1509.35
348.59	1691.62
348.80	1640.42
349.02	1777.64
349.23	1816.55
349.45	1851.36
349.67	1830.88
349.88	1753.06
350.10	1994.72
350.31	1751.01
350.53	1806.31
350.75	2011.11
350.96	1796.07
351.18	1929.19
351.39	1804.26
351.61	1757.16
351.82	1896.42
352.04	1890.28
352.26	1761.25
352.47	1877.99
352.69	1818.60
352.90	1714.15
353.12	1867.75
353.34	1851.36
353.55	1964.00
353.77	1865.70
353.98	1806.31
354.20	1812.45
354.41	1951.71
354.63	1884.13
354.85	1986.53
355.06	1906.66
355.28	1789.92
355.49	1898.47
355.71	1912.80
355.92	1937.38
356.14	1953.76
356.35	1824.74
356.57	1886.18
356.79	1925.09
357.00	1863.65
357.22	1951.71
357.43	1828.84
357.65	1996.77
357.86	1808.36
358.08	1910.75
358.29	1945.57
358.51	2004.96
358.72	1964.00
358.94	1892.32
359.16	1896.42
359.37	1828.84
359.59	1912.80
359.80	1972.19
360.02	1984.48
360.23	1931.23
360.45	2054.11
360.66	1867.75
360.88	1894.37
361.09	1966.05
361.31	1964.00
361.52	1925.09
361.74	2019.30
361.95	2007.01
362.17	2002.91
362.38	2095.07
362.60	2013.15
362.81	1906.66
363.03	2035.68
363.24	1968.10
363.46	2076.64
363.67	2082.78
363.89	2004.96
364.10	2054.11
364.32	1986.53
364.53	2043.87
364.75	1898.47
364.96	2039.78
365.18	2039.78
365.39	1982.43
365.61	1976.29
365.82	2041.82
366.04	2013.15
366.25	1984.48
366.47	2101.22
366.68	2002.91
366.90	1927.14
367.11	2113.50
367.33	2101.22
367.54	2117.60
367.76	2031.58
367.97	1974.24
368.19	2041.82
368.40	2103.26
368.62	1961.95
368.83	2011.11
369.05	2052.06
369.26	1988.58
369.48	1990.63
369.69	1998.82
369.91	2050.02
370.12	2058.21
370.33	2127.84
370.55	1910.75
370.76	1994.72
370.98	2150.37
371.19	2009.06
371.41	2056.16
371.62	2011.11
371.84	1992.67
372.05	2174.94
372.27	2023.39
372.48	2133.98
372.69	2097.12
372.91	2133.98
373.12	2187.23
373.34	2011.11
373.55	2045.92
373.77	2185.18
373.98	2078.69
374.20	2181.09
374.41	2246.62
374.62	2050.02
374.84	2162.66
375.05	2240.48
375.27	2201.57
375.48	2191.33
375.70	2187.23
375.91	2207.71
376.12	2252.77
376.34	2121.70
376.55	2201.57
376.77	2191.33
376.98	2060.26
377.19	2176.99
377.41	2133.98
377.62	2258.91
377.84	2273.25
378.05	2232.29
378.27	2195.42
378.48	2322.40
378.69	2359.26
378.91	2328.54
379.12	2170.85
379.34	2195.42
379.55	2287.58
379.76	2275.29
379.98	2246.62
380.19	2232.29
380.41	2209.76
380.62	2379.74
380.83	2129.89
381.05	2238.43
381.26	2400.22
381.47	2203.61
381.69	2308.06
381.90	2381.79
382.12	2316.25
382.33	2287.58
382.54	2293.72
382.76	2344.92
382.97	2320.35
383.19	2303.96
383.40	2318.30
383.61	2326.49
383.83	2279.39
384.04	2334.68
384.25	2332.64
384.47	2385.88
384.68	2346.97
384.89	2314.20
385.11	2312.16
385.32	2363.36
385.54	2291.68
385.75	2383.84
385.96	2371.55
386.18	2443.23
386.39	2394.08
386.60	2357.21
386.82	2459.61
387.03	2377.69
387.24	2463.71
387.46	2435.03
387.67	2461.66
387.88	2432.99
388.10	2502.62
388.31	2506.71
388.52	2574.30
388.74	2586.58
388.95	2527.19
389.16	2539.48
389.38	2533.34
389.59	2627.54
389.80	2688.98
390.02	2519.00
390.23	2541.53
390.44	2488.28
390.66	2488.28
390.87	2596.82
391.08	2584.54
391.30	2717.65
391.51	2588.63
391.72	2686.94
391.94	2772.95
392.15	2639.83
392.36	2637.78
392.58	2584.54
392.79	2662.36
393.00	2607.06
393.22	2713.56
393.43	2785.24
393.64	2770.90
393.85	2797.53
394.07	2652.12
394.28	2633.69
394.49	2766.81
394.71	2803.67
394.92	2813.91
395.13	2748.37
395.35	2705.37
395.56	2762.71
395.77	2842.58
395.98	2811.86
396.20	2891.73
396.41	2813.91
396.62	2830.29
396.84	2777.05
397.05	2846.68
397.26	2895.83
397.47	2973.65
397.69	2916.31
397.90	3028.95
398.11	2883.54
398.32	2924.50
398.54	2904.02
398.75	2863.06
398.96	2949.08
399.18	2998.23
399.39	2865.11
399.60	2983.89
399.81	2881.49
400.03	2891.73
400.24	3258.32
400.45	2998.23
400.66	3114.96
400.88	2949.08
401.09	3198.93
401.30	3030.99
401.51	3125.20
401.73	3078.10
401.94	3043.28
402.15	3090.38
402.36	3137.49
402.58	3188.69
402.79	3162.06
403.00	3219.41
403.21	3067.86
403.43	3129.30
403.64	3395.53
403.85	3127.25
404.06	3252.17
404.27	3137.49
404.49	3272.65
404.70	3164.11
404.91	3272.65
405.12	3223.50
405.34	3262.41
405.55	3405.77
405.76	3149.78
405.97	3299.28
406.19	3426.25
406.40	3332.05
406.61	3383.24
406.82	3330.00
407.03	3346.38
407.25	3278.80
407.46	3456.97
407.67	3416.01
407.88	3553.23
408.09	3397.58
408.31	3299.28
408.52	3370.96
408.73	3418.06
408.94	3375.05
409.15	3551.18
409.37	3647.43
409.58	3538.89
409.79	3514.31
410.00	3518.41
410.21	3540.94
410.43	3471.31
410.64	3397.58
410.85	3631.05
411.06	3502.03
411.27	3645.38
411.48	3549.13
411.70	3452.88
411.91	3565.51
412.12	3674.06
412.33	3641.29
412.54	3575.75
412.76	3755.97
412.97	3735.50
413.18	3637.19
413.39	3741.64
413.60	3657.67
413.81	3649.48
414.03	3606.47
414.24	3653.58
414.45	3885.00
414.66	3655.62
414.87	3794.89
415.08	3776.45
415.30	3694.54
415.51	3770.31
415.72	3682.25
415.93	3794.89
416.14	3809.22
416.35	3874.76
416.56	3798.98
416.78	3723.21
416.99	3805.13
417.20	3717.06
417.41	3934.15
417.62	3946.44
417.83	3848.13
418.04	3811.27
418.26	3946.44
418.47	3977.16
418.68	4081.60
418.89	4007.87
419.10	4032.45
419.31	4026.31
419.52	4089.79
419.73	4048.83
419.95	4116.42
420.16	3991.49
420.37	4089.79
420.58	4106.18
420.79	3968.96
421.00	4108.23
421.21	4085.70
421.42	3921.86
421.63	4046.79
421.85	4054.98
422.06	4202.43
422.27	4120.51
422.48	4167.62
422.69	4274.11
422.90	4216.77
423.11	4200.38
423.32	4296.64
423.53	4507.58
423.75	4401.08
423.96	4390.84
424.17	4376.51
424.38	4442.04
424.59	4374.46
424.80	4536.25
425.01	4458.43
425.22	4403.13
425.43	4431.80
425.64	4483.00
425.85	4661.18
426.06	4652.98
426.28	4573.11
426.49	4421.56
426.70	4530.11
426.91	4526.01
427.12	4642.75
427.33	4583.35
427.54	4591.55
427.75	4650.94
427.96	4745.14
428.17	4761.53
428.38	4865.97
428.59	4784.06
428.80	4665.27
429.01	4872.12
429.23	4747.19
429.44	4804.53
429.65	4960.18
429.86	4847.54
430.07	4790.20
430.28	4855.73
430.49	5046.20
430.70	5056.43
430.91	5183.41
431.12	5111.73
431.33	5124.02
431.54	5230.51
431.75	5308.34
431.96	5195.70
432.17	5062.58
432.38	5167.03
432.59	5392.30
432.80	5373.87
433.01	5298.10
433.22	5298.10
433.43	5406.64
433.64	5337.01
433.85	5296.05
434.06	5463.98
434.27	5246.90
434.49	5470.12
434.70	5527.47
434.91	5466.03
435.12	5529.52
435.33	5476.27
435.54	5535.66
435.75	5371.82
435.96	5607.34
436.17	5451.69
436.38	5529.52
436.59	5730.22
436.80	5535.66
437.01	5826.47
437.22	5697.45
437.43	5900.20
437.64	5814.18
437.85	5756.84
438.06	5834.66
438.27	5642.15
438.48	5894.05
438.69	5894.05
438.90	5861.29
439.11	5836.71
439.32	5908.39
439.53	5930.92
439.74	5975.97
439.95	6125.47
440.16	5875.62
440.37	5939.11
440.57	5834.66
440.78	6021.03
440.99	6184.87
441.20	5949.35
441.41	5922.73
441.62	6117.28
441.83	5965.73
442.04	6066.08
442.25	6131.62
442.46	6082.47
442.67	6305.70
442.88	6637.47
443.09	6158.24
443.30	6234.02
443.51	6348.70
443.72	6530.97
443.93	6215.59
444.14	6573.98
444.35	6223.78
444.56	6352.80
444.77	6348.70
444.98	6373.28
445.19	6598.56
445.40	6539.16
445.61	6412.19
445.81	6659.99
446.02	6547.36
446.23	6483.87
446.44	6305.70
446.65	6494.11
446.86	6512.54
447.07	6688.67
447.28	6879.13
447.49	6840.22
447.70	6758.30
447.91	6731.67
448.12	6770.58
448.33	6850.46
448.54	6838.17
448.74	6571.93
448.95	6715.29
449.16	6815.64
449.37	7075.73
449.58	6911.89
449.79	7006.10
450.00	6817.69
450.21	6887.32
450.42	7065.49
450.63	6936.47
450.84	7161.75
451.05	7030.68
451.25	7004.05
451.46	6959.00
451.67	7102.36
451.88	7235.47
452.09	7184.27
452.30	7110.55
452.51	7227.28
452.72	7335.82
452.93	7608.20
453.13	7169.94
453.34	7202.71
453.55	7329.68
453.76	7221.14
453.97	7692.17
454.18	7434.13
454.39	7640.97
454.60	7485.33
454.81	7485.33
455.01	7700.36
455.22	7405.46
455.43	7591.82
455.64	7677.83
455.85	7899.02
456.06	7989.13
456.27	7942.02
456.48	7739.27
456.68	7819.14
456.89	8046.47
457.10	7767.95
457.31	7948.17
457.52	7978.89
457.73	8064.90
457.94	8394.62
458.14	7911.30
458.35	8474.49
458.56	8220.55
458.77	8152.96
458.98	8294.27
459.19	8304.51
459.39	8419.20
459.60	8411.01
459.81	8349.57
460.02	8595.32
460.23	8525.69
460.44	8597.37
460.65	8802.17
460.85	8646.52
461.06	8785.79
461.27	8503.17
461.48	9052.02
461.69	8994.68
461.89	8669.05
462.10	9015.16
462.31	8925.05
462.52	8777.59
462.73	9041.78
462.94	9230.20
463.14	9240.44
463.35	9152.37
463.56	9359.22
463.77	9602.93
463.98	9338.74
464.18	9303.92
464.39	9594.73
464.60	9719.66
464.81	9746.28
465.02	9744.24
465.23	9768.81
465.43	9633.64
465.64	10002.28
465.85	9865.07
466.06	9985.90
466.27	10020.71
466.47	10237.80
466.68	10221.41
466.89	10073.96
467.10	10413.92
467.30	10123.11
467.51	10258.28
467.72	10569.57
467.93	10159.97
468.14	10399.59
468.34	10831.71
468.55	10493.79
468.76	10657.63
468.97	10637.15
469.17	10671.97
469.38	11067.22
469.59	11118.42
469.80	10841.95
470.01	11116.37
470.21	11018.07
470.42	11288.40
470.63	11206.48
470.84	11134.81
471.04	11439.95
471.25	11562.83
471.46	11601.74
471.67	11949.90
471.87	11685.71
472.08	11880.27
472.29	11992.90
472.50	11689.81
472.70	11919.18
472.91	11882.31
473.12	12296.00
473.33	12283.72
473.53	12138.31
473.74	12273.48
473.95	12470.08
474.16	12693.31
474.36	12437.31
474.57	12877.63
474.78	12959.55
474.99	12713.79
475.19	12797.76
475.40	13072.18
475.61	12988.22
475.81	13356.85
476.02	13475.63
476.23	13305.65
476.44	13346.61
476.64	13684.53
476.85	13743.92
477.06	13643.57
477.27	13870.89
477.47	13920.04
477.68	14026.54
477.89	14036.78
478.09	14120.74
478.30	14229.29
478.51	14182.18
478.71	14116.65
478.92	14520.10
479.13	14608.16
479.34	14718.75
479.54	14655.26
479.75	14769.95
479.96	14858.01
480.16	15099.67
480.37	14896.92
480.58	15062.81
480.78	15314.71
480.99	15396.63
481.20	15585.04
481.41	15589.14
481.61	15642.39
481.82	15673.10
482.03	15634.19
482.23	15685.39
482.44	16041.74
482.65	16213.77
482.85	16277.26
483.06	16051.98
483.27	16396.04
483.47	16355.08
483.68	16334.60
483.89	16455.43
484.09	16461.57
484.30	16850.69
484.51	16785.15
484.71	16715.52
484.92	16877.31
485.13	17211.13
485.33	17096.44
485.54	16803.58
485.75	17313.53
485.95	17311.48
486.16	17291.00
486.37	17684.21
486.57	17536.76
486.78	17600.24
486.98	17565.43
487.19	17852.14
487.40	17948.40
487.60	17815.28
487.81	18331.37
488.02	18222.83
488.22	17846.00
488.43	18446.05
488.64	18421.48
488.84	18538.21
489.05	18527.97
489.25	18657.00
489.46	18855.65
489.67	18722.53
489.87	19056.35
490.08	19197.66
490.29	19123.93
490.49	19517.14
490.70	19306.20
490.90	19752.66
491.11	19511.00
491.32	19429.08
491.52	19810.00
491.73	19797.71
491.94	19889.87
492.14	19531.48
492.35	20045.52
492.55	20373.19
492.76	20192.97
492.97	20303.56
493.17	20145.87
493.38	20473.54
493.58	20651.72
493.79	20625.09
494.00	20637.38
494.20	20780.74
494.41	20987.58
494.61	21030.59
494.82	20973.25
495.02	20729.54
495.23	21323.45
495.44	21319.35
495.64	21757.62
495.85	21749.43
496.05	21509.82
496.26	21706.42
496.47	21974.70
496.67	21784.24
496.88	21966.51
497.08	21878.45
497.29	22210.22
497.49	22130.35
497.70	22222.51
497.91	22482.60
498.11	22464.17
498.32	22806.18
498.52	22892.19
498.73	22691.49
498.93	22847.14
499.14	22810.28
499.34	23064.22
499.55	22984.35
499.76	22873.76
499.96	23332.51
500.17	23371.42
500.37	23422.62
500.58	23246.49
500.78	23529.11
500.99	23695.00
501.19	23754.39
501.40	23635.61
501.60	23748.25
501.81	23733.91
502.02	23950.99
502.22	24096.40
502.43	24262.29
502.63	24446.60
502.84	24374.92
503.04	24401.55
503.25	24301.20
503.45	24678.02
503.66	24946.31
503.86	24663.69
504.07	25067.14
504.27	24968.84
504.48	25075.33
504.68	25230.98
504.89	25319.04
505.09	25532.03
505.30	25314.94
505.50	25511.55
505.71	25005.70
505.91	25646.71
506.12	25357.95
506.32	25742.97
506.53	25824.89
506.73	25632.38
506.94	25798.26
507.14	26044.02
507.35	26027.63
507.55	26248.82
507.76	26261.10
507.96	25896.56
508.17	25986.68
508.37	26056.31
508.58	26113.65
508.78	26445.42
508.99	26775.14
509.19	26617.45
509.40	26719.85
509.60	26695.27
509.81	26918.50
510.01	26914.41
510.22	26756.71
510.42	26904.17
510.63	27176.55
510.83	26769.00
511.04	27008.61
511.24	27166.31
511.44	27055.72
511.65	27209.31
511.85	27299.42
512.06	27211.36
512.26	27360.86
512.47	27526.75
512.67	27348.57
512.88	27623.00
513.08	27162.21
513.29	27528.80
513.49	27731.54
513.69	27713.11
513.90	27797.08
514.10	27870.81
514.31	28028.50
514.51	27860.57
514.72	28077.65
514.92	28028.50
515.13	28243.54
515.33	28128.85
515.53	28124.75
515.74	27965.01
515.94	28544.59
516.15	28524.11
516.35	27979.35
516.56	28753.48
516.76	28302.93
516.96	28485.20
517.17	28804.68
517.37	28509.77
517.58	28534.35
517.78	28741.19
517.99	28550.73
518.19	28939.85
518.39	28911.17
518.60	29093.44
518.80	28978.76
519.01	29187.65
519.21	29132.36
519.41	29109.83
519.62	29058.63
519.82	29275.71
520.03	29619.77
520.23	29558.33
520.43	28950.09
520.64	29814.33
520.84	29623.87
521.05	29249.09
521.25	29505.09
521.45	29517.37
521.66	29789.75
521.86	29804.09
522.07	29804.09
522.27	30166.58
522.47	30119.48
522.68	30225.97
522.88	30160.44
523.08	30135.86
523.29	30457.39
523.49	30092.85
523.70	30518.83
523.90	30438.96
524.10	30174.77
524.31	30844.46
524.51	30608.94
524.71	30776.87
524.92	30783.02
525.12	30873.13
525.33	30805.55
525.53	31051.30
525.73	31430.18
525.94	31055.40
526.14	31112.74
526.34	31356.45
526.55	31366.69
526.75	31192.61
526.95	31620.64
527.16	31432.22
527.36	31454.75
527.56	31784.48
527.77	32202.26
527.97	31833.63
528.17	32329.23
528.38	31839.77
528.58	32019.99
528.78	32284.18
528.99	31968.79
529.19	32355.86
529.39	32071.19
529.60	32269.84
529.80	32710.16
530.00	32687.63
530.21	32724.49
530.41	32982.54
530.61	32912.91
530.82	32986.63
531.02	33408.51
531.22	33322.50
531.43	33209.86
531.63	33426.95
531.83	33232.39
532.04	33809.92
532.24	33431.04
532.44	34010.62
532.64	33725.95
532.85	34029.05
533.05	34080.25
533.25	33979.90
533.46	33705.47
533.66	34643.44
533.86	34285.04
534.07	34876.91
534.27	34684.40
534.47	34745.84
534.67	34788.85
534.88	34618.86
535.08	34895.34
535.28	35112.42
535.49	35030.51
535.69	35679.71
535.89	35403.24
536.09	35423.72
536.30	35540.45
536.50	35585.50
536.70	36052.44
536.91	35757.53
537.11	35663.33
537.31	36029.91
537.51	36152.79
537.72	36609.49
537.92	36263.38
538.12	36730.32
538.32	36236.76
538.53	36529.62
538.73	36578.77
538.93	36617.68
539.13	36937.16
539.34	36722.13
539.54	36918.73
539.74	36955.60
539.94	37189.06
540.15	37045.71
540.35	37316.04
540.55	37418.44
540.75	37236.17
540.96	37602.75
541.16	37596.61
541.36	37776.83
541.56	37699.01
541.77	38114.75
541.97	37936.57
542.17	38190.52
542.37	38331.83
542.58	38211.00
542.78	38450.61
542.98	38516.15
543.18	38872.49
543.38	39237.03
543.59	38495.67
543.79	39120.30
543.99	38618.55
544.19	39093.68
544.40	38974.89
544.60	39083.44
544.80	39120.30
545.00	39116.20
545.20	39779.74
545.41	39497.13
545.61	39474.60
545.81	39873.95
546.01	39994.78
546.21	40043.93
546.42	39712.16
546.62	39845.28
546.82	39867.81
547.02	39912.86
547.22	40353.18
547.43	40316.31
547.63	40435.10
547.83	40547.73
548.03	40375.70
548.23	40770.96
548.44	40383.90
548.64	40842.64
548.84	40648.08
549.04	40781.20
549.24	41182.60
549.45	41418.12
549.65	41223.56
549.85	41207.18
550.05	41497.99
550.25	41278.86
550.45	41870.72
550.66	41739.65
550.86	41170.32
551.06	41588.10
551.26	41465.22
551.46	41778.56
551.66	41366.92
551.87	41401.74
552.07	41639.30
552.27	41778.56
552.47	42067.33
552.67	42272.12
552.87	41866.63
553.07	41815.43
553.28	42265.98
553.48	42392.95
553.68	41684.36
553.88	42851.70
554.08	42098.05
554.28	42157.44
554.48	42438.01
554.69	42644.85
554.89	42483.06
555.09	42747.25
555.29	42339.71
555.49	42630.52
555.69	42677.62
555.89	42802.55
556.10	42966.38
556.30	42986.86
556.50	42999.15
556.70	42876.27
556.90	42689.91
557.10	42911.09
557.30	42978.67
557.50	43105.65
557.70	43625.83
557.91	43146.61
558.11	42986.86
558.31	43523.43
558.51	43181.42
558.71	43468.14
558.91	43230.57
559.11	43169.13
559.31	43386.22
559.51	43429.23
559.72	43214.19
559.92	43433.32
560.12	43263.34
560.32	43765.09
560.52	43777.38
560.72	43640.17
560.92	43509.10
561.12	43890.02
561.32	44078.43
561.52	43421.03
561.72	44418.39
561.93	43758.95
562.13	43890.02
562.33	43730.28
562.53	44174.69
562.73	43584.87
562.93	43937.12
563.13	43926.88
563.33	44053.86
563.53	44336.48
563.73	43771.24
563.93	43945.31
564.13	44338.52
564.33	44070.24
564.53	44047.71
564.74	44150.11
564.94	44094.82
565.14	44381.53
565.34	43988.32
565.54	44291.42
565.74	44553.56
565.94	44516.70
566.14	44281.18
566.34	44455.26
566.54	44770.64
566.74	44397.91
566.94	44438.87
567.14	44756.31
567.34	44485.98
567.54	44799.32
567.74	44156.25
567.94	44141.92
568.14	45014.35
568.34	44717.40
568.54	44615.00
568.74	44524.89
568.94	44934.48
569.14	45133.14
569.34	44909.91
569.54	45108.56
569.75	44635.48
569.95	44617.05
570.15	45225.29
570.35	45073.74
570.55	44569.94
570.75	45045.07
570.95	44651.86
571.15	45198.67
571.35	45061.46
571.55	45028.69
571.75	45141.33
571.95	44881.24
572.15	45069.65
572.35	45100.37
572.55	45217.10
572.75	45278.54
572.95	45339.98
573.15	45524.30
573.35	45364.56
573.55	45176.14
573.75	45491.53
573.95	45331.79
574.15	45462.86
574.35	45397.32
574.55	45190.48
574.75	45585.74
574.95	45614.41
575.15	45440.33
575.34	45423.95
575.54	45806.92
575.74	45382.99
575.94	45602.12
576.14	45565.26
576.34	45868.36
576.54	46067.01
576.74	46052.67
576.94	45757.77
577.14	46380.35
577.34	46316.86
577.54	45905.22
577.74	45772.10
577.94	46196.03
578.14	46310.72
578.34	46355.77
578.54	46150.98
578.74	46253.37
578.94	46576.95
579.14	46224.70
579.34	46509.37
579.54	46656.82
579.74	46726.46
579.94	46251.33
580.13	46751.03
580.33	46423.36
580.53	46712.12
580.73	46882.10
580.93	46994.74
581.13	46945.59
581.33	46835.00
581.53	47160.62
581.73	47113.52
581.93	47136.05
582.13	46820.66
582.33	47217.97
582.53	47510.83
582.73	47732.01
582.92	47226.16
583.12	47531.31
583.32	47138.10
583.52	47428.91
583.72	47723.82
583.92	47445.29
584.12	47414.57
584.32	47748.39
584.52	47408.43
584.72	47637.80
584.92	48076.07
585.11	48477.47
585.31	48117.03
585.51	48055.59
585.71	48020.77
585.91	48704.79
586.11	47992.10
586.31	48219.42
586.51	48340.25
586.71	48545.05
586.91	48700.70
587.10	48786.71
587.30	48850.20
587.50	48821.53
587.70	48678.17
587.90	48911.64
588.10	49100.05
588.30	48815.38
588.50	48977.17
588.69	48932.12
588.89	49122.58
589.09	49112.34
589.29	49292.56
589.49	49323.28
589.69	48850.20
589.89	49761.54
590.08	49513.74
590.28	49480.97
590.48	48940.31
590.68	49349.90
590.88	49474.83
591.08	49726.73
591.28	49779.98
591.47	50226.43
591.67	50246.91
591.87	50222.34
592.07	50279.68
592.27	50240.77
592.47	50240.77
592.67	50240.77
592.86	50033.92
593.06	50035.97
593.26	50791.67
593.46	50146.56
593.66	50394.37
593.86	50664.70
594.05	50617.60
594.25	50963.70
594.45	50736.38
594.65	50615.55
594.85	50365.70
595.05	50984.18
595.24	50838.78
595.44	51143.92
595.64	51209.46
595.84	51133.68
596.04	51006.71
596.23	51166.45
596.43	51668.20
596.63	51295.47
596.83	51094.77
597.03	51864.81
597.22	51985.64
597.42	51307.76
597.62	51985.64
597.82	51946.73
598.02	51819.75
598.21	51989.73
598.41	51672.30
598.61	52026.60
598.81	51963.11
599.01	52135.14
599.20	52057.32
599.40	52335.84
599.60	52354.27
599.80	52335.84
600.00	52528.35
600.19	52987.10
600.39	52499.68
600.59	52739.29
600.79	52923.61
600.98	52696.28
601.18	53118.17
601.38	53257.43
601.58	53034.20
601.78	52858.07
601.97	52978.90
602.17	53873.87
602.37	53494.99
602.57	53417.17
602.76	53404.88
602.96	53228.76
603.16	53679.31
603.36	53583.05
603.55	53898.44
603.75	53990.60
603.95	53867.72
604.15	53992.65
604.34	54158.53
604.54	53654.73
604.74	54140.10
604.94	54631.61
605.13	54246.60
605.33	54074.57
605.53	53912.78
605.73	54547.65
605.92	54236.36
606.12	54338.75
606.32	54529.22
606.52	54260.93
606.71	54482.11
606.91	55229.62
607.11	54500.54
607.30	54686.91
607.50	54613.18
607.70	54940.86
607.90	54768.83
608.09	54572.22
608.29	55000.25
608.49	55352.50
608.68	54903.99
608.88	54891.71
609.08	55368.88
609.28	55415.99
609.47	54394.05
609.67	55970.99
609.87	55196.85
610.06	55252.15
610.26	55203.00
610.46	55545.01
610.66	55442.61
610.85	55540.91
611.05	55254.20
611.25	55473.33
611.44	55338.16
611.64	55823.53
611.84	55227.57
612.03	55211.19
612.23	55502.00
612.43	55448.75
612.62	55211.19
612.82	55549.10
613.02	55456.95
613.21	55590.06
613.41	55506.10
613.61	55645.36
613.80	55329.97
614.00	55313.59
614.20	55542.96
614.39	55522.48
614.59	55547.06
614.79	55596.21
614.98	55461.04
615.18	55379.12
615.38	55440.56
615.57	55153.85
615.77	55612.59
615.97	55608.50
616.16	55862.44
616.36	55241.91
616.56	55483.57
616.75	55755.95
616.95	55303.35
617.15	56100.01
617.34	55354.55
617.54	55063.74
617.74	55850.16
617.93	55518.38
618.13	55428.27
618.32	55706.80
618.52	55579.82
618.72	55579.82
618.91	55538.86
619.11	55493.81
619.31	55446.71
619.50	55289.01
619.70	54858.94
619.90	55026.87
620.09	55434.42
620.29	55303.35
620.48	55368.88
620.68	55532.72
620.88	54586.56
621.07	55186.61
621.27	55145.65
621.46	54715.58
621.66	55334.07
621.86	55155.89
622.05	55100.60
622.25	55653.55
622.44	54836.41
622.64	55196.85
622.84	55645.36
623.03	55135.41
623.23	55170.23
623.42	55067.83
623.62	55131.32
623.82	55313.59
624.01	55284.92
624.21	55213.24
624.40	54928.57
624.60	55411.89
624.80	54582.46
624.99	54613.18
625.19	54789.31
625.38	54912.19
625.58	54867.13
625.77	54947.00
625.97	55010.49
626.17	54310.08
626.36	54713.53
626.56	54801.60
626.75	54256.84
626.95	55217.33
627.14	54576.32
627.34	55549.10
627.54	54903.99
627.73	54676.67
627.93	54637.76
628.12	54703.29
628.32	54478.02
628.51	54576.32
628.71	54484.16
628.90	54576.32
629.10	54920.38
629.30	54662.33
629.49	54701.25
629.69	54310.08
629.88	54645.95
630.08	54549.70
630.27	54762.68
630.47	54754.49
630.66	54619.33
630.86	54684.86
631.05	54621.37
631.25	54420.67
631.44	54514.88
631.64	54498.50
631.84	54817.98
632.03	55213.24
632.23	54688.96
632.42	54574.27
632.62	54684.86
632.81	54293.70
633.01	54516.93
633.20	54793.40
633.40	54576.32
633.59	54523.07
633.79	54041.80
633.98	54525.12
634.18	54533.31
634.37	54400.19
634.57	54465.73
634.76	54834.36
634.96	54785.21
635.15	54682.81
635.35	54482.11
635.54	54457.54
635.74	54453.44
635.93	54369.47
636.13	54678.72
636.32	54899.90
636.52	54312.13
636.71	54439.11
636.91	54965.43
637.10	54346.95
637.30	54639.81
637.49	54363.33
637.69	54355.14
637.88	54541.50
638.08	54342.85
638.27	54940.86
638.46	54723.77
638.66	54860.99
638.85	54498.50
639.05	54920.38
639.24	54566.08
639.44	54635.71
639.63	54758.59
639.83	54688.96
640.02	54760.64
640.22	54791.36
640.41	54965.43
640.61	54531.26
640.80	54881.47
640.99	54676.67
641.19	55526.58
641.38	55358.64
641.58	54781.12
641.77	54949.05
641.97	54688.96
642.16	54699.20
642.36	54967.48
642.55	55016.63
642.74	54301.89
642.94	55303.35
643.13	54871.23
643.33	55192.76
643.52	55063.74
643.72	55751.85
643.91	54746.30
644.10	55409.84
644.30	55284.92
644.49	55317.68
644.69	55594.16
644.88	55092.41
645.08	55344.31
645.27	55424.18
645.46	55012.54
645.66	55569.58
645.85	54936.76
646.05	55286.96
646.24	55241.91
646.43	55655.60
646.63	55809.20
646.82	55907.50
647.02	55461.04
647.21	55555.25
647.40	55532.72
647.60	55686.32
647.79	55895.21
647.99	55835.82
648.18	55217.33
648.37	56272.04
648.57	55776.43
648.76	55669.93
648.96	55506.10
649.15	55909.55
649.34	55968.94
649.54	56188.07
649.73	55729.33
649.92	56005.80
650.12	56204.45
650.31	55891.12
650.51	55997.61
650.70	56329.38
650.89	56210.60
651.09	56568.99
651.28	55792.81
651.47	56233.13
651.67	56470.69
651.86	56769.69
652.06	56120.49
652.25	56538.27
652.44	56269.99
652.64	56075.43
652.83	56513.70
653.02	56046.76
653.22	56554.66
653.41	55981.23
653.60	55825.58
653.80	56040.62
653.99	56681.63
654.18	56427.68
654.38	56487.07
654.57	56423.59
654.76	56685.73
654.96	56257.70
655.15	56833.18
655.34	56743.07
655.54	56241.32
655.73	56302.76
655.92	56505.51
656.12	56636.58
656.31	56761.50
656.50	56513.70
656.70	56906.91
656.89	56851.61
657.08	57406.61
657.28	56908.96
657.47	56589.47
657.66	57091.22
657.86	56954.01
658.05	56767.65
658.24	57210.01
658.43	57027.74
658.63	56911.00
658.82	56865.95
659.01	57560.21
659.21	57123.99
659.40	57226.39
659.59	57072.79
659.79	57144.47
659.98	57418.90
660.17	57392.28
660.36	56974.49
660.56	57377.94
660.75	57717.90
660.94	57195.67
661.14	57201.82
661.33	57466.00
661.52	57369.75
661.71	57519.25
661.91	57298.07
662.10	57226.39
662.29	57455.76
662.49	57869.45
662.68	57758.86
662.87	57726.10
663.06	57857.17
663.26	57445.52
663.45	57814.16
663.64	57242.77
663.83	58291.33
664.03	57762.96
664.22	57955.47
664.41	57908.36
664.60	57392.28
664.80	57775.25
664.99	57126.04
665.18	57717.90
665.37	57672.85
665.57	57812.11
665.76	57463.96
665.95	57898.12
666.14	57754.77
666.34	57711.76
666.53	57711.76
666.72	57910.41
666.91	57404.56
667.11	57799.82
667.30	57848.97
667.49	57736.34
667.68	58084.49
667.87	57580.69
668.07	57914.51
668.26	57840.78
668.45	58156.17
668.64	57238.68
668.84	58311.81
669.03	58100.87
669.22	57537.68
669.41	57859.21
669.60	57934.99
669.80	57812.11
669.99	57957.52
670.18	57672.85
670.37	57357.46
670.57	58287.24
670.76	57646.22
670.95	57867.40
671.14	58320.01
671.33	57517.20
671.53	58135.69
671.72	58199.18
671.91	57760.91
672.10	57642.13
672.29	57785.49
672.48	57719.95
672.68	58283.14
672.87	57580.69
673.06	57955.47
673.25	57568.40
673.44	57451.67
673.64	57746.57
673.83	57449.62
674.02	58016.91
674.21	57586.83
674.40	57912.46
674.59	57410.71
674.79	57832.59
674.98	57455.76
675.17	57910.41
675.36	57775.25
675.55	57992.33
675.74	57304.21
675.94	57423.00
676.13	57601.17
676.32	57771.15
676.51	58039.43
676.70	57840.78
676.89	57592.98
677.08	57980.04
677.28	57523.35
677.47	57971.85
677.66	58025.10
677.85	57894.03
678.04	57789.58
678.23	58006.67
678.42	58352.77
678.62	57259.16
678.81	58029.19
679.00	57697.42
679.19	58004.62
679.38	57599.12
679.57	57541.78
679.76	57379.99
679.96	57881.74
680.15	57476.24
680.34	57586.83
680.53	57582.74
680.72	58014.86
680.91	57586.83
681.10	57480.34
681.29	57662.61
681.48	57148.57
681.68	57597.07
681.87	57492.63
682.06	56818.84
682.25	57103.51
682.44	57275.54
682.63	57029.79
682.82	57468.05
683.01	57367.70
683.20	56851.61
683.39	57105.56
683.59	56872.09
683.78	57078.94
683.97	56585.38
684.16	57070.75
684.35	56648.86
684.54	57080.98
684.73	56712.35
684.92	56769.69
685.11	56667.30
685.30	56691.87
685.49	57001.11
685.69	56403.11
685.88	56960.15
686.07	56626.34
686.26	56343.72
686.45	56366.24
686.64	56722.59
686.83	56300.71
687.02	56274.09
687.21	56495.27
687.40	56818.84
687.59	56009.90
687.78	56710.30
687.97	56659.10
688.16	56607.90
688.35	56313.00
688.54	56108.20
688.74	56089.77
688.93	56358.05
689.12	55903.40
689.31	56442.02
689.50	56313.00
689.69	56233.13
689.88	55616.69
690.07	56431.78
690.26	56206.50
690.45	56439.97
690.64	55872.68
690.83	55690.41
691.02	55522.48
691.21	55743.66
691.40	55735.47
691.59	55880.88
691.78	55663.79
691.97	56032.42
692.16	55336.12
692.35	55973.03
692.54	55700.65
692.73	55573.68
692.92	55747.76
693.11	56013.99
693.30	55399.60
693.49	55522.48
693.68	55547.06
693.87	55782.57
694.06	55065.78
694.25	55217.33
694.44	55035.06
694.63	55119.03
694.82	55497.91
695.01	54604.99
695.20	54588.61
695.39	55088.31
695.58	54959.29
695.77	54781.12
695.96	55080.12
696.15	54852.80
696.34	54848.70
696.53	54742.20
696.72	54805.69
696.91	54682.81
697.10	54820.03
697.29	54496.45
697.48	54809.79
697.67	54535.36
697.86	54500.54
698.05	54189.25
698.24	54564.03
698.43	54193.35
698.62	54510.78
698.81	54459.58
699.00	54154.44
699.19	54084.81
699.38	53773.52
699.57	53892.30
699.76	54285.51
699.95	53802.19
700.14	53783.76
700.32	53724.36
700.51	53605.58
700.70	53953.74
700.89	53896.39
701.08	53945.54
701.27	53349.59
701.46	54181.06
701.65	53146.84
701.84	53445.84
702.03	53667.02
702.22	53703.88
702.41	53765.32
702.60	53970.12
702.79	53413.07
702.98	53163.22
703.17	53327.06
703.35	52882.65
703.54	53181.65
703.73	53437.65
703.92	53499.09
704.11	53302.48
704.30	53402.83
704.49	52944.09
704.68	53105.88
704.87	52976.86
705.06	53269.72
705.25	52921.56
705.43	53087.45
705.62	52968.66
705.81	52741.34
706.00	52972.76
706.19	52421.86
706.38	52827.35
706.57	53017.82
706.76	52782.30
706.95	52712.67
707.14	52436.19
707.32	52622.56
707.51	52141.28
707.70	52403.42
707.89	52434.14
708.08	52196.58
708.27	52802.78
708.46	52325.60
708.65	52053.22
708.84	52765.91
709.02	52262.11
709.21	52575.45
709.40	51983.59
709.59	52172.00
709.78	51647.72
709.97	52565.21
710.16	52032.74
710.34	51688.68
710.53	52368.61
710.72	51543.28
710.91	52036.84
711.10	52661.47
711.29	52280.55
711.48	52077.80
711.66	51311.86
711.85	51705.07
712.04	51438.83
712.23	51672.30
712.42	51541.23
712.61	51700.97
712.80	51111.16
712.98	51727.59
713.17	51569.90
713.36	51315.95
713.55	51551.47
713.74	51461.36
713.93	51467.50
714.11	51496.17
714.30	50787.58
714.49	50883.83
714.68	51438.83
714.87	51563.76
715.06	51094.77
715.24	50998.52
715.43	50836.73
715.62	50726.14
715.81	50881.78
716.00	51055.86
716.18	50445.57
716.37	50914.55
716.56	50818.30
716.75	51328.24
716.94	50705.66
717.12	50382.08
717.31	51139.83
717.50	50670.84
717.69	50447.61
717.88	50402.56
718.06	50795.77
718.25	50785.53
718.44	50316.54
718.63	51203.31
718.82	49968.39
719.00	50554.11
719.19	50349.31
719.38	50005.25
719.57	49984.77
719.76	50216.19
719.94	49681.67
720.13	49777.93
720.32	50375.94
720.51	49835.27
720.69	49962.25
720.88	49968.39
721.07	49714.44
721.26	49593.61
721.44	49739.02
721.63	49624.33
721.82	49534.22
722.01	49429.77
722.20	49345.81
722.38	49558.80
722.57	48889.11
722.76	49157.39
722.95	49603.85
723.13	48755.99
723.32	49433.87
723.51	48698.65
723.70	49132.82
723.88	49241.36
724.07	48776.47
724.26	49304.85
724.44	48405.79
724.63	49018.13
724.82	48829.72
725.01	48643.35
725.19	49011.99
725.38	48502.04
725.57	48559.39
725.76	48858.39
725.94	48196.90
726.13	48485.66
726.32	48727.32
726.51	48338.21
726.69	48934.17
726.88	48633.11
727.07	48780.57
727.25	48629.02
727.44	48661.79
727.63	48842.01
727.82	48782.62
728.00	48837.91
728.19	48377.12
728.38	48600.35
728.56	48096.55
728.75	48760.09
728.94	48264.48
729.12	48590.11
729.31	48577.82
729.50	48360.73
729.69	48655.64
729.87	48641.31
730.06	48590.11
730.25	48473.37
730.43	48565.53
730.62	48352.54
730.81	48758.04
730.99	48694.55
731.18	48244.00
731.37	48874.77
731.55	48639.26
731.74	48895.25
731.93	48827.67
732.11	48874.77
732.30	48846.10
732.49	48432.41
732.67	48674.07
732.86	48618.78
733.05	48407.84
733.23	48055.59
733.42	48895.25
733.61	48553.24
733.79	48805.14
733.98	48889.11
734.17	48229.66
734.35	48790.81
734.54	48518.43
734.73	48936.21
734.91	48422.17
735.10	48164.13
735.29	48514.33
735.47	47922.47
735.66	48284.96
735.84	47969.57
736.03	47998.24
736.22	48332.06
736.40	48280.86
736.59	48313.63
736.78	48538.91
736.96	48557.34
737.15	48379.17
737.33	48291.10
737.52	48117.03
737.71	48297.25
737.89	48043.30
738.08	47781.16
738.27	48270.62
738.45	48581.91
738.64	48465.18
738.82	48215.33
739.01	47922.47
739.20	48502.04
739.38	48350.49
739.57	48098.59
739.75	48069.92
739.94	47795.49
740.13	47945.00
740.31	47764.78
740.50	47813.93
740.68	47699.24
740.87	47928.61
741.06	47727.91
741.24	47887.65
741.43	47574.31
741.61	48164.13
741.80	47777.06
741.99	47748.39
742.17	47795.49
742.36	47617.32
742.54	47549.74
742.73	47789.35
742.91	47822.12
743.10	47588.65
743.29	47979.81
743.47	48024.87
743.66	47762.73
743.84	48100.64
744.03	47639.85
744.21	47637.80
744.40	47752.49
744.59	47318.32
744.77	47863.08
744.96	47430.96
745.14	47537.45
745.33	47416.62
745.51	47342.89
745.70	47547.69
745.88	47250.74
746.07	47418.67
746.26	46994.74
746.44	47197.49
746.63	47361.33
746.81	47420.72
747.00	47011.12
747.18	47002.93
747.37	47189.30
747.55	47209.78
747.74	47684.90
747.92	46644.54
748.11	47195.44
748.29	47041.84
748.48	47297.84
748.66	46818.61
748.85	47224.11
749.03	47582.51
749.22	47230.26
749.41	46806.33
749.59	47265.07
749.78	46634.30
749.96	46505.27
750.15	47289.65
750.33	46548.28
750.52	46501.18
750.70	46974.26
750.89	46855.48
751.07	46292.29
751.26	46769.46
751.44	46226.75
751.63	46703.93
751.81	46650.68
752.00	46560.57
752.18	47185.20
752.37	46566.71
752.55	46054.72
752.74	46261.57
752.92	46036.29
753.10	46060.87
753.29	46761.27
753.47	46466.36
753.66	45839.68
753.84	46257.47
754.03	46122.30
754.21	45899.08
754.40	46142.78
754.58	46288.19
754.77	45929.80
754.95	45667.66
755.14	45700.42
755.32	46294.33
755.51	45598.02
755.69	45759.81
755.88	45501.77
756.06	45501.77
756.24	45847.88
756.43	45851.97
756.61	45903.17
756.80	45530.44
756.98	45428.04
757.17	45294.92
757.35	45768.01
757.54	45749.57
757.72	45282.64
757.90	45587.78
758.09	45108.56
758.27	45131.09
758.46	45301.07
758.64	45049.17
758.83	45716.81
759.01	45188.43
759.19	45362.51
759.38	45237.58
759.56	45315.40
759.75	44963.15
759.93	44901.71
760.12	44725.59
760.30	45251.92
760.48	44897.62
760.67	44823.89
760.85	44813.65
761.04	45151.57
761.22	44844.37
761.40	44807.51
761.59	44918.10
761.77	44365.15
761.96	44764.50
762.14	45126.99
762.32	44408.15
762.51	44143.97
762.69	44625.24
762.88	44195.17
763.06	44252.51
763.24	44488.03
763.43	44223.84
763.61	44385.63
763.80	44309.85
763.98	43881.83
764.16	44053.86
764.35	43797.86
764.53	43337.07
764.72	43668.84
764.90	43711.84
765.08	43830.63
765.27	43638.12
765.45	43560.30
765.63	43246.96
765.82	43912.55
766.00	43263.34
766.18	43357.55
766.37	43619.69
766.55	43593.06
766.74	43404.65
766.92	42986.86
767.10	43238.76
767.29	43105.65
767.47	42489.21
767.65	43289.96
767.84	43113.84
768.02	43435.37
768.20	42612.09
768.39	43222.38
768.57	42714.48
768.75	43148.65
768.94	42980.72
769.12	42980.72
769.30	42411.38
769.49	42603.89
769.67	42728.82
769.85	41940.35
770.04	42556.79
770.22	42481.02
770.40	41934.21
770.59	42151.29
770.77	42108.29
770.95	42200.44
771.14	42206.59
771.32	41782.66
771.50	41311.63
771.69	42077.57
771.87	42087.81
772.05	42040.70
772.24	41538.95
772.42	41749.89
772.60	41528.71
772.78	41352.58
772.97	41440.65
773.15	41766.27
773.33	41665.92
773.52	41323.91
773.70	41622.92
773.88	41616.77
774.07	41086.35
774.25	41518.47
774.43	41522.57
774.61	41565.57
774.80	41981.31
774.98	41063.82
775.16	41479.56
775.34	41706.88
775.53	41555.33
775.71	41289.10
775.89	41700.74
776.08	41239.95
776.26	41014.67
776.44	41397.64
776.62	41180.56
776.81	40908.18
776.99	41573.77
777.17	41446.79
777.35	41567.62
777.54	41469.32
777.72	41039.25
777.90	41297.29
778.08	41440.65
778.27	41393.54
778.45	41653.64
778.63	41770.37
778.81	41246.09
779.00	41590.15
779.18	41946.50
779.36	42120.57
779.54	41649.54
779.73	41397.64
779.91	41819.52
780.09	41508.23
780.27	41930.11
780.46	41659.78
780.64	42325.37
780.82	41710.98
781.00	42083.71
781.19	42311.03
781.37	42173.82
781.55	41870.72
781.73	42347.90
781.91	41614.72
782.10	41907.58
782.28	42077.57
782.46	41825.67
782.64	42198.40
782.82	41833.86
783.01	41825.67
783.19	41989.50
783.37	41854.34
783.55	41817.47
783.74	42425.72
783.92	41870.72
784.10	42278.27
784.28	42040.70
784.46	41506.18
784.64	41264.52
784.83	41713.03
785.01	41983.36
785.19	41776.51
785.37	42116.48
785.55	41418.12
785.74	41557.38
785.92	41661.83
786.10	41473.42
786.28	41618.82
786.46	41428.36
786.64	41096.59
786.83	41411.98
787.01	41282.95
787.19	41790.85
787.37	41741.70
787.55	41721.22
787.74	41434.50
787.92	41334.15
788.10	41541.00
788.28	41143.69
788.46	40951.18
788.64	41072.01
788.82	41477.51
789.01	40859.02
789.19	40803.73
789.37	40713.62
789.55	40727.95
789.73	40490.39
789.91	40600.98
790.09	40435.10
790.28	40275.35
790.46	40289.69
790.64	40281.50
790.82	40613.27
791.00	39857.57
791.18	39867.81
791.36	39798.18
791.55	40207.77
791.73	39808.42
791.91	39564.71
792.09	40023.45
792.27	39880.10
792.45	39646.63
792.63	39628.20
792.81	39482.79
793.00	40140.19
793.18	39323.05
793.36	39572.90
793.54	39122.35
793.72	39263.66
793.90	38942.13
794.08	39046.57
794.26	39054.76
794.44	38450.61
794.62	38596.02
794.81	38856.11
794.99	38454.71
795.17	38440.37
795.35	38417.85
795.53	38385.08
795.71	38184.38
795.89	38032.83
796.07	37860.80
796.25	38124.99
796.43	37967.29
796.61	37594.56
796.80	37443.01
796.98	37320.13
797.16	37410.25
797.34	37483.97
797.52	37297.61
797.70	37516.74
797.88	37168.58
798.06	37094.86
798.24	37125.58
798.42	36992.46
798.60	37098.95
798.78	36957.64
798.96	37074.38
799.14	36566.48
799.32	36441.56
799.51	36234.71
799.69	36912.59
799.87	36378.07
800.05	36011.48
800.23	36568.53
800.41	36279.77
800.59	36210.14
800.77	35958.24
800.95	35683.81
801.13	35681.76
801.31	35661.28
801.49	35732.96
801.67	35372.52
801.85	35677.66
802.03	35503.59
802.21	35034.60
802.39	34979.31
802.57	34915.82
802.75	34913.77
802.93	34979.31
803.11	34561.52
803.29	34844.14
803.47	34776.56
803.65	34659.82
803.83	34354.68
804.01	34530.80
804.19	34115.06
804.37	34352.63
804.55	34342.39
804.73	34211.32
804.91	33695.23
805.09	34045.43
805.27	33826.30
805.45	34164.21
805.63	33900.03
805.81	34067.96
805.99	33803.77
806.17	33803.77
806.35	33644.03
806.53	33435.14
806.71	33664.51
806.89	33623.55
807.07	33302.02
807.25	33240.58
807.43	33011.21
807.61	33332.74
807.79	33195.53
807.97	32679.44
808.15	32873.99
808.33	32986.63
808.51	32718.35
808.69	32515.60
808.87	32671.25
809.05	32503.31
809.23	32370.19
809.41	32433.68
809.59	32405.01
809.77	32384.53
809.95	32106.01
810.13	32339.47
810.31	32060.95
810.49	32308.76
810.67	32138.77
810.84	31958.55
811.02	32028.18
811.20	31563.29
811.38	32089.62
811.56	31442.46
811.74	31643.17
811.92	31290.91
812.10	31755.80
812.28	31643.17
812.46	31512.10
812.64	31585.82
812.82	31405.60
813.00	31276.58
813.18	31245.86
813.36	31512.10
813.53	31288.87
813.71	31209.00
813.89	30778.92
814.07	31399.46
814.25	30991.91
814.43	30662.19
814.61	30809.64
814.79	30613.04
814.97	30488.11
815.15	30524.97
815.33	30447.15
815.50	30133.81
815.68	30625.32
815.86	30580.27
816.04	30395.95
816.22	30449.20
816.40	30502.45
816.58	30099.00
816.76	30162.48
816.94	30402.10
817.11	30205.49
817.29	30074.42
817.47	29908.54
817.65	29955.64
817.83	29898.30
818.01	30033.46
818.19	29705.79
818.37	29451.84
818.54	29552.19
818.72	29488.70
818.90	29652.54
819.08	29361.73
819.26	29414.98
819.44	29023.81
819.62	29763.13
819.80	29478.46
819.97	29408.83
820.15	29355.58
820.33	29044.29
820.51	29214.27
820.69	29081.16
820.87	29644.35
821.05	29374.02
821.22	29179.46
821.40	28872.26
821.58	29054.53
821.76	28687.95
821.94	28902.98
822.12	29263.43
822.29	29060.68
822.47	28669.51
822.65	28679.75
822.83	28733.00
823.01	28515.92
823.19	28376.66
823.36	28415.57
823.54	28393.04
823.72	28534.35
823.90	28587.60
824.08	28048.98
824.25	28421.71
824.43	28276.30
824.61	28251.73
824.79	28315.22
824.97	28126.80
825.15	28178.00
825.32	28249.68
825.50	28096.08
825.68	27954.77
825.86	28157.52
826.04	28063.32
826.21	27799.13
826.39	27930.20
826.57	27883.09
826.75	27928.15
826.93	27623.00
827.10	27657.82
827.28	27719.26
827.46	27962.97
827.64	27782.74
827.81	27457.12
827.99	27725.40
828.17	27252.32
828.35	27367.01
828.53	27412.06
828.70	27096.67
828.88	27332.19
829.06	27514.46
829.24	27457.12
829.41	27307.62
829.59	27414.11
829.77	27158.11
829.95	27117.15
830.12	27029.09
830.30	26895.97
830.48	26953.32
830.66	27047.52
830.84	27158.11
831.01	26934.88
831.19	27213.41
831.37	27135.59
831.55	27016.80
831.72	26709.61
831.90	27018.85
832.08	26891.88
832.25	26981.99
832.43	26840.68
832.61	26603.11
832.79	26504.81
832.96	26566.25
833.14	26834.53
833.32	26756.71
833.50	26918.50
833.67	26590.83
833.85	26631.79
834.03	26510.96
834.20	26576.49
834.38	26584.68
834.56	26467.95
834.74	25984.63
834.91	26332.78
835.09	26349.17
835.27	26117.75
835.44	26203.76
835.62	26035.83
835.80	26117.75
835.98	26140.27
836.15	26177.14
836.33	25982.58
836.51	26304.11
836.68	25826.93
836.86	26011.25
837.04	25968.24
837.21	26156.66
837.39	25728.63
837.57	26064.50
837.75	25927.28
837.92	25521.79
838.10	25779.83
838.28	25568.89
838.45	25632.38
838.63	25478.78
838.81	25458.30
838.98	25806.45
839.16	25843.32
839.34	25276.03
839.51	25702.01
839.69	25366.14
839.87	25409.15
840.04	25368.19
840.22	25521.79
840.40	25480.83
840.57	25159.30
840.75	25409.15
840.93	25122.43
841.10	25058.95
841.28	25525.88
841.46	25183.87
841.63	25486.97
841.81	24989.31
841.98	25222.78
842.16	25194.11
842.34	25009.79
842.51	25095.81
842.69	24737.41
842.87	24931.97
843.04	25181.82
843.22	24950.40
843.40	24727.17
843.57	24790.66
843.75	25233.02
843.92	24874.63
844.10	24962.69
844.28	24888.96
844.45	24823.43
844.63	24723.08
844.81	24596.10
844.98	24686.22
845.16	24495.75
845.33	24362.64
845.51	24448.65
845.69	24485.51
845.86	24385.16
846.04	24456.84
846.21	24307.34
846.39	24307.34
846.57	24491.66
846.74	24559.24
846.92	24336.01
847.09	24163.98
847.27	24131.22
847.45	24422.03
847.62	24530.57
847.80	24501.90
847.97	24282.77
848.15	23895.70
848.32	24030.87
848.50	23854.74
848.68	24002.19
848.85	24026.77
849.03	23674.52
849.20	23811.73
849.38	24192.65
849.56	24018.58
849.73	23701.14
849.91	24022.67
850.08	24176.27
850.26	23461.53
850.43	23901.84
850.61	23801.49
850.78	23545.50
850.96	23705.24
851.14	23574.17
851.31	23989.91
851.49	23332.51
851.66	23498.39
851.84	23510.68
852.01	23639.70
852.19	23527.06
852.36	23322.27
852.54	23588.50
852.71	23316.12
852.89	23627.42
853.07	23328.41
853.24	23246.49
853.42	23162.53
853.59	23318.17
853.77	23193.25
853.94	23555.74
854.12	23375.52
854.29	23109.28
854.47	23289.50
854.64	23127.71
854.82	23064.22
854.99	23119.52
855.17	22804.13
855.34	22744.74
855.52	23029.41
855.69	23029.41
855.87	23168.67
856.04	22793.89
856.22	22886.05
856.39	22949.54
856.57	22652.58
856.74	22668.97
856.92	22941.35
857.09	22668.97
857.27	22668.97
857.44	22787.75
857.62	22668.97
857.79	22628.01
857.97	22628.01
858.14	22736.55
858.32	22527.66
858.49	22802.08
858.67	22484.65
858.84	22367.91
859.02	22290.09
859.19	22253.23
859.37	22544.04
859.54	22199.98
859.72	22302.38
859.89	22453.93
860.06	22466.22
860.24	22326.96
860.41	22052.53
860.59	22079.15
860.76	22030.00
860.94	21903.03
861.11	22228.65
861.29	21923.51
861.46	21972.66
861.64	21722.80
861.81	21911.22
861.98	21733.04
862.16	21769.91
862.33	21735.09
862.51	21716.66
862.68	22034.10
862.86	21745.33
863.03	21612.21
863.21	21536.44
863.38	21485.24
863.55	21642.93
863.73	21851.83
863.90	21458.62
864.08	21608.12
864.25	21669.56
864.43	21700.28
864.60	21245.63
864.77	21431.99
864.95	21333.69
865.12	21339.83
865.30	21290.68
865.47	21163.71
865.64	21061.31
865.82	21384.89
865.99	21345.98
866.17	21024.45
866.34	21018.30
866.51	20840.13
866.69	21139.13
866.86	21126.85
867.04	20952.77
867.21	20747.97
867.38	20729.54
867.56	20639.43
867.73	20842.18
867.91	20829.89
868.08	20913.86
868.25	20920.00
868.43	20762.31
868.60	20559.56
868.78	20604.61
868.95	20723.40
869.12	20793.03
869.30	20604.61
869.47	20745.92
869.64	20264.65
869.82	20563.65
869.99	20344.52
870.16	20385.48
870.34	20272.84
870.51	20508.36
870.69	20072.14
870.86	20178.64
871.03	20350.67
871.21	20061.90
871.38	20176.59
871.55	19900.11
871.73	20033.23
871.90	19738.32
872.07	20207.31
872.25	19635.92
872.42	19570.39
872.59	19648.21
872.77	19703.51
872.94	19525.33
873.11	19750.61
873.29	19875.54
873.46	19492.57
873.63	19572.44
873.81	19504.85
873.98	19248.86
874.15	19642.07
874.33	19162.84
874.50	19025.63
874.67	19349.21
874.85	19070.68
875.02	19177.18
875.19	18910.94
875.37	19144.41
875.54	19244.76
875.71	19078.88
875.88	18730.72
876.06	19132.12
876.23	19056.35
876.40	19080.92
876.58	19011.29
876.75	18962.14
876.92	18734.82
877.10	18853.60
877.27	18747.11
877.44	18595.56
877.61	18470.63
877.79	18497.25
877.96	18523.88
878.13	18487.01
878.31	18269.93
878.48	18398.95
878.65	18568.93
878.82	18069.23
879.00	18550.50
879.17	18347.75
879.34	18140.91
879.51	17895.15
879.69	18071.28
879.86	18073.32
880.03	17960.69
880.21	17977.07
880.38	18140.91
880.55	17950.45
880.72	18122.48
880.90	18288.36
881.07	17870.58
881.24	17997.55
881.41	17923.82
881.59	17891.06
881.76	17958.64
881.93	17815.28
882.10	17567.48
882.28	17407.73
882.45	17848.05
882.62	17673.97
882.79	17858.29
882.96	17286.90
883.14	17716.98
883.31	17764.08
883.48	17559.28
883.65	17596.15
883.83	17551.09
884.00	17405.69
884.17	17667.83
884.34	17657.59
884.51	17364.73
884.69	17291.00
884.86	17254.14
885.03	17471.22
885.20	17284.86
885.38	17358.58
885.55	17022.72
885.72	16992.00
885.89	17350.39
886.06	17090.30
886.24	17043.20
886.41	17020.67
886.58	17434.36
886.75	17297.14
886.92	16959.23
887.10	17020.67
887.27	17078.01
887.44	17057.53
887.61	16965.37
887.78	16869.12
887.95	16844.54
888.13	16772.86
888.30	16781.06
888.47	16766.72
888.64	16770.82
888.81	16580.36
888.99	16678.66
889.16	16686.85
889.33	16516.87
889.50	16439.05
889.67	16414.47
889.84	16467.72
890.01	16600.83
890.19	16324.36
890.36	16439.05
890.53	16230.15
890.70	16142.09
890.87	16451.33
891.04	15990.54
891.22	15978.25
891.39	16283.40
891.56	16113.42
891.73	16084.75
891.90	16232.20
892.07	15869.71
892.24	16019.21
892.42	15800.08
892.59	16203.53
892.76	15761.17
892.93	15783.70
893.10	15953.68
893.27	15806.22
893.44	15740.69
893.61	15572.75
893.79	16004.88
893.96	15728.40
894.13	15617.81
894.30	15986.44
894.47	15597.33
894.64	15843.09
894.81	15859.47
894.98	15904.53
895.15	15593.23
895.33	15687.44
895.50	15572.75
895.67	15843.09
895.84	15730.45
896.01	15494.93
896.18	15599.38
896.35	15656.72
896.52	15638.29
896.69	15716.11
896.86	15660.82
897.04	15775.50
897.21	15470.36
897.38	15585.04
897.55	15685.39
897.72	15615.76
897.89	15501.08
898.06	15660.82
898.23	15490.84
898.40	15423.25
898.57	15496.98
898.74	15283.99
898.91	15382.29
899.08	15370.01
899.26	15523.60
899.43	15689.49
899.60	15462.16
899.77	15429.40
899.94	15177.50
900.11	15103.77
900.28	15408.92
900.45	15267.61
900.62	15083.29
900.79	15468.31
900.96	15537.94
901.13	15273.75
901.30	15077.15
901.47	15058.71
901.64	15462.16
901.81	15425.30
901.98	15032.09
902.15	15464.21
902.32	14888.73
902.49	15097.63
902.66	15386.39
902.83	15148.82
903.01	15286.04
903.18	15218.46
903.35	15116.06
903.52	15292.18
903.69	15177.50
903.86	15116.06
904.03	15234.84
904.20	15499.03
904.37	15505.17
904.54	15234.84
904.71	15251.22
904.88	15132.44
905.05	15292.18
905.22	15030.04
905.39	15195.93
905.56	15185.69
905.73	14935.84
905.90	15093.53
906.07	15290.13
906.24	15226.65
906.41	14925.60
906.58	15023.90
906.75	15132.44
906.92	15130.39
907.09	15136.54
907.26	15087.39
907.43	14808.86
907.60	14927.64
907.77	14884.64
907.93	15283.99
908.10	15009.56
908.27	15107.87
908.44	14884.64
908.61	15142.68
908.78	14958.36
908.95	15120.15
909.12	14866.21
909.29	14804.77
909.46	15083.29
909.63	15161.11
909.80	15093.53
909.97	14894.88
910.14	14692.13
910.31	15030.04
910.48	14780.19
910.65	15062.81
910.82	14774.05
910.99	14847.77
911.16	14810.91
911.33	14804.77
911.50	14751.52
911.66	14487.33
911.83	14587.68
912.00	14655.26
912.17	14356.26
912.34	14528.29
912.51	14597.92
912.68	14462.76
912.85	14655.26
913.02	14626.59
913.19	14628.64
913.36	14602.02
913.53	14610.21
913.70	14333.73
913.86	14665.50
914.03	14348.07
914.20	14313.25
914.37	14528.29
914.54	14292.77
914.71	14339.88
914.88	14159.66
915.05	14067.50
915.22	14028.59
915.39	14233.38
915.55	13791.02
915.72	14077.74
915.89	14221.10
916.06	13971.24
916.23	14102.31
916.40	13731.63
916.57	13784.88
916.74	13586.22
916.91	13840.17
917.07	13788.97
917.24	13788.97
917.41	13594.42
917.58	13725.49
917.75	13602.61
917.92	13330.23
918.09	13596.46
918.26	13537.07
918.42	13512.50
918.59	13584.18
918.76	13356.85
918.93	13233.97
919.10	13285.17
919.27	13305.65
919.44	13412.15
919.60	13436.72
919.77	13307.70
919.94	13229.88
920.11	13242.17
920.28	13113.14
920.45	12922.68
920.61	12857.15
920.78	13088.57
920.95	12994.36
921.12	12980.03
921.29	12887.87
921.46	12748.61
921.62	12549.95
921.79	12775.23
921.96	12599.10
922.13	12687.17
922.30	12484.42
922.47	12431.17
922.63	12355.40
922.80	12566.34
922.97	12349.25
923.14	12283.72
923.31	12484.42
923.47	12324.68
923.64	12543.81
923.81	12056.39
923.98	12302.15
924.15	12017.48
924.32	12066.63
924.48	12072.78
924.65	12064.58
924.82	11951.95
924.99	11902.79
925.15	11669.33
925.32	11835.21
925.49	11591.50
925.66	11685.71
925.83	11718.48
925.99	11601.74
926.16	11630.41
926.33	11491.15
926.50	11540.30
926.67	11476.82
926.83	11505.49
927.00	11554.64
927.17	11247.44
927.34	11114.33
927.50	11292.50
927.67	11196.25
927.84	11065.18
928.01	11229.01
928.17	10930.01
928.34	10903.39
928.51	10915.67
928.68	10911.58
928.84	10803.04
929.01	10809.18
929.18	10641.25
929.35	10784.60
929.51	10696.54
929.68	10671.97
929.85	10481.50
930.02	10671.97
930.18	10450.78
930.35	10481.50
930.52	10420.06
930.69	10522.46
930.85	10368.87
931.02	10188.64
931.19	10207.08
931.36	10375.01
931.52	10245.99
931.69	10194.79
931.86	10200.93
932.02	9914.22
932.19	9912.17
932.36	10155.88
932.53	9971.56
932.69	9840.49
932.86	9965.42
933.03	9877.35
933.19	9613.17
933.36	9670.51
933.53	9602.93
933.70	9631.60
933.86	9516.91
934.03	9445.23
934.20	9346.93
934.36	9469.81
934.53	9109.36
934.70	9252.72
934.86	9101.17
935.03	8953.72
935.20	8945.53
935.36	8955.77
935.53	8828.79
935.70	8953.72
935.86	8802.17
936.03	8759.16
936.20	8576.89
936.36	8628.09
936.53	8568.70
936.70	8505.21
936.86	8497.02
937.03	8580.99
937.20	8152.96
937.36	8171.40
937.53	7944.07
937.70	7974.79
937.86	7870.34
938.03	7761.80
938.20	7864.20
938.36	7536.52
938.53	7557.00
938.70	7270.29
938.86	7413.65
939.03	7188.37
939.20	7270.29
939.36	7233.43
939.53	7139.22
939.70	7251.86
939.86	6987.67
940.03	6893.46
940.19	6743.96
940.36	6813.59
940.53	6600.60
940.69	6451.10
940.86	6836.12
941.03	6467.49
941.19	6369.18
941.36	6375.33
941.52	6360.99
941.69	6199.20
941.86	6172.58
942.02	6180.77
942.19	5986.21
942.35	6045.60
942.52	5887.91
942.69	5951.40
942.85	5859.24
943.02	5935.01
943.18	5687.21
943.35	5742.50
943.52	5785.51
943.68	5599.15
943.85	5519.28
944.01	5603.24
944.18	5621.67
944.35	5554.09
944.51	5373.87
944.68	5558.19
944.84	5406.64
945.01	5398.45
945.17	5453.74
945.34	5236.66
945.51	5410.73
945.67	5412.78
945.84	5441.45
946.00	5423.02
946.17	5343.15
946.33	5169.07
946.50	5410.73
946.67	5347.25
946.83	5371.82
947.00	5310.38
947.16	5281.71
947.33	5287.86
947.49	5150.64
947.66	5326.77
947.82	5373.87
947.99	5216.18
948.16	5312.43
948.32	5128.11
948.49	5275.57
948.65	5324.72
948.82	5377.97
948.98	5261.23
949.15	5128.11
949.31	5298.10
949.48	5253.04
949.64	5369.77
949.81	5306.29
949.97	5124.02
950.14	5320.62
950.30	5197.74
950.47	5291.95
950.63	5193.65
950.80	5263.28
950.96	5386.16
951.13	5482.41
951.30	5193.65
951.46	5425.07
951.63	5351.34
951.79	5326.77
951.96	5500.84
952.12	5222.32
952.29	5404.59
952.45	5328.81
952.62	5361.58
952.78	5316.53
952.94	5314.48
953.11	5423.02
953.27	5296.05
953.44	5595.05
953.60	5269.42
953.77	5517.23
953.93	5369.77
954.10	5427.12
954.26	5457.84
954.43	5382.06
954.59	5603.24
954.76	5582.76
954.92	5400.49
955.09	5334.96
955.25	5377.97
955.42	5339.05
955.58	5558.19
955.75	5459.88
955.91	5345.20
956.07	5517.23
956.24	5431.21
956.40	5437.36
956.57	5511.08
956.73	5416.88
956.90	5552.04
957.06	5365.68
957.23	5537.71
957.39	5496.75
957.56	5494.70
957.72	5359.53
957.88	5617.58
958.05	5490.60
958.21	5640.11
958.38	5408.69
958.54	5459.88
958.71	5550.00
958.87	5367.73
959.03	5443.50
959.20	5490.60
959.36	5380.01
959.53	5371.82
959.69	5420.97
959.85	5504.94
960.02	5351.34
960.18	5404.59
960.35	5449.64
960.51	5492.65
960.68	5246.90
960.84	5466.03
961.00	5459.88
961.17	5431.21
961.33	5500.84
961.50	5582.76
961.66	5523.37
961.82	5300.14
961.99	5394.35
962.15	5455.79
962.31	5386.16
962.48	5441.45
962.64	5568.43
962.81	5504.94
962.97	5316.53
963.13	5443.50
963.30	5420.97
963.46	5287.86
963.62	5476.27
963.79	5332.91
963.95	5453.74
964.12	5406.64
964.28	5435.31
964.44	5384.11
964.61	5410.73
964.77	5554.09
964.93	5496.75
965.10	5289.90
965.26	5244.85
965.42	5240.75
965.59	5265.33
965.75	5265.33
965.92	5410.73
966.08	5222.32
966.24	5361.58
966.41	5347.25
966.57	5425.07
966.73	5287.86
966.90	5320.62
967.06	5275.57
967.22	5130.16
967.39	5257.14
967.55	5156.79
967.71	5306.29
967.88	5259.18
968.04	5255.09
968.20	5298.10
968.37	5222.32
968.53	5058.48
968.69	5195.70
968.85	5330.86
969.02	5246.90
969.18	5257.14
969.34	5054.39
969.51	5347.25
969.67	5150.64
969.83	5031.86
970.00	5373.87
970.16	5160.88
970.32	5162.93
970.48	5287.86
970.65	5068.72
970.81	5101.49
970.97	4935.60
971.14	5054.39
971.30	5234.61
971.46	5046.20
971.63	4999.09
971.79	5083.06
971.95	4999.09
972.11	5007.28
972.28	4974.52
972.44	4964.28
972.60	4894.65
972.76	4919.22
972.93	4968.37
973.09	4954.04
973.25	5070.77
973.42	4921.27
973.58	5074.87
973.74	5042.10
973.90	4931.51
974.07	4956.08
974.23	5021.62
974.39	5017.52
974.55	4716.47
974.72	4904.89
974.88	4851.64
975.04	4861.88
975.20	4704.18
975.37	4833.21
975.53	4800.44
975.69	4843.45
975.85	4788.15
976.01	4915.12
976.18	4874.17
976.34	4747.19
976.50	4827.06
976.66	4872.12
976.83	4775.86
976.99	4806.58
977.15	4816.82
977.31	4575.16
977.47	4835.25
977.64	4687.80
977.80	4685.75
977.96	4724.66
978.12	4769.72
978.29	4622.27
978.45	4583.35
978.61	4575.16
978.77	4636.60
978.93	4603.83
979.10	4560.83
979.26	4622.27
979.42	4499.39
979.58	4401.08
979.74	4556.73
979.91	4599.74
980.07	4489.15
980.23	4573.11
980.39	4556.73
980.55	4517.82
980.71	4403.13
980.88	4507.58
981.04	4546.49
981.20	4431.80
981.36	4413.37
981.52	4396.99
981.68	4413.37
981.85	4607.93
982.01	4442.04
982.17	4419.52
982.33	4497.34
982.49	4417.47
982.65	4353.98
982.82	4396.99
982.98	4380.61
983.14	4325.31
983.30	4446.14
983.46	4394.94
983.62	4362.17
983.79	4313.02
983.95	4349.89
984.11	4204.48
984.27	4253.63
984.43	4239.30
984.59	4341.69
984.75	4233.15
984.91	4259.78
985.08	4245.44
985.24	4114.37
985.40	4075.46
985.56	4194.24
985.72	4114.37
985.88	4181.95
986.04	4081.60
986.20	4071.36
986.37	4130.75
986.53	3997.64
986.69	4134.85
986.85	4091.84
987.01	4022.21
987.17	4188.10
987.33	4020.16
987.49	4188.10
987.65	4110.27
987.82	4132.80
987.98	3968.96
988.14	4036.55
988.30	4173.76
988.46	4018.11
988.62	4179.90
988.78	3973.06
988.94	4018.11
989.10	3895.24
989.26	3921.86
989.42	3747.78
989.59	3821.51
989.75	3813.32
989.91	3903.43
990.07	3760.07
990.23	3923.91
990.39	3790.79
990.55	3841.99
990.71	3784.65
990.87	3846.09
991.03	3911.62
991.19	3878.85
991.35	3751.88
991.51	3880.90
991.67	3837.89
991.83	3796.93
992.00	3864.52
992.16	3944.39
992.32	3749.83
992.48	3811.27
992.64	3688.39
992.80	3751.88
992.96	3774.41
993.12	3725.26
993.28	3801.03
993.44	3700.68
993.60	3674.06
993.76	3745.73
993.92	3573.71
994.08	3665.86
994.24	3725.26
994.40	3633.10
994.56	3649.48
994.72	3651.53
994.88	3596.23
995.04	3633.10
995.20	3694.54
995.36	3608.52
995.52	3510.22
995.68	3540.94
995.84	3524.55
996.00	3614.66
996.16	3528.65
996.32	3432.40
996.48	3467.21
996.64	3604.42
996.80	3534.79
996.96	3407.82
997.12	3551.18
997.28	3467.21
997.44	3422.16
997.60	3360.72
997.76	3504.07
997.92	3534.79
998.08	3383.24
998.24	3358.67
998.40	3366.86
998.56	3549.13
998.72	3434.44
998.88	3395.53
999.04	3446.73
999.20	3549.13
999.36	3315.66
999.52	3428.30
999.68	3354.57
999.84	3291.09
1000.00	3373.00
1000.16	3428.30
1000.32	3436.49
1000.48	3354.57
1000.64	3157.97
1000.80	3114.96
1000.95	3149.78
1001.11	3317.71
1001.27	3164.11
1001.43	3297.23
1001.59	3135.44
1001.75	3170.26
1001.91	3186.64
1002.07	3211.22
1002.23	3123.15
1002.39	3155.92
1002.55	3229.65
1002.71	3104.72
1002.87	3203.02
1003.03	3082.19
1003.19	3164.11
1003.34	3264.46
1003.50	3090.38
1003.66	3129.30
1003.82	3194.83
1003.98	3147.73
1004.14	3112.91
1004.30	3049.43
1004.46	3022.80
1004.62	3051.47
1004.78	2953.17
1004.94	3012.56
1005.09	3086.29
1005.25	3121.10
1005.41	2967.51
1005.57	3098.58
1005.73	2961.36
1005.89	2928.60
1006.05	3047.38
1006.21	2990.03
1006.37	2947.03
1006.52	2965.46
1006.68	2895.83
1006.84	3020.75
1007.00	3047.38
1007.16	3125.20
1007.32	3051.47
1007.48	2924.50
1007.64	2983.89
1007.79	2906.07
1007.95	2820.05
1008.11	2994.13
1008.27	2865.11
1008.43	2861.01
1008.59	2826.20
1008.75	2996.18
1008.91	2983.89
1009.06	2875.35
1009.22	2867.16
1009.38	2830.29
1009.54	2740.18
1009.70	2787.29
1009.86	2688.98
1010.01	2779.09
1010.17	2717.65
1010.33	2797.53
1010.49	2742.23
1010.65	2881.49
1010.81	2731.99
1010.96	2760.66
1011.12	2750.42
1011.28	2670.55
1011.44	2723.80
1011.60	2723.80
1011.76	2656.22
1011.91	2795.48
1012.07	2717.65
1012.23	2605.02
1012.39	2645.98
1012.55	2779.09
1012.71	2637.78
1012.86	2674.65
1013.02	2631.64
1013.18	2564.06
1013.34	2656.22
1013.50	2629.59
1013.65	2662.36
1013.81	2660.31
1013.97	2531.29
1014.13	2648.02
1014.29	2719.70
1014.44	2684.89
1014.60	2570.20
1014.76	2619.35
1014.92	2625.50
1015.07	2588.63
1015.23	2596.82
1015.39	2609.11
1015.55	2543.58
1015.71	2590.68
1015.86	2613.21
1016.02	2463.71
1016.18	2426.84
1016.34	2516.95
1016.49	2559.96
1016.65	2600.92
1016.81	2547.67
1016.97	2545.63
1017.12	2537.43
1017.28	2457.56
1017.44	2379.74
1017.60	2525.15
1017.75	2422.75
1017.91	2480.09
1018.07	2502.62
1018.23	2432.99
1018.38	2394.08
1018.54	2482.14
1018.70	2521.05
1018.86	2353.12
1019.01	2381.79
1019.17	2420.70
1019.33	2494.43
1019.49	2426.84
1019.64	2465.75
1019.80	2508.76
1019.96	2514.91
1020.12	2420.70
1020.27	2410.46
1020.43	2385.88
1020.59	2402.27
1020.74	2426.84
1020.90	2435.03
1021.06	2363.36
1021.22	2461.66
1021.37	2342.88
1021.53	2203.61
1021.69	2303.96
1021.84	2260.96
1022.00	2349.02
1022.16	2287.58
1022.31	2308.06
1022.47	2359.26
1022.63	2396.12
1022.79	2252.77
1022.94	2308.06
1023.10	2396.12
1023.26	2297.82
1023.41	2346.97
1023.57	2220.00
1023.73	2273.25
1023.88	2322.40
1024.04	2232.29
1024.20	2281.44
1024.35	2273.25
1024.51	2326.49
1024.67	2273.25
1024.82	2254.81
1024.98	2244.57
1025.14	2359.26
1025.29	2187.23
1025.45	2273.25
1025.61	2127.84
1025.76	2232.29
1025.92	2191.33
1026.08	2273.25
1026.23	2248.67
1026.39	2252.77
1026.55	2248.67
1026.70	2150.37
1026.86	2271.20
1027.02	2207.71
1027.17	2199.52
1027.33	2197.47
1027.48	2248.67
1027.64	2174.94
1027.80	2078.69
1027.95	2301.92
1028.11	2072.54
1028.27	2287.58
1028.42	2260.96
1028.58	2146.27
1028.73	2103.26
1028.89	2045.92
1029.05	2211.81
1029.20	2150.37
>>>>>End Processed Spectral Data<<<<<
