SpectraSuite Data File
++++++++++++++++++++++++++++++++++++
Date: Fri Jun 02 14:44:35 CEST 2017
User: INFO_000
Dark Spectrum Present: No
Reference Spectrum Present: No
Number of Sampled Component Spectra: 1
Spectrometers: USB4H00879
Integration Time (usec): 80000 (USB4H00879)
Spectra Averaged: 1 (USB4H00879)
Boxcar Smoothing: 0 (USB4H00879)
Correct for Electrical Dark: No (USB4H00879)
Strobe/Lamp Enabled: No (USB4H00879)
Correct for Detector Non-linearity: No (USB4H00879)
Correct for Stray Light: No (USB4H00879)
Number of Pixels in Processed Spectrum: 3648
>>>>>Begin Processed Spectral Data<<<<<
345.13	1249.26
345.34	1249.26
345.56	1249.26
345.78	1339.37
345.99	1239.02
346.21	1658.85
346.42	1675.24
346.64	1562.60
346.86	1804.26
347.07	1675.24
347.29	1724.39
347.50	1609.70
347.72	1705.96
347.94	1757.16
348.15	1638.38
348.37	1609.70
348.59	1705.96
348.80	1671.14
349.02	1814.50
349.23	1830.88
349.45	1806.31
349.67	1855.46
349.88	1826.79
350.10	2009.06
350.31	1822.69
350.53	1802.21
350.75	1937.38
350.96	1798.12
351.18	1834.98
351.39	1851.36
351.61	1863.65
351.82	1796.07
352.04	1890.28
352.26	1863.65
352.47	1898.47
352.69	1896.42
352.90	1818.60
353.12	1888.23
353.34	1751.01
353.55	2019.30
353.77	1871.84
353.98	1810.40
354.20	1804.26
354.41	1941.47
354.63	1910.75
354.85	2002.91
355.06	1888.23
355.28	1839.08
355.49	1849.32
355.71	1853.41
355.92	1935.33
356.14	1974.24
356.35	1914.85
356.57	1867.75
356.79	1867.75
357.00	1869.80
357.22	1961.95
357.43	1759.21
357.65	1974.24
357.86	1859.56
358.08	1908.71
358.29	1943.52
358.51	1978.34
358.72	1994.72
358.94	1867.75
359.16	1937.38
359.37	1978.34
359.59	1916.90
359.80	1974.24
360.02	1916.90
360.23	1986.53
360.45	2021.35
360.66	1906.66
360.88	1781.73
361.09	1859.56
361.31	2056.16
361.52	1884.13
361.74	2007.01
361.95	2156.51
362.17	1966.05
362.38	2035.68
362.60	1988.58
362.81	2047.97
363.03	1902.56
363.24	1984.48
363.46	2154.46
363.67	1959.91
363.89	1935.33
364.10	2076.64
364.32	1927.14
364.53	2007.01
364.75	1927.14
364.96	2011.11
365.18	2019.30
365.39	2033.63
365.61	1920.99
365.82	2129.89
366.04	1896.42
366.25	1898.47
366.47	2060.26
366.68	2160.61
366.90	1839.08
367.11	2074.59
367.33	2101.22
367.54	1972.19
367.76	1953.76
367.97	2099.17
368.19	2076.64
368.40	2093.02
368.62	1912.80
368.83	1970.15
369.05	2109.41
369.26	2013.15
369.48	2009.06
369.69	1894.37
369.91	2074.59
370.12	2025.44
370.33	2136.03
370.55	1964.00
370.76	2011.11
370.98	2037.73
371.19	2099.17
371.41	1998.82
371.62	2090.98
371.84	2033.63
372.05	2131.94
372.27	2009.06
372.48	2090.98
372.69	2109.41
372.91	2058.21
373.12	2152.42
373.34	2113.50
373.55	2076.64
373.77	2131.94
373.98	2103.26
374.20	2131.94
374.41	2203.61
374.62	2152.42
374.84	2078.69
375.05	2117.60
375.27	2105.31
375.48	2152.42
375.70	2129.89
375.91	2238.43
376.12	2195.42
376.34	2111.46
376.55	2205.66
376.77	2240.48
376.98	2136.03
377.19	2138.08
377.41	2125.79
377.62	2224.09
377.84	2215.90
378.05	2275.29
378.27	2181.09
378.48	2263.01
378.69	2346.97
378.91	2271.20
379.12	2242.53
379.34	2242.53
379.55	2355.16
379.76	2295.77
379.98	2170.85
380.19	2248.67
380.41	2340.83
380.62	2256.86
380.83	2285.53
381.05	2244.57
381.26	2385.88
381.47	2271.20
381.69	2265.05
381.90	2418.65
382.12	2265.05
382.33	2295.77
382.54	2203.61
382.76	2308.06
382.97	2365.40
383.19	2240.48
383.40	2408.41
383.61	2322.40
383.83	2244.57
384.04	2318.30
384.25	2283.49
384.47	2346.97
384.68	2371.55
384.89	2248.67
385.11	2371.55
385.32	2351.07
385.54	2312.16
385.75	2377.69
385.96	2430.94
386.18	2410.46
386.39	2490.33
386.60	2443.23
386.82	2439.13
387.03	2435.03
387.24	2531.29
387.46	2494.43
387.67	2564.06
387.88	2572.25
388.10	2396.12
388.31	2529.24
388.52	2566.10
388.74	2486.23
388.95	2562.01
389.16	2568.15
389.38	2557.91
389.59	2551.77
389.80	2619.35
390.02	2570.20
390.23	2586.58
390.44	2562.01
390.66	2605.02
390.87	2516.95
391.08	2611.16
391.30	2662.36
391.51	2662.36
391.72	2645.98
391.94	2654.17
392.15	2652.12
392.36	2553.82
392.58	2566.10
392.79	2666.46
393.00	2729.94
393.22	2678.74
393.43	2756.57
393.64	2779.09
393.85	2742.23
394.07	2627.54
394.28	2787.29
394.49	2820.05
394.71	2777.05
394.92	2899.92
395.13	2699.22
395.35	2775.00
395.56	2645.98
395.77	2754.52
395.98	2713.56
396.20	3016.66
396.41	2875.35
396.62	2813.91
396.84	2822.10
397.05	2787.29
397.26	2838.48
397.47	2936.79
397.69	2772.95
397.90	2949.08
398.11	2901.97
398.32	2844.63
398.54	2861.01
398.75	2959.31
398.96	2953.17
399.18	3069.91
399.39	2891.73
399.60	3059.67
399.81	2891.73
400.03	2901.97
400.24	3096.53
400.45	3000.27
400.66	3069.91
400.88	2885.59
401.09	3170.26
401.30	2973.65
401.51	3014.61
401.73	3074.00
401.94	3149.78
402.15	3174.35
402.36	3104.72
402.58	3147.73
402.79	3160.02
403.00	3133.39
403.21	3112.91
403.43	3262.41
403.64	3205.07
403.85	3112.91
404.06	3215.31
404.27	2994.13
404.49	3219.41
404.70	3164.11
404.91	3256.27
405.12	3289.04
405.34	3243.98
405.55	3360.72
405.76	3153.87
405.97	3198.93
406.19	3452.88
406.40	3162.06
406.61	3254.22
406.82	3313.61
407.03	3375.05
407.25	3194.83
407.46	3286.99
407.67	3391.44
407.88	3530.70
408.09	3379.15
408.31	3448.78
408.52	3485.64
408.73	3379.15
408.94	3346.38
409.15	3557.32
409.37	3434.44
409.58	3581.90
409.79	3553.23
410.00	3551.18
410.21	3385.29
410.43	3528.65
410.64	3424.20
410.85	3422.16
411.06	3514.31
411.27	3608.52
411.48	3604.42
411.70	3596.23
411.91	3600.33
412.12	3727.30
412.33	3639.24
412.54	3592.14
412.76	3762.12
412.97	3762.12
413.18	3653.58
413.39	3583.95
413.60	3753.93
413.81	3674.06
414.03	3647.43
414.24	3715.02
414.45	3833.80
414.66	3583.95
414.87	3841.99
415.08	3790.79
415.30	3712.97
415.51	3831.75
415.72	3778.50
415.93	3764.17
416.14	3719.11
416.35	3825.61
416.56	3837.89
416.78	3821.51
416.99	3876.80
417.20	3919.81
417.41	3936.20
417.62	3956.68
417.83	3954.63
418.04	3921.86
418.26	4018.11
418.47	3872.71
418.68	4100.03
418.89	4075.46
419.10	4114.37
419.31	4034.50
419.52	4173.76
419.73	4007.87
419.95	4114.37
420.16	4061.12
420.37	4063.17
420.58	4085.70
420.79	3897.28
421.00	3962.82
421.21	4140.99
421.42	4016.07
421.63	4093.89
421.85	3956.68
422.06	4206.53
422.27	4114.37
422.48	4159.42
422.69	4259.78
422.90	4255.68
423.11	4343.74
423.32	4128.70
423.53	4456.38
423.75	4376.51
423.96	4401.08
424.17	4341.69
424.38	4589.50
424.59	4362.17
424.80	4478.91
425.01	4462.52
425.22	4411.32
425.43	4319.17
425.64	4726.71
425.85	4538.30
426.06	4474.81
426.28	4480.96
426.49	4450.24
426.70	4642.75
426.91	4540.35
427.12	4538.30
427.33	4632.51
427.54	4655.03
427.75	4673.46
427.96	4908.98
428.17	4765.62
428.38	4810.68
428.59	4792.25
428.80	4777.91
429.01	4755.38
429.23	4818.87
429.44	5035.96
429.65	4831.16
429.86	4960.18
430.07	4886.45
430.28	4894.65
430.49	5074.87
430.70	5052.34
430.91	5103.54
431.12	5060.53
431.33	5023.67
431.54	5197.74
431.75	5115.83
431.96	5083.06
432.17	5046.20
432.38	5158.83
432.59	5414.83
432.80	5183.41
433.01	5316.53
433.22	5394.35
433.43	5355.44
433.64	5314.48
433.85	5316.53
434.06	5377.97
434.27	5414.83
434.49	5408.69
434.70	5443.50
434.91	5595.05
435.12	5457.84
435.33	5498.80
435.54	5406.64
435.75	5484.46
435.96	5537.71
436.17	5506.99
436.38	5689.26
436.59	5728.17
436.80	5631.91
437.01	5861.29
437.22	5752.74
437.43	5689.26
437.64	5433.26
437.85	5851.05
438.06	5812.14
438.27	5703.59
438.48	5771.18
438.69	6029.22
438.90	5828.52
439.11	5781.42
439.32	6041.51
439.53	5838.76
439.74	5996.45
439.95	5969.83
440.16	5844.90
440.37	5887.91
440.57	5881.77
440.78	6055.84
440.99	5926.82
441.20	6070.18
441.41	5967.78
441.62	6016.93
441.83	5939.11
442.04	6168.48
442.25	6039.46
442.46	5998.50
442.67	6317.98
442.88	6649.75
443.09	6168.48
443.30	6317.98
443.51	6299.55
443.72	6436.77
443.93	6180.77
444.14	6371.23
444.35	6252.45
444.56	6432.67
444.77	6459.29
444.98	6487.96
445.19	6563.74
445.40	6440.86
445.61	6422.43
445.81	6459.29
446.02	6602.65
446.23	6289.31
446.44	6397.85
446.65	6676.38
446.86	6610.84
447.07	6709.15
447.28	6670.23
447.49	6705.05
447.70	6690.71
447.91	6553.50
448.12	6672.28
448.33	6903.70
448.54	6838.17
448.74	6703.00
448.95	6893.46
449.16	6803.35
449.37	6930.33
449.58	6836.12
449.79	6987.67
450.00	6903.70
450.21	6938.52
450.42	6991.77
450.63	7051.16
450.84	6899.61
451.05	7014.29
451.25	6956.95
451.46	6963.09
451.67	7294.86
451.88	7282.58
452.09	7268.24
452.30	7243.67
452.51	7231.38
452.72	7284.62
452.93	7616.40
453.13	7047.06
453.34	7063.44
453.55	7311.25
453.76	7307.15
453.97	7610.25
454.18	7288.72
454.39	7557.00
454.60	7374.74
454.81	7368.59
455.01	7700.36
455.22	7518.09
455.43	7409.55
455.64	7745.42
455.85	7915.40
456.06	7899.02
456.27	7784.33
456.48	7743.37
456.68	7837.58
456.89	7917.45
457.10	7894.92
457.31	8060.80
457.52	7942.02
457.73	7976.84
457.94	8281.99
458.14	7935.88
458.35	8339.33
458.56	8130.44
458.77	8079.24
458.98	8341.38
459.19	8427.39
459.39	8404.86
459.60	8281.99
459.81	8251.27
460.02	8554.37
460.23	8417.15
460.44	8767.35
460.65	8685.44
460.85	8851.32
461.06	8728.44
461.27	8595.32
461.48	9092.98
461.69	9037.69
461.89	8830.84
462.10	8761.21
462.31	8816.51
462.52	8886.14
462.73	9068.41
462.94	9252.72
463.14	9203.57
463.35	9070.45
463.56	9539.44
463.77	9258.87
463.98	9115.51
464.18	9248.63
464.39	9428.85
464.60	9658.22
464.81	9660.27
465.02	9697.13
465.23	9783.15
465.43	9588.59
465.64	10069.86
465.85	9887.59
466.06	9875.31
466.27	10188.64
466.47	10295.14
466.68	10082.15
466.89	10180.45
467.10	10233.70
467.30	10090.34
467.51	10413.92
467.72	10547.04
467.93	10221.41
468.14	10407.78
468.34	10524.51
468.55	10612.57
468.76	10635.10
468.97	10649.44
469.17	10891.10
469.38	11024.22
469.59	11054.94
469.80	10819.42
470.01	10809.18
470.21	11093.85
470.42	11444.05
470.63	11423.57
470.84	11183.96
471.04	11319.12
471.25	11714.38
471.46	11392.85
471.67	11843.40
471.87	11784.01
472.08	11683.66
472.29	11935.56
472.50	11720.53
472.70	11710.29
472.91	11888.46
473.12	11992.90
473.33	12267.33
473.53	12304.20
473.74	12201.80
473.95	12611.39
474.16	12388.16
474.36	12330.82
474.57	12812.09
474.78	12945.21
474.99	12670.78
475.19	12760.89
475.40	13145.91
475.61	12894.01
475.81	13092.66
476.02	13354.80
476.23	13340.47
476.44	13524.79
476.64	13672.24
476.85	13737.77
477.06	13651.76
477.27	13905.71
477.47	13817.65
477.68	14122.79
477.89	14198.57
478.09	14096.17
478.30	14407.46
478.51	14243.62
478.71	14329.64
478.92	14624.54
479.13	14657.31
479.34	14647.07
479.54	14714.66
479.75	14767.90
479.96	14790.43
480.16	14966.56
480.37	14989.08
480.58	15193.88
480.78	15302.42
480.99	15353.62
481.20	15560.47
481.41	15451.92
481.61	15574.80
481.82	15669.01
482.03	15654.67
482.23	15732.50
482.44	16172.81
482.65	16039.69
482.85	16101.13
483.06	15959.82
483.27	16017.16
483.47	16224.01
483.68	16305.93
483.89	16664.32
484.09	16555.78
484.30	16672.51
484.51	16723.71
484.71	16922.37
484.92	16705.28
485.13	17053.44
485.33	16965.37
485.54	17002.24
485.75	17225.47
485.95	17342.20
486.16	17409.78
486.37	17503.99
486.57	17350.39
486.78	17639.15
486.98	17731.31
487.19	18005.74
487.40	17891.06
487.60	17874.67
487.81	18378.47
488.02	18071.28
488.22	17981.17
488.43	18374.38
488.64	18362.09
488.84	18593.51
489.05	18777.83
489.25	18663.14
489.46	18691.81
489.67	18732.77
489.87	19046.11
490.08	18802.40
490.29	19066.59
490.49	19289.82
490.70	19384.02
490.90	19435.22
491.11	19252.95
491.32	19769.04
491.52	19574.49
491.73	19484.37
491.94	19810.00
492.14	20016.85
492.35	19979.98
492.55	20016.85
492.76	20139.72
492.97	20178.64
493.17	20414.15
493.38	20496.07
493.58	20809.41
493.79	20641.48
494.00	20418.25
494.20	20567.75
494.41	20754.12
494.61	20979.39
494.82	20985.54
495.02	20944.58
495.23	21083.84
495.44	20971.20
495.64	21409.47
495.85	21548.73
496.05	21569.21
496.26	21487.29
496.47	21950.13
496.67	21894.83
496.88	21939.89
497.08	21798.58
497.29	22013.62
497.49	22075.06
497.70	22376.11
497.91	22765.22
498.11	22224.56
498.32	22562.47
498.52	22585.00
498.73	22816.42
498.93	22587.05
499.14	23072.42
499.34	23056.03
499.55	23201.44
499.76	22881.95
499.96	23045.79
500.17	23389.85
500.37	23338.65
500.58	23346.84
500.78	23441.05
500.99	23318.17
501.19	23705.24
501.40	23582.36
501.60	23699.09
501.81	23791.25
502.02	23842.45
502.22	23965.33
502.43	24336.01
502.63	24475.27
502.84	24618.63
503.04	24399.50
503.25	24575.62
503.45	24499.85
503.66	24733.32
503.86	24489.61
504.07	25185.92
504.27	24688.26
504.48	25249.41
504.68	24972.93
504.89	25149.06
505.09	25314.94
505.30	25056.90
505.50	25437.82
505.71	25646.71
505.91	25706.10
506.12	25683.58
506.32	25304.70
506.53	25702.01
506.73	25949.81
506.94	26064.50
507.14	25865.85
507.35	26130.03
507.55	26070.64
507.76	26089.07
507.96	26048.11
508.17	26406.51
508.37	26543.72
508.58	26621.55
508.78	26533.48
508.99	26697.32
509.19	26857.06
509.40	26674.79
509.60	26783.34
509.81	26685.03
510.01	26791.53
510.22	26801.77
510.42	26662.51
510.63	27326.05
510.83	26752.62
511.04	26918.50
511.24	27358.81
511.44	27164.26
511.65	27592.28
511.85	27348.57
512.06	27362.91
512.26	27639.39
512.47	27909.72
512.67	27367.01
512.88	27387.49
513.08	27309.66
513.29	27592.28
513.49	27721.30
513.69	27653.72
513.90	28005.97
514.10	27866.71
514.31	27838.04
514.51	27942.49
514.72	28038.74
514.92	28094.04
515.13	27969.11
515.33	28358.22
515.53	28069.46
515.74	28374.61
515.94	28567.12
516.15	28257.87
516.35	28159.57
516.56	28548.68
516.76	28128.85
516.96	28343.89
517.17	28722.76
517.37	28751.43
517.58	28673.61
517.78	28767.82
517.99	28618.32
518.19	28929.61
518.39	28958.28
518.60	28909.13
518.80	28935.75
519.01	29056.58
519.21	28880.46
519.41	29357.63
519.62	29423.17
519.82	29482.56
520.03	29201.99
520.23	29300.29
520.43	29163.08
520.64	29789.75
520.84	29783.61
521.05	29310.53
521.25	29394.50
521.45	29767.23
521.66	29640.25
521.86	29990.45
522.07	29826.62
522.27	29972.02
522.47	29806.14
522.68	30203.44
522.88	29908.54
523.08	30314.03
523.29	30117.43
523.49	30398.00
523.70	30567.98
523.90	30373.42
524.10	30291.51
524.31	30637.61
524.51	30434.86
524.71	30752.30
524.92	30660.14
525.12	30791.21
525.33	31018.53
525.53	30895.66
525.73	31122.98
525.94	31086.12
526.14	31016.49
526.34	31266.34
526.55	31131.17
526.75	31241.76
526.95	31882.78
527.16	31145.51
527.36	31436.32
527.56	31503.90
527.77	31692.32
527.97	31862.30
528.17	31495.71
528.38	32173.59
528.58	32093.72
528.78	32226.84
528.99	32169.49
529.19	32228.88
529.39	32198.16
529.60	32751.12
529.80	32175.64
530.00	32235.03
530.21	32927.24
530.41	32970.25
530.61	32880.14
530.82	32919.05
531.02	32558.61
531.22	33097.22
531.43	32933.39
531.63	33410.56
531.83	33412.61
532.04	33885.69
532.24	33416.71
532.44	33793.53
532.64	34022.90
532.85	33805.82
533.05	33908.22
533.25	33617.41
533.46	33938.94
533.66	34334.20
533.86	34098.68
534.07	34698.73
534.27	34633.20
534.47	34665.97
534.67	34604.53
534.88	34811.37
535.08	35057.13
535.28	35067.37
535.49	34854.38
535.69	35347.94
535.89	35042.79
536.09	35288.55
536.30	35718.62
536.50	35456.48
536.70	35689.95
536.91	35302.89
537.11	35640.80
537.31	35818.97
537.51	35825.12
537.72	36197.85
537.92	36236.76
538.12	36396.50
538.32	36341.21
538.53	36316.63
538.73	36515.28
538.93	36875.73
539.13	36650.45
539.34	36775.37
539.54	36697.55
539.74	37152.20
539.94	37072.33
540.15	37193.16
540.35	37938.62
540.55	37266.89
540.75	37371.33
540.96	37625.28
541.16	37357.00
541.36	37666.24
541.56	37909.95
541.77	38016.44
541.97	37975.48
542.17	38137.27
542.37	38409.65
542.58	38348.21
542.78	38485.43
542.98	38163.90
543.18	38485.43
543.38	38720.95
543.59	38634.93
543.79	38712.75
543.99	38882.73
544.19	39030.19
544.40	39116.20
544.60	39544.23
544.80	39163.31
545.00	39388.58
545.20	39779.74
545.41	39460.26
545.61	39744.93
545.81	39826.85
546.01	39902.62
546.21	39669.15
546.42	39431.59
546.62	40166.81
546.82	39808.42
547.02	40480.15
547.22	40318.36
547.43	40132.00
547.63	40437.14
547.83	40226.20
548.03	40244.63
548.23	40437.14
548.44	40447.38
548.64	40732.05
548.84	40750.48
549.04	40756.63
549.24	41162.12
549.45	41383.30
549.65	40744.34
549.85	41399.69
550.05	41371.02
550.25	41178.51
550.45	41579.91
550.66	41168.27
550.86	41571.72
551.06	41692.55
551.26	41162.12
551.46	41940.35
551.66	41551.24
551.87	41637.25
552.07	42120.57
552.27	42022.27
552.47	42165.63
552.67	42214.78
552.87	42001.79
553.07	42057.09
553.28	41766.27
553.48	42646.90
553.68	42163.58
553.88	42530.17
554.08	42837.36
554.28	42374.52
554.48	42435.96
554.69	43160.94
554.89	42515.83
555.09	42825.07
555.29	42564.98
555.49	42616.18
555.69	42874.23
555.89	43122.03
556.10	43552.10
556.30	42671.48
556.50	43126.13
556.70	42714.48
556.90	43169.13
557.10	43212.14
557.30	43005.30
557.50	43382.12
557.70	43457.90
557.91	43619.69
558.11	42974.58
558.31	43537.77
558.51	43244.91
558.71	43552.10
558.91	44049.76
559.11	43124.08
559.31	43957.60
559.51	43183.47
559.72	43371.88
559.92	44008.80
560.12	43586.92
560.32	44127.58
560.52	43525.48
560.72	43961.70
560.92	44119.39
561.12	43859.30
561.32	43971.94
561.52	43609.45
561.72	44275.04
561.93	43652.45
562.13	44064.10
562.33	43799.91
562.53	44733.78
562.73	43855.20
562.93	43687.27
563.13	44215.65
563.33	44057.95
563.53	44508.50
563.73	43674.98
563.93	44098.91
564.13	44528.98
564.33	44201.31
564.53	44152.16
564.74	44275.04
564.94	44406.11
565.14	44164.45
565.34	44186.97
565.54	44461.40
565.74	44162.40
565.94	44492.12
566.14	44635.48
566.34	44447.07
566.54	44627.29
566.74	44232.03
566.94	44461.40
567.14	44639.57
567.34	44359.00
567.54	44725.59
567.74	44588.38
567.94	44361.05
568.14	44545.37
568.34	44676.44
568.54	44440.92
568.74	44959.06
568.94	44909.91
569.14	44780.88
569.34	44817.75
569.54	44725.59
569.75	44141.92
569.95	44406.11
570.15	44848.47
570.35	44987.73
570.55	44528.98
570.75	44965.20
570.95	44686.68
571.15	45079.89
571.35	44776.79
571.55	45270.35
571.75	44897.62
571.95	45380.94
572.15	44619.10
572.35	45227.34
572.55	44938.58
572.75	45176.14
572.95	44973.39
573.15	45278.54
573.35	45251.92
573.55	44928.34
573.75	45208.91
573.95	45069.65
574.15	45114.70
574.35	45311.31
574.55	44983.63
574.75	45315.40
574.95	45389.13
575.15	45083.98
575.34	45385.04
575.54	45266.25
575.74	45370.70
575.94	45624.65
576.14	45643.08
576.34	45743.43
576.54	45739.33
576.74	45782.34
576.94	45438.28
577.14	45751.62
577.34	46183.74
577.54	45757.77
577.74	45999.43
577.94	46388.54
578.14	45839.68
578.34	45829.44
578.54	45583.69
578.74	45835.59
578.94	46275.90
579.14	46064.96
579.34	46103.87
579.54	46273.85
579.74	46716.22
579.94	46456.12
580.13	46900.53
580.33	46912.82
580.53	46779.70
580.73	46370.11
580.93	46859.57
581.13	46540.09
581.33	46667.06
581.53	47084.85
581.73	46980.40
581.93	47162.67
582.13	46853.43
582.33	46675.26
582.53	46812.47
582.73	47215.92
582.92	47297.84
583.12	47531.31
583.32	47424.81
583.52	46961.97
583.72	47709.48
583.92	46818.61
584.12	47105.33
584.32	47672.62
584.52	47705.38
584.72	47932.71
584.92	47820.07
585.11	48049.44
585.31	47791.40
585.51	47979.81
585.71	47895.85
585.91	47959.33
586.11	48260.38
586.31	47805.73
586.51	48010.53
586.71	48149.79
586.91	48305.44
587.10	48784.66
587.30	48117.03
587.50	48366.88
587.70	48661.79
587.90	48422.17
588.10	48450.84
588.30	48559.39
588.50	48586.01
588.69	48829.72
588.89	48837.91
589.09	49124.63
589.29	49255.70
589.49	49208.59
589.69	48995.60
589.89	49300.75
590.08	49272.08
590.28	49308.94
590.48	49196.31
590.68	49519.88
590.88	49177.87
591.08	49456.40
591.28	49364.24
591.47	49849.61
591.67	49681.67
591.87	49779.98
592.07	49816.84
592.27	49720.59
592.47	50173.19
592.67	49902.85
592.86	49882.37
593.06	50408.70
593.26	49968.39
593.46	50844.92
593.66	50242.82
593.86	50685.18
594.05	50484.48
594.25	50656.51
594.45	50437.37
594.65	50468.09
594.85	50119.94
595.05	51176.69
595.24	51313.90
595.44	50844.92
595.64	51135.73
595.84	50928.89
596.04	51393.78
596.23	51528.94
596.43	51537.13
596.63	51152.12
596.83	51320.05
597.03	51909.86
597.22	52098.28
597.42	51625.20
597.62	52104.42
597.82	52178.15
598.02	51895.53
598.21	52307.17
598.41	51807.47
598.61	52169.96
598.81	52249.83
599.01	52219.11
599.20	52219.11
599.40	52180.20
599.60	52997.34
599.80	52354.27
600.00	52495.58
600.19	52731.10
600.39	52286.69
600.59	52755.68
600.79	52831.45
600.98	52749.53
601.18	52960.47
601.38	53050.58
601.58	53134.55
601.78	53255.38
601.97	53228.76
602.17	53718.22
602.37	53519.57
602.57	53271.76
602.76	53591.25
602.96	53265.62
603.16	53734.60
603.36	53656.78
603.55	53847.24
603.75	54131.91
603.95	54265.03
604.15	54000.84
604.34	53744.84
604.54	54576.32
604.74	53937.35
604.94	54551.74
605.13	54400.19
605.33	54492.35
605.53	54199.49
605.73	54793.40
605.92	54262.98
606.12	54701.25
606.32	54486.21
606.52	54592.70
606.71	54764.73
606.91	54746.30
607.11	54674.62
607.30	55125.17
607.50	54811.84
607.70	54953.15
607.90	55012.54
608.09	54842.56
608.29	55116.98
608.49	55454.90
608.68	55049.40
608.88	55356.60
609.08	55248.05
609.28	55418.03
609.47	55397.55
609.67	55833.77
609.87	55321.78
610.06	55415.99
610.26	55602.35
610.46	55940.27
610.66	55323.83
610.85	55383.22
611.05	55348.40
611.25	55608.50
611.44	55448.75
611.64	55878.83
611.84	55383.22
612.03	55409.84
612.23	55532.72
612.43	55952.55
612.62	55491.76
612.82	55729.33
613.02	55745.71
613.21	55733.42
613.41	55534.77
613.61	55555.25
613.80	55702.70
614.00	56124.58
614.20	56040.62
614.39	55774.38
614.59	56005.80
614.79	55690.41
614.98	55534.77
615.18	55856.30
615.38	55772.33
615.57	55620.78
615.77	56100.01
615.97	56095.91
616.16	55647.41
616.36	55504.05
616.56	55829.68
616.75	56112.30
616.95	55860.40
617.15	55635.12
617.34	55710.89
617.54	55723.18
617.74	55968.94
617.93	55964.84
618.13	55420.08
618.32	55962.79
618.52	55452.85
618.72	55819.44
618.91	55899.31
619.11	55231.67
619.31	55735.47
619.50	55760.05
619.70	55092.41
619.90	55635.12
620.09	55549.10
620.29	55815.34
620.48	55456.95
620.68	56018.09
620.88	55264.44
621.07	55588.02
621.27	55725.23
621.46	55205.05
621.66	55362.74
621.86	55190.71
622.05	55305.40
622.25	55854.25
622.44	54953.15
622.64	54801.60
622.84	55372.98
623.03	55071.93
623.23	55372.98
623.42	55063.74
623.62	54867.13
623.82	55530.67
624.01	54994.10
624.21	55076.02
624.40	54967.48
624.60	55293.11
624.80	55053.50
624.99	54889.66
625.19	54334.66
625.38	55073.98
625.58	54756.54
625.77	54703.29
625.97	54484.16
626.17	54582.46
626.36	54811.84
626.56	54688.96
626.75	54136.01
626.95	54756.54
627.14	54887.61
627.34	55010.49
627.54	54719.68
627.73	54351.04
627.93	54844.60
628.12	54441.15
628.32	55041.21
628.51	54826.17
628.71	54574.27
628.90	54678.72
629.10	54791.36
629.30	54609.09
629.49	54488.26
629.69	54596.80
629.88	54568.13
630.08	54901.95
630.27	54619.33
630.47	54435.01
630.66	54267.08
630.86	54727.87
631.05	54318.28
631.25	54842.56
631.44	54453.44
631.64	54473.92
631.84	54531.26
632.03	54824.12
632.23	54631.61
632.42	54447.30
632.62	54566.08
632.81	54054.09
633.01	54025.42
633.20	55022.78
633.40	54236.36
633.59	54607.04
633.79	53990.60
633.98	54377.67
634.18	54250.69
634.37	54277.32
634.57	54678.72
634.76	54469.82
634.96	54428.87
635.15	54490.30
635.35	54086.85
635.54	54199.49
635.74	54697.15
635.93	53839.05
636.13	54613.18
636.32	54412.48
636.52	54172.87
636.71	54570.18
636.91	54322.37
637.10	54529.22
637.30	54537.41
637.49	54392.00
637.69	54441.15
637.88	54961.34
638.08	54277.32
638.27	54224.07
638.46	54785.21
638.66	54162.63
638.85	54488.26
639.05	54633.66
639.24	54695.10
639.44	54455.49
639.63	54422.72
639.83	54729.92
640.02	54305.99
640.22	54559.94
640.41	55014.58
640.61	54056.14
640.80	54592.70
640.99	54328.52
641.19	54772.92
641.38	54588.61
641.58	54797.50
641.77	54820.03
641.97	54187.21
642.16	54469.82
642.36	54609.09
642.55	55147.70
642.74	54443.20
642.94	54885.56
643.13	54844.60
643.33	55073.98
643.52	55104.70
643.72	54947.00
643.91	54944.95
644.10	54903.99
644.30	55170.23
644.49	54860.99
644.69	55209.14
644.88	54938.81
645.08	54869.18
645.27	55391.41
645.46	54527.17
645.66	55035.06
645.85	55137.46
646.05	55327.92
646.24	54926.52
646.43	55155.89
646.63	55069.88
646.82	54973.63
647.02	55471.28
647.21	55458.99
647.40	55246.00
647.60	55581.87
647.79	55930.03
647.99	55854.25
648.18	55436.47
648.37	55809.20
648.57	55778.48
648.76	55540.91
648.96	55784.62
649.15	55719.09
649.34	56018.09
649.54	55653.55
649.73	55592.11
649.92	55506.10
650.12	55694.51
650.31	55854.25
650.51	55538.86
650.70	55858.35
650.89	55559.34
651.09	56325.28
651.28	56190.12
651.47	56417.44
651.67	55850.16
651.86	56394.92
652.06	55403.70
652.25	55678.13
652.44	56016.04
652.64	55846.06
652.83	55751.85
653.02	55520.43
653.22	56157.35
653.41	56091.82
653.60	55989.42
653.80	55841.96
653.99	56378.53
654.18	56202.41
654.38	56313.00
654.57	56214.69
654.76	56018.09
654.96	55956.65
655.15	56177.83
655.34	56245.41
655.54	56409.25
655.73	56657.06
655.92	56695.97
656.12	56728.73
656.31	56724.64
656.50	56843.42
656.70	56525.99
656.89	56564.90
657.08	56628.38
657.28	56267.94
657.47	56591.52
657.66	56732.83
657.86	56310.95
658.05	56890.52
658.24	57193.62
658.43	56620.19
658.63	57210.01
658.82	57013.40
659.01	56894.62
659.21	57115.80
659.40	57193.62
659.59	56659.10
659.79	57339.03
659.98	57504.91
660.17	57263.25
660.36	57222.29
660.56	57226.39
660.75	57629.84
660.94	57267.35
661.14	57326.74
661.33	57353.36
661.52	56956.06
661.71	57676.94
661.91	57138.33
662.10	57083.03
662.29	57793.68
662.49	57429.14
662.68	57635.98
662.87	57549.97
663.06	57470.10
663.26	57556.11
663.45	57928.84
663.64	57287.83
663.83	58201.22
664.03	58082.44
664.22	57291.93
664.41	58086.54
664.60	57257.11
664.80	57699.47
664.99	57339.03
665.18	57902.22
665.37	57762.96
665.57	57605.26
665.76	57291.93
665.95	57791.63
666.14	57803.92
666.34	57859.21
666.53	57586.83
666.72	58291.33
666.91	57765.01
667.11	57242.77
667.30	58274.95
667.49	58059.91
667.68	57891.98
667.87	57910.41
668.07	58299.53
668.26	58096.78
668.45	57883.79
668.64	57867.40
668.84	58332.29
669.03	58074.25
669.22	57930.89
669.41	58365.06
669.60	58365.06
669.80	58012.81
669.99	58537.09
670.18	57949.32
670.37	58250.38
670.57	58381.45
670.76	58107.02
670.95	58651.78
671.14	57996.43
671.33	57848.97
671.53	58307.72
671.72	57697.42
671.91	58113.16
672.10	57902.22
672.29	58072.20
672.48	58088.59
672.68	58477.70
672.87	58199.18
673.06	58201.22
673.25	57998.48
673.44	58008.71
673.64	58078.35
673.83	58082.44
674.02	58254.47
674.21	57951.37
674.40	58127.50
674.59	57834.64
674.79	57726.10
674.98	57861.26
675.17	58088.59
675.36	58113.16
675.55	58127.50
675.74	57851.02
675.94	58004.62
676.13	57992.33
676.32	57717.90
676.51	58059.91
676.70	57916.56
676.89	58082.44
677.08	58045.58
677.28	57824.40
677.47	58356.87
677.66	57971.85
677.85	57891.98
678.04	58162.31
678.23	58182.79
678.42	57969.80
678.62	58154.12
678.81	58074.25
679.00	57955.47
679.19	58252.42
679.38	57826.45
679.57	57990.28
679.76	57738.38
679.96	58258.57
680.15	57859.21
680.34	57984.14
680.53	57592.98
680.72	57969.80
680.91	58057.87
681.10	57517.20
681.29	57990.28
681.48	57953.42
681.68	57635.98
681.87	57795.73
682.06	57703.57
682.25	57267.35
682.44	57230.49
682.63	57185.43
682.82	57357.46
683.01	57236.63
683.20	56908.96
683.39	57357.46
683.59	56818.84
683.78	57613.46
683.97	57152.66
684.16	57187.48
684.35	56745.12
684.54	56900.76
684.73	56693.92
684.92	56988.83
685.11	57210.01
685.30	56360.10
685.49	57070.75
685.69	57121.94
685.88	56581.28
686.07	56927.39
686.26	56618.14
686.45	56808.61
686.64	56386.72
686.83	56886.43
687.02	56732.83
687.21	56321.19
687.40	56874.14
687.59	56333.48
687.78	56591.52
687.97	56997.02
688.16	56353.96
688.35	56327.33
688.54	56491.17
688.74	56382.63
688.93	56419.49
689.12	56808.61
689.31	56114.34
689.50	56390.82
689.69	56069.29
689.88	55889.07
690.07	56134.82
690.26	56349.86
690.45	56755.36
690.64	55841.96
690.83	55657.65
691.02	55706.80
691.21	55522.48
691.40	55891.12
691.59	56007.85
691.78	55391.41
691.97	55813.29
692.16	55684.27
692.35	56104.10
692.54	55663.79
692.73	55608.50
692.92	55510.19
693.11	55100.60
693.30	55334.07
693.49	55616.69
693.68	55567.54
693.87	55792.81
694.06	55205.05
694.25	54975.67
694.44	55260.34
694.63	55229.62
694.82	55078.07
695.01	55162.04
695.20	55012.54
695.39	55028.92
695.58	54867.13
695.77	54457.54
695.96	54600.89
696.15	54867.13
696.34	54793.40
696.53	54518.98
696.72	54801.60
696.91	54469.82
697.10	54535.36
697.29	54248.64
697.48	54951.10
697.67	54408.39
697.86	54314.18
698.05	54072.52
698.24	54549.70
698.43	54125.77
698.62	54469.82
698.81	54033.61
699.00	54518.98
699.19	54056.14
699.38	53978.31
699.57	53578.96
699.76	54154.44
699.95	53292.24
700.14	54217.92
700.32	53720.27
700.51	53562.57
700.70	53822.67
700.89	54002.89
701.08	53740.75
701.27	53408.98
701.46	53910.73
701.65	53327.06
701.84	53089.49
702.03	53267.67
702.22	52952.28
702.41	53662.93
702.60	53298.39
702.79	53339.35
702.98	52995.29
703.17	53148.88
703.35	52827.35
703.54	53122.26
703.73	53413.07
703.92	52716.76
704.11	52937.94
704.30	52763.87
704.49	52804.83
704.68	53034.20
704.87	52614.37
705.06	52604.13
705.25	52808.92
705.43	52415.71
705.62	52540.64
705.81	52610.27
706.00	52567.26
706.19	52167.91
706.38	52847.83
706.57	52618.46
706.76	52253.92
706.95	52196.58
707.14	52028.65
707.32	52088.04
707.51	52221.16
707.70	52311.27
707.89	52178.15
708.08	52036.84
708.27	52712.67
708.46	52159.72
708.65	51504.37
708.84	52167.91
709.02	52475.10
709.21	52159.72
709.40	51807.47
709.59	51873.00
709.78	51502.32
709.97	52307.17
710.16	51520.75
710.34	51494.13
710.53	51856.62
710.72	51963.11
710.91	51750.12
711.10	51569.90
711.29	51557.61
711.48	51684.59
711.66	51698.92
711.85	51283.19
712.04	51516.65
712.23	51477.74
712.42	51195.12
712.61	51377.39
712.80	51172.60
712.98	50900.22
713.17	51016.95
713.36	51186.93
713.55	51475.69
713.74	50877.69
713.93	50988.28
714.11	51102.96
714.30	50838.78
714.49	51008.76
714.68	50986.23
714.87	50904.31
715.06	50984.18
715.24	50834.68
715.43	50988.28
715.62	50529.53
715.81	50441.47
716.00	50889.98
716.18	50443.52
716.37	50482.43
716.56	50400.51
716.75	50990.33
716.94	50455.81
717.12	50074.88
717.31	50918.65
717.50	50255.11
717.69	50345.22
717.88	50023.68
718.06	50308.35
718.25	50244.87
718.44	50300.16
718.63	49954.05
718.82	50191.62
719.00	50060.55
719.19	50171.14
719.38	50095.36
719.57	50035.97
719.76	49634.57
719.94	49661.19
720.13	49698.06
720.32	49650.95
720.51	49515.79
720.69	49458.45
720.88	49536.27
721.07	49493.26
721.26	49573.13
721.44	49575.18
721.63	49706.25
721.82	49247.50
722.01	48952.60
722.20	49110.29
722.38	48753.94
722.57	48647.45
722.76	49202.45
722.95	49267.98
723.13	48936.21
723.32	48647.45
723.51	48672.03
723.70	48293.15
723.88	48887.06
724.07	48567.58
724.26	48758.04
724.44	48104.74
724.63	48848.15
724.82	48827.67
725.01	48432.41
725.19	48624.92
725.38	48346.40
725.57	48344.35
725.76	48135.46
725.94	48506.14
726.13	48436.51
726.32	48092.45
726.51	48534.81
726.69	48594.20
726.88	48588.06
727.07	48604.44
727.25	48266.53
727.44	48571.67
727.63	48461.08
727.82	48340.25
728.00	48407.84
728.19	48047.39
728.38	48454.94
728.56	48100.64
728.75	48495.90
728.94	48028.96
729.12	48547.10
729.31	48282.91
729.50	48268.58
729.69	48325.92
729.87	48153.89
730.06	48620.83
730.25	48207.14
730.43	48594.20
730.62	48284.96
730.81	48581.91
730.99	48391.45
731.18	48706.84
731.37	48583.96
731.55	48313.63
731.74	48629.02
731.93	49110.29
732.11	48491.80
732.30	48295.20
732.49	48524.57
732.67	48631.07
732.86	48506.14
733.05	48291.10
733.23	48291.10
733.42	48348.45
733.61	48370.97
733.79	48209.18
733.98	48342.30
734.17	47928.61
734.35	48375.07
734.54	48514.33
734.73	48452.89
734.91	48358.69
735.10	48250.14
735.29	48370.97
735.47	47781.16
735.66	48461.08
735.84	48239.90
736.03	48203.04
736.22	48555.29
736.40	47949.09
736.59	48610.59
736.78	47940.90
736.96	48497.95
737.15	48516.38
737.33	48420.13
737.52	48278.82
737.71	47703.34
737.89	48037.16
738.08	47625.51
738.27	47748.39
738.45	48305.44
738.64	48348.45
738.82	48215.33
739.01	48123.17
739.20	47985.96
739.38	48266.53
739.57	48504.09
739.75	48325.92
739.94	47725.86
740.13	47783.21
740.31	47693.10
740.50	47830.31
740.68	47922.47
740.87	48153.89
741.06	48282.91
741.24	47916.32
741.43	47234.35
741.61	48256.29
741.80	48045.35
741.99	47803.69
742.17	47869.22
742.36	47947.04
742.54	48024.87
742.73	47334.70
742.91	48233.76
743.10	48065.83
743.29	48299.30
743.47	47961.38
743.66	47547.69
743.84	48192.80
744.03	47623.47
744.21	47633.71
744.40	48190.75
744.59	47701.29
744.77	47744.30
744.96	47621.42
745.14	47658.28
745.33	47723.82
745.51	47584.55
745.70	47703.34
745.88	47613.23
746.07	47363.37
746.26	47195.44
746.44	46949.68
746.63	47174.96
746.81	47355.18
747.00	47150.38
747.18	47275.31
747.37	47502.64
747.55	47576.36
747.74	47791.40
747.92	47111.47
748.11	47449.39
748.29	47064.37
748.48	47719.72
748.66	47572.27
748.85	47041.84
749.03	47162.67
749.22	47320.37
749.41	46968.12
749.59	47172.91
749.78	46949.68
749.96	47002.93
750.15	46927.16
750.33	47144.24
750.52	47252.78
750.70	47086.90
750.89	46896.44
751.07	46937.40
751.26	47070.51
751.44	46585.15
751.63	46861.62
751.81	46726.46
752.00	46595.38
752.18	47025.46
752.37	47043.89
752.55	46523.71
752.74	46538.04
752.92	46730.55
753.10	46409.02
753.29	46316.86
753.47	46587.19
753.66	45860.16
753.84	46486.84
754.03	46265.66
754.21	45890.88
754.40	46228.80
754.58	46546.23
754.77	46404.92
754.95	45995.33
755.14	46103.87
755.32	46265.66
755.51	45966.66
755.69	45849.92
755.88	45991.23
756.06	46052.67
756.24	46064.96
756.43	45729.09
756.61	45962.56
756.80	46001.47
756.98	45817.16
757.17	45851.97
757.35	45989.19
757.54	45602.12
757.72	45602.12
757.90	45913.41
758.09	45413.71
758.27	45835.59
758.46	45161.81
758.64	45190.48
758.83	45423.95
759.01	45600.07
759.19	45425.99
759.38	45389.13
759.56	45643.08
759.75	45608.26
759.93	45307.21
760.12	45010.26
760.30	45378.89
760.48	45077.84
760.67	44821.84
760.85	45213.01
761.04	45423.95
761.22	45081.94
761.40	45503.82
761.59	44729.69
761.77	44782.93
761.96	44658.01
762.14	44977.49
762.32	44488.03
762.51	44969.30
762.69	44660.05
762.88	44379.48
763.06	44836.18
763.24	44668.25
763.43	44918.10
763.61	44277.08
763.80	44365.15
763.98	44262.75
764.16	44348.76
764.35	43840.87
764.53	43650.41
764.72	44299.61
764.90	43840.87
765.08	43926.88
765.27	43943.27
765.45	43857.25
765.63	43715.94
765.82	43529.58
766.00	43414.89
766.18	43412.84
766.37	43382.12
766.55	43347.31
766.74	43386.22
766.92	43617.64
767.10	43392.36
767.29	43584.87
767.47	43097.45
767.65	43586.92
767.84	43179.37
768.02	43554.15
768.20	42655.09
768.39	43107.69
768.57	43031.92
768.75	42724.72
768.94	43304.30
769.12	43097.45
769.30	42689.91
769.49	42657.14
769.67	42870.13
769.85	42167.68
770.04	42390.91
770.22	42583.41
770.40	42231.16
770.59	42245.50
770.77	42091.90
770.95	42149.24
771.14	42034.56
771.32	41903.49
771.50	41973.12
771.69	41878.91
771.87	41905.54
772.05	41907.58
772.24	41651.59
772.42	42063.23
772.60	41811.33
772.78	41917.82
772.97	41571.72
773.15	41981.31
773.33	41807.23
773.52	41610.63
773.70	41500.04
773.88	41659.78
774.07	41149.84
774.25	41887.10
774.43	41973.12
774.61	41780.61
774.80	41952.64
774.98	41653.64
775.16	41514.37
775.34	41850.24
775.53	41215.37
775.71	41196.94
775.89	41469.32
776.08	41475.46
776.26	41514.37
776.44	41452.94
776.62	41469.32
776.81	40836.50
776.99	41624.96
777.17	41604.49
777.35	41624.96
777.54	41584.01
777.72	41497.99
777.90	41473.42
778.08	41581.96
778.27	41524.61
778.45	41702.79
778.63	41923.97
778.81	41211.28
779.00	41971.07
779.18	41239.95
779.36	42583.41
779.54	41575.81
779.73	41680.26
779.91	41876.86
780.09	41698.69
780.27	42016.13
780.46	41964.93
780.64	41821.57
780.82	41850.24
781.00	41391.50
781.19	42134.91
781.37	42214.78
781.55	41833.86
781.73	42218.88
781.91	42182.01
782.10	41895.30
782.28	42282.36
782.46	41928.06
782.64	42296.70
782.82	42284.41
783.01	41934.21
783.19	42009.98
783.37	41999.74
783.55	41778.56
783.74	42253.69
783.92	41751.94
784.10	42265.98
784.28	41956.74
784.46	41622.92
784.64	41792.90
784.83	41676.16
785.01	42108.29
785.19	41731.46
785.37	41600.39
785.55	41713.03
785.74	41426.31
785.92	41735.56
786.10	41422.22
786.28	41706.88
786.46	41301.39
786.64	41504.13
786.83	41373.06
787.01	41815.43
787.19	41393.54
787.37	41381.26
787.55	41262.47
787.74	41256.33
787.92	41270.67
788.10	40965.52
788.28	40967.57
788.46	40779.15
788.64	40684.95
788.82	41022.86
789.01	41203.08
789.19	40967.57
789.37	40678.80
789.55	40433.05
789.73	40322.46
789.91	40273.31
790.09	40224.15
790.28	40359.32
790.46	39855.52
790.64	40398.23
790.82	40431.00
791.00	40119.71
791.18	40121.76
791.36	40076.70
791.55	40129.95
791.73	39867.81
791.91	39703.97
792.09	39730.59
792.27	39470.50
792.45	39572.90
792.63	39583.14
792.81	39519.65
793.00	39916.96
793.18	39120.30
793.36	39187.88
793.54	39044.52
793.72	38653.36
793.90	38589.88
794.08	38905.26
794.26	38968.75
794.44	38428.09
794.62	38317.50
794.81	38526.39
794.99	38282.68
795.17	38303.16
795.35	38200.76
795.53	38084.03
795.71	38604.21
795.89	38012.35
796.07	38114.75
796.25	37617.09
796.43	37760.45
796.61	37592.51
796.80	37144.01
796.98	37148.11
797.16	37105.10
797.34	37109.19
797.52	37027.28
797.70	37653.95
797.88	36959.69
798.06	36650.45
798.24	36924.88
798.42	36234.71
798.60	36822.48
798.78	36324.82
798.96	36672.98
799.14	36447.70
799.32	36349.40
799.51	36111.83
799.69	36468.18
799.87	36607.44
800.05	35741.15
800.23	35845.60
800.41	35855.84
800.59	35771.87
800.77	35810.78
800.95	35542.50
801.13	35884.51
801.31	35304.93
801.49	35583.46
801.67	34946.54
801.85	35122.66
802.03	35096.04
802.21	34987.50
802.39	34962.92
802.57	34776.56
802.75	34758.13
802.93	34885.10
803.11	34557.42
803.29	34434.55
803.47	34248.18
803.65	34461.17
803.83	34592.24
804.01	34444.79
804.19	34039.29
804.37	34158.07
804.55	34045.43
804.73	33959.42
804.91	34065.91
805.09	33771.00
805.27	34047.48
805.45	33455.62
805.63	33852.92
805.81	33529.34
805.99	33420.80
806.17	33760.76
806.35	33289.73
806.53	33277.44
806.71	33302.02
806.89	33084.94
807.07	33005.06
807.25	33304.07
807.43	32937.48
807.61	33242.63
807.79	33230.34
807.97	32929.29
808.15	33084.94
808.33	32529.94
808.51	32646.67
808.69	32566.80
808.87	32157.21
809.05	31995.42
809.23	32517.65
809.41	31860.25
809.59	32380.43
809.77	32382.48
809.95	32069.14
810.13	32261.65
810.31	31917.59
810.49	31749.66
810.67	31976.98
810.84	31807.00
811.02	31809.05
811.20	31438.37
811.38	31899.16
811.56	31532.57
811.74	31424.03
811.92	31374.88
812.10	31378.98
812.28	31546.91
812.46	31155.75
812.64	31155.75
812.82	31172.13
813.00	31016.49
813.18	31348.26
813.36	31061.54
813.53	30971.43
813.71	31143.46
813.89	30871.08
814.07	30907.94
814.25	30789.16
814.43	30561.84
814.61	30500.40
814.79	30262.83
814.97	30549.55
815.15	30490.16
815.33	30420.53
815.50	30266.93
815.68	30471.73
815.86	30465.58
816.04	30096.95
816.22	30371.38
816.40	30295.60
816.58	30111.28
816.76	29924.92
816.94	29967.93
817.11	29914.68
817.29	29834.81
817.47	29883.96
817.65	29656.64
817.83	29787.71
818.01	29568.57
818.19	29593.15
818.37	29648.44
818.54	29089.35
818.72	29161.03
818.90	29492.80
819.08	29687.36
819.26	29498.94
819.44	29591.10
819.62	29470.27
819.80	29404.74
819.97	29195.84
820.15	29032.00
820.33	29083.20
820.51	29261.38
820.69	28900.94
820.87	29242.95
821.05	29230.66
821.22	28917.32
821.40	29138.50
821.58	28532.30
821.76	28620.36
821.94	28626.51
822.12	28751.43
822.29	28763.72
822.47	28210.77
822.65	28544.59
822.83	28386.89
823.01	28540.49
823.19	28497.49
823.36	28556.88
823.54	28421.71
823.72	28319.31
823.90	28194.39
824.08	27958.87
824.25	28106.32
824.43	28001.88
824.61	28094.04
824.79	28147.28
824.97	27786.84
825.15	28130.90
825.32	28034.64
825.50	28096.08
825.68	27913.81
825.86	27866.71
826.04	27831.90
826.21	27850.33
826.39	27973.21
826.57	27690.59
826.75	27797.08
826.93	27315.81
827.10	27356.77
827.28	27580.00
827.46	27629.15
827.64	27528.80
827.81	27569.76
827.99	27324.00
828.17	27420.25
828.35	27393.63
828.53	27336.29
828.70	27174.50
828.88	27688.54
829.06	27539.04
829.24	27502.17
829.41	27141.73
829.59	27655.77
829.77	27197.02
829.95	27227.74
830.12	27033.19
830.30	27168.35
830.48	26981.99
830.66	27068.00
830.84	27264.61
831.01	26928.74
831.19	26861.16
831.37	26830.44
831.55	26642.03
831.72	27006.56
831.90	26861.16
832.08	26838.63
832.25	26793.58
832.43	26809.96
832.61	26984.04
832.79	26568.30
832.96	26486.38
833.14	26736.23
833.32	26703.46
833.50	26797.67
833.67	26744.42
833.85	26369.65
834.03	26355.31
834.20	26586.73
834.38	26932.84
834.56	26715.75
834.74	26373.74
834.91	26406.51
835.09	26334.83
835.27	25945.72
835.44	26273.39
835.62	25738.87
835.80	26076.79
835.98	26154.61
836.15	26232.43
836.33	25863.80
836.51	26054.26
836.68	26408.56
836.86	26244.72
837.04	26056.31
837.21	25771.64
837.39	25833.08
837.57	26338.93
837.75	25910.90
837.92	25622.14
838.10	25802.36
838.28	25329.28
838.45	25632.38
838.63	25534.07
838.81	25777.78
838.98	25290.37
839.16	25648.76
839.34	25507.45
839.51	25493.12
839.69	25636.47
839.87	25523.83
840.04	25476.73
840.22	25888.37
840.40	25349.76
840.57	25175.68
840.75	25157.25
840.93	25101.95
841.10	25198.21
841.28	25509.50
841.46	25200.26
841.63	25247.36
841.81	25437.82
841.98	25536.12
842.16	25364.09
842.34	25052.80
842.51	25081.47
842.69	25343.61
842.87	25216.64
843.04	25198.21
843.22	24921.73
843.40	25056.90
843.57	24671.88
843.75	25278.08
843.92	24905.35
844.10	24794.76
844.28	24895.11
844.45	25097.86
844.63	24848.00
844.81	24821.38
844.98	25007.75
845.16	24569.48
845.33	24710.79
845.51	24729.22
845.69	24587.91
845.86	24448.65
846.04	24557.19
846.21	24534.67
846.39	24610.44
846.57	24469.13
846.74	24409.74
846.92	24282.77
847.09	24665.74
847.27	24198.80
847.45	24278.67
847.62	24473.23
847.80	24102.54
847.97	24084.11
848.15	24352.40
848.32	23994.00
848.50	24284.81
848.68	24206.99
848.85	24053.39
849.03	23832.21
849.20	24196.75
849.38	23803.54
849.56	24102.54
849.73	24125.07
849.91	23824.02
850.08	24176.27
850.26	23686.81
850.43	23551.64
850.61	23856.79
850.78	23551.64
850.96	23768.73
851.14	23457.43
851.31	23795.35
851.49	23606.94
851.66	23817.88
851.84	23527.06
852.01	23926.42
852.19	23328.41
852.36	23494.30
852.54	23379.61
852.71	23396.00
852.89	23918.23
853.07	23269.02
853.24	23404.19
853.42	23484.06
853.59	23207.58
853.77	23357.08
853.94	23527.06
854.12	23518.87
854.29	22986.40
854.47	23389.85
854.64	23316.12
854.82	22924.96
854.99	23060.13
855.17	23086.75
855.34	23309.98
855.52	23053.98
855.69	23125.66
855.87	22861.48
856.04	22931.11
856.22	22998.69
856.39	22554.28
856.57	22967.97
856.74	22967.97
856.92	23156.38
857.09	22879.91
857.27	23021.22
857.44	23219.87
857.62	22945.44
857.79	22834.85
857.97	22814.37
858.14	22849.19
858.32	22806.18
858.49	22523.56
858.67	22535.85
858.84	22554.28
859.02	22603.43
859.19	22271.66
859.37	22439.59
859.54	22329.00
859.72	22374.06
859.89	22501.03
860.06	22376.11
860.24	22353.58
860.41	22535.85
860.59	21755.57
860.76	22177.45
860.94	21966.51
861.11	22347.44
861.29	21966.51
861.46	22169.26
861.64	22132.40
861.81	21608.12
861.98	21741.24
862.16	22038.19
862.33	21608.12
862.51	21843.63
862.68	21900.98
862.86	21702.32
863.03	21640.89
863.21	21864.11
863.38	21624.50
863.55	21706.42
863.73	21845.68
863.90	21735.09
864.08	21876.40
864.25	21358.27
864.43	21847.73
864.60	21620.41
864.77	21540.54
864.95	21354.17
865.12	21114.56
865.30	21585.59
865.47	21214.91
865.64	21335.74
865.82	21255.87
865.99	21395.13
866.17	21276.35
866.34	21337.79
866.51	21333.69
866.69	21409.47
866.86	21577.40
867.04	21264.06
867.21	21368.51
867.38	20915.90
867.56	21057.21
867.73	20805.31
867.91	20555.46
868.08	20952.77
868.25	20965.06
868.43	20887.23
868.60	20596.42
868.78	20557.51
868.95	20958.91
869.12	20590.28
869.30	20694.72
869.47	20907.71
869.64	20668.10
869.82	20715.20
869.99	20688.58
870.16	20621.00
870.34	20539.08
870.51	20131.53
870.69	20080.33
870.86	20258.51
871.03	20229.84
871.21	20434.63
871.38	20389.58
871.55	20168.40
871.73	19863.25
871.90	20006.61
872.07	19941.07
872.25	19734.23
872.42	19902.16
872.59	20016.85
872.77	19656.40
872.94	20092.62
873.11	20102.86
873.29	19846.87
873.46	19498.71
873.63	19584.73
873.81	19752.66
873.98	19447.51
874.15	19646.16
874.33	19490.52
874.50	19355.35
874.67	19437.27
874.85	19672.79
875.02	19521.24
875.19	19195.61
875.37	19211.99
875.54	19123.93
875.71	19343.06
875.88	18880.22
876.06	19144.41
876.23	18747.11
876.40	19031.77
876.58	19314.39
876.75	18859.74
876.92	18929.38
877.10	18994.91
877.27	18876.13
877.44	18740.96
877.61	18675.43
877.79	18527.97
877.96	18433.77
878.13	18665.19
878.31	18448.10
878.48	18441.96
878.65	18366.18
878.82	18378.47
879.00	18487.01
879.17	18265.83
879.34	18509.54
879.51	18034.41
879.69	17925.87
879.86	18009.84
880.03	17874.67
880.21	18081.52
880.38	18114.28
880.55	17977.07
880.72	17719.03
880.90	18034.41
881.07	17850.10
881.24	17811.18
881.41	17913.58
881.59	17802.99
881.76	17901.29
881.93	17899.25
882.10	17811.18
882.28	17833.71
882.45	17538.80
882.62	17559.28
882.79	17714.93
882.96	17303.29
883.14	17624.82
883.31	17749.75
883.48	17616.63
883.65	17735.41
883.83	17540.85
884.00	17692.40
884.17	17231.61
884.34	17778.42
884.51	17291.00
884.69	17301.24
884.86	17471.22
885.03	17463.03
885.20	17063.68
885.38	17256.18
885.55	17088.25
885.72	17258.23
885.89	16912.13
886.06	17286.90
886.24	17041.15
886.41	17176.31
886.58	17235.70
886.75	17127.16
886.92	16916.22
887.10	17194.75
887.27	16695.04
887.44	17110.78
887.61	17112.83
887.78	17157.88
887.95	17071.87
888.13	16934.65
888.30	16926.46
888.47	16723.71
888.64	16783.10
888.81	16684.80
888.99	16500.48
889.16	16484.10
889.33	16400.13
889.50	16451.33
889.67	16539.40
889.84	16543.49
890.01	16625.41
890.19	16473.86
890.36	16520.96
890.53	16342.79
890.70	16295.69
890.87	16043.79
891.04	16181.00
891.22	16176.91
891.39	16242.44
891.56	16457.48
891.73	16000.78
891.90	15900.43
892.07	15814.41
892.24	15986.44
892.42	15884.05
892.59	15972.11
892.76	15943.44
892.93	15974.16
893.10	16086.79
893.27	15857.42
893.44	15847.18
893.61	15884.05
893.79	15869.71
893.96	15810.32
894.13	15890.19
894.30	15834.89
894.47	15726.35
894.64	16008.97
894.81	15847.18
894.98	15720.21
895.15	15750.93
895.33	15595.28
895.50	15472.40
895.67	15611.67
895.84	15410.96
896.01	15695.63
896.18	15521.56
896.35	15679.25
896.52	15677.20
896.69	15726.35
896.86	15666.96
897.04	15462.16
897.21	15355.67
897.38	15486.74
897.55	15673.10
897.72	15476.50
897.89	15523.60
898.06	15638.29
898.23	15191.83
898.40	15582.99
898.57	15709.97
898.74	15433.49
898.91	15327.00
899.08	15482.64
899.26	15435.54
899.43	15431.44
899.60	15408.92
899.77	15355.67
899.94	15079.19
900.11	15378.20
900.28	15433.49
900.45	15177.50
900.62	15157.02
900.79	15228.70
900.96	15304.47
901.13	15142.68
901.30	15535.89
901.47	15179.54
901.64	15138.58
901.81	15202.07
901.98	15009.56
902.15	15402.77
902.32	15230.74
902.49	15300.37
902.66	15163.16
902.83	15189.78
903.01	15150.87
903.18	15222.55
903.35	15230.74
903.52	15120.15
903.69	15286.04
903.86	15300.37
904.03	15128.35
904.20	15327.00
904.37	15306.52
904.54	15212.31
904.71	15146.78
904.88	15193.88
905.05	15238.94
905.22	15279.89
905.39	15261.46
905.56	15224.60
905.73	15138.58
905.90	15173.40
906.07	14970.65
906.24	15396.63
906.41	15032.09
906.58	15202.07
906.75	15027.99
906.92	15146.78
907.09	15105.82
907.26	15181.59
907.43	15097.63
907.60	15101.72
907.77	15157.02
907.93	15214.36
908.10	15222.55
908.27	15095.58
908.44	14952.22
908.61	15017.75
908.78	15032.09
908.95	14937.88
909.12	14921.50
909.29	14685.98
909.46	15079.19
909.63	14890.78
909.80	15005.47
909.97	14753.57
910.14	14739.23
910.31	14798.62
910.48	14849.82
910.65	14610.21
910.82	14538.53
910.99	14847.77
911.16	14608.16
911.33	14968.60
911.50	14645.02
911.66	14571.30
911.83	14761.76
912.00	14640.93
912.17	14610.21
912.34	14489.38
912.51	14565.15
912.68	14421.80
912.85	14624.54
913.02	14493.47
913.19	14507.81
913.36	14647.07
913.53	14626.59
913.70	14341.93
913.86	14499.62
914.03	14681.89
914.20	14323.49
914.37	14380.84
914.54	14315.30
914.71	14446.37
914.88	14274.34
915.05	14333.73
915.22	14059.31
915.39	13895.47
915.55	14178.09
915.72	14016.30
915.89	13967.15
916.06	13850.41
916.23	13866.80
916.40	13776.69
916.57	13907.76
916.74	13678.38
916.91	13743.92
917.07	13590.32
917.24	13602.61
917.41	13803.31
917.58	13774.64
917.75	13770.54
917.92	13532.98
918.09	13678.38
918.26	13608.75
918.42	13473.59
918.59	13401.91
918.76	13262.65
918.93	13305.65
919.10	13281.08
919.27	13268.79
919.44	13418.29
919.60	13287.22
919.77	13096.76
919.94	13207.35
920.11	12971.83
920.28	12959.55
920.45	13029.18
920.61	12631.87
920.78	12898.11
920.95	12728.13
921.12	12793.66
921.29	12672.83
921.46	12619.58
921.62	12562.24
921.79	12777.28
921.96	12617.54
922.13	12676.93
922.30	12328.77
922.47	12427.07
922.63	12359.49
922.80	12373.83
922.97	12207.94
923.14	12207.94
923.31	12445.51
923.47	12166.98
923.64	12449.60
923.81	12130.12
923.98	12166.98
924.15	12062.54
924.32	11935.56
924.48	12066.63
924.65	12187.46
924.82	11714.38
924.99	11820.88
925.15	11710.29
925.32	11857.74
925.49	11831.12
925.66	11685.71
925.83	11622.22
925.99	11519.82
926.16	11442.00
926.33	11638.61
926.50	11325.27
926.67	11534.16
926.83	11278.16
927.00	11261.78
927.17	11253.59
927.34	11251.54
927.50	11161.43
927.67	11458.39
927.84	11126.61
928.01	11269.97
928.17	11130.71
928.34	11013.98
928.51	10903.39
928.68	10889.05
928.84	10688.35
929.01	10737.50
929.18	10614.62
929.35	10501.98
929.51	10569.57
929.68	10442.59
929.85	10553.18
930.02	10592.09
930.18	10518.37
930.35	10241.89
930.52	10383.20
930.69	10377.06
930.85	10297.19
931.02	10200.93
931.19	10196.84
931.36	10188.64
931.52	10147.69
931.69	10166.12
931.86	10067.81
932.02	9969.51
932.19	9936.74
932.36	9965.42
932.53	9787.24
932.69	9770.86
932.86	9992.04
933.03	9832.30
933.19	9688.94
933.36	9576.30
933.53	9598.83
933.70	9551.73
933.86	9578.35
934.03	9344.88
934.20	9295.73
934.36	9322.35
934.53	9146.23
934.70	9123.70
934.86	9013.11
935.03	8916.86
935.20	9088.89
935.36	8828.79
935.53	8812.41
935.70	8832.89
935.86	8830.84
936.03	8460.16
936.20	8513.41
936.36	8413.06
936.53	8464.25
936.70	8392.58
936.86	8449.92
937.03	8142.72
937.20	8095.62
937.36	8116.10
937.53	7819.14
937.70	7944.07
937.86	7661.45
938.03	7800.71
938.20	7980.93
938.36	7585.68
938.53	7538.57
938.70	7313.30
938.86	7485.33
939.03	7470.99
939.20	7184.27
939.36	7188.37
939.53	7131.03
939.70	7262.10
939.86	6811.54
940.03	6729.63
940.19	6672.28
940.36	6823.83
940.53	6801.30
940.69	6467.49
940.86	6668.19
941.03	6547.36
941.19	6334.37
941.36	6426.53
941.52	6291.36
941.69	6291.36
941.86	6186.91
942.02	6076.32
942.19	6086.56
942.35	6072.23
942.52	5834.66
942.69	6055.84
942.85	5889.96
943.02	5988.26
943.18	5853.09
943.35	5838.76
943.52	5554.09
943.68	5668.78
943.85	5578.67
944.01	5459.88
944.18	5621.67
944.35	5625.77
944.51	5386.16
944.68	5496.75
944.84	5509.04
945.01	5316.53
945.17	5404.59
945.34	5521.32
945.51	5640.11
945.67	5275.57
945.84	5433.26
946.00	5115.83
946.17	5230.51
946.33	5296.05
946.50	5435.31
946.67	5314.48
946.83	5283.76
947.00	5482.41
947.16	5287.86
947.33	5296.05
947.49	5375.92
947.66	5212.08
947.82	5240.75
947.99	5281.71
948.16	5257.14
948.32	5218.22
948.49	5279.66
948.65	5377.97
948.82	5203.89
948.98	5302.19
949.15	5128.11
949.31	5246.90
949.48	5330.86
949.64	5197.74
949.81	5201.84
949.97	5330.86
950.14	5326.77
950.30	5232.56
950.47	5420.97
950.63	5283.76
950.80	5281.71
950.96	5234.61
951.13	5222.32
951.30	5322.67
951.46	5263.28
951.63	5367.73
951.79	5386.16
951.96	5246.90
952.12	5326.77
952.29	5355.44
952.45	5294.00
952.62	5255.09
952.78	5388.21
952.94	5330.86
953.11	5302.19
953.27	5377.97
953.44	5416.88
953.60	5402.54
953.77	5441.45
953.93	5380.01
954.10	5418.93
954.26	5468.08
954.43	5384.11
954.59	5476.27
954.76	5451.69
954.92	5263.28
955.09	5304.24
955.25	5353.39
955.42	5439.40
955.58	5578.67
955.75	5560.24
955.91	5535.66
956.07	5429.17
956.24	5375.92
956.40	5437.36
956.57	5613.48
956.73	5371.82
956.90	5533.61
957.06	5369.77
957.23	5509.04
957.39	5550.00
957.56	5603.24
957.72	5496.75
957.88	5349.29
958.05	5547.95
958.21	5625.77
958.38	5525.42
958.54	5541.80
958.71	5703.59
958.87	5550.00
959.03	5560.24
959.20	5367.73
959.36	5482.41
959.53	5431.21
959.69	5380.01
959.85	5496.75
960.02	5316.53
960.18	5605.29
960.35	5574.57
960.51	5406.64
960.68	5396.40
960.84	5406.64
961.00	5269.42
961.17	5388.21
961.33	5541.80
961.50	5556.14
961.66	5388.21
961.82	5267.38
961.99	5304.24
962.15	5447.60
962.31	5359.53
962.48	5435.31
962.64	5449.64
962.81	5453.74
962.97	5390.25
963.13	5359.53
963.30	5402.54
963.46	5427.12
963.62	5472.17
963.79	5500.84
963.95	5361.58
964.12	5298.10
964.28	5392.30
964.44	5294.00
964.61	5482.41
964.77	5355.44
964.93	5554.09
965.10	5453.74
965.26	5285.81
965.42	5326.77
965.59	5369.77
965.75	5316.53
965.92	5595.05
966.08	5396.40
966.24	5351.34
966.41	5234.61
966.57	5400.49
966.73	5367.73
966.90	5420.97
967.06	5324.72
967.22	5312.43
967.39	5273.52
967.55	5238.70
967.71	5263.28
967.88	5207.98
968.04	5179.31
968.20	5185.46
968.37	5050.29
968.53	5154.74
968.69	5273.52
968.85	5220.27
969.02	5142.45
969.18	5164.98
969.34	5128.11
969.51	5222.32
969.67	5263.28
969.83	5076.91
970.00	5183.41
970.16	5130.16
970.32	5238.70
970.48	5216.18
970.65	5013.43
970.81	5183.41
970.97	5210.03
971.14	5017.52
971.30	5097.39
971.46	5015.48
971.63	5031.86
971.79	5124.02
971.95	4962.23
972.11	5089.20
972.28	5015.48
972.44	5089.20
972.60	4958.13
972.76	5115.83
972.93	4927.41
973.09	4921.27
973.25	4882.36
973.42	4933.56
973.58	5027.76
973.74	4943.80
973.90	4956.08
974.07	5001.14
974.23	4906.93
974.39	4908.98
974.55	4812.73
974.72	4822.97
974.88	4739.00
975.04	4941.75
975.20	4902.84
975.37	4773.82
975.53	4734.90
975.69	4753.34
975.85	4798.39
976.01	4726.71
976.18	4792.25
976.34	4878.26
976.50	4771.77
976.66	4835.25
976.83	4782.01
976.99	4853.69
977.15	4802.49
977.31	4634.55
977.47	4794.29
977.64	4628.41
977.80	4612.03
977.96	4566.97
978.12	4792.25
978.29	4763.58
978.45	4579.26
978.61	4507.58
978.77	4677.56
978.93	4614.07
979.10	4587.45
979.26	4583.35
979.42	4607.93
979.58	4446.14
979.74	4659.13
979.91	4597.69
980.07	4523.96
980.23	4679.61
980.39	4585.40
980.55	4577.21
980.71	4417.47
980.88	4534.20
981.04	4548.54
981.20	4528.06
981.36	4640.70
981.52	4466.62
981.68	4403.13
981.85	4474.81
982.01	4497.34
982.17	4331.45
982.33	4331.45
982.49	4403.13
982.65	4378.56
982.82	4360.13
982.98	4282.30
983.14	4231.10
983.30	4526.01
983.46	4282.30
983.62	4356.03
983.79	4251.58
983.95	4294.59
984.11	4220.86
984.27	4286.40
984.43	4231.10
984.59	4243.39
984.75	4253.63
984.91	4075.46
985.08	4239.30
985.24	4153.28
985.40	4073.41
985.56	4235.20
985.72	4167.62
985.88	4267.97
986.04	4114.37
986.20	4112.32
986.37	4265.92
986.53	4151.23
986.69	4040.64
986.85	4067.27
987.01	4188.10
987.17	4116.42
987.33	4124.61
987.49	4007.87
987.65	4163.52
987.82	4003.78
987.98	4024.26
988.14	4009.92
988.30	4024.26
988.46	3909.57
988.62	4169.66
988.78	4005.83
988.94	3923.91
989.10	3858.37
989.26	3973.06
989.42	3905.48
989.59	3893.19
989.75	3893.19
989.91	3944.39
990.07	3745.73
990.23	3741.64
990.39	3809.22
990.55	3887.04
990.71	3841.99
990.87	3913.67
991.03	3905.48
991.19	3788.74
991.35	3860.42
991.51	3743.69
991.67	3852.23
991.83	3891.14
992.00	3794.89
992.16	3854.28
992.32	3811.27
992.48	3923.91
992.64	3755.97
992.80	3790.79
992.96	3698.63
993.12	3762.12
993.28	3762.12
993.44	3784.65
993.60	3823.56
993.76	3721.16
993.92	3770.31
994.08	3651.53
994.24	3694.54
994.40	3723.21
994.56	3663.82
994.72	3631.05
994.88	3545.03
995.04	3725.26
995.20	3557.32
995.36	3542.99
995.52	3575.75
995.68	3504.07
995.84	3545.03
996.00	3633.10
996.16	3485.64
996.32	3577.80
996.48	3575.75
996.64	3516.36
996.80	3565.51
996.96	3549.13
997.12	3626.95
997.28	3375.05
997.44	3391.44
997.60	3510.22
997.76	3446.73
997.92	3461.07
998.08	3323.85
998.24	3327.95
998.40	3481.55
998.56	3391.44
998.72	3360.72
998.88	3258.32
999.04	3360.72
999.20	3424.20
999.36	3409.87
999.52	3446.73
999.68	3313.61
999.84	3389.39
1000.00	3461.07
1000.16	3379.15
1000.32	3194.83
1000.48	3452.88
1000.64	3284.94
1000.80	3358.67
1000.95	3223.50
1001.11	3364.81
1001.27	3243.98
1001.43	3178.45
1001.59	3160.02
1001.75	3198.93
1001.91	3162.06
1002.07	3133.39
1002.23	3139.54
1002.39	3268.56
1002.55	3205.07
1002.71	3151.82
1002.87	3207.12
1003.03	3074.00
1003.19	3035.09
1003.34	3319.76
1003.50	3182.54
1003.66	3125.20
1003.82	3225.55
1003.98	3215.31
1004.14	3135.44
1004.30	3094.48
1004.46	3082.19
1004.62	2996.18
1004.78	3010.51
1004.94	3016.66
1005.09	3084.24
1005.25	3022.80
1005.41	3022.80
1005.57	3076.05
1005.73	2918.36
1005.89	3026.90
1006.05	3006.42
1006.21	3000.27
1006.37	2944.98
1006.52	2928.60
1006.68	2971.60
1006.84	3131.34
1007.00	3008.47
1007.16	2983.89
1007.32	2942.93
1007.48	3057.62
1007.64	3006.42
1007.79	2953.17
1007.95	2912.21
1008.11	2973.65
1008.27	2957.27
1008.43	2861.01
1008.59	2951.12
1008.75	2963.41
1008.91	2910.16
1009.06	2785.24
1009.22	2867.16
1009.38	2838.48
1009.54	2809.81
1009.70	2877.40
1009.86	2916.31
1010.01	2842.58
1010.17	2711.51
1010.33	2813.91
1010.49	2822.10
1010.65	2813.91
1010.81	2822.10
1010.96	2674.65
1011.12	2729.94
1011.28	2740.18
1011.44	2807.77
1011.60	2719.70
1011.76	2803.67
1011.91	2820.05
1012.07	2676.70
1012.23	2641.88
1012.39	2721.75
1012.55	2697.17
1012.71	2650.07
1012.86	2695.13
1013.02	2674.65
1013.18	2645.98
1013.34	2738.13
1013.50	2660.31
1013.65	2717.65
1013.81	2648.02
1013.97	2613.21
1014.13	2609.11
1014.29	2572.25
1014.44	2686.94
1014.60	2670.55
1014.76	2609.11
1014.92	2570.20
1015.07	2699.22
1015.23	2631.64
1015.39	2535.39
1015.55	2574.30
1015.71	2625.50
1015.86	2555.86
1016.02	2527.19
1016.18	2471.90
1016.34	2502.62
1016.49	2529.24
1016.65	2623.45
1016.81	2484.19
1016.97	2465.75
1017.12	2586.58
1017.28	2498.52
1017.44	2398.17
1017.60	2478.04
1017.75	2527.19
1017.91	2480.09
1018.07	2586.58
1018.23	2469.85
1018.38	2533.34
1018.54	2424.80
1018.70	2459.61
1018.86	2404.32
1019.01	2420.70
1019.17	2410.46
1019.33	2473.95
1019.49	2402.27
1019.64	2449.37
1019.80	2478.04
1019.96	2426.84
1020.12	2402.27
1020.27	2369.50
1020.43	2426.84
1020.59	2400.22
1020.74	2482.14
1020.90	2484.19
1021.06	2359.26
1021.22	2441.18
1021.37	2389.98
1021.53	2287.58
1021.69	2412.51
1021.84	2361.31
1022.00	2363.36
1022.16	2236.38
1022.31	2330.59
1022.47	2326.49
1022.63	2342.88
1022.79	2222.05
1022.94	2226.14
1023.10	2314.20
1023.26	2273.25
1023.41	2265.05
1023.57	2281.44
1023.73	2226.14
1023.88	2293.72
1024.04	2228.19
1024.20	2281.44
1024.35	2330.59
1024.51	2299.87
1024.67	2213.85
1024.82	2363.36
1024.98	2275.29
1025.14	2232.29
1025.29	2209.76
1025.45	2301.92
1025.61	2224.09
1025.76	2291.68
1025.92	2240.48
1026.08	2213.85
1026.23	2254.81
1026.39	2234.33
1026.55	2265.05
1026.70	2238.43
1026.86	2172.89
1027.02	2308.06
1027.17	2199.52
1027.33	2146.27
1027.48	2193.37
1027.64	2084.83
1027.80	2123.74
1027.95	2162.66
1028.11	2111.46
1028.27	2189.28
1028.42	2142.18
1028.58	2170.85
1028.73	2156.51
1028.89	2058.21
1029.05	2213.85
1029.20	2160.61
>>>>>End Processed Spectral Data<<<<<
