SpectraSuite Data File
++++++++++++++++++++++++++++++++++++
Date: Fri Jun 02 14:44:31 CEST 2017
User: INFO_000
Dark Spectrum Present: No
Reference Spectrum Present: No
Number of Sampled Component Spectra: 1
Spectrometers: USB4H00879
Integration Time (usec): 80000 (USB4H00879)
Spectra Averaged: 1 (USB4H00879)
Boxcar Smoothing: 0 (USB4H00879)
Correct for Electrical Dark: No (USB4H00879)
Strobe/Lamp Enabled: No (USB4H00879)
Correct for Detector Non-linearity: No (USB4H00879)
Correct for Stray Light: No (USB4H00879)
Number of Pixels in Processed Spectrum: 3648
>>>>>Begin Processed Spectral Data<<<<<
345.13	1300.46
345.34	1300.46
345.56	1300.46
345.78	1263.60
345.99	1314.80
346.21	1683.43
346.42	1708.01
346.64	1699.81
346.86	1744.87
347.07	1621.99
347.29	1613.80
347.50	1654.76
347.72	1679.33
347.94	1699.81
348.15	1597.42
348.37	1650.66
348.59	1675.24
348.80	1660.90
349.02	1740.77
349.23	1728.49
349.45	1638.38
349.67	1732.58
349.88	1587.18
350.10	1849.32
350.31	1689.57
350.53	1695.72
350.75	1822.69
350.96	1685.48
351.18	1783.78
351.39	1699.81
351.61	1628.14
351.82	1667.05
352.04	1759.21
352.26	1701.86
352.47	1783.78
352.69	1720.29
352.90	1681.38
353.12	1683.43
353.34	1685.48
353.55	1740.77
353.77	1710.05
353.98	1665.00
354.20	1691.62
354.41	1775.59
354.63	1789.92
354.85	1918.95
355.06	1724.39
355.28	1650.66
355.49	1691.62
355.71	1794.02
355.92	1748.97
356.14	1695.72
356.35	1689.57
356.57	1638.38
356.79	1771.49
357.00	1642.47
357.22	1779.68
357.43	1605.61
357.65	1728.49
357.86	1650.66
358.08	1705.96
358.29	1689.57
358.51	1785.83
358.72	1765.35
358.94	1753.06
359.16	1765.35
359.37	1726.44
359.59	1828.84
359.80	1816.55
360.02	1777.64
360.23	1748.97
360.45	1847.27
360.66	1695.72
360.88	1687.53
361.09	1734.63
361.31	1779.68
361.52	1720.29
361.74	1806.31
361.95	1884.13
362.17	1683.43
362.38	1845.22
362.60	1789.92
362.81	1638.38
363.03	1730.53
363.24	1716.20
363.46	1755.11
363.67	1722.34
363.89	1671.14
364.10	1722.34
364.32	1691.62
364.53	1759.21
364.75	1613.80
364.96	1708.01
365.18	1759.21
365.39	1665.00
365.61	1646.57
365.82	1812.45
366.04	1740.77
366.25	1654.76
366.47	1724.39
366.68	1773.54
366.90	1671.14
367.11	1703.91
367.33	1814.50
367.54	1703.91
367.76	1710.05
367.97	1814.50
368.19	1773.54
368.40	1697.77
368.62	1597.42
368.83	1556.46
369.05	1734.63
369.26	1689.57
369.48	1613.80
369.69	1634.28
369.91	1785.83
370.12	1740.77
370.33	1734.63
370.55	1585.13
370.76	1685.48
370.98	1789.92
371.19	1675.24
371.41	1716.20
371.62	1695.72
371.84	1611.75
372.05	1820.64
372.27	1654.76
372.48	1658.85
372.69	1751.01
372.91	1771.49
373.12	1822.69
373.34	1705.96
373.55	1783.78
373.77	1728.49
373.98	1695.72
374.20	1816.55
374.41	1859.56
374.62	1748.97
374.84	1691.62
375.05	1712.10
375.27	1701.86
375.48	1720.29
375.70	1703.91
375.91	1765.35
376.12	1830.88
376.34	1654.76
376.55	1693.67
376.77	1767.40
376.98	1699.81
377.19	1656.81
377.41	1611.75
377.62	1703.91
377.84	1761.25
378.05	1873.89
378.27	1755.11
378.48	1789.92
378.69	1853.41
378.91	1906.66
379.12	1808.36
379.34	1759.21
379.55	1769.44
379.76	1791.97
379.98	1728.49
380.19	1742.82
380.41	1808.36
380.62	1785.83
380.83	1679.33
381.05	1652.71
381.26	1898.47
381.47	1648.61
381.69	1705.96
381.90	1904.61
382.12	1800.16
382.33	1757.16
382.54	1726.44
382.76	1804.26
382.97	1738.73
383.19	1714.15
383.40	1773.54
383.61	1732.58
383.83	1757.16
384.04	1777.64
384.25	1861.60
384.47	1828.84
384.68	1722.34
384.89	1714.15
385.11	1757.16
385.32	1738.73
385.54	1738.73
385.75	1720.29
385.96	1667.05
386.18	1695.72
386.39	1675.24
386.60	1652.71
386.82	1730.53
387.03	1789.92
387.24	1763.30
387.46	1751.01
387.67	1769.44
387.88	1820.64
388.10	1849.32
388.31	1818.60
388.52	1837.03
388.74	1798.12
388.95	1714.15
389.16	1728.49
389.38	1695.72
389.59	1798.12
389.80	1767.40
390.02	1775.59
390.23	1816.55
390.44	1734.63
390.66	1806.31
390.87	1675.24
391.08	1810.40
391.30	1937.38
391.51	1888.23
391.72	1863.65
391.94	1810.40
392.15	1734.63
392.36	1763.30
392.58	1757.16
392.79	1824.74
393.00	1765.35
393.22	1837.03
393.43	1869.80
393.64	1882.08
393.85	1918.95
394.07	1814.50
394.28	1884.13
394.49	1812.45
394.71	1933.28
394.92	1923.04
395.13	1765.35
395.35	1730.53
395.56	1761.25
395.77	1871.84
395.98	1906.66
396.20	1886.18
396.41	1775.59
396.62	1884.13
396.84	1828.84
397.05	1806.31
397.26	1798.12
397.47	1959.91
397.69	1830.88
397.90	1982.43
398.11	1869.80
398.32	1841.12
398.54	1839.08
398.75	1798.12
398.96	1904.61
399.18	1982.43
399.39	1849.32
399.60	1925.09
399.81	1798.12
400.03	1855.46
400.24	1988.58
400.45	1853.41
400.66	1841.12
400.88	1837.03
401.09	1976.29
401.30	1808.36
401.51	1990.63
401.73	1798.12
401.94	1910.75
402.15	2019.30
402.36	2047.97
402.58	1947.62
402.79	2052.06
403.00	1937.38
403.21	1931.23
403.43	2029.54
403.64	2019.30
403.85	1945.57
404.06	2011.11
404.27	1929.19
404.49	2007.01
404.70	1902.56
404.91	1996.77
405.12	1955.81
405.34	2004.96
405.55	2060.26
405.76	1834.98
405.97	2017.25
406.19	2187.23
406.40	1912.80
406.61	1966.05
406.82	1943.52
407.03	1984.48
407.25	1853.41
407.46	2097.12
407.67	1937.38
407.88	2191.33
408.09	1978.34
408.31	1918.95
408.52	2074.59
408.73	2017.25
408.94	1984.48
409.15	2068.45
409.37	2058.21
409.58	2148.32
409.79	1964.00
410.00	2183.13
410.21	1968.10
410.43	2115.55
410.64	1945.57
410.85	2099.17
411.06	2140.13
411.27	2105.31
411.48	2121.70
411.70	2160.61
411.91	2115.55
412.12	2287.58
412.33	2250.72
412.54	1986.53
412.76	2254.81
412.97	2207.71
413.18	2017.25
413.39	2019.30
413.60	2232.29
413.81	2099.17
414.03	2138.08
414.24	2131.94
414.45	2363.36
414.66	2064.35
414.87	2234.33
415.08	2058.21
415.30	2158.56
415.51	2183.13
415.72	2062.30
415.93	2297.82
416.14	2019.30
416.35	2109.41
416.56	2273.25
416.78	2279.39
416.99	2144.22
417.20	2158.56
417.41	2357.21
417.62	2217.95
417.83	2295.77
418.04	2199.52
418.26	2457.56
418.47	2248.67
418.68	2306.01
418.89	2279.39
419.10	2541.53
419.31	2357.21
419.52	2248.67
419.73	2209.76
419.95	2588.63
420.16	2224.09
420.37	2252.77
420.58	2150.37
420.79	2119.65
421.00	2168.80
421.21	2107.36
421.42	2394.08
421.63	2326.49
421.85	2332.64
422.06	2301.92
422.27	2445.27
422.48	2320.35
422.69	2344.92
422.90	2445.27
423.11	2334.68
423.32	2482.14
423.53	2516.95
423.75	2342.88
423.96	2478.04
424.17	2527.19
424.38	2678.74
424.59	2457.56
424.80	2494.43
425.01	2594.78
425.22	2342.88
425.43	2492.38
425.64	2693.08
425.85	2938.84
426.06	2867.16
426.28	2643.93
426.49	2332.64
426.70	2498.52
426.91	2572.25
427.12	2828.24
427.33	2854.87
427.54	2777.05
427.75	2756.57
427.96	2871.25
428.17	2871.25
428.38	2658.26
428.59	2715.61
428.80	2787.29
429.01	2801.62
429.23	2797.53
429.44	2625.50
429.65	3002.32
429.86	2910.16
430.07	3010.51
430.28	2924.50
430.49	2934.74
430.70	2906.07
430.91	3188.69
431.12	2981.84
431.33	2879.44
431.54	3125.20
431.75	2897.88
431.96	2979.79
432.17	2971.60
432.38	3098.58
432.59	3194.83
432.80	3260.37
433.01	3157.97
433.22	3059.67
433.43	3074.00
433.64	3256.27
433.85	3209.17
434.06	3200.98
434.27	3162.06
434.49	3094.48
434.70	3364.81
434.91	3225.55
435.12	3319.76
435.33	3229.65
435.54	3188.69
435.75	2918.36
435.96	3078.10
436.17	3219.41
436.38	3344.33
436.59	3389.39
436.80	3147.73
437.01	3420.11
437.22	3377.10
437.43	3420.11
437.64	3192.78
437.85	3444.68
438.06	3588.04
438.27	2994.13
438.48	3409.87
438.69	3254.22
438.90	3350.48
439.11	3444.68
439.32	3688.39
439.53	3416.01
439.74	3495.88
439.95	3647.43
440.16	3506.12
440.37	3581.90
440.57	3475.40
440.78	3639.24
440.99	3794.89
441.20	3473.36
441.41	3639.24
441.62	3456.97
441.83	3665.86
442.04	3635.14
442.25	3696.58
442.46	3710.92
442.67	3629.00
442.88	3987.40
443.09	3594.19
443.30	3577.80
443.51	3688.39
443.72	3960.77
443.93	3686.34
444.14	3993.54
444.35	3565.51
444.56	3823.56
444.77	3616.71
444.98	3997.64
445.19	4046.79
445.40	3936.20
445.61	3837.89
445.81	3833.80
446.02	4044.74
446.23	3776.45
446.44	3841.99
446.65	3968.96
446.86	4091.84
447.07	4198.34
447.28	4120.51
447.49	4059.07
447.70	4169.66
447.91	4200.38
448.12	3962.82
448.33	4194.24
448.54	4130.75
448.74	3946.44
448.95	4253.63
449.16	4124.61
449.37	4327.36
449.58	4104.13
449.79	4280.25
450.00	4173.76
450.21	4327.36
450.42	4333.50
450.63	4276.16
450.84	4108.23
451.05	4337.60
451.25	4325.31
451.46	4286.40
451.67	4319.17
451.88	4501.44
452.09	4401.08
452.30	4372.41
452.51	4286.40
452.72	4560.83
452.93	4661.18
453.13	4138.94
453.34	4337.60
453.55	4448.19
453.76	4485.05
453.97	4788.15
454.18	4360.13
454.39	4554.68
454.60	4591.55
454.81	4655.03
455.01	4556.73
455.22	4382.65
455.43	4691.90
455.64	4939.70
455.85	4900.79
456.06	4890.55
456.27	4892.60
456.48	4786.10
456.68	4792.25
456.89	4833.21
457.10	4892.60
457.31	4792.25
457.52	4722.62
457.73	4800.44
457.94	5040.05
458.14	4757.43
458.35	5078.96
458.56	4958.13
458.77	5023.67
458.98	5128.11
459.19	5048.24
459.39	5121.97
459.60	5308.34
459.81	5128.11
460.02	5222.32
460.23	5068.72
460.44	5257.14
460.65	5269.42
460.85	5269.42
461.06	5140.40
461.27	5199.79
461.48	5296.05
461.69	5263.28
461.89	5232.56
462.10	5437.36
462.31	5382.06
462.52	5310.38
462.73	5513.13
462.94	5617.58
463.14	5396.40
463.35	5486.51
463.56	5728.17
463.77	5580.71
463.98	5574.57
464.18	5613.48
464.39	5875.62
464.60	5822.38
464.81	5838.76
465.02	5816.23
465.23	6088.61
465.43	5863.33
465.64	5967.78
465.85	5826.47
466.06	5801.90
466.27	6098.85
466.47	6066.08
466.68	6092.71
466.89	6037.41
467.10	6057.89
467.30	6074.28
467.51	6131.62
467.72	6240.16
467.93	6049.70
468.14	6045.60
468.34	6422.43
468.55	6236.06
468.76	6369.18
468.97	6315.94
469.17	6576.03
469.38	6477.73
469.59	6576.03
469.80	6483.87
470.01	6557.60
470.21	6500.25
470.42	6594.46
470.63	6766.49
470.84	6647.71
471.04	6635.42
471.25	6729.63
471.46	6768.54
471.67	7002.01
471.87	6799.26
472.08	6879.13
472.29	7128.98
472.50	6858.65
472.70	6903.70
472.91	6825.88
473.12	7135.12
473.33	6967.19
473.53	7223.19
473.74	7059.35
473.95	7202.71
474.16	7184.27
474.36	7255.95
474.57	7489.42
474.78	7481.23
474.99	7475.09
475.19	7313.30
475.40	7563.15
475.61	7569.29
475.81	7624.59
476.02	7628.68
476.23	7696.27
476.44	7884.68
476.64	7739.27
476.85	7923.59
477.06	7876.49
477.27	8009.61
477.47	8036.23
477.68	8204.16
477.89	8003.46
478.09	8327.04
478.30	8208.26
478.51	8011.65
478.71	8101.76
478.92	8406.91
479.13	8435.58
479.34	8349.57
479.54	8443.78
479.75	8505.21
479.96	8425.34
480.16	8587.13
480.37	8470.40
480.58	8662.91
480.78	8923.00
480.99	8720.25
481.20	8896.38
481.41	8933.24
481.61	8943.48
481.82	9111.41
482.03	9043.83
482.23	9047.93
482.44	9369.46
482.65	9377.65
482.85	9394.03
483.06	9326.45
483.27	9398.13
483.47	9473.90
483.68	9500.53
483.89	9498.48
484.09	9594.73
484.30	9473.90
484.51	9752.43
484.71	9621.36
484.92	9674.60
485.13	9770.86
485.33	9684.84
485.54	9848.68
485.75	10022.76
485.95	10069.86
486.16	9996.14
486.37	10084.20
486.57	9934.70
486.78	9992.04
486.98	10260.32
487.19	10264.42
487.40	10356.58
487.60	10344.29
487.81	10411.87
488.02	10512.22
488.22	10403.68
488.43	10647.39
488.64	10714.97
488.84	10512.22
489.05	10698.59
489.25	10731.36
489.46	10837.85
489.67	10667.87
489.87	10825.56
490.08	10964.82
490.29	10915.67
490.49	11274.07
490.70	10934.11
490.90	10970.97
491.11	11210.58
491.32	11269.97
491.52	11251.54
491.73	11173.72
491.94	11382.61
492.14	11368.27
492.35	11507.54
492.55	11528.02
492.76	11810.64
492.97	11751.24
493.17	11597.65
493.38	11890.51
493.58	11853.64
493.79	11849.55
494.00	11906.89
494.20	11730.76
494.41	12076.87
494.61	12025.67
494.82	12070.73
495.02	12099.40
495.23	11884.36
495.44	12228.42
495.64	12150.60
495.85	12181.32
496.05	12322.63
496.26	12304.20
496.47	12367.68
496.67	12158.79
496.88	12556.10
497.08	12271.43
497.29	12590.91
497.49	12427.07
497.70	12769.09
497.91	12756.80
498.11	12904.25
498.32	12975.93
498.52	12869.44
498.73	13016.89
498.93	12945.21
499.14	13082.42
499.34	13147.96
499.55	13250.36
499.76	13084.47
499.96	13176.63
500.17	12969.79
500.37	13246.26
500.58	13145.91
500.78	13264.69
500.99	13233.97
501.19	13459.25
501.40	13401.91
501.60	13242.17
501.81	13436.72
502.02	13502.26
502.22	13363.00
502.43	13469.49
502.63	13541.17
502.84	13709.10
503.04	13575.98
503.25	13678.38
503.45	13831.98
503.66	13838.12
503.86	13635.38
504.07	14163.75
504.27	13659.95
504.48	14139.18
504.68	13795.12
504.89	14143.27
505.09	14051.11
505.30	14018.35
505.50	14124.84
505.71	14321.45
505.91	14020.39
506.12	14352.16
506.32	14159.66
506.53	13999.91
506.73	14311.21
506.94	14393.12
507.14	14536.48
507.35	14606.11
507.55	14444.32
507.76	14419.75
507.96	14358.31
508.17	14624.54
508.37	14589.73
508.58	14597.92
508.78	14667.55
508.99	14755.61
509.19	14663.46
509.40	14634.78
509.60	14821.15
509.81	14976.80
510.01	14788.38
510.22	14823.20
510.42	14937.88
510.63	14929.69
510.83	14786.33
511.04	14982.94
511.24	14946.08
511.44	15054.62
511.65	14974.75
511.85	15038.23
512.06	14974.75
512.26	14978.84
512.47	15386.39
512.67	15249.18
512.88	15189.78
513.08	15116.06
513.29	15447.83
513.49	15185.69
513.69	15413.01
513.90	15150.87
514.10	15542.03
514.31	15595.28
514.51	15372.05
514.72	15525.65
514.92	15417.11
515.13	15392.53
515.33	15449.88
515.53	15752.98
515.74	15550.23
515.94	15761.17
516.15	15533.84
516.35	15552.27
516.56	15564.56
516.76	15644.43
516.96	15705.87
517.17	15986.44
517.37	15752.98
517.58	15875.85
517.78	16099.08
517.99	15925.00
518.19	16088.84
518.39	16115.47
518.60	16164.62
518.80	15830.80
519.01	16146.19
519.21	16164.62
519.41	16246.54
519.62	16105.23
519.82	16518.92
520.03	16525.06
520.23	16369.41
520.43	16205.58
520.64	16639.75
520.84	16627.46
521.05	16500.48
521.25	16801.54
521.45	16480.00
521.66	16615.17
521.86	16609.03
522.07	16574.21
522.27	16480.00
522.47	16596.74
522.68	16914.17
522.88	16770.82
523.08	17116.92
523.29	16942.85
523.49	16711.42
523.70	16959.23
523.90	17088.25
524.10	16858.88
524.31	17250.04
524.51	16989.95
524.71	17272.57
524.92	17331.96
525.12	17395.45
525.33	17493.75
525.53	17379.06
525.73	17624.82
525.94	17497.84
526.14	17377.01
526.34	17846.00
526.55	17686.26
526.75	17827.57
526.95	17813.23
527.16	17600.24
527.36	17837.81
527.56	17846.00
527.77	18142.96
527.97	18071.28
528.17	17942.25
528.38	17899.25
528.58	18028.27
528.78	18167.53
528.99	18087.66
529.19	18349.80
529.39	18245.35
529.60	18355.94
529.80	18169.58
530.00	18099.95
530.21	18421.48
530.41	18480.87
530.61	18505.45
530.82	18527.97
531.02	18417.38
531.22	18511.59
531.43	18507.49
531.63	18560.74
531.83	18917.09
532.04	19025.63
532.24	18927.33
532.44	19162.84
532.64	18986.72
532.85	19015.39
533.05	19197.66
533.25	19248.86
533.46	19156.70
533.66	19267.29
533.86	18951.90
534.07	19545.81
534.27	19179.23
534.47	19619.54
534.67	19619.54
534.88	19435.22
535.08	19341.02
535.28	19783.38
535.49	19721.94
535.69	19703.51
535.89	19953.36
536.09	19807.95
536.30	20238.03
536.50	19928.78
536.70	20080.33
536.91	19855.06
537.11	19982.03
537.31	20254.41
537.51	20059.85
537.72	20346.57
537.92	20227.79
538.12	20494.02
538.32	20362.95
538.53	20737.73
538.73	20252.36
538.93	20666.05
539.13	20711.11
539.34	20518.60
539.54	20444.87
539.74	20831.94
539.94	20846.27
540.15	20821.70
540.35	20575.94
540.55	20704.96
540.75	20743.88
540.96	20897.47
541.16	21055.17
541.36	20946.62
541.56	21030.59
541.77	21233.34
541.97	21135.04
542.17	21159.61
542.37	21323.45
542.58	21294.78
542.78	20958.91
542.98	21276.35
543.18	21481.14
543.38	21831.35
543.59	21573.30
543.79	21380.79
543.99	21237.44
544.19	21579.45
544.40	21755.57
544.60	21644.98
544.80	22001.33
545.00	21849.78
545.20	21837.49
545.41	21694.13
545.61	22013.62
545.81	22177.45
546.01	21665.46
546.21	21980.85
546.42	21915.31
546.62	22046.38
546.82	21860.02
547.02	22034.10
547.22	22189.74
547.43	22042.29
547.63	22300.33
547.83	22408.87
548.03	22206.13
548.23	22427.31
548.44	22390.44
548.64	22347.44
548.84	22292.14
549.04	22564.52
549.24	22720.17
549.45	22730.41
549.65	22668.97
549.85	22406.83
550.05	22576.81
550.25	22417.07
550.45	22992.55
550.66	22740.64
550.86	22613.67
551.06	22904.48
551.26	22697.64
551.46	22986.40
551.66	22789.80
551.87	22916.77
552.07	23002.78
552.27	22605.48
552.47	23074.46
552.67	22826.66
552.87	22843.04
553.07	23125.66
553.28	23258.78
553.48	23223.97
553.68	23148.19
553.88	23359.13
554.08	23140.00
554.28	23103.14
554.48	23178.91
554.69	23361.18
554.89	22986.40
555.09	23189.15
555.29	22939.30
555.49	23228.06
555.69	23412.38
555.89	23404.19
556.10	23273.12
556.30	23285.40
556.50	23717.53
556.70	23465.63
556.90	23445.15
557.10	23488.15
557.30	23510.68
557.50	23682.71
557.70	23641.75
557.91	23932.56
558.11	23539.35
558.31	23727.77
558.51	23742.10
558.71	23774.87
558.91	23901.84
559.11	23547.54
559.31	23651.99
559.51	23830.16
559.72	23879.32
559.92	23936.66
560.12	23764.63
560.32	23895.70
560.52	23854.74
560.72	24276.62
560.92	24094.35
561.12	23748.25
561.32	24176.27
561.52	23838.36
561.72	23969.43
561.93	24139.41
562.13	24065.68
562.33	23905.94
562.53	24184.46
562.73	24075.92
562.93	24376.97
563.13	24174.22
563.33	24233.61
563.53	24336.01
563.73	24129.17
563.93	24254.09
564.13	24321.68
564.33	24491.66
564.53	24338.06
564.74	24628.87
564.94	24403.60
565.14	24462.99
565.34	24465.03
565.54	24415.88
565.74	24299.15
565.94	24794.76
566.14	24626.82
566.34	24512.14
566.54	24716.93
566.74	24338.06
566.94	24776.33
567.14	25132.67
567.34	24661.64
567.54	24886.92
567.74	24788.61
567.94	24479.37
568.14	24667.78
568.34	24956.55
568.54	24530.57
568.74	24940.16
568.94	24510.09
569.14	25104.00
569.34	25124.48
569.54	25003.65
569.75	24977.03
569.95	25099.90
570.15	25110.14
570.35	25101.95
570.55	24917.64
570.75	25222.78
570.95	24880.77
571.15	25124.48
571.35	25069.19
571.55	25321.09
571.75	25144.96
571.95	25515.64
572.15	25179.78
572.35	25310.85
572.55	25337.47
572.75	24913.54
572.95	25241.21
573.15	25470.59
573.35	25577.08
573.55	25409.15
573.75	25466.49
573.95	25341.57
574.15	25210.50
574.35	25255.55
574.55	25673.34
574.75	25691.77
574.95	25501.31
575.15	25484.92
575.34	25575.03
575.54	25826.93
575.74	25742.97
575.94	25812.60
576.14	25613.95
576.34	25974.39
576.54	25798.26
576.74	25728.63
576.94	25949.81
577.14	25747.06
577.34	26187.38
577.54	25960.05
577.74	26066.55
577.94	26066.55
578.14	26263.15
578.34	26072.69
578.54	25575.03
578.74	25794.17
578.94	26015.35
579.14	25747.06
579.34	25806.45
579.54	26140.27
579.74	26459.76
579.94	26312.30
580.13	26494.57
580.33	26551.91
580.53	26470.00
580.73	26617.45
580.93	26533.48
581.13	26383.98
581.33	26691.18
581.53	26654.31
581.73	26756.71
581.93	26537.58
582.13	26707.56
582.33	26580.59
582.53	27129.44
582.73	26777.19
582.92	26572.39
583.12	26824.29
583.32	26867.30
583.52	26470.00
583.72	26803.82
583.92	26662.51
584.12	26818.15
584.32	26992.23
584.52	26871.40
584.72	27127.39
584.92	26713.70
585.11	27147.87
585.31	27168.35
585.51	27020.90
585.71	27113.06
585.91	27379.29
586.11	27272.80
586.31	27383.39
586.51	27379.29
586.71	27455.07
586.91	27418.21
587.10	27127.39
587.30	27160.16
587.50	27190.88
587.70	27244.13
587.90	27649.63
588.10	27473.50
588.30	27367.01
588.50	27479.64
588.69	27729.50
588.89	27338.33
589.09	27772.50
589.29	27547.23
589.49	27516.51
589.69	27502.17
589.89	27688.54
590.08	27430.49
590.28	27788.89
590.48	27895.38
590.68	27440.73
590.88	27756.12
591.08	27901.53
591.28	27565.66
591.47	28202.58
591.67	27645.53
591.87	27940.44
592.07	27915.86
592.27	27883.09
592.47	27991.64
592.67	28028.50
592.86	27903.57
593.06	28053.08
593.26	28223.06
593.46	27842.14
593.66	28005.97
593.86	28280.40
594.05	27942.49
594.25	28071.51
594.45	27907.67
594.65	28186.19
594.85	28321.36
595.05	28411.47
595.24	28223.06
595.44	28405.33
595.64	28290.64
595.84	28550.73
596.04	28474.96
596.23	28278.35
596.43	28560.97
596.63	28505.68
596.83	28427.85
597.03	28771.91
597.22	28898.89
597.42	28796.49
597.62	28692.04
597.82	28685.90
598.02	28679.75
598.21	28540.49
598.41	28673.61
598.61	28878.41
598.81	28845.64
599.01	28862.02
599.20	28923.46
599.40	28849.74
599.60	29081.16
599.80	29023.81
600.00	29007.43
600.19	29314.62
600.39	29079.11
600.59	29281.86
600.79	29152.84
600.98	29290.05
601.18	29406.78
601.38	29423.17
601.58	29486.65
601.78	29394.50
601.97	29468.22
602.17	29609.53
602.37	29589.05
602.57	29517.37
602.76	29652.54
602.96	29625.92
603.16	29744.70
603.36	29703.74
603.55	29754.94
603.75	29627.96
603.95	29890.10
604.15	29503.04
604.34	29918.78
604.54	30062.13
604.74	29720.12
604.94	29609.53
605.13	29840.95
605.33	29963.83
605.53	29556.28
605.73	30039.61
605.92	29830.71
606.12	30240.31
606.32	29924.92
606.52	29843.00
606.71	30178.87
606.91	30629.42
607.11	30068.28
607.30	30012.98
607.50	29943.35
607.70	30381.62
607.90	30543.41
608.09	30211.64
608.29	30230.07
608.49	30273.07
608.68	30256.69
608.88	30254.64
609.08	30451.25
609.28	30565.93
609.47	30096.95
609.67	30185.01
609.87	30244.40
610.06	30733.87
610.26	30293.55
610.46	30590.51
610.66	30459.44
610.85	30543.41
611.05	30256.69
611.25	30459.44
611.44	30299.70
611.64	30531.12
611.84	30195.25
612.03	30604.84
612.23	30484.01
612.43	30467.63
612.62	30602.80
612.82	30789.16
613.02	30451.25
613.21	30770.73
613.41	30471.73
613.61	30705.20
613.80	30756.39
614.00	30639.66
614.20	30871.08
614.39	30903.85
614.59	30883.37
614.79	30543.41
614.98	30633.52
615.18	30635.56
615.38	30664.24
615.57	30699.05
615.77	30934.57
615.97	31041.06
616.16	30866.98
616.36	31063.59
616.56	30959.14
616.75	30565.93
616.95	30641.71
617.15	30797.35
617.34	31012.39
617.54	30871.08
617.74	31174.18
617.93	30885.42
618.13	30856.75
618.32	30641.71
618.52	30574.13
618.72	30711.34
618.91	30742.06
619.11	30901.80
619.31	31002.15
619.50	30881.32
619.70	30817.83
619.90	30893.61
620.09	31061.54
620.29	30955.05
620.48	30981.67
620.68	31010.34
620.88	30881.32
621.07	30963.24
621.27	30729.77
621.46	30842.41
621.66	30948.90
621.86	30627.37
622.05	30764.59
622.25	30961.19
622.44	30967.34
622.64	30651.95
622.84	30754.35
623.03	30684.72
623.23	30969.38
623.42	30907.94
623.62	31272.48
623.82	30856.75
624.01	30656.04
624.21	30856.75
624.40	30709.29
624.60	30809.64
624.80	30987.82
624.99	30998.06
625.19	30443.06
625.38	30811.69
625.58	30844.46
625.77	31000.10
625.97	30862.89
626.17	30682.67
626.36	31053.35
626.56	30783.02
626.75	30934.57
626.95	30940.71
627.14	30879.27
627.34	30871.08
627.54	31016.49
627.73	31329.83
627.93	30543.41
628.12	30735.92
628.32	30793.26
628.51	30909.99
628.71	31055.40
628.90	30875.18
629.10	30953.00
629.30	31006.25
629.49	30936.62
629.69	30703.15
629.88	30912.04
630.08	31356.45
630.27	31036.97
630.47	30705.20
630.66	30881.32
630.86	30996.01
631.05	30883.37
631.25	31231.52
631.44	30967.34
631.64	30991.91
631.84	30705.20
632.03	31493.66
632.23	31315.49
632.42	31276.58
632.62	31041.06
632.81	31077.93
633.01	30998.06
633.20	31227.43
633.40	31129.12
633.59	31032.87
633.79	30744.11
633.98	30991.91
634.18	31022.63
634.37	31032.87
634.57	30889.51
634.76	31254.05
634.96	31233.57
635.15	31108.65
635.35	30852.65
635.54	30565.93
635.74	30875.18
635.93	30768.68
636.13	31258.15
636.32	31340.07
636.52	30928.42
636.71	31086.12
636.91	31100.45
637.10	31442.46
637.30	31008.29
637.49	30985.77
637.69	31141.41
637.88	31415.84
638.08	31213.09
638.27	31256.10
638.46	31139.36
638.66	30891.56
638.85	31184.42
639.05	31505.95
639.24	31327.78
639.44	30823.98
639.63	31135.27
639.83	31309.35
640.02	31266.34
640.22	30938.66
640.41	31346.21
640.61	31292.96
640.80	31387.17
640.99	31063.59
641.19	31706.65
641.38	31622.69
641.58	31309.35
641.77	31221.28
641.97	30967.34
642.16	31333.92
642.36	31202.85
642.55	31847.96
642.74	31329.83
642.94	31819.29
643.13	31417.89
643.33	31608.35
643.52	31288.87
643.72	31051.30
643.91	31718.94
644.10	31407.65
644.30	31475.23
644.49	31569.44
644.69	31499.81
644.88	31567.39
645.08	31505.95
645.27	31518.24
645.46	31163.94
645.66	31479.33
645.85	31522.34
646.05	31483.42
646.24	31577.63
646.43	31520.29
646.63	31749.66
646.82	31675.93
647.02	31567.39
647.21	31766.04
647.40	31643.17
647.60	31807.00
647.79	31759.90
647.99	31792.67
648.18	31335.97
648.37	32306.71
648.57	31698.46
648.76	31751.71
648.96	31737.37
649.15	31974.94
649.34	31682.08
649.54	31841.82
649.73	31680.03
649.92	31788.57
650.12	32060.95
650.31	31944.22
650.51	32091.67
650.70	31702.56
650.89	31747.61
651.09	32226.84
651.28	31720.99
651.47	32089.62
651.67	32019.99
651.86	32267.80
652.06	31516.19
652.25	31970.84
652.44	31622.69
652.64	31778.33
652.83	31964.70
653.02	31921.69
653.22	32046.62
653.41	31831.58
653.60	31929.88
653.80	31917.59
653.99	31725.08
654.18	31673.88
654.38	31962.65
654.57	31661.60
654.76	31866.39
654.96	31827.48
655.15	31671.84
655.34	31888.92
655.54	31733.28
655.73	32093.72
655.92	31890.97
656.12	31981.08
656.31	32071.19
656.50	31854.11
656.70	32306.71
656.89	31950.36
657.08	32171.54
657.28	31829.53
657.47	31985.18
657.66	32146.97
657.86	31802.91
658.05	32116.25
658.24	32175.64
658.43	32120.34
658.63	31931.93
658.82	32116.25
659.01	32275.99
659.21	32331.28
659.40	31983.13
659.59	31770.14
659.79	32232.98
659.98	32511.50
660.17	31901.21
660.36	31972.89
660.56	32124.44
660.75	32001.56
660.94	32171.54
661.14	32089.62
661.33	32312.85
661.52	31882.78
661.71	32183.83
661.91	31895.07
662.10	32153.11
662.29	32302.61
662.49	31940.12
662.68	32339.47
662.87	32118.29
663.06	32398.87
663.26	32198.16
663.45	32278.04
663.64	32335.38
663.83	32222.74
664.03	32433.68
664.22	32208.40
664.41	32626.19
664.60	32323.09
664.80	32085.53
664.99	32372.24
665.18	32093.72
665.37	32019.99
665.57	32265.75
665.76	32071.19
665.95	32429.59
666.14	32245.27
666.34	32353.81
666.53	32155.16
666.72	32067.09
666.91	32493.07
667.11	31876.63
667.30	32247.32
667.49	31997.46
667.68	31991.32
667.87	31944.22
668.07	32245.27
668.26	32140.82
668.45	32417.30
668.64	32132.63
668.84	32462.35
669.03	32355.86
669.22	32261.65
669.41	32722.44
669.60	32370.19
669.80	32116.25
669.99	32241.17
670.18	31966.74
670.37	32187.92
670.57	32359.95
670.76	31845.91
670.95	32554.51
671.14	32232.98
671.33	31911.45
671.53	32609.81
671.72	32151.06
671.91	32196.12
672.10	31936.02
672.29	32009.75
672.48	32042.52
672.68	32085.53
672.87	32017.94
673.06	32146.97
673.25	31833.63
673.44	32073.24
673.64	32142.87
673.83	32122.39
674.02	32153.11
674.21	31874.59
674.40	32114.20
674.59	31872.54
674.79	32052.76
674.98	32087.57
675.17	32255.51
675.36	32056.85
675.55	31989.27
675.74	31911.45
675.94	32099.86
676.13	32040.47
676.32	32017.94
676.51	32308.76
676.70	31925.78
676.89	32124.44
677.08	32173.59
677.28	32087.57
677.47	32071.19
677.66	32149.01
677.85	31880.73
678.04	32394.77
678.23	32222.74
678.42	32050.71
678.62	32177.68
678.81	32376.34
679.00	31804.95
679.19	32718.35
679.38	31954.46
679.57	32054.81
679.76	31944.22
679.96	31970.84
680.15	31960.60
680.34	32030.23
680.53	31893.02
680.72	32112.15
680.91	32036.38
681.10	31690.27
681.29	32142.87
681.48	31936.02
681.68	32054.81
681.87	31645.21
682.06	32024.09
682.25	31716.89
682.44	31485.47
682.63	31813.15
682.82	31802.91
683.01	32036.38
683.20	31727.13
683.39	31794.71
683.59	31860.25
683.78	31768.09
683.97	31817.24
684.16	31800.86
684.35	31495.71
684.54	31464.99
684.73	31850.01
684.92	31694.36
685.11	31700.51
685.30	31663.64
685.49	31776.28
685.69	31567.39
685.88	31475.23
686.07	31624.73
686.26	31659.55
686.45	31985.18
686.64	31829.53
686.83	31241.76
687.02	31761.95
687.21	31598.11
687.40	31686.17
687.59	31499.81
687.78	31772.19
687.97	31620.64
688.16	31944.22
688.35	31481.38
688.54	31317.54
688.74	31243.81
688.93	31450.66
689.12	31866.39
689.31	31739.42
689.50	31821.34
689.69	31442.46
689.88	31381.03
690.07	31532.57
690.26	31385.12
690.45	31704.60
690.64	31512.10
690.83	31307.30
691.02	31561.25
691.21	31450.66
691.40	31649.31
691.59	31376.93
691.78	31497.76
691.97	31450.66
692.16	31325.73
692.35	31503.90
692.54	31505.95
692.73	31059.49
692.92	31266.34
693.11	30688.81
693.30	31262.24
693.49	31419.94
693.68	30944.81
693.87	31000.10
694.06	31307.30
694.25	31247.91
694.44	30744.11
694.63	30783.02
694.82	31299.11
695.01	31225.38
695.20	30862.89
695.39	30674.48
695.58	31280.67
695.77	31020.58
695.96	30760.49
696.15	31106.60
696.34	30629.42
696.53	31262.24
696.72	31131.17
696.91	30891.56
697.10	31090.21
697.29	30768.68
697.48	31133.22
697.67	30791.21
697.86	30354.99
698.05	30674.48
698.24	30766.63
698.43	30559.79
698.62	30686.76
698.81	30320.18
699.00	31125.03
699.19	30516.78
699.38	30637.61
699.57	30400.05
699.76	30877.22
699.95	30330.42
700.14	30451.25
700.32	30510.64
700.51	30756.39
700.70	30760.49
700.89	30715.44
701.08	30930.47
701.27	30479.92
701.46	30719.53
701.65	30412.34
701.84	30307.89
702.03	30117.43
702.22	30750.25
702.41	30430.77
702.60	30586.41
702.79	30508.59
702.98	30387.76
703.17	30639.66
703.35	30191.16
703.54	30094.90
703.73	30719.53
703.92	30289.46
704.11	30398.00
704.30	30223.92
704.49	30240.31
704.68	29949.50
704.87	30219.83
705.06	29972.02
705.25	30340.66
705.43	29939.26
705.62	30324.27
705.81	30242.35
706.00	30084.66
706.19	29845.05
706.38	30117.43
706.57	30068.28
706.76	29949.50
706.95	30139.96
707.14	30172.72
707.32	29838.90
707.51	30021.17
707.70	29679.16
707.89	29892.15
708.08	29752.89
708.27	29961.78
708.46	30187.06
708.65	29785.66
708.84	29943.35
709.02	29967.93
709.21	30150.20
709.40	29560.38
709.59	30103.09
709.78	29462.08
709.97	30146.10
710.16	29769.27
710.34	29689.40
710.53	29826.62
710.72	29646.40
710.91	29716.03
711.10	29699.64
711.29	29818.42
711.48	29525.57
711.66	29615.68
711.85	29621.82
712.04	29664.83
712.23	29570.62
712.42	29206.08
712.61	29546.05
712.80	29462.08
712.98	29374.02
713.17	29349.44
713.36	29531.71
713.55	29417.02
713.74	29290.05
713.93	29441.60
714.11	29535.81
714.30	29093.44
714.49	29394.50
714.68	29163.08
714.87	29679.16
715.06	29537.85
715.24	29480.51
715.43	29296.19
715.62	29105.73
715.81	29236.80
716.00	28970.57
716.18	28722.76
716.37	28999.24
716.56	28876.36
716.75	29120.07
716.94	28819.02
717.12	28933.70
717.31	29150.79
717.50	28896.84
717.69	29007.43
717.88	29298.24
718.06	28685.90
718.25	29335.10
718.44	28778.06
718.63	29210.18
718.82	28601.93
719.00	28644.94
719.19	28460.62
719.38	28587.60
719.57	28474.96
719.76	28532.30
719.94	28337.74
720.13	28841.54
720.32	28325.46
720.51	28538.44
720.69	28304.98
720.88	28292.69
721.07	28472.91
721.26	28216.91
721.44	28380.75
721.63	28157.52
721.82	28143.19
722.01	28358.22
722.20	28266.06
722.38	28237.39
722.57	27903.57
722.76	28276.30
722.95	27950.68
723.13	27917.91
723.32	27975.25
723.51	27741.78
723.70	27967.06
723.88	28005.97
724.07	27639.39
724.26	27838.04
724.44	27745.88
724.63	28102.23
724.82	27928.15
725.01	27874.90
725.19	27764.31
725.38	27702.87
725.57	27952.73
725.76	27688.54
725.94	27481.69
726.13	27463.26
726.32	27475.55
726.51	27485.79
726.69	27848.28
726.88	27647.58
727.07	27516.51
727.25	27539.04
727.44	27811.42
727.63	27743.83
727.82	27459.16
728.00	27418.21
728.19	27332.19
728.38	27522.65
728.56	27293.28
728.75	27844.18
728.94	27377.25
729.12	27590.24
729.31	27688.54
729.50	27584.09
729.69	27713.11
729.87	27244.13
730.06	27534.94
730.25	27414.11
730.43	27752.02
730.62	27434.59
730.81	27221.60
730.99	27493.98
731.18	27385.44
731.37	27350.62
731.55	27864.66
731.74	27614.81
731.93	27418.21
732.11	27010.66
732.30	27430.49
732.49	27362.91
732.67	27201.12
732.86	27453.02
733.05	27426.40
733.23	27237.98
733.42	27274.85
733.61	27252.32
733.79	27158.11
733.98	27461.21
734.17	27178.59
734.35	27182.69
734.54	27328.10
734.73	27424.35
734.91	27100.77
735.10	27176.55
735.29	27170.40
735.47	27102.82
735.66	27018.85
735.84	27106.91
736.03	26914.41
736.22	27614.81
736.40	26828.39
736.59	27082.34
736.78	27211.36
736.96	26963.56
737.15	27102.82
737.33	26687.08
737.52	27106.91
737.71	26801.77
737.89	26736.23
738.08	26801.77
738.27	26701.42
738.45	27317.86
738.64	27022.95
738.82	27178.59
739.01	27000.42
739.20	26721.90
739.38	26941.03
739.57	27115.11
739.75	26920.55
739.94	27002.47
740.13	26984.04
740.31	26857.06
740.50	26809.96
740.68	26773.10
740.87	26709.61
741.06	27057.76
741.24	26570.35
741.43	26789.48
741.61	26828.39
741.80	26869.35
741.99	26656.36
742.17	26556.01
742.36	26506.86
742.54	26562.15
742.73	26596.97
742.91	26787.43
743.10	26707.56
743.29	26742.38
743.47	26611.31
743.66	26852.97
743.84	26467.95
744.03	26732.14
744.21	26607.21
744.40	26537.58
744.59	26363.50
744.77	26115.70
744.96	26637.93
745.14	26383.98
745.33	26218.10
745.51	26480.24
745.70	26578.54
745.88	26183.28
746.07	26064.50
746.26	25945.72
746.44	26117.75
746.63	26273.39
746.81	26441.32
747.00	25878.13
747.18	26295.92
747.37	26187.38
747.55	26357.36
747.74	26433.13
747.92	26138.23
748.11	26105.46
748.29	26283.63
748.48	26220.14
748.66	26142.32
748.85	26039.92
749.03	26199.66
749.22	25790.07
749.41	25675.38
749.59	26177.14
749.78	25912.95
749.96	25708.15
750.15	26076.79
750.33	26041.97
750.52	25935.48
750.70	25794.17
750.89	25941.62
751.07	25751.16
751.26	25579.13
751.44	25753.21
751.63	25466.49
751.81	25591.42
752.00	25497.21
752.18	25966.20
752.37	25745.02
752.55	25665.14
752.74	25679.48
752.92	25757.30
753.10	25572.99
753.29	25325.18
753.47	25665.14
753.66	25343.61
753.84	25497.21
754.03	25695.86
754.21	25292.41
754.40	25628.28
754.58	25581.18
754.77	25310.85
754.95	25222.78
755.14	25556.60
755.32	25450.11
755.51	25179.78
755.69	24948.36
755.88	25167.49
756.06	25460.35
756.24	25028.23
756.43	25017.99
756.61	25220.74
756.80	25026.18
756.98	25030.27
757.17	25249.41
757.35	25333.37
757.54	25169.54
757.72	24745.61
757.90	25177.73
758.09	24997.51
758.27	25196.16
758.46	24680.07
758.64	24985.22
758.83	25284.22
759.01	24891.01
759.19	24956.55
759.38	25140.86
759.56	25065.09
759.75	24725.13
759.93	24823.43
760.12	24663.69
760.30	24987.27
760.48	24446.60
760.67	24956.55
760.85	24663.69
761.04	24774.28
761.22	24886.92
761.40	24456.84
761.59	24448.65
761.77	24569.48
761.96	24469.13
762.14	24497.80
762.32	24528.52
762.51	24317.58
762.69	24649.35
762.88	24170.13
763.06	24426.12
763.24	24661.64
763.43	24514.19
763.61	24313.48
763.80	24483.47
763.98	24067.73
764.16	24077.97
764.35	24108.69
764.53	23938.71
764.72	24438.41
764.90	24147.60
765.08	24350.35
765.27	24227.47
765.45	24096.40
765.63	23787.16
765.82	24024.72
766.00	23848.60
766.18	23852.69
766.37	24024.72
766.55	24041.11
766.74	24364.68
766.92	24114.83
767.10	23924.37
767.29	24163.98
767.47	23631.51
767.65	23572.12
767.84	23781.01
768.02	23869.08
768.20	23428.76
768.39	23621.27
768.57	23563.93
768.75	23674.52
768.94	23846.55
769.12	23848.60
769.30	23717.53
769.49	23778.97
769.67	23299.74
769.85	23430.81
770.04	23697.05
770.22	23383.71
770.40	23533.21
770.59	23350.94
770.77	23410.33
770.95	23490.20
771.14	23242.40
771.32	23111.33
771.50	23068.32
771.69	23412.38
771.87	23598.74
772.05	23107.23
772.24	23031.46
772.42	23334.56
772.60	23031.46
772.78	23166.62
772.97	22922.91
773.15	23146.14
773.33	23137.95
773.52	23017.12
773.70	23418.52
773.88	23125.66
774.07	22953.63
774.25	23062.18
774.43	23193.25
774.61	22789.80
774.80	23361.18
774.98	23072.42
775.16	23314.08
775.34	23015.07
775.53	23084.70
775.71	23250.59
775.89	23029.41
776.08	23031.46
776.26	23039.65
776.44	22955.68
776.62	22906.53
776.81	23082.66
776.99	23199.39
777.17	23060.13
777.35	23238.30
777.54	23176.86
777.72	23078.56
777.90	23176.86
778.08	23266.97
778.27	23146.14
778.45	23408.28
778.63	23443.10
778.81	23039.65
779.00	23490.20
779.18	23158.43
779.36	23715.48
779.54	23269.02
779.73	22947.49
779.91	23170.72
780.09	23307.93
780.27	23420.57
780.46	23314.08
780.64	23473.82
780.82	23330.46
781.00	23269.02
781.19	23277.21
781.37	23436.95
781.55	23398.04
781.73	23781.01
781.91	23608.98
782.10	23551.64
782.28	23645.85
782.46	23606.94
782.64	23510.68
782.82	23326.36
783.01	23441.05
783.19	23314.08
783.37	23688.85
783.55	23504.54
783.74	23666.33
783.92	23473.82
784.10	23899.80
784.28	23656.09
784.46	23492.25
784.64	23344.80
784.83	23830.16
785.01	23625.37
785.19	23279.26
785.37	23553.69
785.55	23457.43
785.74	23598.74
785.92	23092.90
786.10	23557.78
786.28	23555.74
786.46	23312.03
786.64	23045.79
786.83	23559.83
787.01	23508.63
787.19	23420.57
787.37	23215.77
787.55	23396.00
787.74	23383.71
787.92	23164.57
788.10	23273.12
788.28	22953.63
788.46	23154.33
788.64	23266.97
788.82	23322.27
789.01	23029.41
789.19	23195.29
789.37	22757.03
789.55	22902.43
789.73	22726.31
789.91	22597.29
790.09	23027.36
790.28	22834.85
790.46	22775.46
790.64	22888.10
790.82	22668.97
791.00	22376.11
791.18	22601.38
791.36	22421.16
791.55	23035.55
791.73	22568.62
791.91	22464.17
792.09	22343.34
792.27	22349.48
792.45	22501.03
792.63	22537.90
792.81	22439.59
793.00	22417.07
793.18	22337.20
793.36	22369.96
793.54	22498.98
793.72	22107.82
793.90	22032.05
794.08	22109.87
794.26	22156.97
794.44	21845.68
794.62	22062.77
794.81	21790.39
794.99	22144.69
795.17	21862.07
795.35	21894.83
795.53	21526.20
795.71	21933.75
795.89	21669.56
796.07	21718.71
796.25	21413.56
796.43	21221.05
796.61	21468.86
796.80	21515.96
796.98	21352.12
797.16	21440.18
797.34	21245.63
797.52	21356.22
797.70	21202.62
797.88	21063.36
798.06	21188.28
798.24	21296.83
798.42	21223.10
798.60	20911.81
798.78	21159.61
798.96	21102.27
799.14	20659.91
799.32	21186.24
799.51	20844.23
799.69	21206.72
799.87	20954.82
800.05	20833.99
800.23	20416.20
800.41	20477.64
800.59	20680.39
800.77	20551.37
800.95	20428.49
801.13	20596.42
801.31	20422.34
801.49	20412.10
801.67	20164.30
801.85	20131.53
802.03	19988.18
802.21	20334.28
802.39	19953.36
802.57	20102.86
802.75	20215.50
802.93	19928.78
803.11	19783.38
803.29	19853.01
803.47	19824.34
803.65	19721.94
803.83	19554.01
804.01	19568.34
804.19	19586.77
804.37	19709.65
804.55	19656.40
804.73	19572.44
804.91	19424.98
805.09	19746.51
805.27	19699.41
805.45	19607.25
805.63	19427.03
805.81	19115.74
805.99	19424.98
806.17	19590.87
806.35	19277.53
806.53	19304.15
806.71	19111.64
806.89	18804.45
807.07	19222.23
807.25	19255.00
807.43	18974.43
807.61	19193.56
807.79	18738.91
807.97	18841.31
808.15	19070.68
808.33	18757.35
808.51	18925.28
808.69	18777.83
808.87	18759.39
809.05	18802.40
809.23	18554.60
809.41	18609.89
809.59	18530.02
809.77	18849.50
809.95	18538.21
810.13	18597.60
810.31	18343.66
810.49	18444.01
810.67	18470.63
810.84	18607.84
811.02	18425.57
811.20	18097.90
811.38	18390.76
811.56	17989.36
811.74	18321.13
811.92	17970.93
812.10	18204.39
812.28	18175.72
812.46	18175.72
812.64	18020.08
812.82	17862.38
813.00	18011.89
813.18	18122.48
813.36	17897.20
813.53	17968.88
813.71	17821.42
813.89	17909.49
814.07	17841.90
814.25	17833.71
814.43	17671.92
814.61	17942.25
814.79	17749.75
814.97	17645.30
815.15	17553.14
815.33	17633.01
815.50	17491.70
815.68	17610.48
815.86	17487.61
816.04	17344.25
816.22	17444.60
816.40	17649.39
816.58	17340.15
816.76	17262.33
816.94	17315.58
817.11	17325.82
817.29	17317.62
817.47	17358.58
817.65	17069.82
817.83	17280.76
818.01	16809.73
818.19	17121.02
818.37	17098.49
818.54	16965.37
818.72	17014.52
818.90	17190.65
819.08	17000.19
819.26	16850.69
819.44	16985.85
819.62	17075.96
819.80	16908.03
819.97	16924.41
820.15	16789.25
820.33	16901.89
820.51	16836.35
820.69	16580.36
820.87	16860.93
821.05	16711.42
821.22	16799.49
821.40	16725.76
821.58	16539.40
821.76	16553.73
821.94	16699.14
822.12	16525.06
822.29	16600.83
822.47	16488.20
822.65	16398.09
822.83	16424.71
823.01	16490.24
823.19	16365.32
823.36	16375.56
823.54	16422.66
823.72	16250.63
823.90	16355.08
824.08	16062.22
824.25	16320.26
824.43	15871.76
824.61	16015.12
824.79	16267.02
824.97	16021.26
825.15	16260.87
825.32	16072.46
825.50	16137.99
825.68	15908.62
825.86	16230.15
826.04	16045.84
826.21	16094.99
826.39	15994.64
826.57	15822.61
826.75	15890.19
826.93	15699.73
827.10	15875.85
827.28	15879.95
827.46	15929.10
827.64	15953.68
827.81	15974.16
827.99	15619.86
828.17	15867.66
828.35	15626.00
828.53	15544.08
828.70	15288.09
828.88	15619.86
829.06	15640.34
829.24	15441.68
829.41	15458.07
829.59	15685.39
829.77	15570.71
829.95	15611.67
830.12	15398.68
830.30	15408.92
830.48	15460.12
830.66	15488.79
830.84	15642.39
831.01	15531.80
831.19	15312.66
831.37	15261.46
831.55	15230.74
831.72	15390.49
831.90	15132.44
832.08	15519.51
832.25	15380.25
832.43	15208.22
832.61	15302.42
832.79	15120.15
832.96	15339.29
833.14	15273.75
833.32	15191.83
833.50	15218.46
833.67	15372.05
833.85	15017.75
834.03	14849.82
834.20	15152.92
834.38	15167.26
834.56	15263.51
834.74	15095.58
834.91	15195.93
835.09	14968.60
835.27	15017.75
835.44	15071.00
835.62	14769.95
835.80	14800.67
835.98	15001.37
836.15	14931.74
836.33	14845.73
836.51	14921.50
836.68	14765.85
836.86	14769.95
837.04	14757.66
837.21	14810.91
837.39	14702.37
837.57	15030.04
837.75	14806.81
837.92	14511.91
838.10	14597.92
838.28	14483.24
838.45	14413.60
838.63	14589.73
838.81	14624.54
838.98	14477.09
839.16	14454.56
839.34	14663.46
839.51	14417.70
839.69	14327.59
839.87	14393.12
840.04	14440.23
840.22	14651.17
840.40	14561.06
840.57	14362.40
840.75	14364.45
840.93	14079.79
841.10	14331.69
841.28	14434.08
841.46	14167.85
841.63	14313.25
841.81	14153.51
841.98	14343.97
842.16	14386.98
842.34	14303.01
842.51	14026.54
842.69	14210.86
842.87	14137.13
843.04	14237.48
843.22	14022.44
843.40	14155.56
843.57	14147.37
843.75	14176.04
843.92	14329.64
844.10	13979.43
844.28	13918.00
844.45	13989.67
844.63	13983.53
844.81	13856.56
844.98	13852.46
845.16	14012.20
845.33	13969.19
845.51	13782.83
845.69	13905.71
845.86	13885.23
846.04	13791.02
846.21	13739.82
846.39	13776.69
846.57	13885.23
846.74	13616.94
846.92	13883.18
847.09	13721.39
847.27	13575.98
847.45	13823.79
847.62	13799.21
847.80	13526.83
847.97	13455.15
848.15	13846.32
848.32	13514.55
848.50	13600.56
848.68	13512.50
848.85	13442.87
849.03	13340.47
849.20	13537.07
849.38	13639.47
849.56	13657.90
849.73	13330.23
849.91	13674.29
850.08	13537.07
850.26	13311.80
850.43	13346.61
850.61	13504.31
850.78	13080.38
850.96	13377.33
851.14	13051.70
851.31	13367.09
851.49	13305.65
851.66	13354.80
851.84	13487.92
852.01	13434.68
852.19	13381.43
852.36	13377.33
852.54	13399.86
852.71	13264.69
852.89	13233.97
853.07	13010.75
853.24	13166.39
853.42	13111.10
853.59	13123.38
853.77	13084.47
853.94	13150.01
854.12	13184.82
854.29	13014.84
854.47	13162.30
854.64	12945.21
854.82	12963.64
854.99	13113.14
855.17	12826.43
855.34	12898.11
855.52	13072.18
855.69	13004.60
855.87	12873.53
856.04	12592.96
856.22	12625.73
856.39	12762.94
856.57	12848.96
856.74	12832.57
856.92	12988.22
857.09	12859.20
857.27	12805.95
857.44	12969.79
857.62	12721.98
857.79	12652.35
857.97	12898.11
858.14	12939.07
858.32	12715.84
858.49	12664.64
858.67	12746.56
858.84	12562.24
859.02	12666.69
859.19	12416.83
859.37	12468.03
859.54	12646.21
859.72	12625.73
859.89	12699.45
860.06	12523.33
860.24	12334.92
860.41	12453.70
860.59	12361.54
860.76	12455.75
860.94	12390.21
861.11	12519.23
861.29	12654.40
861.46	12500.80
861.64	12367.68
861.81	12416.83
861.98	12236.61
862.16	12273.48
862.33	12224.33
862.51	12156.74
862.68	12631.87
862.86	12169.03
863.03	12162.89
863.21	12283.72
863.38	12310.34
863.55	12046.15
863.73	12248.90
863.90	12035.91
864.08	12070.73
864.25	12062.54
864.43	12283.72
864.60	11933.51
864.77	12001.10
864.95	12013.38
865.12	11808.59
865.30	12285.76
865.47	11900.75
865.64	11939.66
865.82	12099.40
865.99	12115.78
866.17	12042.06
866.34	12126.02
866.51	11704.14
866.69	11880.27
866.86	12103.50
867.04	11822.92
867.21	11781.96
867.38	11620.17
867.56	11894.60
867.73	11761.48
867.91	11765.58
868.08	11712.33
868.25	11525.97
868.43	11720.53
868.60	11595.60
868.78	11702.09
868.95	11652.94
869.12	11849.55
869.30	11640.65
869.47	11536.21
869.64	11642.70
869.82	11599.70
869.99	11548.50
870.16	11669.33
870.34	11517.78
870.51	11632.46
870.69	11308.88
870.86	11482.96
871.03	11456.34
871.21	11491.15
871.38	11466.58
871.55	11233.11
871.73	11263.83
871.90	11513.68
872.07	11095.89
872.25	11329.36
872.42	11155.29
872.59	11339.60
872.77	11243.35
872.94	11126.61
873.11	11089.75
873.29	11304.79
873.46	11116.37
873.63	11132.76
873.81	11140.95
873.98	11003.74
874.15	10948.44
874.33	10899.29
874.50	11079.51
874.67	11026.26
874.85	11007.83
875.02	10944.34
875.19	10938.20
875.37	10887.00
875.54	10870.62
875.71	10948.44
875.88	10848.09
876.06	10911.58
876.23	10686.30
876.40	10665.82
876.58	10710.88
876.75	10811.23
876.92	10755.93
877.10	10676.06
877.27	10800.99
877.44	10628.96
877.61	10635.10
877.79	10661.73
877.96	10727.26
878.13	10667.87
878.31	10491.74
878.48	10635.10
878.65	10778.46
878.82	10420.06
879.00	10616.67
879.17	10434.40
879.34	10643.29
879.51	10383.20
879.69	10407.78
879.86	10370.91
880.03	10252.13
880.21	10309.47
880.38	10284.90
880.55	10448.74
880.72	10291.04
880.90	10319.71
881.07	10264.42
881.24	10456.93
881.41	10325.86
881.59	10303.33
881.76	10317.67
881.93	10176.36
882.10	10141.54
882.28	10096.49
882.45	10198.88
882.62	10194.79
882.79	10315.62
882.96	10026.86
883.14	10121.06
883.31	10033.00
883.48	10039.14
883.65	10112.87
883.83	9998.18
884.00	10073.96
884.17	9910.12
884.34	9936.74
884.51	10047.33
884.69	9889.64
884.86	10014.57
885.03	10108.77
885.20	9734.00
885.38	10078.05
885.55	9725.80
885.72	9887.59
885.89	9832.30
886.06	9994.09
886.24	9959.27
886.41	9797.48
886.58	10086.25
886.75	9949.03
886.92	9889.64
887.10	9914.22
887.27	9758.57
887.44	9885.55
887.61	9852.78
887.78	9842.54
887.95	9654.12
888.13	9594.73
888.30	9607.02
888.47	9875.31
888.64	9629.55
888.81	9774.95
888.99	9639.79
889.16	9729.90
889.33	9391.98
889.50	9637.74
889.67	9518.96
889.84	9631.60
890.01	9500.53
890.19	9594.73
890.36	9607.02
890.53	9604.97
890.70	9181.04
890.87	9789.29
891.04	9580.40
891.22	9389.94
891.39	9244.53
891.56	9404.27
891.73	9379.70
891.90	9322.35
892.07	9209.72
892.24	9455.47
892.42	9211.76
892.59	9121.65
892.76	9469.81
892.93	9473.90
893.10	9283.44
893.27	9351.03
893.44	9201.52
893.61	9303.92
893.79	9330.55
893.96	9074.55
894.13	9291.63
894.30	9197.43
894.47	9140.08
894.64	9369.46
894.81	9179.00
894.98	9039.73
895.15	9146.23
895.33	9269.11
895.50	9211.76
895.67	9285.49
895.84	9121.65
896.01	9015.16
896.18	9054.07
896.35	9166.71
896.52	9056.12
896.69	9166.71
896.86	9015.16
897.04	9123.70
897.21	9199.48
897.38	9197.43
897.55	9135.99
897.72	9207.67
897.89	9021.30
898.06	9310.07
898.23	9197.43
898.40	9195.38
898.57	9224.05
898.74	9193.33
898.91	9133.94
899.08	9193.33
899.26	9234.29
899.43	9189.24
899.60	9078.65
899.77	9215.86
899.94	9015.16
900.11	8853.37
900.28	8890.23
900.45	8982.39
900.62	9027.45
900.79	9222.00
900.96	8974.20
901.13	9033.59
901.30	8935.29
901.47	8769.40
901.64	8898.42
901.81	9181.04
901.98	8894.33
902.15	9047.93
902.32	8746.87
902.49	9056.12
902.66	9023.35
902.83	9086.84
903.01	9103.22
903.18	9117.56
903.35	9062.26
903.52	8861.56
903.69	9084.79
903.86	9035.64
904.03	9041.78
904.20	9076.60
904.37	9187.19
904.54	8929.14
904.71	9148.28
904.88	8953.72
905.05	8974.20
905.22	9176.95
905.39	8929.14
905.56	9228.15
905.73	8947.58
905.90	8988.53
906.07	9023.35
906.24	9117.56
906.41	8994.68
906.58	8978.30
906.75	8992.63
906.92	8855.42
907.09	8982.39
907.26	9064.31
907.43	8826.75
907.60	8945.53
907.77	9154.42
907.93	9002.87
908.10	8961.91
908.27	9080.69
908.44	8853.37
908.61	8750.97
908.78	8847.22
908.95	9107.32
909.12	8925.05
909.29	8875.90
909.46	8867.70
909.63	8888.18
909.80	9056.12
909.97	8812.41
910.14	8884.09
910.31	8830.84
910.48	8902.52
910.65	8699.77
910.82	8789.88
910.99	8871.80
911.16	8857.46
911.33	8744.83
911.50	8693.63
911.66	8703.87
911.83	8832.89
912.00	8753.02
912.17	8580.99
912.34	8578.94
912.51	8736.63
912.68	8544.13
912.85	8796.03
913.02	8691.58
913.19	8603.52
913.36	8654.72
913.53	8632.19
913.70	8402.82
913.86	8710.01
914.03	8398.72
914.20	8613.76
914.37	8552.32
914.54	8556.41
914.71	8423.30
914.88	8503.17
915.05	8478.59
915.22	8228.74
915.39	8529.79
915.55	8540.03
915.72	8468.35
915.89	8284.03
916.06	8236.93
916.23	8294.27
916.40	8220.55
916.57	8089.48
916.74	8105.86
916.91	8306.56
917.07	8210.31
917.24	8060.80
917.41	8361.86
917.58	8224.64
917.75	8021.89
917.92	7925.64
918.09	8048.52
918.26	8222.59
918.42	8165.25
918.59	7894.92
918.76	8036.23
918.93	7802.76
919.10	7798.66
919.27	7909.26
919.44	7939.97
919.60	7972.74
919.77	7794.57
919.94	7645.07
920.11	7909.26
920.28	7989.13
920.45	7696.27
920.61	7690.12
920.78	7827.34
920.95	7839.62
921.12	7702.41
921.29	7475.09
921.46	7360.40
921.62	7202.71
921.79	7610.25
921.96	7536.52
922.13	7559.05
922.30	7401.36
922.47	7346.06
922.63	7360.40
922.80	7186.32
922.97	7153.55
923.14	7049.11
923.31	7069.59
923.47	7188.37
923.64	7192.47
923.81	7251.86
923.98	7147.41
924.15	7016.34
924.32	6944.66
924.48	6977.43
924.65	7311.25
924.82	6858.65
924.99	6993.81
925.15	6801.30
925.32	6989.72
925.49	6717.34
925.66	6954.90
925.83	6688.67
925.99	6795.16
926.16	6944.66
926.33	6750.10
926.50	6342.56
926.67	6657.95
926.83	6578.08
927.00	6789.02
927.17	6690.71
927.34	6252.45
927.50	6391.71
927.67	6487.96
927.84	6537.12
928.01	6500.25
928.17	6285.22
928.34	6295.46
928.51	6272.93
928.68	6311.84
928.84	6094.76
929.01	5994.40
929.18	6162.34
929.35	6045.60
929.51	6055.84
929.68	5853.09
929.85	5730.22
930.02	5951.40
930.18	6049.70
930.35	5883.81
930.52	5777.32
930.69	5965.73
930.85	5650.35
931.02	5789.61
931.19	5705.64
931.36	5853.09
931.52	5695.40
931.69	5746.60
931.86	5773.22
932.02	5531.56
932.19	5412.78
932.36	5566.38
932.53	5531.56
932.69	5463.98
932.86	5392.30
933.03	5547.95
933.19	5148.59
933.36	5207.98
933.53	5361.58
933.70	5511.08
933.86	5203.89
934.03	5091.25
934.20	4839.35
934.36	5265.33
934.53	4710.33
934.70	4730.81
934.86	4919.22
935.03	4702.14
935.20	4954.04
935.36	4935.60
935.53	4468.67
935.70	4456.38
935.86	4599.74
936.03	4325.31
936.20	4124.61
936.36	4274.11
936.53	4202.43
936.70	4276.16
936.86	4497.34
937.03	4501.44
937.20	3989.44
937.36	4501.44
937.53	3598.28
937.70	4030.40
937.86	3766.21
938.03	3905.48
938.20	4370.37
938.36	3844.04
938.53	3782.60
938.70	3373.00
938.86	3696.58
939.03	3395.53
939.20	3479.50
939.36	3209.17
939.53	3364.81
939.70	3424.20
939.86	3448.78
940.03	3286.99
940.19	3260.37
940.36	3241.93
940.53	3194.83
940.69	2779.09
940.86	3114.96
941.03	2914.26
941.19	2822.10
941.36	3030.99
941.52	2772.95
941.69	2613.21
941.86	3020.75
942.02	3147.73
942.19	2805.72
942.35	2568.15
942.52	2668.50
942.69	2656.22
942.85	2412.51
943.02	2580.44
943.18	2502.62
943.35	2738.13
943.52	2439.13
943.68	2459.61
943.85	2582.49
944.01	2682.84
944.18	2412.51
944.35	2574.30
944.51	2349.02
944.68	2416.60
944.84	2129.89
945.01	2361.31
945.17	2492.38
945.34	2521.05
945.51	2441.18
945.67	2365.40
945.84	2183.13
946.00	2068.45
946.17	2404.32
946.33	2150.37
946.50	2385.88
946.67	2209.76
946.83	2215.90
947.00	2367.45
947.16	2318.30
947.33	2183.13
947.49	2400.22
947.66	2070.50
947.82	2228.19
947.99	2007.01
948.16	2502.62
948.32	2129.89
948.49	2310.11
948.65	2422.75
948.82	2236.38
948.98	2086.88
949.15	1968.10
949.31	2164.70
949.48	2191.33
949.64	2236.38
949.81	2166.75
949.97	2146.27
950.14	2162.66
950.30	2109.41
950.47	2537.43
950.63	2101.22
950.80	2181.09
950.96	2181.09
951.13	2240.48
951.30	2441.18
951.46	2080.74
951.63	2383.84
951.79	2394.08
951.96	2559.96
952.12	2326.49
952.29	2389.98
952.45	1998.82
952.62	2248.67
952.78	2224.09
952.94	2254.81
953.11	2301.92
953.27	2076.64
953.44	2334.68
953.60	2594.78
953.77	2189.28
953.93	2318.30
954.10	2242.53
954.26	2265.05
954.43	2191.33
954.59	2459.61
954.76	2402.27
954.92	2258.91
955.09	2289.63
955.25	2226.14
955.42	2277.34
955.58	2547.67
955.75	2258.91
955.91	2043.87
956.07	2117.60
956.24	2371.55
956.40	2193.37
956.57	2211.81
956.73	2056.16
956.90	2353.12
957.06	2150.37
957.23	1990.63
957.39	2047.97
957.56	2437.08
957.72	2133.98
957.88	1974.24
958.05	2211.81
958.21	2316.25
958.38	2183.13
958.54	2193.37
958.71	2355.16
958.87	2236.38
959.03	2025.44
959.20	2220.00
959.36	2076.64
959.53	2279.39
959.69	2084.83
959.85	2385.88
960.02	1968.10
960.18	2195.42
960.35	2215.90
960.51	2265.05
960.68	2154.46
960.84	2197.47
961.00	2070.50
961.17	2097.12
961.33	2117.60
961.50	2125.79
961.66	2260.96
961.82	2099.17
961.99	2136.03
962.15	2066.40
962.31	2107.36
962.48	2068.45
962.64	2095.07
962.81	2086.88
962.97	1992.67
963.13	2394.08
963.30	2088.93
963.46	1992.67
963.62	1902.56
963.79	1980.39
963.95	2050.02
964.12	2099.17
964.28	2224.09
964.44	1970.15
964.61	2271.20
964.77	2103.26
964.93	2224.09
965.10	2086.88
965.26	2093.02
965.42	1949.67
965.59	1951.71
965.75	2084.83
965.92	2023.39
966.08	1904.61
966.24	2150.37
966.41	2158.56
966.57	2191.33
966.73	2187.23
966.90	2127.84
967.06	2193.37
967.22	1966.05
967.39	2027.49
967.55	2060.26
967.71	1980.39
967.88	1966.05
968.04	2131.94
968.20	2103.26
968.37	2205.66
968.53	1886.18
968.69	1974.24
968.85	2211.81
969.02	1912.80
969.18	2043.87
969.34	1931.23
969.51	2023.39
969.67	2027.49
969.83	1937.38
970.00	2260.96
970.16	2101.22
970.32	2105.31
970.48	2392.03
970.65	2031.58
970.81	1968.10
970.97	2191.33
971.14	1812.45
971.30	2203.61
971.46	2076.64
971.63	2150.37
971.79	2090.98
971.95	2146.27
972.11	2027.49
972.28	2121.70
972.44	2041.82
972.60	1918.95
972.76	1988.58
972.93	1961.95
973.09	2082.78
973.25	1998.82
973.42	1929.19
973.58	2205.66
973.74	2107.36
973.90	2060.26
974.07	1714.15
974.23	2117.60
974.39	1994.72
974.55	1964.00
974.72	1902.56
974.88	1945.57
975.04	2047.97
975.20	1968.10
975.37	1904.61
975.53	1998.82
975.69	2033.63
975.85	2017.25
976.01	1871.84
976.18	1939.43
976.34	1904.61
976.50	1982.43
976.66	2066.40
976.83	1953.76
976.99	1898.47
977.15	1959.91
977.31	1781.73
977.47	1992.67
977.64	1933.28
977.80	1986.53
977.96	1851.36
978.12	2007.01
978.29	1900.52
978.45	1916.90
978.61	1796.07
978.77	1898.47
978.93	1945.57
979.10	1882.08
979.26	1847.27
979.42	1964.00
979.58	1783.78
979.74	1808.36
979.91	1808.36
980.07	1802.21
980.23	1812.45
980.39	1863.65
980.55	1945.57
980.71	1902.56
980.88	1904.61
981.04	1828.84
981.20	1796.07
981.36	1843.17
981.52	1890.28
981.68	1716.20
981.85	1990.63
982.01	1781.73
982.17	1775.59
982.33	1775.59
982.49	1996.77
982.65	1822.69
982.82	1851.36
982.98	1761.25
983.14	1808.36
983.30	1849.32
983.46	1785.83
983.62	2031.58
983.79	1824.74
983.95	1757.16
984.11	1726.44
984.27	1896.42
984.43	1814.50
984.59	1849.32
984.75	1923.04
984.91	1777.64
985.08	1859.56
985.24	1691.62
985.40	1757.16
985.56	1804.26
985.72	1918.95
985.88	1892.32
986.04	1845.22
986.20	1730.53
986.37	1777.64
986.53	1779.68
986.69	1869.80
986.85	1877.99
987.01	1640.42
987.17	1892.32
987.33	1753.06
987.49	1751.01
987.65	1826.79
987.82	1746.92
987.98	1652.71
988.14	1746.92
988.30	1877.99
988.46	1701.86
988.62	1798.12
988.78	1755.11
988.94	1765.35
989.10	1775.59
989.26	1761.25
989.42	1841.12
989.59	1769.44
989.75	1818.60
989.91	1818.60
990.07	1648.61
990.23	1832.93
990.39	1746.92
990.55	1804.26
990.71	1724.39
990.87	1791.97
991.03	1908.71
991.19	1689.57
991.35	1716.20
991.51	1708.01
991.67	1886.18
991.83	1765.35
992.00	1769.44
992.16	1804.26
992.32	1773.54
992.48	1767.40
992.64	1691.62
992.80	1650.66
992.96	1730.53
993.12	1773.54
993.28	1773.54
993.44	1630.18
993.60	1839.08
993.76	1767.40
993.92	1765.35
994.08	1841.12
994.24	1705.96
994.40	1728.49
994.56	1808.36
994.72	1640.42
994.88	1687.53
995.04	1769.44
995.20	1732.58
995.36	1759.21
995.52	1787.88
995.68	1755.11
995.84	1607.66
996.00	1869.80
996.16	1699.81
996.32	1720.29
996.48	1650.66
996.64	1904.61
996.80	1689.57
996.96	1806.31
997.12	1675.24
997.28	1705.96
997.44	1644.52
997.60	1730.53
997.76	1761.25
997.92	1728.49
998.08	1828.84
998.24	1642.47
998.40	1665.00
998.56	1773.54
998.72	1697.77
998.88	1716.20
999.04	1697.77
999.20	1769.44
999.36	1681.38
999.52	1804.26
999.68	1660.90
999.84	1675.24
1000.00	1714.15
1000.16	1765.35
1000.32	1673.19
1000.48	1800.16
1000.64	1650.66
1000.80	1689.57
1000.95	1597.42
1001.11	1787.88
1001.27	1652.71
1001.43	1712.10
1001.59	1734.63
1001.75	1619.94
1001.91	1746.92
1002.07	1675.24
1002.23	1609.70
1002.39	1634.28
1002.55	1568.74
1002.71	1601.51
1002.87	1683.43
1003.03	1683.43
1003.19	1699.81
1003.34	1841.12
1003.50	1601.51
1003.66	1777.64
1003.82	1701.86
1003.98	1652.71
1004.14	1746.92
1004.30	1683.43
1004.46	1716.20
1004.62	1759.21
1004.78	1626.09
1004.94	1699.81
1005.09	1730.53
1005.25	1767.40
1005.41	1740.77
1005.57	1619.94
1005.73	1667.05
1005.89	1632.23
1006.05	1738.73
1006.21	1691.62
1006.37	1646.57
1006.52	1632.23
1006.68	1644.52
1006.84	1769.44
1007.00	1656.81
1007.16	1773.54
1007.32	1609.70
1007.48	1667.05
1007.64	1642.47
1007.79	1642.47
1007.95	1615.85
1008.11	1667.05
1008.27	1681.38
1008.43	1660.90
1008.59	1609.70
1008.75	1687.53
1008.91	1712.10
1009.06	1619.94
1009.22	1650.66
1009.38	1712.10
1009.54	1665.00
1009.70	1699.81
1009.86	1693.67
1010.01	1730.53
1010.17	1630.18
1010.33	1712.10
1010.49	1689.57
1010.65	1689.57
1010.81	1593.32
1010.96	1685.48
1011.12	1568.74
1011.28	1667.05
1011.44	1800.16
1011.60	1656.81
1011.76	1607.66
1011.91	1679.33
1012.07	1535.98
1012.23	1585.13
1012.39	1605.61
1012.55	1634.28
1012.71	1660.90
1012.86	1695.72
1013.02	1650.66
1013.18	1578.98
1013.34	1634.28
1013.50	1708.01
1013.65	1708.01
1013.81	1640.42
1013.97	1640.42
1014.13	1624.04
1014.29	1611.75
1014.44	1787.88
1014.60	1626.09
1014.76	1679.33
1014.92	1683.43
1015.07	1671.14
1015.23	1718.25
1015.39	1597.42
1015.55	1619.94
1015.71	1683.43
1015.86	1550.31
1016.02	1556.46
1016.18	1560.55
1016.34	1632.23
1016.49	1638.38
1016.65	1669.09
1016.81	1585.13
1016.97	1691.62
1017.12	1751.01
1017.28	1587.18
1017.44	1560.55
1017.60	1542.12
1017.75	1728.49
1017.91	1585.13
1018.07	1628.14
1018.23	1695.72
1018.38	1642.47
1018.54	1687.53
1018.70	1691.62
1018.86	1640.42
1019.01	1658.85
1019.17	1718.25
1019.33	1777.64
1019.49	1593.32
1019.64	1712.10
1019.80	1669.09
1019.96	1628.14
1020.12	1685.48
1020.27	1607.66
1020.43	1621.99
1020.59	1679.33
1020.74	1705.96
1020.90	1714.15
1021.06	1609.70
1021.22	1658.85
1021.37	1654.76
1021.53	1587.18
1021.69	1662.95
1021.84	1544.17
1022.00	1574.89
1022.16	1667.05
1022.31	1634.28
1022.47	1673.19
1022.63	1708.01
1022.79	1556.46
1022.94	1601.51
1023.10	1732.58
1023.26	1581.03
1023.41	1615.85
1023.57	1613.80
1023.73	1611.75
1023.88	1685.48
1024.04	1591.27
1024.20	1613.80
1024.35	1646.57
1024.51	1568.74
1024.67	1581.03
1024.82	1701.86
1024.98	1644.52
1025.14	1720.29
1025.29	1589.22
1025.45	1642.47
1025.61	1605.61
1025.76	1593.32
1025.92	1630.18
1026.08	1652.71
1026.23	1619.94
1026.39	1632.23
1026.55	1642.47
1026.70	1693.67
1026.86	1589.22
1027.02	1683.43
1027.17	1634.28
1027.33	1648.61
1027.48	1654.76
1027.64	1611.75
1027.80	1576.94
1027.95	1673.19
1028.11	1542.12
1028.27	1650.66
1028.42	1638.38
1028.58	1644.52
1028.73	1568.74
1028.89	1519.59
1029.05	1714.15
1029.20	1697.77
>>>>>End Processed Spectral Data<<<<<
