SpectraSuite Data File
++++++++++++++++++++++++++++++++++++
Date: Fri Jun 02 14:44:36 CEST 2017
User: INFO_000
Dark Spectrum Present: No
Reference Spectrum Present: No
Number of Sampled Component Spectra: 1
Spectrometers: USB4H00879
Integration Time (usec): 80000 (USB4H00879)
Spectra Averaged: 1 (USB4H00879)
Boxcar Smoothing: 0 (USB4H00879)
Correct for Electrical Dark: No (USB4H00879)
Strobe/Lamp Enabled: No (USB4H00879)
Correct for Detector Non-linearity: No (USB4H00879)
Correct for Stray Light: No (USB4H00879)
Number of Pixels in Processed Spectrum: 3648
>>>>>Begin Processed Spectral Data<<<<<
345.13	1298.41
345.34	1298.41
345.56	1298.41
345.78	1261.55
345.99	1249.26
346.21	1673.19
346.42	1667.05
346.64	1650.66
346.86	1789.92
347.07	1667.05
347.29	1679.33
347.50	1558.50
347.72	1628.14
347.94	1781.73
348.15	1517.54
348.37	1593.32
348.59	1705.96
348.80	1640.42
349.02	1847.27
349.23	1939.43
349.45	1851.36
349.67	1882.08
349.88	1783.78
350.10	1957.86
350.31	1884.13
350.53	1765.35
350.75	1982.43
350.96	1794.02
351.18	1880.04
351.39	1849.32
351.61	1789.92
351.82	1818.60
352.04	1955.81
352.26	1828.84
352.47	1886.18
352.69	1875.94
352.90	1685.48
353.12	1859.56
353.34	1837.03
353.55	1851.36
353.77	1886.18
353.98	1796.07
354.20	1814.50
354.41	1892.32
354.63	1888.23
354.85	1988.58
355.06	1894.37
355.28	1767.40
355.49	1949.67
355.71	1888.23
355.92	1869.80
356.14	1871.84
356.35	1871.84
356.57	1861.60
356.79	1929.19
357.00	1839.08
357.22	1894.37
357.43	1824.74
357.65	1937.38
357.86	1777.64
358.08	1935.33
358.29	1873.89
358.51	1947.62
358.72	1984.48
358.94	1916.90
359.16	1902.56
359.37	1908.71
359.59	1929.19
359.80	2037.73
360.02	1920.99
360.23	1961.95
360.45	1998.82
360.66	1935.33
360.88	1888.23
361.09	1972.19
361.31	1994.72
361.52	2004.96
361.74	2015.20
361.95	2015.20
362.17	1941.47
362.38	2146.27
362.60	1988.58
362.81	1976.29
363.03	1892.32
363.24	2119.65
363.46	2097.12
363.67	2000.87
363.89	1984.48
364.10	2058.21
364.32	1986.53
364.53	2101.22
364.75	1982.43
364.96	2064.35
365.18	2093.02
365.39	1992.67
365.61	1998.82
365.82	2019.30
366.04	1998.82
366.25	1904.61
366.47	2066.40
366.68	2070.50
366.90	1908.71
367.11	2056.16
367.33	2068.45
367.54	2025.44
367.76	1992.67
367.97	2029.54
368.19	1994.72
368.40	2050.02
368.62	2011.11
368.83	1949.67
369.05	2121.70
369.26	2029.54
369.48	2009.06
369.69	1927.14
369.91	2000.87
370.12	1955.81
370.33	2129.89
370.55	1933.28
370.76	2017.25
370.98	2174.94
371.19	1978.34
371.41	1994.72
371.62	2027.49
371.84	2076.64
372.05	2242.53
372.27	2060.26
372.48	2068.45
372.69	2056.16
372.91	2129.89
373.12	2209.76
373.34	2127.84
373.55	2119.65
373.77	2205.66
373.98	2056.16
374.20	2117.60
374.41	2273.25
374.62	2107.36
374.84	2168.80
375.05	2230.24
375.27	2115.55
375.48	2117.60
375.70	2093.02
375.91	2258.91
376.12	2250.72
376.34	2107.36
376.55	2222.05
376.77	2199.52
376.98	2062.30
377.19	2150.37
377.41	2099.17
377.62	2183.13
377.84	2220.00
378.05	2314.20
378.27	2168.80
378.48	2269.15
378.69	2361.31
378.91	2244.57
379.12	2297.82
379.34	2209.76
379.55	2312.16
379.76	2254.81
379.98	2181.09
380.19	2246.62
380.41	2277.34
380.62	2248.67
380.83	2293.72
381.05	2127.84
381.26	2467.80
381.47	2308.06
381.69	2320.35
381.90	2428.89
382.12	2299.87
382.33	2267.10
382.54	2353.12
382.76	2285.53
382.97	2273.25
383.19	2273.25
383.40	2437.08
383.61	2324.44
383.83	2244.57
384.04	2346.97
384.25	2453.47
384.47	2346.97
384.68	2422.75
384.89	2316.25
385.11	2269.15
385.32	2295.77
385.54	2445.27
385.75	2330.59
385.96	2359.26
386.18	2363.36
386.39	2447.32
386.60	2396.12
386.82	2383.84
387.03	2437.08
387.24	2512.86
387.46	2435.03
387.67	2500.57
387.88	2539.48
388.10	2459.61
388.31	2441.18
388.52	2568.15
388.74	2537.43
388.95	2426.84
389.16	2500.57
389.38	2531.29
389.59	2580.44
389.80	2639.83
390.02	2557.91
390.23	2568.15
390.44	2570.20
390.66	2547.67
390.87	2435.03
391.08	2639.83
391.30	2701.27
391.51	2660.31
391.72	2658.26
391.94	2578.39
392.15	2623.45
392.36	2600.92
392.58	2764.76
392.79	2645.98
393.00	2719.70
393.22	2736.09
393.43	2770.90
393.64	2826.20
393.85	2705.37
394.07	2629.59
394.28	2762.71
394.49	2731.99
394.71	2818.00
394.92	2836.44
395.13	2764.76
395.35	2781.14
395.56	2770.90
395.77	2781.14
395.98	2850.77
396.20	2844.63
396.41	2809.81
396.62	2916.31
396.84	2695.13
397.05	2832.34
397.26	2893.78
397.47	2981.84
397.69	2805.72
397.90	3006.42
398.11	2987.99
398.32	2865.11
398.54	2811.86
398.75	2910.16
398.96	2955.22
399.18	3080.14
399.39	2871.25
399.60	3088.34
399.81	2955.22
400.03	2914.26
400.24	3379.15
400.45	3030.99
400.66	3100.62
400.88	3000.27
401.09	3125.20
401.30	3074.00
401.51	3190.74
401.73	3119.06
401.94	3102.67
402.15	3104.72
402.36	3123.15
402.58	3190.74
402.79	3235.79
403.00	3106.77
403.21	3254.22
403.43	3262.41
403.64	3250.13
403.85	3065.81
404.06	3270.61
404.27	3137.49
404.49	3344.33
404.70	3090.38
404.91	3315.66
405.12	3264.46
405.34	3254.22
405.55	3452.88
405.76	3192.78
405.97	3274.70
406.19	3477.45
406.40	3270.61
406.61	3375.05
406.82	3366.86
407.03	3325.90
407.25	3354.57
407.46	3426.25
407.67	3409.87
407.88	3448.78
408.09	3395.53
408.31	3459.02
408.52	3454.92
408.73	3418.06
408.94	3299.28
409.15	3604.42
409.37	3360.72
409.58	3454.92
409.79	3526.60
410.00	3610.57
410.21	3430.35
410.43	3567.56
410.64	3416.01
410.85	3493.83
411.06	3573.71
411.27	3674.06
411.48	3606.47
411.70	3612.62
411.91	3606.47
412.12	3665.86
412.33	3731.40
412.54	3659.72
412.76	3725.26
412.97	3702.73
413.18	3583.95
413.39	3798.98
413.60	3669.96
413.81	3667.91
414.03	3629.00
414.24	3635.14
414.45	3790.79
414.66	3555.27
414.87	3780.55
415.08	3753.93
415.30	3717.06
415.51	3835.85
415.72	3809.22
415.93	3755.97
416.14	3885.00
416.35	3788.74
416.56	3844.04
416.78	3823.56
416.99	3874.76
417.20	3860.42
417.41	3977.16
417.62	3983.30
417.83	3942.34
418.04	3901.38
418.26	3897.28
418.47	4036.55
418.68	3944.39
418.89	4065.22
419.10	4214.72
419.31	4067.27
419.52	4046.79
419.73	4036.55
419.95	4235.20
420.16	3954.63
420.37	4054.98
420.58	4073.41
420.79	3915.72
421.00	4095.94
421.21	4198.34
421.42	4108.23
421.63	4188.10
421.85	4128.70
422.06	4124.61
422.27	4245.44
422.48	4229.06
422.69	4341.69
422.90	4249.54
423.11	4286.40
423.32	4419.52
423.53	4476.86
423.75	4364.22
423.96	4521.92
424.17	4452.28
424.38	4591.55
424.59	4450.24
424.80	4603.83
425.01	4483.00
425.22	4433.85
425.43	4388.80
425.64	4628.41
425.85	4659.13
426.06	4673.46
426.28	4519.87
426.49	4550.59
426.70	4446.14
426.91	4679.61
427.12	4734.90
427.33	4648.89
427.54	4644.79
427.75	4616.12
427.96	4788.15
428.17	4853.69
428.38	4659.13
428.59	4800.44
428.80	4835.25
429.01	4767.67
429.23	4859.83
429.44	5072.82
429.65	4921.27
429.86	4966.32
430.07	4911.03
430.28	4833.21
430.49	4939.70
430.70	5027.76
430.91	5099.44
431.12	5040.05
431.33	5056.43
431.54	5164.98
431.75	5146.55
431.96	5117.87
432.17	4982.71
432.38	5076.91
432.59	5443.50
432.80	5195.70
433.01	5277.62
433.22	5326.77
433.43	5310.38
433.64	5279.66
433.85	5230.51
434.06	5420.97
434.27	5214.13
434.49	5466.03
434.70	5533.61
434.91	5449.64
435.12	5410.73
435.33	5509.04
435.54	5410.73
435.75	5339.05
435.96	5605.29
436.17	5382.06
436.38	5582.76
436.59	5558.19
436.80	5588.91
437.01	5912.49
437.22	5654.44
437.43	5775.27
437.64	5527.47
437.85	5853.09
438.06	5846.95
438.27	5619.63
438.48	5681.07
438.69	5992.36
438.90	5994.40
439.11	5951.40
439.32	5924.77
439.53	5849.00
439.74	5914.53
439.95	6055.84
440.16	5771.18
440.37	5922.73
440.57	6082.47
440.78	5914.53
440.99	6141.86
441.20	6084.52
441.41	5969.83
441.62	6066.08
441.83	5971.88
442.04	6137.76
442.25	6004.64
442.46	6203.30
442.67	6248.35
442.88	6580.12
443.09	6088.61
443.30	6152.10
443.51	6092.71
443.72	6459.29
443.93	6303.65
444.14	6461.34
444.35	6213.54
444.56	6320.03
444.77	6485.92
444.98	6502.30
445.19	6535.07
445.40	6369.18
445.61	6510.49
445.81	6703.00
446.02	6680.47
446.23	6576.03
446.44	6455.20
446.65	6631.32
446.86	6633.37
447.07	6774.68
447.28	7022.48
447.49	6846.36
447.70	6678.43
447.91	6918.04
448.12	6805.40
448.33	6944.66
448.54	6852.50
448.74	6655.90
448.95	6838.17
449.16	6811.54
449.37	7149.46
449.58	6709.15
449.79	7075.73
450.00	6930.33
450.21	7104.40
450.42	7159.70
450.63	7194.51
450.84	6909.85
451.05	6983.57
451.25	7073.68
451.46	7042.96
451.67	7272.34
451.88	7204.75
452.09	7237.52
452.30	7071.64
452.51	6991.77
452.72	7282.58
452.93	7546.76
453.13	7094.16
453.34	7260.05
453.55	7606.16
453.76	7290.77
453.97	7751.56
454.18	7470.99
454.39	7643.02
454.60	7442.32
454.81	7595.92
455.01	7688.07
455.22	7393.17
455.43	7608.20
455.64	7735.18
455.85	7819.14
456.06	7907.21
456.27	7864.20
456.48	7780.23
456.68	7813.00
456.89	7931.78
457.10	7905.16
457.31	8146.82
457.52	7927.69
457.73	8187.78
457.94	8218.50
458.14	8058.76
458.35	8398.72
458.56	8155.01
458.77	8155.01
458.98	8329.09
459.19	8241.03
459.39	8400.77
459.60	8572.80
459.81	8425.34
460.02	8755.07
460.23	8497.02
460.44	8630.14
460.65	8722.30
460.85	8900.47
461.06	8732.54
461.27	8527.74
461.48	9119.60
461.69	9002.87
461.89	8697.72
462.10	8896.38
462.31	8691.58
462.52	8818.55
462.73	8970.10
462.94	9353.07
463.14	9074.55
463.35	9004.92
463.56	9701.23
463.77	9361.27
463.98	9097.08
464.18	9297.78
464.39	9408.37
464.60	9463.66
464.81	9545.58
465.02	9660.27
465.23	9707.37
465.43	9576.30
465.64	9875.31
465.85	9832.30
466.06	9770.86
466.27	10159.97
466.47	10202.98
466.68	9971.56
466.89	10207.08
467.10	10168.16
467.30	10047.33
467.51	10438.50
467.72	10620.77
467.93	10112.87
468.14	10424.16
468.34	10837.85
468.55	10659.68
468.76	10542.94
468.97	10628.96
469.17	10796.89
469.38	11013.98
469.59	10973.02
469.80	10891.10
470.01	10946.39
470.21	11188.05
470.42	11222.87
470.63	11421.52
470.84	11192.15
471.04	11587.41
471.25	11493.20
471.46	11419.47
471.67	11724.62
471.87	11605.84
472.08	11757.39
472.29	12156.74
472.50	11845.45
472.70	11722.57
472.91	11937.61
473.12	12279.62
473.33	12306.24
473.53	12209.99
473.74	12250.95
473.95	12603.20
474.16	12566.34
474.36	12552.00
474.57	12607.30
474.78	12697.41
474.99	12631.87
475.19	12713.79
475.40	13088.57
475.61	13143.86
475.81	12930.87
476.02	13575.98
476.23	13246.26
476.44	13471.54
476.64	13979.43
476.85	13729.58
477.06	13662.00
477.27	13768.49
477.47	13883.18
477.68	13936.43
477.89	14188.33
478.09	14126.89
478.30	14247.72
478.51	14389.03
478.71	14214.95
478.92	14411.56
479.13	14858.01
479.34	14864.16
479.54	14786.33
479.75	14827.29
479.96	14772.00
480.16	15027.99
480.37	15017.75
480.58	15359.77
480.78	15646.48
480.99	15474.45
481.20	15646.48
481.41	15681.30
481.61	15718.16
481.82	15869.71
482.03	15916.81
482.23	15779.60
482.44	16164.62
482.65	16238.34
482.85	16348.93
483.06	16246.54
483.27	16211.72
483.47	16547.59
483.68	16686.85
483.89	16727.81
484.09	16731.90
484.30	16817.92
484.51	17053.44
484.71	16912.13
484.92	16819.97
485.13	17084.16
485.33	17247.99
485.54	17196.79
485.75	17444.60
485.95	17626.87
486.16	17616.63
486.37	17626.87
486.57	17884.91
486.78	17753.84
486.98	17561.33
487.19	18190.06
487.40	18200.30
487.60	18247.40
487.81	18435.81
488.02	18321.13
488.22	18423.53
488.43	18462.44
488.64	18478.82
488.84	18474.73
489.05	19183.32
489.25	18714.34
489.46	19001.05
489.67	19064.54
489.87	19259.10
490.08	19220.19
490.29	19517.14
490.49	19388.12
490.70	19478.23
490.90	19707.60
491.11	19459.80
491.32	19766.99
491.52	19805.91
491.73	19859.15
491.94	20080.33
492.14	19844.82
492.35	20168.40
492.55	20061.90
492.76	20293.32
492.97	20508.36
493.17	20592.33
493.38	20680.39
493.58	20784.83
493.79	20698.82
494.00	20840.13
494.20	20895.43
494.41	21036.74
494.61	21225.15
494.82	21333.69
495.02	21155.52
495.23	21178.04
495.44	21300.92
495.64	21956.27
495.85	21679.80
496.05	21675.70
496.26	21647.03
496.47	21757.62
496.67	21458.62
496.88	22159.02
497.08	21798.58
497.29	22331.05
497.49	21831.35
497.70	22396.59
497.91	22591.14
498.11	22415.02
498.32	22601.38
498.52	22673.06
498.73	22634.15
498.93	22699.69
499.14	22789.80
499.34	22730.41
499.55	23217.82
499.76	23056.03
499.96	23072.42
500.17	23326.36
500.37	23436.95
500.58	23772.82
500.78	23623.32
500.99	23457.43
501.19	23707.29
501.40	23699.09
501.60	23725.72
501.81	23713.43
502.02	24069.78
502.22	23748.25
502.43	23987.86
502.63	24145.55
502.84	24282.77
503.04	24063.63
503.25	24075.92
503.45	24258.19
503.66	24602.25
503.86	24645.26
504.07	24805.00
504.27	24565.39
504.48	25056.90
504.68	24710.79
504.89	25159.30
505.09	25187.97
505.30	25173.63
505.50	25380.48
505.71	25192.06
505.91	25339.52
506.12	25517.69
506.32	25620.09
506.53	25351.81
506.73	25495.16
506.94	25648.76
507.14	25722.49
507.35	25814.65
507.55	25669.24
507.76	26064.50
507.96	25863.80
508.17	25912.95
508.37	26257.01
508.58	26302.06
508.78	26519.15
508.99	26689.13
509.19	26517.10
509.40	26584.68
509.60	26398.32
509.81	26705.51
510.01	26515.05
510.22	26834.53
510.42	26566.25
510.63	27092.58
510.83	26777.19
511.04	27164.26
511.24	27133.54
511.44	27115.11
511.65	27115.11
511.85	27201.12
512.06	27237.98
512.26	27235.94
512.47	27639.39
512.67	27801.18
512.88	27496.03
513.08	27242.08
513.29	27489.88
513.49	27580.00
513.69	27817.56
513.90	27770.46
514.10	28001.88
514.31	27858.52
514.51	28405.33
514.72	27954.77
514.92	27743.83
515.13	28071.51
515.33	28261.97
515.53	28091.99
515.74	28175.95
515.94	28364.37
516.15	28323.41
516.35	28161.62
516.56	28753.48
516.76	28319.31
516.96	28741.19
517.17	28745.29
517.37	28976.71
517.58	28378.70
517.78	28778.06
517.99	28919.37
518.19	29335.10
518.39	29251.14
518.60	29285.95
518.80	28913.22
519.01	29328.96
519.21	29255.23
519.41	29343.30
519.62	29204.03
519.82	29722.17
520.03	29791.80
520.23	29734.46
520.43	29457.98
520.64	30062.13
520.84	29883.96
521.05	29787.71
521.25	30086.71
521.45	29916.73
521.66	30271.03
521.86	30182.96
522.07	30180.92
522.27	30281.27
522.47	30066.23
522.68	30783.02
522.88	30414.38
523.08	30883.37
523.29	30645.80
523.49	30772.78
523.70	30531.12
523.90	31366.69
524.10	30969.38
524.31	30819.88
524.51	30709.29
524.71	31376.93
524.92	31266.34
525.12	31557.15
525.33	31229.48
525.53	31329.83
525.73	31342.11
525.94	31495.71
526.14	31516.19
526.34	31626.78
526.55	31770.14
526.75	31723.04
526.95	32009.75
527.16	32216.60
527.36	31931.93
527.56	32450.06
527.77	32265.75
527.97	31856.15
528.17	32292.37
528.38	32050.71
528.58	32405.01
528.78	32601.61
528.99	32538.13
529.19	32980.49
529.39	32531.98
529.60	32740.88
529.80	32966.15
530.00	32775.69
530.21	33211.91
530.41	33123.85
530.61	33342.98
530.82	32955.91
531.02	33240.58
531.22	33502.72
531.43	33306.12
531.63	33412.61
531.83	33412.61
532.04	34237.94
532.24	33472.00
532.44	34076.15
532.64	34178.55
532.85	33822.20
533.05	34055.67
533.25	34239.99
533.46	34303.48
533.66	34567.66
533.86	34567.66
534.07	34815.47
534.27	34573.81
534.47	34801.13
534.67	35565.03
534.88	34717.17
535.08	34809.32
535.28	35317.22
535.49	35327.46
535.69	35280.36
535.89	35560.93
536.09	35333.60
536.30	35741.15
536.50	35718.62
536.70	35827.17
536.91	35757.53
537.11	35626.46
537.31	35829.21
537.51	35974.62
537.72	36396.50
537.92	36259.29
538.12	36496.85
538.32	36615.63
538.53	36734.42
538.73	36173.27
538.93	36769.23
539.13	36476.37
539.34	36355.54
539.54	36781.52
539.74	37139.91
539.94	37072.33
540.15	36797.90
540.35	37303.75
540.55	36711.89
540.75	37252.55
540.96	37557.70
541.16	37344.71
541.36	37445.06
541.56	37592.51
541.77	37825.98
541.97	37445.06
542.17	38086.07
542.37	38063.55
542.58	38161.85
542.78	38124.99
542.98	37723.58
543.18	38421.94
543.38	38907.31
543.59	38794.67
543.79	38090.17
543.99	38720.95
544.19	38753.71
544.40	38604.21
544.60	39083.44
544.80	38845.87
545.00	39116.20
545.20	39415.21
545.41	38993.32
545.61	39263.66
545.81	39773.60
546.01	39495.08
546.21	39337.38
546.42	39490.98
546.62	40019.36
546.82	39390.63
547.02	40080.80
547.22	39841.18
547.43	39736.74
547.63	39921.05
547.83	40195.48
548.03	40097.18
548.23	40301.98
548.44	40805.78
548.64	40418.71
548.84	40633.75
549.04	40490.39
549.24	41065.87
549.45	40891.79
549.65	40551.83
549.85	40674.71
550.05	40676.76
550.25	40625.56
550.45	41543.05
550.66	41295.24
550.86	41278.86
551.06	41536.90
551.26	41227.66
551.46	41573.77
551.66	41252.23
551.87	41164.17
552.07	41741.70
552.27	41493.89
552.47	41819.52
552.67	41897.34
552.87	42251.64
553.07	42071.42
553.28	42063.23
553.48	42163.58
553.68	42100.09
553.88	42464.63
554.08	42061.18
554.28	42444.15
554.48	41913.73
554.69	42401.14
554.89	42730.87
555.09	42845.55
555.29	42419.58
555.49	42599.80
555.69	42927.47
555.89	42507.64
556.10	43015.54
556.30	42751.35
556.50	43058.54
556.70	42671.48
556.90	42978.67
557.10	42980.72
557.30	42960.24
557.50	43042.16
557.70	43150.70
557.91	43382.12
558.11	43294.06
558.31	43515.24
558.51	43046.26
558.71	43752.80
558.91	43773.28
559.11	43369.83
559.31	43533.67
559.51	43089.26
559.72	43912.55
559.92	43738.47
560.12	43449.70
560.32	44045.66
560.52	43865.44
560.72	43726.18
560.92	44215.65
561.12	43859.30
561.32	44479.83
561.52	43885.92
561.72	44416.35
561.93	44023.14
562.13	44395.87
562.33	43847.01
562.53	44408.15
562.73	44109.15
562.93	44424.54
563.13	44541.27
563.33	44469.59
563.53	44844.37
563.73	44225.89
563.93	44365.15
564.13	44629.34
564.33	44643.67
564.53	44490.07
564.74	44485.98
564.94	44365.15
565.14	45053.26
565.34	44895.57
565.54	44735.83
565.74	44457.31
565.94	44791.12
566.14	44598.62
566.34	44381.53
566.54	45380.94
566.74	44680.53
566.94	44795.22
567.14	45137.23
567.34	44764.50
567.54	45210.96
567.74	44696.92
567.94	45004.11
568.14	45188.43
568.34	45161.81
568.54	45122.90
568.74	45452.62
568.94	45194.57
569.14	45485.39
569.34	45342.03
569.54	45319.50
569.75	45063.50
569.95	45266.25
570.15	45616.46
570.35	45219.15
570.55	45532.49
570.75	45491.53
570.95	45415.76
571.15	45643.08
571.35	45045.07
571.55	45784.39
571.75	45741.38
571.95	45317.45
572.15	45292.88
572.35	45882.69
572.55	45729.09
572.75	45888.84
572.95	45593.93
573.15	45927.75
573.35	45942.08
573.55	45782.34
573.75	45944.13
573.95	45921.60
574.15	45763.91
574.35	45989.19
574.55	45743.43
574.75	45528.39
574.95	46077.25
575.15	45309.26
575.34	45974.85
575.54	46126.40
575.74	45909.32
575.94	46304.57
576.14	46171.46
576.34	46431.55
576.54	46159.17
576.74	46075.20
576.94	46058.82
577.14	45915.46
577.34	46341.44
577.54	46093.63
577.74	46486.84
577.94	46370.11
578.14	46527.80
578.34	46925.11
578.54	45860.16
578.74	46720.31
578.94	46388.54
579.14	46404.92
579.34	46916.92
579.54	46669.11
579.74	46968.12
579.94	46961.97
580.13	47111.47
580.33	46994.74
580.53	47295.79
580.73	47088.95
580.93	47455.53
581.13	47248.69
581.33	47523.11
581.53	47334.70
581.73	47482.16
581.93	46839.09
582.13	47396.14
582.33	47844.65
582.53	47203.63
582.73	47435.05
582.92	47136.05
583.12	47613.23
583.32	47588.65
583.52	47303.98
583.72	47803.69
583.92	47693.10
584.12	47752.49
584.32	48518.43
584.52	47775.02
584.72	48102.69
584.92	48143.65
585.11	48190.75
585.31	48219.42
585.51	48256.29
585.71	48127.27
585.91	48602.39
586.11	48055.59
586.31	48248.10
586.51	48160.03
586.71	48538.91
586.91	48717.08
587.10	48366.88
587.30	48553.24
587.50	48764.18
587.70	48502.04
587.90	48749.85
588.10	48284.96
588.30	48416.03
588.50	48745.75
588.69	49198.35
588.89	48987.41
589.09	49071.38
589.29	49278.22
589.49	49423.63
589.69	48729.37
589.89	49194.26
590.08	49493.26
590.28	49302.80
590.48	49259.79
590.68	49331.47
590.88	49476.88
591.08	49327.38
591.28	49075.48
591.47	49698.06
591.67	49501.45
591.87	49577.23
592.07	50068.74
592.27	49683.72
592.47	49767.69
592.67	49763.59
592.86	49429.77
593.06	49657.10
593.26	49874.18
593.46	49753.35
593.66	49986.82
593.86	50189.57
594.05	50552.06
594.25	50713.85
594.45	50304.26
594.65	50197.76
594.85	50230.53
595.05	50660.60
595.24	50617.60
595.44	50633.98
595.64	50803.96
595.84	50644.22
596.04	50859.26
596.23	50775.29
596.43	50914.55
596.63	50767.10
596.83	51053.81
597.03	51170.55
597.22	51332.34
597.42	50881.78
597.62	51420.40
597.82	51371.25
598.02	51365.10
598.21	51543.28
598.41	51098.87
598.61	51332.34
598.81	51848.42
599.01	51899.62
599.20	51881.19
599.40	52145.38
599.60	52380.90
599.80	52253.92
600.00	52139.24
600.19	52509.92
600.39	52010.21
600.59	52245.73
600.79	52597.98
600.98	52339.94
601.18	52491.49
601.38	52729.05
601.58	52675.80
601.78	52919.51
601.97	53218.52
602.17	53374.16
602.37	52581.60
602.57	52925.66
602.76	53310.67
602.96	53220.56
603.16	53191.89
603.36	53636.30
603.55	53675.21
603.75	53654.73
603.95	53687.50
604.15	53722.32
604.34	53515.47
604.54	54006.98
604.74	53945.54
604.94	54140.10
605.13	53716.17
605.33	53941.45
605.53	53945.54
605.73	54645.95
605.92	54162.63
606.12	54093.00
606.32	54426.82
606.52	54265.03
606.71	54326.47
606.91	54908.09
607.11	54136.01
607.30	54822.08
607.50	54555.84
607.70	54799.55
607.90	54805.69
608.09	54795.45
608.29	54607.04
608.49	54758.59
608.68	55026.87
608.88	55112.89
609.08	54846.65
609.28	55237.81
609.47	55262.39
609.67	55897.26
609.87	55420.08
610.06	55551.15
610.26	55170.23
610.46	55577.78
610.66	55424.18
610.85	55520.43
611.05	55008.44
611.25	55317.68
611.44	54992.06
611.64	55370.93
611.84	55389.36
612.03	55047.35
612.23	55655.60
612.43	55653.55
612.62	55317.68
612.82	55727.28
613.02	55792.81
613.21	56136.87
613.41	55553.20
613.61	56083.62
613.80	55653.55
614.00	55956.65
614.20	55899.31
614.39	55610.54
614.59	55768.24
614.79	55825.58
614.98	55753.90
615.18	55993.51
615.38	56210.60
615.57	55536.82
615.77	56497.31
615.97	56226.98
616.16	56083.62
616.36	56061.10
616.56	56358.05
616.75	55977.13
616.95	55649.45
617.15	56083.62
617.34	55678.13
617.54	56136.87
617.74	56530.08
617.93	56067.24
618.13	55434.42
618.32	56073.38
618.52	55585.97
618.72	55915.69
618.91	56272.04
619.11	55540.91
619.31	56257.70
619.50	55395.51
619.70	55647.41
619.90	55860.40
620.09	55676.08
620.29	55940.27
620.48	56054.95
620.68	56337.57
620.88	55649.45
621.07	55667.89
621.27	55784.62
621.46	55411.89
621.66	55499.95
621.86	55522.48
622.05	55456.95
622.25	56163.50
622.44	55887.02
622.64	55456.95
622.84	55637.17
623.03	55493.81
623.23	55622.83
623.42	55852.20
623.62	56079.53
623.82	56116.39
624.01	55110.84
624.21	56095.91
624.40	55940.27
624.60	55731.37
624.80	55850.16
624.99	55760.05
625.19	55037.11
625.38	55649.45
625.58	55698.61
625.77	55674.03
625.97	55438.51
626.17	55510.19
626.36	55872.68
626.56	55575.73
626.75	55192.76
626.95	55891.12
627.14	55061.69
627.34	55819.44
627.54	54977.72
627.73	55723.18
627.93	55762.09
628.12	55162.04
628.32	55594.16
628.51	55051.45
628.71	55434.42
628.90	55108.79
629.10	55041.21
629.30	55166.13
629.49	55538.86
629.69	55219.38
629.88	55094.46
630.08	55737.52
630.27	55307.44
630.47	55628.98
630.66	54756.54
630.86	55938.22
631.05	54639.81
631.25	55522.48
631.44	55360.69
631.64	55043.26
631.84	55172.28
632.03	55661.74
632.23	55368.88
632.42	55981.23
632.62	55487.67
632.81	55030.97
633.01	55334.07
633.20	55153.85
633.40	55448.75
633.59	55315.64
633.79	54783.16
633.98	55231.67
634.18	55395.51
634.37	55305.40
634.57	55133.37
634.76	54990.01
634.96	55295.16
635.15	55170.23
635.35	55491.76
635.54	54949.05
635.74	55321.78
635.93	54789.31
636.13	54752.44
636.32	55018.68
636.52	54686.91
636.71	54598.85
636.91	54785.21
637.10	54875.32
637.30	55248.05
637.49	54949.05
637.69	55024.82
637.88	55119.03
638.08	55260.34
638.27	55289.01
638.46	55200.95
638.66	54770.88
638.85	55219.38
639.05	55159.99
639.24	55430.32
639.44	54936.76
639.63	54883.51
639.83	55708.85
640.02	54942.91
640.22	55063.74
640.41	55491.76
640.61	54629.57
640.80	55227.57
640.99	54877.37
641.19	55260.34
641.38	54885.56
641.58	55395.51
641.77	55188.66
641.97	54670.53
642.16	54858.94
642.36	55309.49
642.55	55073.98
642.74	54746.30
642.94	55506.10
643.13	54742.20
643.33	55223.48
643.52	55030.97
643.72	55329.97
643.91	54867.13
644.10	55125.17
644.30	55729.33
644.49	55030.97
644.69	55260.34
644.88	55301.30
645.08	54918.33
645.27	55102.65
645.46	54654.14
645.66	55092.41
645.85	54932.67
646.05	55633.07
646.24	55286.96
646.43	55483.57
646.63	55510.19
646.82	55887.02
647.02	55592.11
647.21	55534.77
647.40	55102.65
647.60	55520.43
647.79	55628.98
647.99	55403.70
648.18	55545.01
648.37	55700.65
648.57	55864.49
648.76	55911.59
648.96	55192.76
649.15	55862.44
649.34	55825.58
649.54	55588.02
649.73	55528.62
649.92	55956.65
650.12	55637.17
650.31	55964.84
650.51	55418.03
650.70	55948.46
650.89	56001.71
651.09	56331.43
651.28	55952.55
651.47	56114.34
651.67	55882.92
651.86	56599.71
652.06	55612.59
652.25	56196.26
652.44	55825.58
652.64	55858.35
652.83	55923.88
653.02	55684.27
653.22	56218.79
653.41	55835.82
653.60	56159.40
653.80	55618.74
653.99	56595.62
654.18	55991.47
654.38	55977.13
654.57	56026.28
654.76	56358.05
654.96	55925.93
655.15	55862.44
655.34	56022.19
655.54	56057.00
655.73	56108.20
655.92	56616.10
656.12	56122.54
656.31	56259.75
656.50	55932.07
656.70	56433.83
656.89	56106.15
657.08	56226.98
657.28	56382.63
657.47	56476.83
657.66	56480.93
657.86	56472.74
658.05	56378.53
658.24	56425.64
658.43	56528.03
658.63	56810.65
658.82	57087.13
659.01	56374.44
659.21	57130.14
659.40	56259.75
659.59	56282.28
659.79	56769.69
659.98	56669.34
660.17	56915.10
660.36	56878.24
660.56	56714.40
660.75	56841.37
660.94	56777.89
661.14	56890.52
661.33	56595.62
661.52	56530.08
661.71	57050.27
661.91	56798.37
662.10	56818.84
662.29	57169.05
662.49	57181.34
662.68	57070.75
662.87	57287.83
663.06	57173.14
663.26	57371.80
663.45	57402.52
663.64	57105.56
663.83	57373.84
664.03	57244.82
664.22	57144.47
664.41	57425.04
664.60	57281.69
664.80	56908.96
664.99	57142.42
665.18	57373.84
665.37	57203.86
665.57	57640.08
665.76	56829.08
665.95	57377.94
666.14	57078.94
666.34	57289.88
666.53	57388.18
666.72	57302.17
666.91	57468.05
667.11	56997.02
667.30	57611.41
667.49	57220.25
667.68	57193.62
667.87	57203.86
668.07	57908.36
668.26	57193.62
668.45	57644.18
668.64	57609.36
668.84	58078.35
669.03	57894.03
669.22	58100.87
669.41	57384.08
669.60	57664.66
669.80	57457.81
669.99	58055.82
670.18	57803.92
670.37	57562.26
670.57	57820.30
670.76	57918.60
670.95	57615.50
671.14	57836.69
671.33	57715.86
671.53	58156.17
671.72	57724.05
671.91	57906.32
672.10	57369.75
672.29	57953.42
672.48	57717.90
672.68	58172.55
672.87	57715.86
673.06	57580.69
673.25	57312.41
673.44	57437.33
673.64	57926.80
673.83	57576.59
674.02	57799.82
674.21	57509.01
674.40	58033.29
674.59	57406.61
674.79	57709.71
674.98	57547.92
675.17	57791.63
675.36	57654.42
675.55	58074.25
675.74	57726.10
675.94	58012.81
676.13	58006.67
676.32	58045.58
676.51	58184.84
676.70	57883.79
676.89	57932.94
677.08	58111.11
677.28	57887.88
677.47	58147.98
677.66	58174.60
677.85	57611.41
678.04	57799.82
678.23	58211.46
678.42	57691.28
678.62	58043.53
678.81	58440.84
679.00	57963.66
679.19	58713.22
679.38	57668.75
679.57	58172.55
679.76	57726.10
679.96	58154.12
680.15	58174.60
680.34	58246.28
680.53	57900.17
680.72	57736.34
680.91	58137.74
681.10	57820.30
681.29	58182.79
681.48	57670.80
681.68	57869.45
681.87	57619.60
682.06	57779.34
682.25	57183.38
682.44	57549.97
682.63	57709.71
682.82	57250.97
683.01	57142.42
683.20	57406.61
683.39	57662.61
683.59	57244.82
683.78	57775.25
683.97	57029.79
684.16	57046.17
684.35	57701.52
684.54	57664.66
684.73	56657.06
684.92	57279.64
685.11	57214.10
685.30	57398.42
685.49	57111.70
685.69	57107.61
685.88	57332.89
686.07	57255.06
686.26	57234.58
686.45	57105.56
686.64	56923.29
686.83	57001.11
687.02	57093.27
687.21	57187.48
687.40	57404.56
687.59	57410.71
687.78	56849.56
687.97	57234.58
688.16	56851.61
688.35	56794.27
688.54	56673.44
688.74	57072.79
688.93	56841.37
689.12	56816.80
689.31	57058.46
689.50	56919.20
689.69	56267.94
689.88	56259.75
690.07	57037.98
690.26	56757.41
690.45	57107.61
690.64	56474.79
690.83	56433.83
691.02	56024.23
691.21	56450.21
691.40	56310.95
691.59	56505.51
691.78	56245.41
691.97	56286.37
692.16	56104.10
692.35	56513.70
692.54	56206.50
692.73	56286.37
692.92	56245.41
693.11	55983.27
693.30	55970.99
693.49	56362.15
693.68	55710.89
693.87	55870.64
694.06	55919.79
694.25	55956.65
694.44	55801.00
694.63	55833.77
694.82	56028.33
695.01	56384.68
695.20	55565.49
695.39	55383.22
695.58	55340.21
695.77	55319.73
695.96	55147.70
696.15	55319.73
696.34	55526.58
696.53	55960.75
696.72	55653.55
696.91	55350.45
697.10	55258.29
697.29	55008.44
697.48	55235.77
697.67	54926.52
697.86	54533.31
698.05	55026.87
698.24	55157.94
698.43	54510.78
698.62	54994.10
698.81	54797.50
699.00	54957.24
699.19	54576.32
699.38	54697.15
699.57	54355.14
699.76	54842.56
699.95	54609.09
700.14	54258.88
700.32	54224.07
700.51	54138.05
700.70	54992.06
700.89	54774.97
701.08	54158.53
701.27	54148.29
701.46	54561.98
701.65	53695.69
701.84	54258.88
702.03	54422.72
702.22	53611.73
702.41	53994.70
702.60	53935.30
702.79	53863.63
702.98	54006.98
703.17	53603.53
703.35	53572.81
703.54	53652.69
703.73	54111.43
703.92	53701.84
704.11	53779.66
704.30	53484.75
704.49	53638.35
704.68	53845.19
704.87	53605.58
705.06	53292.24
705.25	53429.46
705.43	53425.36
705.62	53417.17
705.81	53855.43
706.00	53355.73
706.19	52989.14
706.38	52669.66
706.57	53316.82
706.76	52679.90
706.95	53314.77
707.14	52890.84
707.32	52686.04
707.51	52501.73
707.70	53034.20
707.89	53239.00
708.08	52542.69
708.27	52571.36
708.46	52786.39
708.65	52593.89
708.84	52819.16
709.02	52747.48
709.21	52554.97
709.40	52946.14
709.59	52819.16
709.78	52573.41
709.97	52534.49
710.16	51954.92
710.34	52274.40
710.53	52417.76
710.72	52153.57
710.91	52495.58
711.10	51954.92
711.29	52229.35
711.48	51537.13
711.66	52040.93
711.85	51651.82
712.04	52368.61
712.23	51569.90
712.42	51897.58
712.61	51533.04
712.80	52225.25
712.98	51879.14
713.17	51469.55
713.36	51244.27
713.55	51674.35
713.74	51836.14
713.93	51647.72
714.11	51574.00
714.30	51426.54
714.49	51217.65
714.68	51764.46
714.87	51358.96
715.06	52020.45
715.24	51025.14
715.43	51111.16
715.62	51217.65
715.81	50846.97
716.00	51395.82
716.18	50627.84
716.37	50535.68
716.56	50705.66
716.75	51076.34
716.94	50652.41
717.12	50824.44
717.31	50963.70
717.50	50644.22
717.69	50791.67
717.88	50578.68
718.06	50246.91
718.25	50388.22
718.44	50181.38
718.63	50416.89
718.82	50339.07
719.00	50361.60
719.19	50242.82
719.38	50124.04
719.57	49687.82
719.76	49646.86
719.94	49874.18
720.13	49755.40
720.32	50109.70
720.51	49868.04
720.69	49941.77
720.88	49345.81
721.07	49865.99
721.26	48985.36
721.44	49380.62
721.63	49409.29
721.82	49243.41
722.01	49446.16
722.20	49814.79
722.38	49093.91
722.57	48567.58
722.76	49302.80
722.95	48631.07
723.13	48155.94
723.32	48925.97
723.51	48682.27
723.70	48198.94
723.88	48907.54
724.07	48518.43
724.26	48923.93
724.44	48444.70
724.63	48600.35
724.82	48518.43
725.01	48461.08
725.19	48428.32
725.38	48485.66
725.57	48452.89
725.76	48559.39
725.94	48254.24
726.13	48184.61
726.32	48174.37
726.51	48059.68
726.69	48710.94
726.88	48483.61
727.07	48518.43
727.25	48325.92
727.44	48719.13
727.63	48166.18
727.82	48565.53
728.00	48313.63
728.19	48143.65
728.38	48108.83
728.56	47844.65
728.75	48684.31
728.94	47963.43
729.12	48178.46
729.31	48129.31
729.50	48123.17
729.69	48354.59
729.87	47969.57
730.06	47811.88
730.25	48090.40
730.43	48438.56
730.62	47863.08
730.81	48256.29
730.99	47973.67
731.18	47934.76
731.37	48248.10
731.55	48368.93
731.74	48352.54
731.93	48364.83
732.11	48043.30
732.30	48385.31
732.49	48008.48
732.67	48112.93
732.86	47928.61
733.05	48160.03
733.23	47775.02
733.42	47408.43
733.61	47787.30
733.79	48194.85
733.98	48274.72
734.17	48088.35
734.35	48157.99
734.54	48172.32
734.73	48250.14
734.91	47924.52
735.10	47654.18
735.29	48413.98
735.47	47562.03
735.66	48160.03
735.84	47938.85
736.03	47797.54
736.22	48309.53
736.40	47887.65
736.59	48039.20
736.78	47885.61
736.96	47732.01
737.15	47772.97
737.33	47723.82
737.52	47703.34
737.71	47820.07
737.89	48055.59
738.08	47633.71
738.27	47482.16
738.45	48225.57
738.64	47901.99
738.82	47547.69
739.01	47555.88
739.20	47439.15
739.38	47465.77
739.57	47889.70
739.75	47308.08
739.94	47912.23
740.13	47551.79
740.31	47535.40
740.50	47514.92
740.68	47795.49
740.87	47433.00
741.06	47404.33
741.24	47453.48
741.43	47682.86
741.61	47838.50
741.80	47123.76
741.99	47740.20
742.17	47645.99
742.36	47430.96
742.54	47629.61
742.73	47752.49
742.91	47625.51
743.10	47316.27
743.29	47752.49
743.47	47547.69
743.66	47482.16
743.84	47779.11
744.03	47314.22
744.21	47093.04
744.40	47516.97
744.59	47299.89
744.77	47066.42
744.96	47478.06
745.14	47619.37
745.33	47027.51
745.51	47168.82
745.70	47469.87
745.88	47205.68
746.07	47355.18
746.26	46921.01
746.44	46730.55
746.63	46605.62
746.81	46904.63
747.00	46544.19
747.18	47226.16
747.37	46861.62
747.55	47392.04
747.74	47248.69
747.92	46685.50
748.11	47084.85
748.29	47031.60
748.48	47232.30
748.66	46835.00
748.85	46785.85
749.03	46925.11
749.22	47191.34
749.41	46392.64
749.59	46957.88
749.78	46773.56
749.96	46363.96
750.15	47025.46
750.33	47199.54
750.52	46593.34
750.70	46511.42
750.89	46386.49
751.07	46089.54
751.26	46683.45
751.44	46548.28
751.63	46333.24
751.81	46513.47
752.00	45923.65
752.18	46636.34
752.37	46224.70
752.55	45997.38
752.74	46200.13
752.92	46167.36
753.10	45880.64
753.29	46325.05
753.47	46441.79
753.66	45954.37
753.84	46196.03
754.03	46095.68
754.21	45610.31
754.40	46312.77
754.58	45964.61
754.77	46034.24
754.95	45796.68
755.14	45911.36
755.32	46200.13
755.51	45610.31
755.69	45653.32
755.88	46173.50
756.06	46015.81
756.24	45790.53
756.43	45610.31
756.61	46052.67
756.80	45569.35
756.98	45446.47
757.17	45497.67
757.35	45188.43
757.54	45432.14
757.72	45557.06
757.90	45147.47
758.09	45231.44
758.27	45481.29
758.46	45096.27
758.64	45094.22
758.83	45356.36
759.01	45415.76
759.19	45501.77
759.38	44932.43
759.56	45301.07
759.75	45409.61
759.93	44711.25
760.12	45137.23
760.30	44866.90
760.48	45264.21
760.67	44950.87
760.85	44885.33
761.04	44848.47
761.22	45356.36
761.40	44983.63
761.59	44467.55
761.77	44473.69
761.96	44690.77
762.14	44819.80
762.32	44574.04
762.51	44442.97
762.69	44815.70
762.88	44606.81
763.06	45100.37
763.24	44965.20
763.43	44596.57
763.61	44477.79
763.80	44434.78
763.98	44600.66
764.16	44225.89
764.35	43828.58
764.53	43963.75
764.72	44414.30
764.90	43961.70
765.08	43953.51
765.27	44094.82
765.45	43910.50
765.63	43367.79
765.82	44088.67
766.00	43560.30
766.18	43795.81
766.37	43672.93
766.55	43531.62
766.74	43521.38
766.92	43232.62
767.10	43183.47
767.29	43576.68
767.47	42898.80
767.65	43519.34
767.84	42988.91
768.02	43644.26
768.20	43003.25
768.39	43171.18
768.57	43214.19
768.75	43214.19
768.94	43095.41
769.12	43005.30
769.30	42767.73
769.49	42648.95
769.67	42689.91
769.85	42747.25
770.04	42487.16
770.22	42511.74
770.40	42444.15
770.59	42225.02
770.77	42958.19
770.95	42667.38
771.14	42474.87
771.32	42278.27
771.50	41880.96
771.69	42499.45
771.87	42628.47
772.05	42227.07
772.24	42122.62
772.42	42175.87
772.60	42206.59
772.78	41780.61
772.97	41700.74
773.15	42278.27
773.33	42005.89
773.52	42098.05
773.70	41934.21
773.88	42046.85
774.07	41717.12
774.25	41956.74
774.43	42153.34
774.61	41491.85
774.80	42005.89
774.98	41985.41
775.16	42075.52
775.34	42067.33
775.53	41518.47
775.71	42106.24
775.89	41936.26
776.08	42171.77
776.26	41821.57
776.44	41624.96
776.62	41815.43
776.81	41428.36
776.99	41958.78
777.17	41694.60
777.35	41850.24
777.54	41928.06
777.72	41690.50
777.90	41594.25
778.08	42104.19
778.27	41700.74
778.45	41958.78
778.63	42399.10
778.81	41713.03
779.00	42521.98
779.18	42530.17
779.36	42513.78
779.54	42210.68
779.73	42284.41
779.91	42444.15
780.09	41917.82
780.27	42540.41
780.46	42114.43
780.64	42526.07
780.82	41874.82
781.00	41868.67
781.19	42442.10
781.37	42464.63
781.55	42313.08
781.73	42691.96
781.91	42204.54
782.10	42354.04
782.28	42616.18
782.46	42491.26
782.64	42878.32
782.82	42401.14
783.01	42573.17
783.19	42413.43
783.37	42284.41
783.55	42345.85
783.74	42360.19
783.92	41950.59
784.10	42833.27
784.28	42255.74
784.46	42120.57
784.64	41825.67
784.83	42282.36
785.01	42628.47
785.19	42243.45
785.37	42294.65
785.55	42102.14
785.74	41731.46
785.92	41954.69
786.10	42278.27
786.28	42253.69
786.46	41620.87
786.64	41319.82
786.83	42204.54
787.01	42038.65
787.19	42012.03
787.37	41696.64
787.55	41543.05
787.74	41860.48
787.92	41549.19
788.10	41160.08
788.28	41127.31
788.46	41819.52
788.64	41231.75
788.82	41700.74
789.01	41301.39
789.19	41702.79
789.37	40922.51
789.55	40963.47
789.73	40621.46
789.91	40940.94
790.09	40560.02
790.28	40822.16
790.46	40783.25
790.64	40938.90
790.82	40576.40
791.00	40414.62
791.18	40672.66
791.36	40641.94
791.55	40560.02
791.73	40199.58
791.91	40203.67
792.09	40213.91
792.27	39728.55
792.45	40349.08
792.63	39937.44
792.81	39804.32
793.00	40347.03
793.18	39837.09
793.36	39630.24
793.54	39335.34
793.72	39503.27
793.90	39394.73
794.08	39038.38
794.26	39202.22
794.44	39220.65
794.62	38591.92
794.81	39065.00
794.99	38974.89
795.17	38792.62
795.35	38778.29
795.53	38843.82
795.71	38897.07
795.89	38219.19
796.07	38497.72
796.25	38149.56
796.43	38053.31
796.61	38008.25
796.80	38030.78
796.98	38112.70
797.16	37651.91
797.34	37866.94
797.52	37490.12
797.70	37936.57
797.88	37447.11
798.06	37025.23
798.24	37127.63
798.42	37481.92
798.60	37223.88
798.78	37041.61
798.96	37174.73
799.14	37033.42
799.32	36617.68
799.51	36373.97
799.69	37012.94
799.87	36871.63
800.05	36189.66
800.23	36300.25
800.41	36607.44
800.59	36150.74
800.77	36244.95
800.95	35698.14
801.13	35960.28
801.31	35732.96
801.49	35810.78
801.67	35452.39
801.85	35915.23
802.03	35552.74
802.21	35306.98
802.39	35376.61
802.57	35040.75
802.75	34993.64
802.93	35214.82
803.11	34885.10
803.29	34797.04
803.47	34594.29
803.65	34983.40
803.83	34993.64
804.01	34203.13
804.19	34358.77
804.37	34291.19
804.55	34387.44
804.73	34434.55
804.91	34219.51
805.09	34170.36
805.27	34039.29
805.45	34393.59
805.63	33912.31
805.81	33740.29
805.99	33760.76
806.17	33947.13
806.35	33785.34
806.53	33496.58
806.71	33316.36
806.89	33566.21
807.07	33562.11
807.25	33355.27
807.43	33183.24
807.61	32951.82
807.79	32855.56
807.97	32775.69
808.15	33177.09
808.33	33064.46
808.51	32574.99
808.69	32859.66
808.87	32560.66
809.05	32501.26
809.23	32454.16
809.41	32345.62
809.59	32374.29
809.77	32523.79
809.95	32488.98
810.13	32638.48
810.31	31936.02
810.49	31813.15
810.67	32001.56
810.84	32075.29
811.02	31911.45
811.20	31413.79
811.38	31702.56
811.56	31393.31
811.74	31501.86
811.92	31376.93
812.10	31548.96
812.28	31917.59
812.46	31434.27
812.64	31407.65
812.82	31215.14
813.00	31002.15
813.18	31278.63
813.36	31118.89
813.53	30848.55
813.71	31020.58
813.89	30742.06
814.07	30848.55
814.25	30901.80
814.43	30428.72
814.61	30522.93
814.79	30361.14
814.97	30623.28
815.15	30541.36
815.33	30193.20
815.50	30090.80
815.68	30473.78
815.86	30531.12
816.04	30463.54
816.22	30230.07
816.40	30297.65
816.58	30289.46
816.76	30082.61
816.94	30201.40
817.11	29963.83
817.29	29947.45
817.47	29679.16
817.65	30060.09
817.83	29990.45
818.01	29738.55
818.19	29365.82
818.37	29650.49
818.54	29404.74
818.72	29294.14
818.90	29519.42
819.08	29584.96
819.26	29636.16
819.44	29222.47
819.62	29365.82
819.80	29503.04
819.97	29566.52
820.15	29122.12
820.33	29109.83
820.51	29005.38
820.69	28976.71
820.87	29025.86
821.05	29089.35
821.22	29224.51
821.40	28702.28
821.58	28806.73
821.76	28884.55
821.94	28638.80
822.12	28780.10
822.29	28722.76
822.47	28427.85
822.65	28692.04
822.83	28091.99
823.01	28268.11
823.19	28184.15
823.36	27973.21
823.54	28335.70
823.72	28014.16
823.90	28057.17
824.08	28020.31
824.25	27956.82
824.43	27868.76
824.61	27944.53
824.79	28155.47
824.97	27829.85
825.15	28104.28
825.32	27942.49
825.50	27737.69
825.68	27842.14
825.86	27872.85
826.04	27967.06
826.21	27639.39
826.39	27563.61
826.57	27657.82
826.75	27313.76
826.93	27332.19
827.10	27885.14
827.28	27592.28
827.46	27721.30
827.64	27545.18
827.81	27362.91
827.99	27389.53
828.17	27143.78
828.35	27121.25
828.53	27133.54
828.70	27448.93
828.88	27106.91
829.06	27350.62
829.24	27053.67
829.41	27104.87
829.59	27278.94
829.77	27147.87
829.95	27209.31
830.12	26678.89
830.30	27035.24
830.48	26715.75
830.66	26961.51
830.84	26855.01
831.01	26746.47
831.19	26775.14
831.37	26457.71
831.55	26326.64
831.72	26599.02
831.90	26508.91
832.08	26797.67
832.25	26480.24
832.43	26670.70
832.61	26435.18
832.79	26556.01
832.96	26297.97
833.14	26535.53
833.32	26424.94
833.50	27008.61
833.67	26633.83
833.85	26175.09
834.03	26205.81
834.20	26156.66
834.38	26406.51
834.56	26715.75
834.74	26109.55
834.91	26168.94
835.09	25972.34
835.27	25837.17
835.44	25906.80
835.62	25720.44
835.80	25861.75
835.98	25828.98
836.15	25781.88
836.33	25802.36
836.51	25974.39
836.68	25620.09
836.86	25652.86
837.04	25591.42
837.21	25652.86
837.39	25667.19
837.57	25609.85
837.75	25835.13
837.92	25407.10
838.10	25581.18
838.28	25222.78
838.45	25566.84
838.63	25337.47
838.81	25585.27
838.98	25493.12
839.16	25503.35
839.34	25478.78
839.51	25089.67
839.69	25409.15
839.87	25243.26
840.04	25579.13
840.22	25527.93
840.40	25083.52
840.57	25208.45
840.75	25101.95
840.93	24704.65
841.10	25304.70
841.28	25486.97
841.46	24839.81
841.63	25140.86
841.81	25214.59
841.98	24917.64
842.16	25095.81
842.34	25122.43
842.51	24815.24
842.69	24981.12
842.87	24716.93
843.04	24870.53
843.22	24725.13
843.40	24913.54
843.57	24874.63
843.75	25056.90
843.92	24733.32
844.10	24483.47
844.28	24735.37
844.45	24794.76
844.63	24651.40
844.81	24639.11
844.98	24835.72
845.16	24450.70
845.33	24612.49
845.51	24637.06
845.69	24266.38
845.86	24276.62
846.04	24247.95
846.21	24344.20
846.39	24317.58
846.57	24376.97
846.74	24182.42
846.92	24344.20
847.09	24170.13
847.27	23989.91
847.45	24143.50
847.62	24413.84
847.80	24084.11
847.97	23971.47
848.15	23932.56
848.32	23697.05
848.50	24108.69
848.68	23748.25
848.85	23885.46
849.03	23776.92
849.20	23996.05
849.38	23565.98
849.56	23651.99
849.73	23549.59
849.91	23735.96
850.08	23807.64
850.26	23600.79
850.43	23543.45
850.61	23658.14
850.78	23414.43
850.96	23469.72
851.14	23565.98
851.31	23623.32
851.49	23482.01
851.66	23764.63
851.84	23408.28
852.01	23809.68
852.19	23776.92
852.36	23658.14
852.54	23457.43
852.71	23332.51
852.89	22978.21
853.07	23242.40
853.24	23537.30
853.42	23262.88
853.59	22967.97
853.77	23484.06
853.94	23199.39
854.12	23613.08
854.29	22752.93
854.47	22978.21
854.64	23187.10
854.82	23076.51
854.99	22994.59
855.17	23035.55
855.34	23152.29
855.52	22816.42
855.69	23084.70
855.87	22826.66
856.04	22892.19
856.22	22767.27
856.39	22658.73
856.57	22740.64
856.74	22757.03
856.92	23133.86
857.09	22546.09
857.27	22570.66
857.44	23070.37
857.62	22654.63
857.79	22724.26
857.97	22628.01
858.14	22566.57
858.32	22560.42
858.49	22494.89
858.67	22441.64
858.84	22218.41
859.02	22316.72
859.19	22308.52
859.37	22245.04
859.54	22159.02
859.72	22453.93
859.89	22576.81
860.06	22345.39
860.24	22025.90
860.41	22281.90
860.59	22027.95
860.76	22283.95
860.94	21864.11
861.11	22265.52
861.29	22021.81
861.46	22181.55
861.64	21769.91
861.81	21817.01
861.98	21896.88
862.16	21911.22
862.33	21659.32
862.51	21878.45
862.68	21767.86
862.86	21700.28
863.03	21470.90
863.21	21735.09
863.38	21468.86
863.55	21448.38
863.73	22056.62
863.90	21595.83
864.08	21675.70
864.25	21616.31
864.43	21444.28
864.60	21319.35
864.77	21259.96
864.95	21608.12
865.12	21108.41
865.30	21556.92
865.47	21382.84
865.64	21169.85
865.82	21425.85
865.99	21255.87
866.17	21411.51
866.34	21206.72
866.51	20860.61
866.69	21143.23
866.86	21288.64
867.04	20958.91
867.21	21200.57
867.38	21128.89
867.56	20911.81
867.73	20917.95
867.91	20711.11
868.08	21108.41
868.25	20565.70
868.43	20940.48
868.60	20661.96
868.78	20809.41
868.95	20672.20
869.12	20584.13
869.30	20604.61
869.47	20547.27
869.64	20530.89
869.82	20522.69
869.99	20444.87
870.16	20889.28
870.34	20664.00
870.51	20391.62
870.69	20483.78
870.86	20369.10
871.03	20446.92
871.21	20143.82
871.38	20422.34
871.55	20074.19
871.73	20043.47
871.90	20037.33
872.07	19984.08
872.25	19769.04
872.42	19889.87
872.59	19719.89
872.77	20029.13
872.94	19580.63
873.11	19916.50
873.29	19877.58
873.46	19846.87
873.63	19773.14
873.81	19578.58
873.98	19625.68
874.15	19807.95
874.33	19535.57
874.50	19486.42
874.67	19322.59
874.85	19519.19
875.02	19310.30
875.19	19416.79
875.37	19302.11
875.54	19238.62
875.71	19187.42
875.88	19136.22
876.06	19140.32
876.23	19228.38
876.40	19160.80
876.58	19244.76
876.75	19140.32
876.92	19011.29
877.10	18835.17
877.27	18786.02
877.44	18800.35
877.61	18646.76
877.79	18878.18
877.96	18484.97
878.13	18783.97
878.31	18364.14
878.48	18478.82
878.65	18538.21
878.82	18231.02
879.00	18446.05
879.17	18519.78
879.34	18472.68
879.51	18269.93
879.69	18255.59
879.86	18142.96
880.03	18058.99
880.21	17948.40
880.38	18446.05
880.55	18398.95
880.72	18188.01
880.90	18112.24
881.07	17837.81
881.24	17923.82
881.41	17870.58
881.59	17870.58
881.76	17782.51
881.93	17829.62
882.10	17872.62
882.28	17716.98
882.45	17893.10
882.62	17821.42
882.79	18132.72
882.96	17676.02
883.14	17817.33
883.31	17829.62
883.48	17569.52
883.65	17600.24
883.83	17751.79
884.00	17563.38
884.17	17743.60
884.34	17710.83
884.51	17645.30
884.69	17526.52
884.86	17536.76
885.03	17690.35
885.20	17227.51
885.38	17315.58
885.55	17383.16
885.72	17243.90
885.89	17184.51
886.06	17385.21
886.24	17422.07
886.41	17510.13
886.58	17342.20
886.75	17424.12
886.92	17110.78
887.10	17219.32
887.27	17028.86
887.44	17092.35
887.61	17374.97
887.78	17452.79
887.95	17106.68
888.13	16836.35
888.30	17090.30
888.47	16658.18
888.64	16893.69
888.81	16715.52
888.99	16592.64
889.16	16615.17
889.33	16695.04
889.50	16686.85
889.67	16510.72
889.84	16496.39
890.01	16707.33
890.19	16459.52
890.36	16744.19
890.53	16486.15
890.70	16324.36
890.87	16449.28
891.04	16105.23
891.22	16361.22
891.39	16195.34
891.56	16340.74
891.73	15996.68
891.90	16113.42
892.07	16092.94
892.24	16187.14
892.42	15998.73
892.59	16219.91
892.76	16074.51
892.93	15978.25
893.10	16123.66
893.27	16006.92
893.44	15965.96
893.61	16015.12
893.79	16094.99
893.96	15705.87
894.13	16013.07
894.30	16234.25
894.47	15879.95
894.64	15722.26
894.81	15920.91
894.98	15918.86
895.15	15933.20
895.33	15857.42
895.50	15896.33
895.67	15673.10
895.84	15755.02
896.01	15476.50
896.18	15654.67
896.35	15955.72
896.52	15691.54
896.69	15793.94
896.86	15615.76
897.04	15968.01
897.21	15765.26
897.38	15353.62
897.55	15675.15
897.72	15824.65
897.89	15836.94
898.06	15699.73
898.23	15705.87
898.40	15453.97
898.57	15490.84
898.74	15869.71
898.91	15560.47
899.08	15818.51
899.26	15527.70
899.43	15636.24
899.60	15558.42
899.77	15675.15
899.94	15339.29
900.11	15265.56
900.28	15615.76
900.45	15589.14
900.62	15175.45
900.79	15683.34
900.96	15228.70
901.13	15494.93
901.30	15312.66
901.47	15394.58
901.64	15466.26
901.81	15429.40
901.98	15480.60
902.15	15247.13
902.32	15523.60
902.49	15281.94
902.66	15408.92
902.83	15435.54
903.01	15550.23
903.18	15189.78
903.35	15361.81
903.52	15370.01
903.69	15238.94
903.86	15437.59
904.03	15617.81
904.20	15413.01
904.37	15437.59
904.54	15392.53
904.71	15376.15
904.88	15339.29
905.05	15111.96
905.22	15372.05
905.39	15318.81
905.56	15488.79
905.73	15437.59
905.90	15253.27
906.07	15202.07
906.24	15302.42
906.41	15179.54
906.58	15247.13
906.75	15150.87
906.92	15228.70
907.09	15116.06
907.26	15388.44
907.43	15093.53
907.60	15066.91
907.77	15214.36
907.93	15152.92
908.10	15212.31
908.27	15339.29
908.44	15109.91
908.61	14980.89
908.78	15345.43
908.95	15038.23
909.12	15075.10
909.29	15075.10
909.46	15034.14
909.63	15093.53
909.80	15077.15
909.97	14853.92
910.14	14853.92
910.31	14925.60
910.48	15011.61
910.65	15023.90
910.82	15015.71
910.99	14827.29
911.16	15040.28
911.33	14966.56
911.50	14862.11
911.66	14829.34
911.83	14864.16
912.00	14708.51
912.17	14757.66
912.34	14595.87
912.51	14741.28
912.68	14438.18
912.85	14552.87
913.02	14591.78
913.19	14731.04
913.36	14589.73
913.53	14620.45
913.70	14403.36
913.86	14638.88
914.03	14350.12
914.20	14552.87
914.37	14511.91
914.54	14167.85
914.71	14354.21
914.88	14475.04
915.05	14165.80
915.22	14034.73
915.39	14221.10
915.55	14268.20
915.72	14085.93
915.89	14208.81
916.06	14096.17
916.23	14178.09
916.40	13901.61
916.57	13815.60
916.74	13975.34
916.91	14133.03
917.07	13748.01
917.24	13836.08
917.41	13905.71
917.58	13846.32
917.75	13924.14
917.92	13604.66
918.09	13494.07
918.26	13504.31
918.42	13639.47
918.59	13627.18
918.76	13279.03
918.93	13334.32
919.10	13250.36
919.27	13367.09
919.44	13594.42
919.60	13246.26
919.77	13303.60
919.94	13133.62
920.11	13268.79
920.28	13225.78
920.45	13041.46
920.61	13182.77
920.78	13078.33
920.95	12836.67
921.12	12867.39
921.29	12975.93
921.46	12783.42
921.62	12554.05
921.79	12939.07
921.96	12752.70
922.13	12572.48
922.30	12433.22
922.47	12586.82
922.63	12326.72
922.80	12449.60
922.97	12336.96
923.14	12222.28
923.31	12279.62
923.47	12040.01
923.64	12488.51
923.81	12109.64
923.98	12253.00
924.15	12046.15
924.32	12214.09
924.48	12001.10
924.65	11974.47
924.82	11986.76
924.99	11908.94
925.15	11716.43
925.32	11910.99
925.49	11564.88
925.66	11673.42
925.83	11568.98
925.99	11679.57
926.16	11462.48
926.33	11497.30
926.50	11403.09
926.67	11595.60
926.83	11468.62
927.00	11315.03
927.17	11362.13
927.34	11251.54
927.50	11398.99
927.67	11431.76
927.84	11020.12
928.01	11173.72
928.17	11016.02
928.34	11052.89
928.51	10843.99
928.68	10907.48
928.84	10870.62
929.01	10839.90
929.18	10725.21
929.35	10577.76
929.51	10579.81
929.68	10551.14
929.85	10647.39
930.02	10491.74
930.18	10592.09
930.35	10452.83
930.52	10461.02
930.69	10368.87
930.85	10309.47
931.02	10305.38
931.19	10164.07
931.36	10000.23
931.52	10217.32
931.69	10254.18
931.86	9949.03
932.02	9901.93
932.19	9844.59
932.36	10004.33
932.53	9824.11
932.69	9822.06
932.86	9860.97
933.03	9850.73
933.19	9633.64
933.36	9742.19
933.53	9836.39
933.70	9514.86
933.86	9631.60
934.03	9615.21
934.20	9410.42
934.36	9461.62
934.53	9092.98
934.70	9250.67
934.86	9265.01
935.03	8920.95
935.20	8980.34
935.36	8937.34
935.53	8916.86
935.70	8761.21
935.86	8884.09
936.03	8703.87
936.20	8441.73
936.36	8462.21
936.53	8386.43
936.70	8408.96
936.86	8464.25
937.03	8378.24
937.20	8089.48
937.36	8220.55
937.53	7962.50
937.70	7890.82
937.86	7751.56
938.03	7630.73
938.20	7722.89
938.36	7659.40
938.53	7520.14
938.70	7561.10
938.86	7393.17
939.03	7356.30
939.20	7153.55
939.36	7085.97
939.53	7096.21
939.70	7219.09
939.86	6829.98
940.03	6905.75
940.19	6793.11
940.36	6850.46
940.53	6754.20
940.69	6467.49
940.86	6571.93
941.03	6473.63
941.19	6514.59
941.36	6363.04
941.52	6356.90
941.69	6211.49
941.86	6080.42
942.02	6057.89
942.19	5869.48
942.35	6064.04
942.52	6053.80
942.69	5824.42
942.85	5736.36
943.02	5861.29
943.18	5812.14
943.35	5701.54
943.52	5689.26
943.68	5760.94
943.85	5785.51
944.01	5410.73
944.18	5492.65
944.35	5568.43
944.51	5545.90
944.68	5263.28
944.84	5334.96
945.01	5423.02
945.17	5246.90
945.34	5326.77
945.51	5259.18
945.67	5367.73
945.84	5351.34
946.00	5291.95
946.17	5275.57
946.33	5246.90
946.50	5425.07
946.67	5285.81
946.83	5396.40
947.00	5341.10
947.16	5226.42
947.33	5265.33
947.49	5347.25
947.66	5289.90
947.82	5369.77
947.99	5359.53
948.16	5263.28
948.32	5320.62
948.49	5406.64
948.65	5328.81
948.82	5371.82
948.98	5271.47
949.15	5081.01
949.31	5373.87
949.48	5203.89
949.64	5167.03
949.81	5177.26
949.97	5214.13
950.14	5283.76
950.30	5195.70
950.47	5308.34
950.63	5187.50
950.80	5291.95
950.96	5271.47
951.13	5287.86
951.30	5328.81
951.46	5167.03
951.63	5412.78
951.79	5349.29
951.96	5353.39
952.12	5341.10
952.29	5318.57
952.45	5277.62
952.62	5302.19
952.78	5433.26
952.94	5324.72
953.11	5339.05
953.27	5261.23
953.44	5392.30
953.60	5400.49
953.77	5384.11
953.93	5416.88
954.10	5384.11
954.26	5521.32
954.43	5205.94
954.59	5400.49
954.76	5443.50
954.92	5425.07
955.09	5439.40
955.25	5349.29
955.42	5504.94
955.58	5453.74
955.75	5347.25
955.91	5388.21
956.07	5482.41
956.24	5312.43
956.40	5392.30
956.57	5365.68
956.73	5427.12
956.90	5408.69
957.06	5361.58
957.23	5388.21
957.39	5443.50
957.56	5474.22
957.72	5359.53
957.88	5423.02
958.05	5371.82
958.21	5476.27
958.38	5466.03
958.54	5509.04
958.71	5525.42
958.87	5410.73
959.03	5486.51
959.20	5550.00
959.36	5478.32
959.53	5398.45
959.69	5431.21
959.85	5488.56
960.02	5394.35
960.18	5511.08
960.35	5355.44
960.51	5261.23
960.68	5402.54
960.84	5513.13
961.00	5369.77
961.17	5441.45
961.33	5517.23
961.50	5496.75
961.66	5300.14
961.82	5306.29
961.99	5343.15
962.15	5439.40
962.31	5420.97
962.48	5367.73
962.64	5343.15
962.81	5312.43
962.97	5439.40
963.13	5373.87
963.30	5418.93
963.46	5314.48
963.62	5265.33
963.79	5337.01
963.95	5156.79
964.12	5271.47
964.28	5355.44
964.44	5355.44
964.61	5384.11
964.77	5314.48
964.93	5400.49
965.10	5285.81
965.26	5355.44
965.42	5275.57
965.59	5255.09
965.75	5226.42
965.92	5298.10
966.08	5279.66
966.24	5431.21
966.41	5226.42
966.57	5216.18
966.73	5269.42
966.90	5234.61
967.06	5296.05
967.22	5273.52
967.39	5330.86
967.55	5287.86
967.71	5248.94
967.88	5199.79
968.04	5224.37
968.20	5263.28
968.37	5156.79
968.53	5179.31
968.69	5253.04
968.85	5281.71
969.02	5263.28
969.18	5214.13
969.34	5201.84
969.51	5164.98
969.67	5212.08
969.83	5031.86
970.00	5205.94
970.16	5199.79
970.32	5150.64
970.48	5367.73
970.65	5074.87
970.81	4972.47
970.97	5099.44
971.14	4904.89
971.30	5224.37
971.46	5107.63
971.63	5056.43
971.79	5054.39
971.95	4964.28
972.11	4935.60
972.28	4915.12
972.44	4968.37
972.60	4917.17
972.76	5107.63
972.93	4978.61
973.09	4990.90
973.25	4962.23
973.42	4908.98
973.58	4925.36
973.74	4976.56
973.90	4935.60
974.07	4972.47
974.23	4882.36
974.39	5005.24
974.55	4851.64
974.72	4884.41
974.88	4820.92
975.04	4865.97
975.20	4765.62
975.37	4884.41
975.53	4851.64
975.69	4712.38
975.85	4876.21
976.01	4792.25
976.18	4722.62
976.34	4757.43
976.50	4820.92
976.66	4771.77
976.83	4751.29
976.99	4730.81
977.15	4765.62
977.31	4663.22
977.47	4718.52
977.64	4687.80
977.80	4712.38
977.96	4704.18
978.12	4546.49
978.29	4628.41
978.45	4550.59
978.61	4644.79
978.77	4747.19
978.93	4597.69
979.10	4523.96
979.26	4485.05
979.42	4517.82
979.58	4491.20
979.74	4562.87
979.91	4628.41
980.07	4407.23
980.23	4480.96
980.39	4366.27
980.55	4513.72
980.71	4544.44
980.88	4429.76
981.04	4407.23
981.20	4487.10
981.36	4493.24
981.52	4450.24
981.68	4241.34
981.85	4341.69
982.01	4374.46
982.17	4224.96
982.33	4415.42
982.49	4497.34
982.65	4259.78
982.82	4360.13
982.98	4294.59
983.14	4143.04
983.30	4390.84
983.46	4540.35
983.62	4241.34
983.79	4245.44
983.95	4376.51
984.11	4122.56
984.27	4286.40
984.43	4255.68
984.59	4085.70
984.75	4188.10
984.91	4136.90
985.08	4296.64
985.24	4071.36
985.40	4145.09
985.56	4067.27
985.72	4255.68
985.88	4265.92
986.04	4179.90
986.20	4169.66
986.37	4165.57
986.53	4048.83
986.69	4171.71
986.85	4052.93
987.01	4138.94
987.17	4005.83
987.33	4069.31
987.49	4067.27
987.65	4202.43
987.82	4003.78
987.98	4075.46
988.14	4003.78
988.30	3925.96
988.46	3971.01
988.62	4097.99
988.78	3995.59
988.94	3981.25
989.10	3938.24
989.26	3919.81
989.42	3887.04
989.59	3862.47
989.75	3893.19
989.91	3880.90
990.07	3751.88
990.23	3891.14
990.39	3823.56
990.55	3913.67
990.71	3786.69
990.87	3815.37
991.03	3872.71
991.19	3809.22
991.35	3786.69
991.51	3870.66
991.67	3868.61
991.83	3850.18
992.00	3712.97
992.16	3747.78
992.32	3755.97
992.48	3903.43
992.64	3641.29
992.80	3739.59
992.96	3786.69
993.12	3760.07
993.28	3807.17
993.44	3600.33
993.60	3686.34
993.76	3708.87
993.92	3731.40
994.08	3801.03
994.24	3663.82
994.40	3626.95
994.56	3661.77
994.72	3579.85
994.88	3602.38
995.04	3741.64
995.20	3604.42
995.36	3538.89
995.52	3567.56
995.68	3690.44
995.84	3590.09
996.00	3657.67
996.16	3561.42
996.32	3473.36
996.48	3532.75
996.64	3592.14
996.80	3461.07
996.96	3518.41
997.12	3510.22
997.28	3495.88
997.44	3381.20
997.60	3583.95
997.76	3395.53
997.92	3485.64
998.08	3479.50
998.24	3403.72
998.40	3585.99
998.56	3452.88
998.72	3346.38
998.88	3411.92
999.04	3297.23
999.20	3424.20
999.36	3256.27
999.52	3413.96
999.68	3354.57
999.84	3377.10
1000.00	3344.33
1000.16	3354.57
1000.32	3250.13
1000.48	3342.28
1000.64	3246.03
1000.80	3121.10
1000.95	3131.34
1001.11	3368.91
1001.27	3168.21
1001.43	3364.81
1001.59	3217.36
1001.75	3164.11
1001.91	3243.98
1002.07	3047.38
1002.23	3172.30
1002.39	3170.26
1002.55	3186.64
1002.71	3069.91
1002.87	3117.01
1003.03	3110.86
1003.19	3143.63
1003.34	3145.68
1003.50	3117.01
1003.66	3166.16
1003.82	3182.54
1003.98	3125.20
1004.14	3100.62
1004.30	3006.42
1004.46	2977.75
1004.62	3102.67
1004.78	3082.19
1004.94	3198.93
1005.09	3200.98
1005.25	3086.29
1005.41	3131.34
1005.57	3035.09
1005.73	2947.03
1005.89	2965.46
1006.05	3127.25
1006.21	3035.09
1006.37	2983.89
1006.52	2990.03
1006.68	2932.69
1006.84	2990.03
1007.00	2928.60
1007.16	3000.27
1007.32	2965.46
1007.48	2912.21
1007.64	2895.83
1007.79	2944.98
1007.95	2918.36
1008.11	3024.85
1008.27	2910.16
1008.43	2852.82
1008.59	2908.12
1008.75	3000.27
1008.91	2942.93
1009.06	2818.00
1009.22	2895.83
1009.38	2846.68
1009.54	2836.44
1009.70	2746.33
1009.86	2848.72
1010.01	2729.94
1010.17	2764.76
1010.33	2928.60
1010.49	2801.62
1010.65	2803.67
1010.81	2680.79
1010.96	2797.53
1011.12	2719.70
1011.28	2645.98
1011.44	2889.68
1011.60	2762.71
1011.76	2748.37
1011.91	2793.43
1012.07	2605.02
1012.23	2707.41
1012.39	2693.08
1012.55	2795.48
1012.71	2668.50
1012.86	2686.94
1013.02	2680.79
1013.18	2701.27
1013.34	2643.93
1013.50	2717.65
1013.65	2754.52
1013.81	2564.06
1013.97	2551.77
1014.13	2623.45
1014.29	2609.11
1014.44	2658.26
1014.60	2619.35
1014.76	2611.16
1014.92	2641.88
1015.07	2686.94
1015.23	2652.12
1015.39	2592.73
1015.55	2566.10
1015.71	2519.00
1015.86	2539.48
1016.02	2580.44
1016.18	2437.08
1016.34	2471.90
1016.49	2586.58
1016.65	2570.20
1016.81	2482.14
1016.97	2482.14
1017.12	2529.24
1017.28	2457.56
1017.44	2465.75
1017.60	2482.14
1017.75	2469.85
1017.91	2529.24
1018.07	2502.62
1018.23	2416.60
1018.38	2488.28
1018.54	2465.75
1018.70	2504.67
1018.86	2400.22
1019.01	2357.21
1019.17	2443.23
1019.33	2523.10
1019.49	2416.60
1019.64	2473.95
1019.80	2351.07
1019.96	2400.22
1020.12	2443.23
1020.27	2299.87
1020.43	2453.47
1020.59	2383.84
1020.74	2400.22
1020.90	2486.23
1021.06	2410.46
1021.22	2371.55
1021.37	2385.88
1021.53	2297.82
1021.69	2400.22
1021.84	2312.16
1022.00	2412.51
1022.16	2351.07
1022.31	2246.62
1022.47	2340.83
1022.63	2271.20
1022.79	2220.00
1022.94	2320.35
1023.10	2412.51
1023.26	2363.36
1023.41	2271.20
1023.57	2258.91
1023.73	2289.63
1023.88	2250.72
1024.04	2273.25
1024.20	2295.77
1024.35	2291.68
1024.51	2398.17
1024.67	2220.00
1024.82	2306.01
1024.98	2183.13
1025.14	2303.96
1025.29	2156.51
1025.45	2303.96
1025.61	2164.70
1025.76	2148.32
1025.92	2154.46
1026.08	2174.94
1026.23	2236.38
1026.39	2291.68
1026.55	2197.47
1026.70	2181.09
1026.86	2148.32
1027.02	2232.29
1027.17	2121.70
1027.33	2170.85
1027.48	2160.61
1027.64	2123.74
1027.80	2097.12
1027.95	2271.20
1028.11	2033.63
1028.27	2170.85
1028.42	2136.03
1028.58	2117.60
1028.73	2121.70
1028.89	2115.55
1029.05	2176.99
1029.20	2129.89
>>>>>End Processed Spectral Data<<<<<
