SpectraSuite Data File
++++++++++++++++++++++++++++++++++++
Date: Fri Jun 02 14:44:35 CEST 2017
User: INFO_000
Dark Spectrum Present: No
Reference Spectrum Present: No
Number of Sampled Component Spectra: 1
Spectrometers: USB4H00879
Integration Time (usec): 80000 (USB4H00879)
Spectra Averaged: 1 (USB4H00879)
Boxcar Smoothing: 0 (USB4H00879)
Correct for Electrical Dark: No (USB4H00879)
Strobe/Lamp Enabled: No (USB4H00879)
Correct for Detector Non-linearity: No (USB4H00879)
Correct for Stray Light: No (USB4H00879)
Number of Pixels in Processed Spectrum: 3648
>>>>>Begin Processed Spectral Data<<<<<
345.13	1230.83
345.34	1230.83
345.56	1230.83
345.78	1216.49
345.99	1304.56
346.21	1697.77
346.42	1667.05
346.64	1652.71
346.86	1773.54
347.07	1632.23
347.29	1716.20
347.50	1611.75
347.72	1656.81
347.94	1759.21
348.15	1587.18
348.37	1621.99
348.59	1761.25
348.80	1673.19
349.02	1804.26
349.23	1896.42
349.45	1841.12
349.67	1882.08
349.88	1779.68
350.10	1951.71
350.31	1781.73
350.53	1773.54
350.75	1968.10
350.96	1785.83
351.18	1902.56
351.39	1748.97
351.61	1748.97
351.82	1888.23
352.04	1906.66
352.26	1804.26
352.47	1826.79
352.69	1875.94
352.90	1703.91
353.12	1822.69
353.34	1880.04
353.55	1937.38
353.77	1884.13
353.98	1865.70
354.20	1808.36
354.41	1923.04
354.63	1984.48
354.85	1976.29
355.06	1888.23
355.28	1863.65
355.49	1828.84
355.71	1904.61
355.92	1804.26
356.14	1968.10
356.35	1890.28
356.57	1798.12
356.79	2004.96
357.00	1824.74
357.22	1970.15
357.43	1886.18
357.65	1904.61
357.86	1789.92
358.08	1843.17
358.29	1953.76
358.51	1945.57
358.72	1959.91
358.94	1910.75
359.16	1916.90
359.37	1988.58
359.59	1884.13
359.80	1968.10
360.02	1966.05
360.23	1935.33
360.45	1978.34
360.66	1910.75
360.88	1904.61
361.09	1945.57
361.31	1961.95
361.52	1949.67
361.74	2105.31
361.95	2121.70
362.17	1972.19
362.38	2066.40
362.60	1998.82
362.81	2002.91
363.03	1970.15
363.24	1947.62
363.46	2000.87
363.67	1972.19
363.89	1990.63
364.10	2013.15
364.32	2039.78
364.53	1945.57
364.75	1884.13
364.96	1996.77
365.18	1972.19
365.39	2068.45
365.61	1968.10
365.82	2154.46
366.04	2060.26
366.25	1908.71
366.47	2056.16
366.68	2074.59
366.90	1916.90
367.11	2043.87
367.33	2074.59
367.54	2166.75
367.76	2002.91
367.97	2082.78
368.19	2043.87
368.40	2011.11
368.62	1994.72
368.83	2056.16
369.05	2117.60
369.26	2002.91
369.48	2031.58
369.69	1994.72
369.91	2013.15
370.12	2027.49
370.33	2166.75
370.55	1959.91
370.76	2027.49
370.98	1990.63
371.19	1972.19
371.41	2037.73
371.62	2011.11
371.84	1996.77
372.05	2195.42
372.27	2025.44
372.48	2133.98
372.69	2105.31
372.91	2117.60
373.12	2115.55
373.34	2160.61
373.55	2140.13
373.77	2166.75
373.98	2111.46
374.20	2088.93
374.41	2224.09
374.62	2127.84
374.84	2107.36
375.05	2213.85
375.27	2113.50
375.48	2107.36
375.70	2148.32
375.91	2191.33
376.12	2308.06
376.34	2213.85
376.55	2181.09
376.77	2176.99
376.98	2111.46
377.19	2174.94
377.41	2103.26
377.62	2246.62
377.84	2209.76
378.05	2236.38
378.27	2174.94
378.48	2308.06
378.69	2459.61
378.91	2265.05
379.12	2142.18
379.34	2273.25
379.55	2271.20
379.76	2263.01
379.98	2123.74
380.19	2197.47
380.41	2215.90
380.62	2334.68
380.83	2195.42
381.05	2183.13
381.26	2443.23
381.47	2258.91
381.69	2297.82
381.90	2498.52
382.12	2279.39
382.33	2189.28
382.54	2371.55
382.76	2375.64
382.97	2312.16
383.19	2125.79
383.40	2453.47
383.61	2322.40
383.83	2271.20
384.04	2310.11
384.25	2377.69
384.47	2480.09
384.68	2381.79
384.89	2252.77
385.11	2344.92
385.32	2273.25
385.54	2326.49
385.75	2367.45
385.96	2500.57
386.18	2371.55
386.39	2377.69
386.60	2295.77
386.82	2430.94
387.03	2441.18
387.24	2426.84
387.46	2441.18
387.67	2555.86
387.88	2514.91
388.10	2432.99
388.31	2545.63
388.52	2510.81
388.74	2428.89
388.95	2430.94
389.16	2539.48
389.38	2555.86
389.59	2666.46
389.80	2596.82
390.02	2580.44
390.23	2580.44
390.44	2557.91
390.66	2602.97
390.87	2527.19
391.08	2600.92
391.30	2658.26
391.51	2662.36
391.72	2715.61
391.94	2643.93
392.15	2703.32
392.36	2609.11
392.58	2592.73
392.79	2648.02
393.00	2701.27
393.22	2691.03
393.43	2787.29
393.64	2822.10
393.85	2762.71
394.07	2691.03
394.28	2731.99
394.49	2832.34
394.71	2789.33
394.92	2955.22
395.13	2705.37
395.35	2797.53
395.56	2779.09
395.77	2803.67
395.98	2858.96
396.20	2885.59
396.41	2789.33
396.62	2916.31
396.84	2723.80
397.05	2797.53
397.26	2863.06
397.47	2992.08
397.69	2760.66
397.90	3047.38
398.11	2947.03
398.32	2957.27
398.54	2901.97
398.75	2895.83
398.96	2977.75
399.18	3061.71
399.39	2881.49
399.60	3006.42
399.81	2983.89
400.03	2947.03
400.24	3280.85
400.45	3086.29
400.66	3045.33
400.88	3008.47
401.09	3172.30
401.30	3012.56
401.51	3157.97
401.73	2992.08
401.94	3153.87
402.15	3180.50
402.36	3108.82
402.58	3106.77
402.79	3190.74
403.00	3076.05
403.21	3174.35
403.43	3182.54
403.64	3196.88
403.85	3082.19
404.06	3297.23
404.27	3121.10
404.49	3069.91
404.70	3153.87
404.91	3297.23
405.12	3330.00
405.34	3180.50
405.55	3420.11
405.76	3114.96
405.97	3160.02
406.19	3471.31
406.40	3219.41
406.61	3370.96
406.82	3250.13
407.03	3420.11
407.25	3248.08
407.46	3370.96
407.67	3413.96
407.88	3452.88
408.09	3354.57
408.31	3364.81
408.52	3370.96
408.73	3311.57
408.94	3336.14
409.15	3444.68
409.37	3532.75
409.58	3456.97
409.79	3461.07
410.00	3514.31
410.21	3508.17
410.43	3524.55
410.64	3444.68
410.85	3534.79
411.06	3569.61
411.27	3583.95
411.48	3626.95
411.70	3575.75
411.91	3637.19
412.12	3710.92
412.33	3598.28
412.54	3647.43
412.76	3764.17
412.97	3649.48
413.18	3483.59
413.39	3715.02
413.60	3766.21
413.81	3704.78
414.03	3688.39
414.24	3598.28
414.45	3825.61
414.66	3653.58
414.87	3661.77
415.08	3827.65
415.30	3801.03
415.51	3784.65
415.72	3661.77
415.93	3682.25
416.14	3817.41
416.35	3958.72
416.56	3911.62
416.78	3958.72
416.99	3889.09
417.20	3936.20
417.41	3925.96
417.62	3905.48
417.83	3841.99
418.04	3858.37
418.26	3936.20
418.47	3977.16
418.68	4003.78
418.89	4052.93
419.10	4161.47
419.31	3962.82
419.52	4208.58
419.73	4018.11
419.95	4138.94
420.16	3956.68
420.37	4069.31
420.58	4206.53
420.79	3917.76
421.00	4143.04
421.21	4231.10
421.42	4093.89
421.63	4007.87
421.85	4071.36
422.06	4249.54
422.27	4251.58
422.48	4298.69
422.69	4272.06
422.90	4343.74
423.11	4282.30
423.32	4302.78
423.53	4534.20
423.75	4251.58
423.96	4462.52
424.17	4474.81
424.38	4612.03
424.59	4419.52
424.80	4745.14
425.01	4442.04
425.22	4505.53
425.43	4374.46
425.64	4763.58
425.85	4616.12
426.06	4509.63
426.28	4513.72
426.49	4452.28
426.70	4591.55
426.91	4415.42
427.12	4724.66
427.33	4493.24
427.54	4644.79
427.75	4716.47
427.96	4874.17
428.17	4761.53
428.38	4753.34
428.59	4855.73
428.80	4818.87
429.01	4851.64
429.23	4779.96
429.44	4894.65
429.65	4997.04
429.86	4995.00
430.07	4861.88
430.28	4806.58
430.49	4904.89
430.70	5191.60
430.91	5060.53
431.12	4980.66
431.33	5074.87
431.54	4990.90
431.75	5103.54
431.96	5214.13
432.17	5140.40
432.38	5130.16
432.59	5396.40
432.80	5197.74
433.01	5359.53
433.22	5312.43
433.43	5273.52
433.64	5224.37
433.85	5242.80
434.06	5511.08
434.27	5222.32
434.49	5402.54
434.70	5451.69
434.91	5390.25
435.12	5511.08
435.33	5500.84
435.54	5560.24
435.75	5410.73
435.96	5550.00
436.17	5431.21
436.38	5607.34
436.59	5597.10
436.80	5527.47
437.01	5877.67
437.22	5746.60
437.43	5732.26
437.64	5533.61
437.85	5779.37
438.06	5822.38
438.27	5662.63
438.48	5689.26
438.69	5793.70
438.90	5851.05
439.11	5713.83
439.32	5873.57
439.53	5805.99
439.74	5789.61
439.95	5865.38
440.16	6008.74
440.37	5869.48
440.57	5898.15
440.78	5973.92
440.99	6045.60
441.20	6061.99
441.41	5932.97
441.62	6090.66
441.83	6045.60
442.04	6041.51
442.25	5967.78
442.46	6016.93
442.67	6303.65
442.88	6510.49
443.09	6102.95
443.30	6219.68
443.51	6283.17
443.72	6483.87
443.93	6236.06
444.14	6614.94
444.35	6246.30
444.56	6389.66
444.77	6363.04
444.98	6522.78
445.19	6705.05
445.40	6297.50
445.61	6367.13
445.81	6694.81
446.02	6680.47
446.23	6483.87
446.44	6350.75
446.65	6553.50
446.86	6582.17
447.07	6625.18
447.28	6942.61
447.49	6877.08
447.70	6598.56
447.91	6907.80
448.12	6655.90
448.33	6913.94
448.54	6819.74
448.74	6797.21
448.95	6975.38
449.16	6915.99
449.37	7116.69
449.58	7098.26
449.79	7204.75
450.00	6688.67
450.21	7075.73
450.42	6893.46
450.63	7223.19
450.84	7081.88
451.05	7014.29
451.25	7053.20
451.46	7067.54
451.67	7243.67
451.88	7116.69
452.09	7237.52
452.30	7161.75
452.51	7319.44
452.72	7272.34
452.93	7448.46
453.13	7178.13
453.34	7339.92
453.55	7292.82
453.76	7419.79
453.97	7739.27
454.18	7526.29
454.39	7669.64
454.60	7528.33
454.81	7579.53
455.01	7618.44
455.22	7409.55
455.43	7745.42
455.64	7829.38
455.85	7989.13
456.06	7880.58
456.27	7683.98
456.48	7784.33
456.68	7856.01
456.89	7874.44
457.10	7976.84
457.31	7899.02
457.52	7966.60
457.73	8204.16
457.94	8314.75
458.14	7966.60
458.35	8298.37
458.56	8306.56
458.77	8028.04
458.98	8128.39
459.19	8177.54
459.39	8368.00
459.60	8628.09
459.81	8329.09
460.02	8462.21
460.23	8392.58
460.44	8720.25
460.65	8681.34
460.85	8750.97
461.06	8820.60
461.27	8605.56
461.48	8851.32
461.69	8976.25
461.89	8617.85
462.10	8923.00
462.31	8734.59
462.52	8791.93
462.73	8908.66
462.94	9342.83
463.14	9144.18
463.35	9113.46
463.56	9658.22
463.77	9402.22
463.98	9260.91
464.18	9113.46
464.39	9430.90
464.60	9719.66
464.81	9412.46
465.02	9510.77
465.23	9834.35
465.43	9650.03
465.64	9805.67
465.85	9592.69
466.06	9680.75
466.27	10088.29
466.47	10041.19
466.68	10182.50
466.89	10084.20
467.10	10104.68
467.30	9957.22
467.51	10190.69
467.72	10757.98
467.93	10057.57
468.14	10508.13
468.34	10454.88
468.55	10477.41
468.76	10547.04
468.97	10544.99
469.17	10727.26
469.38	11044.70
469.59	11042.65
469.80	10755.93
470.01	11085.65
470.21	10897.24
470.42	11190.10
470.63	11411.28
470.84	11077.46
471.04	11278.16
471.25	11525.97
471.46	11292.50
471.67	11792.20
471.87	11558.74
472.08	12005.19
472.29	11978.57
472.50	11489.10
472.70	11767.63
472.91	11730.76
473.12	12316.48
473.33	12136.26
473.53	12498.75
473.74	12357.44
473.95	12459.84
474.16	12633.92
474.36	12435.27
474.57	12758.85
474.78	12842.81
474.99	12984.12
475.19	12611.39
475.40	13109.05
475.61	13152.06
475.81	13248.31
476.02	13393.72
476.23	13444.91
476.44	13444.91
476.64	13754.16
476.85	13750.06
477.06	13803.31
477.27	14032.68
477.47	13788.97
477.68	14210.86
477.89	14270.25
478.09	14118.70
478.30	14268.20
478.51	14366.50
478.71	14683.94
478.92	14634.78
479.13	14673.70
479.34	14941.98
479.54	14829.34
479.75	15034.14
479.96	14896.92
480.16	15093.53
480.37	15073.05
480.58	15521.56
480.78	15447.83
480.99	15539.99
481.20	15599.38
481.41	15562.51
481.61	15757.07
481.82	16000.78
482.03	16021.26
482.23	15910.67
482.44	16064.27
482.65	16346.89
482.85	16328.45
483.06	16305.93
483.27	16381.70
483.47	16463.62
483.68	16445.19
483.89	16736.00
484.09	16656.13
484.30	16830.21
484.51	17114.87
484.71	17121.02
484.92	17221.37
485.13	17299.19
485.33	17184.51
485.54	17090.30
485.75	17633.01
485.95	17430.26
486.16	17463.03
486.37	17598.20
486.57	17678.07
486.78	17661.68
486.98	17903.34
487.19	17811.18
487.40	18169.58
487.60	17997.55
487.81	18286.31
488.02	18294.50
488.22	18444.01
488.43	18685.67
488.64	18712.29
488.84	18706.15
489.05	18910.94
489.25	18826.98
489.46	18874.08
489.67	19134.17
489.87	19320.54
490.08	19134.17
490.29	19203.80
490.49	19674.84
490.70	19119.84
490.90	19537.62
491.11	19347.16
491.32	19855.06
491.52	19857.10
491.73	19721.94
491.94	19924.69
492.14	19816.15
492.35	20188.88
492.55	19844.82
492.76	20299.47
492.97	20731.59
493.17	20358.86
493.38	20436.68
493.58	20586.18
493.79	20563.65
494.00	20731.59
494.20	20872.90
494.41	20733.64
494.61	20952.77
494.82	21079.74
495.02	20991.68
495.23	21178.04
495.44	21272.25
495.64	21448.38
495.85	21165.76
496.05	21630.65
496.26	21575.35
496.47	21776.05
496.67	21587.64
496.88	22111.92
497.08	21622.45
497.29	21907.12
497.49	21831.35
497.70	22073.01
497.91	22314.67
498.11	22496.94
498.32	22300.33
498.52	22324.91
498.73	22490.79
498.93	22832.80
499.14	22871.72
499.34	22773.41
499.55	22902.43
499.76	22834.85
499.96	23094.94
500.17	23158.43
500.37	23221.92
500.58	23076.51
500.78	23094.94
500.99	23391.90
501.19	23475.87
501.40	23842.45
501.60	23299.74
501.81	23512.73
502.02	23668.37
502.22	23899.80
502.43	23928.47
502.63	24098.45
502.84	24297.10
503.04	24180.37
503.25	24419.98
503.45	24315.53
503.66	24645.26
503.86	24383.12
504.07	24817.29
504.27	24606.34
504.48	24948.36
504.68	24723.08
504.89	25173.63
505.09	25294.46
505.30	25230.98
505.50	25212.54
505.71	25273.98
505.91	25366.14
506.12	25116.29
506.32	25499.26
506.53	25534.07
506.73	25570.94
506.94	25368.19
507.14	25591.42
507.35	25745.02
507.55	26048.11
507.76	26488.43
507.96	26048.11
508.17	26351.21
508.37	25998.96
508.58	26175.09
508.78	26269.30
508.99	26828.39
509.19	26371.69
509.40	26441.32
509.60	26623.59
509.81	26848.87
510.01	26592.87
510.22	26926.69
510.42	26881.64
510.63	27254.37
510.83	26680.94
511.04	26979.94
511.24	27123.30
511.44	26820.20
511.65	27426.40
511.85	27287.14
512.06	27002.47
512.26	27633.24
512.47	27577.95
512.67	27498.08
512.88	27403.87
513.08	27477.60
513.29	28005.97
513.49	27729.50
513.69	27948.63
513.90	27713.11
514.10	27713.11
514.31	28042.84
514.51	28290.64
514.72	28139.09
514.92	28329.55
515.13	28116.56
515.33	28227.15
515.53	28413.52
515.74	28382.80
515.94	28235.35
516.15	28352.08
516.35	28276.30
516.56	28692.04
516.76	28595.79
516.96	28612.17
517.17	28999.24
517.37	28986.95
517.58	28892.74
517.78	29019.72
517.99	28870.22
518.19	29085.25
518.39	28882.50
518.60	29029.96
518.80	29097.54
519.01	29271.62
519.21	29337.15
519.41	29308.48
519.62	29081.16
519.82	29724.22
520.03	29662.78
520.23	30031.41
520.43	29777.47
520.64	30115.38
520.84	29816.38
521.05	29832.76
521.25	30064.18
521.45	30015.03
521.66	30170.68
521.86	30215.73
522.07	30264.88
522.27	30332.47
522.47	30228.02
522.68	30479.92
522.88	30271.03
523.08	30840.36
523.29	30551.60
523.49	30940.71
523.70	30666.28
523.90	31108.65
524.10	30813.74
524.31	31159.84
524.51	30694.96
524.71	31360.55
524.92	31366.69
525.12	31467.04
525.33	31338.02
525.53	31589.92
525.73	31383.07
525.94	31637.02
526.14	31489.57
526.34	31686.17
526.55	31860.25
526.75	31919.64
526.95	31667.74
527.16	31847.96
527.36	32214.55
527.56	32011.80
527.77	32435.73
527.97	31979.03
528.17	32091.67
528.38	32275.99
528.58	32226.84
528.78	32405.01
528.99	32476.69
529.19	32792.08
529.39	32386.58
529.60	32685.58
529.80	32724.49
530.00	32826.89
530.21	32988.68
530.41	33050.12
530.61	32816.65
530.82	33424.90
531.02	32845.32
531.22	33523.20
531.43	33562.11
531.63	33697.28
531.83	33742.33
532.04	33994.23
532.24	33500.67
532.44	34397.68
532.64	33938.94
532.85	33879.55
533.05	33990.14
533.25	34364.92
533.46	34113.02
533.66	34264.57
533.86	34291.19
534.07	34649.58
534.27	34356.72
534.47	34950.63
534.67	34940.39
534.88	34385.40
535.08	34987.50
535.28	34588.14
535.49	35282.41
535.69	35499.49
535.89	35268.07
536.09	35370.47
536.30	35806.69
536.50	35698.14
536.70	35460.58
536.91	35450.34
537.11	35861.98
537.31	35882.46
537.51	35821.02
537.72	36255.19
537.92	35837.41
538.12	36361.69
538.32	36416.98
538.53	36589.01
538.73	36206.04
538.93	36333.01
539.13	36832.72
539.34	36916.68
539.54	36595.15
539.74	37279.18
539.94	36816.33
540.15	36672.98
540.35	37260.74
540.55	37201.35
540.75	36750.80
540.96	37625.28
541.16	37393.86
541.36	37506.50
541.56	37578.18
541.77	37893.57
541.97	37682.62
542.17	37787.07
542.37	37742.02
542.58	38092.22
542.78	37598.66
542.98	38081.98
543.18	38450.61
543.38	38569.40
543.59	38798.77
543.79	38360.50
543.99	38467.00
544.19	38409.65
544.40	38507.96
544.60	39060.91
544.80	38501.81
545.00	38751.66
545.20	39462.31
545.41	39210.41
545.61	39155.11
545.81	39308.71
546.01	39429.54
546.21	39706.02
546.42	39159.21
546.62	39716.26
546.82	39425.45
547.02	39675.30
547.22	39869.86
547.43	39703.97
547.63	39847.33
547.83	40373.66
548.03	40115.61
548.23	40410.52
548.44	40041.88
548.64	40146.33
548.84	40668.56
549.04	40146.33
549.24	40568.21
549.45	40957.33
549.65	40502.68
549.85	40822.16
550.05	40967.57
550.25	40476.05
550.45	41377.16
550.66	40760.72
550.86	40891.79
551.06	41102.73
551.26	41153.93
551.46	41530.76
551.66	41473.42
551.87	41512.33
552.07	41536.90
552.27	41551.24
552.47	41469.32
552.67	42032.51
552.87	41762.18
553.07	41966.98
553.28	42014.08
553.48	42423.67
553.68	42114.43
553.88	42485.11
554.08	42399.10
554.28	42239.36
554.48	42073.47
554.69	42444.15
554.89	42478.97
555.09	42536.31
555.29	42345.85
555.49	42599.80
555.69	42708.34
555.89	42810.74
556.10	42923.38
556.30	42577.27
556.50	42720.63
556.70	42634.61
556.90	42794.36
557.10	43107.69
557.30	42651.00
557.50	43384.17
557.70	43472.23
557.91	43466.09
558.11	43332.97
558.31	43689.32
558.51	43281.77
558.71	43572.58
558.91	43271.53
559.11	43494.76
559.31	43302.25
559.51	43466.09
559.72	43461.99
559.92	43844.96
560.12	43658.60
560.32	44012.90
560.52	43476.33
560.72	43865.44
560.92	44029.28
561.12	43779.43
561.32	44260.70
561.52	43689.32
561.72	44615.00
561.93	43865.44
562.13	43965.79
562.33	44189.02
562.53	44795.22
562.73	44442.97
562.93	44561.75
563.13	44246.36
563.33	44055.90
563.53	44473.69
563.73	44385.63
563.93	44768.60
564.13	45139.28
564.33	44668.25
564.53	44295.52
564.74	44889.43
564.94	44555.61
565.14	44963.15
565.34	44563.80
565.54	44404.06
565.74	44944.72
565.94	45108.56
566.14	44967.25
566.34	44901.71
566.54	45335.88
566.74	44639.57
566.94	45382.99
567.14	45126.99
567.34	44758.36
567.54	45141.33
567.74	44756.31
567.94	44776.79
568.14	45225.29
568.34	45661.51
568.54	45249.87
568.74	45002.07
568.94	45225.29
569.14	45602.12
569.34	45407.56
569.54	45462.86
569.75	44856.66
569.95	45540.68
570.15	45673.80
570.35	45421.90
570.55	45800.77
570.75	45649.22
570.95	45116.75
571.15	45634.89
571.35	45481.29
571.55	45751.62
571.75	45327.69
571.95	45581.64
572.15	45579.59
572.35	45835.59
572.55	46198.08
572.75	45630.79
572.95	45479.24
573.15	45794.63
573.35	45876.55
573.55	45651.27
573.75	45890.88
573.95	46034.24
574.15	45778.25
574.35	45854.02
574.55	45839.68
574.75	45835.59
574.95	46218.56
575.15	45700.42
575.34	45980.99
575.54	46282.05
575.74	46253.37
575.94	46302.53
576.14	46067.01
576.34	46282.05
576.54	46148.93
576.74	46609.72
576.94	46316.86
577.14	46202.18
577.34	46810.42
577.54	46302.53
577.74	46413.12
577.94	46648.63
578.14	46388.54
578.34	47177.01
578.54	46347.58
578.74	46212.41
578.94	46404.92
579.14	46255.42
579.34	46292.29
579.54	46603.58
579.74	47068.47
579.94	46720.31
580.13	46945.59
580.33	46937.40
580.53	47140.14
580.73	47172.91
580.93	47019.31
581.13	47123.76
581.33	47068.47
581.53	47103.28
581.73	47525.16
581.93	47320.37
582.13	47248.69
582.33	47762.73
582.53	47203.63
582.73	47256.88
582.92	47228.21
583.12	47404.33
583.32	47291.69
583.52	47361.33
583.72	47854.89
583.92	47660.33
584.12	47912.23
584.32	48041.25
584.52	47873.32
584.72	47568.17
584.92	47965.48
585.11	48092.45
585.31	48102.69
585.51	48211.23
585.71	48080.16
585.91	48098.59
586.11	48235.81
586.31	48237.86
586.51	48323.87
586.71	48540.96
586.91	48561.44
587.10	48323.87
587.30	48196.90
587.50	48727.32
587.70	48430.36
587.90	48358.69
588.10	49034.52
588.30	48317.73
588.50	48823.58
588.69	49145.11
588.89	48540.96
589.09	48950.55
589.29	49145.11
589.49	49171.73
589.69	48661.79
589.89	49362.19
590.08	48733.46
590.28	49163.54
590.48	49173.78
590.68	49261.84
590.88	49526.03
591.08	49452.30
591.28	49255.70
591.47	49757.45
591.67	49618.19
591.87	49331.47
592.07	49515.79
592.27	49792.26
592.47	49382.67
592.67	49458.45
592.86	49530.12
593.06	50089.22
593.26	49980.68
593.46	50337.02
593.66	50130.18
593.86	49806.60
594.05	49988.87
594.25	50447.61
594.45	50033.92
594.65	50517.25
594.85	49853.70
595.05	50582.78
595.24	50777.34
595.44	50140.42
595.64	50576.64
595.84	50103.56
596.04	50363.65
596.23	50697.47
596.43	50865.40
596.63	50658.56
596.83	50869.50
597.03	51059.96
597.22	51524.85
597.42	51287.28
597.62	51285.23
597.82	51725.55
598.02	51293.43
598.21	51518.70
598.41	51455.21
598.61	51399.92
598.81	51574.00
599.01	51985.64
599.20	51500.27
599.40	51588.33
599.60	51754.22
599.80	51930.34
600.00	52139.24
600.19	52028.65
600.39	51512.56
600.59	52331.75
600.79	52272.35
600.98	52251.87
601.18	52661.47
601.38	52829.40
601.58	53032.15
601.78	52428.00
601.97	52770.01
602.17	53325.01
602.37	52839.64
602.57	52610.27
602.76	53058.77
602.96	52495.58
603.16	52950.23
603.36	53388.50
603.55	53533.90
603.75	53142.74
603.95	53765.32
604.15	53673.16
604.34	53470.42
604.54	53568.72
604.74	53437.65
604.94	53886.15
605.13	53957.83
605.33	53773.52
605.53	54039.75
605.73	54887.61
605.92	54197.44
606.12	54553.79
606.32	54338.75
606.52	53894.35
606.71	54183.11
606.91	54619.33
607.11	54359.23
607.30	55069.88
607.50	54658.24
607.70	54594.75
607.90	54924.47
608.09	54326.47
608.29	55002.30
608.49	55110.84
608.68	54629.57
608.88	54793.40
609.08	55399.60
609.28	55366.84
609.47	55016.63
609.67	55329.97
609.87	54924.47
610.06	55358.64
610.26	55286.96
610.46	55706.80
610.66	55016.63
610.85	55227.57
611.05	54922.43
611.25	55379.12
611.44	55227.57
611.64	55350.45
611.84	55291.06
612.03	55108.79
612.23	55213.24
612.43	55551.15
612.62	55667.89
612.82	55747.76
613.02	56118.44
613.21	55864.49
613.41	55661.74
613.61	55923.88
613.80	55581.87
614.00	56001.71
614.20	55442.61
614.39	56138.92
614.59	55790.76
614.79	56089.77
614.98	55762.09
615.18	56005.80
615.38	56267.94
615.57	56130.73
615.77	56048.81
615.97	56194.21
616.16	56243.37
616.36	55846.06
616.56	56050.86
616.75	56087.72
616.95	55590.06
617.15	55821.48
617.34	55950.51
617.54	56136.87
617.74	56120.49
617.93	56343.72
618.13	55637.17
618.32	56439.97
618.52	55893.16
618.72	55502.00
618.91	55981.23
619.11	55665.84
619.31	56161.45
619.50	55944.36
619.70	55690.41
619.90	56050.86
620.09	55657.65
620.29	55973.03
620.48	55856.30
620.68	56161.45
620.88	55518.38
621.07	55821.48
621.27	56325.28
621.46	55719.09
621.66	55518.38
621.86	55706.80
622.05	56097.96
622.25	56046.76
622.44	55674.03
622.64	55473.33
622.84	55651.50
623.03	55727.28
623.23	55975.08
623.42	55415.99
623.62	55964.84
623.82	56376.48
624.01	55809.20
624.21	55925.93
624.40	56011.95
624.60	55702.70
624.80	55651.50
624.99	55717.04
625.19	55227.57
625.38	55719.09
625.58	55309.49
625.77	55602.35
625.97	55577.78
626.17	55440.56
626.36	55612.59
626.56	55719.09
626.75	55024.82
626.95	55792.81
627.14	55071.93
627.34	56018.09
627.54	55000.25
627.73	55567.54
627.93	55538.86
628.12	55456.95
628.32	55186.61
628.51	55997.61
628.71	55450.80
628.90	55385.27
629.10	55465.14
629.30	55682.22
629.49	55700.65
629.69	55960.75
629.88	55180.47
630.08	55413.94
630.27	55243.96
630.47	55379.12
630.66	55352.50
630.86	55444.66
631.05	55176.37
631.25	55758.00
631.44	54969.53
631.64	55194.81
631.84	55104.70
632.03	55991.47
632.23	55219.38
632.42	56249.51
632.62	55528.62
632.81	55059.64
633.01	55530.67
633.20	55497.91
633.40	55248.05
633.59	55360.69
633.79	54807.74
633.98	55174.33
634.18	55375.03
634.37	55098.55
634.57	54850.75
634.76	55309.49
634.96	55168.18
635.15	55233.72
635.35	55151.80
635.54	55182.52
635.74	55065.78
635.93	55037.11
636.13	55319.73
636.32	55147.70
636.52	54846.65
636.71	55119.03
636.91	54922.43
637.10	55155.89
637.30	54842.56
637.49	54793.40
637.69	54961.34
637.88	55157.94
638.08	54920.38
638.27	55354.55
638.46	55338.16
638.66	54641.85
638.85	54637.76
639.05	54930.62
639.24	55084.22
639.44	55024.82
639.63	55186.61
639.83	55131.32
640.02	55159.99
640.22	54641.85
640.41	55137.46
640.61	54768.83
640.80	55065.78
640.99	54840.51
641.19	55129.27
641.38	55053.50
641.58	55227.57
641.77	55088.31
641.97	54590.66
642.16	55219.38
642.36	55084.22
642.55	55391.41
642.74	54977.72
642.94	55436.47
643.13	54604.99
643.33	55186.61
643.52	55162.04
643.72	55293.11
643.91	55375.03
644.10	55276.72
644.30	55424.18
644.49	54883.51
644.69	55688.37
644.88	55203.00
645.08	54785.21
645.27	55051.45
645.46	54969.53
645.66	55207.09
645.85	55223.48
646.05	55686.32
646.24	55119.03
646.43	55215.29
646.63	55555.25
646.82	55557.30
647.02	55174.33
647.21	55211.19
647.40	55241.91
647.60	55213.24
647.79	55502.00
647.99	55450.80
648.18	55254.20
648.37	55878.83
648.57	55567.54
648.76	55694.51
648.96	55426.23
649.15	55153.85
649.34	55700.65
649.54	55528.62
649.73	55565.49
649.92	55581.87
650.12	55676.08
650.31	55450.80
650.51	55426.23
650.70	55837.87
650.89	55387.31
651.09	55831.72
651.28	55475.38
651.47	55880.88
651.67	55985.32
651.86	56663.20
652.06	55618.74
652.25	55829.68
652.44	55655.60
652.64	55940.27
652.83	55884.97
653.02	55905.45
653.22	55819.44
653.41	55678.13
653.60	55424.18
653.80	55760.05
653.99	56163.50
654.18	55999.66
654.38	55518.38
654.57	56181.93
654.76	56153.26
654.96	55905.45
655.15	55866.54
655.34	56116.39
655.54	56081.58
655.73	56568.99
655.92	56530.08
656.12	56450.21
656.31	56411.30
656.50	56306.85
656.70	56726.69
656.89	56317.09
657.08	56591.52
657.28	56458.40
657.47	56046.76
657.66	56573.09
657.86	56276.13
658.05	56356.00
658.24	56222.89
658.43	56177.83
658.63	56523.94
658.82	56939.68
659.01	56411.30
659.21	56562.85
659.40	56734.88
659.59	56548.51
659.79	56618.14
659.98	56587.42
660.17	56620.19
660.36	56423.59
660.56	56966.30
660.75	56497.31
660.94	56698.01
661.14	56806.56
661.33	56652.96
661.52	56519.84
661.71	57250.97
661.91	56808.61
662.10	56552.61
662.29	57078.94
662.49	56984.73
662.68	56964.25
662.87	57109.66
663.06	56585.38
663.26	56870.04
663.45	57140.38
663.64	57261.21
663.83	57386.13
664.03	57705.62
664.22	56884.38
664.41	56964.25
664.60	57115.80
664.80	57091.22
664.99	56794.27
665.18	57001.11
665.37	57439.38
665.57	57336.98
665.76	57193.62
665.95	56982.68
666.14	56683.68
666.34	57482.39
666.53	57490.58
666.72	57300.12
666.91	57164.95
667.11	57451.67
667.30	57361.56
667.49	57584.79
667.68	57521.30
667.87	57220.25
668.07	57545.87
668.26	57334.93
668.45	57302.17
668.64	57265.30
668.84	58471.56
669.03	57412.76
669.22	57375.89
669.41	57341.08
669.60	57515.15
669.80	57541.78
669.99	57752.72
670.18	57648.27
670.37	57621.65
670.57	57836.69
670.76	57445.52
670.95	57615.50
671.14	57697.42
671.33	57050.27
671.53	58061.96
671.72	57552.02
671.91	57902.22
672.10	57398.42
672.29	57416.85
672.48	57314.45
672.68	58135.69
672.87	57855.12
673.06	57820.30
673.25	57484.43
673.44	57144.47
673.64	57308.31
673.83	57730.19
674.02	57783.44
674.21	57418.90
674.40	57771.15
674.59	57621.65
674.79	57648.27
674.98	57468.05
675.17	57826.45
675.36	57189.53
675.55	57504.91
675.74	57373.84
675.94	57341.08
676.13	58160.26
676.32	57934.99
676.51	58266.76
676.70	57662.61
676.89	57820.30
677.08	58141.83
677.28	57713.81
677.47	58285.19
677.66	58444.93
677.85	58143.88
678.04	58332.29
678.23	57697.42
678.42	58377.35
678.62	57783.44
678.81	58031.24
679.00	57953.42
679.19	58266.76
679.38	58037.39
679.57	57734.29
679.76	57932.94
679.96	57906.32
680.15	57951.37
680.34	58084.49
680.53	57838.73
680.72	57904.27
680.91	57943.18
681.10	57703.57
681.29	58072.20
681.48	57435.28
681.68	58209.42
681.87	57955.47
682.06	57754.77
682.25	57726.10
682.44	57775.25
682.63	57889.93
682.82	57408.66
683.01	57478.29
683.20	57265.30
683.39	57382.04
683.59	57511.06
683.78	57183.38
683.97	57455.76
684.16	57447.57
684.35	57390.23
684.54	57201.82
684.73	57607.31
684.92	57060.51
685.11	57054.36
685.30	57044.12
685.49	57447.57
685.69	57253.01
685.88	57423.00
686.07	56982.68
686.26	57513.11
686.45	57246.87
686.64	57316.50
686.83	57238.68
687.02	57074.84
687.21	57222.29
687.40	57316.50
687.59	56884.38
687.78	56947.87
687.97	57304.21
688.16	56708.25
688.35	56456.35
688.54	57070.75
688.74	56497.31
688.93	56734.88
689.12	56730.78
689.31	56714.40
689.50	56911.00
689.69	56433.83
689.88	56214.69
690.07	56759.45
690.26	56564.90
690.45	56736.93
690.64	56564.90
690.83	56505.51
691.02	56489.12
691.21	56097.96
691.40	56679.58
691.59	56521.89
691.78	56124.58
691.97	56423.59
692.16	56392.87
692.35	56503.46
692.54	56554.66
692.73	56509.60
692.92	55899.31
693.11	56376.48
693.30	56210.60
693.49	56126.63
693.68	55956.65
693.87	56218.79
694.06	55942.31
694.25	56317.09
694.44	55811.24
694.63	55766.19
694.82	55944.36
695.01	55901.36
695.20	55383.22
695.39	55436.47
695.58	55915.69
695.77	55518.38
695.96	55334.07
696.15	55375.03
696.34	55432.37
696.53	55542.96
696.72	55866.54
696.91	55471.28
697.10	55229.62
697.29	55141.56
697.48	55391.41
697.67	55039.16
697.86	55043.26
698.05	54717.63
698.24	55119.03
698.43	54961.34
698.62	55084.22
698.81	54754.49
699.00	55076.02
699.19	54801.60
699.38	54727.87
699.57	54385.86
699.76	55069.88
699.95	54424.77
700.14	54701.25
700.32	54412.48
700.51	54404.29
700.70	55084.22
700.89	54695.10
701.08	54334.66
701.27	54295.75
701.46	54336.71
701.65	53732.56
701.84	54271.17
702.03	54385.86
702.22	53773.52
702.41	54252.74
702.60	54334.66
702.79	54123.72
702.98	53775.56
703.17	53920.97
703.35	54088.90
703.54	53941.45
703.73	54398.15
703.92	53859.53
704.11	54330.56
704.30	53820.62
704.49	53781.71
704.68	53402.83
704.87	53562.57
705.06	53208.28
705.25	53282.00
705.43	53298.39
705.62	53408.98
705.81	53390.55
706.00	53400.79
706.19	52980.95
706.38	52892.89
706.57	53056.73
706.76	52663.52
706.95	53277.91
707.14	53114.07
707.32	52692.19
707.51	52665.56
707.70	52737.24
707.89	52704.48
708.08	52731.10
708.27	52712.67
708.46	53015.77
708.65	52853.98
708.84	53089.49
709.02	52681.95
709.21	53017.82
709.40	52663.52
709.59	52628.70
709.78	52176.10
709.97	52403.42
710.16	52274.40
710.34	52372.70
710.53	52411.62
710.72	52524.25
710.91	52686.04
711.10	52176.10
711.29	52145.38
711.48	51571.95
711.66	52151.52
711.85	51385.58
712.04	51766.51
712.23	51754.22
712.42	52131.04
712.61	51674.35
712.80	51428.59
712.98	51567.85
713.17	51344.62
713.36	51418.35
713.55	51461.36
713.74	51514.61
713.93	51240.18
714.11	51465.45
714.30	51858.66
714.49	51705.07
714.68	51541.23
714.87	51954.92
715.06	51688.68
715.24	51152.12
715.43	51332.34
715.62	51027.19
715.81	50988.28
716.00	51055.86
716.18	50431.23
716.37	50818.30
716.56	50803.96
716.75	51115.25
716.94	50754.81
717.12	50670.84
717.31	51100.92
717.50	50464.00
717.69	50357.50
717.88	50521.34
718.06	50529.53
718.25	50644.22
718.44	50169.09
718.63	50382.08
718.82	50238.72
719.00	50234.63
719.19	50222.34
719.38	50324.74
719.57	50312.45
719.76	49589.52
719.94	49601.80
720.13	50023.68
720.32	49784.07
720.51	49747.21
720.69	49536.27
720.88	49270.03
721.07	49593.61
721.26	49720.59
721.44	49624.33
721.63	49509.64
721.82	49458.45
722.01	48934.17
722.20	49409.29
722.38	49204.50
722.57	48735.51
722.76	49018.13
722.95	48835.86
723.13	48944.41
723.32	49157.39
723.51	48489.76
723.70	48805.14
723.88	48833.81
724.07	48366.88
724.26	48889.11
724.44	48389.41
724.63	48354.59
724.82	48583.96
725.01	48360.73
725.19	48254.24
725.38	48188.70
725.57	48211.23
725.76	48157.99
725.94	47906.08
726.13	48311.58
726.32	48170.27
726.51	48162.08
726.69	48600.35
726.88	48588.06
727.07	48491.80
727.25	48006.44
727.44	48620.83
727.63	48639.26
727.82	48129.31
728.00	48596.25
728.19	48227.62
728.38	48078.11
728.56	47912.23
728.75	48493.85
728.94	47965.48
729.12	48354.59
729.31	48008.48
729.50	47867.17
729.69	48321.82
729.87	47562.03
730.06	48049.44
730.25	48192.80
730.43	48276.77
730.62	47672.62
730.81	48008.48
730.99	47985.96
731.18	47559.98
731.37	48121.12
731.55	48223.52
731.74	48397.60
731.93	48084.26
732.11	48244.00
732.30	48151.84
732.49	48024.87
732.67	47994.15
732.86	48031.01
733.05	48203.04
733.23	47830.31
733.42	47674.66
733.61	48432.41
733.79	48227.62
733.98	47596.84
734.17	47973.67
734.35	48117.03
734.54	47977.76
734.73	48100.64
734.91	47756.58
735.10	47971.62
735.29	48145.70
735.47	47461.68
735.66	47680.81
735.84	47793.45
736.03	47695.14
736.22	48192.80
736.40	47582.51
736.59	47830.31
736.78	48090.40
736.96	47701.29
737.15	47680.81
737.33	47760.68
737.52	47594.79
737.71	47830.31
737.89	47258.93
738.08	47725.86
738.27	47461.68
738.45	47600.94
738.64	47844.65
738.82	48239.90
739.01	47807.78
739.20	47506.73
739.38	47242.54
739.57	47768.87
739.75	47721.77
739.94	47430.96
740.13	47793.45
740.31	47547.69
740.50	47430.96
740.68	47430.96
740.87	47992.10
741.06	47836.45
741.24	47340.85
741.43	47240.50
741.61	47701.29
741.80	47236.40
741.99	46966.07
742.17	47260.97
742.36	47316.27
742.54	47224.11
742.73	47402.28
742.91	47584.55
743.10	47473.96
743.29	47465.77
743.47	47369.52
743.66	47449.39
743.84	47424.81
744.03	47236.40
744.21	47396.14
744.40	47207.73
744.59	47238.45
744.77	47131.95
744.96	47236.40
745.14	46982.45
745.33	47277.36
745.51	46888.24
745.70	46949.68
745.88	46925.11
746.07	46994.74
746.26	46744.89
746.44	46892.34
746.63	46507.32
746.81	46925.11
747.00	46691.64
747.18	46632.25
747.37	46740.79
747.55	46839.09
747.74	47154.48
747.92	46740.79
748.11	46734.65
748.29	46634.30
748.48	46511.42
748.66	46607.67
748.85	46802.23
749.03	46697.78
749.22	46959.92
749.41	46726.46
749.59	46859.57
749.78	46579.00
749.96	46327.10
750.15	46619.96
750.33	46759.22
750.52	46376.25
750.70	46445.88
750.89	46267.71
751.07	46120.26
751.26	46429.50
751.44	46138.69
751.63	46163.26
751.81	46263.61
752.00	46519.61
752.18	46126.40
752.37	46212.41
752.55	46030.15
752.74	46044.48
752.92	46091.58
753.10	46073.15
753.29	46374.20
753.47	45880.64
753.66	45892.93
753.84	46011.71
754.03	46257.47
754.21	46015.81
754.40	46251.33
754.58	46236.99
754.77	46114.11
754.95	45585.74
755.14	45835.59
755.32	45987.14
755.51	45688.13
755.69	45958.47
755.88	45706.57
756.06	46060.87
756.24	46210.37
756.43	45331.79
756.61	45643.08
756.80	45569.35
756.98	45552.97
757.17	45350.22
757.35	45456.71
757.54	45116.75
757.72	45772.10
757.90	45708.61
758.09	45178.19
758.27	45366.60
758.46	45071.70
758.64	45092.18
758.83	45266.25
759.01	45151.57
759.19	45364.56
759.38	45325.64
759.56	45296.97
759.75	45075.79
759.93	44836.18
760.12	44725.59
760.30	45262.16
760.48	44848.47
760.67	45286.73
760.85	45251.92
761.04	45129.04
761.22	45313.36
761.40	45464.91
761.59	44983.63
761.77	44436.83
761.96	44770.64
762.14	44961.11
762.32	44111.20
762.51	44780.88
762.69	44662.10
762.88	44848.47
763.06	44791.12
763.24	44600.66
763.43	44563.80
763.61	44453.21
763.80	44658.01
763.98	44166.49
764.16	44168.54
764.35	43967.84
764.53	43511.14
764.72	43939.17
764.90	43947.36
765.08	43863.39
765.27	44107.10
765.45	43783.52
765.63	43765.09
765.82	44014.94
766.00	43777.38
766.18	43593.06
766.37	44244.32
766.55	43670.89
766.74	43384.17
766.92	43568.49
767.10	43408.75
767.29	43380.07
767.47	43122.03
767.65	43492.71
767.84	43134.32
768.02	43582.82
768.20	43246.96
768.39	43406.70
768.57	43226.48
768.75	43154.80
768.94	43337.07
769.12	43404.65
769.30	42704.24
769.49	42681.72
769.67	42964.34
769.85	42698.10
770.04	43042.16
770.22	42411.38
770.40	42599.80
770.59	42661.24
770.77	43226.48
770.95	42372.47
771.14	42540.41
771.32	42255.74
771.50	42323.32
771.69	42198.40
771.87	42392.95
772.05	42225.02
772.24	41989.50
772.42	42225.02
772.60	42141.05
772.78	42239.36
772.97	41590.15
773.15	42825.07
773.33	42151.29
773.52	41692.55
773.70	41860.48
773.88	41919.87
774.07	41598.34
774.25	41919.87
774.43	42372.47
774.61	42149.24
774.80	41866.63
774.98	41768.32
775.16	41620.87
775.34	41942.40
775.53	41446.79
775.71	41805.19
775.89	42124.67
776.08	41672.07
776.26	41893.25
776.44	41571.72
776.62	41631.11
776.81	41758.08
776.99	42145.15
777.17	42012.03
777.35	42182.01
777.54	42304.89
777.72	42124.67
777.90	42038.65
778.08	42161.53
778.27	41866.63
778.45	42503.54
778.63	42317.18
778.81	41659.78
779.00	42909.04
779.18	42438.01
779.36	42728.82
779.54	42210.68
779.73	42411.38
779.91	42243.45
780.09	42218.88
780.27	42431.86
780.46	42431.86
780.64	42548.60
780.82	41784.71
781.00	41866.63
781.19	42450.30
781.37	42337.66
781.55	42147.20
781.73	42958.19
781.91	42253.69
782.10	42317.18
782.28	42622.33
782.46	42519.93
782.64	42888.56
782.82	42409.34
783.01	42825.07
783.19	42472.82
783.37	42714.48
783.55	42364.28
783.74	42820.98
783.92	42489.21
784.10	42849.65
784.28	42630.52
784.46	42501.50
784.64	42218.88
784.83	42734.96
785.01	42882.42
785.19	42464.63
785.37	42268.03
785.55	42405.24
785.74	42233.21
785.92	41676.16
786.10	42249.60
786.28	42378.62
786.46	42034.56
786.64	41665.92
786.83	41569.67
787.01	42179.96
787.19	42335.61
787.37	41899.39
787.55	41815.43
787.74	41698.69
787.92	41661.83
788.10	41426.31
788.28	41082.25
788.46	41577.86
788.64	41250.19
788.82	42186.11
789.01	41311.63
789.19	41416.07
789.37	41133.45
789.55	41366.92
789.73	40764.82
789.91	40979.85
790.09	40850.83
790.28	40867.22
790.46	40613.27
790.64	40967.57
790.82	40793.49
791.00	40695.19
791.18	40547.73
791.36	40412.57
791.55	40238.49
791.73	40641.94
791.91	40138.14
792.09	40125.85
792.27	40103.32
792.45	39898.53
792.63	40234.39
792.81	40088.99
793.00	40148.38
793.18	39746.98
793.36	39579.04
793.54	39654.82
793.72	39742.88
793.90	39376.30
794.08	39255.46
794.26	39617.96
794.44	38878.64
794.62	38835.63
794.81	39595.43
794.99	38766.00
795.17	38612.40
795.35	38581.68
795.53	38278.58
795.71	38661.55
795.89	38518.20
796.07	38327.74
796.25	37868.99
796.43	38249.91
796.61	38100.41
796.80	37737.92
796.98	38057.40
797.16	37430.72
797.34	37723.58
797.52	37559.75
797.70	38014.40
797.88	37453.25
798.06	37180.87
798.24	37428.68
798.42	36871.63
798.60	37076.43
798.78	37139.91
798.96	37371.33
799.14	37010.89
799.32	36918.73
799.51	36750.80
799.69	37131.72
799.87	36767.18
800.05	36658.64
800.23	36234.71
800.41	36267.48
800.59	36326.87
800.77	35692.00
800.95	35804.64
801.13	36027.87
801.31	35558.88
801.49	35857.88
801.67	35562.98
801.85	35667.42
802.03	35565.03
802.21	35450.34
802.39	35354.08
802.57	35112.42
802.75	35153.38
802.93	35173.86
803.11	34866.67
803.29	35114.47
803.47	34668.02
803.65	35046.89
803.83	34885.10
804.01	34805.23
804.19	34485.75
804.37	34321.91
804.55	34461.17
804.73	34407.92
804.91	34538.99
805.09	34207.22
805.27	34135.54
805.45	34323.96
805.63	34342.39
805.81	34072.06
805.99	33975.80
806.17	34094.58
806.35	33805.82
806.53	33441.28
806.71	33840.64
806.89	33744.38
807.07	33175.05
807.25	33547.78
807.43	33177.09
807.61	33355.27
807.79	33220.10
807.97	32929.29
808.15	33390.08
808.33	33000.97
808.51	33357.32
808.69	32812.56
808.87	32601.61
809.05	32423.44
809.23	32562.70
809.41	32380.43
809.59	32345.62
809.77	32380.43
809.95	31954.46
810.13	32261.65
810.31	31598.11
810.49	32253.46
810.67	32003.61
810.84	32255.51
811.02	31761.95
811.20	31348.26
811.38	31987.22
811.56	31591.97
811.74	32007.70
811.92	31413.79
812.10	31567.39
812.28	31729.18
812.46	31563.29
812.64	31688.22
812.82	31145.51
813.00	31376.93
813.18	31460.90
813.36	31178.28
813.53	30957.10
813.71	31278.63
813.89	31172.13
814.07	31170.08
814.25	30875.18
814.43	30574.13
814.61	30623.28
814.79	30787.11
814.97	30469.68
815.15	30549.55
815.33	30404.14
815.50	30293.55
815.68	30428.72
815.86	30703.15
816.04	30236.21
816.22	30256.69
816.40	30074.42
816.58	30170.68
816.76	29769.27
816.94	30131.76
817.11	30182.96
817.29	30164.53
817.47	29597.24
817.65	29529.66
817.83	29799.99
818.01	29554.24
818.19	29599.29
818.37	29457.98
818.54	29386.30
818.72	29290.05
818.90	29670.97
819.08	29290.05
819.26	29288.00
819.44	29369.92
819.62	29539.90
819.80	29410.88
819.97	29294.14
820.15	29181.51
820.33	29095.49
820.51	28939.85
820.69	29032.00
820.87	29152.84
821.05	29152.84
821.22	28477.01
821.40	28872.26
821.58	28675.66
821.76	28366.42
821.94	28552.78
822.12	28624.46
822.29	28651.08
822.47	28221.01
822.65	28468.81
822.83	28481.10
823.01	28053.08
823.19	28356.18
823.36	28014.16
823.54	28128.85
823.72	28106.32
823.90	28294.74
824.08	27860.57
824.25	28108.37
824.43	27778.65
824.61	27879.00
824.79	28087.89
824.97	27649.63
825.15	28126.80
825.32	27731.54
825.50	27422.30
825.68	27567.71
825.86	27788.89
826.04	28122.71
826.21	27725.40
826.39	27827.80
826.57	27557.47
826.75	27526.75
826.93	27506.27
827.10	27711.07
827.28	27453.02
827.46	27645.53
827.64	27342.43
827.81	27324.00
827.99	27276.90
828.17	27295.33
828.35	27258.46
828.53	27297.38
828.70	27147.87
828.88	27205.22
829.06	27061.86
829.24	27223.65
829.41	26691.18
829.59	27367.01
829.77	27215.46
829.95	27129.44
830.12	27004.52
830.30	27006.56
830.48	26824.29
830.66	26750.57
830.84	26750.57
831.01	26787.43
831.19	26904.17
831.37	26486.38
831.55	26777.19
831.72	26648.17
831.90	26570.35
832.08	26523.24
832.25	26644.07
832.43	26457.71
832.61	26461.80
832.79	26289.77
832.96	26304.11
833.14	26455.66
833.32	26740.33
833.50	26508.91
833.67	26361.45
833.85	26123.89
834.03	25951.86
834.20	26222.19
834.38	26142.32
834.56	26144.37
834.74	25990.77
834.91	26074.74
835.09	26101.36
835.27	25749.11
835.44	26152.56
835.62	25697.91
835.80	25736.82
835.98	26041.97
836.15	25892.47
836.33	25824.89
836.51	25937.52
836.68	25480.83
836.86	25716.34
837.04	25814.65
837.21	25839.22
837.39	25937.52
837.57	25857.65
837.75	25689.72
837.92	25149.06
838.10	25233.02
838.28	25204.35
838.45	25097.86
838.63	24813.19
838.81	25319.04
838.98	25286.27
839.16	25196.16
839.34	25101.95
839.51	25419.39
839.69	24993.41
839.87	25431.68
840.04	25241.21
840.22	25282.17
840.40	25292.41
840.57	24659.59
840.75	25151.10
840.93	24600.20
841.10	25073.28
841.28	25441.92
841.46	24929.92
841.63	25226.88
841.81	24716.93
841.98	24870.53
842.16	24819.33
842.34	24802.95
842.51	24694.41
842.69	24893.06
842.87	24696.46
843.04	24987.27
843.22	24718.98
843.40	24716.93
843.57	24622.73
843.75	24811.14
843.92	24833.67
844.10	24663.69
844.28	24276.62
844.45	24643.21
844.63	24686.22
844.81	24358.54
844.98	24360.59
845.16	24192.65
845.33	24690.31
845.51	24354.44
845.69	24338.06
845.86	24047.25
846.04	23981.71
846.21	24233.61
846.39	24397.45
846.57	24209.04
846.74	24069.78
846.92	23971.47
847.09	24376.97
847.27	23938.71
847.45	24313.48
847.62	24194.70
847.80	24110.74
847.97	24168.08
848.15	23690.90
848.32	24315.53
848.50	23670.42
848.68	23901.84
848.85	23830.16
849.03	23449.24
849.20	23858.84
849.38	23989.91
849.56	23801.49
849.73	23402.14
849.91	23791.25
850.08	23844.50
850.26	23133.86
850.43	23604.89
850.61	23533.21
850.78	23158.43
850.96	23383.71
851.14	23123.62
851.31	23668.37
851.49	23504.54
851.66	23406.23
851.84	23205.53
852.01	23713.43
852.19	23324.32
852.36	23461.53
852.54	23529.11
852.71	23170.72
852.89	23176.86
853.07	23105.18
853.24	23060.13
853.42	23164.57
853.59	23115.42
853.77	23033.50
853.94	23187.10
854.12	23391.90
854.29	22965.92
854.47	23152.29
854.64	23289.50
854.82	22939.30
854.99	22912.67
855.17	22761.12
855.34	22605.48
855.52	22931.11
855.69	22711.97
855.87	22816.42
856.04	22679.21
856.22	22814.37
856.39	22890.15
856.57	22963.87
856.74	22462.12
856.92	22787.75
857.09	22628.01
857.27	22656.68
857.44	22920.87
857.62	22849.19
857.79	22759.08
857.97	22431.40
858.14	22685.35
858.32	22820.52
858.49	22476.46
858.67	22288.04
858.84	22568.62
859.02	22398.63
859.19	22462.12
859.37	22232.75
859.54	22226.60
859.72	22453.93
859.89	22150.83
860.06	22240.94
860.24	22050.48
860.41	22451.88
860.59	22091.44
860.76	22218.41
860.94	21771.96
861.11	22062.77
861.29	21989.04
861.46	22011.57
861.64	21829.30
861.81	21935.79
861.98	21892.79
862.16	22003.38
862.33	21520.06
862.51	21407.42
862.68	21802.68
862.86	21634.74
863.03	21628.60
863.21	21726.90
863.38	21638.84
863.55	21638.84
863.73	21569.21
863.90	21528.25
864.08	21513.91
864.25	21636.79
864.43	21677.75
864.60	21415.61
864.77	21477.05
864.95	21372.60
865.12	21364.41
865.30	21393.08
865.47	21440.18
865.64	21397.18
865.82	21352.12
865.99	21501.62
866.17	20987.58
866.34	21468.86
866.51	20920.00
866.69	21294.78
866.86	21407.42
867.04	20999.87
867.21	21046.97
867.38	21196.48
867.56	21061.31
867.73	20856.51
867.91	20829.89
868.08	21161.66
868.25	20741.83
868.43	20946.62
868.60	20946.62
868.78	20846.27
868.95	20960.96
869.12	20625.09
869.30	20473.54
869.47	20840.13
869.64	20647.62
869.82	20694.72
869.99	20549.32
870.16	20553.41
870.34	20391.62
870.51	20553.41
870.69	20207.31
870.86	20307.66
871.03	20403.91
871.21	20141.77
871.38	20231.88
871.55	19936.98
871.73	20092.62
871.90	20039.37
872.07	20149.96
872.25	19967.70
872.42	20031.18
872.59	19984.08
872.77	19984.08
872.94	19648.21
873.11	19324.63
873.29	19920.59
873.46	19924.69
873.63	19388.12
873.81	19705.56
873.98	19603.16
874.15	19467.99
874.33	19410.65
874.50	19271.39
874.67	19560.15
874.85	19322.59
875.02	19355.35
875.19	19390.17
875.37	19324.63
875.54	19406.55
875.71	19220.19
875.88	19150.56
876.06	19300.06
876.23	19033.82
876.40	19087.07
876.58	19095.26
876.75	19111.64
876.92	18765.54
877.10	18900.70
877.27	18904.80
877.44	18902.75
877.61	18853.60
877.79	18527.97
877.96	18484.97
878.13	18771.68
878.31	18507.49
878.48	18722.53
878.65	18863.84
878.82	18478.82
879.00	18743.01
879.17	18605.80
879.34	18525.93
879.51	18478.82
879.69	18204.39
879.86	18050.80
880.03	18501.35
880.21	18116.33
880.38	18390.76
880.55	18360.04
880.72	18134.76
880.90	18276.07
881.07	18091.76
881.24	18194.15
881.41	18179.82
881.59	17950.45
881.76	18212.59
881.93	17913.58
882.10	17784.56
882.28	17495.80
882.45	18028.27
882.62	17929.97
882.79	17925.87
882.96	17688.31
883.14	17790.70
883.31	17915.63
883.48	17714.93
883.65	17815.28
883.83	17661.68
884.00	17598.20
884.17	17649.39
884.34	17731.31
884.51	17831.66
884.69	17426.17
884.86	17481.46
885.03	17428.21
885.20	17329.91
885.38	17391.35
885.55	17319.67
885.72	17641.20
885.89	17241.85
886.06	17456.89
886.24	17370.87
886.41	17178.36
886.58	17272.57
886.75	17446.65
886.92	17086.20
887.10	17282.81
887.27	16946.94
887.44	17166.07
887.61	17186.55
887.78	17168.12
887.95	17207.03
888.13	17125.11
888.30	16846.59
888.47	16609.03
888.64	17049.34
888.81	16955.13
888.99	16797.44
889.16	16783.10
889.33	16742.14
889.50	16709.38
889.67	16613.12
889.84	16418.57
890.01	16611.07
890.19	16770.82
890.36	16430.85
890.53	16523.01
890.70	16361.22
890.87	16609.03
891.04	16480.00
891.22	16324.36
891.39	16142.09
891.56	16281.35
891.73	16393.99
891.90	16054.03
892.07	16350.98
892.24	16228.10
892.42	16080.65
892.59	16187.14
892.76	16207.62
892.93	16058.12
893.10	16273.16
893.27	16041.74
893.44	15957.77
893.61	15947.53
893.79	16011.02
893.96	15939.34
894.13	16097.03
894.30	16041.74
894.47	16152.33
894.64	16103.18
894.81	15939.34
894.98	15961.87
895.15	15900.43
895.33	15808.27
895.50	15716.11
895.67	15869.71
895.84	15849.23
896.01	15947.53
896.18	15730.45
896.35	16039.69
896.52	15884.05
896.69	15904.53
896.86	15836.94
897.04	15851.28
897.21	15910.67
897.38	15632.15
897.55	15693.58
897.72	15845.13
897.89	15861.52
898.06	15709.97
898.23	15701.78
898.40	15910.67
898.57	15582.99
898.74	15738.64
898.91	15630.10
899.08	15599.38
899.26	15623.95
899.43	15568.66
899.60	15638.29
899.77	15820.56
899.94	15486.74
900.11	15347.48
900.28	15370.01
900.45	15318.81
900.62	15347.48
900.79	15462.16
900.96	15558.42
901.13	15580.95
901.30	15599.38
901.47	15417.11
901.64	15554.32
901.81	15556.37
901.98	15286.04
902.15	15425.30
902.32	15388.44
902.49	15376.15
902.66	15357.72
902.83	15370.01
903.01	15333.14
903.18	15466.26
903.35	15521.56
903.52	15359.77
903.69	15427.35
903.86	15527.70
904.03	15413.01
904.20	15304.47
904.37	15505.17
904.54	15644.43
904.71	15355.67
904.88	15529.75
905.05	15513.36
905.22	15413.01
905.39	15404.82
905.56	15267.61
905.73	15206.17
905.90	15189.78
906.07	15390.49
906.24	15435.54
906.41	15163.16
906.58	15281.94
906.75	15496.98
906.92	15322.90
907.09	15210.26
907.26	15286.04
907.43	15294.23
907.60	15130.39
907.77	15388.44
907.93	15392.53
908.10	15161.11
908.27	15003.42
908.44	15167.26
908.61	14989.08
908.78	15093.53
908.95	15189.78
909.12	15273.75
909.29	15009.56
909.46	15144.73
909.63	15038.23
909.80	15046.43
909.97	15064.86
910.14	15118.11
910.31	14911.26
910.48	14903.07
910.65	15150.87
910.82	14937.88
910.99	14782.24
911.16	14909.21
911.33	14952.22
911.50	14864.16
911.66	14874.40
911.83	14888.73
912.00	14655.26
912.17	14931.74
912.34	14665.50
912.51	14559.01
912.68	14559.01
912.85	14853.92
913.02	14776.09
913.19	14559.01
913.36	14581.54
913.53	14724.90
913.70	14311.21
913.86	14665.50
914.03	14618.40
914.20	14458.66
914.37	14384.93
914.54	14374.69
914.71	14360.36
914.88	14327.59
915.05	14382.88
915.22	14165.80
915.39	14266.15
915.55	14364.45
915.72	13961.00
915.89	14001.96
916.06	14102.31
916.23	14067.50
916.40	14016.30
916.57	13881.13
916.74	13883.18
916.91	13889.32
917.07	13848.36
917.24	13659.95
917.41	13881.13
917.58	13807.41
917.75	13915.95
917.92	13643.57
918.09	13782.83
918.26	13541.17
918.42	13629.23
918.59	13766.45
918.76	13348.66
918.93	13299.51
919.10	13319.99
919.27	13686.58
919.44	13494.07
919.60	13520.69
919.77	13242.17
919.94	13238.07
920.11	13229.88
920.28	13322.04
920.45	12937.02
920.61	13063.99
920.78	13266.74
920.95	13094.71
921.12	12918.59
921.29	12885.82
921.46	12848.96
921.62	12896.06
921.79	12564.29
921.96	12644.16
922.13	12746.56
922.30	12558.14
922.47	12541.76
922.63	12488.51
922.80	12527.42
922.97	12234.57
923.14	12265.28
923.31	12511.04
923.47	12320.58
923.64	12410.69
923.81	12179.27
923.98	12238.66
924.15	12156.74
924.32	12238.66
924.48	12148.55
924.65	12230.47
924.82	11855.69
924.99	11808.59
925.15	11749.20
925.32	11833.16
925.49	11777.87
925.66	11616.08
925.83	11523.92
925.99	11667.28
926.16	11628.37
926.33	11579.22
926.50	11370.32
926.67	11646.80
926.83	11591.50
927.00	11235.16
927.17	11351.89
927.34	11237.20
927.50	11286.36
927.67	11439.95
927.84	11118.42
928.01	11231.06
928.17	10882.91
928.34	11118.42
928.51	10827.61
928.68	10956.63
928.84	10887.00
929.01	10764.12
929.18	10694.49
929.35	10631.01
929.51	10499.94
929.68	10452.83
929.85	10559.33
930.02	10536.80
930.18	10415.97
930.35	10375.01
930.52	10444.64
930.69	10403.68
930.85	10530.66
931.02	10119.01
931.19	10162.02
931.36	10329.95
931.52	10266.47
931.69	10149.73
931.86	9944.94
932.02	9953.13
932.19	9930.60
932.36	9848.68
932.53	10010.47
932.69	9682.80
932.86	9881.45
933.03	9744.24
933.19	9490.29
933.36	9523.05
933.53	9502.58
933.70	9547.63
933.86	9535.34
934.03	9488.24
934.20	9275.25
934.36	9437.04
934.53	9164.66
934.70	9211.76
934.86	9103.22
935.03	8984.44
935.20	9006.97
935.36	8980.34
935.53	8886.14
935.70	8771.45
935.86	8810.36
936.03	8691.58
936.20	8642.43
936.36	8423.30
936.53	8388.48
936.70	8517.50
936.86	8521.60
937.03	8357.76
937.20	8159.11
937.36	8257.41
937.53	7886.73
937.70	7892.87
937.86	7724.94
938.03	7866.25
938.20	7827.34
938.36	7448.46
938.53	7497.61
938.70	7434.13
938.86	7378.83
939.03	7421.84
939.20	7358.35
939.36	7165.84
939.53	7024.53
939.70	7231.38
939.86	6770.58
940.03	6856.60
940.19	6827.93
940.36	6782.87
940.53	6803.35
940.69	6606.75
940.86	6612.89
941.03	6375.33
941.19	6277.02
941.36	6399.90
941.52	6377.37
941.69	6152.10
941.86	6367.13
942.02	5902.25
942.19	6047.65
942.35	6090.66
942.52	5881.77
942.69	5988.26
942.85	5808.04
943.02	5728.17
943.18	5797.80
943.35	5713.83
943.52	5799.85
943.68	5744.55
943.85	5713.83
944.01	5564.33
944.18	5504.94
944.35	5529.52
944.51	5578.67
944.68	5386.16
944.84	5384.11
945.01	5369.77
945.17	5345.20
945.34	5386.16
945.51	5394.35
945.67	5289.90
945.84	5406.64
946.00	5271.47
946.17	5326.77
946.33	5326.77
946.50	5310.38
946.67	5199.79
946.83	5154.74
947.00	5443.50
947.16	5267.38
947.33	5160.88
947.49	5242.80
947.66	5185.46
947.82	5310.38
947.99	5189.55
948.16	5302.19
948.32	5197.74
948.49	5218.22
948.65	5279.66
948.82	5316.53
948.98	5271.47
949.15	5074.87
949.31	5261.23
949.48	5314.48
949.64	5128.11
949.81	5205.94
949.97	5146.55
950.14	5308.34
950.30	5226.42
950.47	5246.90
950.63	5246.90
950.80	5388.21
950.96	5232.56
951.13	5203.89
951.30	5216.18
951.46	5369.77
951.63	5400.49
951.79	5169.07
951.96	5365.68
952.12	5236.66
952.29	5328.81
952.45	5324.72
952.62	5132.21
952.78	5369.77
952.94	5420.97
953.11	5320.62
953.27	5214.13
953.44	5406.64
953.60	5384.11
953.77	5345.20
953.93	5255.09
954.10	5337.01
954.26	5349.29
954.43	5363.63
954.59	5400.49
954.76	5494.70
954.92	5257.14
955.09	5420.97
955.25	5390.25
955.42	5347.25
955.58	5576.62
955.75	5441.45
955.91	5408.69
956.07	5478.32
956.24	5353.39
956.40	5531.56
956.57	5504.94
956.73	5580.71
956.90	5580.71
957.06	5359.53
957.23	5519.28
957.39	5480.36
957.56	5420.97
957.72	5375.92
957.88	5318.57
958.05	5584.81
958.21	5640.11
958.38	5457.84
958.54	5533.61
958.71	5500.84
958.87	5451.69
959.03	5515.18
959.20	5312.43
959.36	5416.88
959.53	5498.80
959.69	5416.88
959.85	5402.54
960.02	5451.69
960.18	5437.36
960.35	5414.83
960.51	5517.23
960.68	5408.69
960.84	5451.69
961.00	5308.34
961.17	5396.40
961.33	5373.87
961.50	5500.84
961.66	5463.98
961.82	5310.38
961.99	5502.89
962.15	5521.32
962.31	5330.86
962.48	5427.12
962.64	5486.51
962.81	5480.36
962.97	5437.36
963.13	5337.01
963.30	5394.35
963.46	5375.92
963.62	5269.42
963.79	5306.29
963.95	5353.39
964.12	5494.70
964.28	5451.69
964.44	5398.45
964.61	5328.81
964.77	5248.94
964.93	5345.20
965.10	5296.05
965.26	5279.66
965.42	5371.82
965.59	5218.22
965.75	5343.15
965.92	5341.10
966.08	5238.70
966.24	5267.38
966.41	5308.34
966.57	5294.00
966.73	5250.99
966.90	5308.34
967.06	5238.70
967.22	5248.94
967.39	5261.23
967.55	5191.60
967.71	5246.90
967.88	5179.31
968.04	5296.05
968.20	5132.21
968.37	5197.74
968.53	5255.09
968.69	5234.61
968.85	5050.29
969.02	5244.85
969.18	5089.20
969.34	5162.93
969.51	5167.03
969.67	5269.42
969.83	5044.15
970.00	5140.40
970.16	5294.00
970.32	5181.36
970.48	5244.85
970.65	5119.92
970.81	5083.06
970.97	5076.91
971.14	4970.42
971.30	5056.43
971.46	5078.96
971.63	4919.22
971.79	5048.24
971.95	4958.13
972.11	4855.73
972.28	5048.24
972.44	5042.10
972.60	4894.65
972.76	4941.75
972.93	4956.08
973.09	5040.05
973.25	4906.93
973.42	4951.99
973.58	4980.66
973.74	4925.36
973.90	4767.67
974.07	4859.83
974.23	4931.51
974.39	4681.66
974.55	4859.83
974.72	4880.31
974.88	4624.31
975.04	4788.15
975.20	4870.07
975.37	4870.07
975.53	4806.58
975.69	4894.65
975.85	4655.03
976.01	4812.73
976.18	4755.38
976.34	4747.19
976.50	4853.69
976.66	4886.45
976.83	4767.67
976.99	4704.18
977.15	4771.77
977.31	4618.17
977.47	4734.90
977.64	4718.52
977.80	4753.34
977.96	4739.00
978.12	4579.26
978.29	4566.97
978.45	4544.44
978.61	4579.26
978.77	4650.94
978.93	4460.48
979.10	4513.72
979.26	4573.11
979.42	4599.74
979.58	4528.06
979.74	4419.52
979.91	4612.03
980.07	4374.46
980.23	4431.80
980.39	4423.61
980.55	4491.20
980.71	4425.66
980.88	4376.51
981.04	4526.01
981.20	4483.00
981.36	4407.23
981.52	4442.04
981.68	4308.93
981.85	4538.30
982.01	4415.42
982.17	4386.75
982.33	4431.80
982.49	4491.20
982.65	4259.78
982.82	4382.65
982.98	4396.99
983.14	4294.59
983.30	4378.56
983.46	4329.41
983.62	4319.17
983.79	4233.15
983.95	4308.93
984.11	4132.80
984.27	4280.25
984.43	4200.38
984.59	4337.60
984.75	4337.60
984.91	4192.19
985.08	4220.86
985.24	4188.10
985.40	4153.28
985.56	4124.61
985.72	4257.73
985.88	4194.24
986.04	4089.79
986.20	4097.99
986.37	4110.27
986.53	4036.55
986.69	4208.58
986.85	4114.37
987.01	3997.64
987.17	4040.64
987.33	4153.28
987.49	4165.57
987.65	4059.07
987.82	3968.96
987.98	4057.03
988.14	4065.22
988.30	3977.16
988.46	3944.39
988.62	3987.40
988.78	3909.57
988.94	3971.01
989.10	3903.43
989.26	3786.69
989.42	3862.47
989.59	3764.17
989.75	3854.28
989.91	3923.91
990.07	3708.87
990.23	3760.07
990.39	3794.89
990.55	3909.57
990.71	3827.65
990.87	3866.56
991.03	3960.77
991.19	3829.70
991.35	3762.12
991.51	3825.61
991.67	3903.43
991.83	3821.51
992.00	3747.78
992.16	3837.89
992.32	3803.08
992.48	3831.75
992.64	3782.60
992.80	3723.21
992.96	3624.90
993.12	3721.16
993.28	3852.23
993.44	3645.38
993.60	3688.39
993.76	3649.48
993.92	3637.19
994.08	3635.14
994.24	3766.21
994.40	3641.29
994.56	3694.54
994.72	3688.39
994.88	3553.23
995.04	3692.49
995.20	3592.14
995.36	3432.40
995.52	3608.52
995.68	3567.56
995.84	3547.08
996.00	3585.99
996.16	3553.23
996.32	3495.88
996.48	3522.51
996.64	3526.60
996.80	3420.11
996.96	3461.07
997.12	3497.93
997.28	3487.69
997.44	3450.83
997.60	3485.64
997.76	3471.31
997.92	3405.77
998.08	3430.35
998.24	3334.09
998.40	3354.57
998.56	3418.06
998.72	3344.33
998.88	3391.44
999.04	3346.38
999.20	3393.48
999.36	3276.75
999.52	3432.40
999.68	3317.71
999.84	3278.80
1000.00	3301.33
1000.16	3346.38
1000.32	3330.00
1000.48	3352.52
1000.64	3196.88
1000.80	3235.79
1000.95	3131.34
1001.11	3297.23
1001.27	3286.99
1001.43	3346.38
1001.59	3203.02
1001.75	3155.92
1001.91	3231.69
1002.07	3119.06
1002.23	3209.17
1002.39	3160.02
1002.55	3221.45
1002.71	3170.26
1002.87	3086.29
1003.03	3250.13
1003.19	3084.24
1003.34	3297.23
1003.50	3125.20
1003.66	3231.69
1003.82	3117.01
1003.98	3074.00
1004.14	3125.20
1004.30	3098.58
1004.46	3090.38
1004.62	3014.61
1004.78	3129.30
1004.94	3147.73
1005.09	3104.72
1005.25	3114.96
1005.41	3000.27
1005.57	2987.99
1005.73	3012.56
1005.89	3028.95
1006.05	3067.86
1006.21	2953.17
1006.37	2983.89
1006.52	2858.96
1006.68	2887.64
1006.84	3106.77
1007.00	2951.12
1007.16	3004.37
1007.32	2918.36
1007.48	2904.02
1007.64	2969.55
1007.79	3006.42
1007.95	2764.76
1008.11	3082.19
1008.27	2873.30
1008.43	2955.22
1008.59	2848.72
1008.75	2897.88
1008.91	2887.64
1009.06	2854.87
1009.22	2887.64
1009.38	2895.83
1009.54	2895.83
1009.70	2822.10
1009.86	2953.17
1010.01	2875.35
1010.17	2746.33
1010.33	2824.15
1010.49	2813.91
1010.65	2861.01
1010.81	2781.14
1010.96	2795.48
1011.12	2793.43
1011.28	2803.67
1011.44	2826.20
1011.60	2719.70
1011.76	2699.22
1011.91	2785.24
1012.07	2635.74
1012.23	2691.03
1012.39	2650.07
1012.55	2738.13
1012.71	2660.31
1012.86	2684.89
1013.02	2611.16
1013.18	2566.10
1013.34	2541.53
1013.50	2777.05
1013.65	2678.74
1013.81	2723.80
1013.97	2582.49
1014.13	2602.97
1014.29	2564.06
1014.44	2664.41
1014.60	2584.54
1014.76	2545.63
1014.92	2613.21
1015.07	2580.44
1015.23	2600.92
1015.39	2502.62
1015.55	2580.44
1015.71	2609.11
1015.86	2535.39
1016.02	2574.30
1016.18	2508.76
1016.34	2559.96
1016.49	2531.29
1016.65	2658.26
1016.81	2482.14
1016.97	2486.23
1017.12	2551.77
1017.28	2475.99
1017.44	2400.22
1017.60	2541.53
1017.75	2510.81
1017.91	2469.85
1018.07	2461.66
1018.23	2506.71
1018.38	2422.75
1018.54	2490.33
1018.70	2437.08
1018.86	2316.25
1019.01	2392.03
1019.17	2328.54
1019.33	2494.43
1019.49	2387.93
1019.64	2432.99
1019.80	2469.85
1019.96	2469.85
1020.12	2527.19
1020.27	2519.00
1020.43	2400.22
1020.59	2371.55
1020.74	2420.70
1020.90	2416.60
1021.06	2265.05
1021.22	2361.31
1021.37	2303.96
1021.53	2297.82
1021.69	2406.36
1021.84	2299.87
1022.00	2432.99
1022.16	2306.01
1022.31	2285.53
1022.47	2406.36
1022.63	2365.40
1022.79	2242.53
1022.94	2224.09
1023.10	2308.06
1023.26	2330.59
1023.41	2260.96
1023.57	2260.96
1023.73	2326.49
1023.88	2338.78
1024.04	2156.51
1024.20	2228.19
1024.35	2295.77
1024.51	2265.05
1024.67	2349.02
1024.82	2340.83
1024.98	2232.29
1025.14	2193.37
1025.29	2238.43
1025.45	2293.72
1025.61	2154.46
1025.76	2279.39
1025.92	2232.29
1026.08	2332.64
1026.23	2222.05
1026.39	2322.40
1026.55	2228.19
1026.70	2183.13
1026.86	2295.77
1027.02	2195.42
1027.17	2263.01
1027.33	2193.37
1027.48	2310.11
1027.64	2174.94
1027.80	2133.98
1027.95	2246.62
1028.11	2017.25
1028.27	2236.38
1028.42	2256.86
1028.58	2115.55
1028.73	2109.41
1028.89	2103.26
1029.05	2140.13
1029.20	2226.14
>>>>>End Processed Spectral Data<<<<<
