SpectraSuite Data File
++++++++++++++++++++++++++++++++++++
Date: Fri Jun 02 14:44:36 CEST 2017
User: INFO_000
Dark Spectrum Present: No
Reference Spectrum Present: No
Number of Sampled Component Spectra: 1
Spectrometers: USB4H00879
Integration Time (usec): 80000 (USB4H00879)
Spectra Averaged: 1 (USB4H00879)
Boxcar Smoothing: 0 (USB4H00879)
Correct for Electrical Dark: No (USB4H00879)
Strobe/Lamp Enabled: No (USB4H00879)
Correct for Detector Non-linearity: No (USB4H00879)
Correct for Stray Light: No (USB4H00879)
Number of Pixels in Processed Spectrum: 3648
>>>>>Begin Processed Spectral Data<<<<<
345.13	1294.32
345.34	1294.32
345.56	1294.32
345.78	1255.40
345.99	1329.13
346.21	1740.77
346.42	1683.43
346.64	1660.90
346.86	1769.44
347.07	1681.38
347.29	1699.81
347.50	1583.08
347.72	1648.61
347.94	1738.73
348.15	1568.74
348.37	1585.13
348.59	1656.81
348.80	1658.85
349.02	1769.44
349.23	1849.32
349.45	1830.88
349.67	1880.04
349.88	1818.60
350.10	1896.42
350.31	1789.92
350.53	1789.92
350.75	2068.45
350.96	1732.58
351.18	1877.99
351.39	1900.52
351.61	1841.12
351.82	1861.60
352.04	1937.38
352.26	1816.55
352.47	1902.56
352.69	1908.71
352.90	1775.59
353.12	1892.32
353.34	1855.46
353.55	1888.23
353.77	1927.14
353.98	1771.49
354.20	1796.07
354.41	1964.00
354.63	1849.32
354.85	2056.16
355.06	1888.23
355.28	1861.60
355.49	1906.66
355.71	1882.08
355.92	1929.19
356.14	2015.20
356.35	1873.89
356.57	1834.98
356.79	1845.22
357.00	1880.04
357.22	1996.77
357.43	1853.41
357.65	1990.63
357.86	1849.32
358.08	1886.18
358.29	1953.76
358.51	1976.29
358.72	1941.47
358.94	1947.62
359.16	1970.15
359.37	1800.16
359.59	1986.53
359.80	2037.73
360.02	1961.95
360.23	1953.76
360.45	1980.39
360.66	1888.23
360.88	1896.42
361.09	1992.67
361.31	1970.15
361.52	1974.24
361.74	2082.78
361.95	2093.02
362.17	1953.76
362.38	2035.68
362.60	2084.83
362.81	2015.20
363.03	1929.19
363.24	1935.33
363.46	2045.92
363.67	2068.45
363.89	2019.30
364.10	2029.54
364.32	2000.87
364.53	2064.35
364.75	1886.18
364.96	2062.30
365.18	1986.53
365.39	1937.38
365.61	1968.10
365.82	2140.13
366.04	1986.53
366.25	1961.95
366.47	2037.73
366.68	2068.45
366.90	1900.52
367.11	2074.59
367.33	2080.74
367.54	2064.35
367.76	2013.15
367.97	2166.75
368.19	2007.01
368.40	2007.01
368.62	1994.72
368.83	1945.57
369.05	2015.20
369.26	1978.34
369.48	2088.93
369.69	2062.30
369.91	2033.63
370.12	2039.78
370.33	2125.79
370.55	2035.68
370.76	2007.01
370.98	2142.18
371.19	2015.20
371.41	1961.95
371.62	2090.98
371.84	2000.87
372.05	2181.09
372.27	2099.17
372.48	2076.64
372.69	2119.65
372.91	2144.22
373.12	2152.42
373.34	2082.78
373.55	2140.13
373.77	2076.64
373.98	1994.72
374.20	2164.70
374.41	2215.90
374.62	2115.55
374.84	2146.27
375.05	2242.53
375.27	2191.33
375.48	2162.66
375.70	2109.41
375.91	2176.99
376.12	2265.05
376.34	2162.66
376.55	2162.66
376.77	2185.18
376.98	2064.35
377.19	2131.94
377.41	2166.75
377.62	2244.57
377.84	2263.01
378.05	2383.84
378.27	2248.67
378.48	2353.12
378.69	2271.20
378.91	2297.82
379.12	2211.81
379.34	2164.70
379.55	2330.59
379.76	2295.77
379.98	2220.00
380.19	2293.72
380.41	2342.88
380.62	2322.40
380.83	2285.53
381.05	2217.95
381.26	2408.41
381.47	2263.01
381.69	2211.81
381.90	2377.69
382.12	2185.18
382.33	2263.01
382.54	2295.77
382.76	2238.43
382.97	2308.06
383.19	2238.43
383.40	2371.55
383.61	2310.11
383.83	2254.81
384.04	2295.77
384.25	2330.59
384.47	2447.32
384.68	2383.84
384.89	2318.30
385.11	2392.03
385.32	2469.85
385.54	2334.68
385.75	2353.12
385.96	2461.66
386.18	2469.85
386.39	2490.33
386.60	2338.78
386.82	2432.99
387.03	2402.27
387.24	2551.77
387.46	2471.90
387.67	2443.23
387.88	2467.80
388.10	2570.20
388.31	2449.37
388.52	2555.86
388.74	2574.30
388.95	2545.63
389.16	2525.15
389.38	2490.33
389.59	2637.78
389.80	2617.30
390.02	2527.19
390.23	2619.35
390.44	2478.04
390.66	2662.36
390.87	2494.43
391.08	2533.34
391.30	2695.13
391.51	2701.27
391.72	2557.91
391.94	2668.50
392.15	2695.13
392.36	2625.50
392.58	2566.10
392.79	2596.82
393.00	2772.95
393.22	2809.81
393.43	2791.38
393.64	2852.82
393.85	2822.10
394.07	2693.08
394.28	2678.74
394.49	2750.42
394.71	2723.80
394.92	2848.72
395.13	2686.94
395.35	2772.95
395.56	2656.22
395.77	2738.13
395.98	2838.48
396.20	2947.03
396.41	2926.55
396.62	2928.60
396.84	2822.10
397.05	2809.81
397.26	2971.60
397.47	2926.55
397.69	2861.01
397.90	2947.03
398.11	2922.45
398.32	2799.57
398.54	2861.01
398.75	2764.76
398.96	2869.20
399.18	3076.05
399.39	3051.47
399.60	2975.70
399.81	2899.92
400.03	2977.75
400.24	3313.61
400.45	2990.03
400.66	3055.57
400.88	3012.56
401.09	3174.35
401.30	3028.95
401.51	3200.98
401.73	3121.10
401.94	3117.01
402.15	3086.29
402.36	3123.15
402.58	3117.01
402.79	3143.63
403.00	3170.26
403.21	3235.79
403.43	3168.21
403.64	3293.13
403.85	3084.24
404.06	3297.23
404.27	3106.77
404.49	3190.74
404.70	3176.40
404.91	3362.76
405.12	3194.83
405.34	3192.78
405.55	3487.69
405.76	3098.58
405.97	3219.41
406.19	3448.78
406.40	3291.09
406.61	3416.01
406.82	3334.09
407.03	3346.38
407.25	3260.37
407.46	3477.45
407.67	3350.48
407.88	3510.22
408.09	3362.76
408.31	3352.52
408.52	3467.21
408.73	3399.63
408.94	3459.02
409.15	3514.31
409.37	3528.65
409.58	3575.75
409.79	3530.70
410.00	3639.24
410.21	3538.89
410.43	3508.17
410.64	3424.20
410.85	3594.19
411.06	3579.85
411.27	3616.71
411.48	3715.02
411.70	3581.90
411.91	3575.75
412.12	3616.71
412.33	3573.71
412.54	3575.75
412.76	3778.50
412.97	3631.05
413.18	3481.55
413.39	3674.06
413.60	3780.55
413.81	3688.39
414.03	3645.38
414.24	3655.62
414.45	3803.08
414.66	3633.10
414.87	3839.94
415.08	3682.25
415.30	3764.17
415.51	3878.85
415.72	3803.08
415.93	3837.89
416.14	3809.22
416.35	3864.52
416.56	3725.26
416.78	3938.24
416.99	3956.68
417.20	3909.57
417.41	3901.38
417.62	3936.20
417.83	4077.51
418.04	3983.30
418.26	3907.52
418.47	3917.76
418.68	4022.21
418.89	4075.46
419.10	4083.65
419.31	4034.50
419.52	4020.16
419.73	4190.14
419.95	4059.07
420.16	3911.62
420.37	4034.50
420.58	4110.27
420.79	3915.72
421.00	4063.17
421.21	4116.42
421.42	4030.40
421.63	4108.23
421.85	4161.47
422.06	4239.30
422.27	4302.78
422.48	4130.75
422.69	4294.59
422.90	4341.69
423.11	4227.01
423.32	4218.82
423.53	4349.89
423.75	4296.64
423.96	4466.62
424.17	4329.41
424.38	4577.21
424.59	4466.62
424.80	4511.68
425.01	4501.44
425.22	4409.28
425.43	4368.32
425.64	4542.39
425.85	4634.55
426.06	4542.39
426.28	4540.35
426.49	4503.48
426.70	4513.72
426.91	4726.71
427.12	4626.36
427.33	4630.46
427.54	4614.07
427.75	4665.27
427.96	4734.90
428.17	4652.98
428.38	4695.99
428.59	4892.60
428.80	4775.86
429.01	4868.02
429.23	4786.10
429.44	4931.51
429.65	4968.37
429.86	4968.37
430.07	4853.69
430.28	4816.82
430.49	5003.19
430.70	5050.29
430.91	5091.25
431.12	4935.60
431.33	5130.16
431.54	5167.03
431.75	5193.65
431.96	5164.98
432.17	5230.51
432.38	5187.50
432.59	5484.46
432.80	5277.62
433.01	5353.39
433.22	5345.20
433.43	5457.84
433.64	5363.63
433.85	5314.48
434.06	5230.51
434.27	5416.88
434.49	5418.93
434.70	5496.75
434.91	5500.84
435.12	5554.09
435.33	5550.00
435.54	5554.09
435.75	5304.24
435.96	5539.76
436.17	5513.13
436.38	5697.45
436.59	5668.78
436.80	5597.10
437.01	5805.99
437.22	5808.04
437.43	5814.18
437.64	5672.87
437.85	5859.24
438.06	5869.48
438.27	5709.74
438.48	5646.25
438.69	5844.90
438.90	5783.46
439.11	5752.74
439.32	6066.08
439.53	5906.34
439.74	5984.16
439.95	6043.56
440.16	5867.43
440.37	5975.97
440.57	5873.57
440.78	6037.41
440.99	6139.81
441.20	6117.28
441.41	5820.33
441.62	6107.04
441.83	5943.21
442.04	6258.59
442.25	6094.76
442.46	6117.28
442.67	6252.45
442.88	6565.79
443.09	6137.76
443.30	6164.39
443.51	6287.26
443.72	6561.69
443.93	6297.50
444.14	6557.60
444.35	6455.20
444.56	6500.25
444.77	6393.76
444.98	6516.64
445.19	6647.71
445.40	6563.74
445.61	6434.72
445.81	6635.42
446.02	6623.13
446.23	6467.49
446.44	6510.49
446.65	6600.60
446.86	6555.55
447.07	6733.72
447.28	6897.56
447.49	6846.36
447.70	6598.56
447.91	6774.68
448.12	6705.05
448.33	6915.99
448.54	6825.88
448.74	6860.70
448.95	6807.45
449.16	6801.30
449.37	6977.43
449.58	6641.56
449.79	7071.64
450.00	6967.19
450.21	7088.02
450.42	7245.71
450.63	7151.51
450.84	6877.08
451.05	7088.02
451.25	7026.58
451.46	7038.87
451.67	7284.62
451.88	7243.67
452.09	7100.31
452.30	7145.36
452.51	7176.08
452.72	7362.45
452.93	7600.01
453.13	7200.66
453.34	7171.99
453.55	7425.93
453.76	7323.54
453.97	7600.01
454.18	7434.13
454.39	7557.00
454.60	7604.11
454.81	7491.47
455.01	7647.12
455.22	7495.57
455.43	7659.40
455.64	7663.50
455.85	7872.39
456.06	8046.47
456.27	7679.88
456.48	7769.99
456.68	7942.02
456.89	7874.44
457.10	7972.74
457.31	7856.01
457.52	8005.51
457.73	8064.90
457.94	8181.64
458.14	7927.69
458.35	8503.17
458.56	8097.67
458.77	8112.00
458.98	8216.45
459.19	8398.72
459.39	8236.93
459.60	8652.67
459.81	8460.16
460.02	8515.45
460.23	8486.78
460.44	8601.47
460.65	8712.06
460.85	8710.01
461.06	8791.93
461.27	8374.14
461.48	8861.56
461.69	8933.24
461.89	8607.61
462.10	8927.10
462.31	8894.33
462.52	8765.31
462.73	8953.72
462.94	9228.15
463.14	9164.66
463.35	9156.47
463.56	9492.34
463.77	9453.42
463.98	9213.81
464.18	9420.66
464.39	9635.69
464.60	9774.95
464.81	9699.18
465.02	9559.92
465.23	9752.43
465.43	9607.02
465.64	10082.15
465.85	9873.26
466.06	9734.00
466.27	10229.60
466.47	10139.49
466.68	10151.78
466.89	10108.77
467.10	10108.77
467.30	10186.60
467.51	10301.28
467.72	10663.77
467.93	10291.04
468.14	10690.40
468.34	10661.73
468.55	10893.15
468.76	10690.40
468.97	10653.53
469.17	11013.98
469.38	11042.65
469.59	11140.95
469.80	10991.45
470.01	11061.08
470.21	11298.64
470.42	11218.77
470.63	11429.71
470.84	11396.95
471.04	11736.91
471.25	11573.07
471.46	11390.80
471.67	11804.49
471.87	11687.76
472.08	11925.32
472.29	12099.40
472.50	11634.51
472.70	11997.00
472.91	11870.03
473.12	12144.45
473.33	12283.72
473.53	12513.09
473.74	12257.09
473.95	12560.19
474.16	12603.20
474.36	12570.43
474.57	12861.24
474.78	12883.77
474.99	12861.24
475.19	12801.85
475.40	13299.51
475.61	13328.18
475.81	13272.89
476.02	13524.79
476.23	13393.72
476.44	13385.52
476.64	13762.35
476.85	13879.08
477.06	13803.31
477.27	14057.26
477.47	14028.59
477.68	13911.85
477.89	14309.16
478.09	14313.25
478.30	14026.54
478.51	14311.21
478.71	14505.76
478.92	14724.90
479.13	14694.18
479.34	14905.12
479.54	14896.92
479.75	14780.19
479.96	14978.84
480.16	15165.21
480.37	15157.02
480.58	15120.15
480.78	15312.66
480.99	15337.24
481.20	15460.12
481.41	15773.46
481.61	15591.19
481.82	15890.19
482.03	15433.49
482.23	15705.87
482.44	16056.08
482.65	16178.95
482.85	16271.11
483.06	16226.06
483.27	16353.03
483.47	16250.63
483.68	16443.14
483.89	16641.79
484.09	16643.84
484.30	16791.30
484.51	16926.46
484.71	17092.35
484.92	16926.46
485.13	17338.10
485.33	17032.96
485.54	17313.53
485.75	17366.78
485.95	17516.28
486.16	17336.06
486.37	17628.92
486.57	17741.55
486.78	17673.97
486.98	17682.16
487.19	17870.58
487.40	17960.69
487.60	18128.62
487.81	18161.39
488.02	18325.22
488.22	18085.61
488.43	18261.74
488.64	18648.80
488.84	18560.74
489.05	18720.48
489.25	18761.44
489.46	19105.50
489.67	18994.91
489.87	19343.06
490.08	18892.51
490.29	18933.47
490.49	19633.88
490.70	19295.96
490.90	19691.22
491.11	19412.70
491.32	19642.07
491.52	20006.61
491.73	20022.99
491.94	19875.54
492.14	20010.70
492.35	20324.04
492.55	20416.20
492.76	20199.12
492.97	20514.50
493.17	20166.35
493.38	20555.46
493.58	20436.68
493.79	20909.76
494.00	20516.55
494.20	20729.54
494.41	21020.35
494.61	21192.38
494.82	21132.99
495.02	20872.90
495.23	21405.37
495.44	21319.35
495.64	21614.26
495.85	21300.92
496.05	21843.63
496.26	21710.52
496.47	21921.46
496.67	21636.79
496.88	22099.63
497.08	22070.96
497.29	22488.74
497.49	21849.78
497.70	22208.17
497.91	22572.71
498.11	22601.38
498.32	22576.81
498.52	22576.81
498.73	22857.38
498.93	22961.83
499.14	22912.67
499.34	23076.51
499.55	23209.63
499.76	23078.56
499.96	23299.74
500.17	23119.52
500.37	23330.46
500.58	23424.67
500.78	23518.87
500.99	23713.43
501.19	23791.25
501.40	23983.76
501.60	23647.90
501.81	23821.97
502.02	23967.38
502.22	23830.16
502.43	24321.68
502.63	24512.14
502.84	24704.65
503.04	24725.13
503.25	24546.95
503.45	24723.08
503.66	24960.64
503.86	24864.39
504.07	25241.21
504.27	24884.87
504.48	25323.13
504.68	24886.92
504.89	25347.71
505.09	25179.78
505.30	25241.21
505.50	25212.54
505.71	25282.17
505.91	25507.45
506.12	25667.19
506.32	25499.26
506.53	25822.84
506.73	25769.59
506.94	26154.61
507.14	25745.02
507.35	26211.95
507.55	25996.92
507.76	26115.70
507.96	26449.52
508.17	26347.12
508.37	25943.67
508.58	26359.41
508.78	26519.15
508.99	26639.98
509.19	26934.88
509.40	26924.65
509.60	26629.74
509.81	26990.18
510.01	26852.97
510.22	27014.76
510.42	26920.55
510.63	27037.28
510.83	26981.99
511.04	26900.07
511.24	27407.97
511.44	27213.41
511.65	27305.57
511.85	27369.05
512.06	27373.15
512.26	27528.80
512.47	27602.52
512.67	27541.08
512.88	27696.73
513.08	27631.19
513.29	27821.66
513.49	27962.97
513.69	27770.46
513.90	28057.17
514.10	27803.22
514.31	28038.74
514.51	27829.85
514.72	27870.81
514.92	28053.08
515.13	28159.57
515.33	28393.04
515.53	28331.60
515.74	28395.09
515.94	28282.45
516.15	28802.63
516.35	28376.66
516.56	28712.52
516.76	28636.75
516.96	28350.03
517.17	28878.41
517.37	28507.72
517.58	28487.25
517.78	28698.19
517.99	28845.64
518.19	28909.13
518.39	29005.38
518.60	29148.74
518.80	29150.79
519.01	29062.72
519.21	29062.72
519.41	29361.73
519.62	29357.63
519.82	29349.44
520.03	29361.73
520.23	29265.47
520.43	29374.02
520.64	29390.40
520.84	30023.22
521.05	29527.61
521.25	29851.19
521.45	29838.90
521.66	29763.13
521.86	29861.43
522.07	29881.91
522.27	30217.78
522.47	29736.51
522.68	30385.71
522.88	30228.02
523.08	30629.42
523.29	30385.71
523.49	30285.36
523.70	30275.12
523.90	30408.24
524.10	30838.31
524.31	30965.29
524.51	30477.87
524.71	30989.86
524.92	30969.38
525.12	31331.87
525.33	30940.71
525.53	31317.54
525.73	31395.36
525.94	31360.55
526.14	31092.26
526.34	31589.92
526.55	31448.61
526.75	31086.12
526.95	31614.49
527.16	31745.56
527.36	31614.49
527.56	31870.49
527.77	32089.62
527.97	32130.58
528.17	32142.87
528.38	32314.90
528.58	32255.51
528.78	32368.15
528.99	32110.10
529.19	32736.78
529.39	32177.68
529.60	32464.40
529.80	32769.55
530.00	32712.20
530.21	32945.67
530.41	32890.38
530.61	32914.95
530.82	32802.32
531.02	33091.08
531.22	33134.09
531.43	33433.09
531.63	33494.53
531.83	33543.68
532.04	34031.10
532.24	33383.94
532.44	33840.64
532.64	33832.44
532.85	33805.82
533.05	34160.12
533.25	34029.05
533.46	34129.40
533.66	34772.46
533.86	34305.52
534.07	34778.61
534.27	34676.21
534.47	34866.67
534.67	35075.56
534.88	34711.02
535.08	34723.31
535.28	35167.72
535.49	35161.58
535.69	35413.48
535.89	35401.19
536.09	35694.05
536.30	35847.64
536.50	35923.42
536.70	35835.36
536.91	35673.57
537.11	36050.39
537.31	35872.22
537.51	36165.08
537.72	36570.58
537.92	36396.50
538.12	36500.95
538.32	36568.53
538.53	36443.60
538.73	36812.24
538.93	36603.35
539.13	36847.05
539.34	36767.18
539.54	37287.37
539.74	37410.25
539.94	37227.98
540.15	37258.70
540.35	37774.78
540.55	37539.27
540.75	37357.00
540.96	37639.62
541.16	37457.35
541.36	37823.93
541.56	37887.42
541.77	37817.79
541.97	38149.56
542.17	38118.84
542.37	38383.03
542.58	38274.49
542.78	38458.81
542.98	38579.64
543.18	38639.03
543.38	39183.79
543.59	38966.70
543.79	38727.09
543.99	38753.71
544.19	39538.08
544.40	39298.47
544.60	39429.54
544.80	39421.35
545.00	39394.73
545.20	39632.29
545.41	39380.39
545.61	39577.00
545.81	40021.41
546.01	39656.87
546.21	39826.85
546.42	40062.36
546.62	40203.67
546.82	40172.96
547.02	40230.30
547.22	40181.15
547.43	40365.46
547.63	40355.22
547.83	40535.45
548.03	40166.81
548.23	40555.93
548.44	40410.52
548.64	40695.19
548.84	40349.08
549.04	40670.61
549.24	41184.65
549.45	41321.87
549.65	40603.03
549.85	40934.80
550.05	41635.20
550.25	41328.01
550.45	41815.43
550.66	41618.82
550.86	41432.46
551.06	41805.19
551.26	41735.56
551.46	42259.84
551.66	42141.05
551.87	41676.16
552.07	42003.84
552.27	42116.48
552.47	41960.83
552.67	42694.00
552.87	42190.20
553.07	42194.30
553.28	42378.62
553.48	42466.68
553.68	42538.36
553.88	42569.08
554.08	42562.93
554.28	42468.73
554.48	42429.82
554.69	42550.65
554.89	42419.58
555.09	42761.59
555.29	42673.52
555.49	42780.02
555.69	42870.13
555.89	42812.79
556.10	42988.91
556.30	42691.96
556.50	43263.34
556.70	42960.24
556.90	43160.94
557.10	43156.85
557.30	43023.73
557.50	43484.52
557.70	42952.05
557.91	43269.48
558.11	43191.66
558.31	43365.74
558.51	43179.37
558.71	43804.00
558.91	43717.99
559.11	43640.17
559.31	43478.38
559.51	43304.30
559.72	43652.45
559.92	43916.64
560.12	43644.26
560.32	44006.75
560.52	43668.84
560.72	43965.79
560.92	43851.11
561.12	44135.77
561.32	44055.90
561.52	43887.97
561.72	44776.79
561.93	44027.23
562.13	43685.22
562.33	43978.08
562.53	44721.49
562.73	43955.55
562.93	43828.58
563.13	44193.12
563.33	44004.70
563.53	44264.80
563.73	43738.47
563.93	44062.05
564.13	44782.93
564.33	44442.97
564.53	43804.00
564.74	44606.81
564.94	44309.85
565.14	44725.59
565.34	44168.54
565.54	44584.28
565.74	44664.15
565.94	44891.48
566.14	44528.98
566.34	44129.63
566.54	44619.10
566.74	44342.62
566.94	44479.83
567.14	44772.69
567.34	44266.84
567.54	44950.87
567.74	44492.12
567.94	44924.24
568.14	45012.31
568.34	44850.52
568.54	44539.22
568.74	45151.57
568.94	44815.70
569.14	44871.00
569.34	45000.02
569.54	44897.62
569.75	44559.70
569.95	45204.81
570.15	45159.76
570.35	45194.57
570.55	44823.89
570.75	44965.20
570.95	45229.39
571.15	45382.99
571.35	45112.66
571.55	45110.61
571.75	45020.50
571.95	44950.87
572.15	45065.55
572.35	45389.13
572.55	45202.77
572.75	45303.12
572.95	45346.12
573.15	45634.89
573.35	45198.67
573.55	45286.73
573.75	45675.85
573.95	45710.66
574.15	45673.80
574.35	45520.20
574.55	45739.33
574.75	45227.34
574.95	45927.75
575.15	45530.44
575.34	45335.88
575.54	45557.06
575.74	45722.95
575.94	45708.61
576.14	45761.86
576.34	45970.75
576.54	46179.65
576.74	45921.60
576.94	45954.37
577.14	46325.05
577.34	46298.43
577.54	46294.33
577.74	46462.27
577.94	46067.01
578.14	46443.84
578.34	46161.22
578.54	45823.30
578.74	46341.44
578.94	46531.90
579.14	46310.72
579.34	46437.69
579.54	46916.92
579.74	46974.26
579.94	46376.25
580.13	47099.19
580.33	46601.53
580.53	47052.08
580.73	46998.83
580.93	47107.38
581.13	46787.89
581.33	46830.90
581.53	47471.92
581.73	47072.56
581.93	47033.65
582.13	47486.25
582.33	47502.64
582.53	47129.90
582.73	47435.05
582.92	47084.85
583.12	47349.04
583.32	47293.74
583.52	47195.44
583.72	47877.41
583.92	47504.68
584.12	47678.76
584.32	48229.66
584.52	47490.35
584.72	48090.40
584.92	47871.27
585.11	48461.08
585.31	47797.54
585.51	48076.07
585.71	47805.73
585.91	48336.16
586.11	48776.47
586.31	48248.10
586.51	48545.05
586.71	48524.57
586.91	48870.68
587.10	48430.36
587.30	48416.03
587.50	49050.90
587.70	48928.02
587.90	48594.20
588.10	48571.67
588.30	48973.08
588.50	49235.22
588.69	49235.22
588.89	49081.62
589.09	49360.14
589.29	49292.56
589.49	49347.86
589.69	49210.64
589.89	49536.27
590.08	49497.36
590.28	49607.95
590.48	49720.59
590.68	49636.62
590.88	49954.05
591.08	49644.81
591.28	49597.71
591.47	50447.61
591.67	49923.33
591.87	50115.84
592.07	50031.88
592.27	49947.91
592.47	50138.37
592.67	50310.40
592.86	50076.93
593.06	50353.41
593.26	50494.72
593.46	50433.28
593.66	50261.25
593.86	50803.96
594.05	50418.94
594.25	51117.30
594.45	50367.74
594.65	50842.87
594.85	50668.79
595.05	50914.55
595.24	51070.20
595.44	51162.36
595.64	51021.05
595.84	50885.88
596.04	51514.61
596.23	51193.07
596.43	51713.26
596.63	51324.14
596.83	51766.51
597.03	51873.00
597.22	51916.01
597.42	51852.52
597.62	51926.25
597.82	51975.40
598.02	51969.26
598.21	52294.88
598.41	51854.57
598.61	52133.09
598.81	52245.73
599.01	52272.35
599.20	52358.37
599.40	52249.83
599.60	52835.55
599.80	52831.45
600.00	52643.04
600.19	52724.96
600.39	52335.84
600.59	52698.33
600.79	53230.80
600.98	52833.50
601.18	53112.02
601.38	52964.57
601.58	53333.20
601.78	53200.08
601.97	53550.29
602.17	53902.54
602.37	53556.43
602.57	53671.12
602.76	53810.38
602.96	53769.42
603.16	53980.36
603.36	53961.93
603.55	54252.74
603.75	53705.93
603.95	53830.86
604.15	54185.16
604.34	54129.86
604.54	54445.25
604.74	54056.14
604.94	54709.44
605.13	54518.98
605.33	54473.92
605.53	54312.13
605.73	54387.91
605.92	54895.80
606.12	54344.90
606.32	54613.18
606.52	54539.46
606.71	54912.19
606.91	54883.51
607.11	54486.21
607.30	54592.70
607.50	55184.57
607.70	55239.86
607.90	54899.90
608.09	55186.61
608.29	55018.68
608.49	55133.37
608.68	54756.54
608.88	55612.59
609.08	55217.33
609.28	55588.02
609.47	55102.65
609.67	55712.94
609.87	55422.13
610.06	55428.27
610.26	55604.40
610.46	55968.94
610.66	55547.06
610.85	56016.04
611.05	55588.02
611.25	55909.55
611.44	55383.22
611.64	55649.45
611.84	56044.71
612.03	55542.96
612.23	55751.85
612.43	55921.83
612.62	55309.49
612.82	55661.74
613.02	55768.24
613.21	55635.12
613.41	55702.70
613.61	55712.94
613.80	55479.47
614.00	55645.36
614.20	56097.96
614.39	55999.66
614.59	55923.88
614.79	55352.50
614.98	55497.91
615.18	55366.84
615.38	55841.96
615.57	55745.71
615.77	55626.93
615.97	56130.73
616.16	55532.72
616.36	55717.04
616.56	55729.33
616.75	55932.07
616.95	55862.44
617.15	55887.02
617.34	55782.57
617.54	55905.45
617.74	56087.72
617.93	55899.31
618.13	55596.21
618.32	55399.60
618.52	55563.44
618.72	55825.58
618.91	55813.29
619.11	55663.79
619.31	55440.56
619.50	55585.97
619.70	55047.35
619.90	55602.35
620.09	55579.82
620.29	55489.71
620.48	55325.88
620.68	55704.75
620.88	55436.47
621.07	55598.26
621.27	55188.66
621.46	54682.81
621.66	55301.30
621.86	55393.46
622.05	55190.71
622.25	55510.19
622.44	55565.49
622.64	55024.82
622.84	55616.69
623.03	55467.19
623.23	55282.87
623.42	55264.44
623.62	55190.71
623.82	55639.22
624.01	55006.39
624.21	55252.15
624.40	55166.13
624.60	55004.34
624.80	55241.91
624.99	55317.68
625.19	54846.65
625.38	55043.26
625.58	55262.39
625.77	55129.27
625.97	55039.16
626.17	54803.64
626.36	55006.39
626.56	54990.01
626.75	54107.33
626.95	55483.57
627.14	54895.80
627.34	55129.27
627.54	54795.45
627.73	54885.56
627.93	55098.55
628.12	54531.26
628.32	55078.07
628.51	54830.27
628.71	55008.44
628.90	54822.08
629.10	54736.06
629.30	55235.77
629.49	54953.15
629.69	54891.71
629.88	54551.74
630.08	54760.64
630.27	55211.19
630.47	54734.01
630.66	54486.21
630.86	55082.17
631.05	54439.11
631.25	55190.71
631.44	54392.00
631.64	54768.83
631.84	54641.85
632.03	55551.15
632.23	54688.96
632.42	55121.08
632.62	54465.73
632.81	54664.38
633.01	54586.56
633.20	54852.80
633.40	54930.62
633.59	54588.61
633.79	54336.71
633.98	54852.80
634.18	54848.70
634.37	54627.52
634.57	54865.08
634.76	54979.77
634.96	54926.52
635.15	54990.01
635.35	54244.55
635.54	54451.39
635.74	54637.76
635.93	54242.50
636.13	54766.78
636.32	54895.80
636.52	54406.34
636.71	54504.64
636.91	54506.69
637.10	54627.52
637.30	55110.84
637.49	54486.21
637.69	54213.83
637.88	54959.29
638.08	54609.09
638.27	54973.63
638.46	55196.85
638.66	54561.98
638.85	55186.61
639.05	55000.25
639.24	55157.94
639.44	54586.56
639.63	54924.47
639.83	54705.34
640.02	54830.27
640.22	54723.77
640.41	54813.88
640.61	54402.24
640.80	54854.84
640.99	54580.42
641.19	55014.58
641.38	54711.49
641.58	54629.57
641.77	54566.08
641.97	54686.91
642.16	54375.62
642.36	54990.01
642.55	55286.96
642.74	54920.38
642.94	55805.10
643.13	55061.69
643.33	55239.86
643.52	55336.12
643.72	55076.02
643.91	54885.56
644.10	55123.13
644.30	55155.89
644.49	54920.38
644.69	55399.60
644.88	55530.67
645.08	55002.30
645.27	54981.82
645.46	55028.92
645.66	55569.58
645.85	55346.36
646.05	55813.29
646.24	55370.93
646.43	55499.95
646.63	55692.46
646.82	56034.47
647.02	55614.64
647.21	55579.82
647.40	55706.80
647.60	55641.26
647.79	55678.13
647.99	55891.12
648.18	55657.65
648.37	56261.80
648.57	55661.74
648.76	55997.61
648.96	55735.47
649.15	56095.91
649.34	55956.65
649.54	55987.37
649.73	55809.20
649.92	56218.79
650.12	55925.93
650.31	56300.71
650.51	56304.80
650.70	56478.88
650.89	56005.80
651.09	56720.54
651.28	56468.64
651.47	56558.75
651.67	56628.38
651.86	56827.04
652.06	55891.12
652.25	56736.93
652.44	56382.63
652.64	56370.34
652.83	56272.04
653.02	55932.07
653.22	56454.31
653.41	56399.01
653.60	56347.81
653.80	56665.25
653.99	56984.73
654.18	56446.11
654.38	56712.35
654.57	56405.16
654.76	56603.81
654.96	56884.38
655.15	56712.35
655.34	56386.72
655.54	56370.34
655.73	57201.82
655.92	56890.52
656.12	56763.55
656.31	57119.90
656.50	56571.04
656.70	56913.05
656.89	56607.90
657.08	57212.06
657.28	56747.17
657.47	57160.86
657.66	56837.28
657.86	56906.91
658.05	57447.57
658.24	57312.41
658.43	56728.73
658.63	57425.04
658.82	57363.60
659.01	57668.75
659.21	57111.70
659.40	57156.76
659.59	57291.93
659.79	57785.49
659.98	57447.57
660.17	57627.79
660.36	57359.51
660.56	57531.54
660.75	57627.79
660.94	57543.83
661.14	57470.10
661.33	57732.24
661.52	57349.27
661.71	58080.39
661.91	57545.87
662.10	57263.25
662.29	57586.83
662.49	57736.34
662.68	57732.24
662.87	57703.57
663.06	57894.03
663.26	57746.57
663.45	58188.94
663.64	57773.20
663.83	58053.77
664.03	57898.12
664.22	57871.50
664.41	58094.73
664.60	57545.87
664.80	57498.77
664.99	57887.88
665.18	57980.04
665.37	57695.38
665.57	58074.25
665.76	57687.18
665.95	57848.97
666.14	57541.78
666.34	57943.18
666.53	57808.01
666.72	57926.80
666.91	58016.91
667.11	57803.92
667.30	58233.99
667.49	58070.15
667.68	58027.15
667.87	57971.85
668.07	58211.46
668.26	58244.23
668.45	58164.36
668.64	57916.56
668.84	58410.12
669.03	58082.44
669.22	57988.24
669.41	58356.87
669.60	58344.58
669.80	58070.15
669.99	58485.89
670.18	58084.49
670.37	58086.54
670.57	58578.05
670.76	57713.81
670.95	57992.33
671.14	58121.35
671.33	57765.01
671.53	58715.26
671.72	58268.81
671.91	58037.39
672.10	58522.76
672.29	57922.70
672.48	57726.10
672.68	58522.76
672.87	58092.68
673.06	58365.06
673.25	57760.91
673.44	57861.26
673.64	58231.94
673.83	57857.17
674.02	58274.95
674.21	57783.44
674.40	58029.19
674.59	57685.14
674.79	57605.26
674.98	57984.14
675.17	58197.13
675.36	57810.06
675.55	58252.42
675.74	57736.34
675.94	58283.14
676.13	58141.83
676.32	58334.34
676.51	58029.19
676.70	58391.68
676.89	57971.85
677.08	57953.42
677.28	58172.55
677.47	58334.34
677.66	58193.03
677.85	57947.28
678.04	58043.53
678.23	58299.53
678.42	58043.53
678.62	58283.14
678.81	58442.88
679.00	58254.47
679.19	58455.17
679.38	58115.21
679.57	57889.93
679.76	58094.73
679.96	58131.59
680.15	58258.57
680.34	57623.70
680.53	57820.30
680.72	57988.24
680.91	58107.02
681.10	57668.75
681.29	57996.43
681.48	57234.58
681.68	57513.11
681.87	57810.06
682.06	57830.54
682.25	57025.69
682.44	57676.94
682.63	57562.26
682.82	57341.08
683.01	57285.78
683.20	57152.66
683.39	57359.51
683.59	57547.92
683.78	56872.09
683.97	57005.21
684.16	56786.08
684.35	56784.03
684.54	57187.48
684.73	57169.05
684.92	57287.83
685.11	57011.35
685.30	56712.35
685.49	57500.82
685.69	56550.56
685.88	57197.72
686.07	56822.94
686.26	56923.29
686.45	56734.88
686.64	56925.34
686.83	56808.61
687.02	56589.47
687.21	57027.74
687.40	56579.23
687.59	56321.19
687.78	56550.56
687.97	56679.58
688.16	56491.17
688.35	56401.06
688.54	56226.98
688.74	56558.75
688.93	56313.00
689.12	56429.73
689.31	56800.41
689.50	56364.20
689.69	56093.86
689.88	55854.25
690.07	56288.42
690.26	56153.26
690.45	56444.07
690.64	55884.97
690.83	55893.16
691.02	55741.61
691.21	55887.02
691.40	56007.85
691.59	55573.68
691.78	55721.13
691.97	56140.97
692.16	55934.12
692.35	55764.14
692.54	55735.47
692.73	56042.66
692.92	55706.80
693.11	55860.40
693.30	55848.11
693.49	55467.19
693.68	55237.81
693.87	55471.28
694.06	55321.78
694.25	55403.70
694.44	55123.13
694.63	54928.57
694.82	55575.73
695.01	54791.36
695.20	55301.30
695.39	55012.54
695.58	54621.37
695.77	55407.79
695.96	54834.36
696.15	55203.00
696.34	54805.69
696.53	54805.69
696.72	54621.37
696.91	54613.18
697.10	54379.71
697.29	54658.24
697.48	54695.10
697.67	54539.46
697.86	54244.55
698.05	54207.68
698.24	54457.54
698.43	54179.01
698.62	54373.57
698.81	54240.45
699.00	54457.54
699.19	54035.66
699.38	54066.38
699.57	53794.00
699.76	54475.97
699.95	54080.71
700.14	53654.73
700.32	53896.39
700.51	53736.65
700.70	54258.88
700.89	53945.54
701.08	53794.00
701.27	53683.40
701.46	54041.80
701.65	53408.98
701.84	53517.52
702.03	53904.59
702.22	53638.35
702.41	53335.25
702.60	53640.40
702.79	53384.40
702.98	53083.35
703.17	53282.00
703.35	53392.59
703.54	53214.42
703.73	53368.02
703.92	53591.25
704.11	53585.10
704.30	53073.11
704.49	53396.69
704.68	53015.77
704.87	53400.79
705.06	52651.23
705.25	52790.49
705.43	52774.11
705.62	53130.45
705.81	52806.87
706.00	53411.02
706.19	52430.05
706.38	52704.48
706.57	52739.29
706.76	52618.46
706.95	53116.12
707.14	52301.03
707.32	52188.39
707.51	52278.50
707.70	52458.72
707.89	52421.86
708.08	52141.28
708.27	52237.54
708.46	52657.37
708.65	51987.69
708.84	52241.63
709.02	52339.94
709.21	52638.94
709.40	51948.78
709.59	52057.32
709.78	51614.96
709.97	52018.41
710.16	51780.84
710.34	52030.69
710.53	51975.40
710.72	51780.84
710.91	51393.78
711.10	52135.14
711.29	52090.09
711.48	51502.32
711.66	51528.94
711.85	51772.65
712.04	51737.83
712.23	51582.19
712.42	51408.11
712.61	51422.45
712.80	51354.86
712.98	51457.26
713.17	51254.51
713.36	51580.14
713.55	51617.00
713.74	51387.63
713.93	51201.27
714.11	51285.23
714.30	50885.88
714.49	51072.24
714.68	51670.25
714.87	51496.17
715.06	51047.67
715.24	51277.04
715.43	50912.50
715.62	50697.47
715.81	50851.06
716.00	51150.07
716.18	50654.46
716.37	50439.42
716.56	51027.19
716.75	50603.26
716.94	50640.12
717.12	50754.81
717.31	50797.82
717.50	50777.34
717.69	50824.44
717.88	50476.29
718.06	50783.48
718.25	50969.85
718.44	50595.07
718.63	50251.01
718.82	49822.98
719.00	50277.63
719.19	50238.72
719.38	50382.08
719.57	49859.85
719.76	49749.26
719.94	49865.99
720.13	50001.16
720.32	50023.68
720.51	49829.13
720.69	49761.54
720.88	49872.14
721.07	49976.58
721.26	49431.82
721.44	49904.90
721.63	49198.35
721.82	49804.55
722.01	49093.91
722.20	49831.18
722.38	49294.61
722.57	48837.91
722.76	49341.71
722.95	49390.86
723.13	49386.77
723.32	49202.45
723.51	48878.87
723.70	48977.17
723.88	49196.31
724.07	48403.74
724.26	48956.69
724.44	48182.56
724.63	49218.83
724.82	49042.71
725.01	48805.14
725.19	48903.45
725.38	48966.93
725.57	48565.53
725.76	48608.54
725.94	48223.52
726.13	48618.78
726.32	48186.66
726.51	48755.99
726.69	48790.81
726.88	48860.44
727.07	48856.34
727.25	48813.34
727.44	48874.77
727.63	48669.98
727.82	48723.22
728.00	48745.75
728.19	48543.00
728.38	48401.69
728.56	48432.41
728.75	48751.90
728.94	48059.68
729.12	48923.93
729.31	48581.91
729.50	48733.46
729.69	48923.93
729.87	47961.38
730.06	48620.83
730.25	48682.27
730.43	48624.92
730.62	48459.04
730.81	48780.57
730.99	48598.30
731.18	48581.91
731.37	48604.44
731.55	48778.52
731.74	48721.18
731.93	49128.72
732.11	48860.44
732.30	48911.64
732.49	48160.03
732.67	48858.39
732.86	48805.14
733.05	48872.73
733.23	48184.61
733.42	48389.41
733.61	48569.63
733.79	48846.10
733.98	48758.04
734.17	48819.48
734.35	48657.69
734.54	48413.98
734.73	48956.69
734.91	48885.01
735.10	48700.70
735.29	48545.05
735.47	48223.52
735.66	48465.18
735.84	48620.83
736.03	48008.48
736.22	48715.03
736.40	48282.91
736.59	48764.18
736.78	48358.69
736.96	48510.24
737.15	48409.89
737.33	48471.32
737.52	48450.84
737.71	48430.36
737.89	48295.20
738.08	47926.56
738.27	48502.04
738.45	48928.02
738.64	48665.88
738.82	48348.45
739.01	48649.50
739.20	48301.34
739.38	48426.27
739.57	48690.46
739.75	48254.24
739.94	48180.51
740.13	48141.60
740.31	47869.22
740.50	48325.92
740.68	48100.64
740.87	48258.34
741.06	48399.65
741.24	47727.91
741.43	48065.83
741.61	48223.52
741.80	47834.41
741.99	48004.39
742.17	47897.89
742.36	48065.83
742.54	47973.67
742.73	48008.48
742.91	47887.65
743.10	47732.01
743.29	48180.51
743.47	48459.04
743.66	47996.20
743.84	48186.66
744.03	47734.06
744.21	47631.66
744.40	48157.99
744.59	47928.61
744.77	47662.38
744.96	48055.59
745.14	47521.07
745.33	48018.72
745.51	47602.99
745.70	47447.34
745.88	47779.11
746.07	47820.07
746.26	47891.75
746.44	47736.10
746.63	47373.61
746.81	47433.00
747.00	47232.30
747.18	47533.35
747.37	47691.05
747.55	47402.28
747.74	47961.38
747.92	47041.84
748.11	47287.60
748.29	47310.13
748.48	46798.13
748.66	47250.74
748.85	47052.08
749.03	47580.46
749.22	47625.51
749.41	47394.09
749.59	47582.51
749.78	47058.23
749.96	46978.36
750.15	47099.19
750.33	47478.06
750.52	47123.76
750.70	47019.31
750.89	46626.10
751.07	46910.77
751.26	47535.40
751.44	46953.78
751.63	46931.25
751.81	46779.70
752.00	46966.07
752.18	46832.95
752.37	46392.64
752.55	46990.64
752.74	46562.62
752.92	46761.27
753.10	46740.79
753.29	46912.82
753.47	46548.28
753.66	46468.41
753.84	46615.86
754.03	46396.73
754.21	46492.99
754.40	46275.90
754.58	46452.03
754.77	46740.79
754.95	46417.21
755.14	46167.36
755.32	45819.20
755.51	45686.09
755.69	46361.92
755.88	46232.89
756.06	46441.79
756.24	45872.45
756.43	46216.51
756.61	46077.25
756.80	46226.75
756.98	45501.77
757.17	46024.00
757.35	45782.34
757.54	45860.16
757.72	46253.37
757.90	45823.30
758.09	45137.23
758.27	45448.52
758.46	45696.33
758.64	45587.78
758.83	45475.15
759.01	45606.22
759.19	45378.89
759.38	45368.65
759.56	45532.49
759.75	45681.99
759.93	45018.45
760.12	45141.33
760.30	45374.80
760.48	45223.25
760.67	45133.14
760.85	45319.50
761.04	45190.48
761.22	45241.68
761.40	45239.63
761.59	44907.86
761.77	44803.41
761.96	44590.42
762.14	44526.94
762.32	44330.33
762.51	44881.24
762.69	44483.93
762.88	44459.35
763.06	44774.74
763.24	44608.86
763.43	44533.08
763.61	44463.45
763.80	44467.55
763.98	44287.32
764.16	43935.07
764.35	44272.99
764.53	43789.67
764.72	44154.21
764.90	43629.93
765.08	44057.95
765.27	44625.24
765.45	43924.83
765.63	43353.45
765.82	44029.28
766.00	43468.14
766.18	43838.82
766.37	43742.56
766.55	43683.17
766.74	43191.66
766.92	43320.68
767.10	43263.34
767.29	43228.52
767.47	42661.24
767.65	43212.14
767.84	42974.58
768.02	43152.75
768.20	42716.53
768.39	43179.37
768.57	42861.94
768.75	42720.63
768.94	42861.94
769.12	42831.22
769.30	42950.00
769.49	42702.20
769.67	42958.19
769.85	42313.08
770.04	42614.13
770.22	42272.12
770.40	42601.85
770.59	42378.62
770.77	42468.73
770.95	42362.23
771.14	42151.29
771.32	42179.96
771.50	41911.68
771.69	42005.89
771.87	42370.43
772.05	41764.23
772.24	41659.78
772.42	41956.74
772.60	42026.37
772.78	41672.07
772.97	41594.25
773.15	42276.22
773.33	41942.40
773.52	41598.34
773.70	41659.78
773.88	41553.29
774.07	41584.01
774.25	41262.47
774.43	41506.18
774.61	41794.95
774.80	41821.57
774.98	41469.32
775.16	41833.86
775.34	41575.81
775.53	41502.09
775.71	41637.25
775.89	41237.90
776.08	41457.03
776.26	41749.89
776.44	41541.00
776.62	41170.32
776.81	41047.44
776.99	41655.68
777.17	41391.50
777.35	41274.76
777.54	41827.71
777.72	41336.20
777.90	41301.39
778.08	41690.50
778.27	41334.15
778.45	41612.68
778.63	41872.77
778.81	41121.16
779.00	42098.05
779.18	41545.09
779.36	42366.33
779.54	41346.44
779.73	41932.16
779.91	42055.04
780.09	41815.43
780.27	42378.62
780.46	42063.23
780.64	42173.82
780.82	41764.23
781.00	41809.28
781.19	42046.85
781.37	42048.89
781.55	42016.13
781.73	42059.13
781.91	41614.72
782.10	42134.91
782.28	41919.87
782.46	41815.43
782.64	42200.44
782.82	41864.58
783.01	42298.75
783.19	42186.11
783.37	42081.66
783.55	41475.46
783.74	42644.85
783.92	41735.56
784.10	42403.19
784.28	41958.78
784.46	41756.03
784.64	41622.92
784.83	41788.80
785.01	41545.09
785.19	41860.48
785.37	41895.30
785.55	41786.75
785.74	41637.25
785.92	41508.23
786.10	41661.83
786.28	41518.47
786.46	41561.48
786.64	41381.26
786.83	41543.05
787.01	41481.61
787.19	41471.37
787.37	40963.47
787.55	41252.23
787.74	40938.90
787.92	41248.14
788.10	40940.94
788.28	41121.16
788.46	41219.47
788.64	40830.35
788.82	40836.50
789.01	40912.27
789.19	40703.38
789.37	40453.53
789.55	40629.65
789.73	40183.19
789.91	40316.31
790.09	40281.50
790.28	40549.78
790.46	39835.04
790.64	40367.51
790.82	40203.67
791.00	40254.87
791.18	40043.93
791.36	39843.23
791.55	40070.56
791.73	39716.26
791.91	39540.13
792.09	40011.17
792.27	39402.92
792.45	39998.88
792.63	39964.06
792.81	39497.13
793.00	39593.38
793.18	39261.61
793.36	39507.37
793.54	39302.57
793.72	38886.83
793.90	38931.89
794.08	38784.43
794.26	39118.25
794.44	38718.90
794.62	38233.53
794.81	38841.78
794.99	38704.56
795.17	38043.07
795.35	38753.71
795.53	38413.75
795.71	38516.15
795.89	38051.26
796.07	37660.10
796.25	37729.73
796.43	37793.22
796.61	37531.08
796.80	37674.43
796.98	37516.74
797.16	37207.50
797.34	37098.95
797.52	37062.09
797.70	37621.19
797.88	37168.58
798.06	36693.46
798.24	36818.38
798.42	36943.31
798.60	36937.16
798.78	36734.42
798.96	36857.29
799.14	36107.74
799.32	36369.88
799.51	36388.31
799.69	36679.12
799.87	36541.91
800.05	36345.30
800.23	36201.94
800.41	35708.38
800.59	35843.55
800.77	35675.62
800.95	35605.98
801.13	35579.36
801.31	35456.48
801.49	35870.17
801.67	35243.49
801.85	35450.34
802.03	35239.40
802.21	34928.11
802.39	34727.41
802.57	34651.63
802.75	34784.75
802.93	34887.15
803.11	34536.94
803.29	34614.77
803.47	34602.48
803.65	34461.17
803.83	34506.23
804.01	34215.41
804.19	33775.10
804.37	34346.48
804.55	33988.09
804.73	33998.33
804.91	33938.94
805.09	34170.36
805.27	33873.40
805.45	34004.47
805.63	34080.25
805.81	33830.40
805.99	33762.81
806.17	33662.46
806.35	33562.11
806.53	33408.51
806.71	33328.64
806.89	33510.91
807.07	33381.89
807.25	33605.12
807.43	33013.26
807.61	33213.96
807.79	33166.85
807.97	32941.58
808.15	32681.49
808.33	32816.65
808.51	32566.80
808.69	32581.13
808.87	32470.54
809.05	32566.80
809.23	32128.53
809.41	32095.77
809.59	32261.65
809.77	32644.62
809.95	31759.90
810.13	32169.49
810.31	32294.42
810.49	32429.59
810.67	31864.35
810.84	31970.84
811.02	31888.92
811.20	31538.72
811.38	31893.02
811.56	31684.12
811.74	31800.86
811.92	31165.99
812.10	31491.62
812.28	31847.96
812.46	31467.04
812.64	31673.88
812.82	31362.59
813.00	31364.64
813.18	31604.25
813.36	31010.34
813.53	31094.31
813.71	30742.06
813.89	30797.35
814.07	31131.17
814.25	31098.41
814.43	31215.14
814.61	30953.00
814.79	30723.63
814.97	30520.88
815.15	30740.01
815.33	30422.58
815.50	30330.42
815.68	30709.29
815.86	30625.32
816.04	30250.55
816.22	29980.21
816.40	30164.53
816.58	30334.51
816.76	30135.86
816.94	30223.92
817.11	30271.03
817.29	30502.45
817.47	29890.10
817.65	29752.89
817.83	30137.91
818.01	29765.18
818.19	29625.92
818.37	29484.61
818.54	29644.35
818.72	29619.77
818.90	29660.73
819.08	29550.14
819.26	29597.24
819.44	29521.47
819.62	29371.97
819.80	29810.23
819.97	29550.14
820.15	29288.00
820.33	29132.36
820.51	29337.15
820.69	28655.18
820.87	29503.04
821.05	29226.56
821.22	29236.80
821.40	29085.25
821.58	28847.69
821.76	29060.68
821.94	28876.36
822.12	28747.34
822.29	29179.46
822.47	28794.44
822.65	28710.47
822.83	28814.92
823.01	28362.32
823.19	28517.96
823.36	28141.14
823.54	28485.20
823.72	28706.38
823.90	28438.09
824.08	28501.58
824.25	28153.43
824.43	28079.70
824.61	28194.39
824.79	28067.41
824.97	28204.63
825.15	28221.01
825.32	28147.28
825.50	27657.82
825.68	27934.29
825.86	27991.64
826.04	28102.23
826.21	27995.73
826.39	27913.81
826.57	27954.77
826.75	27936.34
826.93	27647.58
827.10	27870.81
827.28	27852.38
827.46	27743.83
827.64	27930.20
827.81	27805.27
827.99	27518.56
828.17	27455.07
828.35	27477.60
828.53	27612.76
828.70	27608.67
828.88	27602.52
829.06	27391.58
829.24	27639.39
829.41	27326.05
829.59	27418.21
829.77	27504.22
829.95	27041.38
830.12	27184.74
830.30	27502.17
830.48	27522.65
830.66	27033.19
830.84	27414.11
831.01	26746.47
831.19	26773.10
831.37	26918.50
831.55	27008.61
831.72	26961.51
831.90	26867.30
832.08	26967.65
832.25	26795.62
832.43	27055.72
832.61	26736.23
832.79	26441.32
832.96	26783.34
833.14	26996.32
833.32	27037.28
833.50	26695.27
833.67	26955.36
833.85	26906.21
834.03	26277.49
834.20	26639.98
834.38	26693.22
834.56	26781.29
834.74	26463.85
834.91	26390.13
835.09	26009.20
835.27	26308.21
835.44	26611.31
835.62	26009.20
835.80	26355.31
835.98	26461.80
836.15	26373.74
836.33	25984.63
836.51	26211.95
836.68	26162.80
836.86	25980.53
837.04	26068.59
837.21	26279.54
837.39	26136.18
837.57	25990.77
837.75	26107.51
837.92	25837.17
838.10	26039.92
838.28	25777.78
838.45	25912.95
838.63	25675.38
838.81	25595.51
838.98	25556.60
839.16	25736.82
839.34	25794.17
839.51	25376.38
839.69	25230.98
839.87	25429.63
840.04	25802.36
840.22	25665.14
840.40	25392.76
840.57	25290.37
840.75	25605.75
840.93	24970.88
841.10	25241.21
841.28	25697.91
841.46	25355.90
841.63	25509.50
841.81	25368.19
841.98	25269.89
842.16	25200.26
842.34	25357.95
842.51	24966.79
842.69	25308.80
842.87	25314.94
843.04	25245.31
843.22	25142.91
843.40	25185.92
843.57	25147.01
843.75	25378.43
843.92	25130.62
844.10	25273.98
844.28	24923.78
844.45	24893.06
844.63	25073.28
844.81	24635.02
844.98	24983.17
845.16	24858.24
845.33	24653.45
845.51	24649.35
845.69	24637.06
845.86	24385.16
846.04	24546.95
846.21	24493.71
846.39	24667.78
846.57	24596.10
846.74	24561.29
846.92	24481.42
847.09	24274.57
847.27	24276.62
847.45	24194.70
847.62	24587.91
847.80	24516.23
847.97	24465.03
848.15	24407.69
848.32	24192.65
848.50	24225.42
848.68	24254.09
848.85	24229.52
849.03	23914.13
849.20	24309.39
849.38	24161.94
849.56	23887.51
849.73	24059.54
849.91	24022.67
850.08	24123.02
850.26	23645.85
850.43	24032.91
850.61	23940.75
850.78	23582.36
850.96	23846.55
851.14	23864.98
851.31	24090.26
851.49	23588.50
851.66	23967.38
851.84	24049.30
852.01	23805.59
852.19	24106.64
852.36	23928.47
852.54	23873.17
852.71	23926.42
852.89	23551.64
853.07	23488.15
853.24	23551.64
853.42	23670.42
853.59	23565.98
853.77	23430.81
853.94	23363.23
854.12	23697.05
854.29	23293.60
854.47	23387.80
854.64	22871.72
854.82	23320.22
854.99	22996.64
855.17	22988.45
855.34	23103.14
855.52	23314.08
855.69	23518.87
855.87	22912.67
856.04	22849.19
856.22	23088.80
856.39	22648.49
856.57	22931.11
856.74	22685.35
856.92	23404.19
857.09	22834.85
857.27	22957.73
857.44	23094.94
857.62	22685.35
857.79	23047.84
857.97	23041.70
858.14	22994.59
858.32	22800.04
858.49	22701.73
858.67	22718.12
858.84	22761.12
859.02	22806.18
859.19	22312.62
859.37	22425.26
859.54	22478.50
859.72	22666.92
859.89	22636.20
860.06	22429.35
860.24	22326.96
860.41	22408.87
860.59	22351.53
860.76	21956.27
860.94	21874.35
861.11	22185.65
861.29	21991.09
861.46	22283.95
861.64	21903.03
861.81	22073.01
861.98	22148.78
862.16	21708.47
862.33	21620.41
862.51	21677.75
862.68	22054.58
862.86	21812.92
863.03	22001.33
863.21	21872.31
863.38	21761.72
863.55	21591.73
863.73	21784.24
863.90	21710.52
864.08	21878.45
864.25	21726.90
864.43	21583.54
864.60	21706.42
864.77	21262.01
864.95	21632.69
865.12	21341.88
865.30	21581.49
865.47	21264.06
865.64	21188.28
865.82	21397.18
865.99	21554.87
866.17	21073.60
866.34	21456.57
866.51	21108.41
866.69	21513.91
866.86	21399.23
867.04	21184.19
867.21	21042.88
867.38	20942.53
867.56	20905.66
867.73	20743.88
867.91	20799.17
868.08	21233.34
868.25	20776.64
868.43	20895.43
868.60	20887.23
868.78	20942.53
868.95	20881.09
869.12	20655.81
869.30	20717.25
869.47	20723.40
869.64	20498.12
869.82	20526.79
869.99	20324.04
870.16	20510.41
870.34	20461.26
870.51	20569.80
870.69	20248.27
870.86	20735.68
871.03	20352.71
871.21	19967.70
871.38	20311.75
871.55	20063.95
871.73	20096.72
871.90	19957.46
872.07	20145.87
872.25	20066.00
872.42	20004.56
872.59	20174.54
872.77	19627.73
872.94	19840.72
873.11	20016.85
873.29	19762.90
873.46	19384.02
873.63	19592.92
873.81	19752.66
873.98	19709.65
874.15	19472.09
874.33	19422.94
874.50	19490.52
874.67	19410.65
874.85	19318.49
875.02	19367.64
875.19	19162.84
875.37	19261.15
875.54	19181.28
875.71	19240.67
875.88	19160.80
876.06	19078.88
876.23	18886.37
876.40	19160.80
876.58	18984.67
876.75	18890.46
876.92	18857.70
877.10	18841.31
877.27	18822.88
877.44	18677.48
877.61	18611.94
877.79	18622.18
877.96	18659.04
878.13	18673.38
878.31	18392.81
878.48	18458.34
878.65	18321.13
878.82	18308.84
879.00	18403.05
879.17	18171.63
879.34	18519.78
879.51	18265.83
879.69	18138.86
879.86	18259.69
880.03	18102.00
880.21	17972.97
880.38	18218.73
880.55	18192.11
880.72	17876.72
880.90	17983.21
881.07	17788.66
881.24	17802.99
881.41	17905.39
881.59	17895.15
881.76	17893.10
881.93	17653.49
882.10	17604.34
882.28	17620.72
882.45	17620.72
882.62	17633.01
882.79	17786.61
882.96	17516.28
883.14	17952.49
883.31	17858.29
883.48	17557.24
883.65	17573.62
883.83	17534.71
884.00	17473.27
884.17	17626.87
884.34	17714.93
884.51	17553.14
884.69	17379.06
884.86	17270.52
885.03	17508.08
885.20	17110.78
885.38	17407.73
885.55	17174.27
885.72	17190.65
885.89	17051.39
886.06	17221.37
886.24	17055.48
886.41	17002.24
886.58	17362.68
886.75	17196.79
886.92	16936.70
887.10	17032.96
887.27	17016.57
887.44	16897.79
887.61	17204.99
887.78	16992.00
887.95	16946.94
888.13	16789.25
888.30	17020.67
888.47	16762.62
888.64	16647.94
888.81	16756.48
888.99	16588.55
889.16	16453.38
889.33	16529.16
889.50	16408.33
889.67	16414.47
889.84	16230.15
890.01	16289.54
890.19	16516.87
890.36	16543.49
890.53	16430.85
890.70	16244.49
890.87	16348.93
891.04	16160.52
891.22	16236.30
891.39	16078.60
891.56	15937.29
891.73	16000.78
891.90	16068.36
892.07	15953.68
892.24	15857.42
892.42	16090.89
892.59	15845.13
892.76	15900.43
892.93	15683.34
893.10	15773.46
893.27	15957.77
893.44	15738.64
893.61	15822.61
893.79	15957.77
893.96	15716.11
894.13	15968.01
894.30	15750.93
894.47	15804.17
894.64	15808.27
894.81	15775.50
894.98	15847.18
895.15	15877.90
895.33	15904.53
895.50	15458.07
895.67	15888.14
895.84	15546.13
896.01	15560.47
896.18	15558.42
896.35	15736.59
896.52	15572.75
896.69	15746.83
896.86	15738.64
897.04	15728.40
897.21	15388.44
897.38	15474.45
897.55	15548.18
897.72	15832.85
897.89	15595.28
898.06	15599.38
898.23	15376.15
898.40	15415.06
898.57	15570.71
898.74	15380.25
898.91	15390.49
899.08	15312.66
899.26	15511.32
899.43	15646.48
899.60	15310.61
899.77	15417.11
899.94	15226.65
900.11	15224.60
900.28	15185.69
900.45	15281.94
900.62	15466.26
900.79	15378.20
900.96	15374.10
901.13	15124.25
901.30	15247.13
901.47	14892.83
901.64	15189.78
901.81	15245.08
901.98	14868.25
902.15	15204.12
902.32	15079.19
902.49	15474.45
902.66	15294.23
902.83	15222.55
903.01	15111.96
903.18	15218.46
903.35	15277.85
903.52	15322.90
903.69	15224.60
903.86	15367.96
904.03	15126.30
904.20	15626.00
904.37	15257.37
904.54	15279.89
904.71	15341.33
904.88	15331.09
905.05	15359.77
905.22	15216.41
905.39	15120.15
905.56	15099.67
905.73	15058.71
905.90	15185.69
906.07	15202.07
906.24	15169.30
906.41	14948.12
906.58	15099.67
906.75	15122.20
906.92	15044.38
907.09	14804.77
907.26	15267.61
907.43	14913.31
907.60	14845.73
907.77	15019.80
907.93	14915.36
908.10	14974.75
908.27	15167.26
908.44	14882.59
908.61	14966.56
908.78	14731.04
908.95	14741.28
909.12	14780.19
909.29	15058.71
909.46	14950.17
909.63	14946.08
909.80	15130.39
909.97	14962.46
910.14	14769.95
910.31	14831.39
910.48	14968.60
910.65	14884.64
910.82	14595.87
910.99	14896.92
911.16	14798.62
911.33	14790.43
911.50	14841.63
911.66	14655.26
911.83	14552.87
912.00	14425.89
912.17	14350.12
912.34	14567.20
912.51	14290.73
912.68	14327.59
912.85	14569.25
913.02	14462.76
913.19	14374.69
913.36	14513.95
913.53	14503.71
913.70	14452.52
913.86	14716.70
914.03	14307.11
914.20	14405.41
914.37	14407.46
914.54	14178.09
914.71	14348.07
914.88	14270.25
915.05	14149.42
915.22	13809.45
915.39	14116.65
915.55	13938.48
915.72	14221.10
915.89	14040.87
916.06	13967.15
916.23	13754.16
916.40	13709.10
916.57	13838.12
916.74	13721.39
916.91	14016.30
917.07	13621.04
917.24	13627.18
917.41	13664.05
917.58	13688.62
917.75	13639.47
917.92	13657.90
918.09	13608.75
918.26	13401.91
918.42	13530.93
918.59	13418.29
918.76	13281.08
918.93	13190.97
919.10	13002.55
919.27	13410.10
919.44	13225.78
919.60	13326.13
919.77	13125.43
919.94	12990.27
920.11	13074.23
920.28	13043.51
920.45	12930.87
920.61	12904.25
920.78	12992.31
920.95	12967.74
921.12	12717.89
921.29	12693.31
921.46	12658.49
921.62	12566.34
921.79	12605.25
921.96	12824.38
922.13	12494.66
922.30	12476.23
922.47	12412.74
922.63	12478.27
922.80	12246.85
922.97	12351.30
923.14	12179.27
923.31	12396.35
923.47	12187.46
923.64	12490.56
923.81	12156.74
923.98	12115.78
924.15	12019.53
924.32	12173.13
924.48	12171.08
924.65	12121.93
924.82	11935.56
924.99	11839.31
925.15	11751.24
925.32	11962.19
925.49	11849.55
925.66	11550.54
925.83	11386.71
925.99	11620.17
926.16	11579.22
926.33	11794.25
926.50	11278.16
926.67	11566.93
926.83	11292.50
927.00	11120.47
927.17	10997.59
927.34	11214.68
927.50	11161.43
927.67	11458.39
927.84	11247.44
928.01	11024.22
928.17	11075.42
928.34	11085.65
928.51	10880.86
928.68	10823.51
928.84	10798.94
929.01	10690.40
929.18	10596.19
929.35	10430.30
929.51	10610.53
929.68	10438.50
929.85	10506.08
930.02	10577.76
930.18	10411.87
930.35	10149.73
930.52	10465.12
930.69	10375.01
930.85	10358.63
931.02	10125.16
931.19	10297.19
931.36	10162.02
931.52	10248.04
931.69	10182.50
931.86	10047.33
932.02	10008.42
932.19	10178.40
932.36	9971.56
932.53	10059.62
932.69	9670.51
932.86	9711.47
933.03	9553.77
933.19	9656.17
933.36	9799.53
933.53	9666.41
933.70	9570.16
933.86	9338.74
934.03	9600.88
934.20	9203.57
934.36	9598.83
934.53	9176.95
934.70	8939.38
934.86	9219.96
935.03	9086.84
935.20	8916.86
935.36	8935.29
935.53	9035.64
935.70	8793.98
935.86	8867.70
936.03	8599.42
936.20	8716.16
936.36	8394.62
936.53	8464.25
936.70	8411.01
936.86	8458.11
937.03	8302.47
937.20	8152.96
937.36	8069.00
937.53	8064.90
937.70	7710.60
937.86	7905.16
938.03	7722.89
938.20	7782.28
938.36	7546.76
938.53	7401.36
938.70	7507.85
938.86	7360.40
939.03	7188.37
939.20	7196.56
939.36	7210.90
939.53	7032.72
939.70	7303.06
939.86	6875.03
940.03	6817.69
940.19	6776.73
940.36	6670.23
940.53	6762.39
940.69	6463.39
940.86	6662.04
941.03	6430.62
941.19	6332.32
941.36	6311.84
941.52	6406.05
941.69	6242.21
941.86	6176.67
942.02	6311.84
942.19	5982.12
942.35	6113.19
942.52	6082.47
942.69	5943.21
942.85	5896.10
943.02	5898.15
943.18	5814.18
943.35	5676.97
943.52	5697.45
943.68	5709.74
943.85	5795.75
944.01	5535.66
944.18	5531.56
944.35	5572.52
944.51	5398.45
944.68	5339.05
944.84	5423.02
945.01	5404.59
945.17	5275.57
945.34	5420.97
945.51	5420.97
945.67	5468.08
945.84	5390.25
946.00	5265.33
946.17	5345.20
946.33	5246.90
946.50	5285.81
946.67	5298.10
946.83	5253.04
947.00	5263.28
947.16	5308.34
947.33	5210.03
947.49	5205.94
947.66	5187.50
947.82	5289.90
947.99	5334.96
948.16	5250.99
948.32	5312.43
948.49	5224.37
948.65	5337.01
948.82	5330.86
948.98	5261.23
949.15	5214.13
949.31	5191.60
949.48	5277.62
949.64	5271.47
949.81	5390.25
949.97	5332.91
950.14	5240.75
950.30	5216.18
950.47	5412.78
950.63	5435.31
950.80	5263.28
950.96	5343.15
951.13	5312.43
951.30	5265.33
951.46	5304.24
951.63	5402.54
951.79	5332.91
951.96	5294.00
952.12	5386.16
952.29	5332.91
952.45	5222.32
952.62	5322.67
952.78	5312.43
952.94	5316.53
953.11	5343.15
953.27	5363.63
953.44	5418.93
953.60	5382.06
953.77	5449.64
953.93	5386.16
954.10	5386.16
954.26	5384.11
954.43	5457.84
954.59	5472.17
954.76	5429.17
954.92	5437.36
955.09	5427.12
955.25	5496.75
955.42	5357.49
955.58	5550.00
955.75	5509.04
955.91	5291.95
956.07	5504.94
956.24	5490.60
956.40	5504.94
956.57	5613.48
956.73	5394.35
956.90	5539.76
957.06	5406.64
957.23	5326.77
957.39	5386.16
957.56	5412.78
957.72	5558.19
957.88	5431.21
958.05	5482.41
958.21	5468.08
958.38	5500.84
958.54	5373.87
958.71	5541.80
958.87	5435.31
959.03	5525.42
959.20	5394.35
959.36	5296.05
959.53	5402.54
959.69	5443.50
959.85	5554.09
960.02	5410.73
960.18	5447.60
960.35	5517.23
960.51	5566.38
960.68	5392.30
960.84	5367.73
961.00	5377.97
961.17	5480.36
961.33	5459.88
961.50	5484.46
961.66	5547.95
961.82	5416.88
961.99	5451.69
962.15	5388.21
962.31	5324.72
962.48	5390.25
962.64	5435.31
962.81	5445.55
962.97	5369.77
963.13	5435.31
963.30	5449.64
963.46	5341.10
963.62	5463.98
963.79	5248.94
963.95	5375.92
964.12	5396.40
964.28	5414.83
964.44	5398.45
964.61	5373.87
964.77	5431.21
964.93	5435.31
965.10	5384.11
965.26	5375.92
965.42	5324.72
965.59	5455.79
965.75	5367.73
965.92	5326.77
966.08	5443.50
966.24	5498.80
966.41	5142.45
966.57	5279.66
966.73	5328.81
966.90	5365.68
967.06	5310.38
967.22	5189.55
967.39	5314.48
967.55	5171.12
967.71	5302.19
967.88	5228.46
968.04	5210.03
968.20	5232.56
968.37	5197.74
968.53	5179.31
968.69	5197.74
968.85	5289.90
969.02	5130.16
969.18	5339.05
969.34	5167.03
969.51	5236.66
969.67	5205.94
969.83	5140.40
970.00	5261.23
970.16	5232.56
970.32	5201.84
970.48	5119.92
970.65	5111.73
970.81	5066.67
970.97	5097.39
971.14	5009.33
971.30	5156.79
971.46	5042.10
971.63	5140.40
971.79	5093.30
971.95	5062.58
972.11	5081.01
972.28	5070.77
972.44	5083.06
972.60	4951.99
972.76	4900.79
972.93	5095.35
973.09	5017.52
973.25	4929.46
973.42	4974.52
973.58	5033.91
973.74	5066.67
973.90	5023.67
974.07	4943.80
974.23	4997.04
974.39	4884.41
974.55	4951.99
974.72	4915.12
974.88	4841.40
975.04	4872.12
975.20	4911.03
975.37	4931.51
975.53	4712.38
975.69	4818.87
975.85	4874.17
976.01	4685.75
976.18	4763.58
976.34	4841.40
976.50	4845.49
976.66	4943.80
976.83	4741.05
976.99	4732.86
977.15	4810.68
977.31	4573.11
977.47	4675.51
977.64	4755.38
977.80	4657.08
977.96	4755.38
978.12	4587.45
978.29	4722.62
978.45	4558.78
978.61	4526.01
978.77	4675.51
978.93	4626.36
979.10	4571.07
979.26	4657.08
979.42	4595.64
979.58	4403.13
979.74	4505.53
979.91	4599.74
980.07	4485.05
980.23	4521.92
980.39	4489.15
980.55	4566.97
980.71	4384.70
980.88	4560.83
981.04	4313.02
981.20	4534.20
981.36	4511.68
981.52	4364.22
981.68	4390.84
981.85	4550.59
982.01	4491.20
982.17	4356.03
982.33	4442.04
982.49	4362.17
982.65	4407.23
982.82	4509.63
982.98	4362.17
983.14	4327.36
983.30	4382.65
983.46	4335.55
983.62	4274.11
983.79	4358.08
983.95	4411.32
984.11	4251.58
984.27	4259.78
984.43	4347.84
984.59	4333.50
984.75	4239.30
984.91	4243.39
985.08	4341.69
985.24	4100.03
985.40	4181.95
985.56	4218.82
985.72	4222.91
985.88	4257.73
986.04	4151.23
986.20	4143.04
986.37	4114.37
986.53	4073.41
986.69	4200.38
986.85	4104.13
987.01	4147.14
987.17	4255.68
987.33	4040.64
987.49	4116.42
987.65	4165.57
987.82	4140.99
987.98	4018.11
988.14	4024.26
988.30	3973.06
988.46	3942.34
988.62	4022.21
988.78	3952.58
988.94	4038.59
989.10	3993.54
989.26	3962.82
989.42	3919.81
989.59	3792.84
989.75	3985.35
989.91	4032.45
990.07	3743.69
990.23	3893.19
990.39	3919.81
990.55	3831.75
990.71	3766.21
990.87	3932.10
991.03	3966.92
991.19	3872.71
991.35	3846.09
991.51	3811.27
991.67	3870.66
991.83	3762.12
992.00	3751.88
992.16	3837.89
992.32	3792.84
992.48	3762.12
992.64	3678.15
992.80	3778.50
992.96	3624.90
993.12	3755.97
993.28	3798.98
993.44	3715.02
993.60	3708.87
993.76	3731.40
993.92	3682.25
994.08	3753.93
994.24	3686.34
994.40	3698.63
994.56	3708.87
994.72	3647.43
994.88	3624.90
995.04	3573.71
995.20	3530.70
995.36	3655.62
995.52	3618.76
995.68	3575.75
995.84	3534.79
996.00	3669.96
996.16	3561.42
996.32	3624.90
996.48	3655.62
996.64	3536.84
996.80	3526.60
996.96	3622.86
997.12	3573.71
997.28	3358.67
997.44	3401.68
997.60	3514.31
997.76	3502.03
997.92	3489.74
998.08	3485.64
998.24	3420.11
998.40	3379.15
998.56	3542.99
998.72	3428.30
998.88	3309.52
999.04	3303.37
999.20	3473.36
999.36	3370.96
999.52	3370.96
999.68	3459.02
999.84	3399.63
1000.00	3344.33
1000.16	3385.29
1000.32	3272.65
1000.48	3389.39
1000.64	3227.60
1000.80	3248.08
1000.95	3246.03
1001.11	3319.76
1001.27	3227.60
1001.43	3227.60
1001.59	3125.20
1001.75	3215.31
1001.91	3243.98
1002.07	3311.57
1002.23	3151.82
1002.39	3129.30
1002.55	3176.40
1002.71	3129.30
1002.87	3264.46
1003.03	3096.53
1003.19	3100.62
1003.34	3276.75
1003.50	3160.02
1003.66	3178.45
1003.82	3164.11
1003.98	3184.59
1004.14	3059.67
1004.30	3026.90
1004.46	3053.52
1004.62	3069.91
1004.78	3018.71
1004.94	3092.43
1005.09	3108.82
1005.25	3078.10
1005.41	3139.54
1005.57	2920.40
1005.73	3002.32
1005.89	3002.32
1006.05	3055.57
1006.21	2951.12
1006.37	2863.06
1006.52	2920.40
1006.68	2981.84
1006.84	3102.67
1007.00	2953.17
1007.16	3033.04
1007.32	2873.30
1007.48	3002.32
1007.64	2981.84
1007.79	3026.90
1007.95	2793.43
1008.11	3012.56
1008.27	2922.45
1008.43	2916.31
1008.59	2846.68
1008.75	2887.64
1008.91	2932.69
1009.06	2801.62
1009.22	2967.51
1009.38	2815.96
1009.54	2861.01
1009.70	2803.67
1009.86	2832.34
1010.01	2826.20
1010.17	2779.09
1010.33	2832.34
1010.49	2881.49
1010.65	2838.48
1010.81	2748.37
1010.96	2717.65
1011.12	2695.13
1011.28	2688.98
1011.44	2729.94
1011.60	2723.80
1011.76	2744.28
1011.91	2709.46
1012.07	2734.04
1012.23	2729.94
1012.39	2693.08
1012.55	2656.22
1012.71	2715.61
1012.86	2654.17
1013.02	2707.41
1013.18	2617.30
1013.34	2680.79
1013.50	2752.47
1013.65	2744.28
1013.81	2559.96
1013.97	2674.65
1014.13	2590.68
1014.29	2594.78
1014.44	2711.51
1014.60	2551.77
1014.76	2617.30
1014.92	2521.05
1015.07	2625.50
1015.23	2625.50
1015.39	2539.48
1015.55	2639.83
1015.71	2637.78
1015.86	2496.47
1016.02	2516.95
1016.18	2557.91
1016.34	2551.77
1016.49	2584.54
1016.65	2559.96
1016.81	2559.96
1016.97	2506.71
1017.12	2557.91
1017.28	2424.80
1017.44	2443.23
1017.60	2475.99
1017.75	2443.23
1017.91	2547.67
1018.07	2469.85
1018.23	2508.76
1018.38	2418.65
1018.54	2445.27
1018.70	2441.18
1018.86	2510.81
1019.01	2398.17
1019.17	2437.08
1019.33	2541.53
1019.49	2510.81
1019.64	2461.66
1019.80	2461.66
1019.96	2435.03
1020.12	2439.13
1020.27	2377.69
1020.43	2330.59
1020.59	2426.84
1020.74	2416.60
1020.90	2383.84
1021.06	2379.74
1021.22	2363.36
1021.37	2435.03
1021.53	2244.57
1021.69	2342.88
1021.84	2287.58
1022.00	2306.01
1022.16	2336.73
1022.31	2281.44
1022.47	2410.46
1022.63	2371.55
1022.79	2209.76
1022.94	2273.25
1023.10	2410.46
1023.26	2310.11
1023.41	2265.05
1023.57	2326.49
1023.73	2324.44
1023.88	2232.29
1024.04	2230.24
1024.20	2273.25
1024.35	2342.88
1024.51	2250.72
1024.67	2265.05
1024.82	2353.12
1024.98	2179.04
1025.14	2265.05
1025.29	2293.72
1025.45	2338.78
1025.61	2150.37
1025.76	2189.28
1025.92	2205.66
1026.08	2283.49
1026.23	2316.25
1026.39	2187.23
1026.55	2105.31
1026.70	2136.03
1026.86	2199.52
1027.02	2156.51
1027.17	2215.90
1027.33	2248.67
1027.48	2138.08
1027.64	2191.33
1027.80	2058.21
1027.95	2232.29
1028.11	2074.59
1028.27	2152.42
1028.42	2213.85
1028.58	2154.46
1028.73	2148.32
1028.89	2064.35
1029.05	2232.29
1029.20	2164.70
>>>>>End Processed Spectral Data<<<<<
