SpectraSuite Data File
++++++++++++++++++++++++++++++++++++
Date: Fri Jun 02 14:44:38 CEST 2017
User: INFO_000
Dark Spectrum Present: No
Reference Spectrum Present: No
Number of Sampled Component Spectra: 1
Spectrometers: USB4H00879
Integration Time (usec): 80000 (USB4H00879)
Spectra Averaged: 1 (USB4H00879)
Boxcar Smoothing: 0 (USB4H00879)
Correct for Electrical Dark: No (USB4H00879)
Strobe/Lamp Enabled: No (USB4H00879)
Correct for Detector Non-linearity: No (USB4H00879)
Correct for Stray Light: No (USB4H00879)
Number of Pixels in Processed Spectrum: 3648
>>>>>Begin Processed Spectral Data<<<<<
345.13	1282.03
345.34	1282.03
345.56	1282.03
345.78	1282.03
345.99	1382.38
346.21	1699.81
346.42	1644.52
346.64	1609.70
346.86	1757.16
347.07	1599.46
347.29	1683.43
347.50	1560.55
347.72	1689.57
347.94	1691.62
348.15	1560.55
348.37	1654.76
348.59	1617.90
348.80	1669.09
349.02	1773.54
349.23	1884.13
349.45	1728.49
349.67	1787.88
349.88	1781.73
350.10	1968.10
350.31	1781.73
350.53	1814.50
350.75	2025.44
350.96	1794.02
351.18	1863.65
351.39	1808.36
351.61	1779.68
351.82	1957.86
352.04	1865.70
352.26	1828.84
352.47	1875.94
352.69	1900.52
352.90	1785.83
353.12	1861.60
353.34	1851.36
353.55	1933.28
353.77	1902.56
353.98	1832.93
354.20	1845.22
354.41	1955.81
354.63	1910.75
354.85	2027.49
355.06	1925.09
355.28	1837.03
355.49	1886.18
355.71	1925.09
355.92	1822.69
356.14	1945.57
356.35	1873.89
356.57	1896.42
356.79	1970.15
357.00	1796.07
357.22	1964.00
357.43	1804.26
357.65	2011.11
357.86	1855.46
358.08	1843.17
358.29	1867.75
358.51	1925.09
358.72	2019.30
358.94	1867.75
359.16	1945.57
359.37	1984.48
359.59	1873.89
359.80	1951.71
360.02	1902.56
360.23	1875.94
360.45	1968.10
360.66	1918.95
360.88	1787.88
361.09	1964.00
361.31	2004.96
361.52	1949.67
361.74	2064.35
361.95	2072.54
362.17	1912.80
362.38	2101.22
362.60	1992.67
362.81	1986.53
363.03	1882.08
363.24	1966.05
363.46	2017.25
363.67	2011.11
363.89	1970.15
364.10	1996.77
364.32	1966.05
364.53	2056.16
364.75	1814.50
364.96	2045.92
365.18	2007.01
365.39	2033.63
365.61	1980.39
365.82	2072.54
366.04	1941.47
366.25	2039.78
366.47	2070.50
366.68	2031.58
366.90	1998.82
367.11	1966.05
367.33	2090.98
367.54	2088.93
367.76	2017.25
367.97	2084.83
368.19	2013.15
368.40	2060.26
368.62	2017.25
368.83	2035.68
369.05	2062.30
369.26	1953.76
369.48	2004.96
369.69	1957.86
369.91	2066.40
370.12	2060.26
370.33	2142.18
370.55	2000.87
370.76	2007.01
370.98	2082.78
371.19	2033.63
371.41	2068.45
371.62	2058.21
371.84	1990.63
372.05	2099.17
372.27	2084.83
372.48	2058.21
372.69	2090.98
372.91	2140.13
373.12	2152.42
373.34	2172.89
373.55	2172.89
373.77	2129.89
373.98	2080.74
374.20	2166.75
374.41	2203.61
374.62	2109.41
374.84	2168.80
375.05	2217.95
375.27	2138.08
375.48	2230.24
375.70	2230.24
375.91	2289.63
376.12	2273.25
376.34	2185.18
376.55	2146.27
376.77	2117.60
376.98	2123.74
377.19	2140.13
377.41	2160.61
377.62	2133.98
377.84	2215.90
378.05	2320.35
378.27	2109.41
378.48	2285.53
378.69	2389.98
378.91	2404.32
379.12	2334.68
379.34	2199.52
379.55	2271.20
379.76	2312.16
379.98	2224.09
380.19	2297.82
380.41	2244.57
380.62	2297.82
380.83	2344.92
381.05	2162.66
381.26	2367.45
381.47	2191.33
381.69	2234.33
381.90	2267.10
382.12	2205.66
382.33	2295.77
382.54	2265.05
382.76	2236.38
382.97	2361.31
383.19	2265.05
383.40	2416.60
383.61	2320.35
383.83	2254.81
384.04	2377.69
384.25	2312.16
384.47	2363.36
384.68	2353.12
384.89	2256.86
385.11	2285.53
385.32	2252.77
385.54	2373.60
385.75	2387.93
385.96	2381.79
386.18	2389.98
386.39	2377.69
386.60	2402.27
386.82	2471.90
387.03	2340.83
387.24	2570.20
387.46	2469.85
387.67	2533.34
387.88	2488.28
388.10	2428.89
388.31	2459.61
388.52	2588.63
388.74	2527.19
388.95	2490.33
389.16	2508.76
389.38	2551.77
389.59	2715.61
389.80	2723.80
390.02	2613.21
390.23	2596.82
390.44	2611.16
390.66	2578.39
390.87	2475.99
391.08	2535.39
391.30	2670.55
391.51	2674.65
391.72	2695.13
391.94	2691.03
392.15	2645.98
392.36	2641.88
392.58	2625.50
392.79	2684.89
393.00	2684.89
393.22	2805.72
393.43	2709.46
393.64	2752.47
393.85	2709.46
394.07	2654.17
394.28	2727.89
394.49	2674.65
394.71	2740.18
394.92	2797.53
395.13	2750.42
395.35	2629.59
395.56	2715.61
395.77	2879.44
395.98	2791.38
396.20	2854.87
396.41	2772.95
396.62	2856.92
396.84	2805.72
397.05	2838.48
397.26	2836.44
397.47	2979.79
397.69	2852.82
397.90	3080.14
398.11	2852.82
398.32	2940.88
398.54	2963.41
398.75	2899.92
398.96	2922.45
399.18	3129.30
399.39	2944.98
399.60	3063.76
399.81	2918.36
400.03	2967.51
400.24	3178.45
400.45	2908.12
400.66	3059.67
400.88	2971.60
401.09	3194.83
401.30	3098.58
401.51	3051.47
401.73	3129.30
401.94	3127.25
402.15	3104.72
402.36	3143.63
402.58	3114.96
402.79	3168.21
403.00	3186.64
403.21	3192.78
403.43	3239.89
403.64	3262.41
403.85	3080.14
404.06	3264.46
404.27	3053.52
404.49	3174.35
404.70	3112.91
404.91	3270.61
405.12	3209.17
405.34	3254.22
405.55	3405.77
405.76	3162.06
405.97	3270.61
406.19	3413.96
406.40	3248.08
406.61	3323.85
406.82	3276.75
407.03	3266.51
407.25	3289.04
407.46	3448.78
407.67	3383.24
407.88	3370.96
408.09	3286.99
408.31	3317.71
408.52	3323.85
408.73	3387.34
408.94	3319.76
409.15	3508.17
409.37	3502.03
409.58	3557.32
409.79	3534.79
410.00	3602.38
410.21	3411.92
410.43	3577.80
410.64	3489.74
410.85	3454.92
411.06	3502.03
411.27	3598.28
411.48	3674.06
411.70	3547.08
411.91	3561.42
412.12	3772.36
412.33	3502.03
412.54	3590.09
412.76	3749.83
412.97	3669.96
413.18	3639.24
413.39	3702.73
413.60	3608.52
413.81	3688.39
414.03	3610.57
414.24	3624.90
414.45	3862.47
414.66	3510.22
414.87	3852.23
415.08	3672.01
415.30	3862.47
415.51	3856.33
415.72	3786.69
415.93	3768.26
416.14	3860.42
416.35	3868.61
416.56	3862.47
416.78	3856.33
416.99	3919.81
417.20	3921.86
417.41	3962.82
417.62	3852.23
417.83	4071.36
418.04	3946.44
418.26	4065.22
418.47	3940.29
418.68	3999.68
418.89	3977.16
419.10	4100.03
419.31	4034.50
419.52	4071.36
419.73	4196.29
419.95	4159.42
420.16	3999.68
420.37	4112.32
420.58	4128.70
420.79	3874.76
421.00	4136.90
421.21	4140.99
421.42	4120.51
421.63	4243.39
421.85	4319.17
422.06	4210.62
422.27	4198.34
422.48	4044.74
422.69	4272.06
422.90	4327.36
423.11	4331.45
423.32	4431.80
423.53	4411.32
423.75	4284.35
423.96	4626.36
424.17	4444.09
424.38	4513.72
424.59	4374.46
424.80	4571.07
425.01	4448.19
425.22	4421.56
425.43	4444.09
425.64	4775.86
425.85	4585.40
426.06	4431.80
426.28	4534.20
426.49	4444.09
426.70	4695.99
426.91	4642.75
427.12	4706.23
427.33	4722.62
427.54	4536.25
427.75	4790.20
427.96	4892.60
428.17	4843.45
428.38	4796.34
428.59	4825.01
428.80	4796.34
429.01	4917.17
429.23	4773.82
429.44	5007.28
429.65	4919.22
429.86	5070.77
430.07	4855.73
430.28	4747.19
430.49	5009.33
430.70	5111.73
430.91	5062.58
431.12	5181.36
431.33	5201.84
431.54	5320.62
431.75	5111.73
431.96	5085.11
432.17	4974.52
432.38	5097.39
432.59	5406.64
432.80	5285.81
433.01	5187.50
433.22	5253.04
433.43	5337.01
433.64	5402.54
433.85	5087.15
434.06	5406.64
434.27	5271.47
434.49	5463.98
434.70	5599.15
434.91	5365.68
435.12	5468.08
435.33	5341.10
435.54	5353.39
435.75	5132.21
435.96	5443.50
436.17	5423.02
436.38	5554.09
436.59	5679.02
436.80	5562.28
437.01	5803.94
437.22	5760.94
437.43	5689.26
437.64	5416.88
437.85	5738.41
438.06	5803.94
438.27	5705.64
438.48	5748.65
438.69	5920.68
438.90	5771.18
439.11	5752.74
439.32	5810.09
439.53	5801.90
439.74	5908.39
439.95	5857.19
440.16	5904.29
440.37	6027.17
440.57	5912.49
440.78	5916.58
440.99	5996.45
441.20	6014.88
441.41	5965.73
441.62	6195.11
441.83	5887.91
442.04	6084.52
442.25	6107.04
442.46	6033.32
442.67	6303.65
442.88	6649.75
443.09	6168.48
443.30	6186.91
443.51	6186.91
443.72	6457.25
443.93	6244.26
444.14	6514.59
444.35	6016.93
444.56	6383.52
444.77	6410.14
444.98	6477.73
445.19	6424.48
445.40	6490.01
445.61	6342.56
445.81	6557.60
446.02	6606.75
446.23	6498.20
446.44	6358.94
446.65	6604.70
446.86	6670.23
447.07	6619.04
447.28	6848.41
447.49	6846.36
447.70	6688.67
447.91	6852.50
448.12	6809.50
448.33	6797.21
448.54	6807.45
448.74	6817.69
448.95	6901.65
449.16	6803.35
449.37	7227.28
449.58	6942.61
449.79	7155.60
450.00	6985.62
450.21	7159.70
450.42	7292.82
450.63	6948.76
450.84	7098.26
451.05	7063.44
451.25	7079.83
451.46	7010.20
451.67	7341.97
451.88	7274.38
452.09	7241.62
452.30	7182.23
452.51	7366.54
452.72	7487.37
452.93	7759.75
453.13	7354.26
453.34	7155.60
453.55	7458.70
453.76	7413.65
453.97	7702.41
454.18	7602.06
454.39	7626.64
454.60	7675.79
454.81	7548.81
455.01	7622.54
455.22	7516.05
455.43	7677.83
455.64	7882.63
455.85	7993.22
456.06	8044.42
456.27	7769.99
456.48	7890.82
456.68	7933.83
456.89	7849.86
457.10	8103.81
457.31	8150.92
457.52	7956.36
457.73	8122.24
457.94	8411.01
458.14	7909.26
458.35	8359.81
458.56	8202.11
458.77	8267.65
458.98	8267.65
459.19	8183.68
459.39	8499.07
459.60	8523.65
459.81	8406.91
460.02	8488.83
460.23	8517.50
460.44	8783.74
460.65	8564.61
460.85	8648.57
461.06	8718.20
461.27	8662.91
461.48	9092.98
461.69	9013.11
461.89	8699.77
462.10	9013.11
462.31	8650.62
462.52	8777.59
462.73	8869.75
462.94	9238.39
463.14	9140.08
463.35	8955.77
463.56	9308.02
463.77	9346.93
463.98	9033.59
464.18	9310.07
464.39	9295.73
464.60	9834.35
464.81	9586.54
465.02	9516.91
465.23	9793.39
465.43	9578.35
465.64	9901.93
465.85	9914.22
466.06	9705.32
466.27	10039.14
466.47	9906.02
466.68	10061.67
466.89	10059.62
467.10	10164.07
467.30	9844.59
467.51	10231.65
467.72	10522.46
467.93	10100.58
468.14	10309.47
468.34	10563.42
468.55	10430.30
468.76	10579.81
468.97	10274.66
469.17	10839.90
469.38	10848.09
469.59	10950.49
469.80	10655.58
470.01	10735.45
470.21	10712.92
470.42	11102.04
470.63	11186.01
470.84	11102.04
471.04	11126.61
471.25	11200.34
471.46	11292.50
471.67	11470.67
471.87	11317.08
472.08	11593.55
472.29	11908.94
472.50	11405.14
472.70	11751.24
472.91	11589.46
473.12	12064.58
473.33	11978.57
473.53	12177.22
473.74	12076.87
473.95	12197.70
474.16	12357.44
474.36	12255.04
474.57	12513.09
474.78	12631.87
474.99	12640.06
475.19	12468.03
475.40	12945.21
475.61	12902.20
475.81	13066.04
476.02	13377.33
476.23	13258.55
476.44	13463.35
476.64	13733.68
476.85	13627.18
477.06	13776.69
477.27	13811.50
477.47	13948.72
477.68	14114.60
477.89	14163.75
478.09	14061.35
478.30	14368.55
478.51	14270.25
478.71	14384.93
478.92	14462.76
479.13	14503.71
479.34	14499.62
479.54	14571.30
479.75	14839.58
479.96	14946.08
480.16	14868.25
480.37	14982.94
480.58	15380.25
480.78	15410.96
480.99	15283.99
481.20	15513.36
481.41	15765.26
481.61	15771.41
481.82	15755.02
482.03	15804.17
482.23	15904.53
482.44	16187.14
482.65	16146.19
482.85	16248.58
483.06	16312.07
483.27	16359.17
483.47	16647.94
483.68	16772.86
483.89	16850.69
484.09	16885.50
484.30	16938.75
484.51	17211.13
484.71	17225.47
484.92	17184.51
485.13	17358.58
485.33	17141.50
485.54	17436.41
485.75	17647.35
485.95	17708.79
486.16	17585.91
486.37	18157.29
486.57	17944.30
486.78	18310.89
486.98	18136.81
487.19	18134.76
487.40	18419.43
487.60	18128.62
487.81	18454.25
488.02	18622.18
488.22	18267.88
488.43	18745.06
488.64	18583.27
488.84	19060.45
489.05	19171.04
489.25	19064.54
489.46	19334.87
489.67	19201.76
489.87	19564.25
490.08	19433.18
490.29	19617.49
490.49	19838.67
490.70	20086.48
490.90	19840.72
491.11	19832.53
491.32	19924.69
491.52	20014.80
491.73	20109.01
491.94	20289.23
492.14	20031.18
492.35	20532.93
492.55	20557.51
492.76	20506.31
492.97	20653.76
493.17	21089.98
493.38	20737.73
493.58	20905.66
493.79	20696.77
494.00	20932.29
494.20	21169.85
494.41	21163.71
494.61	21262.01
494.82	21388.99
495.02	20997.82
495.23	21237.44
495.44	21413.56
495.64	21606.07
495.85	21565.11
496.05	21849.78
496.26	21593.78
496.47	21853.87
496.67	21796.53
496.88	22183.60
497.08	21847.73
497.29	22353.58
497.49	22136.49
497.70	22505.13
497.91	22572.71
498.11	22832.80
498.32	22783.65
498.52	22423.21
498.73	22791.84
498.93	22759.08
499.14	22783.65
499.34	22945.44
499.55	23000.74
499.76	22912.67
499.96	23293.60
500.17	23015.07
500.37	23189.15
500.58	23279.26
500.78	23580.31
500.99	23457.43
501.19	23586.46
501.40	23387.80
501.60	23449.24
501.81	23275.16
502.02	23543.45
502.22	23488.15
502.43	23838.36
502.63	24127.12
502.84	24043.15
503.04	23672.47
503.25	23862.93
503.45	24262.29
503.66	24084.11
503.86	24264.33
504.07	24827.53
504.27	24348.30
504.48	24725.13
504.68	24526.47
504.89	24718.98
505.09	24704.65
505.30	24839.81
505.50	24678.02
505.71	24735.37
505.91	25052.80
506.12	24997.51
506.32	25044.61
506.53	25159.30
506.73	25278.08
506.94	25366.14
507.14	25116.29
507.35	25407.10
507.55	25415.29
507.76	25501.31
507.96	25333.37
508.17	25593.47
508.37	25865.85
508.58	25933.43
508.78	25630.33
508.99	25706.10
509.19	25812.60
509.40	25931.38
509.60	26148.46
509.81	26070.64
510.01	25966.20
510.22	26248.82
510.42	26162.80
510.63	26637.93
510.83	26060.40
511.04	26230.38
511.24	26510.96
511.44	26455.66
511.65	26404.46
511.85	26715.75
512.06	26660.46
512.26	26873.45
512.47	27170.40
512.67	26885.73
512.88	27057.76
513.08	26844.77
513.29	27262.56
513.49	27186.79
513.69	27332.19
513.90	27627.10
514.10	27575.90
514.31	27668.06
514.51	27557.47
514.72	27403.87
514.92	27864.66
515.13	27551.32
515.33	27905.62
515.53	27960.92
515.74	27838.04
515.94	27784.79
516.15	27991.64
516.35	28040.79
516.56	28341.84
516.76	28200.53
516.96	28259.92
517.17	28483.15
517.37	28440.14
517.58	28249.68
517.78	28536.40
517.99	28669.51
518.19	28855.88
518.39	28933.70
518.60	29173.31
518.80	29058.63
519.01	29054.53
519.21	29111.88
519.41	29298.24
519.62	29191.75
519.82	29374.02
520.03	29668.92
520.23	29765.18
520.43	29498.94
520.64	29818.42
520.84	29892.15
521.05	29752.89
521.25	30258.74
521.45	30191.16
521.66	30043.70
521.86	30062.13
522.07	30369.33
522.27	30610.99
522.47	30287.41
522.68	30740.01
522.88	30647.85
523.08	30916.14
523.29	30535.21
523.49	30993.96
523.70	30740.01
523.90	30633.52
524.10	31008.29
524.31	31155.75
524.51	31233.57
524.71	31821.34
524.92	31479.33
525.12	31852.06
525.33	31526.43
525.53	31532.57
525.73	31731.23
525.94	32169.49
526.14	31940.12
526.34	32015.90
526.55	32112.15
526.75	31958.55
526.95	32269.84
527.16	32398.87
527.36	32218.64
527.56	32871.95
527.77	32822.80
527.97	32425.49
528.17	32929.29
528.38	32996.87
528.58	32720.40
528.78	32900.62
528.99	32898.57
529.19	33289.73
529.39	32808.46
529.60	33531.39
529.80	33328.64
530.00	33558.02
530.21	33312.26
530.41	33510.91
530.61	33852.92
530.82	33820.16
531.02	34055.67
531.22	33830.40
531.43	33641.98
531.63	33932.79
531.83	34555.38
532.04	34780.65
532.24	34559.47
532.44	34733.55
532.64	34981.35
532.85	34672.11
533.05	34909.68
533.25	34864.62
533.46	34616.82
533.66	35356.13
533.86	35255.78
534.07	35403.24
534.27	34969.07
534.47	35569.12
534.67	35778.01
534.88	35612.13
535.08	35474.91
535.28	35999.19
535.49	35692.00
535.69	36283.86
535.89	36228.57
536.09	36175.32
536.30	36173.27
536.50	36478.42
536.70	36500.95
536.91	36605.39
537.11	36505.04
537.31	36373.97
537.51	36533.71
537.72	37088.71
537.92	36693.46
538.12	37060.04
538.32	37332.42
538.53	37062.09
538.73	36650.45
538.93	36863.44
539.13	37258.70
539.34	36797.90
539.54	37105.10
539.74	37248.46
539.94	37393.86
540.15	37627.33
540.35	37805.50
540.55	37346.76
540.75	37895.61
540.96	37635.52
541.16	37887.42
541.36	37868.99
541.56	37918.14
541.77	38211.00
541.97	37905.85
542.17	38149.56
542.37	38079.93
542.58	38051.26
542.78	37875.13
542.98	38088.12
543.18	38596.02
543.38	38559.16
543.59	38636.98
543.79	38335.93
543.99	38510.00
544.19	38659.51
544.40	38649.27
544.60	38901.17
544.80	38682.03
545.00	38540.72
545.20	38921.65
545.41	38817.20
545.61	39087.53
545.81	38993.32
546.01	39019.95
546.21	38999.47
546.42	38821.30
546.62	39351.72
546.82	39294.38
547.02	39294.38
547.22	39562.66
547.43	39388.58
547.63	39384.49
547.83	39566.76
548.03	39830.94
548.23	39970.21
548.44	39810.46
548.64	39712.16
548.84	39708.07
549.04	39749.03
549.24	40140.19
549.45	39998.88
549.65	39538.08
549.85	39990.69
550.05	40449.43
550.25	40416.66
550.45	40797.59
550.66	40287.64
550.86	40119.71
551.06	40480.15
551.26	40424.86
551.46	40383.90
551.66	40670.61
551.87	40160.67
552.07	40928.66
552.27	40195.48
552.47	40773.01
552.67	40953.23
552.87	40648.08
553.07	40953.23
553.28	40689.04
553.48	40926.61
553.68	40764.82
553.88	41280.91
554.08	41024.91
554.28	41041.29
554.48	40916.37
554.69	41416.07
554.89	41461.13
555.09	41360.78
555.29	41076.11
555.49	41477.51
555.69	41450.89
555.89	41649.54
556.10	41827.71
556.30	41203.08
556.50	41852.29
556.70	41463.18
556.90	41866.63
557.10	41829.76
557.30	41805.19
557.50	42007.94
557.70	41870.72
557.91	42470.78
558.11	42214.78
558.31	42237.31
558.51	42175.87
558.71	42247.55
558.91	42151.29
559.11	42550.65
559.31	42823.03
559.51	42093.95
559.72	42194.30
559.92	42360.19
560.12	42251.64
560.32	42564.98
560.52	42974.58
560.72	42820.98
560.92	43222.38
561.12	42749.30
561.32	43183.47
561.52	42786.16
561.72	43449.70
561.93	43158.89
562.13	43033.97
562.33	42947.95
562.53	43785.57
562.73	42909.04
562.93	43298.16
563.13	43265.39
563.33	43398.51
563.53	43728.23
563.73	43505.00
563.93	43464.04
564.13	43623.78
564.33	43691.37
564.53	43582.82
564.74	44451.16
564.94	43449.70
565.14	43976.03
565.34	43709.80
565.54	44021.09
565.74	44117.34
565.94	44780.88
566.14	44442.97
566.34	43869.54
566.54	44447.07
566.74	44496.22
566.94	44596.57
567.14	44803.41
567.34	44242.27
567.54	44780.88
567.74	44703.06
567.94	44508.50
568.14	44979.54
568.34	45014.35
568.54	45143.38
568.74	45290.83
568.94	45133.14
569.14	45475.15
569.34	45344.08
569.54	44975.44
569.75	45016.40
569.95	45225.29
570.15	45698.37
570.35	45671.75
570.55	45413.71
570.75	45794.63
570.95	45647.18
571.15	45399.37
571.35	45763.91
571.55	45808.96
571.75	45823.30
571.95	45538.63
572.15	45741.38
572.35	46302.53
572.55	45817.16
572.75	46136.64
572.95	46216.51
573.15	46224.70
573.35	46460.22
573.55	45925.70
573.75	46265.66
573.95	46523.71
574.15	46644.54
574.35	46589.24
574.55	46550.33
574.75	46388.54
574.95	46691.64
575.15	46554.43
575.34	46923.06
575.54	46875.96
575.74	47007.03
575.94	47185.20
576.14	47021.36
576.34	47273.26
576.54	47201.58
576.74	47232.30
576.94	46941.49
577.14	47482.16
577.34	47514.92
577.54	47535.40
577.74	47838.50
577.94	47629.61
578.14	47686.95
578.34	47572.27
578.54	47414.57
578.74	47465.77
578.94	47871.27
579.14	47482.16
579.34	47846.69
579.54	47635.75
579.74	48157.99
579.94	48035.11
580.13	48506.14
580.33	47791.40
580.53	48121.12
580.73	48325.92
580.93	48411.93
581.13	47873.32
581.33	48514.33
581.53	48592.15
581.73	48272.67
581.93	48547.10
582.13	48680.22
582.33	48626.97
582.53	48600.35
582.73	48305.44
582.92	48624.92
583.12	48819.48
583.32	48723.22
583.52	48770.33
583.72	48872.73
583.92	49304.85
584.12	48831.77
584.32	49435.92
584.52	48995.60
584.72	49042.71
584.92	49364.24
585.11	49610.00
585.31	49812.74
585.51	49526.03
585.71	48891.16
585.91	49939.72
586.11	49038.61
586.31	49693.96
586.51	49341.71
586.71	49386.77
586.91	49939.72
587.10	49640.71
587.30	49902.85
587.50	49667.34
587.70	49741.06
587.90	49888.52
588.10	49640.71
588.30	49665.29
588.50	49784.07
588.69	49775.88
588.89	49804.55
589.09	50132.23
589.29	49882.37
589.49	50363.65
589.69	50029.83
589.89	50242.82
590.08	50437.37
590.28	50193.67
590.48	49978.63
590.68	49880.33
590.88	50130.18
591.08	50169.09
591.28	49814.79
591.47	50361.60
591.67	50210.05
591.87	50699.51
592.07	50474.24
592.27	50251.01
592.47	50369.79
592.67	50107.65
592.86	50541.82
593.06	50412.80
593.26	50566.40
593.46	50461.95
593.66	50373.89
593.86	50652.41
594.05	50330.88
594.25	50590.97
594.45	50148.61
594.65	50418.94
594.85	50134.28
595.05	50943.22
595.24	50699.51
595.44	50435.33
595.64	51082.48
595.84	50474.24
596.04	51080.44
596.23	51344.62
596.43	51082.48
596.63	50869.50
596.83	50730.23
597.03	50912.50
597.22	51688.68
597.42	51184.88
597.62	51469.55
597.82	51180.79
598.02	51160.31
598.21	51436.78
598.41	50871.54
598.61	51340.53
598.81	51469.55
599.01	51430.64
599.20	51264.75
599.40	50967.80
599.60	51082.48
599.80	51500.27
600.00	51375.34
600.19	51475.69
600.39	51483.89
600.59	51897.58
600.79	51764.46
600.98	51864.81
601.18	51827.95
601.38	51774.70
601.58	52034.79
601.78	51952.87
601.97	51918.06
602.17	52393.18
602.37	51928.30
602.57	51946.73
602.76	52239.59
602.96	51752.17
603.16	52483.30
603.36	51709.16
603.55	52212.96
603.75	51834.09
603.95	52514.01
604.15	52372.70
604.34	52112.61
604.54	52282.59
604.74	52471.01
604.94	52946.14
605.13	52640.99
605.33	52978.90
605.53	52829.40
605.73	53003.48
605.92	52575.45
606.12	52614.37
606.32	52927.70
606.52	52370.66
606.71	52575.45
606.91	53312.72
607.11	52909.27
607.30	53069.01
607.50	53017.82
607.70	53550.29
607.90	53030.10
608.09	52942.04
608.29	53564.62
608.49	52974.81
608.68	53308.63
608.88	53339.35
609.08	53329.11
609.28	53261.52
609.47	53204.18
609.67	53589.20
609.87	53732.56
610.06	53773.52
610.26	53175.51
610.46	53574.86
610.66	53714.12
610.85	54023.37
611.05	53490.90
611.25	53626.06
611.44	53683.40
611.64	53687.50
611.84	53220.56
612.03	53548.24
612.23	53900.49
612.43	53853.39
612.62	53507.28
612.82	53732.56
613.02	53753.04
613.21	54281.41
613.41	53724.36
613.61	54224.07
613.80	53478.61
614.00	53953.74
614.20	53998.79
614.39	53796.04
614.59	53804.24
614.79	54203.59
614.98	53945.54
615.18	53564.62
615.38	54295.75
615.57	53773.52
615.77	53998.79
615.97	54211.78
616.16	54416.58
616.36	54097.09
616.56	54416.58
616.75	54506.69
616.95	54480.06
617.15	54482.11
617.34	54537.41
617.54	54437.06
617.74	54621.37
617.93	54527.17
618.13	54041.80
618.32	54537.41
618.52	54314.18
618.72	54174.92
618.91	54719.68
619.11	54164.68
619.31	54312.13
619.50	54731.96
619.70	53812.43
619.90	54860.99
620.09	54936.76
620.29	54244.55
620.48	54342.85
620.68	54959.29
620.88	54015.18
621.07	54484.16
621.27	54912.19
621.46	54494.40
621.66	54865.08
621.86	54566.08
622.05	54416.58
622.25	55473.33
622.44	54783.16
622.64	54439.11
622.84	54625.47
623.03	54828.22
623.23	55323.83
623.42	54770.88
623.62	55389.36
623.82	55143.61
624.01	54867.13
624.21	55116.98
624.40	54879.42
624.60	55080.12
624.80	54611.13
624.99	54813.88
625.19	54492.35
625.38	54994.10
625.58	55223.48
625.77	54949.05
625.97	55336.12
626.17	54998.20
626.36	54781.12
626.56	55563.44
626.75	55039.16
626.95	55237.81
627.14	54803.64
627.34	55469.23
627.54	55061.69
627.73	55162.04
627.93	55430.32
628.12	55504.05
628.32	55055.54
628.51	55424.18
628.71	55325.88
628.90	55196.85
629.10	55256.24
629.30	55831.72
629.49	55366.84
629.69	55497.91
629.88	55424.18
630.08	55979.18
630.27	55583.92
630.47	55960.75
630.66	55329.97
630.86	55997.61
631.05	55293.11
631.25	55854.25
631.44	55829.68
631.64	55979.18
631.84	55893.16
632.03	55973.03
632.23	56161.45
632.42	55921.83
632.62	56042.66
632.81	55796.91
633.01	55682.22
633.20	56276.13
633.40	56435.87
633.59	55891.12
633.79	55545.01
633.98	56286.37
634.18	56153.26
634.37	56134.82
634.57	55874.73
634.76	57013.40
634.96	56104.10
635.15	56007.85
635.35	56255.65
635.54	56181.93
635.74	56988.83
635.93	55964.84
636.13	56296.61
636.32	56511.65
636.52	55973.03
636.71	56206.50
636.91	56251.56
637.10	56669.34
637.30	55821.48
637.49	56505.51
637.69	56425.64
637.88	56812.70
638.08	56337.57
638.27	56720.54
638.46	56448.16
638.66	56390.82
638.85	56349.86
639.05	56884.38
639.24	56824.99
639.44	56396.96
639.63	56714.40
639.83	57003.16
640.02	56423.59
640.22	56759.45
640.41	56933.53
640.61	56579.23
640.80	56859.80
640.99	56018.09
641.19	56796.32
641.38	56450.21
641.58	56827.04
641.77	56702.11
641.97	56726.69
642.16	56497.31
642.36	56679.58
642.55	57150.62
642.74	56034.47
642.94	57267.35
643.13	56753.31
643.33	57070.75
643.52	57210.01
643.72	57181.34
643.91	57013.40
644.10	56999.07
644.30	57425.04
644.49	57136.28
644.69	57459.86
644.88	56902.81
645.08	56939.68
645.27	56917.15
645.46	56636.58
645.66	56970.39
645.85	57478.29
646.05	57406.61
646.24	56837.28
646.43	57023.64
646.63	57441.43
646.82	57826.45
647.02	57232.53
647.21	57201.82
647.40	57341.08
647.60	57840.78
647.79	57377.94
647.99	57349.27
648.18	56966.30
648.37	57423.00
648.57	57461.91
648.76	57404.56
648.96	57267.35
649.15	57398.42
649.34	57363.60
649.54	57564.31
649.73	57382.04
649.92	57468.05
650.12	57435.28
650.31	57384.08
650.51	57386.13
650.70	57480.34
650.89	57406.61
651.09	57619.60
651.28	57273.49
651.47	57298.07
651.67	57310.36
651.86	58051.72
652.06	56689.82
652.25	57482.39
652.44	57359.51
652.64	57160.86
652.83	57619.60
653.02	57171.10
653.22	56951.96
653.41	57148.57
653.60	56706.21
653.80	56900.76
653.99	57588.88
654.18	57126.04
654.38	57119.90
654.57	57056.41
654.76	57431.19
654.96	57259.16
655.15	56734.88
655.34	57058.46
655.54	56571.04
655.73	56777.89
655.92	57287.83
656.12	57328.79
656.31	57148.57
656.50	57345.17
656.70	57222.29
656.89	57216.15
657.08	57259.16
657.28	57113.75
657.47	57128.09
657.66	57332.89
657.86	56661.15
658.05	57152.66
658.24	57939.08
658.43	57080.98
658.63	57054.36
658.82	57332.89
659.01	57066.65
659.21	56978.59
659.40	57156.76
659.59	56784.03
659.79	56892.57
659.98	56915.10
660.17	57103.51
660.36	57201.82
660.56	56767.65
660.75	56992.92
660.94	57187.48
661.14	56786.08
661.33	56990.87
661.52	56759.45
661.71	57203.86
661.91	56589.47
662.10	56730.78
662.29	57410.71
662.49	56851.61
662.68	56532.13
662.87	56892.57
663.06	56857.76
663.26	56501.41
663.45	56939.68
663.64	56575.14
663.83	57001.11
664.03	56779.93
664.22	56661.15
664.41	56616.10
664.60	56333.48
664.80	56525.99
664.99	56800.41
665.18	56591.52
665.37	56386.72
665.57	56964.25
665.76	56310.95
665.95	56382.63
666.14	56290.47
666.34	56362.15
666.53	56661.15
666.72	56495.27
666.91	56607.90
667.11	56339.62
667.30	56538.27
667.49	56241.32
667.68	56448.16
667.87	56482.98
668.07	56183.97
668.26	56280.23
668.45	56337.57
668.64	56323.24
668.84	56800.41
669.03	56202.41
669.22	56695.97
669.41	56112.30
669.60	56548.51
669.80	56210.60
669.99	56200.36
670.18	55964.84
670.37	55905.45
670.57	56767.65
670.76	55975.08
670.95	56530.08
671.14	55944.36
671.33	56005.80
671.53	56689.82
671.72	55719.09
671.91	55696.56
672.10	55743.66
672.29	56175.78
672.48	56220.84
672.68	56079.53
672.87	55966.89
673.06	55858.35
673.25	55807.15
673.44	55624.88
673.64	55903.40
673.83	55909.55
674.02	55571.63
674.21	56110.25
674.40	55960.75
674.59	55909.55
674.79	55682.22
674.98	55356.60
675.17	56161.45
675.36	55768.24
675.55	55813.29
675.74	55747.76
675.94	55645.36
676.13	56349.86
676.32	55856.30
676.51	56358.05
676.70	55934.12
676.89	55618.74
677.08	55903.40
677.28	55325.88
677.47	56446.11
677.66	55618.74
677.85	55678.13
678.04	56063.14
678.23	55841.96
678.42	55620.78
678.62	55743.66
678.81	56167.59
679.00	55727.28
679.19	56050.86
679.38	55813.29
679.57	55497.91
679.76	55936.17
679.96	55884.97
680.15	55690.41
680.34	55346.36
680.53	55637.17
680.72	55719.09
680.91	55612.59
681.10	55352.50
681.29	55254.20
681.48	55278.77
681.68	55211.19
681.87	55348.40
682.06	55737.52
682.25	55647.41
682.44	55061.69
682.63	55387.31
682.82	55272.63
683.01	55164.09
683.20	54594.75
683.39	55461.04
683.59	55794.86
683.78	55227.57
683.97	55135.41
684.16	55602.35
684.35	54752.44
684.54	55456.95
684.73	54877.37
684.92	55219.38
685.11	55289.01
685.30	55121.08
685.49	55033.02
685.69	54834.36
685.88	55252.15
686.07	55248.05
686.26	55073.98
686.45	55307.44
686.64	55440.56
686.83	55295.16
687.02	55225.53
687.21	54998.20
687.40	55221.43
687.59	54949.05
687.78	54998.20
687.97	55411.89
688.16	55354.55
688.35	55067.83
688.54	55270.58
688.74	54858.94
688.93	54658.24
689.12	55088.31
689.31	55465.14
689.50	55368.88
689.69	55293.11
689.88	54789.31
690.07	55006.39
690.26	54967.48
690.45	55530.67
690.64	54897.85
690.83	55180.47
691.02	54850.75
691.21	54949.05
691.40	55112.89
691.59	54758.59
691.78	54863.03
691.97	54996.15
692.16	55006.39
692.35	54969.53
692.54	55313.59
692.73	55071.93
692.92	55063.74
693.11	55112.89
693.30	55139.51
693.49	54703.29
693.68	55055.54
693.87	54938.81
694.06	54400.19
694.25	55010.49
694.44	54768.83
694.63	55483.57
694.82	55162.04
695.01	54684.86
695.20	55243.96
695.39	55057.59
695.58	54848.70
695.77	54676.67
695.96	54451.39
696.15	55049.40
696.34	54572.22
696.53	54860.99
696.72	54600.89
696.91	54377.67
697.10	54604.99
697.29	54336.71
697.48	55030.97
697.67	54301.89
697.86	54209.73
698.05	54179.01
698.24	54664.38
698.43	54269.12
698.62	54707.39
698.81	54240.45
699.00	54705.34
699.19	54035.66
699.38	54947.00
699.57	54209.73
699.76	55461.04
699.95	54035.66
700.14	54453.44
700.32	54578.37
700.51	54566.08
700.70	54705.34
700.89	54559.94
701.08	54504.64
701.27	54260.93
701.46	54564.03
701.65	54252.74
701.84	54703.29
702.03	54351.04
702.22	54166.73
702.41	54195.40
702.60	54490.30
702.79	54262.98
702.98	53916.87
703.17	54566.08
703.35	54367.43
703.54	53896.39
703.73	54631.61
703.92	54584.51
704.11	54361.28
704.30	54232.26
704.49	54688.96
704.68	54734.01
704.87	54346.95
705.06	54308.04
705.25	54052.04
705.43	54072.52
705.62	54389.95
705.81	54158.53
706.00	54146.25
706.19	53865.67
706.38	54006.98
706.57	54207.68
706.76	53789.90
706.95	54000.84
707.14	53791.95
707.32	54123.72
707.51	54101.19
707.70	54387.91
707.89	54072.52
708.08	54252.74
708.27	54062.28
708.46	54133.96
708.65	53605.58
708.84	54097.09
709.02	54138.05
709.21	53920.97
709.40	53886.15
709.59	54023.37
709.78	53601.49
709.97	53918.92
710.16	53597.39
710.34	53701.84
710.53	53658.83
710.72	53908.68
710.91	53902.54
711.10	53507.28
711.29	53761.23
711.48	53310.67
711.66	53771.47
711.85	53355.73
712.04	53554.38
712.23	53370.07
712.42	53322.96
712.61	53609.68
712.80	53484.75
712.98	53263.57
713.17	53531.86
713.36	53271.76
713.55	53314.77
713.74	53187.80
713.93	53163.22
714.11	53310.67
714.30	53189.84
714.49	53046.49
714.68	53187.80
714.87	53216.47
715.06	53523.66
715.24	52796.63
715.43	53408.98
715.62	52393.18
715.81	53028.05
716.00	53251.28
716.18	52655.32
716.37	52614.37
716.56	52923.61
716.75	53114.07
716.94	52565.21
717.12	52569.31
717.31	52681.95
717.50	52722.91
717.69	52597.98
717.88	52438.24
718.06	52567.26
718.25	52894.94
718.44	52172.00
718.63	52294.88
718.82	52204.77
719.00	52606.17
719.19	52085.99
719.38	52350.18
719.57	52057.32
719.76	52081.89
719.94	51805.42
720.13	51780.84
720.32	51885.29
720.51	51641.58
720.69	51844.33
720.88	51287.28
721.07	51819.75
721.26	51717.35
721.44	51854.57
721.63	51240.18
721.82	51090.68
722.01	51168.50
722.20	51414.26
722.38	51272.95
722.57	51184.88
722.76	51131.64
722.95	51031.29
723.13	50681.08
723.32	50853.11
723.51	50558.20
723.70	50668.79
723.88	50664.70
724.07	50584.83
724.26	50646.27
724.44	49847.56
724.63	50771.19
724.82	50332.93
725.01	50208.00
725.19	50300.16
725.38	50359.55
725.57	50160.90
725.76	50177.28
725.94	50181.38
726.13	50009.35
726.32	50038.02
726.51	49988.87
726.69	50050.31
726.88	50134.28
727.07	49995.01
727.25	50246.91
727.44	50167.04
727.63	49714.44
727.82	50103.56
728.00	50310.40
728.19	49984.77
728.38	50232.58
728.56	49632.52
728.75	49833.22
728.94	49855.75
729.12	49851.66
729.31	49876.23
729.50	49347.86
729.69	49878.28
729.87	49767.69
730.06	49515.79
730.25	50035.97
730.43	49698.06
730.62	49507.60
730.81	49804.55
730.99	49403.15
731.18	49296.66
731.37	49739.02
731.55	49847.56
731.74	49898.76
731.93	49685.77
732.11	49636.62
732.30	49722.63
732.49	49241.36
732.67	49485.07
732.86	49546.51
733.05	49523.98
733.23	48739.61
733.42	49186.07
733.61	48835.86
733.79	49167.63
733.98	49173.78
734.17	49014.04
734.35	49011.99
734.54	49302.80
734.73	49321.23
734.91	49122.58
735.10	48772.38
735.29	48606.49
735.47	48467.23
735.66	48925.97
735.84	48952.60
736.03	48411.93
736.22	48915.73
736.40	48450.84
736.59	48508.19
736.78	48559.39
736.96	48381.21
737.15	48854.29
737.33	48624.92
737.52	48887.06
737.71	48448.80
737.89	48358.69
738.08	48166.18
738.27	48088.35
738.45	48477.47
738.64	48715.03
738.82	48231.71
739.01	48254.24
739.20	48366.88
739.38	48559.39
739.57	48155.94
739.75	48078.11
739.94	48043.30
740.13	48219.42
740.31	48022.82
740.50	47637.80
740.68	48039.20
740.87	48137.51
741.06	48010.53
741.24	47938.85
741.43	47658.28
741.61	47865.13
741.80	47377.71
741.99	47265.07
742.17	47650.09
742.36	47789.35
742.54	47252.78
742.73	47365.42
742.91	47557.93
743.10	47056.18
743.29	47756.58
743.47	47052.08
743.66	47605.03
743.84	47551.79
744.03	47056.18
744.21	47650.09
744.40	47510.83
744.59	46808.37
744.77	46957.88
744.96	46654.78
745.14	46859.57
745.33	46658.87
745.51	46851.38
745.70	46855.48
745.88	46619.96
746.07	46761.27
746.26	46460.22
746.44	46382.40
746.63	46505.27
746.81	46257.47
747.00	46169.41
747.18	46392.64
747.37	46286.14
747.55	46337.34
747.74	46736.69
747.92	45821.25
748.11	45964.61
748.29	45903.17
748.48	46153.02
748.66	46126.40
748.85	46208.32
749.03	46015.81
749.22	45940.04
749.41	45663.56
749.59	46026.05
749.78	45718.85
749.96	45479.24
750.15	46021.95
750.33	45784.39
750.52	46036.29
750.70	45688.13
750.89	45176.14
751.07	45641.03
751.26	45747.53
751.44	45245.77
751.63	45045.07
751.81	45045.07
752.00	45028.69
752.18	45045.07
752.37	45022.54
752.55	44981.59
752.74	44735.83
752.92	44950.87
753.10	44836.18
753.29	44954.96
753.47	44756.31
753.66	44827.99
753.84	44664.15
754.03	44590.42
754.21	44490.07
754.40	44995.92
754.58	44901.71
754.77	44733.78
754.95	44143.97
755.14	44563.80
755.32	44619.10
755.51	44154.21
755.69	44229.98
755.88	44127.58
756.06	44123.49
756.24	44469.59
756.43	44221.79
756.61	44201.31
756.80	43816.29
756.98	43656.55
757.17	44035.42
757.35	43947.36
757.54	43885.92
757.72	43937.12
757.90	43689.32
758.09	43957.60
758.27	43656.55
758.46	43269.48
758.64	43595.11
758.83	43783.52
759.01	43627.88
759.19	43818.34
759.38	43173.23
759.56	44014.94
759.75	43611.49
759.93	43203.95
760.12	43300.20
760.30	43130.22
760.48	42984.82
760.67	42915.19
760.85	43586.92
761.04	43345.26
761.22	43154.80
761.40	43099.50
761.59	43627.88
761.77	42829.17
761.96	43341.16
762.14	42767.73
762.32	42577.27
762.51	42724.72
762.69	42677.62
762.88	42737.01
763.06	42638.71
763.24	42737.01
763.43	43167.09
763.61	42687.86
763.80	42550.65
763.98	42421.62
764.16	42274.17
764.35	41819.52
764.53	41696.64
764.72	41780.61
764.90	41899.39
765.08	42153.34
765.27	42331.51
765.45	41770.37
765.63	41727.36
765.82	41942.40
766.00	41516.42
766.18	41751.94
766.37	41993.60
766.55	41438.60
766.74	41776.51
766.92	41471.37
767.10	41444.74
767.29	41516.42
767.47	40920.46
767.65	41827.71
767.84	40973.71
768.02	41645.44
768.20	40893.84
768.39	41072.01
768.57	41758.08
768.75	41442.70
768.94	41323.91
769.12	41104.78
769.30	41094.54
769.49	40752.53
769.67	40760.72
769.85	40627.60
770.04	40748.43
770.22	40482.20
770.40	40600.98
770.59	40646.04
770.77	40885.65
770.95	40717.71
771.14	40541.59
771.32	40390.04
771.50	39896.48
771.69	40811.92
771.87	40936.85
772.05	40732.05
772.24	39816.61
772.42	40297.88
772.60	40435.10
772.78	40248.73
772.97	40146.33
773.15	40236.44
773.33	40566.16
773.52	40048.03
773.70	40367.51
773.88	40156.57
774.07	40027.55
774.25	40510.87
774.43	40332.70
774.61	40349.08
774.80	40013.21
774.98	39994.78
775.16	40181.15
775.34	40015.26
775.53	40191.39
775.71	40367.51
775.89	40185.24
776.08	40230.30
776.26	40662.42
776.44	40207.77
776.62	40193.43
776.81	40105.37
776.99	40381.85
777.17	40080.80
777.35	40080.80
777.54	40957.33
777.72	40355.22
777.90	40441.24
778.08	40562.07
778.27	40332.70
778.45	40730.00
778.63	40572.31
778.81	40269.21
779.00	41194.89
779.18	40859.02
779.36	41022.86
779.54	40953.23
779.73	40699.28
779.91	40983.95
780.09	40932.75
780.27	41422.22
780.46	41063.82
780.64	41317.77
780.82	41194.89
781.00	40877.46
781.19	41342.35
781.37	41186.70
781.55	41110.92
781.73	41362.82
781.91	41399.69
782.10	40965.52
782.28	41426.31
782.46	41104.78
782.64	41651.59
782.82	41229.71
783.01	41600.39
783.19	41446.79
783.37	41256.33
783.55	41289.10
783.74	41407.88
783.92	41168.27
784.10	41692.55
784.28	41340.30
784.46	40971.66
784.64	41285.00
784.83	41606.53
785.01	41694.60
785.19	41586.05
785.37	41561.48
785.55	41424.26
785.74	41045.39
785.92	41436.55
786.10	41481.61
786.28	41221.52
786.46	41627.01
786.64	41260.43
786.83	41311.63
787.01	41241.99
787.19	41350.54
787.37	41137.55
787.55	41153.93
787.74	41039.25
787.92	40899.98
788.10	41045.39
788.28	41055.63
788.46	41192.84
788.64	40793.49
788.82	41264.52
789.01	40834.45
789.19	40979.85
789.37	40519.06
789.55	40908.18
789.73	40758.67
789.91	40662.42
790.09	40809.87
790.28	40449.43
790.46	40187.29
790.64	41039.25
790.82	40275.35
791.00	40203.67
791.18	40373.66
791.36	40400.28
791.55	40551.83
791.73	40308.12
791.91	39994.78
792.09	40175.00
792.27	40097.18
792.45	39865.76
792.63	39933.34
792.81	39959.97
793.00	39533.99
793.18	39730.59
793.36	39552.42
793.54	39560.61
793.72	39740.83
793.90	39540.13
794.08	39566.76
794.26	39521.70
794.44	38974.89
794.62	39065.00
794.81	39212.46
794.99	39017.90
795.17	39124.40
795.35	39093.68
795.53	38970.80
795.71	39126.44
795.89	38548.92
796.07	38825.39
796.25	38434.23
796.43	38776.24
796.61	38487.48
796.80	38223.29
796.98	38063.55
797.16	38434.23
797.34	38405.56
797.52	38041.02
797.70	38397.37
797.88	37864.89
798.06	37649.86
798.24	37582.27
798.42	37768.64
798.60	37647.81
798.78	37703.10
798.96	37787.07
799.14	37352.90
799.32	37529.03
799.51	37101.00
799.69	37287.37
799.87	37486.02
800.05	37115.34
800.23	36965.84
800.41	37115.34
800.59	37189.06
800.77	36724.18
800.95	36576.72
801.13	36998.60
801.31	36459.99
801.49	36523.47
801.67	36312.53
801.85	36511.19
802.03	36339.16
802.21	36484.56
802.39	36173.27
802.57	36029.91
802.75	36087.26
802.93	36271.57
803.11	35802.59
803.29	35718.62
803.47	35409.38
803.65	35929.56
803.83	35622.37
804.01	35888.60
804.19	35225.06
804.37	35274.21
804.55	35169.77
804.73	35247.59
804.91	35474.91
805.09	35227.11
805.27	35263.97
805.45	35409.38
805.63	35055.08
805.81	34921.96
805.99	34917.87
806.17	35106.28
806.35	34827.76
806.53	34690.54
806.71	34885.10
806.89	34604.53
807.07	34512.37
807.25	34608.62
807.43	34053.62
807.61	34299.38
807.79	34299.38
807.97	34057.72
808.15	34164.21
808.33	34272.76
808.51	34047.48
808.69	34098.68
808.87	33988.09
809.05	33693.18
809.23	33881.60
809.41	33748.48
809.59	33502.72
809.77	33666.56
809.95	33549.82
810.13	33678.85
810.31	33285.64
810.49	33551.87
810.67	33594.88
810.84	33140.23
811.02	33058.31
811.20	33017.35
811.38	33277.44
811.56	32890.38
811.74	32880.14
811.92	32779.79
812.10	33101.32
812.28	33244.68
812.46	32671.25
812.64	32763.40
812.82	32462.35
813.00	32550.42
813.18	32730.64
813.36	32503.31
813.53	32548.37
813.71	32480.78
813.89	32388.63
814.07	32597.52
814.25	32114.20
814.43	32200.21
814.61	32263.70
814.79	32079.38
814.97	31739.42
815.15	32112.15
815.33	31895.07
815.50	31731.23
815.68	32192.02
815.86	31964.70
816.04	31796.76
816.22	31501.86
816.40	31634.97
816.58	31579.68
816.76	31503.90
816.94	31458.85
817.11	31389.22
817.29	30905.90
817.47	31239.72
817.65	30957.10
817.83	31235.62
818.01	31104.55
818.19	30815.79
818.37	31176.23
818.54	30909.99
818.72	30783.02
818.90	30740.01
819.08	30512.69
819.26	30791.21
819.44	30580.27
819.62	30522.93
819.80	30828.07
819.97	30750.25
820.15	30621.23
820.33	30408.24
820.51	30715.44
820.69	30205.49
820.87	30477.87
821.05	30402.10
821.22	30133.81
821.40	30277.17
821.58	30037.56
821.76	29742.65
821.94	29976.12
822.12	29673.02
822.29	29912.63
822.47	30203.44
822.65	29912.63
822.83	30045.75
823.01	29812.28
823.19	29929.02
823.36	29595.20
823.54	29689.40
823.72	29570.62
823.90	29685.31
824.08	29234.75
824.25	29300.29
824.43	29175.36
824.61	29355.58
824.79	29447.74
824.97	28956.23
825.15	29345.34
825.32	29171.27
825.50	28687.95
825.68	28833.35
825.86	29040.20
826.04	29230.66
826.21	28911.17
826.39	28876.36
826.57	28837.45
826.75	28773.96
826.93	28241.49
827.10	28409.42
827.28	28411.47
827.46	29095.49
827.64	28659.27
827.81	28468.81
827.99	28431.95
828.17	28493.39
828.35	28286.54
828.53	28423.76
828.70	28178.00
828.88	28155.47
829.06	28235.35
829.24	28327.50
829.41	27995.73
829.59	28210.77
829.77	27879.00
829.95	27909.72
830.12	27946.58
830.30	28151.38
830.48	28100.18
830.66	27762.26
830.84	27760.22
831.01	27563.61
831.19	27760.22
831.37	27606.62
831.55	27702.87
831.72	27412.06
831.90	27569.76
832.08	27514.46
832.25	27506.27
832.43	27450.97
832.61	27569.76
832.79	27244.13
832.96	26998.37
833.14	27453.02
833.32	27516.51
833.50	27688.54
833.67	27420.25
833.85	27160.16
834.03	26832.49
834.20	27051.62
834.38	27156.07
834.56	26977.89
834.74	26826.34
834.91	27147.87
835.09	27207.26
835.27	26846.82
835.44	26621.55
835.62	26490.48
835.80	26289.77
835.98	26826.34
836.15	26476.14
836.33	26398.32
836.51	26621.55
836.68	26140.27
836.86	26461.80
837.04	26467.95
837.21	26545.77
837.39	26371.69
837.57	26445.42
837.75	26445.42
837.92	26318.45
838.10	25953.91
838.28	26074.74
838.45	26132.08
838.63	25929.33
838.81	25642.62
838.98	25656.95
839.16	25626.23
839.34	25716.34
839.51	25704.06
839.69	25400.96
839.87	25697.91
840.04	25775.73
840.22	26084.98
840.40	25626.23
840.57	25407.10
840.75	25509.50
840.93	25228.93
841.10	25382.52
841.28	25620.09
841.46	25316.99
841.63	25495.16
841.81	24991.36
841.98	25394.81
842.16	25456.25
842.34	25030.27
842.51	24907.40
842.69	25276.03
842.87	25134.72
843.04	25247.36
843.22	25114.24
843.40	25169.54
843.57	25036.42
843.75	24862.34
843.92	25028.23
844.10	24819.33
844.28	24501.90
844.45	24723.08
844.63	24653.45
844.81	24708.74
844.98	24723.08
845.16	24512.14
845.33	24608.39
845.51	24454.79
845.69	24768.13
845.86	24366.73
846.04	24366.73
846.21	24295.05
846.39	24602.25
846.57	24704.65
846.74	24479.37
846.92	24129.17
847.09	24127.12
847.27	23961.23
847.45	24065.68
847.62	24243.85
847.80	24039.06
847.97	23979.67
848.15	23869.08
848.32	23580.31
848.50	23707.29
848.68	23756.44
848.85	23539.35
849.03	23588.50
849.20	23576.22
849.38	23746.20
849.56	23799.44
849.73	23461.53
849.91	23400.09
850.08	23897.75
850.26	23088.80
850.43	23447.19
850.61	23463.58
850.78	23162.53
850.96	23615.13
851.14	23424.67
851.31	23316.12
851.49	22945.44
851.66	23576.22
851.84	23133.86
852.01	23332.51
852.19	23066.27
852.36	23076.51
852.54	23140.00
852.71	23035.55
852.89	22838.95
853.07	22754.98
853.24	22787.75
853.42	22927.01
853.59	22924.96
853.77	22918.82
853.94	22894.24
854.12	23029.41
854.29	22568.62
854.47	22761.12
854.64	22605.48
854.82	22537.90
854.99	22582.95
855.17	22458.03
855.34	22650.53
855.52	22537.90
855.69	22478.50
855.87	22062.77
856.04	22216.36
856.22	22443.69
856.39	22447.79
856.57	22265.52
856.74	22249.13
856.92	22095.53
857.09	22163.12
857.27	22109.87
857.44	22423.21
857.62	22292.14
857.79	21997.23
857.97	22038.19
858.14	22109.87
858.32	21802.68
858.49	22027.95
858.67	22038.19
858.84	21575.35
859.02	21964.46
859.19	21587.64
859.37	21782.20
859.54	21507.77
859.72	21700.28
859.89	21702.32
860.06	21687.99
860.24	21472.95
860.41	21808.82
860.59	21368.51
860.76	21341.88
860.94	21444.28
861.11	21823.16
861.29	21196.48
861.46	21507.77
861.64	20905.66
861.81	21520.06
861.98	21231.29
862.16	21061.31
862.33	20807.36
862.51	21003.97
862.68	20874.95
862.86	20936.38
863.03	20969.15
863.21	20733.64
863.38	21012.16
863.55	20745.92
863.73	20985.54
863.90	20876.99
864.08	21055.17
864.25	20805.31
864.43	20680.39
864.60	20674.24
864.77	20426.44
864.95	20580.04
865.12	20434.63
865.30	20403.91
865.47	20358.86
865.64	20399.82
865.82	20502.22
865.99	20479.69
866.17	20500.17
866.34	20696.77
866.51	20229.84
866.69	20219.60
866.86	20188.88
867.04	20158.16
867.21	20358.86
867.38	20031.18
867.56	20018.89
867.73	20203.21
867.91	20068.05
868.08	20221.64
868.25	19824.34
868.43	19861.20
868.60	19830.48
868.78	19547.86
868.95	20190.92
869.12	19967.70
869.30	19850.96
869.47	19619.54
869.64	19461.85
869.82	19621.59
869.99	19490.52
870.16	19760.85
870.34	19623.64
870.51	19597.01
870.69	19324.63
870.86	19388.12
871.03	19484.37
871.21	19220.19
871.38	19400.41
871.55	19244.76
871.73	19586.77
871.90	19312.35
872.07	18869.98
872.25	19042.01
872.42	19103.45
872.59	18968.29
872.77	19119.84
872.94	18984.67
873.11	18949.85
873.29	18814.69
873.46	18857.70
873.63	18736.87
873.81	18587.36
873.98	18532.07
874.15	18634.47
874.33	18773.73
874.50	18636.52
874.67	18671.33
874.85	18525.93
875.02	18235.11
875.19	18405.10
875.37	18589.41
875.54	18464.49
875.71	18489.06
875.88	18431.72
876.06	18489.06
876.23	18300.65
876.40	17997.55
876.58	18200.30
876.75	18018.03
876.92	18083.56
877.10	18142.96
877.27	17899.25
877.44	17981.17
877.61	17680.11
877.79	17766.13
877.96	17805.04
878.13	17872.62
878.31	17805.04
878.48	17831.66
878.65	17866.48
878.82	17612.53
879.00	17936.11
879.17	17368.82
879.34	17590.00
879.51	17262.33
879.69	17426.17
879.86	17370.87
880.03	17161.98
880.21	17272.57
880.38	17284.86
880.55	17319.67
880.72	17266.42
880.90	17305.34
881.07	17293.05
881.24	17188.60
881.41	17260.28
881.59	17131.26
881.76	17352.44
881.93	17178.36
882.10	17024.76
882.28	16862.97
882.45	16893.69
882.62	17080.06
882.79	16961.28
882.96	16684.80
883.14	16932.61
883.31	17024.76
883.48	17149.69
883.65	16643.84
883.83	16969.47
884.00	16805.63
884.17	17053.44
884.34	17022.72
884.51	16660.23
884.69	16666.37
884.86	16523.01
885.03	16932.61
885.20	16590.59
885.38	16649.99
885.55	16525.06
885.72	16854.78
885.89	16510.72
886.06	16824.06
886.24	16733.95
886.41	16566.02
886.58	16914.17
886.75	16473.86
886.92	16393.99
887.10	16490.24
887.27	16340.74
887.44	16383.75
887.61	16586.50
887.78	16334.60
887.95	16469.76
888.13	16367.37
888.30	16154.38
888.47	16031.50
888.64	16072.46
888.81	16142.09
888.99	15920.91
889.16	15820.56
889.33	15822.61
889.50	15838.99
889.67	15968.01
889.84	16035.60
890.01	15933.20
890.19	15828.75
890.36	15945.48
890.53	15748.88
890.70	15634.19
890.87	15834.89
891.04	15632.15
891.22	15728.40
891.39	15910.67
891.56	15642.39
891.73	15607.57
891.90	15302.42
892.07	15539.99
892.24	15591.19
892.42	15466.26
892.59	15691.54
892.76	15511.32
892.93	15345.43
893.10	15593.23
893.27	15515.41
893.44	15275.80
893.61	15488.79
893.79	15515.41
893.96	15410.96
894.13	15513.36
894.30	15339.29
894.47	15185.69
894.64	15470.36
894.81	15324.95
894.98	15294.23
895.15	15410.96
895.33	15259.42
895.50	15286.04
895.67	15415.06
895.84	15138.58
896.01	15281.94
896.18	15200.02
896.35	15404.82
896.52	15251.22
896.69	15286.04
896.86	15351.57
897.04	15324.95
897.21	15253.27
897.38	15056.67
897.55	15210.26
897.72	15345.43
897.89	15208.22
898.06	15269.66
898.23	15218.46
898.40	15427.35
898.57	15126.30
898.74	15443.73
898.91	15136.54
899.08	15202.07
899.26	15253.27
899.43	15175.45
899.60	15191.83
899.77	15015.71
899.94	15253.27
900.11	14987.04
900.28	15259.42
900.45	14913.31
900.62	15169.30
900.79	15388.44
900.96	14890.78
901.13	15097.63
901.30	15157.02
901.47	14976.80
901.64	15107.87
901.81	15167.26
901.98	14913.31
902.15	15107.87
902.32	14847.77
902.49	14958.36
902.66	14923.55
902.83	15245.08
903.01	15343.38
903.18	15103.77
903.35	15052.57
903.52	14913.31
903.69	15056.67
903.86	15058.71
904.03	15490.84
904.20	15175.45
904.37	15353.62
904.54	15253.27
904.71	15071.00
904.88	15144.73
905.05	14913.31
905.22	15269.66
905.39	15173.40
905.56	14796.57
905.73	15105.82
905.90	15277.85
906.07	15347.48
906.24	15093.53
906.41	14956.32
906.58	15142.68
906.75	15048.47
906.92	14884.64
907.09	14964.51
907.26	15120.15
907.43	14780.19
907.60	14812.96
907.77	15191.83
907.93	15013.66
908.10	15079.19
908.27	15165.21
908.44	15138.58
908.61	14950.17
908.78	14733.09
908.95	14894.88
909.12	14993.18
909.29	14929.69
909.46	14974.75
909.63	15003.42
909.80	14874.40
909.97	15138.58
910.14	14862.11
910.31	14866.21
910.48	14720.80
910.65	14837.53
910.82	14819.10
910.99	14999.32
911.16	14683.94
911.33	14915.36
911.50	14657.31
911.66	14823.20
911.83	14876.44
912.00	14728.99
912.17	14741.28
912.34	14634.78
912.51	14556.96
912.68	14745.38
912.85	14649.12
913.02	14866.21
913.19	14612.26
913.36	14495.52
913.53	14591.78
913.70	14464.80
913.86	14640.93
914.03	14602.02
914.20	14640.93
914.37	14597.92
914.54	14593.83
914.71	14528.29
914.88	14540.58
915.05	14413.60
915.22	14331.69
915.39	14180.14
915.55	14223.14
915.72	14176.04
915.89	14106.41
916.06	14198.57
916.23	14167.85
916.40	14014.25
916.57	14026.54
916.74	14038.83
916.91	14352.16
917.07	13870.89
917.24	14108.46
917.41	13961.00
917.58	13709.10
917.75	13813.55
917.92	13715.25
918.09	13750.06
918.26	13745.97
918.42	13973.29
918.59	13555.51
918.76	13823.79
918.93	13778.73
919.10	13664.05
919.27	13606.70
919.44	13817.65
919.60	13451.06
919.77	13389.62
919.94	13299.51
920.11	13438.77
920.28	13475.63
920.45	13164.34
920.61	13078.33
920.78	13221.69
920.95	13078.33
921.12	13037.37
921.29	13074.23
921.46	13043.51
921.62	12873.53
921.79	12959.55
921.96	12947.26
922.13	12937.02
922.30	12672.83
922.47	12785.47
922.63	12824.38
922.80	12848.96
922.97	12539.71
923.14	12539.71
923.31	12531.52
923.47	12449.60
923.64	12713.79
923.81	12490.56
923.98	12502.85
924.15	12388.16
924.32	12111.69
924.48	12367.68
924.65	12357.44
924.82	12246.85
924.99	11913.03
925.15	11939.66
925.32	12017.48
925.49	11970.38
925.66	12025.67
925.83	11687.76
925.99	11769.68
926.16	11964.23
926.33	11929.42
926.50	11515.73
926.67	11816.78
926.83	11773.77
927.00	11642.70
927.17	11468.62
927.34	11618.13
927.50	11589.46
927.67	11706.19
927.84	11493.20
928.01	11562.83
928.17	11497.30
928.34	11452.24
928.51	11206.48
928.68	11183.96
928.84	11243.35
929.01	11083.61
929.18	10977.11
929.35	11071.32
929.51	11157.33
929.68	10807.13
929.85	10938.20
930.02	10989.40
930.18	10757.98
930.35	10825.56
930.52	10866.52
930.69	10753.88
930.85	10669.92
931.02	10569.57
931.19	10270.56
931.36	10477.41
931.52	10645.34
931.69	10532.70
931.86	10198.88
932.02	10463.07
932.19	10387.30
932.36	10186.60
932.53	10026.86
932.69	10231.65
932.86	10248.04
933.03	10194.79
933.19	10047.33
933.36	9924.46
933.53	9981.80
933.70	9842.54
933.86	9901.93
934.03	9953.13
934.20	9637.74
934.36	9734.00
934.53	9512.81
934.70	9422.70
934.86	9367.41
935.03	9377.65
935.20	9340.79
935.36	9287.54
935.53	9090.93
935.70	9068.41
935.86	8988.53
936.03	8978.30
936.20	8955.77
936.36	8949.62
936.53	8771.45
936.70	8759.16
936.86	8759.16
937.03	8648.57
937.20	8404.86
937.36	8646.52
937.53	8193.92
937.70	8265.60
937.86	8103.81
938.03	8085.38
938.20	8079.24
938.36	7907.21
938.53	7864.20
938.70	7663.50
938.86	7808.90
939.03	7579.53
939.20	7493.52
939.36	7585.68
939.53	7514.00
939.70	7511.95
939.86	7143.32
940.03	6934.42
940.19	6905.75
940.36	7038.87
940.53	7073.68
940.69	6856.60
940.86	6928.28
941.03	6727.58
941.19	6578.08
941.36	6516.64
941.52	6444.96
941.69	6567.84
941.86	6444.96
942.02	6471.58
942.19	6385.57
942.35	6158.24
942.52	6080.42
942.69	5961.64
942.85	6066.08
943.02	6168.48
943.18	6045.60
943.35	5955.49
943.52	6041.51
943.68	5861.29
943.85	5762.98
944.01	5795.75
944.18	5746.60
944.35	5711.78
944.51	5689.26
944.68	5603.24
944.84	5777.32
945.01	5437.36
945.17	5599.15
945.34	5603.24
945.51	5623.72
945.67	5562.28
945.84	5564.33
946.00	5455.79
946.17	5412.78
946.33	5535.66
946.50	5492.65
946.67	5334.96
946.83	5449.64
947.00	5466.03
947.16	5392.30
947.33	5337.01
947.49	5435.31
947.66	5318.57
947.82	5488.56
947.99	5300.14
948.16	5337.01
948.32	5373.87
948.49	5552.04
948.65	5398.45
948.82	5463.98
948.98	5339.05
949.15	5386.16
949.31	5466.03
949.48	5408.69
949.64	5484.46
949.81	5453.74
949.97	5400.49
950.14	5371.82
950.30	5294.00
950.47	5564.33
950.63	5513.13
950.80	5484.46
950.96	5488.56
951.13	5478.32
951.30	5566.38
951.46	5638.06
951.63	5590.95
951.79	5556.14
951.96	5621.67
952.12	5406.64
952.29	5468.08
952.45	5261.23
952.62	5648.30
952.78	5547.95
952.94	5500.84
953.11	5459.88
953.27	5492.65
953.44	5597.10
953.60	5502.89
953.77	5664.68
953.93	5423.02
954.10	5654.44
954.26	5556.14
954.43	5547.95
954.59	5736.36
954.76	5679.02
954.92	5674.92
955.09	5672.87
955.25	5552.04
955.42	5474.22
955.58	5777.32
955.75	5730.22
955.91	5656.49
956.07	5603.24
956.24	5681.07
956.40	5564.33
956.57	5668.78
956.73	5664.68
956.90	5470.12
957.06	5527.47
957.23	5838.76
957.39	5789.61
957.56	5566.38
957.72	5619.63
957.88	5672.87
958.05	5664.68
958.21	5738.41
958.38	5740.46
958.54	5533.61
958.71	5605.29
958.87	5451.69
959.03	5558.19
959.20	5601.19
959.36	5611.43
959.53	5701.54
959.69	5443.50
959.85	5613.48
960.02	5537.71
960.18	5636.01
960.35	5597.10
960.51	5660.59
960.68	5683.11
960.84	5554.09
961.00	5574.57
961.17	5595.05
961.33	5640.11
961.50	5840.81
961.66	5676.97
961.82	5506.99
961.99	5728.17
962.15	5580.71
962.31	5502.89
962.48	5613.48
962.64	5695.40
962.81	5474.22
962.97	5619.63
963.13	5488.56
963.30	5679.02
963.46	5500.84
963.62	5531.56
963.79	5550.00
963.95	5590.95
964.12	5484.46
964.28	5500.84
964.44	5437.36
964.61	5590.95
964.77	5517.23
964.93	5531.56
965.10	5494.70
965.26	5547.95
965.42	5337.01
965.59	5396.40
965.75	5494.70
965.92	5504.94
966.08	5353.39
966.24	5316.53
966.41	5320.62
966.57	5476.27
966.73	5394.35
966.90	5439.40
967.06	5380.01
967.22	5373.87
967.39	5353.39
967.55	5482.41
967.71	5377.97
967.88	5347.25
968.04	5173.17
968.20	5312.43
968.37	5412.78
968.53	5255.09
968.69	5357.49
968.85	5353.39
969.02	5236.66
969.18	5390.25
969.34	5259.18
969.51	5183.41
969.67	5267.38
969.83	5197.74
970.00	5343.15
970.16	5287.86
970.32	5359.53
970.48	5228.46
970.65	5113.78
970.81	5013.43
970.97	5117.87
971.14	5038.00
971.30	5306.29
971.46	5210.03
971.63	5244.85
971.79	5128.11
971.95	5093.30
972.11	5033.91
972.28	5152.69
972.44	5109.68
972.60	4945.84
972.76	5105.59
972.93	5044.15
973.09	5150.64
973.25	5007.28
973.42	5093.30
973.58	4943.80
973.74	5107.63
973.90	5033.91
974.07	5040.05
974.23	4861.88
974.39	4999.09
974.55	4964.28
974.72	5007.28
974.88	4845.49
975.04	4868.02
975.20	5013.43
975.37	4861.88
975.53	4818.87
975.69	4868.02
975.85	4839.35
976.01	4771.77
976.18	4915.12
976.34	4712.38
976.50	4890.55
976.66	4857.78
976.83	4775.86
976.99	4689.85
977.15	4661.18
977.31	4679.61
977.47	4796.34
977.64	4675.51
977.80	4726.71
977.96	4655.03
978.12	4704.18
978.29	4628.41
978.45	4767.67
978.61	4671.42
978.77	4728.76
978.93	4683.70
979.10	4730.81
979.26	4624.31
979.42	4655.03
979.58	4636.60
979.74	4640.70
979.91	4579.26
980.07	4642.75
980.23	4546.49
980.39	4503.48
980.55	4564.92
980.71	4380.61
980.88	4405.18
981.04	4485.05
981.20	4542.39
981.36	4493.24
981.52	4429.76
981.68	4442.04
981.85	4431.80
982.01	4454.33
982.17	4341.69
982.33	4335.55
982.49	4532.15
982.65	4419.52
982.82	4415.42
982.98	4335.55
983.14	4313.02
983.30	4313.02
983.46	4384.70
983.62	4351.93
983.79	4196.29
983.95	4294.59
984.11	4296.64
984.27	4245.44
984.43	4206.53
984.59	4298.69
984.75	4288.45
984.91	4075.46
985.08	4337.60
985.24	4136.90
985.40	4245.44
985.56	4151.23
985.72	4163.52
985.88	4212.67
986.04	4042.69
986.20	4069.31
986.37	4097.99
986.53	3995.59
986.69	4100.03
986.85	4069.31
987.01	4071.36
987.17	4003.78
987.33	4020.16
987.49	3989.44
987.65	4063.17
987.82	4052.93
987.98	3862.47
988.14	4065.22
988.30	3981.25
988.46	3948.48
988.62	3942.34
988.78	3962.82
988.94	3973.06
989.10	3962.82
989.26	3745.73
989.42	3774.41
989.59	3751.88
989.75	3796.93
989.91	3983.30
990.07	3813.32
990.23	3833.80
990.39	3909.57
990.55	3862.47
990.71	3737.54
990.87	3835.85
991.03	3786.69
991.19	3794.89
991.35	3837.89
991.51	3856.33
991.67	3874.76
991.83	3753.93
992.00	3739.59
992.16	3807.17
992.32	3821.51
992.48	3768.26
992.64	3723.21
992.80	3731.40
992.96	3737.54
993.12	3712.97
993.28	3758.02
993.44	3563.47
993.60	3649.48
993.76	3721.16
993.92	3641.29
994.08	3743.69
994.24	3657.67
994.40	3602.38
994.56	3801.03
994.72	3600.33
994.88	3528.65
995.04	3602.38
995.20	3639.24
995.36	3504.07
995.52	3581.90
995.68	3676.10
995.84	3547.08
996.00	3659.72
996.16	3547.08
996.32	3522.51
996.48	3559.37
996.64	3506.12
996.80	3600.33
996.96	3485.64
997.12	3456.97
997.28	3407.82
997.44	3565.51
997.60	3463.12
997.76	3428.30
997.92	3332.05
998.08	3526.60
998.24	3270.61
998.40	3459.02
998.56	3364.81
998.72	3346.38
998.88	3366.86
999.04	3409.87
999.20	3434.44
999.36	3334.09
999.52	3377.10
999.68	3315.66
999.84	3364.81
1000.00	3334.09
1000.16	3430.35
1000.32	3168.21
1000.48	3325.90
1000.64	3260.37
1000.80	3227.60
1000.95	3155.92
1001.11	3231.69
1001.27	3106.77
1001.43	3297.23
1001.59	3125.20
1001.75	3080.14
1001.91	3100.62
1002.07	3104.72
1002.23	3127.25
1002.39	3092.43
1002.55	3112.91
1002.71	3084.24
1002.87	3160.02
1003.03	3100.62
1003.19	3051.47
1003.34	3082.19
1003.50	3014.61
1003.66	3172.30
1003.82	3133.39
1003.98	3100.62
1004.14	3084.24
1004.30	2994.13
1004.46	2969.55
1004.62	3035.09
1004.78	3104.72
1004.94	2975.70
1005.09	2985.94
1005.25	3149.78
1005.41	3020.75
1005.57	2998.23
1005.73	2951.12
1005.89	2840.53
1006.05	3002.32
1006.21	3059.67
1006.37	2938.84
1006.52	2924.50
1006.68	2904.02
1006.84	3006.42
1007.00	2803.67
1007.16	2983.89
1007.32	2951.12
1007.48	2863.06
1007.64	2887.64
1007.79	2912.21
1007.95	2846.68
1008.11	2908.12
1008.27	2795.48
1008.43	2791.38
1008.59	2775.00
1008.75	2852.82
1008.91	2861.01
1009.06	2797.53
1009.22	2842.58
1009.38	2813.91
1009.54	2854.87
1009.70	2828.24
1009.86	2797.53
1010.01	2904.02
1010.17	2768.85
1010.33	2820.05
1010.49	2645.98
1010.65	2865.11
1010.81	2643.93
1010.96	2760.66
1011.12	2721.75
1011.28	2664.41
1011.44	2799.57
1011.60	2772.95
1011.76	2697.17
1011.91	2697.17
1012.07	2670.55
1012.23	2547.67
1012.39	2639.83
1012.55	2703.32
1012.71	2660.31
1012.86	2586.58
1013.02	2641.88
1013.18	2600.92
1013.34	2572.25
1013.50	2666.46
1013.65	2688.98
1013.81	2648.02
1013.97	2625.50
1014.13	2551.77
1014.29	2619.35
1014.44	2717.65
1014.60	2607.06
1014.76	2580.44
1014.92	2580.44
1015.07	2605.02
1015.23	2566.10
1015.39	2514.91
1015.55	2566.10
1015.71	2592.73
1015.86	2564.06
1016.02	2461.66
1016.18	2379.74
1016.34	2490.33
1016.49	2551.77
1016.65	2545.63
1016.81	2449.37
1016.97	2549.72
1017.12	2508.76
1017.28	2439.13
1017.44	2371.55
1017.60	2389.98
1017.75	2437.08
1017.91	2494.43
1018.07	2488.28
1018.23	2387.93
1018.38	2426.84
1018.54	2457.56
1018.70	2426.84
1018.86	2422.75
1019.01	2404.32
1019.17	2392.03
1019.33	2480.09
1019.49	2447.32
1019.64	2328.54
1019.80	2418.65
1019.96	2453.47
1020.12	2385.88
1020.27	2342.88
1020.43	2371.55
1020.59	2328.54
1020.74	2334.68
1020.90	2330.59
1021.06	2287.58
1021.22	2326.49
1021.37	2299.87
1021.53	2320.35
1021.69	2346.97
1021.84	2310.11
1022.00	2355.16
1022.16	2295.77
1022.31	2252.77
1022.47	2342.88
1022.63	2338.78
1022.79	2226.14
1022.94	2256.86
1023.10	2394.08
1023.26	2310.11
1023.41	2234.33
1023.57	2166.75
1023.73	2338.78
1023.88	2217.95
1024.04	2191.33
1024.20	2217.95
1024.35	2248.67
1024.51	2205.66
1024.67	2211.81
1024.82	2303.96
1024.98	2205.66
1025.14	2224.09
1025.29	2215.90
1025.45	2224.09
1025.61	2113.50
1025.76	2258.91
1025.92	2185.18
1026.08	2279.39
1026.23	2226.14
1026.39	2248.67
1026.55	2234.33
1026.70	2105.31
1026.86	2191.33
1027.02	2174.94
1027.17	2133.98
1027.33	2185.18
1027.48	2164.70
1027.64	2070.50
1027.80	2150.37
1027.95	2179.04
1028.11	2170.85
1028.27	2199.52
1028.42	2154.46
1028.58	2088.93
1028.73	2125.79
1028.89	2015.20
1029.05	2265.05
1029.20	2222.05
>>>>>End Processed Spectral Data<<<<<
