SpectraSuite Data File
++++++++++++++++++++++++++++++++++++
Date: Fri Jun 02 14:44:34 CEST 2017
User: INFO_000
Dark Spectrum Present: No
Reference Spectrum Present: No
Number of Sampled Component Spectra: 1
Spectrometers: USB4H00879
Integration Time (usec): 80000 (USB4H00879)
Spectra Averaged: 1 (USB4H00879)
Boxcar Smoothing: 0 (USB4H00879)
Correct for Electrical Dark: No (USB4H00879)
Strobe/Lamp Enabled: No (USB4H00879)
Correct for Detector Non-linearity: No (USB4H00879)
Correct for Stray Light: No (USB4H00879)
Number of Pixels in Processed Spectrum: 3648
>>>>>Begin Processed Spectral Data<<<<<
345.13	1255.40
345.34	1255.40
345.56	1255.40
345.78	1247.21
345.99	1267.69
346.21	1699.81
346.42	1718.25
346.64	1626.09
346.86	1751.01
347.07	1640.42
347.29	1658.85
347.50	1576.94
347.72	1662.95
347.94	1773.54
348.15	1572.84
348.37	1576.94
348.59	1679.33
348.80	1675.24
349.02	1822.69
349.23	1892.32
349.45	1808.36
349.67	1871.84
349.88	1794.02
350.10	1982.43
350.31	1798.12
350.53	1789.92
350.75	1906.66
350.96	1765.35
351.18	1849.32
351.39	1791.97
351.61	1767.40
351.82	1910.75
352.04	1929.19
352.26	1794.02
352.47	1839.08
352.69	1882.08
352.90	1783.78
353.12	1894.37
353.34	1890.28
353.55	1904.61
353.77	1824.74
353.98	1888.23
354.20	1740.77
354.41	1912.80
354.63	1880.04
354.85	2050.02
355.06	1937.38
355.28	1828.84
355.49	1882.08
355.71	1859.56
355.92	1900.52
356.14	1855.46
356.35	1880.04
356.57	1783.78
356.79	1951.71
357.00	1886.18
357.22	1871.84
357.43	1785.83
357.65	1998.82
357.86	1951.71
358.08	1929.19
358.29	1888.23
358.51	1978.34
358.72	1933.28
358.94	1970.15
359.16	1902.56
359.37	1961.95
359.59	1845.22
359.80	1937.38
360.02	1955.81
360.23	1957.86
360.45	2021.35
360.66	1920.99
360.88	1859.56
361.09	1900.52
361.31	1961.95
361.52	1992.67
361.74	2050.02
361.95	2064.35
362.17	1945.57
362.38	2121.70
362.60	2013.15
362.81	1974.24
363.03	1980.39
363.24	1931.23
363.46	2068.45
363.67	2002.91
363.89	2019.30
364.10	1970.15
364.32	2007.01
364.53	2045.92
364.75	1855.46
364.96	1970.15
365.18	2027.49
365.39	2054.11
365.61	2002.91
365.82	2076.64
366.04	2004.96
366.25	1955.81
366.47	2039.78
366.68	1986.53
366.90	2000.87
367.11	2101.22
367.33	2052.06
367.54	2064.35
367.76	1970.15
367.97	2115.55
368.19	2023.39
368.40	2070.50
368.62	1914.85
368.83	1937.38
369.05	2017.25
369.26	1990.63
369.48	2027.49
369.69	1992.67
369.91	2027.49
370.12	2115.55
370.33	2052.06
370.55	1925.09
370.76	2076.64
370.98	2076.64
371.19	2111.46
371.41	2019.30
371.62	2129.89
371.84	1994.72
372.05	2193.37
372.27	2072.54
372.48	1935.33
372.69	2004.96
372.91	2093.02
373.12	2127.84
373.34	2138.08
373.55	2105.31
373.77	2234.33
373.98	2043.87
374.20	2185.18
374.41	2260.96
374.62	2148.32
374.84	2131.94
375.05	2101.22
375.27	2101.22
375.48	2207.71
375.70	2142.18
375.91	2258.91
376.12	2271.20
376.34	2174.94
376.55	2211.81
376.77	2248.67
376.98	2138.08
377.19	2150.37
377.41	2183.13
377.62	2217.95
377.84	2232.29
378.05	2230.24
378.27	2146.27
378.48	2176.99
378.69	2330.59
378.91	2273.25
379.12	2242.53
379.34	2211.81
379.55	2297.82
379.76	2244.57
379.98	2185.18
380.19	2211.81
380.41	2285.53
380.62	2273.25
380.83	2273.25
381.05	2238.43
381.26	2437.08
381.47	2226.14
381.69	2267.10
381.90	2449.37
382.12	2232.29
382.33	2340.83
382.54	2322.40
382.76	2369.50
382.97	2363.36
383.19	2273.25
383.40	2432.99
383.61	2303.96
383.83	2310.11
384.04	2426.84
384.25	2340.83
384.47	2371.55
384.68	2365.40
384.89	2365.40
385.11	2248.67
385.32	2328.54
385.54	2254.81
385.75	2308.06
385.96	2367.45
386.18	2400.22
386.39	2430.94
386.60	2363.36
386.82	2404.32
387.03	2400.22
387.24	2500.57
387.46	2510.81
387.67	2541.53
387.88	2539.48
388.10	2451.42
388.31	2469.85
388.52	2555.86
388.74	2490.33
388.95	2527.19
389.16	2576.34
389.38	2449.37
389.59	2584.54
389.80	2602.97
390.02	2506.71
390.23	2631.64
390.44	2547.67
390.66	2559.96
390.87	2523.10
391.08	2600.92
391.30	2703.32
391.51	2691.03
391.72	2740.18
391.94	2699.22
392.15	2615.26
392.36	2693.08
392.58	2609.11
392.79	2744.28
393.00	2670.55
393.22	2623.45
393.43	2723.80
393.64	2770.90
393.85	2764.76
394.07	2639.83
394.28	2756.57
394.49	2836.44
394.71	2789.33
394.92	2858.96
395.13	2781.14
395.35	2734.04
395.56	2654.17
395.77	2785.24
395.98	2719.70
396.20	2869.20
396.41	2850.77
396.62	2846.68
396.84	2783.19
397.05	2797.53
397.26	2994.13
397.47	2987.99
397.69	2828.24
397.90	3030.99
398.11	2818.00
398.32	2891.73
398.54	2861.01
398.75	2875.35
398.96	2961.36
399.18	3043.28
399.39	3084.24
399.60	3028.95
399.81	2879.44
400.03	2887.64
400.24	3227.60
400.45	2961.36
400.66	3096.53
400.88	3125.20
401.09	3104.72
401.30	3106.77
401.51	3176.40
401.73	3162.06
401.94	3117.01
402.15	3059.67
402.36	3102.67
402.58	3162.06
402.79	3147.73
403.00	3217.36
403.21	3160.02
403.43	3227.60
403.64	3352.52
403.85	3155.92
404.06	3284.94
404.27	3067.86
404.49	3188.69
404.70	3157.97
404.91	3291.09
405.12	3231.69
405.34	3248.08
405.55	3405.77
405.76	3170.26
405.97	3178.45
406.19	3299.28
406.40	3229.65
406.61	3497.93
406.82	3375.05
407.03	3243.98
407.25	3313.61
407.46	3475.40
407.67	3407.82
407.88	3469.26
408.09	3512.27
408.31	3379.15
408.52	3391.44
408.73	3368.91
408.94	3315.66
409.15	3434.44
409.37	3516.36
409.58	3522.51
409.79	3469.26
410.00	3444.68
410.21	3508.17
410.43	3497.93
410.64	3450.83
410.85	3499.98
411.06	3518.41
411.27	3573.71
411.48	3469.26
411.70	3579.85
411.91	3706.82
412.12	3639.24
412.33	3583.95
412.54	3547.08
412.76	3809.22
412.97	3745.73
413.18	3610.57
413.39	3639.24
413.60	3811.27
413.81	3696.58
414.03	3629.00
414.24	3590.09
414.45	3868.61
414.66	3600.33
414.87	3805.13
415.08	3696.58
415.30	3735.50
415.51	3831.75
415.72	3696.58
415.93	3629.00
416.14	3762.12
416.35	3876.80
416.56	3788.74
416.78	3829.70
416.99	3850.18
417.20	3805.13
417.41	3891.14
417.62	3854.28
417.83	4040.64
418.04	3882.95
418.26	3913.67
418.47	3946.44
418.68	3901.38
418.89	3938.24
419.10	4140.99
419.31	3919.81
419.52	4075.46
419.73	3950.53
419.95	4048.83
420.16	4042.69
420.37	4016.07
420.58	4175.81
420.79	4014.02
421.00	4087.75
421.21	4120.51
421.42	4036.55
421.63	4063.17
421.85	4118.47
422.06	4059.07
422.27	4247.49
422.48	4270.01
422.69	4171.71
422.90	4245.44
423.11	4235.20
423.32	4280.25
423.53	4431.80
423.75	4358.08
423.96	4487.10
424.17	4534.20
424.38	4351.93
424.59	4366.27
424.80	4542.39
425.01	4407.23
425.22	4435.90
425.43	4452.28
425.64	4650.94
425.85	4730.81
426.06	4605.88
426.28	4587.45
426.49	4558.78
426.70	4593.59
426.91	4583.35
427.12	4661.18
427.33	4636.60
427.54	4769.72
427.75	4743.10
427.96	4902.84
428.17	4782.01
428.38	4859.83
428.59	4759.48
428.80	4788.15
429.01	4904.89
429.23	4685.75
429.44	4923.32
429.65	4913.08
429.86	5038.00
430.07	4874.17
430.28	4935.60
430.49	5058.48
430.70	5117.87
430.91	5115.83
431.12	4968.37
431.33	5218.22
431.54	5164.98
431.75	5138.35
431.96	5033.91
432.17	5099.44
432.38	5095.35
432.59	5300.14
432.80	5109.68
433.01	5263.28
433.22	5308.34
433.43	5316.53
433.64	5375.92
433.85	5257.14
434.06	5410.73
434.27	5429.17
434.49	5351.34
434.70	5689.26
434.91	5488.56
435.12	5683.11
435.33	5463.98
435.54	5545.90
435.75	5427.12
435.96	5492.65
436.17	5562.28
436.38	5685.16
436.59	5652.39
436.80	5582.76
437.01	5849.00
437.22	5812.14
437.43	5644.20
437.64	5564.33
437.85	5818.28
438.06	5846.95
438.27	5746.60
438.48	5691.31
438.69	5689.26
438.90	5799.85
439.11	5664.68
439.32	5930.92
439.53	5857.19
439.74	5961.64
439.95	5937.06
440.16	5771.18
440.37	5889.96
440.57	6033.32
440.78	6145.95
440.99	6006.69
441.20	6041.51
441.41	5869.48
441.62	5965.73
441.83	5771.18
442.04	6150.05
442.25	6010.79
442.46	5971.88
442.67	6221.73
442.88	6614.94
443.09	6119.33
443.30	6078.37
443.51	6340.51
443.72	6483.87
443.93	6084.52
444.14	6432.67
444.35	6174.63
444.56	6469.53
444.77	6236.06
444.98	6320.03
445.19	6442.91
445.40	6303.65
445.61	6299.55
445.81	6524.83
446.02	6432.67
446.23	6422.43
446.44	6404.00
446.65	6557.60
446.86	6516.64
447.07	6512.54
447.28	6778.78
447.49	6643.61
447.70	6520.73
447.91	6664.09
448.12	6741.91
448.33	6868.89
448.54	6735.77
448.74	6748.06
448.95	6741.91
449.16	6694.81
449.37	7040.92
449.58	6717.34
449.79	7083.92
450.00	6645.66
450.21	7010.20
450.42	7122.84
450.63	7122.84
450.84	6946.71
451.05	6948.76
451.25	6924.18
451.46	6846.36
451.67	7153.55
451.88	7337.87
452.09	7171.99
452.30	7239.57
452.51	7141.27
452.72	7116.69
452.93	7493.52
453.13	7083.92
453.34	7120.79
453.55	7352.21
453.76	7387.02
453.97	7784.33
454.18	7344.02
454.39	7554.96
454.60	7450.51
454.81	7405.46
455.01	7841.67
455.22	7327.63
455.43	7632.78
455.64	8044.42
455.85	7845.77
456.06	7944.07
456.27	7737.23
456.48	7831.43
456.68	8023.94
456.89	7839.62
457.10	8093.57
457.31	7985.03
457.52	7876.49
457.73	8107.91
457.94	8177.54
458.14	8081.28
458.35	8335.23
458.56	8271.75
458.77	8292.23
458.98	8200.07
459.19	8361.86
459.39	8492.93
459.60	8519.55
459.81	8462.21
460.02	8654.72
460.23	8640.38
460.44	8699.77
460.65	8658.81
460.85	8902.52
461.06	8888.18
461.27	8458.11
461.48	8974.20
461.69	9170.80
461.89	8664.96
462.10	8945.53
462.31	8896.38
462.52	8949.62
462.73	8908.66
462.94	9328.50
463.14	9058.17
463.35	9318.26
463.56	9580.40
463.77	9490.29
463.98	9199.48
464.18	9326.45
464.39	9484.14
464.60	9766.76
464.81	9656.17
465.02	9555.82
465.23	9887.59
465.43	9594.73
465.64	9797.48
465.85	9701.23
466.06	9770.86
466.27	10121.06
466.47	10055.53
466.68	9998.18
466.89	10137.45
467.10	10225.51
467.30	10078.05
467.51	10229.60
467.72	10567.52
467.93	10174.31
468.14	10413.92
468.34	10667.87
468.55	10508.13
468.76	10641.25
468.97	10522.46
469.17	10870.62
469.38	10882.91
469.59	10899.29
469.80	10981.21
470.01	10985.30
470.21	10946.39
470.42	11192.15
470.63	11198.29
470.84	11046.74
471.04	11503.44
471.25	11358.03
471.46	11286.36
471.67	11661.13
471.87	11368.27
472.08	11669.33
472.29	11845.45
472.50	11648.85
472.70	11738.96
472.91	11755.34
473.12	11714.38
473.33	11986.76
473.53	12226.37
473.74	12302.15
473.95	12465.99
474.16	12439.36
474.36	12386.12
474.57	12465.99
474.78	12711.74
474.99	12732.22
475.19	12521.28
475.40	12918.59
475.61	12953.40
475.81	13152.06
476.02	13385.52
476.23	12961.59
476.44	13219.64
476.64	13426.48
476.85	13496.11
477.06	13752.11
477.27	13854.51
477.47	13784.88
477.68	13952.81
477.89	13934.38
478.09	13954.86
478.30	13969.19
478.51	14167.85
478.71	14429.99
478.92	14360.36
479.13	14700.32
479.34	14653.22
479.54	14731.04
479.75	14647.07
479.96	14649.12
480.16	14960.41
480.37	14825.25
480.58	15132.44
480.78	15384.34
480.99	15161.11
481.20	15429.40
481.41	15523.60
481.61	15531.80
481.82	15802.13
482.03	15873.81
482.23	15730.45
482.44	16011.02
482.65	16072.46
482.85	16281.35
483.06	16123.66
483.27	16162.57
483.47	15998.73
483.68	16406.28
483.89	16461.57
484.09	16525.06
484.30	16883.45
484.51	16844.54
484.71	16822.02
484.92	16791.30
485.13	17149.69
485.33	17196.79
485.54	17207.03
485.75	17569.52
485.95	17565.43
486.16	17669.87
486.37	17800.94
486.57	17708.79
486.78	17870.58
486.98	17733.36
487.19	18075.37
487.40	18325.22
487.60	18200.30
487.81	18335.46
488.02	18192.11
488.22	18605.80
488.43	18648.80
488.64	18538.21
488.84	18601.70
489.05	18876.13
489.25	18890.46
489.46	19070.68
489.67	18953.95
489.87	19435.22
490.08	19046.11
490.29	19410.65
490.49	19441.37
490.70	19658.45
490.90	19633.88
491.11	19726.04
491.32	19758.80
491.52	19945.17
491.73	19853.01
491.94	20238.03
492.14	20211.40
492.35	20211.40
492.55	20369.10
492.76	20688.58
492.97	20340.43
493.17	20534.98
493.38	20907.71
493.58	20852.42
493.79	20844.23
494.00	20956.86
494.20	20905.66
494.41	21108.41
494.61	21343.93
494.82	21204.67
495.02	21409.47
495.23	21345.98
495.44	21411.51
495.64	21823.16
495.85	21706.42
496.05	21722.80
496.26	21857.97
496.47	22132.40
496.67	22191.79
496.88	22220.46
497.08	22060.72
497.29	22226.60
497.49	22365.87
497.70	22668.97
497.91	22621.86
498.11	22941.35
498.32	22728.36
498.52	22816.42
498.73	23101.09
498.93	23088.80
499.14	22949.54
499.34	22990.50
499.55	23332.51
499.76	23004.83
499.96	23080.61
500.17	23242.40
500.37	23451.29
500.58	23621.27
500.78	23684.76
500.99	23291.55
501.19	23854.74
501.40	23772.82
501.60	23836.31
501.81	23869.08
502.02	23877.27
502.22	23928.47
502.43	24153.74
502.63	24520.33
502.84	24239.76
503.04	24209.04
503.25	24290.96
503.45	24376.97
503.66	24391.31
503.86	24620.68
504.07	24661.64
504.27	24477.32
504.48	24966.79
504.68	24796.81
504.89	25044.61
505.09	24870.53
505.30	24870.53
505.50	25220.74
505.71	25138.82
505.91	25378.43
506.12	25325.18
506.32	25257.60
506.53	25204.35
506.73	25257.60
506.94	25607.80
507.14	25251.45
507.35	25511.55
507.55	25929.33
507.76	25876.09
507.96	25603.71
508.17	25646.71
508.37	25955.96
508.58	25876.09
508.78	25929.33
508.99	26214.00
509.19	26222.19
509.40	26238.58
509.60	25990.77
509.81	26482.28
510.01	26025.59
510.22	26580.59
510.42	26558.06
510.63	26519.15
510.83	26639.98
511.04	26353.26
511.24	26959.46
511.44	26801.77
511.65	26863.21
511.85	26828.39
512.06	26895.97
512.26	27151.97
512.47	26986.08
512.67	27223.65
512.88	27065.96
513.08	27221.60
513.29	27168.35
513.49	27192.93
513.69	27207.26
513.90	27360.86
514.10	27444.83
514.31	27422.30
514.51	27504.22
514.72	27436.64
514.92	27868.76
515.13	27717.21
515.33	27580.00
515.53	27917.91
515.74	27717.21
515.94	28104.28
516.15	28032.60
516.35	27975.25
516.56	27770.46
516.76	27887.19
516.96	28198.48
517.17	28524.11
517.37	28053.08
517.58	28286.54
517.78	28472.91
517.99	28251.73
518.19	28573.26
518.39	28370.51
518.60	28620.36
518.80	28454.48
519.01	28800.58
519.21	29009.48
519.41	28978.76
519.62	29156.93
519.82	29044.29
520.03	29257.28
520.23	29193.79
520.43	29228.61
520.64	29632.06
520.84	29763.13
521.05	29349.44
521.25	29509.18
521.45	29779.51
521.66	29951.54
521.86	29427.26
522.07	29857.34
522.27	30197.30
522.47	30236.21
522.68	30146.10
522.88	30139.96
523.08	30479.92
523.29	30365.23
523.49	30197.30
523.70	30608.94
523.90	30946.86
524.10	30805.55
524.31	30678.57
524.51	30807.59
524.71	31180.32
524.92	31120.93
525.12	31342.11
525.33	31153.70
525.53	31413.79
525.73	31684.12
525.94	31413.79
526.14	31297.06
526.34	31786.52
526.55	31764.00
526.75	31802.91
526.95	31936.02
527.16	31913.50
527.36	31919.64
527.56	32196.12
527.77	32206.36
527.97	32278.04
528.17	32380.43
528.38	32462.35
528.58	32400.91
528.78	32421.39
528.99	32585.23
529.19	32873.99
529.39	32644.62
529.60	33209.86
529.80	33097.22
530.00	33160.71
530.21	33285.64
530.41	33480.19
530.61	33338.88
530.82	33449.47
531.02	33385.99
531.22	33601.02
531.43	33580.54
531.63	33926.65
531.83	34375.16
532.04	34283.00
532.24	34217.46
532.44	34698.73
532.64	34618.86
532.85	34674.16
533.05	34610.67
533.25	34463.22
533.46	34692.59
533.66	34964.97
533.86	34616.82
534.07	34932.20
534.27	35208.68
534.47	35382.76
534.67	35182.06
534.88	35380.71
535.08	35491.30
535.28	35519.97
535.49	35519.97
535.69	35745.25
535.89	35878.36
536.09	35995.10
536.30	36052.44
536.50	35945.95
536.70	36384.21
536.91	36177.37
537.11	36681.17
537.31	36206.04
537.51	36320.73
537.72	36865.49
537.92	37055.95
538.12	37002.70
538.32	36842.96
538.53	37045.71
538.73	36773.33
538.93	36724.18
539.13	36939.21
539.34	37123.53
539.54	36951.50
539.74	37801.41
539.94	37318.09
540.15	37811.65
540.35	37893.57
540.55	37731.78
540.75	37592.51
540.96	37948.86
541.16	37995.96
541.36	38094.27
541.56	38086.07
541.77	38452.66
541.97	38084.03
542.17	38221.24
542.37	38274.49
542.58	38843.82
542.78	38251.96
542.98	38264.25
543.18	38743.47
543.38	38952.37
543.59	39126.44
543.79	38641.07
543.99	38704.56
544.19	38964.65
544.40	38768.05
544.60	39175.59
544.80	38872.49
545.00	38991.28
545.20	39232.94
545.41	39366.06
545.61	38852.02
545.81	39671.20
546.01	39306.66
546.21	39394.73
546.42	39468.45
546.62	39466.41
546.82	39347.62
547.02	39947.68
547.22	40000.93
547.43	39525.80
547.63	40154.52
547.83	39865.76
548.03	39968.16
548.23	40103.32
548.44	40023.45
548.64	39937.44
548.84	40113.56
549.04	40121.76
549.24	41014.67
549.45	40920.46
549.65	40177.05
549.85	40426.90
550.05	40760.72
550.25	40371.61
550.45	40738.19
550.66	40750.48
550.86	40504.73
551.06	40498.58
551.26	40777.11
551.46	40924.56
551.66	40918.42
551.87	41203.08
552.07	41278.86
552.27	41221.52
552.47	40744.34
552.67	41424.26
552.87	41493.89
553.07	41104.78
553.28	41395.59
553.48	41487.75
553.68	41551.24
553.88	41383.30
554.08	41661.83
554.28	41698.69
554.48	41502.09
554.69	41608.58
554.89	42114.43
555.09	41889.15
555.29	41708.93
555.49	41794.95
555.69	42104.19
555.89	41586.05
556.10	42360.19
556.30	41698.69
556.50	42018.17
556.70	41854.34
556.90	42163.58
557.10	42096.00
557.30	42009.98
557.50	42487.16
557.70	42444.15
557.91	42700.15
558.11	42495.35
558.31	42356.09
558.51	42399.10
558.71	42734.96
558.91	42919.28
559.11	42546.55
559.31	42577.27
559.51	42425.72
559.72	42997.10
559.92	42630.52
560.12	42349.95
560.32	43083.12
560.52	42712.44
560.72	42777.97
560.92	43275.63
561.12	43277.68
561.32	43539.82
561.52	42700.15
561.72	43375.98
561.93	42737.01
562.13	43122.03
562.33	42911.09
562.53	44019.04
562.73	42945.90
562.93	42958.19
563.13	43316.59
563.33	43367.79
563.53	43660.65
563.73	43562.34
563.93	43505.00
564.13	44154.21
564.33	43738.47
564.53	43480.42
564.74	43908.45
564.94	43930.98
565.14	44055.90
565.34	43844.96
565.54	44021.09
565.74	43853.15
565.94	44301.66
566.14	43998.56
566.34	43945.31
566.54	44801.36
566.74	43873.63
566.94	44150.11
567.14	44459.35
567.34	44578.14
567.54	44510.55
567.74	44268.89
567.94	44635.48
568.14	44553.56
568.34	44569.94
568.54	44852.56
568.74	44598.62
568.94	44217.69
569.14	45327.69
569.34	44733.78
569.54	45118.80
569.75	44514.65
569.95	45215.05
570.15	45333.84
570.35	45233.49
570.55	44922.19
570.75	44885.33
570.95	45292.88
571.15	45088.08
571.35	45200.72
571.55	45567.30
571.75	45301.07
571.95	45587.78
572.15	45120.85
572.35	45747.53
572.55	45980.99
572.75	45317.45
572.95	45673.80
573.15	45641.03
573.35	45614.41
573.55	46083.39
573.75	45593.93
573.95	46202.18
574.15	45671.75
574.35	46128.45
574.55	46089.54
574.75	46044.48
574.95	45966.66
575.15	46126.40
575.34	46292.29
575.54	46212.41
575.74	46411.07
575.94	46163.26
576.14	46110.02
576.34	46638.39
576.54	46628.15
576.74	46462.27
576.94	46517.56
577.14	46978.36
577.34	47265.07
577.54	46511.42
577.74	46957.88
577.94	46923.06
578.14	46892.34
578.34	47115.57
578.54	46757.17
578.74	46855.48
578.94	47217.97
579.14	47256.88
579.34	47291.69
579.54	47469.87
579.74	48047.39
579.94	47506.73
580.13	48063.78
580.33	47791.40
580.53	47809.83
580.73	48114.98
580.93	47889.70
581.13	47897.89
581.33	48166.18
581.53	47848.74
581.73	47840.55
581.93	48475.42
582.13	48198.94
582.33	48117.03
582.53	48018.72
582.73	47781.16
582.92	48217.38
583.12	48510.24
583.32	48360.73
583.52	48100.64
583.72	48526.62
583.92	48534.81
584.12	48428.32
584.32	48928.02
584.52	48669.98
584.72	48725.27
584.92	49042.71
585.11	49075.48
585.31	49190.16
585.51	48543.00
585.71	48905.49
585.91	48991.51
586.11	48540.96
586.31	48702.74
586.51	48911.64
586.71	49032.47
586.91	49540.36
587.10	49347.86
587.30	48860.44
587.50	48907.54
587.70	49663.24
587.90	49761.54
588.10	49128.72
588.30	49407.25
588.50	49521.93
588.69	49779.98
588.89	49640.71
589.09	50031.88
589.29	49636.62
589.49	49880.33
589.69	49825.03
589.89	49997.06
590.08	50074.88
590.28	49997.06
590.48	49499.40
590.68	49890.57
590.88	50281.73
591.08	49681.67
591.28	49800.46
591.47	50447.61
591.67	49904.90
591.87	50124.04
592.07	50554.11
592.27	50318.59
592.47	50271.49
592.67	50283.78
592.86	50214.15
593.06	50158.85
593.26	50511.10
593.46	50339.07
593.66	50388.22
593.86	50783.48
594.05	50709.75
594.25	50961.65
594.45	49919.24
594.65	50846.97
594.85	50754.81
595.05	50793.72
595.24	51039.48
595.44	51043.57
595.64	50320.64
595.84	50732.28
596.04	50906.36
596.23	50859.26
596.43	51381.49
596.63	50861.30
596.83	50965.75
597.03	51348.72
597.22	51381.49
597.42	51346.67
597.62	51469.55
597.82	51297.52
598.02	51203.31
598.21	51399.92
598.41	51182.84
598.61	51549.42
598.81	51459.31
599.01	51717.35
599.20	51647.72
599.40	51594.48
599.60	51539.18
599.80	51789.03
600.00	51563.76
600.19	51328.24
600.39	51217.65
600.59	51610.86
600.79	52032.74
600.98	52069.61
601.18	52542.69
601.38	52155.62
601.58	52319.46
601.78	52352.23
601.97	52260.07
602.17	52286.69
602.37	52890.84
602.57	52253.92
602.76	52700.38
602.96	52073.70
603.16	52667.61
603.36	52727.00
603.55	52966.62
603.75	53112.02
603.95	52970.71
604.15	52829.40
604.34	52782.30
604.54	52851.93
604.74	53161.17
604.94	52763.87
605.13	53001.43
605.33	53288.15
605.53	52909.27
605.73	53372.11
605.92	53351.63
606.12	53101.78
606.32	53210.32
606.52	53136.60
606.71	53148.88
606.91	53347.54
607.11	53150.93
607.30	53716.17
607.50	53550.29
607.70	53863.63
607.90	53507.28
608.09	53703.88
608.29	54107.33
608.49	53863.63
608.68	53847.24
608.88	53802.19
609.08	54121.67
609.28	53927.11
609.47	53699.79
609.67	54002.89
609.87	53855.43
610.06	54262.98
610.26	54598.85
610.46	54367.43
610.66	54115.53
610.85	53798.09
611.05	54248.64
611.25	54056.14
611.44	54297.80
611.64	54224.07
611.84	54211.78
612.03	53904.59
612.23	54316.23
612.43	54674.62
612.62	54443.20
612.82	54740.16
613.02	54537.41
613.21	54318.28
613.41	54727.87
613.61	54553.79
613.80	54211.78
614.00	54627.52
614.20	54660.29
614.39	54703.29
614.59	54940.86
614.79	54342.85
614.98	54439.11
615.18	54582.46
615.38	55123.13
615.57	54672.57
615.77	55012.54
615.97	55284.92
616.16	55235.77
616.36	54879.42
616.56	54955.19
616.75	54553.79
616.95	54805.69
617.15	54672.57
617.34	54602.94
617.54	54551.74
617.74	55475.38
617.93	55217.33
618.13	54445.25
618.32	54953.15
618.52	54920.38
618.72	55164.09
618.91	54672.57
619.11	54422.72
619.31	55002.30
619.50	54604.99
619.70	54762.68
619.90	55166.13
620.09	54908.09
620.29	55155.89
620.48	55026.87
620.68	55631.02
620.88	54785.21
621.07	54793.40
621.27	55350.45
621.46	54897.85
621.66	54449.35
621.86	55383.22
622.05	54940.86
622.25	55094.46
622.44	54811.84
622.64	55516.34
622.84	55252.15
623.03	55108.79
623.23	55059.64
623.42	55041.21
623.62	54996.15
623.82	55432.37
624.01	55162.04
624.21	55817.39
624.40	55215.29
624.60	55276.72
624.80	54998.20
624.99	55121.08
625.19	54711.49
625.38	55104.70
625.58	55372.98
625.77	54965.43
625.97	55233.72
626.17	54852.80
626.36	54981.82
626.56	55833.77
626.75	54762.68
626.95	55626.93
627.14	55170.23
627.34	55696.56
627.54	55444.66
627.73	55358.64
627.93	55174.33
628.12	54760.64
628.32	55030.97
628.51	55551.15
628.71	54920.38
628.90	55270.58
629.10	55510.19
629.30	55278.77
629.49	55532.72
629.69	55325.88
629.88	55506.10
630.08	55712.94
630.27	55712.94
630.47	55631.02
630.66	55473.33
630.86	56083.62
631.05	54893.75
631.25	56013.99
631.44	55815.34
631.64	55219.38
631.84	55354.55
632.03	55778.48
632.23	55211.19
632.42	55934.12
632.62	55663.79
632.81	55409.84
633.01	55426.23
633.20	56007.85
633.40	55719.09
633.59	55743.66
633.79	55575.73
633.98	55729.33
634.18	56188.07
634.37	56210.60
634.57	56071.34
634.76	56011.95
634.96	55833.77
635.15	55942.31
635.35	55551.15
635.54	55721.13
635.74	55913.64
635.93	55604.40
636.13	56050.86
636.32	56186.02
636.52	55518.38
636.71	56030.38
636.91	56243.37
637.10	55807.15
637.30	55801.00
637.49	55530.67
637.69	55643.31
637.88	56013.99
638.08	56046.76
638.27	55860.40
638.46	55585.97
638.66	56075.43
638.85	56407.20
639.05	56276.13
639.24	55954.60
639.44	55602.35
639.63	56482.98
639.83	55911.59
640.02	55891.12
640.22	55792.81
640.41	56396.96
640.61	55839.92
640.80	56261.80
640.99	56124.58
641.19	56222.89
641.38	55989.42
641.58	56147.11
641.77	55553.20
641.97	55813.29
642.16	55962.79
642.36	56052.90
642.55	56491.17
642.74	55805.10
642.94	56513.70
643.13	55913.64
643.33	56396.96
643.52	56325.28
643.72	56851.61
643.91	56151.21
644.10	56358.05
644.30	56341.67
644.49	56153.26
644.69	56460.45
644.88	56218.79
645.08	56200.36
645.27	56552.61
645.46	55930.03
645.66	56642.72
645.85	56521.89
646.05	56472.74
646.24	56413.35
646.43	56118.44
646.63	56431.78
646.82	56521.89
647.02	56110.25
647.21	56718.49
647.40	56294.56
647.60	56274.09
647.79	56401.06
647.99	57031.83
648.18	56468.64
648.37	56927.39
648.57	56978.59
648.76	56767.65
648.96	56319.14
649.15	56964.25
649.34	56728.73
649.54	56423.59
649.73	56620.19
649.92	56370.34
650.12	56896.67
650.31	56517.79
650.51	56566.94
650.70	56894.62
650.89	56439.97
651.09	57156.76
651.28	56757.41
651.47	57064.60
651.67	56573.09
651.86	57418.90
652.06	56417.44
652.25	56550.56
652.44	56591.52
652.64	56642.72
652.83	56200.36
653.02	56122.54
653.22	56292.52
653.41	56487.07
653.60	56575.14
653.80	56587.42
653.99	56618.14
654.18	56415.40
654.38	56368.29
654.57	56845.47
654.76	56824.99
654.96	56507.55
655.15	56525.99
655.34	56640.67
655.54	56251.56
655.73	56460.45
655.92	56439.97
656.12	56513.70
656.31	56503.46
656.50	56274.09
656.70	56448.16
656.89	56427.68
657.08	56325.28
657.28	56681.63
657.47	56347.81
657.66	56540.32
657.86	56474.79
658.05	56818.84
658.24	56399.01
658.43	56233.13
658.63	56669.34
658.82	56269.99
659.01	56704.16
659.21	56751.26
659.40	56249.51
659.59	56710.30
659.79	56818.84
659.98	56493.22
660.17	56140.97
660.36	56759.45
660.56	56564.90
660.75	56104.10
660.94	56431.78
661.14	56163.50
661.33	56607.90
661.52	56212.65
661.71	56882.33
661.91	56382.63
662.10	56356.00
662.29	56775.84
662.49	56540.32
662.68	56341.67
662.87	56304.80
663.06	56997.02
663.26	56810.65
663.45	57152.66
663.64	56847.52
663.83	57234.58
664.03	56091.82
664.22	56571.04
664.41	56636.58
664.60	56382.63
664.80	56724.64
664.99	56091.82
665.18	56562.85
665.37	56726.69
665.57	56521.89
665.76	56261.80
665.95	56390.82
666.14	56738.97
666.34	56695.97
666.53	56407.20
666.72	56399.01
666.91	56435.87
667.11	56122.54
667.30	56218.79
667.49	56609.95
667.68	56573.09
667.87	56562.85
668.07	56698.01
668.26	56820.89
668.45	56728.73
668.64	56241.32
668.84	57144.47
669.03	56665.25
669.22	56761.50
669.41	56374.44
669.60	56493.22
669.80	56247.46
669.99	56505.51
670.18	56267.94
670.37	56437.92
670.57	56781.98
670.76	56175.78
670.95	56763.55
671.14	56415.40
671.33	56317.09
671.53	56695.97
671.72	56343.72
671.91	56583.33
672.10	56108.20
672.29	56431.78
672.48	56525.99
672.68	56593.57
672.87	56423.59
673.06	56509.60
673.25	56054.95
673.44	56263.85
673.64	56243.37
673.83	56294.56
674.02	56282.28
674.21	56169.64
674.40	56882.33
674.59	56448.16
674.79	56472.74
674.98	56751.26
675.17	56374.44
675.36	55936.17
675.55	56751.26
675.74	56667.30
675.94	56452.26
676.13	56345.76
676.32	56530.08
676.51	56661.15
676.70	56519.84
676.89	56532.13
677.08	56951.96
677.28	56583.33
677.47	56691.87
677.66	56781.98
677.85	56597.66
678.04	56706.21
678.23	56669.34
678.42	56712.35
678.62	56450.21
678.81	56829.08
679.00	56396.96
679.19	57072.79
679.38	56300.71
679.57	56388.77
679.76	56374.44
679.96	56409.25
680.15	56702.11
680.34	56505.51
680.53	56597.66
680.72	56579.23
680.91	56669.34
681.10	56732.83
681.29	56634.53
681.48	56542.37
681.68	56474.79
681.87	56257.70
682.06	56644.77
682.25	56272.04
682.44	56482.98
682.63	56159.40
682.82	55915.69
683.01	56403.11
683.20	55913.64
683.39	56628.38
683.59	55895.21
683.78	56628.38
683.97	56435.87
684.16	56091.82
684.35	55604.40
684.54	56108.20
684.73	55940.27
684.92	56245.41
685.11	55964.84
685.30	55553.20
685.49	56745.12
685.69	56155.30
685.88	56339.62
686.07	56095.91
686.26	56020.14
686.45	56210.60
686.64	55913.64
686.83	56429.73
687.02	55792.81
687.21	56444.07
687.40	56108.20
687.59	56317.09
687.78	55891.12
687.97	56327.33
688.16	56239.27
688.35	55717.04
688.54	55844.01
688.74	55964.84
688.93	55674.03
689.12	56018.09
689.31	56251.56
689.50	55999.66
689.69	55729.33
689.88	55641.26
690.07	56116.39
690.26	56093.86
690.45	56276.13
690.64	55653.55
690.83	55506.10
691.02	55856.30
691.21	55868.59
691.40	55575.73
691.59	55913.64
691.78	55999.66
691.97	55821.48
692.16	55606.45
692.35	56046.76
692.54	55735.47
692.73	56208.55
692.92	55940.27
693.11	55731.37
693.30	55526.58
693.49	55846.06
693.68	55426.23
693.87	56345.76
694.06	55438.51
694.25	55606.45
694.44	55645.36
694.63	55514.29
694.82	55749.81
695.01	55506.10
695.20	55360.69
695.39	55563.44
695.58	55506.10
695.77	55213.24
695.96	55463.09
696.15	55350.45
696.34	55436.47
696.53	55026.87
696.72	55807.15
696.91	55784.62
697.10	55407.79
697.29	55436.47
697.48	55532.72
697.67	55219.38
697.86	54969.53
698.05	54670.53
698.24	55182.52
698.43	54693.05
698.62	55168.18
698.81	55297.20
699.00	55166.13
699.19	54596.80
699.38	55149.75
699.57	54609.09
699.76	55585.97
699.95	54832.32
700.14	54650.05
700.32	54885.56
700.51	54940.86
700.70	55313.59
700.89	55299.25
701.08	55153.85
701.27	54467.78
701.46	54838.46
701.65	54242.50
701.84	54766.78
702.03	54789.31
702.22	54725.82
702.41	54633.66
702.60	54174.92
702.79	54396.10
702.98	54146.25
703.17	54348.99
703.35	54553.79
703.54	54271.17
703.73	54564.03
703.92	54762.68
704.11	54445.25
704.30	54541.50
704.49	54418.63
704.68	54260.93
704.87	54093.00
705.06	53808.33
705.25	53837.00
705.43	54062.28
705.62	54228.16
705.81	54109.38
706.00	54385.86
706.19	53714.12
706.38	53937.35
706.57	54209.73
706.76	54176.97
706.95	54019.27
707.14	53837.00
707.32	53763.28
707.51	53738.70
707.70	53681.36
707.89	53798.09
708.08	53429.46
708.27	54093.00
708.46	54465.73
708.65	53538.00
708.84	53781.71
709.02	53480.66
709.21	53607.63
709.40	53312.72
709.59	53834.95
709.78	53308.63
709.97	53574.86
710.16	53146.84
710.34	53105.88
710.53	53267.67
710.72	53060.82
710.91	53277.91
711.10	53331.15
711.29	53226.71
711.48	53046.49
711.66	52876.51
711.85	52753.63
712.04	52948.18
712.23	53130.45
712.42	53136.60
712.61	53017.82
712.80	53171.41
712.98	52409.57
713.17	52593.89
713.36	52612.32
713.55	52942.04
713.74	53069.01
713.93	52499.68
714.11	52655.32
714.30	52245.73
714.49	52348.13
714.68	52430.05
714.87	52266.21
715.06	52536.54
715.24	52546.78
715.43	52278.50
715.62	52165.86
715.81	52210.92
716.00	52763.87
716.18	51791.08
716.37	51956.97
716.56	51827.95
716.75	52004.07
716.94	51875.05
717.12	52104.42
717.31	51991.78
717.50	51817.71
717.69	51913.96
717.88	51494.13
718.06	51748.07
718.25	52198.63
718.44	51098.87
718.63	51594.48
718.82	51303.67
719.00	51895.53
719.19	50959.61
719.38	51084.53
719.57	50836.73
719.76	51270.90
719.94	50693.37
720.13	50863.35
720.32	51029.24
720.51	50644.22
720.69	50765.05
720.88	50572.54
721.07	50918.65
721.26	50418.94
721.44	50304.26
721.63	50136.32
721.82	50097.41
722.01	50492.67
722.20	50795.77
722.38	50091.27
722.57	49718.54
722.76	50148.61
722.95	50160.90
723.13	49632.52
723.32	49605.90
723.51	49386.77
723.70	49603.85
723.88	49536.27
724.07	49372.43
724.26	49724.68
724.44	48899.35
724.63	49495.31
724.82	49403.15
725.01	49421.58
725.19	49362.19
725.38	49366.29
725.57	48784.66
725.76	49298.70
725.94	48502.04
726.13	49100.05
726.32	49067.28
726.51	49048.85
726.69	49165.59
726.88	48901.40
727.07	49085.72
727.25	48917.78
727.44	49214.74
727.63	48938.26
727.82	48774.42
728.00	48952.60
728.19	48518.43
728.38	49304.85
728.56	48178.46
728.75	48698.65
728.94	48784.66
729.12	48561.44
729.31	48692.50
729.50	48145.70
729.69	48940.31
729.87	48608.54
730.06	48489.76
730.25	48500.00
730.43	48991.51
730.62	48157.99
730.81	48635.16
730.99	48440.60
731.18	48004.39
731.37	48571.67
731.55	48444.70
731.74	48768.28
731.93	48743.70
732.11	48164.13
732.30	48833.81
732.49	48084.26
732.67	48366.88
732.86	48276.77
733.05	48502.04
733.23	47930.66
733.42	48289.06
733.61	48215.33
733.79	48364.83
733.98	48362.78
734.17	47668.52
734.35	47963.43
734.54	47797.54
734.73	47766.82
734.91	47891.75
735.10	47996.20
735.29	48207.14
735.47	47559.98
735.66	47303.98
735.84	47813.93
736.03	47418.67
736.22	48248.10
736.40	47482.16
736.59	47734.06
736.78	47355.18
736.96	47645.99
737.15	47484.20
737.33	47404.33
737.52	47662.38
737.71	47633.71
737.89	47480.11
738.08	46839.09
738.27	47613.23
738.45	47807.78
738.64	47471.92
738.82	47537.45
739.01	47256.88
739.20	47275.31
739.38	47168.82
739.57	47154.48
739.75	47678.76
739.94	47066.42
740.13	47244.59
740.31	46837.05
740.50	47224.11
740.68	47019.31
740.87	47256.88
741.06	47260.97
741.24	47314.22
741.43	46824.76
741.61	46945.59
741.80	46726.46
741.99	47068.47
742.17	46736.69
742.36	46884.15
742.54	46630.20
742.73	46916.92
742.91	47174.96
743.10	46572.86
743.29	47220.02
743.47	46830.90
743.66	46466.36
743.84	46851.38
744.03	46585.15
744.21	46765.37
744.40	46677.30
744.59	46519.61
744.77	46259.52
744.96	46488.89
745.14	46122.30
745.33	46560.57
745.51	46056.77
745.70	46568.76
745.88	46232.89
746.07	46132.54
746.26	46005.57
746.44	45827.40
746.63	46064.96
746.81	46421.31
747.00	45790.53
747.18	46476.60
747.37	46228.80
747.55	46079.30
747.74	46331.20
747.92	45706.57
748.11	45595.98
748.29	45944.13
748.48	45974.85
748.66	45811.01
748.85	45942.08
749.03	46277.95
749.22	46116.16
749.41	45741.38
749.59	45915.46
749.78	45602.12
749.96	45131.09
750.15	45374.80
750.33	45714.76
750.52	45765.96
750.70	45663.56
750.89	45266.25
751.07	45321.55
751.26	45716.81
751.44	45219.15
751.63	45428.04
751.81	45182.29
752.00	45149.52
752.18	45276.49
752.37	45323.60
752.55	44766.55
752.74	44606.81
752.92	44752.21
753.10	45030.74
753.29	45202.77
753.47	44950.87
753.66	44848.47
753.84	45251.92
754.03	44703.06
754.21	44694.87
754.40	45065.55
754.58	44936.53
754.77	45024.59
754.95	44885.33
755.14	44989.78
755.32	44655.96
755.51	44604.76
755.69	44645.72
755.88	44680.53
756.06	44631.38
756.24	44563.80
756.43	44549.46
756.61	44266.84
756.80	44670.29
756.98	44240.22
757.17	44328.28
757.35	44377.43
757.54	43947.36
757.72	44545.37
757.90	44340.57
758.09	44041.57
758.27	44316.00
758.46	44348.76
758.64	44236.12
758.83	44356.96
759.01	44387.67
759.19	43959.65
759.38	44160.35
759.56	43933.03
759.75	43636.07
759.93	44041.57
760.12	43947.36
760.30	44164.45
760.48	44416.35
760.67	43685.22
760.85	44219.74
761.04	43773.28
761.22	44422.49
761.40	43863.39
761.59	43902.31
761.77	43507.05
761.96	43537.77
762.14	43527.53
762.32	43515.24
762.51	43605.35
762.69	43576.68
762.88	43683.17
763.06	43601.25
763.24	43713.89
763.43	43662.69
763.61	43472.23
763.80	43603.30
763.98	43015.54
764.16	43363.69
764.35	42888.56
764.53	42804.59
764.72	42997.10
764.90	42845.55
765.08	43251.05
765.27	43230.57
765.45	43001.20
765.63	42374.52
765.82	42937.71
766.00	42925.42
766.18	42284.41
766.37	43206.00
766.55	42571.13
766.74	42579.32
766.92	42671.48
767.10	43009.39
767.29	42722.68
767.47	42126.72
767.65	42904.95
767.84	42251.64
768.02	42939.76
768.20	42333.56
768.39	42587.51
768.57	42763.64
768.75	42415.48
768.94	42759.54
769.12	42468.73
769.30	42155.39
769.49	41864.58
769.67	42055.04
769.85	41778.56
770.04	42184.06
770.22	41964.93
770.40	41774.47
770.59	41850.24
770.77	42458.49
770.95	41999.74
771.14	41592.20
771.32	41938.30
771.50	41164.17
771.69	41266.57
771.87	41399.69
772.05	41665.92
772.24	41358.73
772.42	41532.81
772.60	41276.81
772.78	41530.76
772.97	41295.24
773.15	41627.01
773.33	41756.03
773.52	41248.14
773.70	41846.15
773.88	41287.05
774.07	41041.29
774.25	41235.85
774.43	41143.69
774.61	41309.58
774.80	41663.88
774.98	41401.74
775.16	41708.93
775.34	41893.25
775.53	41297.29
775.71	41796.99
775.89	41438.60
776.08	41391.50
776.26	41561.48
776.44	41606.53
776.62	41373.06
776.81	41325.96
776.99	41571.72
777.17	41602.44
777.35	41907.58
777.54	41862.53
777.72	41297.29
777.90	41620.87
778.08	41966.98
778.27	41819.52
778.45	42235.26
778.63	41960.83
778.81	41823.62
779.00	42345.85
779.18	41737.60
779.36	42200.44
779.54	41809.28
779.73	41649.54
779.91	42177.92
780.09	42458.49
780.27	41936.26
780.46	42341.75
780.64	42442.10
780.82	42077.57
781.00	41915.78
781.19	42429.82
781.37	42509.69
781.55	42548.60
781.73	42274.17
781.91	42091.90
782.10	42472.82
782.28	42466.68
782.46	42683.76
782.64	43081.07
782.82	42868.08
783.01	42833.27
783.19	42515.83
783.37	42509.69
783.55	42435.96
783.74	42726.77
783.92	42454.39
784.10	43160.94
784.28	42814.83
784.46	42386.81
784.64	42546.55
784.83	42571.13
785.01	42775.92
785.19	42528.12
785.37	42792.31
785.55	42466.68
785.74	42073.47
785.92	42124.67
786.10	42823.03
786.28	42423.67
786.46	42225.02
786.64	42122.62
786.83	42210.68
787.01	42583.41
787.19	42341.75
787.37	42014.08
787.55	42112.38
787.74	42249.60
787.92	42024.32
788.10	41993.60
788.28	41883.01
788.46	42128.77
788.64	41368.97
788.82	41770.37
789.01	41643.40
789.19	41866.63
789.37	41444.74
789.55	41751.94
789.73	41217.42
789.91	41401.74
790.09	41237.90
790.28	41280.91
790.46	41219.47
790.64	41340.30
790.82	41174.41
791.00	40975.76
791.18	40836.50
791.36	40779.15
791.55	41149.84
791.73	40770.96
791.91	40721.81
792.09	40760.72
792.27	40641.94
792.45	40797.59
792.63	40840.59
792.81	40576.40
793.00	40504.73
793.18	40502.68
793.36	40641.94
793.54	40428.95
793.72	40170.91
793.90	39859.62
794.08	39943.58
794.26	40207.77
794.44	39269.80
794.62	39437.73
794.81	39636.39
794.99	39591.33
795.17	39509.41
795.35	39404.97
795.53	39650.72
795.71	39476.65
795.89	39060.91
796.07	39128.49
796.25	38849.97
796.43	38694.32
796.61	38251.96
796.80	38755.76
796.98	38720.95
797.16	38612.40
797.34	38579.64
797.52	38632.88
797.70	38929.84
797.88	38403.51
798.06	37983.68
798.24	38258.10
798.42	38081.98
798.60	38108.60
798.78	37719.49
798.96	38077.88
799.14	37465.54
799.32	37520.84
799.51	37215.69
799.69	37623.23
799.87	37524.93
800.05	37225.93
800.23	37357.00
800.41	37037.51
800.59	36797.90
800.77	36931.02
800.95	36632.02
801.13	37080.52
801.31	37060.04
801.49	36560.34
801.67	36771.28
801.85	36701.65
802.03	36560.34
802.21	36173.27
802.39	35874.27
802.57	35964.38
802.75	36062.68
802.93	35823.07
803.11	35679.71
803.29	35937.76
803.47	35239.40
803.65	35714.53
803.83	35730.91
804.01	35618.27
804.19	34956.78
804.37	35552.74
804.55	35300.84
804.73	35208.68
804.91	34973.16
805.09	35104.23
805.27	34774.51
805.45	34946.54
805.63	35227.11
805.81	34692.59
805.99	34944.49
806.17	34684.40
806.35	34731.50
806.53	34483.70
806.71	34342.39
806.89	34211.32
807.07	34393.59
807.25	34418.16
807.43	33750.52
807.61	34401.78
807.79	33850.88
807.97	33832.44
808.15	33828.35
808.33	34047.48
808.51	33555.97
808.69	33299.97
808.87	33275.40
809.05	33246.72
809.23	33406.47
809.41	33242.63
809.59	33181.19
809.77	33418.75
809.95	33015.30
810.13	33248.77
810.31	32833.04
810.49	32769.55
810.67	32708.11
810.84	32888.33
811.02	32912.91
811.20	32378.39
811.38	32593.42
811.56	32550.42
811.74	32470.54
811.92	32165.40
812.10	32529.94
812.28	32486.93
812.46	32210.45
812.64	32224.79
812.82	31692.32
813.00	32157.21
813.18	32056.85
813.36	31766.04
813.53	31682.08
813.71	31464.99
813.89	31479.33
814.07	31776.28
814.25	31573.53
814.43	31292.96
814.61	31041.06
814.79	31051.30
814.97	31213.09
815.15	31489.57
815.33	30940.71
815.50	30766.63
815.68	31299.11
815.86	30940.71
816.04	31192.61
816.22	30930.47
816.40	31262.24
816.58	30430.77
816.76	30475.82
816.94	30373.42
817.11	30522.93
817.29	30572.08
817.47	30533.17
817.65	30156.34
817.83	30664.24
818.01	30051.89
818.19	29998.65
818.37	30217.78
818.54	29781.56
818.72	30041.65
818.90	30037.56
819.08	29769.27
819.26	29955.64
819.44	29873.72
819.62	29599.29
819.80	29701.69
819.97	29447.74
820.15	29441.60
820.33	29572.67
820.51	29716.03
820.69	29427.26
820.87	29632.06
821.05	29498.94
821.22	29285.95
821.40	29128.26
821.58	29187.65
821.76	29029.96
821.94	29318.72
822.12	29136.45
822.29	29087.30
822.47	28636.75
822.65	29195.84
822.83	28644.94
823.01	28673.61
823.19	28958.28
823.36	28423.76
823.54	28573.26
823.72	28235.35
823.90	28520.01
824.08	28100.18
824.25	28229.20
824.43	28198.48
824.61	28225.11
824.79	28436.05
824.97	28040.79
825.15	28186.19
825.32	28241.49
825.50	27876.95
825.68	27887.19
825.86	28147.28
826.04	28067.41
826.21	27909.72
826.39	27801.18
826.57	27799.13
826.75	27831.90
826.93	27756.12
827.10	27623.00
827.28	27551.32
827.46	27842.14
827.64	27756.12
827.81	27586.14
827.99	27502.17
828.17	27438.69
828.35	27375.20
828.53	27209.31
828.70	27287.14
828.88	27422.30
829.06	27158.11
829.24	27260.51
829.41	27016.80
829.59	27188.83
829.77	26748.52
829.95	27235.94
830.12	26793.58
830.30	26789.48
830.48	27199.07
830.66	26986.08
830.84	26932.84
831.01	26588.78
831.19	26549.87
831.37	26576.49
831.55	26859.11
831.72	26826.34
831.90	26435.18
832.08	26644.07
832.25	26670.70
832.43	26556.01
832.61	26379.89
832.79	26295.92
832.96	26248.82
833.14	26539.63
833.32	26476.14
833.50	26230.38
833.67	26357.36
833.85	26117.75
834.03	26095.22
834.20	26359.41
834.38	26031.73
834.56	26386.03
834.74	25923.19
834.91	25941.62
835.09	25728.63
835.27	25867.89
835.44	25910.90
835.62	25622.14
835.80	25763.45
835.98	26025.59
836.15	25734.78
836.33	25648.76
836.51	25597.56
836.68	25392.76
836.86	25867.89
837.04	25454.20
837.21	25659.00
837.39	25521.79
837.57	25615.99
837.75	25384.57
837.92	25056.90
838.10	25226.88
838.28	25134.72
838.45	25157.25
838.63	25284.22
838.81	25065.09
838.98	25187.97
839.16	25175.68
839.34	25054.85
839.51	25065.09
839.69	25089.67
839.87	24796.81
840.04	25015.94
840.22	24864.39
840.40	24940.16
840.57	24532.62
840.75	24391.31
840.93	24647.30
841.10	24942.21
841.28	25071.23
841.46	24700.55
841.63	24708.74
841.81	24616.58
841.98	24729.22
842.16	24888.96
842.34	24497.80
842.51	24237.71
842.69	24376.97
842.87	24458.89
843.04	24462.99
843.22	24338.06
843.40	24399.50
843.57	24336.01
843.75	24295.05
843.92	24282.77
844.10	24295.05
844.28	24219.28
844.45	24202.89
844.63	24325.77
844.81	23930.51
844.98	24120.98
845.16	24233.61
845.33	24020.63
845.51	24047.25
845.69	23807.64
845.86	23617.18
846.04	23592.60
846.21	24012.43
846.39	23742.10
846.57	23895.70
846.74	23924.37
846.92	23586.46
847.09	23555.74
847.27	23367.32
847.45	23746.20
847.62	23490.20
847.80	23565.98
847.97	23643.80
848.15	23240.35
848.32	23404.19
848.50	23572.12
848.68	23383.71
848.85	23553.69
849.03	22953.63
849.20	23834.26
849.38	23428.76
849.56	23213.73
849.73	23082.66
849.91	23148.19
850.08	23340.70
850.26	23080.61
850.43	22918.82
850.61	23221.92
850.78	22767.27
850.96	23094.94
851.14	22873.76
851.31	23006.88
851.49	22744.74
851.66	23049.89
851.84	23025.31
852.01	23004.83
852.19	22957.73
852.36	22957.73
852.54	22556.33
852.71	22697.64
852.89	22742.69
853.07	22748.84
853.24	22419.11
853.42	22648.49
853.59	22294.19
853.77	22638.25
853.94	22585.00
854.12	22709.93
854.29	22562.47
854.47	22494.89
854.64	22605.48
854.82	22357.67
854.99	22355.63
855.17	22437.55
855.34	22619.81
855.52	22286.00
855.69	22546.09
855.87	22380.20
856.04	21974.70
856.22	22034.10
856.39	22173.36
856.57	22017.71
856.74	21982.90
856.92	22232.75
857.09	21929.65
857.27	21948.08
857.44	22165.17
857.62	22150.83
857.79	22238.89
857.97	21954.22
858.14	21759.67
858.32	22058.67
858.49	21782.20
858.67	22040.24
858.84	21882.55
859.02	21733.04
859.19	21624.50
859.37	21708.47
859.54	21386.94
859.72	21628.60
859.89	21634.74
860.06	21890.74
860.24	21350.07
860.41	21579.45
860.59	21417.66
860.76	21307.07
860.94	21241.53
861.11	21538.49
861.29	21477.05
861.46	21571.25
861.64	21249.72
861.81	21352.12
861.98	21333.69
862.16	21515.96
862.33	21063.36
862.51	20917.95
862.68	21472.95
862.86	21126.85
863.03	21135.04
863.21	21038.78
863.38	21262.01
863.55	20946.62
863.73	21139.13
863.90	21169.85
864.08	21014.21
864.25	21049.02
864.43	21108.41
864.60	20602.57
864.77	21028.54
864.95	20922.05
865.12	20831.94
865.30	20754.12
865.47	20786.88
865.64	20772.55
865.82	20747.97
865.99	20819.65
866.17	20938.43
866.34	20733.64
866.51	20573.89
866.69	20606.66
866.86	20604.61
867.04	20491.98
867.21	20827.84
867.38	20405.96
867.56	20385.48
867.73	20448.97
867.91	20399.82
868.08	20399.82
868.25	20272.84
868.43	20207.31
868.60	20375.24
868.78	20043.47
868.95	20401.86
869.12	20317.90
869.30	20113.10
869.47	20348.62
869.64	19887.82
869.82	20184.78
869.99	19853.01
870.16	20338.38
870.34	19777.23
870.51	20125.39
870.69	19801.81
870.86	19674.84
871.03	20084.43
871.21	19633.88
871.38	19939.02
871.55	19637.97
871.73	19560.15
871.90	19640.02
872.07	19472.09
872.25	19384.02
872.42	19437.27
872.59	19613.40
872.77	19424.98
872.94	19586.77
873.11	19680.98
873.29	19355.35
873.46	19158.75
873.63	19445.46
873.81	19193.56
873.98	19119.84
874.15	19367.64
874.33	19154.65
874.50	18925.28
874.67	19042.01
874.85	19189.47
875.02	19128.03
875.19	19052.25
875.37	18775.78
875.54	19009.25
875.71	19203.80
875.88	18697.95
876.06	18716.39
876.23	18722.53
876.40	18769.63
876.58	18777.83
876.75	18519.78
876.92	18558.69
877.10	18726.63
877.27	18642.66
877.44	18525.93
877.61	18216.68
877.79	18401.00
877.96	18562.79
878.13	18294.50
878.31	18087.66
878.48	18210.54
878.65	18220.78
878.82	18343.66
879.00	18128.62
879.17	18308.84
879.34	18306.79
879.51	18226.92
879.69	18116.33
879.86	17977.07
880.03	17870.58
880.21	17536.76
880.38	17927.92
880.55	18110.19
880.72	17768.18
880.90	17958.64
881.07	18034.41
881.24	17821.42
881.41	18036.46
881.59	17762.03
881.76	17729.27
881.93	17854.19
882.10	17678.07
882.28	17741.55
882.45	17753.84
882.62	17526.52
882.79	17811.18
882.96	17417.97
883.14	17401.59
883.31	17620.72
883.48	17538.80
883.65	17563.38
883.83	17510.13
884.00	17581.81
884.17	17311.48
884.34	17499.89
884.51	17485.56
884.69	17247.99
884.86	17213.18
885.03	17311.48
885.20	17209.08
885.38	17600.24
885.55	17198.84
885.72	17295.10
885.89	17207.03
886.06	17428.21
886.24	17288.95
886.41	16918.27
886.58	17229.56
886.75	17104.64
886.92	17086.20
887.10	17010.43
887.27	16936.70
887.44	17172.22
887.61	17262.33
887.78	17268.47
887.95	17055.48
888.13	17061.63
888.30	16799.49
888.47	16967.42
888.64	16699.14
888.81	16729.86
888.99	16441.09
889.16	16762.62
889.33	16799.49
889.50	16477.96
889.67	16764.67
889.84	16598.79
890.01	16748.29
890.19	16572.16
890.36	16459.52
890.53	16492.29
890.70	16307.98
890.87	16492.29
891.04	16443.14
891.22	16518.92
891.39	16160.52
891.56	16248.58
891.73	16115.47
891.90	16195.34
892.07	15998.73
892.24	16252.68
892.42	16221.96
892.59	16289.54
892.76	16178.95
892.93	16082.70
893.10	16232.20
893.27	16275.21
893.44	15841.04
893.61	16279.30
893.79	15886.09
893.96	15920.91
894.13	16244.49
894.30	16029.45
894.47	15619.86
894.64	15855.37
894.81	16060.17
894.98	15904.53
895.15	16068.36
895.33	15879.95
895.50	15896.33
895.67	15857.42
895.84	16023.31
896.01	15869.71
896.18	15806.22
896.35	16054.03
896.52	16058.12
896.69	15726.35
896.86	15920.91
897.04	15906.57
897.21	16027.40
897.38	16117.51
897.55	16039.69
897.72	16066.31
897.89	15709.97
898.06	15765.26
898.23	15992.59
898.40	15736.59
898.57	15882.00
898.74	15828.75
898.91	15736.59
899.08	15834.89
899.26	15701.78
899.43	15972.11
899.60	15695.63
899.77	15701.78
899.94	15802.13
900.11	15671.06
900.28	15820.56
900.45	15597.33
900.62	15550.23
900.79	15734.54
900.96	15593.23
901.13	15417.11
901.30	15585.04
901.47	15466.26
901.64	15603.47
901.81	15644.43
901.98	15408.92
902.15	15535.89
902.32	15490.84
902.49	15523.60
902.66	15806.22
902.83	15490.84
903.01	15589.14
903.18	15628.05
903.35	15613.71
903.52	15634.19
903.69	15671.06
903.86	15630.10
904.03	15703.82
904.20	15808.27
904.37	15642.39
904.54	15585.04
904.71	15640.34
904.88	15859.47
905.05	15351.57
905.22	15857.42
905.39	15443.73
905.56	15642.39
905.73	15570.71
905.90	15775.50
906.07	15578.90
906.24	15658.77
906.41	15425.30
906.58	15648.53
906.75	15537.94
906.92	15484.69
907.09	15386.39
907.26	15695.63
907.43	15595.28
907.60	15361.81
907.77	15554.32
907.93	15537.94
908.10	15443.73
908.27	15544.08
908.44	15396.63
908.61	15294.23
908.78	15378.20
908.95	15339.29
909.12	15431.44
909.29	15462.16
909.46	15415.06
909.63	15646.48
909.80	15380.25
909.97	15249.18
910.14	15337.24
910.31	15222.55
910.48	15410.96
910.65	15290.13
910.82	15304.47
910.99	15163.16
911.16	15095.58
911.33	15312.66
911.50	15154.97
911.66	15165.21
911.83	15208.22
912.00	15105.82
912.17	14984.99
912.34	14960.41
912.51	14864.16
912.68	14708.51
912.85	14843.68
913.02	15148.82
913.19	14950.17
913.36	14962.46
913.53	15001.37
913.70	14688.03
913.86	14745.38
914.03	14997.28
914.20	14642.98
914.37	14724.90
914.54	14679.84
914.71	14722.85
914.88	14726.94
915.05	14784.29
915.22	14509.86
915.39	14788.38
915.55	14364.45
915.72	14577.44
915.89	14376.74
916.06	14382.88
916.23	14479.14
916.40	14352.16
916.57	14305.06
916.74	14090.02
916.91	14114.60
917.07	14173.99
917.24	14012.20
917.41	14022.44
917.58	14225.19
917.75	13938.48
917.92	14042.92
918.09	13823.79
918.26	14028.59
918.42	13948.72
918.59	13797.17
918.76	13733.68
918.93	13807.41
919.10	13770.54
919.27	13834.03
919.44	13932.33
919.60	13709.10
919.77	13610.80
919.94	13586.22
920.11	13500.21
920.28	13475.63
920.45	13367.09
920.61	13201.21
920.78	13442.87
920.95	13164.34
921.12	13233.97
921.29	13029.18
921.46	13246.26
921.62	12977.98
921.79	13125.43
921.96	12756.80
922.13	12947.26
922.30	12875.58
922.47	12713.79
922.63	12805.95
922.80	12824.38
922.97	12545.86
923.14	12435.27
923.31	12678.97
923.47	12545.86
923.64	12834.62
923.81	12472.13
923.98	12390.21
924.15	12181.32
924.32	12336.96
924.48	12431.17
924.65	12402.50
924.82	12216.13
924.99	12033.86
925.15	11900.75
925.32	12207.94
925.49	11984.71
925.66	12033.86
925.83	11917.13
925.99	11962.19
926.16	11808.59
926.33	11941.71
926.50	11743.05
926.67	11892.55
926.83	11718.48
927.00	11708.24
927.17	11683.66
927.34	11691.85
927.50	11497.30
927.67	11528.02
927.84	11493.20
928.01	11382.61
928.17	11374.42
928.34	11280.21
928.51	11020.12
928.68	11099.99
928.84	11167.57
929.01	11048.79
929.18	10684.25
929.35	11034.46
929.51	11036.50
929.68	10653.53
929.85	10733.40
930.02	10833.75
930.18	10669.92
930.35	10698.59
930.52	10506.08
930.69	10653.53
930.85	10579.81
931.02	10389.35
931.19	10362.72
931.36	10409.83
931.52	10289.00
931.69	10430.30
931.86	10358.63
932.02	10291.04
932.19	10094.44
932.36	10084.20
932.53	10145.64
932.69	10051.43
932.86	10227.56
933.03	9971.56
933.19	9801.58
933.36	9815.91
933.53	9946.98
933.70	9598.83
933.86	9744.24
934.03	9734.00
934.20	9744.24
934.36	9854.83
934.53	9373.55
934.70	9361.27
934.86	9525.10
935.03	9097.08
935.20	9174.90
935.36	8972.15
935.53	9166.71
935.70	8992.63
935.86	8902.52
936.03	8701.82
936.20	8699.77
936.36	8759.16
936.53	8656.76
936.70	8542.08
936.86	8560.51
937.03	8503.17
937.20	8302.47
937.36	8345.47
937.53	8085.38
937.70	7958.41
937.86	8003.46
938.03	7876.49
938.20	8028.04
938.36	7802.76
938.53	7782.28
938.70	7464.85
938.86	7522.19
939.03	7495.57
939.20	7399.31
939.36	7284.62
939.53	7260.05
939.70	7497.61
939.86	6971.29
940.03	6997.91
940.19	6868.89
940.36	7108.50
940.53	6889.37
940.69	6625.18
940.86	6571.93
941.03	6696.86
941.19	6375.33
941.36	6481.82
941.52	6410.14
941.69	6377.37
941.86	6322.08
942.02	6193.06
942.19	6070.18
942.35	6172.58
942.52	6070.18
942.69	6078.37
942.85	5941.16
943.02	5935.01
943.18	5910.44
943.35	5752.74
943.52	5812.14
943.68	5754.79
943.85	5595.05
944.01	5771.18
944.18	5576.62
944.35	5504.94
944.51	5541.80
944.68	5353.39
944.84	5470.12
945.01	5433.26
945.17	5521.32
945.34	5468.08
945.51	5654.44
945.67	5435.31
945.84	5447.60
946.00	5230.51
946.17	5373.87
946.33	5240.75
946.50	5351.34
946.67	5420.97
946.83	5271.47
947.00	5296.05
947.16	5330.86
947.33	5287.86
947.49	5300.14
947.66	5193.65
947.82	5392.30
947.99	5267.38
948.16	5322.67
948.32	5216.18
948.49	5369.77
948.65	5371.82
948.82	5320.62
948.98	5337.01
949.15	5193.65
949.31	5263.28
949.48	5238.70
949.64	5244.85
949.81	5189.55
949.97	5271.47
950.14	5339.05
950.30	5277.62
950.47	5320.62
950.63	5373.87
950.80	5222.32
950.96	5193.65
951.13	5326.77
951.30	5289.90
951.46	5312.43
951.63	5355.44
951.79	5359.53
951.96	5396.40
952.12	5402.54
952.29	5402.54
952.45	5328.81
952.62	5314.48
952.78	5400.49
952.94	5459.88
953.11	5267.38
953.27	5418.93
953.44	5531.56
953.60	5402.54
953.77	5212.08
953.93	5363.63
954.10	5283.76
954.26	5463.98
954.43	5398.45
954.59	5523.37
954.76	5500.84
954.92	5445.55
955.09	5509.04
955.25	5427.12
955.42	5380.01
955.58	5554.09
955.75	5412.78
955.91	5519.28
956.07	5386.16
956.24	5343.15
956.40	5359.53
956.57	5427.12
956.73	5388.21
956.90	5429.17
957.06	5390.25
957.23	5459.88
957.39	5427.12
957.56	5535.66
957.72	5369.77
957.88	5414.83
958.05	5566.38
958.21	5482.41
958.38	5492.65
958.54	5433.26
958.71	5488.56
958.87	5337.01
959.03	5363.63
959.20	5472.17
959.36	5418.93
959.53	5502.89
959.69	5500.84
959.85	5418.93
960.02	5265.33
960.18	5472.17
960.35	5375.92
960.51	5425.07
960.68	5294.00
960.84	5343.15
961.00	5398.45
961.17	5355.44
961.33	5484.46
961.50	5377.97
961.66	5459.88
961.82	5392.30
961.99	5406.64
962.15	5506.99
962.31	5437.36
962.48	5257.14
962.64	5447.60
962.81	5384.11
962.97	5449.64
963.13	5423.02
963.30	5361.58
963.46	5324.72
963.62	5359.53
963.79	5345.20
963.95	5269.42
964.12	5253.04
964.28	5314.48
964.44	5443.50
964.61	5275.57
964.77	5357.49
964.93	5599.15
965.10	5308.34
965.26	5154.74
965.42	5269.42
965.59	5242.80
965.75	5261.23
965.92	5195.70
966.08	5246.90
966.24	5191.60
966.41	5115.83
966.57	5218.22
966.73	5177.26
966.90	5115.83
967.06	5169.07
967.22	5296.05
967.39	5271.47
967.55	5244.85
967.71	5142.45
967.88	5218.22
968.04	5136.31
968.20	5197.74
968.37	5117.87
968.53	5177.26
968.69	5105.59
968.85	5103.54
969.02	5250.99
969.18	5263.28
969.34	4990.90
969.51	5115.83
969.67	5124.02
969.83	4972.47
970.00	5316.53
970.16	5081.01
970.32	5146.55
970.48	5132.21
970.65	5062.58
970.81	4849.59
970.97	4923.32
971.14	4984.76
971.30	5126.07
971.46	5031.86
971.63	4892.60
971.79	4884.41
971.95	4888.50
972.11	4949.94
972.28	5027.76
972.44	5001.14
972.60	4929.46
972.76	4847.54
972.93	4878.26
973.09	5050.29
973.25	4919.22
973.42	4814.77
973.58	4921.27
973.74	4816.82
973.90	4984.76
974.07	4788.15
974.23	4865.97
974.39	4929.46
974.55	4755.38
974.72	4673.46
974.88	4779.96
975.04	4786.10
975.20	4677.56
975.37	4820.92
975.53	4822.97
975.69	4800.44
975.85	4745.14
976.01	4792.25
976.18	4712.38
976.34	4671.42
976.50	4765.62
976.66	4687.80
976.83	4612.03
976.99	4720.57
977.15	4630.46
977.31	4556.73
977.47	4659.13
977.64	4777.91
977.80	4589.50
977.96	4554.68
978.12	4636.60
978.29	4491.20
978.45	4440.00
978.61	4485.05
978.77	4552.63
978.93	4593.59
979.10	4448.19
979.26	4501.44
979.42	4487.10
979.58	4392.89
979.74	4442.04
979.91	4427.71
980.07	4499.39
980.23	4523.96
980.39	4286.40
980.55	4435.90
980.71	4419.52
980.88	4417.47
981.04	4218.82
981.20	4478.91
981.36	4366.27
981.52	4425.66
981.68	4302.78
981.85	4300.73
982.01	4308.93
982.17	4222.91
982.33	4245.44
982.49	4335.55
982.65	4267.97
982.82	4165.57
982.98	4259.78
983.14	4171.71
983.30	4329.41
983.46	4194.24
983.62	4257.73
983.79	4247.49
983.95	4216.77
984.11	4106.18
984.27	4267.97
984.43	4153.28
984.59	4206.53
984.75	4175.81
984.91	4018.11
985.08	4300.73
985.24	4149.18
985.40	4048.83
985.56	4097.99
985.72	4229.06
985.88	4190.14
986.04	4136.90
986.20	3977.16
986.37	4050.88
986.53	3923.91
986.69	4075.46
986.85	4028.35
987.01	3911.62
987.17	4022.21
987.33	3979.20
987.49	3811.27
987.65	4165.57
987.82	4118.47
987.98	3942.34
988.14	3956.68
988.30	4065.22
988.46	3872.71
988.62	3895.24
988.78	3782.60
988.94	3862.47
989.10	3821.51
989.26	3813.32
989.42	3911.62
989.59	3776.45
989.75	3758.02
989.91	3815.37
990.07	3649.48
990.23	3770.31
990.39	3792.84
990.55	3950.53
990.71	3827.65
990.87	3848.13
991.03	3850.18
991.19	3721.16
991.35	3780.55
991.51	3831.75
991.67	3817.41
991.83	3694.54
992.00	3770.31
992.16	3706.82
992.32	3753.93
992.48	3768.26
992.64	3565.51
992.80	3698.63
992.96	3678.15
993.12	3794.89
993.28	3651.53
993.44	3702.73
993.60	3698.63
993.76	3674.06
993.92	3592.14
994.08	3719.11
994.24	3590.09
994.40	3491.79
994.56	3602.38
994.72	3604.42
994.88	3491.79
995.04	3592.14
995.20	3497.93
995.36	3624.90
995.52	3532.75
995.68	3524.55
995.84	3553.23
996.00	3588.04
996.16	3463.12
996.32	3432.40
996.48	3426.25
996.64	3629.00
996.80	3422.16
996.96	3481.55
997.12	3381.20
997.28	3375.05
997.44	3348.43
997.60	3440.59
997.76	3321.81
997.92	3370.96
998.08	3436.49
998.24	3129.30
998.40	3461.07
998.56	3471.31
998.72	3188.69
998.88	3295.18
999.04	3330.00
999.20	3422.16
999.36	3291.09
999.52	3440.59
999.68	3366.86
999.84	3336.14
1000.00	3393.48
1000.16	3213.26
1000.32	3112.91
1000.48	3323.85
1000.64	3117.01
1000.80	3278.80
1000.95	3231.69
1001.11	3219.41
1001.27	3133.39
1001.43	3233.74
1001.59	3080.14
1001.75	3180.50
1001.91	3162.06
1002.07	3133.39
1002.23	3231.69
1002.39	3151.82
1002.55	3198.93
1002.71	3037.14
1002.87	3121.10
1003.03	3106.77
1003.19	3123.15
1003.34	3104.72
1003.50	3121.10
1003.66	3141.58
1003.82	3063.76
1003.98	3063.76
1004.14	3041.23
1004.30	2987.99
1004.46	2904.02
1004.62	2981.84
1004.78	3026.90
1004.94	2979.79
1005.09	3129.30
1005.25	3002.32
1005.41	2981.84
1005.57	2983.89
1005.73	2922.45
1005.89	2901.97
1006.05	3014.61
1006.21	2955.22
1006.37	2916.31
1006.52	2953.17
1006.68	2951.12
1006.84	2942.93
1007.00	2834.39
1007.16	3002.32
1007.32	2912.21
1007.48	2838.48
1007.64	2887.64
1007.79	2918.36
1007.95	2834.39
1008.11	2932.69
1008.27	2815.96
1008.43	2893.78
1008.59	2869.20
1008.75	2883.54
1008.91	2944.98
1009.06	2867.16
1009.22	2932.69
1009.38	2861.01
1009.54	2854.87
1009.70	2844.63
1009.86	2918.36
1010.01	2813.91
1010.17	2797.53
1010.33	2865.11
1010.49	2789.33
1010.65	2828.24
1010.81	2731.99
1010.96	2764.76
1011.12	2727.89
1011.28	2668.50
1011.44	2815.96
1011.60	2742.23
1011.76	2744.28
1011.91	2684.89
1012.07	2725.85
1012.23	2639.83
1012.39	2656.22
1012.55	2609.11
1012.71	2699.22
1012.86	2715.61
1013.02	2672.60
1013.18	2709.46
1013.34	2652.12
1013.50	2678.74
1013.65	2645.98
1013.81	2641.88
1013.97	2621.40
1014.13	2613.21
1014.29	2635.74
1014.44	2668.50
1014.60	2596.82
1014.76	2574.30
1014.92	2652.12
1015.07	2557.91
1015.23	2598.87
1015.39	2541.53
1015.55	2527.19
1015.71	2590.68
1015.86	2461.66
1016.02	2512.86
1016.18	2394.08
1016.34	2537.43
1016.49	2551.77
1016.65	2557.91
1016.81	2475.99
1016.97	2469.85
1017.12	2543.58
1017.28	2486.23
1017.44	2508.76
1017.60	2432.99
1017.75	2564.06
1017.91	2455.51
1018.07	2514.91
1018.23	2521.05
1018.38	2457.56
1018.54	2357.21
1018.70	2437.08
1018.86	2394.08
1019.01	2322.40
1019.17	2435.03
1019.33	2559.96
1019.49	2320.35
1019.64	2416.60
1019.80	2400.22
1019.96	2457.56
1020.12	2453.47
1020.27	2306.01
1020.43	2404.32
1020.59	2389.98
1020.74	2326.49
1020.90	2426.84
1021.06	2191.33
1021.22	2355.16
1021.37	2342.88
1021.53	2334.68
1021.69	2326.49
1021.84	2363.36
1022.00	2330.59
1022.16	2277.34
1022.31	2363.36
1022.47	2349.02
1022.63	2281.44
1022.79	2230.24
1022.94	2252.77
1023.10	2342.88
1023.26	2279.39
1023.41	2279.39
1023.57	2248.67
1023.73	2195.42
1023.88	2279.39
1024.04	2240.48
1024.20	2256.86
1024.35	2285.53
1024.51	2351.07
1024.67	2220.00
1024.82	2322.40
1024.98	2238.43
1025.14	2246.62
1025.29	2256.86
1025.45	2277.34
1025.61	2166.75
1025.76	2121.70
1025.92	2217.95
1026.08	2166.75
1026.23	2297.82
1026.39	2240.48
1026.55	2207.71
1026.70	2150.37
1026.86	2158.56
1027.02	2295.77
1027.17	2209.76
1027.33	2224.09
1027.48	2133.98
1027.64	2146.27
1027.80	2123.74
1027.95	2215.90
1028.11	2078.69
1028.27	2199.52
1028.42	2174.94
1028.58	2043.87
1028.73	2076.64
1028.89	2060.26
1029.05	2215.90
1029.20	2129.89
>>>>>End Processed Spectral Data<<<<<
