SpectraSuite Data File
++++++++++++++++++++++++++++++++++++
Date: Fri Jun 02 14:44:33 CEST 2017
User: INFO_000
Dark Spectrum Present: No
Reference Spectrum Present: No
Number of Sampled Component Spectra: 1
Spectrometers: USB4H00879
Integration Time (usec): 80000 (USB4H00879)
Spectra Averaged: 1 (USB4H00879)
Boxcar Smoothing: 0 (USB4H00879)
Correct for Electrical Dark: No (USB4H00879)
Strobe/Lamp Enabled: No (USB4H00879)
Correct for Detector Non-linearity: No (USB4H00879)
Correct for Stray Light: No (USB4H00879)
Number of Pixels in Processed Spectrum: 3648
>>>>>Begin Processed Spectral Data<<<<<
345.13	1267.69
345.34	1267.69
345.56	1267.69
345.78	1314.80
345.99	1370.09
346.21	1708.01
346.42	1691.62
346.64	1646.57
346.86	1794.02
347.07	1675.24
347.29	1722.34
347.50	1617.90
347.72	1660.90
347.94	1728.49
348.15	1591.27
348.37	1597.42
348.59	1658.85
348.80	1679.33
349.02	1791.97
349.23	1914.85
349.45	1738.73
349.67	1847.27
349.88	1808.36
350.10	1935.33
350.31	1849.32
350.53	1824.74
350.75	1927.14
350.96	1796.07
351.18	1869.80
351.39	1806.31
351.61	1804.26
351.82	1884.13
352.04	1914.85
352.26	1847.27
352.47	1945.57
352.69	1900.52
352.90	1841.12
353.12	1900.52
353.34	1804.26
353.55	1847.27
353.77	1820.64
353.98	1869.80
354.20	1863.65
354.41	1890.28
354.63	1871.84
354.85	1964.00
355.06	1953.76
355.28	1787.88
355.49	1757.16
355.71	1861.60
355.92	1802.21
356.14	1849.32
356.35	1937.38
356.57	1867.75
356.79	1859.56
357.00	1826.79
357.22	2004.96
357.43	1877.99
357.65	2019.30
357.86	1898.47
358.08	1863.65
358.29	1925.09
358.51	2027.49
358.72	1982.43
358.94	1884.13
359.16	1943.52
359.37	1955.81
359.59	1939.43
359.80	1929.19
360.02	1923.04
360.23	1970.15
360.45	1984.48
360.66	2050.02
360.88	1851.36
361.09	1861.60
361.31	2025.44
361.52	1927.14
361.74	2095.07
361.95	2041.82
362.17	1937.38
362.38	2086.88
362.60	2021.35
362.81	1959.91
363.03	1865.70
363.24	2011.11
363.46	2082.78
363.67	2023.39
363.89	1990.63
364.10	1935.33
364.32	1929.19
364.53	2050.02
364.75	1906.66
364.96	2017.25
365.18	1988.58
365.39	1980.39
365.61	1982.43
365.82	2129.89
366.04	2074.59
366.25	2002.91
366.47	1990.63
366.68	2023.39
366.90	2019.30
367.11	2109.41
367.33	2148.32
367.54	2060.26
367.76	2056.16
367.97	2047.97
368.19	2078.69
368.40	2062.30
368.62	1980.39
368.83	1943.52
369.05	2054.11
369.26	1980.39
369.48	1953.76
369.69	2025.44
369.91	2123.74
370.12	2004.96
370.33	2080.74
370.55	1972.19
370.76	2052.06
370.98	2097.12
371.19	2047.97
371.41	2013.15
371.62	2017.25
371.84	1986.53
372.05	2197.47
372.27	2033.63
372.48	2107.36
372.69	2119.65
372.91	2142.18
373.12	2097.12
373.34	2113.50
373.55	2027.49
373.77	2107.36
373.98	2136.03
374.20	2101.22
374.41	2260.96
374.62	2156.51
374.84	2230.24
375.05	2088.93
375.27	2205.66
375.48	2256.86
375.70	2224.09
375.91	2170.85
376.12	2310.11
376.34	2119.65
376.55	2185.18
376.77	2236.38
376.98	2191.33
377.19	2115.55
377.41	2119.65
377.62	2201.57
377.84	2238.43
378.05	2269.15
378.27	2121.70
378.48	2260.96
378.69	2314.20
378.91	2283.49
379.12	2181.09
379.34	2183.13
379.55	2254.81
379.76	2252.77
379.98	2238.43
380.19	2199.52
380.41	2246.62
380.62	2342.88
380.83	2187.23
381.05	2254.81
381.26	2465.75
381.47	2213.85
381.69	2244.57
381.90	2418.65
382.12	2263.01
382.33	2277.34
382.54	2385.88
382.76	2295.77
382.97	2265.05
383.19	2260.96
383.40	2375.64
383.61	2232.29
383.83	2316.25
384.04	2338.78
384.25	2387.93
384.47	2416.60
384.68	2303.96
384.89	2332.64
385.11	2310.11
385.32	2346.97
385.54	2457.56
385.75	2418.65
385.96	2389.98
386.18	2422.75
386.39	2420.70
386.60	2338.78
386.82	2432.99
387.03	2400.22
387.24	2486.23
387.46	2506.71
387.67	2549.72
387.88	2559.96
388.10	2527.19
388.31	2435.03
388.52	2613.21
388.74	2531.29
388.95	2537.43
389.16	2535.39
389.38	2533.34
389.59	2629.59
389.80	2660.31
390.02	2590.68
390.23	2590.68
390.44	2588.63
390.66	2478.04
390.87	2506.71
391.08	2576.34
391.30	2713.56
391.51	2605.02
391.72	2672.60
391.94	2666.46
392.15	2709.46
392.36	2572.25
392.58	2557.91
392.79	2619.35
393.00	2723.80
393.22	2684.89
393.43	2844.63
393.64	2871.25
393.85	2750.42
394.07	2676.70
394.28	2772.95
394.49	2729.94
394.71	2752.47
394.92	2813.91
395.13	2674.65
395.35	2723.80
395.56	2713.56
395.77	2856.92
395.98	2811.86
396.20	2877.40
396.41	2906.07
396.62	2852.82
396.84	2848.72
397.05	2760.66
397.26	2838.48
397.47	3020.75
397.69	2873.30
397.90	2973.65
398.11	2963.41
398.32	2856.92
398.54	2813.91
398.75	2830.29
398.96	2912.21
399.18	2961.36
399.39	3012.56
399.60	3008.47
399.81	2944.98
400.03	2877.40
400.24	3295.18
400.45	3037.14
400.66	3043.28
400.88	2975.70
401.09	3184.59
401.30	2969.55
401.51	3141.58
401.73	3067.86
401.94	3104.72
402.15	3108.82
402.36	3147.73
402.58	3147.73
402.79	3153.87
403.00	3106.77
403.21	3270.61
403.43	3162.06
403.64	3243.98
403.85	3026.90
404.06	3211.22
404.27	3200.98
404.49	3229.65
404.70	3149.78
404.91	3227.60
405.12	3157.97
405.34	3252.17
405.55	3391.44
405.76	3125.20
405.97	3186.64
406.19	3305.42
406.40	3221.45
406.61	3246.03
406.82	3426.25
407.03	3295.18
407.25	3301.33
407.46	3448.78
407.67	3465.16
407.88	3524.55
408.09	3383.24
408.31	3428.30
408.52	3418.06
408.73	3452.88
408.94	3428.30
409.15	3483.59
409.37	3508.17
409.58	3477.45
409.79	3598.28
410.00	3530.70
410.21	3518.41
410.43	3510.22
410.64	3469.26
410.85	3553.23
411.06	3416.01
411.27	3475.40
411.48	3579.85
411.70	3643.34
411.91	3686.34
412.12	3643.34
412.33	3649.48
412.54	3684.30
412.76	3629.00
412.97	3774.41
413.18	3530.70
413.39	3698.63
413.60	3620.81
413.81	3678.15
414.03	3669.96
414.24	3651.53
414.45	3897.28
414.66	3801.03
414.87	3772.36
415.08	3647.43
415.30	3739.59
415.51	3823.56
415.72	3751.88
415.93	3772.36
416.14	3762.12
416.35	3770.31
416.56	3837.89
416.78	3862.47
416.99	3878.85
417.20	3878.85
417.41	3975.11
417.62	3958.72
417.83	4007.87
418.04	3889.09
418.26	3993.54
418.47	3887.04
418.68	4007.87
418.89	4011.97
419.10	4102.08
419.31	4040.64
419.52	4095.94
419.73	3975.11
419.95	4149.18
420.16	3981.25
420.37	3987.40
420.58	4030.40
420.79	3815.37
421.00	4110.27
421.21	4163.52
421.42	3985.35
421.63	4184.00
421.85	4124.61
422.06	4227.01
422.27	4188.10
422.48	4198.34
422.69	4353.98
422.90	4241.34
423.11	4140.99
423.32	4155.33
423.53	4233.15
423.75	4409.28
423.96	4448.19
424.17	4353.98
424.38	4431.80
424.59	4440.00
424.80	4591.55
425.01	4456.38
425.22	4378.56
425.43	4409.28
425.64	4605.88
425.85	4618.17
426.06	4659.13
426.28	4523.96
426.49	4575.16
426.70	4519.87
426.91	4579.26
427.12	4659.13
427.33	4765.62
427.54	4534.20
427.75	4646.84
427.96	4810.68
428.17	4763.58
428.38	4726.71
428.59	4939.70
428.80	4808.63
429.01	4784.06
429.23	4853.69
429.44	5050.29
429.65	5050.29
429.86	4927.41
430.07	4870.07
430.28	4980.66
430.49	4990.90
430.70	5177.26
430.91	4972.47
431.12	5195.70
431.33	5246.90
431.54	5081.01
431.75	5156.79
431.96	5005.24
432.17	4997.04
432.38	5119.92
432.59	5377.97
432.80	5318.57
433.01	5324.72
433.22	5443.50
433.43	5406.64
433.64	5334.96
433.85	5277.62
434.06	5476.27
434.27	5304.24
434.49	5427.12
434.70	5543.85
434.91	5496.75
435.12	5523.37
435.33	5646.25
435.54	5480.36
435.75	5437.36
435.96	5539.76
436.17	5468.08
436.38	5705.64
436.59	5699.50
436.80	5713.83
437.01	5746.60
437.22	5853.09
437.43	5711.78
437.64	5541.80
437.85	5752.74
438.06	5775.27
438.27	5769.13
438.48	5777.32
438.69	5928.87
438.90	5801.90
439.11	5756.84
439.32	6064.04
439.53	6000.55
439.74	5957.54
439.95	6033.32
440.16	5930.92
440.37	6002.60
440.57	5892.01
440.78	5949.35
440.99	6223.78
441.20	6049.70
441.41	5906.34
441.62	6098.85
441.83	6033.32
442.04	6156.19
442.25	6229.92
442.46	6018.98
442.67	6205.35
442.88	6741.91
443.09	6117.28
443.30	6156.19
443.51	6279.07
443.72	6320.03
443.93	6209.44
444.14	6492.06
444.35	6295.46
444.56	6399.90
444.77	6453.15
444.98	6440.86
445.19	6471.58
445.40	6399.90
445.61	6363.04
445.81	6498.20
446.02	6492.06
446.23	6465.44
446.44	6350.75
446.65	6514.59
446.86	6371.23
447.07	6571.93
447.28	6705.05
447.49	6692.76
447.70	6610.84
447.91	6733.72
448.12	6614.94
448.33	6819.74
448.54	6821.78
448.74	6610.84
448.95	6688.67
449.16	6721.43
449.37	7069.59
449.58	6829.98
449.79	6911.89
450.00	6670.23
450.21	6905.75
450.42	7065.49
450.63	6999.96
450.84	6938.52
451.05	6928.28
451.25	6995.86
451.46	6922.13
451.67	6991.77
451.88	7178.13
452.09	7196.56
452.30	7153.55
452.51	7198.61
452.72	7284.62
452.93	7481.23
453.13	7178.13
453.34	7221.14
453.55	7432.08
453.76	7366.54
453.97	7663.50
454.18	7350.16
454.39	7524.24
454.60	7407.50
454.81	7563.15
455.01	7536.52
455.22	7186.32
455.43	7718.79
455.64	7841.67
455.85	7784.33
456.06	7987.08
456.27	7753.61
456.48	7782.28
456.68	7878.54
456.89	7989.13
457.10	8204.16
457.31	7931.78
457.52	7942.02
457.73	8142.72
457.94	8339.33
458.14	8101.76
458.35	8411.01
458.56	8210.31
458.77	8146.82
458.98	8300.42
459.19	8437.63
459.39	8417.15
459.60	8556.41
459.81	8644.48
460.02	8753.02
460.23	8662.91
460.44	8726.39
460.65	8841.08
460.85	8843.13
461.06	8824.70
461.27	8511.36
461.48	8974.20
461.69	9039.73
461.89	8904.57
462.10	9006.97
462.31	8839.03
462.52	8904.57
462.73	9121.65
462.94	9363.31
463.14	9389.94
463.35	9168.76
463.56	9811.82
463.77	9437.04
463.98	9344.88
464.18	9529.20
464.39	9609.07
464.60	9938.79
464.81	9672.56
465.02	9736.04
465.23	10037.09
465.43	9711.47
465.64	10030.95
465.85	9992.04
466.06	9807.72
466.27	10436.45
466.47	10149.73
466.68	10258.28
466.89	10043.24
467.10	10454.88
467.30	10030.95
467.51	10368.87
467.72	10456.93
467.93	10176.36
468.14	10624.86
468.34	10504.03
468.55	10551.14
468.76	10792.80
468.97	10579.81
469.17	10803.04
469.38	10856.28
469.59	11018.07
469.80	10688.35
470.01	10870.62
470.21	10956.63
470.42	11312.98
470.63	11235.16
470.84	11198.29
471.04	11409.23
471.25	11308.88
471.46	11425.62
471.67	11700.05
471.87	11554.64
472.08	11593.55
472.29	11896.65
472.50	11638.61
472.70	11644.75
472.91	11882.31
473.12	11980.62
473.33	12003.14
473.53	12085.06
473.74	11982.67
473.95	12250.95
474.16	12502.85
474.36	12318.53
474.57	12472.13
474.78	12767.04
474.99	12457.79
475.19	12336.96
475.40	12814.14
475.61	12977.98
475.81	13182.77
476.02	13283.13
476.23	13076.28
476.44	12977.98
476.64	13526.83
476.85	13614.90
477.06	13307.70
477.27	13715.25
477.47	13596.46
477.68	13637.42
477.89	13834.03
478.09	13700.91
478.30	13868.84
478.51	13797.17
478.71	13977.39
478.92	14151.46
479.13	14229.29
479.34	14462.76
479.54	14423.84
479.75	14436.13
479.96	14337.83
480.16	14751.52
480.37	14319.40
480.58	14958.36
480.78	15019.80
480.99	15214.36
481.20	15161.11
481.41	15582.99
481.61	15374.10
481.82	15456.02
482.03	15527.70
482.23	15537.94
482.44	15810.32
482.65	15927.05
482.85	16123.66
483.06	15916.81
483.27	16291.59
483.47	15922.96
483.68	16293.64
483.89	16453.38
484.09	16391.94
484.30	16465.67
484.51	16758.53
484.71	16928.51
484.92	16789.25
485.13	17104.64
485.33	17045.24
485.54	17090.30
485.75	17561.33
485.95	17336.06
486.16	17331.96
486.37	17657.59
486.57	17706.74
486.78	17837.81
486.98	17909.49
487.19	18056.94
487.40	18302.70
487.60	17723.12
487.81	18314.98
488.02	18155.24
488.22	18314.98
488.43	18392.81
488.64	18722.53
488.84	18765.54
489.05	18867.94
489.25	18906.85
489.46	19195.61
489.67	18980.57
489.87	19353.30
490.08	19263.19
490.29	19246.81
490.49	19803.86
490.70	19642.07
490.90	19605.20
491.11	19525.33
491.32	19805.91
491.52	20158.16
491.73	20037.33
491.94	20074.19
492.14	20299.47
492.35	20610.76
492.55	20498.12
492.76	20475.59
492.97	20680.39
493.17	20684.48
493.38	20799.17
493.58	21094.08
493.79	21124.80
494.00	21153.47
494.20	21104.32
494.41	21362.36
494.61	21624.50
494.82	21722.80
495.02	21524.15
495.23	21745.33
495.44	21726.90
495.64	21823.16
495.85	21872.31
496.05	22171.31
496.26	21679.80
496.47	22212.27
496.67	22052.53
496.88	22685.35
497.08	22257.32
497.29	22662.82
497.49	22292.14
497.70	22843.04
497.91	22830.76
498.11	22884.00
498.32	23090.85
498.52	22906.53
498.73	23146.14
498.93	23183.01
499.14	23183.01
499.34	23133.86
499.55	23690.90
499.76	23533.21
499.96	23553.69
500.17	23545.50
500.37	23756.44
500.58	23746.20
500.78	23709.33
500.99	23858.84
501.19	24012.43
501.40	24106.64
501.60	23852.69
501.81	23973.52
502.02	24264.33
502.22	24092.30
502.43	24260.24
502.63	24585.86
502.84	24446.60
503.04	24295.05
503.25	24432.27
503.45	24518.28
503.66	24757.89
503.86	24665.74
504.07	24798.85
504.27	24559.24
504.48	24991.36
504.68	24880.77
504.89	25050.75
505.09	25210.50
505.30	24952.45
505.50	25181.82
505.71	25081.47
505.91	25349.76
506.12	25489.02
506.32	25204.35
506.53	25575.03
506.73	25423.48
506.94	25441.92
507.14	25343.61
507.35	25536.12
507.55	25685.62
507.76	25669.24
507.96	25687.67
508.17	25824.89
508.37	25964.15
508.58	25728.63
508.78	25904.76
508.99	26242.67
509.19	26191.47
509.40	25929.33
509.60	25964.15
509.81	25904.76
510.01	26193.52
510.22	26381.93
510.42	26461.80
510.63	26199.66
510.83	26373.74
511.04	26369.65
511.24	26572.39
511.44	26328.69
511.65	26441.32
511.85	26730.09
512.06	26654.31
512.26	26852.97
512.47	26820.20
512.67	26844.77
512.88	26941.03
513.08	26687.08
513.29	27369.05
513.49	27223.65
513.69	26990.18
513.90	27022.95
514.10	27022.95
514.31	27256.42
514.51	27057.76
514.72	26924.65
514.92	27094.63
515.13	27295.33
515.33	27252.32
515.53	27532.89
515.74	27627.10
515.94	27510.36
516.15	27596.38
516.35	27428.45
516.56	27950.68
516.76	27559.52
516.96	27866.71
517.17	27805.27
517.37	27788.89
517.58	27797.08
517.78	27922.01
517.99	27760.22
518.19	28325.46
518.39	28702.28
518.60	28513.87
518.80	28235.35
519.01	28710.47
519.21	28720.71
519.41	28733.00
519.62	28517.96
519.82	29167.17
520.03	29036.10
520.23	29146.69
520.43	29079.11
520.64	29554.24
520.84	29636.16
521.05	29234.75
521.25	29425.22
521.45	29560.38
521.66	29525.57
521.86	29630.01
522.07	29462.08
522.27	29740.60
522.47	29746.75
522.68	30459.44
522.88	30189.11
523.08	30264.88
523.29	30252.59
523.49	30686.76
523.70	30381.62
523.90	30647.85
524.10	30979.62
524.31	31016.49
524.51	30594.61
524.71	31366.69
524.92	30924.33
525.12	31202.85
525.33	31176.23
525.53	31381.03
525.73	31538.72
525.94	31626.78
526.14	31618.59
526.34	31809.05
526.55	31895.07
526.75	31706.65
526.95	32165.40
527.16	31897.11
527.36	32003.61
527.56	32550.42
527.77	32564.75
527.97	32472.59
528.17	32488.98
528.38	32820.75
528.58	32722.44
528.78	33064.46
528.99	32982.54
529.19	33308.16
529.39	32917.00
529.60	33281.54
529.80	33148.42
530.00	32964.10
530.21	33523.20
530.41	33900.03
530.61	33283.59
530.82	33934.84
531.02	34051.58
531.22	34260.47
531.43	34131.45
531.63	34651.63
531.83	34491.89
532.04	34706.93
532.24	34295.28
532.44	34967.02
532.64	34594.29
532.85	35042.79
533.05	35079.66
533.25	34987.50
533.46	34962.92
533.66	35493.35
533.86	35071.46
534.07	35468.77
534.27	35368.42
534.47	35921.37
534.67	35735.01
534.88	35904.99
535.08	35847.64
535.28	36054.49
535.49	36216.28
535.69	36449.75
535.89	36167.13
536.09	36341.21
536.30	36668.88
536.50	36771.28
536.70	36791.76
536.91	36636.11
537.11	36715.98
537.31	36951.50
537.51	36861.39
537.72	37363.14
537.92	37545.41
538.12	37451.20
538.32	37062.09
538.53	37357.00
538.73	37162.44
538.93	37260.74
539.13	37582.27
539.34	37461.44
539.54	37479.88
539.74	37529.03
539.94	37483.97
540.15	37725.63
540.35	38038.97
540.55	37938.62
540.75	37533.12
540.96	37897.66
541.16	37887.42
541.36	38104.51
541.56	38565.30
541.77	38401.46
541.97	38282.68
542.17	38309.30
542.37	38444.47
542.58	38303.16
542.78	38870.45
542.98	38317.50
543.18	38290.87
543.38	39378.34
543.59	38725.04
543.79	38426.04
543.99	38421.94
544.19	38964.65
544.40	38831.54
544.60	39120.30
544.80	38935.98
545.00	39208.36
545.20	39376.30
545.41	38913.45
545.61	39095.72
545.81	39323.05
546.01	39841.18
546.21	39194.03
546.42	39480.74
546.62	39697.83
546.82	39224.75
547.02	39321.00
547.22	39306.66
547.43	39740.83
547.63	39830.94
547.83	40031.65
548.03	39355.82
548.23	40000.93
548.44	39710.11
548.64	40183.19
548.84	39841.18
549.04	39927.20
549.24	40037.79
549.45	40240.54
549.65	39736.74
549.85	39781.79
550.05	40285.59
550.25	39990.69
550.45	40770.96
550.66	40136.09
550.86	40344.98
551.06	40381.85
551.26	40820.11
551.46	40697.24
551.66	40822.16
551.87	40531.35
552.07	40869.26
552.27	40557.97
552.47	40658.32
552.67	40957.33
552.87	40914.32
553.07	40875.41
553.28	40736.15
553.48	41221.52
553.68	40906.13
553.88	41043.34
554.08	40830.35
554.28	41155.98
554.48	41078.16
554.69	41244.04
554.89	41491.85
555.09	41135.50
555.29	41452.94
555.49	41733.51
555.69	41270.67
555.89	41203.08
556.10	41657.73
556.30	41596.29
556.50	41827.71
556.70	41139.60
556.90	42177.92
557.10	42071.42
557.30	41717.12
557.50	41821.57
557.70	42225.02
557.91	42085.76
558.11	41620.87
558.31	42198.40
558.51	42057.09
558.71	42550.65
558.91	42493.30
559.11	42567.03
559.31	42446.20
559.51	42175.87
559.72	42571.13
559.92	42415.48
560.12	42468.73
560.32	42681.72
560.52	42386.81
560.72	42487.16
560.92	42790.26
561.12	42857.84
561.32	42849.65
561.52	42837.36
561.72	43175.28
561.93	42829.17
562.13	43296.11
562.33	43111.79
562.53	43591.01
562.73	43033.97
562.93	43375.98
563.13	43240.81
563.33	43208.04
563.53	43588.97
563.73	43505.00
563.93	43593.06
564.13	44021.09
564.33	43834.72
564.53	43818.34
564.74	44324.19
564.94	43679.08
565.14	43820.39
565.34	43818.34
565.54	44066.14
565.74	44053.86
565.94	44854.61
566.14	44336.48
566.34	44119.39
566.54	45026.64
566.74	44217.69
566.94	44672.34
567.14	44760.40
567.34	44094.82
567.54	44713.30
567.74	44410.20
567.94	44492.12
568.14	44932.43
568.34	44957.01
568.54	44965.20
568.74	45217.10
568.94	44866.90
569.14	46036.29
569.34	45393.23
569.54	45471.05
569.75	45249.87
569.95	45174.09
570.15	45634.89
570.35	45831.49
570.55	45272.40
570.75	45761.86
570.95	45587.78
571.15	45651.27
571.35	45768.01
571.55	46079.30
571.75	46030.15
571.95	45512.01
572.15	45360.46
572.35	46134.59
572.55	45671.75
572.75	45978.95
572.95	46026.05
573.15	46540.09
573.35	46361.92
573.55	46458.17
573.75	46447.93
573.95	46366.01
574.15	46159.17
574.35	47052.08
574.55	46613.82
574.75	46308.67
574.95	47197.49
575.15	46789.94
575.34	46470.46
575.54	46785.85
575.74	46822.71
575.94	46830.90
576.14	47047.99
576.34	47199.54
576.54	47256.88
576.74	47396.14
576.94	47113.52
577.14	46986.55
577.34	47752.49
577.54	47064.37
577.74	47443.24
577.94	47306.03
578.14	47183.15
578.34	47502.64
578.54	46878.00
578.74	47269.17
578.94	47801.64
579.14	47676.71
579.34	47785.25
579.54	48051.49
579.74	48239.90
579.94	47719.72
580.13	48080.16
580.33	48125.22
580.53	48084.26
580.73	48141.60
580.93	47787.30
581.13	48047.39
581.33	48395.55
581.53	48098.59
581.73	48168.22
581.93	48518.43
582.13	48141.60
582.33	48469.28
582.53	48440.60
582.73	48524.57
582.92	48635.16
583.12	48672.03
583.32	48481.56
583.52	48444.70
583.72	48526.62
583.92	48254.24
584.12	48925.97
584.32	49110.29
584.52	48469.28
584.72	48696.60
584.92	49057.04
585.11	49173.78
585.31	48913.69
585.51	49212.69
585.71	48930.07
585.91	49466.64
586.11	48870.68
586.31	48911.64
586.51	49114.39
586.71	49286.42
586.91	49612.04
587.10	49272.08
587.30	49157.39
587.50	49108.24
587.70	48915.73
587.90	49304.85
588.10	49442.06
588.30	49480.97
588.50	49427.73
588.69	49317.14
588.89	49538.32
589.09	49550.60
589.29	49190.16
589.49	49591.56
589.69	49659.15
589.89	49382.67
590.08	49716.49
590.28	49677.58
590.48	49372.43
590.68	49489.16
590.88	49435.92
591.08	49706.25
591.28	49442.06
591.47	50150.66
591.67	49906.95
591.87	50003.20
592.07	50156.80
592.27	49743.11
592.47	49757.45
592.67	49892.61
592.86	49286.42
593.06	49863.94
593.26	49771.78
593.46	49960.20
593.66	50105.60
593.86	49986.82
594.05	49878.28
594.25	50670.84
594.45	49902.85
594.65	50302.21
594.85	49882.37
595.05	50257.15
595.24	50298.11
595.44	50394.37
595.64	50394.37
595.84	50140.42
596.04	49929.48
596.23	50691.32
596.43	50717.95
596.63	50513.15
596.83	50412.80
597.03	50697.47
597.22	50926.84
597.42	50611.45
597.62	51012.85
597.82	50732.28
598.02	50777.34
598.21	51148.02
598.41	50400.51
598.61	51143.92
598.81	50627.84
599.01	50935.03
599.20	50814.20
599.40	51440.88
599.60	51051.76
599.80	51209.46
600.00	51125.49
600.19	51268.85
600.39	51131.64
600.59	51449.07
600.79	51469.55
600.98	51492.08
601.18	51612.91
601.38	51954.92
601.58	51719.40
601.78	51752.17
601.97	51541.23
602.17	52503.77
602.37	51854.57
602.57	51971.30
602.76	52442.34
602.96	51750.12
603.16	51983.59
603.36	51991.78
603.55	52200.68
603.75	52118.76
603.95	52534.49
604.15	52837.59
604.34	52448.48
604.54	52423.90
604.74	52741.34
604.94	52565.21
605.13	52911.32
605.33	52770.01
605.53	52856.03
605.73	52780.25
605.92	52651.23
606.12	52802.78
606.32	53368.02
606.52	53066.97
606.71	52974.81
606.91	53363.92
607.11	52925.66
607.30	53789.90
607.50	53320.91
607.70	53896.39
607.90	53368.02
608.09	53249.24
608.29	53361.87
608.49	53613.77
608.68	53458.13
608.88	53449.94
609.08	53798.09
609.28	53714.12
609.47	53501.14
609.67	54123.72
609.87	53589.20
610.06	53550.29
610.26	53681.36
610.46	54174.92
610.66	54412.48
610.85	54023.37
611.05	54279.36
611.25	54381.76
611.44	53869.77
611.64	54430.91
611.84	54254.79
612.03	54019.27
612.23	54680.77
612.43	54660.29
612.62	54269.12
612.82	54541.50
613.02	54873.27
613.21	54719.68
613.41	54762.68
613.61	55078.07
613.80	54230.21
614.00	54965.43
614.20	54684.86
614.39	54772.92
614.59	54916.28
614.79	54686.91
614.98	55080.12
615.18	54860.99
615.38	55274.68
615.57	54711.49
615.77	55510.19
615.97	55346.36
616.16	55397.55
616.36	55252.15
616.56	55112.89
616.75	55254.20
616.95	55282.87
617.15	55252.15
617.34	55243.96
617.54	55024.82
617.74	55628.98
617.93	55850.16
618.13	55006.39
618.32	55520.43
618.52	55301.30
618.72	55518.38
618.91	55530.67
619.11	55485.62
619.31	55796.91
619.50	55571.63
619.70	55375.03
619.90	55628.98
620.09	55624.88
620.29	55620.78
620.48	55801.00
620.68	56190.12
620.88	55600.30
621.07	55774.38
621.27	55637.17
621.46	55432.37
621.66	55428.27
621.86	55606.45
622.05	55540.91
622.25	55923.88
622.44	55860.40
622.64	55293.11
622.84	56005.80
623.03	55299.25
623.23	55854.25
623.42	55860.40
623.62	55850.16
623.82	55882.92
624.01	55694.51
624.21	55766.19
624.40	55831.72
624.60	55731.37
624.80	56153.26
624.99	56169.64
625.19	55166.13
625.38	55989.42
625.58	55977.13
625.77	55801.00
625.97	55760.05
626.17	55502.00
626.36	55852.20
626.56	55661.74
626.75	55553.20
626.95	56620.19
627.14	55516.34
627.34	56140.97
627.54	56153.26
627.73	56114.34
627.93	56276.13
628.12	55747.76
628.32	56046.76
628.51	55784.62
628.71	55932.07
628.90	55846.06
629.10	55835.82
629.30	55758.00
629.49	56011.95
629.69	56007.85
629.88	55817.39
630.08	55987.37
630.27	56048.81
630.47	55964.84
630.66	55940.27
630.86	56673.44
631.05	55360.69
631.25	56325.28
631.44	55387.31
631.64	56005.80
631.84	56177.83
632.03	56448.16
632.23	55764.14
632.42	56413.35
632.62	55819.44
632.81	55821.48
633.01	56042.66
633.20	56304.80
633.40	56194.21
633.59	56341.67
633.79	55989.42
633.98	56057.00
634.18	55915.69
634.37	55833.77
634.57	55825.58
634.76	56077.48
634.96	55794.86
635.15	56294.56
635.35	56194.21
635.54	55719.09
635.74	55628.98
635.93	55760.05
636.13	56202.41
636.32	55809.20
636.52	55688.37
636.71	55768.24
636.91	55903.40
637.10	55868.59
637.30	55645.36
637.49	55631.02
637.69	55698.61
637.88	56091.82
638.08	55473.33
638.27	56245.41
638.46	55710.89
638.66	55737.52
638.85	56083.62
639.05	55942.31
639.24	55868.59
639.44	55641.26
639.63	55573.68
639.83	55364.79
640.02	55334.07
640.22	55940.27
640.41	56190.12
640.61	55604.40
640.80	55600.30
640.99	55344.31
641.19	55993.51
641.38	55653.55
641.58	55506.10
641.77	55563.44
641.97	55579.82
642.16	55393.46
642.36	55538.86
642.55	55829.68
642.74	55358.64
642.94	55999.66
643.13	55133.37
643.33	55706.80
643.52	56093.86
643.72	56476.83
643.91	55454.90
644.10	55801.00
644.30	55786.67
644.49	55362.74
644.69	55925.93
644.88	55825.58
645.08	55547.06
645.27	55837.87
645.46	55155.89
645.66	55612.59
645.85	55608.50
646.05	55635.12
646.24	55360.69
646.43	55497.91
646.63	56224.93
646.82	55575.73
647.02	55766.19
647.21	55610.54
647.40	55567.54
647.60	55780.52
647.79	56013.99
647.99	55927.98
648.18	55278.77
648.37	55923.88
648.57	56401.06
648.76	55755.95
648.96	55235.77
649.15	55819.44
649.34	55671.98
649.54	55579.82
649.73	55626.93
649.92	55708.85
650.12	55942.31
650.31	55600.30
650.51	55932.07
650.70	55852.20
650.89	55577.78
651.09	56306.85
651.28	55631.02
651.47	56120.49
651.67	55739.57
651.86	56153.26
652.06	55467.19
652.25	55917.74
652.44	55661.74
652.64	55235.77
652.83	55522.48
653.02	55067.83
653.22	55958.70
653.41	55721.13
653.60	55203.00
653.80	55710.89
653.99	56110.25
654.18	55162.04
654.38	55579.82
654.57	55528.62
654.76	55788.72
654.96	55758.00
655.15	55377.08
655.34	55671.98
655.54	55575.73
655.73	55481.52
655.92	56145.06
656.12	55491.76
656.31	55604.40
656.50	55985.32
656.70	55964.84
656.89	55440.56
657.08	55901.36
657.28	55846.06
657.47	55930.03
657.66	55473.33
657.86	55884.97
658.05	55585.97
658.24	55829.68
658.43	55657.65
658.63	56190.12
658.82	56091.82
659.01	56427.68
659.21	56028.33
659.40	55874.73
659.59	55903.40
659.79	56065.19
659.98	55901.36
660.17	56044.71
660.36	56407.20
660.56	55870.64
660.75	56102.06
660.94	55882.92
661.14	56112.30
661.33	56267.94
661.52	55841.96
661.71	56196.26
661.91	55901.36
662.10	55714.99
662.29	56380.58
662.49	56493.22
662.68	56229.03
662.87	56376.48
663.06	56517.79
663.26	56145.06
663.45	56902.81
663.64	56317.09
663.83	57136.28
664.03	55932.07
664.22	56259.75
664.41	56802.46
664.60	56292.52
664.80	56349.86
664.99	55932.07
665.18	56566.94
665.37	56321.19
665.57	56231.08
665.76	56036.52
665.95	56427.68
666.14	56505.51
666.34	56587.42
666.53	56302.76
666.72	56003.75
666.91	56423.59
667.11	56257.70
667.30	56511.65
667.49	56648.86
667.68	56517.79
667.87	56276.13
668.07	57232.53
668.26	56951.96
668.45	56370.34
668.64	56743.07
668.84	57617.55
669.03	56964.25
669.22	56403.11
669.41	56734.88
669.60	56712.35
669.80	56738.97
669.99	56980.63
670.18	56865.95
670.37	57164.95
670.57	57009.31
670.76	56839.32
670.95	56816.80
671.14	56937.63
671.33	56700.06
671.53	57578.64
671.72	56874.14
671.91	56763.55
672.10	56736.93
672.29	57093.27
672.48	56915.10
672.68	57463.96
672.87	56970.39
673.06	56806.56
673.25	57298.07
673.44	56591.52
673.64	56857.76
673.83	57269.40
674.02	56669.34
674.21	56677.54
674.40	57197.72
674.59	57158.81
674.79	56591.52
674.98	56964.25
675.17	57367.70
675.36	57111.70
675.55	57230.49
675.74	57054.36
675.94	56994.97
676.13	57144.47
676.32	57111.70
676.51	57685.14
676.70	57697.42
676.89	57463.96
677.08	57660.56
677.28	57201.82
677.47	57846.93
677.66	57910.41
677.85	57509.01
678.04	57545.87
678.23	57549.97
678.42	57797.77
678.62	57144.47
678.81	57715.86
679.00	57570.45
679.19	57773.20
679.38	57607.31
679.57	57480.34
679.76	57261.21
679.96	57828.49
680.15	57812.11
680.34	57138.33
680.53	57210.01
680.72	57693.33
680.91	57740.43
681.10	57564.31
681.29	57668.75
681.48	57320.60
681.68	57480.34
681.87	57466.00
682.06	57683.09
682.25	56931.48
682.44	57197.72
682.63	57412.76
682.82	56853.66
683.01	57259.16
683.20	57072.79
683.39	57488.53
683.59	57257.11
683.78	56841.37
683.97	56865.95
684.16	57423.00
684.35	57144.47
684.54	57304.21
684.73	57799.82
684.92	57246.87
685.11	57171.10
685.30	57042.07
685.49	57334.93
685.69	57384.08
685.88	57361.56
686.07	56976.54
686.26	57199.77
686.45	57205.91
686.64	57285.78
686.83	57521.30
687.02	57207.96
687.21	57154.71
687.40	56792.22
687.59	56675.49
687.78	56939.68
687.97	57263.25
688.16	57095.32
688.35	57242.77
688.54	56730.78
688.74	57148.57
688.93	57083.03
689.12	57140.38
689.31	57015.45
689.50	57455.76
689.69	56757.41
689.88	56505.51
690.07	56640.67
690.26	56579.23
690.45	56954.01
690.64	56827.04
690.83	56554.66
691.02	56251.56
691.21	56689.82
691.40	56687.78
691.59	56702.11
691.78	56833.18
691.97	56779.93
692.16	56290.47
692.35	56491.17
692.54	56808.61
692.73	56806.56
692.92	56829.08
693.11	56730.78
693.30	56278.18
693.49	56059.05
693.68	56114.34
693.87	56341.67
694.06	56292.52
694.25	56280.23
694.44	55829.68
694.63	56380.58
694.82	55983.27
695.01	55919.79
695.20	55696.56
695.39	55454.90
695.58	56198.31
695.77	56145.06
695.96	55458.99
696.15	55559.34
696.34	55026.87
696.53	55788.72
696.72	56022.19
696.91	55428.27
697.10	55489.71
697.29	55442.61
697.48	55999.66
697.67	55633.07
697.86	54965.43
698.05	54840.51
698.24	55631.02
698.43	55248.05
698.62	55633.07
698.81	54727.87
699.00	55090.36
699.19	54826.17
699.38	55270.58
699.57	54234.31
699.76	55370.93
699.95	54574.27
700.14	54738.11
700.32	54867.13
700.51	54711.49
700.70	54691.01
700.89	55133.37
701.08	55051.45
701.27	55033.02
701.46	54695.10
701.65	53968.07
701.84	54574.27
702.03	54467.78
702.22	53869.77
702.41	54260.93
702.60	54400.19
702.79	54285.51
702.98	54146.25
703.17	54140.10
703.35	54181.06
703.54	53718.22
703.73	54410.43
703.92	53961.93
704.11	53832.91
704.30	53796.04
704.49	53662.93
704.68	53261.52
704.87	53722.32
705.06	53660.88
705.25	53451.98
705.43	53601.49
705.62	53908.68
705.81	53443.79
706.00	53318.87
706.19	53255.38
706.38	53431.50
706.57	53400.79
706.76	53093.59
706.95	53400.79
707.14	53071.06
707.32	52983.00
707.51	52741.34
707.70	53097.69
707.89	53066.97
708.08	52778.20
708.27	53531.86
708.46	52679.90
708.65	52962.52
708.84	53056.73
709.02	53073.11
709.21	52878.55
709.40	52835.55
709.59	52671.71
709.78	51963.11
709.97	52593.89
710.16	52139.24
710.34	52481.25
710.53	52714.72
710.72	52024.55
710.91	52458.72
711.10	52161.76
711.29	52618.46
711.48	52352.23
711.66	51979.49
711.85	51664.11
712.04	51739.88
712.23	51795.18
712.42	51672.30
712.61	51500.27
712.80	51924.20
712.98	51838.18
713.17	51600.62
713.36	51819.75
713.55	52348.13
713.74	51539.18
713.93	51463.41
714.11	51492.08
714.30	51492.08
714.49	51025.14
714.68	51219.70
714.87	51076.34
715.06	51121.40
715.24	51152.12
715.43	51154.16
715.62	50767.10
715.81	50672.89
716.00	50959.61
716.18	50652.41
716.37	50412.80
716.56	50652.41
716.75	50988.28
716.94	50799.86
717.12	50416.89
717.31	50693.37
717.50	50709.75
717.69	50732.28
717.88	50605.31
718.06	50607.36
718.25	50785.53
718.44	50308.35
718.63	50728.19
718.82	49868.04
719.00	50171.14
719.19	50044.16
719.38	49853.70
719.57	49769.74
719.76	49577.23
719.94	49386.77
720.13	50140.42
720.32	49798.41
720.51	49460.49
720.69	49480.97
720.88	49341.71
721.07	49751.30
721.26	49354.00
721.44	49644.81
721.63	49200.40
721.82	49055.00
722.01	49487.12
722.20	49435.92
722.38	49016.08
722.57	48332.06
722.76	48805.14
722.95	48794.90
723.13	48706.84
723.32	48657.69
723.51	48780.57
723.70	48344.35
723.88	48602.39
724.07	48479.52
724.26	48395.55
724.44	47924.52
724.63	48729.37
724.82	48588.06
725.01	48104.74
725.19	48370.97
725.38	48506.14
725.57	48186.66
725.76	48086.31
725.94	47639.85
726.13	47758.63
726.32	48391.45
726.51	48055.59
726.69	48588.06
726.88	48436.51
727.07	48321.82
727.25	48190.75
727.44	48330.01
727.63	47676.71
727.82	48450.84
728.00	47912.23
728.19	48436.51
728.38	48356.64
728.56	47699.24
728.75	48436.51
728.94	47852.84
729.12	47947.04
729.31	48049.44
729.50	47797.54
729.69	48059.68
729.87	47510.83
730.06	47781.16
730.25	48370.97
730.43	48168.22
730.62	47799.59
730.81	48297.25
730.99	47836.45
731.18	47916.32
731.37	47949.09
731.55	48200.99
731.74	47873.32
731.93	48080.16
732.11	47787.30
732.30	47818.02
732.49	47797.54
732.67	48160.03
732.86	48061.73
733.05	47928.61
733.23	47600.94
733.42	47842.60
733.61	47942.95
733.79	47555.88
733.98	48227.62
734.17	47744.30
734.35	47678.76
734.54	47969.57
734.73	47953.19
734.91	47850.79
735.10	47521.07
735.29	47785.25
735.47	47332.65
735.66	47928.61
735.84	47826.21
736.03	47617.32
736.22	47846.69
736.40	47670.57
736.59	48196.90
736.78	47494.44
736.96	47559.98
737.15	47938.85
737.33	47580.46
737.52	47850.79
737.71	47248.69
737.89	47797.54
738.08	47779.11
738.27	47336.75
738.45	48284.96
738.64	47293.74
738.82	47236.40
739.01	47959.33
739.20	47355.18
739.38	47519.02
739.57	47906.08
739.75	47617.32
739.94	47660.33
740.13	47361.33
740.31	47531.31
740.50	47314.22
740.68	47854.89
740.87	47473.96
741.06	47596.84
741.24	47054.13
741.43	47209.78
741.61	47285.55
741.80	47152.43
741.99	47320.37
742.17	47351.09
742.36	47408.43
742.54	47187.25
742.73	47199.54
742.91	47521.07
743.10	46814.52
743.29	47330.61
743.47	47574.31
743.66	47439.15
743.84	47289.65
744.03	47297.84
744.21	47115.57
744.40	47711.53
744.59	47082.80
744.77	47136.05
744.96	47129.90
745.14	46953.78
745.33	47314.22
745.51	46910.77
745.70	47248.69
745.88	47496.49
746.07	46880.05
746.26	46998.83
746.44	47076.66
746.63	46835.00
746.81	46740.79
747.00	46568.76
747.18	46878.00
747.37	46943.54
747.55	46941.49
747.74	47275.31
747.92	46923.06
748.11	46708.02
748.29	46902.58
748.48	47482.16
748.66	46880.05
748.85	46830.90
749.03	46933.30
749.22	46761.27
749.41	46638.39
749.59	47168.82
749.78	46939.44
749.96	46499.13
750.15	46406.97
750.33	46785.85
750.52	46753.08
750.70	46693.69
750.89	46310.72
751.07	46683.45
751.26	46482.75
751.44	46519.61
751.63	46421.31
751.81	46105.92
752.00	46454.08
752.18	46329.15
752.37	46265.66
752.55	46214.46
752.74	46144.83
752.92	46439.74
753.10	45841.73
753.29	46271.81
753.47	46198.08
753.66	45976.90
753.84	46239.04
754.03	46028.10
754.21	45905.22
754.40	46505.27
754.58	46191.94
754.77	46216.51
754.95	45675.85
755.14	46052.67
755.32	45757.77
755.51	45966.66
755.69	45509.96
755.88	46185.79
756.06	45864.26
756.24	45598.02
756.43	45335.88
756.61	45626.70
756.80	45475.15
756.98	45274.45
757.17	46005.57
757.35	45790.53
757.54	45368.65
757.72	45942.08
757.90	45530.44
758.09	45253.97
758.27	45135.18
758.46	44795.22
758.64	45401.42
758.83	45055.31
759.01	45542.73
759.19	45374.80
759.38	45376.84
759.56	45368.65
759.75	45503.82
759.93	44885.33
760.12	44711.25
760.30	45247.82
760.48	45272.40
760.67	44842.32
760.85	44928.34
761.04	45299.02
761.22	45290.83
761.40	45352.27
761.59	44875.09
761.77	44320.09
761.96	44899.67
762.14	44676.44
762.32	44162.40
762.51	44272.99
762.69	44537.18
762.88	45114.70
763.06	44942.67
763.24	44774.74
763.43	44746.07
763.61	44420.44
763.80	44692.82
763.98	44262.75
764.16	44201.31
764.35	43740.52
764.53	43910.50
764.72	43896.16
764.90	44074.34
765.08	44092.77
765.27	44078.43
765.45	43623.78
765.63	43797.86
765.82	44193.12
766.00	43500.90
766.18	43640.17
766.37	44168.54
766.55	43390.31
766.74	43597.16
766.92	43505.00
767.10	43715.94
767.29	43398.51
767.47	43206.00
767.65	43480.42
767.84	43165.04
768.02	43410.79
768.20	42913.14
768.39	43242.86
768.57	43158.89
768.75	42988.91
768.94	42906.99
769.12	43046.26
769.30	42894.71
769.49	42730.87
769.67	42919.28
769.85	42395.00
770.04	43054.45
770.22	42358.14
770.40	42470.78
770.59	42188.16
770.77	42294.65
770.95	42550.65
771.14	42313.08
771.32	42014.08
771.50	42001.79
771.69	42083.71
771.87	41846.15
772.05	41985.41
772.24	41373.06
772.42	41971.07
772.60	41758.08
772.78	41751.94
772.97	42055.04
773.15	42028.41
773.33	41637.25
773.52	41715.08
773.70	41825.67
773.88	41663.88
774.07	41395.59
774.25	41606.53
774.43	41739.65
774.61	41805.19
774.80	42136.96
774.98	41559.43
775.16	41813.38
775.34	42007.94
775.53	41657.73
775.71	41733.51
775.89	41719.17
776.08	41336.20
776.26	41837.95
776.44	41610.63
776.62	41747.84
776.81	41923.97
776.99	41735.56
777.17	41739.65
777.35	41708.93
777.54	42169.72
777.72	41678.21
777.90	41504.13
778.08	41889.15
778.27	41641.35
778.45	41878.91
778.63	41670.02
778.81	41268.62
779.00	42153.34
779.18	41708.93
779.36	42513.78
779.54	41827.71
779.73	41760.13
779.91	42290.55
780.09	42063.23
780.27	42188.16
780.46	41973.12
780.64	42165.63
780.82	41796.99
781.00	41901.44
781.19	41790.85
781.37	42263.93
781.55	42194.30
781.73	42057.09
781.91	41911.68
782.10	41913.73
782.28	42061.18
782.46	42288.51
782.64	42034.56
782.82	42075.52
783.01	42151.29
783.19	42628.47
783.37	42007.94
783.55	42173.82
783.74	42102.14
783.92	42014.08
784.10	42306.94
784.28	42276.22
784.46	41860.48
784.64	42012.03
784.83	41952.64
785.01	42603.89
785.19	41930.11
785.37	42048.89
785.55	42102.14
785.74	41403.78
785.92	41461.13
786.10	41971.07
786.28	41995.65
786.46	41368.97
786.64	41198.99
786.83	41383.30
787.01	41631.11
787.19	41569.67
787.37	41422.22
787.55	41315.72
787.74	41174.41
787.92	41381.26
788.10	41041.29
788.28	41121.16
788.46	41160.08
788.64	40754.58
788.82	41110.92
789.01	40609.17
789.19	41072.01
789.37	40424.86
789.55	40830.35
789.73	40433.05
789.91	40134.04
790.09	40277.40
790.28	40187.29
790.46	39650.72
790.64	40340.89
790.82	40054.17
791.00	40205.72
791.18	39880.10
791.36	39847.33
791.55	39777.70
791.73	39914.91
791.91	39828.90
792.09	39943.58
792.27	39880.10
792.45	39826.85
792.63	39650.72
792.81	39472.55
793.00	39617.96
793.18	39286.18
793.36	39204.27
793.54	38944.17
793.72	38847.92
793.90	38819.25
794.08	39130.54
794.26	39183.79
794.44	38251.96
794.62	38720.95
794.81	38686.13
794.99	38546.87
795.17	38839.73
795.35	38495.67
795.53	38223.29
795.71	38356.41
795.89	38018.49
796.07	37823.93
796.25	37422.53
796.43	37635.52
796.61	37645.76
796.80	37178.82
796.98	37180.87
797.16	37379.53
797.34	37422.53
797.52	37219.78
797.70	37156.30
797.88	37244.36
798.06	36709.84
798.24	36894.16
798.42	37092.81
798.60	36527.57
798.78	36586.96
798.96	36793.81
799.14	36275.67
799.32	35986.91
799.51	36357.59
799.69	36750.80
799.87	36550.10
800.05	35904.99
800.23	36017.63
800.41	35718.62
800.59	35659.23
800.77	35534.31
800.95	35306.98
801.13	35599.84
801.31	35239.40
801.49	35501.54
801.67	35390.95
801.85	35214.82
802.03	34835.95
802.21	34678.25
802.39	35112.42
802.57	34778.61
802.75	34866.67
802.93	34848.24
803.11	34444.79
803.29	34377.20
803.47	34315.76
803.65	34842.09
803.83	34424.31
804.01	34317.81
804.19	33730.05
804.37	33986.04
804.55	34264.57
804.73	33932.79
804.91	34020.86
805.09	33850.88
805.27	33707.52
805.45	33426.95
805.63	33805.82
805.81	33517.06
805.99	33629.69
806.17	33592.83
806.35	33781.24
806.53	33254.92
806.71	33363.46
806.89	33394.18
807.07	33166.85
807.25	32937.48
807.43	32925.19
807.61	33228.29
807.79	32851.47
807.97	32785.93
808.15	32722.44
808.33	32673.29
808.51	32462.35
808.69	32759.31
808.87	32300.56
809.05	32468.50
809.23	32415.25
809.41	32161.30
809.59	32421.39
809.77	32167.45
809.95	32060.95
810.13	32226.84
810.31	31950.36
810.49	32132.63
810.67	31731.23
810.84	31608.35
811.02	32056.85
811.20	31520.29
811.38	31770.14
811.56	31503.90
811.74	31311.39
811.92	31438.37
812.10	31583.77
812.28	31864.35
812.46	31426.08
812.64	31114.79
812.82	30924.33
813.00	31331.87
813.18	31575.58
813.36	31325.73
813.53	31004.20
813.71	31376.93
813.89	30852.65
814.07	30785.07
814.25	30748.20
814.43	30723.63
814.61	30318.13
814.79	30750.25
814.97	30535.21
815.15	30492.21
815.33	30170.68
815.50	30135.86
815.68	30539.31
815.86	30436.91
816.04	30361.14
816.22	30494.25
816.40	30154.29
816.58	30037.56
816.76	29994.55
816.94	30180.92
817.11	29951.54
817.29	29947.45
817.47	29701.69
817.65	29830.71
817.83	30015.03
818.01	29761.08
818.19	29697.59
818.37	29642.30
818.54	29365.82
818.72	29302.34
818.90	29566.52
819.08	29498.94
819.26	29511.23
819.44	29640.25
819.62	29197.89
819.80	29509.18
819.97	29941.30
820.15	29402.69
820.33	29269.57
820.51	29247.04
820.69	29150.79
820.87	29232.71
821.05	29464.13
821.22	28989.00
821.40	28802.63
821.58	28755.53
821.76	28335.70
821.94	29052.48
822.12	28800.58
822.29	29115.97
822.47	28399.18
822.65	28780.10
822.83	28425.81
823.01	28835.40
823.19	28212.82
823.36	28311.12
823.54	28634.70
823.72	28313.17
823.90	28405.33
824.08	28173.91
824.25	28235.35
824.43	27989.59
824.61	28319.31
824.79	28180.05
824.97	28147.28
825.15	28376.66
825.32	28163.67
825.50	27991.64
825.68	27784.79
825.86	27938.39
826.04	28208.72
826.21	27932.25
826.39	27840.09
826.57	27643.48
826.75	27844.18
826.93	27795.03
827.10	27430.49
827.28	27788.89
827.46	28255.82
827.64	27743.83
827.81	27879.00
827.99	27754.07
828.17	27868.76
828.35	27713.11
828.53	27721.30
828.70	27666.01
828.88	27412.06
829.06	27500.12
829.24	27432.54
829.41	27176.55
829.59	27418.21
829.77	27342.43
829.95	27217.50
830.12	27250.27
830.30	27188.83
830.48	27350.62
830.66	27332.19
830.84	27256.42
831.01	27022.95
831.19	27311.71
831.37	26979.94
831.55	27063.91
831.72	26963.56
831.90	27215.46
832.08	26678.89
832.25	27117.15
832.43	27061.86
832.61	27012.71
832.79	27016.80
832.96	26957.41
833.14	26822.25
833.32	26955.36
833.50	26844.77
833.67	26852.97
833.85	26652.27
834.03	26373.74
834.20	26721.90
834.38	26734.18
834.56	26762.86
834.74	26377.84
834.91	26611.31
835.09	26408.56
835.27	26398.32
835.44	26207.86
835.62	25990.77
835.80	26023.54
835.98	26420.84
836.15	26318.45
836.33	26273.39
836.51	26482.28
836.68	26003.06
836.86	26269.30
837.04	26037.87
837.21	26216.05
837.39	26437.23
837.57	26138.23
837.75	26238.58
837.92	26001.01
838.10	25699.96
838.28	25941.62
838.45	25747.06
838.63	25706.10
838.81	25861.75
838.98	25771.64
839.16	25419.39
839.34	25659.00
839.51	25478.78
839.69	25570.94
839.87	25458.30
840.04	25966.20
840.22	25900.66
840.40	25603.71
840.57	25446.01
840.75	25564.79
840.93	25304.70
841.10	25294.46
841.28	25626.23
841.46	25407.10
841.63	25343.61
841.81	25325.18
841.98	25452.16
842.16	25360.00
842.34	25366.14
842.51	25224.83
842.69	25308.80
842.87	25015.94
843.04	25171.58
843.22	25048.71
843.40	25396.86
843.57	25206.40
843.75	24794.76
843.92	25044.61
844.10	25200.26
844.28	25077.38
844.45	25048.71
844.63	24886.92
844.81	24747.65
844.98	24972.93
845.16	24682.12
845.33	24780.42
845.51	24901.25
845.69	24606.34
845.86	24725.13
846.04	24665.74
846.21	24682.12
846.39	24761.99
846.57	24340.11
846.74	24489.61
846.92	24239.76
847.09	24340.11
847.27	24581.77
847.45	24536.71
847.62	24510.09
847.80	24237.71
847.97	24389.26
848.15	23991.95
848.32	24321.68
848.50	24311.44
848.68	24233.61
848.85	24284.81
849.03	23879.32
849.20	24184.46
849.38	24112.78
849.56	24094.35
849.73	23871.12
849.91	23801.49
850.08	23987.86
850.26	23678.61
850.43	23731.86
850.61	23672.47
850.78	23588.50
850.96	24006.29
851.14	23793.30
851.31	23897.75
851.49	23611.03
851.66	24039.06
851.84	23692.95
852.01	23445.15
852.19	23936.66
852.36	23826.07
852.54	23965.33
852.71	23625.37
852.89	23664.28
853.07	23533.21
853.24	23414.43
853.42	23355.04
853.59	22984.35
853.77	23252.64
853.94	23342.75
854.12	23645.85
854.29	23178.91
854.47	23254.69
854.64	22927.01
854.82	23404.19
854.99	23367.32
855.17	23293.60
855.34	22972.07
855.52	23256.73
855.69	23273.12
855.87	22951.59
856.04	22881.95
856.22	22875.81
856.39	22871.72
856.57	23324.32
856.74	22806.18
856.92	23006.88
857.09	22865.57
857.27	23017.12
857.44	22972.07
857.62	22877.86
857.79	22754.98
857.97	22638.25
858.14	22902.43
858.32	22671.01
858.49	22648.49
858.67	22494.89
858.84	22267.56
859.02	22541.99
859.19	22568.62
859.37	22714.02
859.54	22324.91
859.72	22642.34
859.89	22384.30
860.06	22509.22
860.24	22230.70
860.41	22038.19
860.59	21974.70
860.76	22329.00
860.94	21862.07
861.11	22326.96
861.29	22263.47
861.46	22091.44
861.64	21927.60
861.81	21771.96
861.98	21970.61
862.16	21903.03
862.33	21841.59
862.51	21915.31
862.68	21890.74
862.86	21669.56
863.03	21780.15
863.21	21884.59
863.38	21698.23
863.55	21624.50
863.73	21702.32
863.90	21550.78
864.08	21634.74
864.25	21376.70
864.43	21731.00
864.60	21395.13
864.77	21466.81
864.95	21528.25
865.12	21278.40
865.30	21411.51
865.47	21237.44
865.64	21259.96
865.82	21268.16
865.99	21092.03
866.17	21124.80
866.34	21143.23
866.51	20971.20
866.69	21436.09
866.86	21239.48
867.04	20876.99
867.21	20940.48
867.38	20844.23
867.56	20821.70
867.73	20801.22
867.91	20883.14
868.08	20844.23
868.25	20375.24
868.43	20960.96
868.60	20543.17
868.78	20868.80
868.95	20608.71
869.12	20520.65
869.30	20344.52
869.47	20754.12
869.64	20328.14
869.82	20567.75
869.99	20068.05
870.16	20272.84
870.34	20133.58
870.51	20498.12
870.69	19955.41
870.86	20393.67
871.03	20145.87
871.21	20020.94
871.38	20295.37
871.55	19865.30
871.73	19936.98
871.90	19889.87
872.07	19818.19
872.25	19646.16
872.42	19652.31
872.59	19627.73
872.77	19592.92
872.94	19730.13
873.11	19580.63
873.29	19672.79
873.46	19646.16
873.63	19351.26
873.81	19353.30
873.98	19119.84
874.15	19306.20
874.33	19384.02
874.50	19050.21
874.67	19183.32
874.85	19160.80
875.02	19158.75
875.19	19091.16
875.37	19091.16
875.54	18886.37
875.71	18820.83
875.88	18806.50
876.06	19007.20
876.23	18730.72
876.40	18634.47
876.58	18691.81
876.75	18755.30
876.92	18421.48
877.10	18734.82
877.27	18663.14
877.44	18339.56
877.61	18550.50
877.79	18394.86
877.96	18085.61
878.13	18353.90
878.31	18304.74
878.48	18282.22
878.65	18249.45
878.82	18253.55
879.00	18136.81
879.17	18106.09
879.34	18198.25
879.51	18083.56
879.69	17823.47
879.86	17858.29
880.03	17575.67
880.21	17600.24
880.38	17856.24
880.55	17878.77
880.72	17802.99
880.90	17659.63
881.07	17587.96
881.24	17399.54
881.41	17817.33
881.59	17549.04
881.76	17374.97
881.93	17235.70
882.10	17503.99
882.28	17305.34
882.45	17635.06
882.62	17309.43
882.79	17968.88
882.96	17262.33
883.14	17401.59
883.31	17569.52
883.48	17221.37
883.65	17301.24
883.83	17288.95
884.00	17319.67
884.17	17198.84
884.34	17315.58
884.51	17194.75
884.69	17063.68
884.86	17184.51
885.03	17071.87
885.20	16944.89
885.38	17207.03
885.55	17037.05
885.72	17198.84
885.89	17080.06
886.06	16985.85
886.24	16985.85
886.41	16987.90
886.58	16940.80
886.75	16889.60
886.92	16877.31
887.10	16609.03
887.27	16824.06
887.44	16787.20
887.61	16813.82
887.78	16967.42
887.95	16688.90
888.13	16633.60
888.30	16576.26
888.47	16541.44
888.64	16443.14
888.81	16142.09
888.99	16318.22
889.16	16127.75
889.33	16281.35
889.50	15980.30
889.67	16516.87
889.84	16178.95
890.01	16144.14
890.19	16252.68
890.36	15900.43
890.53	16267.02
890.70	15949.58
890.87	16191.24
891.04	15955.72
891.22	16002.83
891.39	15879.95
891.56	15898.38
891.73	16045.84
891.90	15992.59
892.07	15673.10
892.24	15822.61
892.42	15552.27
892.59	15673.10
892.76	15808.27
892.93	15406.87
893.10	15544.08
893.27	15736.59
893.44	15613.71
893.61	15718.16
893.79	15593.23
893.96	15636.24
894.13	15679.25
894.30	15511.32
894.47	15390.49
894.64	15623.95
894.81	15349.53
894.98	15443.73
895.15	15535.89
895.33	15212.31
895.50	15490.84
895.67	15605.52
895.84	15490.84
896.01	15492.88
896.18	15167.26
896.35	15681.30
896.52	15116.06
896.69	15132.44
896.86	15296.28
897.04	15441.68
897.21	15228.70
897.38	15243.03
897.55	15376.15
897.72	15363.86
897.89	15238.94
898.06	15185.69
898.23	15333.14
898.40	15193.88
898.57	15312.66
898.74	15240.98
898.91	15228.70
899.08	15195.93
899.26	15036.19
899.43	15343.38
899.60	15128.35
899.77	15118.11
899.94	15187.74
900.11	15032.09
900.28	15058.71
900.45	15101.72
900.62	15111.96
900.79	14982.94
900.96	14987.04
901.13	15081.24
901.30	15130.39
901.47	14993.18
901.64	15159.06
901.81	14929.69
901.98	14995.23
902.15	14941.98
902.32	14989.08
902.49	15011.61
902.66	15171.35
902.83	14921.50
903.01	14901.02
903.18	15312.66
903.35	15099.67
903.52	14917.40
903.69	15269.66
903.86	15148.82
904.03	14839.58
904.20	14950.17
904.37	15054.62
904.54	15238.94
904.71	14956.32
904.88	15060.76
905.05	14812.96
905.22	14835.49
905.39	15118.11
905.56	14989.08
905.73	14837.53
905.90	15066.91
906.07	15101.72
906.24	15167.26
906.41	15017.75
906.58	15095.58
906.75	14929.69
906.92	14751.52
907.09	14956.32
907.26	14937.88
907.43	14896.92
907.60	14726.94
907.77	15036.19
907.93	14980.89
908.10	14948.12
908.27	14972.70
908.44	14915.36
908.61	14610.21
908.78	14735.14
908.95	14780.19
909.12	14888.73
909.29	14731.04
909.46	14692.13
909.63	15068.95
909.80	14952.22
909.97	14614.30
910.14	14769.95
910.31	14751.52
910.48	14722.85
910.65	14794.53
910.82	14577.44
910.99	14597.92
911.16	14718.75
911.33	14757.66
911.50	14608.16
911.66	14477.09
911.83	14630.69
912.00	14593.83
912.17	14284.58
912.34	14288.68
912.51	14487.33
912.68	14503.71
912.85	14368.55
913.02	14483.24
913.19	14378.79
913.36	14161.70
913.53	14483.24
913.70	14057.26
913.86	14493.47
914.03	14305.06
914.20	14659.36
914.37	14249.77
914.54	14124.84
914.71	14341.93
914.88	14083.88
915.05	13995.82
915.22	13930.28
915.39	13999.91
915.55	14090.02
915.72	13688.62
915.89	13954.86
916.06	13770.54
916.23	13911.85
916.40	13723.44
916.57	13768.49
916.74	13717.29
916.91	13885.23
917.07	13584.18
917.24	13612.85
917.41	13819.69
917.58	13709.10
917.75	13571.89
917.92	13594.42
918.09	13465.39
918.26	13571.89
918.42	13571.89
918.59	13512.50
918.76	13446.96
918.93	13338.42
919.10	13078.33
919.27	13258.55
919.44	13373.24
919.60	13369.14
919.77	13160.25
919.94	13051.70
920.11	12973.88
920.28	13086.52
920.45	12750.65
920.61	12928.83
920.78	12902.20
920.95	12808.00
921.12	12730.17
921.29	12638.02
921.46	12758.85
921.62	12488.51
921.79	12738.37
921.96	12697.41
922.13	12414.79
922.30	12463.94
922.47	12521.28
922.63	12478.27
922.80	12291.91
922.97	12289.86
923.14	12107.59
923.31	12253.00
923.47	12056.39
923.64	12283.72
923.81	12177.22
923.98	12156.74
924.15	11906.89
924.32	12076.87
924.48	12181.32
924.65	12109.64
924.82	11925.32
924.99	11810.64
925.15	11626.32
925.32	11908.94
925.49	11577.17
925.66	11829.07
925.83	11536.21
925.99	11355.99
926.16	11700.05
926.33	11450.19
926.50	11388.75
926.67	11763.53
926.83	11401.04
927.00	11288.40
927.17	11532.11
927.34	11302.74
927.50	11132.76
927.67	11347.79
927.84	11374.42
928.01	11247.44
928.17	10987.35
928.34	11026.26
928.51	10942.30
928.68	11036.50
928.84	11046.74
929.01	10657.63
929.18	10618.72
929.35	10590.05
929.51	10723.16
929.68	10588.00
929.85	10760.03
930.02	10463.07
930.18	10637.15
930.35	10446.69
930.52	10440.54
930.69	10520.42
930.85	10456.93
931.02	10370.91
931.19	10332.00
931.36	10233.70
931.52	10229.60
931.69	10196.84
931.86	10137.45
932.02	10061.67
932.19	9987.94
932.36	10057.57
932.53	10084.20
932.69	9834.35
932.86	9928.55
933.03	9924.46
933.19	9555.82
933.36	9768.81
933.53	9846.63
933.70	9709.42
933.86	9738.09
934.03	9363.31
934.20	9445.23
934.36	9518.96
934.53	9531.25
934.70	9164.66
934.86	9301.87
935.03	9193.33
935.20	9133.94
935.36	9074.55
935.53	9004.92
935.70	8980.34
935.86	8978.30
936.03	8814.46
936.20	8779.64
936.36	8624.00
936.53	8568.70
936.70	8531.84
936.86	8632.19
937.03	8558.46
937.20	8165.25
937.36	8368.00
937.53	7950.21
937.70	8032.13
937.86	7939.97
938.03	7901.06
938.20	7819.14
938.36	7661.45
938.53	7622.54
938.70	7440.27
938.86	7470.99
939.03	7419.79
939.20	7348.11
939.36	7358.35
939.53	7098.26
939.70	7370.64
939.86	7008.15
940.03	6862.74
940.19	6942.61
940.36	6799.26
940.53	6864.79
940.69	6872.98
940.86	6578.08
941.03	6598.56
941.19	6401.95
941.36	6496.16
941.52	6236.06
941.69	6213.54
941.86	6252.45
942.02	6131.62
942.19	6098.85
942.35	6150.05
942.52	6061.99
942.69	6131.62
942.85	5822.38
943.02	5924.77
943.18	5912.49
943.35	5822.38
943.52	5793.70
943.68	5709.74
943.85	5795.75
944.01	5566.38
944.18	5627.82
944.35	5640.11
944.51	5556.14
944.68	5449.64
944.84	5570.48
945.01	5613.48
945.17	5599.15
945.34	5556.14
945.51	5496.75
945.67	5453.74
945.84	5382.06
946.00	5246.90
946.17	5463.98
946.33	5367.73
946.50	5343.15
946.67	5525.42
946.83	5316.53
947.00	5455.79
947.16	5343.15
947.33	5076.91
947.49	5439.40
947.66	5300.14
947.82	5349.29
947.99	5302.19
948.16	5418.93
948.32	5334.96
948.49	5525.42
948.65	5302.19
948.82	5265.33
948.98	5316.53
949.15	5164.98
949.31	5236.66
949.48	5320.62
949.64	5267.38
949.81	5390.25
949.97	5384.11
950.14	5457.84
950.30	5244.85
950.47	5439.40
950.63	5384.11
950.80	5377.97
950.96	5537.71
951.13	5402.54
951.30	5287.86
951.46	5345.20
951.63	5490.60
951.79	5435.31
951.96	5513.13
952.12	5400.49
952.29	5412.78
952.45	5300.14
952.62	5490.60
952.78	5523.37
952.94	5435.31
953.11	5267.38
953.27	5443.50
953.44	5674.92
953.60	5429.17
953.77	5644.20
953.93	5423.02
954.10	5504.94
954.26	5582.76
954.43	5461.93
954.59	5398.45
954.76	5707.69
954.92	5511.08
955.09	5513.13
955.25	5527.47
955.42	5488.56
955.58	5593.00
955.75	5550.00
955.91	5556.14
956.07	5568.43
956.24	5672.87
956.40	5609.39
956.57	5824.42
956.73	5611.43
956.90	5502.89
957.06	5550.00
957.23	5562.28
957.39	5492.65
957.56	5488.56
957.72	5621.67
957.88	5519.28
958.05	5803.94
958.21	5644.20
958.38	5574.57
958.54	5566.38
958.71	5633.96
958.87	5427.12
959.03	5734.31
959.20	5572.52
959.36	5394.35
959.53	5486.51
959.69	5586.86
959.85	5666.73
960.02	5593.00
960.18	5545.90
960.35	5609.39
960.51	5711.78
960.68	5517.23
960.84	5531.56
961.00	5511.08
961.17	5605.29
961.33	5664.68
961.50	5599.15
961.66	5611.43
961.82	5445.55
961.99	5629.87
962.15	5502.89
962.31	5650.35
962.48	5472.17
962.64	5580.71
962.81	5633.96
962.97	5468.08
963.13	5545.90
963.30	5607.34
963.46	5525.42
963.62	5629.87
963.79	5615.53
963.95	5412.78
964.12	5466.03
964.28	5597.10
964.44	5486.51
964.61	5638.06
964.77	5492.65
964.93	5574.57
965.10	5461.93
965.26	5445.55
965.42	5556.14
965.59	5355.44
965.75	5353.39
965.92	5332.91
966.08	5418.93
966.24	5451.69
966.41	5451.69
966.57	5435.31
966.73	5480.36
966.90	5414.83
967.06	5398.45
967.22	5328.81
967.39	5437.36
967.55	5238.70
967.71	5410.73
967.88	5353.39
968.04	5423.02
968.20	5345.20
968.37	5173.17
968.53	5244.85
968.69	5345.20
968.85	5214.13
969.02	5410.73
969.18	5259.18
969.34	5406.64
969.51	5246.90
969.67	5298.10
969.83	5253.04
970.00	5214.13
970.16	5222.32
970.32	5224.37
970.48	5392.30
970.65	5169.07
970.81	5134.26
970.97	5132.21
971.14	5093.30
971.30	5214.13
971.46	5136.31
971.63	5205.94
971.79	5134.26
971.95	5154.74
972.11	5017.52
972.28	5169.07
972.44	5289.90
972.60	5060.53
972.76	5050.29
972.93	5042.10
973.09	5042.10
973.25	5056.43
973.42	5068.72
973.58	4964.28
973.74	4949.94
973.90	4972.47
974.07	5066.67
974.23	5197.74
974.39	5072.82
974.55	5044.15
974.72	5040.05
974.88	4716.47
975.04	5007.28
975.20	4870.07
975.37	4859.83
975.53	4704.18
975.69	4818.87
975.85	4896.69
976.01	4728.76
976.18	4837.30
976.34	4810.68
976.50	4865.97
976.66	4849.59
976.83	4861.88
976.99	4790.20
977.15	4804.53
977.31	4726.71
977.47	4978.61
977.64	4853.69
977.80	4831.16
977.96	4868.02
978.12	4644.79
978.29	4661.18
978.45	4687.80
978.61	4816.82
978.77	4640.70
978.93	4550.59
979.10	4573.11
979.26	4726.71
979.42	4605.88
979.58	4534.20
979.74	4560.83
979.91	4601.79
980.07	4509.63
980.23	4669.37
980.39	4519.87
980.55	4612.03
980.71	4612.03
980.88	4444.09
981.04	4435.90
981.20	4433.85
981.36	4519.87
981.52	4476.86
981.68	4483.00
981.85	4427.71
982.01	4591.55
982.17	4446.14
982.33	4403.13
982.49	4405.18
982.65	4224.96
982.82	4530.11
982.98	4403.13
983.14	4368.32
983.30	4405.18
983.46	4327.36
983.62	4431.80
983.79	4206.53
983.95	4403.13
984.11	4116.42
984.27	4247.49
984.43	4272.06
984.59	4353.98
984.75	4206.53
984.91	4153.28
985.08	4290.49
985.24	4161.47
985.40	4022.21
985.56	4296.64
985.72	4349.89
985.88	4177.86
986.04	4194.24
986.20	4151.23
986.37	4132.80
986.53	4059.07
986.69	4179.90
986.85	4118.47
987.01	4157.38
987.17	4153.28
987.33	4136.90
987.49	4057.03
987.65	4153.28
987.82	4073.41
987.98	3971.01
988.14	4077.51
988.30	4138.94
988.46	4116.42
988.62	4116.42
988.78	4138.94
988.94	4016.07
989.10	3952.58
989.26	3887.04
989.42	3919.81
989.59	3807.17
989.75	3841.99
989.91	3911.62
990.07	3844.04
990.23	3911.62
990.39	3971.01
990.55	3846.09
990.71	3913.67
990.87	3803.08
991.03	4028.35
991.19	3864.52
991.35	3852.23
991.51	3860.42
991.67	3823.56
991.83	3977.16
992.00	3911.62
992.16	3672.01
992.32	3753.93
992.48	3745.73
992.64	3637.19
992.80	3672.01
992.96	3688.39
993.12	3708.87
993.28	3905.48
993.44	3633.10
993.60	3723.21
993.76	3688.39
993.92	3690.44
994.08	3721.16
994.24	3653.58
994.40	3674.06
994.56	3678.15
994.72	3600.33
994.88	3598.28
995.04	3585.99
995.20	3542.99
995.36	3598.28
995.52	3590.09
995.68	3487.69
995.84	3508.17
996.00	3614.66
996.16	3456.97
996.32	3459.02
996.48	3547.08
996.64	3534.79
996.80	3467.21
996.96	3510.22
997.12	3440.59
997.28	3330.00
997.44	3413.96
997.60	3444.68
997.76	3416.01
997.92	3387.34
998.08	3485.64
998.24	3420.11
998.40	3426.25
998.56	3596.23
998.72	3387.34
998.88	3340.24
999.04	3368.91
999.20	3426.25
999.36	3198.93
999.52	3493.83
999.68	3391.44
999.84	3313.61
1000.00	3385.29
1000.16	3469.26
1000.32	3307.47
1000.48	3362.76
1000.64	3256.27
1000.80	3276.75
1000.95	3282.89
1001.11	3297.23
1001.27	3153.87
1001.43	3317.71
1001.59	3198.93
1001.75	3200.98
1001.91	3096.53
1002.07	3131.34
1002.23	3125.20
1002.39	3188.69
1002.55	3186.64
1002.71	3121.10
1002.87	3094.48
1003.03	3108.82
1003.19	3088.34
1003.34	3127.25
1003.50	3157.97
1003.66	3112.91
1003.82	3117.01
1003.98	3051.47
1004.14	3006.42
1004.30	3051.47
1004.46	3035.09
1004.62	3043.28
1004.78	3102.67
1004.94	3002.32
1005.09	3160.02
1005.25	3149.78
1005.41	3045.33
1005.57	3069.91
1005.73	3033.04
1005.89	2867.16
1006.05	3004.37
1006.21	3033.04
1006.37	2926.55
1006.52	2957.27
1006.68	2936.79
1006.84	3133.39
1007.00	2873.30
1007.16	2967.51
1007.32	2840.53
1007.48	2863.06
1007.64	2926.55
1007.79	2924.50
1007.95	2748.37
1008.11	2996.18
1008.27	2828.24
1008.43	2883.54
1008.59	2766.81
1008.75	2899.92
1008.91	2861.01
1009.06	2797.53
1009.22	2871.25
1009.38	2908.12
1009.54	2813.91
1009.70	2760.66
1009.86	2783.19
1010.01	2797.53
1010.17	2818.00
1010.33	2787.29
1010.49	2772.95
1010.65	2885.59
1010.81	2727.89
1010.96	2779.09
1011.12	2768.85
1011.28	2750.42
1011.44	2815.96
1011.60	2623.45
1011.76	2645.98
1011.91	2740.18
1012.07	2695.13
1012.23	2609.11
1012.39	2703.32
1012.55	2764.76
1012.71	2555.86
1012.86	2725.85
1013.02	2625.50
1013.18	2555.86
1013.34	2678.74
1013.50	2586.58
1013.65	2582.49
1013.81	2582.49
1013.97	2551.77
1014.13	2668.50
1014.29	2619.35
1014.44	2725.85
1014.60	2596.82
1014.76	2672.60
1014.92	2514.91
1015.07	2588.63
1015.23	2559.96
1015.39	2594.78
1015.55	2549.72
1015.71	2555.86
1015.86	2523.10
1016.02	2473.95
1016.18	2486.23
1016.34	2492.38
1016.49	2459.61
1016.65	2535.39
1016.81	2541.53
1016.97	2453.47
1017.12	2572.25
1017.28	2508.76
1017.44	2451.42
1017.60	2445.27
1017.75	2437.08
1017.91	2416.60
1018.07	2521.05
1018.23	2432.99
1018.38	2383.84
1018.54	2441.18
1018.70	2346.97
1018.86	2443.23
1019.01	2353.12
1019.17	2449.37
1019.33	2486.23
1019.49	2416.60
1019.64	2500.57
1019.80	2422.75
1019.96	2359.26
1020.12	2437.08
1020.27	2316.25
1020.43	2375.64
1020.59	2385.88
1020.74	2289.63
1020.90	2424.80
1021.06	2303.96
1021.22	2330.59
1021.37	2265.05
1021.53	2293.72
1021.69	2338.78
1021.84	2244.57
1022.00	2385.88
1022.16	2310.11
1022.31	2340.83
1022.47	2306.01
1022.63	2330.59
1022.79	2207.71
1022.94	2254.81
1023.10	2381.79
1023.26	2248.67
1023.41	2283.49
1023.57	2340.83
1023.73	2230.24
1023.88	2328.54
1024.04	2156.51
1024.20	2236.38
1024.35	2269.15
1024.51	2349.02
1024.67	2306.01
1024.82	2320.35
1024.98	2215.90
1025.14	2295.77
1025.29	2238.43
1025.45	2258.91
1025.61	2082.78
1025.76	2215.90
1025.92	2172.89
1026.08	2176.99
1026.23	2232.29
1026.39	2199.52
1026.55	2162.66
1026.70	2183.13
1026.86	2166.75
1027.02	2240.48
1027.17	2232.29
1027.33	2224.09
1027.48	2140.13
1027.64	2095.07
1027.80	2158.56
1027.95	2113.50
1028.11	2082.78
1028.27	2125.79
1028.42	2099.17
1028.58	2127.84
1028.73	2076.64
1028.89	2050.02
1029.05	2213.85
1029.20	2123.74
>>>>>End Processed Spectral Data<<<<<
