SpectraSuite Data File
++++++++++++++++++++++++++++++++++++
Date: Fri Jun 02 14:44:35 CEST 2017
User: INFO_000
Dark Spectrum Present: No
Reference Spectrum Present: No
Number of Sampled Component Spectra: 1
Spectrometers: USB4H00879
Integration Time (usec): 80000 (USB4H00879)
Spectra Averaged: 1 (USB4H00879)
Boxcar Smoothing: 0 (USB4H00879)
Correct for Electrical Dark: No (USB4H00879)
Strobe/Lamp Enabled: No (USB4H00879)
Correct for Detector Non-linearity: No (USB4H00879)
Correct for Stray Light: No (USB4H00879)
Number of Pixels in Processed Spectrum: 3648
>>>>>Begin Processed Spectral Data<<<<<
345.13	1298.41
345.34	1298.41
345.56	1298.41
345.78	1236.97
345.99	1236.97
346.21	1791.97
346.42	1665.00
346.64	1654.76
346.86	1834.98
347.07	1667.05
347.29	1695.72
347.50	1533.93
347.72	1673.19
347.94	1804.26
348.15	1558.50
348.37	1597.42
348.59	1669.09
348.80	1628.14
349.02	1812.45
349.23	1855.46
349.45	1761.25
349.67	1880.04
349.88	1787.88
350.10	1931.23
350.31	1744.87
350.53	1863.65
350.75	1968.10
350.96	1794.02
351.18	1804.26
351.39	1908.71
351.61	1863.65
351.82	1834.98
352.04	1916.90
352.26	1804.26
352.47	1830.88
352.69	1920.99
352.90	1759.21
353.12	1910.75
353.34	1832.93
353.55	1908.71
353.77	1935.33
353.98	1765.35
354.20	1812.45
354.41	1923.04
354.63	1920.99
354.85	1957.86
355.06	1912.80
355.28	1800.16
355.49	1867.75
355.71	1853.41
355.92	1892.32
356.14	1957.86
356.35	1822.69
356.57	1843.17
356.79	1847.27
357.00	1851.36
357.22	1902.56
357.43	1804.26
357.65	2000.87
357.86	1849.32
358.08	1923.04
358.29	1953.76
358.51	2002.91
358.72	1916.90
358.94	1990.63
359.16	1953.76
359.37	1900.52
359.59	2000.87
359.80	1947.62
360.02	1937.38
360.23	1980.39
360.45	1990.63
360.66	1937.38
360.88	1863.65
361.09	1863.65
361.31	1994.72
361.52	1978.34
361.74	2060.26
361.95	2088.93
362.17	1986.53
362.38	1959.91
362.60	1986.53
362.81	1931.23
363.03	1994.72
363.24	2011.11
363.46	2101.22
363.67	1961.95
363.89	1931.23
364.10	2000.87
364.32	2013.15
364.53	2050.02
364.75	1896.42
364.96	2019.30
365.18	2103.26
365.39	1978.34
365.61	1935.33
365.82	2084.83
366.04	2033.63
366.25	2103.26
366.47	1994.72
366.68	2021.35
366.90	1964.00
367.11	2097.12
367.33	2035.68
367.54	2045.92
367.76	2080.74
367.97	2041.82
368.19	2017.25
368.40	2090.98
368.62	2002.91
368.83	1906.66
369.05	2052.06
369.26	2027.49
369.48	2043.87
369.69	2039.78
369.91	2019.30
370.12	2000.87
370.33	2150.37
370.55	1984.48
370.76	1974.24
370.98	2066.40
371.19	2070.50
371.41	2052.06
371.62	2017.25
371.84	2009.06
372.05	2213.85
372.27	1992.67
372.48	2082.78
372.69	2052.06
372.91	2156.51
373.12	2172.89
373.34	2050.02
373.55	2050.02
373.77	2170.85
373.98	2115.55
374.20	2195.42
374.41	2232.29
374.62	2074.59
374.84	2207.71
375.05	2191.33
375.27	2074.59
375.48	2105.31
375.70	2179.04
375.91	2275.29
376.12	2291.68
376.34	2160.61
376.55	2211.81
376.77	2248.67
376.98	2162.66
377.19	2093.02
377.41	2093.02
377.62	2191.33
377.84	2187.23
378.05	2277.34
378.27	2213.85
378.48	2338.78
378.69	2428.89
378.91	2303.96
379.12	2191.33
379.34	2279.39
379.55	2312.16
379.76	2269.15
379.98	2195.42
380.19	2240.48
380.41	2312.16
380.62	2203.61
380.83	2234.33
381.05	2258.91
381.26	2373.60
381.47	2244.57
381.69	2342.88
381.90	2424.80
382.12	2252.77
382.33	2330.59
382.54	2322.40
382.76	2338.78
382.97	2293.72
383.19	2205.66
383.40	2334.68
383.61	2287.58
383.83	2248.67
384.04	2346.97
384.25	2328.54
384.47	2344.92
384.68	2383.84
384.89	2301.92
385.11	2256.86
385.32	2330.59
385.54	2283.49
385.75	2334.68
385.96	2484.19
386.18	2359.26
386.39	2441.18
386.60	2385.88
386.82	2418.65
387.03	2426.84
387.24	2545.63
387.46	2492.38
387.67	2402.27
387.88	2416.60
388.10	2508.76
388.31	2531.29
388.52	2574.30
388.74	2578.39
388.95	2461.66
389.16	2455.51
389.38	2494.43
389.59	2555.86
389.80	2648.02
390.02	2578.39
390.23	2699.22
390.44	2615.26
390.66	2607.06
390.87	2504.67
391.08	2613.21
391.30	2602.97
391.51	2695.13
391.72	2592.73
391.94	2742.23
392.15	2596.82
392.36	2664.41
392.58	2492.38
392.79	2658.26
393.00	2672.60
393.22	2744.28
393.43	2785.24
393.64	2822.10
393.85	2736.09
394.07	2666.46
394.28	2725.85
394.49	2762.71
394.71	2777.05
394.92	2811.86
395.13	2645.98
395.35	2791.38
395.56	2756.57
395.77	2807.77
395.98	2809.81
396.20	2951.12
396.41	2770.90
396.62	2961.36
396.84	2850.77
397.05	2875.35
397.26	2772.95
397.47	2869.20
397.69	2828.24
397.90	2930.64
398.11	2979.79
398.32	2934.74
398.54	3000.27
398.75	2901.97
398.96	2936.79
399.18	3119.06
399.39	2957.27
399.60	2977.75
399.81	2961.36
400.03	3043.28
400.24	3223.50
400.45	2936.79
400.66	3041.23
400.88	3004.37
401.09	3303.37
401.30	2955.22
401.51	3215.31
401.73	3112.91
401.94	3078.10
402.15	3108.82
402.36	3110.86
402.58	3055.57
402.79	3131.34
403.00	3166.16
403.21	3207.12
403.43	3291.09
403.64	3358.67
403.85	3198.93
404.06	3280.85
404.27	3030.99
404.49	3157.97
404.70	3125.20
404.91	3352.52
405.12	3248.08
405.34	3305.42
405.55	3387.34
405.76	3262.41
405.97	3250.13
406.19	3379.15
406.40	3264.46
406.61	3313.61
406.82	3483.59
407.03	3411.92
407.25	3305.42
407.46	3418.06
407.67	3448.78
407.88	3467.21
408.09	3413.96
408.31	3342.28
408.52	3352.52
408.73	3454.92
408.94	3405.77
409.15	3590.09
409.37	3502.03
409.58	3553.23
409.79	3502.03
410.00	3608.52
410.21	3383.24
410.43	3477.45
410.64	3409.87
410.85	3575.75
411.06	3489.74
411.27	3518.41
411.48	3600.33
411.70	3631.05
411.91	3676.10
412.12	3631.05
412.33	3678.15
412.54	3618.76
412.76	3751.88
412.97	3688.39
413.18	3637.19
413.39	3639.24
413.60	3698.63
413.81	3731.40
414.03	3596.23
414.24	3588.04
414.45	3874.76
414.66	3700.68
414.87	3735.50
415.08	3725.26
415.30	3889.09
415.51	3829.70
415.72	3760.07
415.93	3864.52
416.14	3866.56
416.35	3903.43
416.56	3751.88
416.78	3866.56
416.99	3981.25
417.20	3833.80
417.41	3901.38
417.62	3903.43
417.83	3950.53
418.04	3858.37
418.26	3942.34
418.47	4011.97
418.68	4069.31
418.89	4081.60
419.10	4138.94
419.31	4116.42
419.52	3989.44
419.73	4030.40
419.95	4022.21
420.16	3923.91
420.37	4116.42
420.58	4161.47
420.79	4018.11
421.00	3891.14
421.21	4239.30
421.42	4165.57
421.63	4097.99
421.85	4136.90
422.06	4321.21
422.27	4208.58
422.48	4216.77
422.69	4286.40
422.90	4247.49
423.11	4241.34
423.32	4302.78
423.53	4491.20
423.75	4335.55
423.96	4450.24
424.17	4304.83
424.38	4487.10
424.59	4536.25
424.80	4622.27
425.01	4374.46
425.22	4421.56
425.43	4345.79
425.64	4634.55
425.85	4618.17
426.06	4538.30
426.28	4554.68
426.49	4427.71
426.70	4523.96
426.91	4636.60
427.12	4687.80
427.33	4728.76
427.54	4530.11
427.75	4829.11
427.96	4845.49
428.17	4741.05
428.38	4825.01
428.59	4896.69
428.80	4777.91
429.01	4857.78
429.23	4878.26
429.44	4951.99
429.65	5130.16
429.86	4945.84
430.07	4798.39
430.28	4984.76
430.49	5019.57
430.70	5054.39
430.91	5101.49
431.12	5093.30
431.33	5216.18
431.54	5212.08
431.75	5279.66
431.96	5136.31
432.17	5261.23
432.38	5087.15
432.59	5476.27
432.80	5365.68
433.01	5369.77
433.22	5398.45
433.43	5377.97
433.64	5332.91
433.85	5404.59
434.06	5642.15
434.27	5375.92
434.49	5343.15
434.70	5543.85
434.91	5398.45
435.12	5541.80
435.33	5519.28
435.54	5574.57
435.75	5435.31
435.96	5580.71
436.17	5382.06
436.38	5545.90
436.59	5734.31
436.80	5740.46
437.01	5877.67
437.22	5889.96
437.43	5717.93
437.64	5615.53
437.85	5951.40
438.06	5859.24
438.27	5777.32
438.48	5883.81
438.69	5750.70
438.90	5939.11
439.11	5787.56
439.32	5914.53
439.53	5918.63
439.74	6006.69
439.95	5984.16
440.16	5908.39
440.37	5963.68
440.57	5971.88
440.78	6064.04
440.99	6172.58
441.20	6152.10
441.41	5834.66
441.62	6156.19
441.83	5879.72
442.04	6127.52
442.25	6137.76
442.46	6080.42
442.67	6393.76
442.88	6655.90
443.09	6135.71
443.30	6074.28
443.51	6191.01
443.72	6479.77
443.93	6301.60
444.14	6381.47
444.35	6297.50
444.56	6520.73
444.77	6444.96
444.98	6371.23
445.19	6447.01
445.40	6352.80
445.61	6545.31
445.81	6432.67
446.02	6473.63
446.23	6451.10
446.44	6414.24
446.65	6377.37
446.86	6553.50
447.07	6659.99
447.28	6553.50
447.49	6694.81
447.70	6514.59
447.91	6580.12
448.12	6762.39
448.33	6789.02
448.54	6754.20
448.74	6692.76
448.95	6770.58
449.16	6694.81
449.37	7073.68
449.58	6952.85
449.79	6983.57
450.00	6885.27
450.21	6891.41
450.42	6932.37
450.63	7016.34
450.84	6969.24
451.05	7188.37
451.25	6956.95
451.46	7047.06
451.67	7118.74
451.88	7303.06
452.09	7188.37
452.30	7167.89
452.51	7114.64
452.72	7305.10
452.93	7532.43
453.13	7090.07
453.34	7233.43
453.55	7208.85
453.76	7237.52
453.97	7597.96
454.18	7511.95
454.39	7616.40
454.60	7464.85
454.81	7425.93
455.01	7866.25
455.22	7280.53
455.43	7532.43
455.64	7663.50
455.85	7845.77
456.06	7872.39
456.27	7673.74
456.48	7688.07
456.68	7802.76
456.89	7937.93
457.10	7923.59
457.31	7968.65
457.52	7950.21
457.73	8212.35
457.94	8368.00
458.14	7849.86
458.35	8464.25
458.56	8421.25
458.77	8005.51
458.98	8236.93
459.19	8181.64
459.39	8443.78
459.60	8451.97
459.81	8267.65
460.02	8628.09
460.23	8574.85
460.44	8736.63
460.65	8832.89
460.85	8816.51
461.06	8918.90
461.27	8603.52
461.48	8955.77
461.69	9160.56
461.89	8687.48
462.10	8945.53
462.31	8728.44
462.52	9041.78
462.73	8986.49
462.94	9318.26
463.14	9156.47
463.35	9371.50
463.56	9596.78
463.77	9658.22
463.98	9174.90
464.18	9539.44
464.39	9582.45
464.60	9549.68
464.81	9637.74
465.02	9471.86
465.23	10037.09
465.43	9805.67
465.64	9961.32
465.85	9869.16
466.06	9707.37
466.27	10297.19
466.47	10375.01
466.68	10190.69
466.89	10080.10
467.10	10501.98
467.30	10102.63
467.51	10358.63
467.72	10639.20
467.93	10354.53
468.14	10483.55
468.34	10626.91
468.55	10755.93
468.76	10936.15
468.97	10649.44
469.17	10907.48
469.38	10966.87
469.59	11048.79
469.80	11102.04
470.01	11075.42
470.21	11120.47
470.42	11276.12
470.63	11382.61
470.84	11247.44
471.04	11482.96
471.25	11503.44
471.46	11573.07
471.67	11628.37
471.87	11810.64
472.08	11771.72
472.29	12007.24
472.50	11865.93
472.70	11898.70
472.91	11931.47
473.12	12166.98
473.33	12242.76
473.53	12316.48
473.74	12330.82
473.95	12572.48
474.16	12617.54
474.36	12480.32
474.57	12900.16
474.78	12957.50
474.99	12586.82
475.19	12558.14
475.40	13119.29
475.61	13262.65
475.81	13168.44
476.02	13098.81
476.23	13207.35
476.44	13567.79
476.64	13762.35
476.85	13688.62
477.06	13748.01
477.27	13803.31
477.47	14001.96
477.68	13752.11
477.89	13887.28
478.09	14139.18
478.30	14210.86
478.51	14040.87
478.71	14235.43
478.92	14653.22
479.13	14612.26
479.34	14610.21
479.54	14231.33
479.75	14843.68
479.96	14763.81
480.16	14735.14
480.37	15052.57
480.58	15214.36
480.78	15372.05
480.99	15050.52
481.20	15578.90
481.41	15320.85
481.61	15675.15
481.82	15679.25
482.03	15752.98
482.23	15582.99
482.44	15965.96
482.65	16228.10
482.85	16115.47
483.06	16047.88
483.27	16195.34
483.47	16025.36
483.68	16230.15
483.89	16647.94
484.09	16437.00
484.30	16684.80
484.51	16695.04
484.71	16822.02
484.92	16729.86
485.13	17086.20
485.33	17170.17
485.54	16918.27
485.75	17108.73
485.95	17338.10
486.16	17463.03
486.37	17759.98
486.57	17489.65
486.78	17596.15
486.98	17676.02
487.19	17932.01
487.40	17764.08
487.60	17952.49
487.81	18165.48
488.02	17995.50
488.22	18147.05
488.43	18145.00
488.64	18484.97
488.84	18347.75
489.05	18724.58
489.25	18681.57
489.46	18841.31
489.67	18671.33
489.87	19017.44
490.08	19033.82
490.29	19123.93
490.49	19427.03
490.70	19154.65
490.90	19445.46
491.11	19453.66
491.32	19685.08
491.52	19562.20
491.73	19736.27
491.94	19990.22
492.14	19826.39
492.35	20029.13
492.55	20027.09
492.76	20180.68
492.97	20373.19
493.17	20399.82
493.38	20598.47
493.58	20899.52
493.79	20575.94
494.00	20891.33
494.20	20889.28
494.41	20879.04
494.61	21233.34
494.82	21034.69
495.02	21036.74
495.23	21454.52
495.44	21536.44
495.64	21620.41
495.85	21925.55
496.05	21804.72
496.26	21522.10
496.47	22021.81
496.67	22015.66
496.88	22238.89
497.08	21958.32
497.29	22390.44
497.49	22128.30
497.70	22261.42
497.91	22523.56
498.11	22789.80
498.32	22828.71
498.52	23109.28
498.73	23084.70
498.93	22869.67
499.14	23111.33
499.34	23049.89
499.55	23662.23
499.76	23520.92
499.96	23547.54
500.17	23631.51
500.37	23695.00
500.58	23592.60
500.78	23729.81
500.99	23807.64
501.19	24327.82
501.40	24286.86
501.60	23807.64
501.81	24288.91
502.02	24172.18
502.22	24108.69
502.43	24053.39
502.63	24585.86
502.84	24344.20
503.04	24546.95
503.25	24700.55
503.45	24456.84
503.66	24940.16
503.86	24854.15
504.07	25255.55
504.27	24946.31
504.48	25482.88
504.68	25183.87
504.89	25626.23
505.09	25675.38
505.30	25333.37
505.50	25652.86
505.71	25775.73
505.91	25554.55
506.12	25560.70
506.32	25833.08
506.53	25939.57
506.73	25915.00
506.94	25859.70
507.14	25857.65
507.35	26308.21
507.55	26254.96
507.76	26336.88
507.96	26308.21
508.17	26320.49
508.37	26474.09
508.58	26648.17
508.78	26562.15
508.99	26816.10
509.19	26648.17
509.40	26756.71
509.60	27012.71
509.81	27029.09
510.01	26695.27
510.22	27391.58
510.42	26984.04
510.63	26934.88
510.83	26965.60
511.04	27237.98
511.24	27332.19
511.44	26986.08
511.65	27412.06
511.85	26873.45
512.06	27534.94
512.26	27457.12
512.47	27641.43
512.67	27528.80
512.88	27434.59
513.08	27371.10
513.29	27668.06
513.49	27555.42
513.69	27500.12
513.90	27756.12
514.10	28067.41
514.31	27967.06
514.51	27713.11
514.72	28243.54
514.92	28167.76
515.13	28104.28
515.33	28069.46
515.53	28034.64
515.74	28186.19
515.94	28339.79
516.15	28388.94
516.35	28137.04
516.56	28427.85
516.76	28309.07
516.96	28335.70
517.17	28702.28
517.37	28689.99
517.58	28530.25
517.78	28597.84
517.99	28608.08
518.19	28657.23
518.39	28773.96
518.60	29107.78
518.80	28956.23
519.01	28671.56
519.21	28991.05
519.41	29136.45
519.62	29005.38
519.82	29279.81
520.03	29265.47
520.23	29058.63
520.43	29052.48
520.64	29300.29
520.84	29769.27
521.05	29124.16
521.25	29699.64
521.45	29445.69
521.66	29460.03
521.86	29812.28
522.07	29574.72
522.27	29544.00
522.47	29845.05
522.68	30051.89
522.88	29875.77
523.08	30033.46
523.29	30199.35
523.49	30600.75
523.70	30551.60
523.90	30719.53
524.10	30416.43
524.31	30756.39
524.51	30316.08
524.71	30955.05
524.92	30518.83
525.12	30912.04
525.33	30768.68
525.53	31034.92
525.73	30924.33
525.94	31000.10
526.14	30725.68
526.34	31223.33
526.55	31174.18
526.75	31274.53
526.95	31415.84
527.16	31245.86
527.36	31583.77
527.56	31733.28
527.77	31850.01
527.97	31716.89
528.17	31925.78
528.38	32030.23
528.58	32130.58
528.78	32060.95
528.99	32005.66
529.19	32290.32
529.39	32103.96
529.60	32820.75
529.80	32591.37
530.00	32413.20
530.21	32865.80
530.41	32564.75
530.61	32531.98
530.82	32876.04
531.02	32953.87
531.22	33197.57
531.43	33099.27
531.63	33433.09
531.83	33467.91
532.04	33895.93
532.24	33148.42
532.44	34086.39
532.64	33879.55
532.85	34010.62
533.05	33971.71
533.25	34010.62
533.46	33834.49
533.66	34921.96
533.86	34315.76
534.07	34528.75
534.27	34805.23
534.47	34665.97
534.67	34811.37
534.88	34635.25
535.08	34665.97
535.28	35241.45
535.49	35159.53
535.69	35304.93
535.89	35304.93
536.09	35519.97
536.30	36027.87
536.50	35773.92
536.70	35831.26
536.91	35974.62
537.11	36257.24
537.31	36191.70
537.51	36267.48
537.72	36343.25
537.92	36849.10
538.12	36883.92
538.32	36668.88
538.53	36939.21
538.73	36625.87
538.93	36773.33
539.13	36847.05
539.34	37197.26
539.54	37010.89
539.74	37430.72
539.94	37414.34
540.15	37160.39
540.35	37903.81
540.55	37621.19
540.75	37678.53
540.96	37920.19
541.16	37995.96
541.36	38145.47
541.56	37879.23
541.77	37983.68
541.97	38030.78
542.17	38395.32
542.37	38608.31
542.58	38458.81
542.78	38825.39
542.98	38950.32
543.18	38929.84
543.38	39413.16
543.59	39241.13
543.79	39132.59
543.99	39441.83
544.19	39398.82
544.40	39687.59
544.60	39775.65
544.80	39673.25
545.00	39828.90
545.20	39992.73
545.41	39898.53
545.61	40039.84
545.81	40140.19
546.01	40097.18
546.21	39732.64
546.42	40334.74
546.62	40488.34
546.82	40226.20
547.02	40469.91
547.22	40408.47
547.43	40748.43
547.63	40555.93
547.83	40672.66
548.03	40457.62
548.23	40975.76
548.44	40707.47
548.64	41203.08
548.84	41022.86
549.04	41190.80
549.24	41041.29
549.45	41573.77
549.65	41186.70
549.85	41510.28
550.05	41584.01
550.25	41158.03
550.45	42247.55
550.66	41823.62
550.86	41366.92
551.06	41905.54
551.26	41710.98
551.46	41629.06
551.66	41872.77
551.87	42274.17
552.07	42272.12
552.27	42210.68
552.47	42190.20
552.67	42540.41
552.87	42208.64
553.07	42595.70
553.28	42542.45
553.48	42497.40
553.68	42284.41
553.88	42714.48
554.08	42669.43
554.28	42456.44
554.48	42515.83
554.69	42706.29
554.89	42661.24
555.09	42413.43
555.29	42655.09
555.49	42847.60
555.69	42896.75
555.89	42935.66
556.10	43130.22
556.30	42823.03
556.50	42868.08
556.70	43152.75
556.90	42837.36
557.10	43226.48
557.30	42749.30
557.50	43601.25
557.70	43572.58
557.91	43361.64
558.11	43160.94
558.31	43648.36
558.51	43529.58
558.71	43263.34
558.91	43603.30
559.11	43066.73
559.31	43021.68
559.51	43441.51
559.72	43281.77
559.92	43658.60
560.12	43677.03
560.32	43609.45
560.52	43535.72
560.72	43660.65
560.92	43691.37
561.12	43435.37
561.32	44254.56
561.52	43865.44
561.72	43783.52
561.93	43552.10
562.13	44127.58
562.33	43691.37
562.53	44420.44
562.73	43640.17
562.93	43750.76
563.13	43990.37
563.33	43785.57
563.53	44004.70
563.73	43644.26
563.93	44086.62
564.13	44504.41
564.33	44201.31
564.53	43963.75
564.74	44266.84
564.94	44062.05
565.14	44258.65
565.34	43828.58
565.54	44186.97
565.74	44326.24
565.94	44645.72
566.14	44174.69
566.34	43990.37
566.54	44313.95
566.74	43947.36
566.94	44119.39
567.14	44346.72
567.34	44299.61
567.54	44037.47
567.74	44205.41
567.94	44121.44
568.14	44569.94
568.34	44549.46
568.54	44227.93
568.74	44422.49
568.94	44291.42
569.14	44950.87
569.34	44678.49
569.54	44385.63
569.75	44533.08
569.95	44580.18
570.15	44889.43
570.35	44809.56
570.55	44619.10
570.75	44924.24
570.95	44684.63
571.15	44670.29
571.35	44551.51
571.55	45102.42
571.75	45047.12
571.95	44868.95
572.15	44602.71
572.35	45159.76
572.55	44739.93
572.75	45040.98
572.95	45120.85
573.15	45159.76
573.35	45090.13
573.55	45305.16
573.75	45172.05
573.95	44926.29
574.15	44899.67
574.35	45489.48
574.55	45198.67
574.75	45006.16
574.95	45573.45
575.15	45036.88
575.34	45389.13
575.54	45575.50
575.74	45768.01
575.94	45571.40
576.14	45469.00
576.34	45802.82
576.54	46230.85
576.74	45839.68
576.94	45421.90
577.14	46005.57
577.34	46243.13
577.54	45747.53
577.74	45700.42
577.94	46200.13
578.14	46073.15
578.34	46200.13
578.54	45469.00
578.74	45968.71
578.94	45892.93
579.14	46150.98
579.34	46642.49
579.54	46562.62
579.74	46452.03
579.94	46255.42
580.13	46761.27
580.33	46822.71
580.53	46689.59
580.73	46718.26
580.93	46914.87
581.13	46802.23
581.33	46976.31
581.53	46943.54
581.73	47308.08
581.93	47123.76
582.13	46906.68
582.33	46990.64
582.53	46914.87
582.73	47291.69
582.92	47537.45
583.12	47813.93
583.32	47199.54
583.52	47131.95
583.72	47652.14
583.92	47488.30
584.12	47549.74
584.32	47961.38
584.52	47940.90
584.72	47861.03
584.92	48266.53
585.11	48383.26
585.31	48471.32
585.51	48690.46
585.71	47912.23
585.91	48809.24
586.11	48330.01
586.31	48340.25
586.51	48332.06
586.71	48547.10
586.91	48733.46
587.10	48844.05
587.30	48784.66
587.50	48973.08
587.70	48897.30
587.90	49349.90
588.10	49108.24
588.30	49040.66
588.50	49177.87
588.69	49272.08
588.89	49472.78
589.09	49427.73
589.29	49374.48
589.49	49972.49
589.69	49397.01
589.89	49589.52
590.08	49653.00
590.28	49497.36
590.48	49771.78
590.68	49861.90
590.88	49784.07
591.08	50251.01
591.28	49616.14
591.47	50361.60
591.67	49763.59
591.87	50343.17
592.07	50353.41
592.27	50576.64
592.47	50427.13
592.67	50791.67
592.86	50672.89
593.06	50676.99
593.26	50341.12
593.46	50881.78
593.66	50312.45
593.86	50654.46
594.05	50947.32
594.25	51035.38
594.45	50605.31
594.65	51199.22
594.85	50824.44
595.05	51502.32
595.24	51485.93
595.44	51414.26
595.64	51242.23
595.84	51905.77
596.04	51533.04
596.23	52038.89
596.43	52255.97
596.63	51576.04
596.83	51868.90
597.03	52399.33
597.22	52452.58
597.42	52376.80
597.62	52645.08
597.82	52307.17
598.02	52172.00
598.21	52647.13
598.41	52360.42
598.61	52765.91
598.81	52387.04
599.01	52729.05
599.20	52696.28
599.40	52638.94
599.60	52759.77
599.80	52491.49
600.00	52704.48
600.19	53589.20
600.39	52761.82
600.59	53462.22
600.79	53275.86
600.98	53048.53
601.18	53343.44
601.38	53419.22
601.58	53677.26
601.78	53953.74
601.97	53378.26
602.17	54154.44
602.37	54072.52
602.57	53484.75
602.76	54041.80
602.96	53441.74
603.16	54023.37
603.36	53920.97
603.55	54604.99
603.75	54295.75
603.95	53976.26
604.15	54115.53
604.34	54295.75
604.54	54639.81
604.74	54447.30
604.94	54475.97
605.13	54541.50
605.33	54590.66
605.53	54453.44
605.73	54944.95
605.92	55008.44
606.12	54875.32
606.32	54768.83
606.52	54963.39
606.71	54787.26
606.91	55372.98
607.11	54590.66
607.30	54893.75
607.50	55086.26
607.70	55395.51
607.90	55260.34
608.09	55035.06
608.29	55495.86
608.49	55178.42
608.68	55289.01
608.88	54826.17
609.08	55346.36
609.28	55671.98
609.47	55329.97
609.67	55874.73
609.87	55520.43
610.06	55870.64
610.26	55764.14
610.46	55512.24
610.66	55665.84
610.85	55831.72
611.05	55489.71
611.25	55893.16
611.44	55334.07
611.64	55768.24
611.84	55252.15
612.03	55209.14
612.23	55651.50
612.43	55465.14
612.62	55356.60
612.82	56159.40
613.02	55653.55
613.21	55600.30
613.41	55293.11
613.61	55751.85
613.80	55116.98
614.00	55899.31
614.20	55698.61
614.39	55510.19
614.59	55657.65
614.79	55205.05
614.98	55655.60
615.18	55776.43
615.38	55774.38
615.57	55270.58
615.77	55219.38
615.97	55678.13
616.16	55876.78
616.36	55119.03
616.56	55956.65
616.75	55839.92
616.95	55071.93
617.15	55702.70
617.34	55301.30
617.54	55227.57
617.74	55454.90
617.93	55901.36
618.13	54697.15
618.32	55567.54
618.52	54910.14
618.72	55809.20
618.91	55440.56
619.11	55151.80
619.31	55014.58
619.50	55377.08
619.70	54998.20
619.90	55157.94
620.09	55184.57
620.29	55211.19
620.48	55141.56
620.68	55456.95
620.88	54797.50
621.07	55026.87
621.27	55094.46
621.46	54670.53
621.66	55026.87
621.86	55002.30
622.05	54613.18
622.25	54752.44
622.44	54934.71
622.64	54463.68
622.84	54748.35
623.03	54203.59
623.23	54996.15
623.42	54965.43
623.62	54752.44
623.82	55436.47
624.01	54940.86
624.21	55239.86
624.40	54688.96
624.60	54836.41
624.80	54686.91
624.99	54674.62
625.19	54222.02
625.38	54799.55
625.58	54387.91
625.77	54744.25
625.97	54385.86
626.17	54387.91
626.36	54269.12
626.56	54561.98
626.75	53912.78
626.95	54875.32
627.14	54330.56
627.34	54490.30
627.54	54537.41
627.73	54506.69
627.93	54576.32
628.12	54248.64
628.32	54199.49
628.51	54332.61
628.71	54607.04
628.90	54312.13
629.10	54596.80
629.30	54582.46
629.49	54258.88
629.69	54289.60
629.88	54230.21
630.08	54146.25
630.27	54340.80
630.47	54748.35
630.66	53953.74
630.86	54652.09
631.05	54322.37
631.25	54768.83
631.44	54492.35
631.64	54482.11
631.84	54510.78
632.03	54801.60
632.23	54015.18
632.42	54764.73
632.62	54998.20
632.81	54537.41
633.01	54455.49
633.20	54777.02
633.40	54613.18
633.59	54465.73
633.79	54070.47
633.98	54504.64
634.18	54875.32
634.37	54174.92
634.57	54426.82
634.76	54564.03
634.96	54594.75
635.15	54326.47
635.35	54295.75
635.54	54232.26
635.74	54705.34
635.93	54021.32
636.13	54795.45
636.32	54764.73
636.52	54121.67
636.71	54535.36
636.91	54662.33
637.10	54371.52
637.30	54273.22
637.49	54260.93
637.69	54506.69
637.88	54772.92
638.08	54559.94
638.27	54678.72
638.46	54752.44
638.66	54617.28
638.85	54680.77
639.05	54760.64
639.24	54934.71
639.44	54551.74
639.63	54629.57
639.83	54379.71
640.02	54678.72
640.22	54351.04
640.41	54766.78
640.61	54232.26
640.80	54867.13
640.99	54699.20
641.19	55243.96
641.38	54623.42
641.58	54355.14
641.77	54514.88
641.97	54406.34
642.16	54744.25
642.36	55327.92
642.55	55858.35
642.74	54711.49
642.94	55649.45
643.13	54824.12
643.33	55084.22
643.52	55125.17
643.72	55260.34
643.91	55309.49
644.10	55061.69
644.30	55293.11
644.49	55221.43
644.69	55557.30
644.88	55596.21
645.08	55045.30
645.27	55436.47
645.46	54602.94
645.66	55524.53
645.85	55233.72
646.05	55653.55
646.24	55407.79
646.43	55379.12
646.63	55684.27
646.82	55598.26
647.02	55647.41
647.21	55819.44
647.40	55434.42
647.60	55868.59
647.79	56128.68
647.99	55829.68
648.18	55702.70
648.37	56196.26
648.57	56157.35
648.76	56022.19
648.96	56171.69
649.15	56439.97
649.34	56562.85
649.54	56181.93
649.73	55712.94
649.92	56267.94
650.12	55899.31
650.31	56765.60
650.51	56681.63
650.70	56726.69
650.89	55919.79
651.09	56716.45
651.28	56382.63
651.47	56812.70
651.67	56456.35
651.86	56755.36
652.06	56292.52
652.25	56820.89
652.44	56571.04
652.64	56317.09
652.83	56659.10
653.02	56591.52
653.22	56831.13
653.41	56566.94
653.60	56515.75
653.80	56767.65
653.99	57189.53
654.18	56558.75
654.38	56868.00
654.57	56956.06
654.76	56939.68
654.96	57154.71
655.15	56890.52
655.34	56855.71
655.54	56482.98
655.73	56925.34
655.92	57644.18
656.12	57386.13
656.31	56745.12
656.50	56843.42
656.70	57197.72
656.89	57431.19
657.08	57078.94
657.28	57261.21
657.47	57009.31
657.66	57722.00
657.86	57439.38
658.05	57212.06
658.24	57982.09
658.43	57054.36
658.63	57574.55
658.82	57322.65
659.01	58137.74
659.21	57560.21
659.40	57767.05
659.59	57271.45
659.79	57482.39
659.98	57521.30
660.17	57851.02
660.36	57918.60
660.56	57873.55
660.75	57390.23
660.94	58127.50
661.14	57586.83
661.33	57824.40
661.52	57740.43
661.71	58168.46
661.91	57676.94
662.10	57992.33
662.29	57896.08
662.49	58111.11
662.68	57971.85
662.87	57678.99
663.06	57984.14
663.26	58223.75
663.45	58391.68
663.64	58502.28
663.83	58504.32
664.03	58363.01
664.22	57730.19
664.41	58147.98
664.60	57801.87
664.80	58057.87
664.99	57599.12
665.18	57851.02
665.37	58227.85
665.57	58524.80
665.76	57855.12
665.95	58025.10
666.14	58076.30
666.34	58369.16
666.53	58094.73
666.72	58014.86
666.91	58389.64
667.11	57947.28
667.30	58338.44
667.49	58504.32
667.68	58586.24
667.87	58281.09
668.07	58215.56
668.26	58569.86
668.45	58274.95
668.64	58094.73
668.84	58662.02
669.03	58315.91
669.22	58049.67
669.41	58721.41
669.60	58446.98
669.80	58344.58
669.99	58217.61
670.18	58117.26
670.37	58360.97
670.57	58819.71
670.76	58326.15
670.95	58520.71
671.14	58039.43
671.33	57781.39
671.53	58526.85
671.72	58287.24
671.91	58576.00
672.10	58205.32
672.29	58037.39
672.48	57949.32
672.68	58408.07
672.87	58240.14
673.06	58195.08
673.25	57824.40
673.44	58170.50
673.64	57967.76
673.83	58260.62
674.02	57744.53
674.21	58186.89
674.40	58123.40
674.59	57513.11
674.79	57808.01
674.98	58025.10
675.17	58283.14
675.36	57877.64
675.55	58354.82
675.74	57990.28
675.94	58055.82
676.13	58154.12
676.32	58266.76
676.51	58184.84
676.70	58160.26
676.89	57906.32
677.08	58414.21
677.28	57715.86
677.47	57932.94
677.66	58348.68
677.85	57726.10
678.04	58023.05
678.23	58006.67
678.42	58068.11
678.62	57463.96
678.81	57840.78
679.00	57310.36
679.19	58524.80
679.38	57820.30
679.57	58205.32
679.76	57517.20
679.96	58180.74
680.15	57726.10
680.34	57810.06
680.53	57242.77
680.72	57986.19
680.91	57818.25
681.10	57799.82
681.29	57848.97
681.48	57685.14
681.68	57285.78
681.87	57142.42
682.06	57205.91
682.25	57046.17
682.44	57472.15
682.63	57429.14
682.82	57250.97
683.01	57150.62
683.20	56491.17
683.39	57238.68
683.59	57035.93
683.78	56329.38
683.97	56614.05
684.16	56870.04
684.35	57134.23
684.54	56931.48
684.73	56865.95
684.92	56810.65
685.11	56886.43
685.30	56210.60
685.49	57048.22
685.69	56870.04
685.88	56802.46
686.07	56628.38
686.26	56743.07
686.45	56595.62
686.64	56437.92
686.83	56224.93
687.02	56267.94
687.21	56306.85
687.40	56648.86
687.59	56396.96
687.78	56239.27
687.97	56300.71
688.16	56304.80
688.35	56399.01
688.54	55743.66
688.74	56415.40
688.93	56057.00
689.12	55981.23
689.31	56128.68
689.50	55921.83
689.69	55647.41
689.88	55491.76
690.07	55985.32
690.26	55708.85
690.45	56171.69
690.64	55639.22
690.83	55733.42
691.02	55530.67
691.21	55692.46
691.40	55831.72
691.59	55674.03
691.78	55092.41
691.97	55456.95
692.16	55510.19
692.35	55579.82
692.54	55227.57
692.73	55555.25
692.92	55434.42
693.11	55237.81
693.30	54707.39
693.49	55567.54
693.68	55149.75
693.87	55444.66
694.06	54910.14
694.25	54990.01
694.44	54963.39
694.63	55162.04
694.82	54953.15
695.01	54787.26
695.20	54617.28
695.39	54441.15
695.58	54674.62
695.77	54287.56
695.96	54367.43
696.15	54412.48
696.34	53974.22
696.53	54455.49
696.72	55051.45
696.91	54312.13
697.10	54031.56
697.29	54156.49
697.48	54668.48
697.67	53910.73
697.86	53707.98
698.05	53771.47
698.24	54138.05
698.43	53566.67
698.62	54031.56
698.81	53849.29
699.00	54394.05
699.19	53480.66
699.38	54078.66
699.57	53873.87
699.76	54211.78
699.95	53636.30
700.14	53083.35
700.32	53507.28
700.51	53458.13
700.70	53998.79
700.89	53720.27
701.08	53337.30
701.27	53810.38
701.46	53568.72
701.65	52896.98
701.84	53429.46
702.03	53562.57
702.22	53429.46
702.41	53273.81
702.60	53454.03
702.79	53265.62
702.98	52798.68
703.17	52827.35
703.35	52872.41
703.54	52608.22
703.73	52831.45
703.92	53226.71
704.11	52538.59
704.30	52991.19
704.49	52462.82
704.68	52604.13
704.87	52274.40
705.06	52888.79
705.25	52552.93
705.43	52245.73
705.62	52995.29
705.81	52839.64
706.00	52368.61
706.19	52487.39
706.38	52319.46
706.57	52253.92
706.76	52448.48
706.95	52442.34
707.14	52294.88
707.32	52335.84
707.51	51952.87
707.70	51932.39
707.89	52303.07
708.08	51959.02
708.27	52323.55
708.46	52661.47
708.65	51717.35
708.84	51991.78
709.02	51803.37
709.21	52012.26
709.40	51836.14
709.59	52176.10
709.78	51952.87
709.97	52172.00
710.16	51737.83
710.34	51563.76
710.53	51881.19
710.72	51447.02
710.91	51369.20
711.10	51799.27
711.29	51897.58
711.48	51858.66
711.66	51037.43
711.85	51100.92
712.04	51565.81
712.23	51330.29
712.42	51428.59
712.61	51426.54
712.80	51381.49
712.98	51530.99
713.17	51023.09
713.36	51453.17
713.55	51236.08
713.74	51490.03
713.93	51322.10
714.11	51598.57
714.30	50775.29
714.49	51148.02
714.68	51131.64
714.87	50857.21
715.06	51336.43
715.24	50547.96
715.43	51053.81
715.62	50533.63
715.81	50447.61
716.00	51049.72
716.18	50781.43
716.37	50451.71
716.56	50527.48
716.75	51188.98
716.94	50507.01
717.12	50599.16
717.31	50846.97
717.50	50769.15
717.69	50500.86
717.88	50418.94
718.06	50830.58
718.25	50597.12
718.44	50357.50
718.63	50347.26
718.82	49982.73
719.00	50386.18
719.19	50255.11
719.38	50595.07
719.57	49683.72
719.76	50384.13
719.94	49853.70
720.13	49722.63
720.32	50099.46
720.51	49902.85
720.69	49706.25
720.88	49790.22
721.07	50017.54
721.26	49263.89
721.44	49677.58
721.63	49681.67
721.82	49515.79
722.01	49202.45
722.20	49552.65
722.38	49308.94
722.57	49345.81
722.76	49747.21
722.95	49370.38
723.13	49446.16
723.32	49036.56
723.51	49218.83
723.70	49128.72
723.88	49327.38
724.07	48895.25
724.26	49161.49
724.44	48256.29
724.63	49108.24
724.82	49362.19
725.01	48825.62
725.19	49028.37
725.38	48424.22
725.57	48598.30
725.76	48819.48
725.94	48612.63
726.13	48866.58
726.32	48813.34
726.51	48882.97
726.69	48973.08
726.88	49247.50
727.07	48938.26
727.25	48934.17
727.44	49059.09
727.63	48938.26
727.82	48579.87
728.00	48944.41
728.19	48903.45
728.38	48934.17
728.56	48719.13
728.75	49052.95
728.94	48760.09
729.12	48968.98
729.31	48471.32
729.50	49040.66
729.69	48981.27
729.87	48776.47
730.06	48747.80
730.25	48758.04
730.43	49345.81
730.62	48862.49
730.81	49208.59
730.99	48674.07
731.18	48772.38
731.37	49220.88
731.55	49272.08
731.74	49126.67
731.93	49335.57
732.11	49335.57
732.30	49220.88
732.49	48862.49
732.67	48596.25
732.86	48839.96
733.05	49085.72
733.23	48674.07
733.42	49050.90
733.61	48246.05
733.79	49163.54
733.98	48825.62
734.17	48776.47
734.35	48502.04
734.54	49001.75
734.73	48917.78
734.91	48993.56
735.10	48600.35
735.29	49282.32
735.47	48551.20
735.66	48792.86
735.84	48960.79
736.03	48149.79
736.22	49448.21
736.40	48061.73
736.59	48674.07
736.78	48547.10
736.96	48733.46
737.15	48766.23
737.33	48153.89
737.52	48860.44
737.71	48651.55
737.89	48526.62
738.08	48563.48
738.27	48561.44
738.45	49222.93
738.64	48739.61
738.82	48862.49
739.01	48991.51
739.20	48784.66
739.38	48669.98
739.57	48854.29
739.75	48465.18
739.94	48641.31
740.13	48526.62
740.31	48569.63
740.50	48606.49
740.68	48985.36
740.87	48590.11
741.06	48825.62
741.24	48342.30
741.43	48137.51
741.61	48401.69
741.80	47830.31
741.99	47975.72
742.17	48067.87
742.36	48168.22
742.54	48411.93
742.73	48391.45
742.91	48606.49
743.10	48463.13
743.29	48600.35
743.47	48297.25
743.66	48127.27
743.84	48565.53
744.03	48014.63
744.21	48319.77
744.40	48162.08
744.59	47985.96
744.77	47994.15
744.96	48235.81
745.14	48157.99
745.33	48086.31
745.51	47645.99
745.70	47846.69
745.88	47901.99
746.07	48141.60
746.26	47596.84
746.44	48014.63
746.63	47609.13
746.81	47627.56
747.00	47314.22
747.18	48024.87
747.37	47609.13
747.55	47854.89
747.74	47926.56
747.92	47592.75
748.11	47734.06
748.29	47670.57
748.48	47770.92
748.66	47240.50
748.85	47297.84
749.03	47177.01
749.22	47527.21
749.41	47078.71
749.59	47633.71
749.78	47269.17
749.96	46615.86
750.15	47228.21
750.33	47342.89
750.52	47754.54
750.70	47240.50
750.89	47256.88
751.07	46970.16
751.26	47156.53
751.44	47140.14
751.63	47015.22
751.81	46880.05
752.00	46986.55
752.18	46974.26
752.37	46650.68
752.55	46343.48
752.74	46654.78
752.92	46808.37
753.10	46445.88
753.29	46587.19
753.47	46769.46
753.66	46404.92
753.84	46855.48
754.03	46699.83
754.21	46429.50
754.40	46830.90
754.58	46937.40
754.77	46710.07
754.95	46265.66
755.14	46624.06
755.32	46359.87
755.51	46034.24
755.69	45811.01
755.88	46183.74
756.06	46216.51
756.24	45966.66
756.43	45864.26
756.61	45782.34
756.80	46048.58
756.98	45835.59
757.17	45774.15
757.35	45802.82
757.54	45782.34
757.72	46058.82
757.90	45546.82
758.09	45868.36
758.27	45626.70
758.46	45100.37
758.64	45262.16
758.83	45956.42
759.01	45450.57
759.19	45405.52
759.38	44848.47
759.56	45634.89
759.75	45374.80
759.93	45213.01
760.12	44871.00
760.30	45077.84
760.48	45122.90
760.67	44782.93
760.85	44938.58
761.04	45315.40
761.22	45079.89
761.40	45014.35
761.59	44887.38
761.77	44514.65
761.96	44621.14
762.14	44965.20
762.32	44352.86
762.51	44782.93
762.69	44442.97
762.88	44754.26
763.06	44238.17
763.24	44658.01
763.43	44782.93
763.61	44481.88
763.80	44559.70
763.98	44162.40
764.16	44461.40
764.35	43912.55
764.53	43539.82
764.72	43685.22
764.90	43939.17
765.08	43771.24
765.27	43994.46
765.45	43562.34
765.63	43457.90
765.82	43965.79
766.00	43437.42
766.18	43644.26
766.37	43808.10
766.55	43435.37
766.74	43591.01
766.92	42825.07
767.10	43464.04
767.29	43011.44
767.47	42956.14
767.65	43576.68
767.84	42714.48
768.02	43146.61
768.20	42687.86
768.39	43140.46
768.57	42759.54
768.75	42921.33
768.94	42560.89
769.12	42943.86
769.30	42300.79
769.49	42544.50
769.67	42403.19
769.85	42245.50
770.04	42593.65
770.22	42018.17
770.40	42106.24
770.59	42368.38
770.77	42349.95
770.95	42251.64
771.14	42057.09
771.32	42005.89
771.50	41571.72
771.69	41905.54
771.87	41993.60
772.05	41907.58
772.24	41336.20
772.42	41592.20
772.60	41522.57
772.78	41172.36
772.97	41895.30
773.15	41753.99
773.33	41649.54
773.52	41325.96
773.70	41438.60
773.88	42007.94
774.07	41008.53
774.25	41366.92
774.43	41588.10
774.61	41422.22
774.80	41782.66
774.98	41151.88
775.16	41653.64
775.34	41338.25
775.53	41272.71
775.71	41792.90
775.89	41100.68
776.08	41473.42
776.26	41555.33
776.44	40920.46
776.62	41051.53
776.81	41194.89
776.99	41375.11
777.17	41506.18
777.35	41368.97
777.54	41817.47
777.72	41029.01
777.90	41184.65
778.08	41434.50
778.27	40842.64
778.45	41407.88
778.63	41647.49
778.81	40967.57
779.00	41665.92
779.18	41530.76
779.36	41813.38
779.54	41428.36
779.73	41342.35
779.91	41581.96
780.09	41516.42
780.27	41803.14
780.46	41440.65
780.64	41399.69
780.82	41727.36
781.00	41430.41
781.19	41776.51
781.37	41770.37
781.55	41794.95
781.73	42286.46
781.91	41878.91
782.10	41549.19
782.28	41860.48
782.46	42020.22
782.64	41846.15
782.82	41508.23
783.01	41706.88
783.19	41842.05
783.37	41657.73
783.55	41293.19
783.74	41856.39
783.92	41479.56
784.10	42245.50
784.28	41946.50
784.46	41538.95
784.64	41491.85
784.83	41688.45
785.01	41901.44
785.19	41479.56
785.37	41860.48
785.55	41497.99
785.74	40942.99
785.92	40990.09
786.10	41762.18
786.28	41125.26
786.46	41106.83
786.64	40965.52
786.83	41444.74
787.01	41264.52
787.19	41041.29
787.37	40801.68
787.55	40869.26
787.74	40932.75
787.92	41065.87
788.10	40625.56
788.28	40719.76
788.46	40760.72
788.64	40584.60
788.82	40971.66
789.01	40631.70
789.19	40588.69
789.37	40347.03
789.55	40332.70
789.73	40160.67
789.91	39986.59
790.09	40156.57
790.28	39992.73
790.46	40265.11
790.64	40261.02
790.82	40199.58
791.00	39779.74
791.18	39603.62
791.36	39775.65
791.55	39873.95
791.73	39683.49
791.91	39441.83
792.09	39716.26
792.27	39427.49
792.45	39599.52
792.63	39394.73
792.81	39153.07
793.00	39425.45
793.18	39292.33
793.36	38677.94
793.54	38679.99
793.72	38577.59
793.90	38858.16
794.08	38401.46
794.26	38657.46
794.44	38299.06
794.62	38303.16
794.81	38446.52
794.99	37998.01
795.17	38423.99
795.35	38127.03
795.53	38096.31
795.71	38077.88
795.89	37881.28
796.07	37811.65
796.25	37492.16
796.43	37336.52
796.61	37555.65
796.80	37164.49
796.98	37299.65
797.16	37080.52
797.34	37109.19
797.52	36955.60
797.70	37520.84
797.88	36675.02
798.06	37055.95
798.24	36873.68
798.42	36881.87
798.60	36763.09
798.78	36748.75
798.96	36863.44
799.14	36519.38
799.32	36511.19
799.51	35788.25
799.69	36509.14
799.87	36341.21
800.05	35538.40
800.23	35821.02
800.41	36089.31
800.59	35806.69
800.77	35667.42
800.95	35223.01
801.13	35528.16
801.31	35354.08
801.49	35632.61
801.67	35259.88
801.85	35423.72
802.03	34885.10
802.21	34889.20
802.39	34741.74
802.57	34907.63
802.75	34842.09
802.93	35091.94
803.11	34860.52
803.29	34524.66
803.47	34313.72
803.65	34641.39
803.83	34444.79
804.01	34510.32
804.19	33936.89
804.37	34246.13
804.55	34199.03
804.73	33981.95
804.91	34018.81
805.09	33838.59
805.27	33904.12
805.45	33771.00
805.63	34014.71
805.81	33740.29
805.99	33707.52
806.17	34027.00
806.35	33310.21
806.53	33523.20
806.71	33330.69
806.89	33422.85
807.07	33439.23
807.25	33515.01
807.43	32986.63
807.61	33322.50
807.79	32949.77
807.97	33119.75
808.15	33041.93
808.33	32890.38
808.51	32585.23
808.69	32718.35
808.87	32525.84
809.05	32411.15
809.23	32425.49
809.41	32296.47
809.59	32366.10
809.77	32476.69
809.95	31960.60
810.13	31911.45
810.31	31913.50
810.49	32081.43
810.67	32163.35
810.84	31911.45
811.02	32204.31
811.20	31464.99
811.38	31739.42
811.56	31555.10
811.74	31602.21
811.92	31567.39
812.10	31307.30
812.28	31598.11
812.46	31340.07
812.64	31538.72
812.82	31039.01
813.00	31223.33
813.18	31518.24
813.36	31178.28
813.53	30983.72
813.71	31295.01
813.89	30928.42
814.07	31405.60
814.25	31114.79
814.43	30586.41
814.61	30541.36
814.79	30895.66
814.97	30516.78
815.15	30809.64
815.33	30643.76
815.50	30572.08
815.68	30561.84
815.86	30629.42
816.04	30301.75
816.22	30096.95
816.40	30139.96
816.58	30301.75
816.76	30256.69
816.94	30045.75
817.11	30072.37
817.29	30142.00
817.47	30012.98
817.65	29865.53
817.83	30094.90
818.01	30029.37
818.19	29496.89
818.37	29521.47
818.54	29408.83
818.72	29570.62
818.90	29607.48
819.08	29636.16
819.26	29709.88
819.44	29277.76
819.62	29527.61
819.80	29568.57
819.97	29326.91
820.15	29873.72
820.33	29574.72
820.51	29500.99
820.69	29034.05
820.87	29224.51
821.05	29529.66
821.22	29468.22
821.40	29128.26
821.58	28919.37
821.76	28862.02
821.94	28778.06
822.12	29013.57
822.29	29068.87
822.47	28489.29
822.65	29167.17
822.83	28829.26
823.01	28827.21
823.19	28696.14
823.36	28583.50
823.54	28390.99
823.72	28360.27
823.90	28651.08
824.08	28091.99
824.25	28044.88
824.43	28376.66
824.61	28178.00
824.79	28427.85
824.97	28231.25
825.15	28755.53
825.32	28339.79
825.50	28194.39
825.68	27911.77
825.86	28534.35
826.04	28421.71
826.21	28048.98
826.39	27960.92
826.57	27885.14
826.75	27778.65
826.93	28143.19
827.10	27874.90
827.28	27958.87
827.46	28157.52
827.64	27672.15
827.81	27829.85
827.99	28042.84
828.17	27895.38
828.35	27571.80
828.53	27747.93
828.70	27481.69
828.88	27606.62
829.06	27383.39
829.24	27633.24
829.41	27670.11
829.59	28044.88
829.77	27627.10
829.95	27475.55
830.12	27491.93
830.30	27260.51
830.48	27338.33
830.66	27432.54
830.84	27489.88
831.01	27098.72
831.19	27154.02
831.37	27289.18
831.55	27154.02
831.72	27065.96
831.90	27016.80
832.08	26971.75
832.25	27055.72
832.43	27033.19
832.61	27033.19
832.79	26824.29
832.96	26699.37
833.14	26842.73
833.32	27219.55
833.50	26803.82
833.67	26732.14
833.85	26545.77
834.03	26494.57
834.20	26883.69
834.38	26748.52
834.56	26979.94
834.74	26719.85
834.91	26588.78
835.09	26418.80
835.27	26367.60
835.44	26486.38
835.62	26277.49
835.80	26238.58
835.98	26242.67
836.15	26637.93
836.33	26013.30
836.51	26340.97
836.68	26201.71
836.86	26109.55
837.04	26312.30
837.21	26437.23
837.39	26326.64
837.57	26392.17
837.75	26261.10
837.92	25632.38
838.10	25992.82
838.28	25763.45
838.45	25587.32
838.63	25712.25
838.81	25990.77
838.98	25751.16
839.16	25755.26
839.34	25656.95
839.51	25769.59
839.69	25669.24
839.87	25429.63
840.04	25910.90
840.22	25808.50
840.40	25814.65
840.57	25501.31
840.75	25435.77
840.93	25474.68
841.10	25491.07
841.28	25771.64
841.46	25865.85
841.63	25558.65
841.81	25210.50
841.98	25558.65
842.16	25570.94
842.34	25312.89
842.51	25435.77
842.69	25558.65
842.87	25167.49
843.04	25337.47
843.22	24956.55
843.40	25364.09
843.57	25247.36
843.75	25171.58
843.92	25214.59
844.10	25210.50
844.28	25134.72
844.45	25157.25
844.63	25052.80
844.81	24921.73
844.98	24977.03
845.16	24743.56
845.33	25077.38
845.51	24731.27
845.69	25120.38
845.86	24815.24
846.04	24870.53
846.21	24549.00
846.39	24606.34
846.57	24399.50
846.74	24503.95
846.92	24561.29
847.09	24376.97
847.27	24305.29
847.45	24405.64
847.62	24637.06
847.80	24565.39
847.97	24309.39
848.15	24561.29
848.32	24323.72
848.50	24751.75
848.68	24264.33
848.85	24100.50
849.03	24096.40
849.20	24233.61
849.38	24047.25
849.56	24397.45
849.73	23901.84
849.91	23948.95
850.08	24166.03
850.26	23656.09
850.43	23815.83
850.61	23932.56
850.78	23789.20
850.96	23662.23
851.14	23891.60
851.31	23934.61
851.49	23590.55
851.66	24073.87
851.84	23789.20
852.01	23856.79
852.19	23903.89
852.36	23764.63
852.54	24053.39
852.71	23770.77
852.89	23613.08
853.07	23408.28
853.24	23709.33
853.42	23606.94
853.59	23606.94
853.77	23500.44
853.94	23226.01
854.12	23455.39
854.29	23140.00
854.47	23285.40
854.64	23475.87
854.82	23158.43
854.99	23303.84
855.17	23119.52
855.34	23158.43
855.52	22992.55
855.69	23320.22
855.87	23373.47
856.04	22967.97
856.22	22894.24
856.39	23000.74
856.57	23121.57
856.74	22902.43
856.92	23312.03
857.09	22785.70
857.27	22959.78
857.44	22927.01
857.62	23062.18
857.79	23195.29
857.97	22748.84
858.14	22746.79
858.32	22797.99
858.49	22877.86
858.67	22580.90
858.84	22591.14
859.02	22517.42
859.19	22468.27
859.37	22505.13
859.54	22439.59
859.72	22531.75
859.89	22519.46
860.06	22681.25
860.24	22331.05
860.41	22228.65
860.59	22433.45
860.76	22566.57
860.94	22066.86
861.11	22062.77
861.29	22331.05
861.46	22122.16
861.64	21941.94
861.81	22341.29
861.98	22105.77
862.16	22220.46
862.33	21839.54
862.51	22228.65
862.68	21806.77
862.86	22197.93
863.03	21769.91
863.21	21649.08
863.38	21821.11
863.55	21710.52
863.73	21776.05
863.90	21833.39
864.08	21481.14
864.25	21778.10
864.43	21284.54
864.60	21548.73
864.77	21520.06
864.95	21362.36
865.12	21229.24
865.30	21440.18
865.47	21307.07
865.64	21362.36
865.82	21440.18
865.99	21268.16
866.17	21384.89
866.34	21368.51
866.51	21274.30
866.69	21110.46
866.86	21354.17
867.04	21094.08
867.21	21165.76
867.38	20973.25
867.56	21135.04
867.73	20737.73
867.91	20963.01
868.08	21059.26
868.25	20256.46
868.43	20856.51
868.60	20424.39
868.78	20995.78
868.95	21006.02
869.12	20465.35
869.30	20496.07
869.47	20731.59
869.64	20602.57
869.82	20567.75
869.99	20649.67
870.16	20704.96
870.34	20319.95
870.51	20379.34
870.69	20254.41
870.86	20289.23
871.03	20526.79
871.21	20278.99
871.38	20328.14
871.55	20278.99
871.73	20047.57
871.90	20203.21
872.07	19629.78
872.25	19691.22
872.42	19840.72
872.59	20115.15
872.77	19889.87
872.94	19744.47
873.11	19840.72
873.29	19506.90
873.46	19680.98
873.63	19590.87
873.81	19896.02
873.98	19777.23
874.15	19345.11
874.33	19177.18
874.50	19463.90
874.67	19302.11
874.85	19025.63
875.02	19283.67
875.19	19343.06
875.37	19166.94
875.54	19359.45
875.71	19136.22
875.88	18853.60
876.06	19132.12
876.23	18806.50
876.40	19066.59
876.58	18972.38
876.75	19154.65
876.92	18872.03
877.10	18697.95
877.27	18798.31
877.44	18816.74
877.61	18636.52
877.79	18544.36
877.96	18482.92
878.13	18613.99
878.31	18284.26
878.48	18401.00
878.65	18202.35
878.82	18241.26
879.00	18511.59
879.17	18349.80
879.34	18353.90
879.51	18321.13
879.69	18095.85
879.86	17858.29
880.03	17932.01
880.21	17764.08
880.38	17874.67
880.55	18192.11
880.72	17913.58
880.90	17958.64
881.07	17669.87
881.24	17919.73
881.41	17934.06
881.59	17706.74
881.76	17764.08
881.93	17694.45
882.10	17323.77
882.28	17616.63
882.45	17628.92
882.62	17360.63
882.79	17792.75
882.96	17110.78
883.14	17383.16
883.31	17370.87
883.48	17536.76
883.65	17575.67
883.83	17446.65
884.00	17661.68
884.17	17465.08
884.34	17325.82
884.51	17225.47
884.69	17395.45
884.86	17045.24
885.03	17389.30
885.20	17127.16
885.38	17143.55
885.55	17278.71
885.72	17268.47
885.89	16981.76
886.06	17080.06
886.24	16955.13
886.41	17020.67
886.58	17309.43
886.75	17360.63
886.92	16656.13
887.10	16871.17
887.27	16736.00
887.44	17139.45
887.61	17118.97
887.78	16955.13
887.95	16826.11
888.13	16856.83
888.30	16721.66
888.47	16314.12
888.64	16649.99
888.81	16828.16
888.99	16500.48
889.16	16371.46
889.33	16236.30
889.50	16326.41
889.67	16205.58
889.84	16244.49
890.01	16441.09
890.19	16334.60
890.36	16324.36
890.53	16367.37
890.70	16033.55
890.87	16342.79
891.04	16166.67
891.22	15988.49
891.39	16045.84
891.56	16076.55
891.73	16002.83
891.90	15777.55
892.07	15990.54
892.24	15920.91
892.42	15970.06
892.59	15914.77
892.76	15685.39
892.93	15744.78
893.10	15986.44
893.27	15736.59
893.44	15695.63
893.61	15857.42
893.79	15900.43
893.96	15759.12
894.13	15644.43
894.30	15634.19
894.47	15763.22
894.64	15906.57
894.81	15613.71
894.98	15589.14
895.15	15462.16
895.33	15580.95
895.50	15488.79
895.67	15705.87
895.84	15406.87
896.01	15337.24
896.18	15474.45
896.35	15548.18
896.52	15523.60
896.69	15441.68
896.86	15533.84
897.04	15443.73
897.21	15173.40
897.38	15421.20
897.55	15705.87
897.72	15341.33
897.89	15320.85
898.06	15568.66
898.23	15341.33
898.40	15402.77
898.57	15597.33
898.74	15611.67
898.91	15308.57
899.08	15488.79
899.26	15482.64
899.43	15327.00
899.60	15238.94
899.77	15210.26
899.94	15400.72
900.11	15300.37
900.28	15300.37
900.45	15159.06
900.62	15052.57
900.79	15494.93
900.96	15126.30
901.13	15324.95
901.30	15435.54
901.47	15202.07
901.64	15114.01
901.81	15200.02
901.98	15038.23
902.15	15173.40
902.32	15181.59
902.49	15077.15
902.66	15177.50
902.83	15083.29
903.01	15218.46
903.18	15349.53
903.35	15097.63
903.52	14995.23
903.69	15077.15
903.86	15341.33
904.03	15271.70
904.20	15396.63
904.37	15173.40
904.54	15322.90
904.71	14958.36
904.88	15232.79
905.05	15124.25
905.22	15148.82
905.39	15027.99
905.56	14655.26
905.73	14882.59
905.90	15060.76
906.07	15040.28
906.24	15167.26
906.41	14786.33
906.58	15107.87
906.75	15081.24
906.92	14796.57
907.09	14821.15
907.26	15025.95
907.43	14833.44
907.60	14970.65
907.77	15167.26
907.93	14876.44
908.10	14972.70
908.27	15093.53
908.44	15027.99
908.61	15009.56
908.78	14831.39
908.95	14950.17
909.12	14823.20
909.29	15015.71
909.46	15120.15
909.63	15269.66
909.80	14835.49
909.97	14747.42
910.14	14788.38
910.31	14741.28
910.48	14714.66
910.65	14823.20
910.82	14528.29
910.99	14688.03
911.16	14876.44
911.33	14608.16
911.50	14669.60
911.66	14407.46
911.83	14677.79
912.00	14606.11
912.17	14274.34
912.34	14565.15
912.51	14616.35
912.68	14636.83
912.85	14501.67
913.02	14454.56
913.19	14262.05
913.36	14343.97
913.53	14446.37
913.70	14092.07
913.86	14448.42
914.03	14364.45
914.20	14405.41
914.37	14120.74
914.54	14325.54
914.71	14329.64
914.88	14264.10
915.05	14217.00
915.22	14079.79
915.39	14135.08
915.55	14231.33
915.72	13752.11
915.89	13901.61
916.06	13836.08
916.23	13811.50
916.40	13903.66
916.57	13825.84
916.74	13760.30
916.91	13700.91
917.07	13688.62
917.24	13639.47
917.41	13743.92
917.58	13885.23
917.75	13711.15
917.92	13377.33
918.09	13397.81
918.26	13418.29
918.42	13582.13
918.59	13596.46
918.76	13301.56
918.93	13360.95
919.10	13252.41
919.27	13184.82
919.44	13258.55
919.60	13389.62
919.77	13170.49
919.94	13244.21
920.11	12975.93
920.28	13174.58
920.45	12756.80
920.61	12875.58
920.78	12832.57
920.95	12775.23
921.12	12830.52
921.29	12818.24
921.46	12871.48
921.62	12496.71
921.79	12566.34
921.96	12465.99
922.13	12435.27
922.30	12365.64
922.47	12431.17
922.63	12406.59
922.80	12230.47
922.97	12212.04
923.14	12103.50
923.31	12388.16
923.47	12341.06
923.64	12422.98
923.81	12392.26
923.98	12017.48
924.15	12033.86
924.32	11970.38
924.48	11880.27
924.65	11974.47
924.82	11839.31
924.99	11808.59
925.15	11525.97
925.32	11738.96
925.49	11679.57
925.66	11816.78
925.83	11562.83
925.99	11536.21
926.16	11593.55
926.33	11536.21
926.50	11261.78
926.67	11587.41
926.83	11284.31
927.00	11294.55
927.17	11108.18
927.34	11204.44
927.50	11218.77
927.67	11229.01
927.84	11407.19
928.01	11044.70
928.17	10880.86
928.34	11116.37
928.51	10733.40
928.68	10905.43
928.84	10866.52
929.01	10819.42
929.18	10596.19
929.35	10774.36
929.51	10538.85
929.68	10612.57
929.85	10602.33
930.02	10534.75
930.18	10364.77
930.35	10360.67
930.52	10616.67
930.69	10358.63
930.85	10446.69
931.02	10141.54
931.19	10202.98
931.36	10463.07
931.52	10053.48
931.69	10311.52
931.86	10020.71
932.02	10082.15
932.19	9817.96
932.36	10069.86
932.53	9848.68
932.69	9785.19
932.86	9957.22
933.03	9801.58
933.19	9506.67
933.36	9809.77
933.53	9744.24
933.70	9539.44
933.86	9404.27
934.03	9480.05
934.20	9398.13
934.36	9426.80
934.53	9244.53
934.70	9164.66
934.86	9052.02
935.03	9031.54
935.20	9152.37
935.36	8961.91
935.53	8867.70
935.70	8834.94
935.86	8855.42
936.03	8718.20
936.20	8523.65
936.36	8439.68
936.53	8556.41
936.70	8472.45
936.86	8560.51
937.03	8298.37
937.20	8202.11
937.36	8234.88
937.53	8009.61
937.70	7894.92
937.86	7776.14
938.03	7847.82
938.20	7982.98
938.36	7577.48
938.53	7505.81
938.70	7397.26
938.86	7483.28
939.03	7403.41
939.20	7239.57
939.36	7292.82
939.53	7131.03
939.70	7108.50
939.86	6946.71
940.03	6823.83
940.19	6674.33
940.36	6791.06
940.53	6670.23
940.69	6653.85
940.86	6504.35
941.03	6528.92
941.19	6371.23
941.36	6369.18
941.52	6311.84
941.69	6266.78
941.86	6295.46
942.02	6201.25
942.19	6107.04
942.35	6213.54
942.52	5941.16
942.69	6018.98
942.85	5844.90
943.02	5828.52
943.18	5769.13
943.35	5783.46
943.52	5722.02
943.68	5709.74
943.85	5754.79
944.01	5564.33
944.18	5599.15
944.35	5564.33
944.51	5662.63
944.68	5382.06
944.84	5537.71
945.01	5525.42
945.17	5451.69
945.34	5402.54
945.51	5373.87
945.67	5355.44
945.84	5410.73
946.00	5343.15
946.17	5361.58
946.33	5369.77
946.50	5408.69
946.67	5349.29
946.83	5271.47
947.00	5261.23
947.16	5314.48
947.33	5296.05
947.49	5240.75
947.66	5308.34
947.82	5400.49
947.99	5285.81
948.16	5353.39
948.32	5398.45
948.49	5363.63
948.65	5377.97
948.82	5232.56
948.98	5261.23
949.15	5205.94
949.31	5361.58
949.48	5242.80
949.64	5273.52
949.81	5263.28
949.97	5380.01
950.14	5334.96
950.30	5205.94
950.47	5353.39
950.63	5201.84
950.80	5361.58
950.96	5273.52
951.13	5234.61
951.30	5367.73
951.46	5463.98
951.63	5443.50
951.79	5183.41
951.96	5314.48
952.12	5285.81
952.29	5201.84
952.45	5314.48
952.62	5296.05
952.78	5463.98
952.94	5447.60
953.11	5410.73
953.27	5373.87
953.44	5423.02
953.60	5296.05
953.77	5431.21
953.93	5463.98
954.10	5437.36
954.26	5529.52
954.43	5343.15
954.59	5586.86
954.76	5539.76
954.92	5496.75
955.09	5363.63
955.25	5627.82
955.42	5470.12
955.58	5599.15
955.75	5394.35
955.91	5504.94
956.07	5478.32
956.24	5441.45
956.40	5423.02
956.57	5525.42
956.73	5400.49
956.90	5562.28
957.06	5558.19
957.23	5468.08
957.39	5402.54
957.56	5502.89
957.72	5300.14
957.88	5263.28
958.05	5541.80
958.21	5455.79
958.38	5558.19
958.54	5525.42
958.71	5525.42
958.87	5550.00
959.03	5435.31
959.20	5621.67
959.36	5457.84
959.53	5468.08
959.69	5611.43
959.85	5527.47
960.02	5261.23
960.18	5439.40
960.35	5488.56
960.51	5556.14
960.68	5427.12
960.84	5472.17
961.00	5529.52
961.17	5445.55
961.33	5558.19
961.50	5451.69
961.66	5537.71
961.82	5529.52
961.99	5470.12
962.15	5490.60
962.31	5611.43
962.48	5525.42
962.64	5500.84
962.81	5468.08
962.97	5377.97
963.13	5398.45
963.30	5545.90
963.46	5459.88
963.62	5392.30
963.79	5435.31
963.95	5414.83
964.12	5289.90
964.28	5455.79
964.44	5250.99
964.61	5353.39
964.77	5472.17
964.93	5523.37
965.10	5298.10
965.26	5433.26
965.42	5343.15
965.59	5500.84
965.75	5414.83
965.92	5433.26
966.08	5271.47
966.24	5316.53
966.41	5341.10
966.57	5390.25
966.73	5318.57
966.90	5337.01
967.06	5296.05
967.22	5339.05
967.39	5263.28
967.55	5279.66
967.71	5214.13
967.88	5302.19
968.04	5179.31
968.20	5253.04
968.37	5226.42
968.53	5109.68
968.69	5283.76
968.85	5183.41
969.02	5171.12
969.18	5318.57
969.34	5234.61
969.51	5177.26
969.67	5232.56
969.83	5060.53
970.00	5177.26
970.16	5210.03
970.32	5218.22
970.48	5248.94
970.65	5068.72
970.81	5091.25
970.97	5130.16
971.14	4966.32
971.30	5212.08
971.46	5156.79
971.63	5250.99
971.79	5164.98
971.95	5033.91
972.11	5031.86
972.28	5062.58
972.44	5154.74
972.60	5066.67
972.76	5062.58
972.93	4972.47
973.09	5058.48
973.25	4992.95
973.42	5078.96
973.58	5113.78
973.74	4837.30
973.90	4804.53
974.07	4960.18
974.23	4941.75
974.39	4984.76
974.55	4902.84
974.72	4951.99
974.88	4640.70
975.04	4997.04
975.20	4923.32
975.37	4990.90
975.53	4865.97
975.69	4949.94
975.85	4960.18
976.01	4743.10
976.18	4865.97
976.34	4779.96
976.50	4835.25
976.66	4810.68
976.83	4874.17
976.99	4847.54
977.15	4704.18
977.31	4745.14
977.47	4937.65
977.64	4845.49
977.80	4835.25
977.96	4771.77
978.12	4693.94
978.29	4739.00
978.45	4511.68
978.61	4714.42
978.77	4638.65
978.93	4609.98
979.10	4673.46
979.26	4659.13
979.42	4671.42
979.58	4554.68
979.74	4681.66
979.91	4550.59
980.07	4573.11
980.23	4554.68
980.39	4403.13
980.55	4564.92
980.71	4566.97
980.88	4343.74
981.04	4423.61
981.20	4478.91
981.36	4480.96
981.52	4499.39
981.68	4425.66
981.85	4534.20
982.01	4394.94
982.17	4435.90
982.33	4433.85
982.49	4437.95
982.65	4458.43
982.82	4485.05
982.98	4319.17
983.14	4288.45
983.30	4409.28
983.46	4364.22
983.62	4380.61
983.79	4267.97
983.95	4317.12
984.11	4143.04
984.27	4310.97
984.43	4321.21
984.59	4245.44
984.75	4220.86
984.91	4306.88
985.08	4251.58
985.24	4179.90
985.40	4186.05
985.56	4321.21
985.72	4272.06
985.88	4210.62
986.04	4206.53
986.20	4210.62
986.37	4229.06
986.53	4227.01
986.69	4220.86
986.85	4073.41
987.01	4112.32
987.17	4206.53
987.33	4100.03
987.49	3971.01
987.65	4057.03
987.82	4020.16
987.98	4046.79
988.14	4140.99
988.30	4069.31
988.46	3977.16
988.62	4030.40
988.78	3940.29
988.94	3958.72
989.10	3909.57
989.26	3786.69
989.42	3971.01
989.59	3928.00
989.75	3829.70
989.91	3997.64
990.07	3811.27
990.23	3860.42
990.39	3844.04
990.55	3909.57
990.71	3780.55
990.87	3805.13
991.03	3864.52
991.19	3887.04
991.35	3866.56
991.51	3936.20
991.67	3907.52
991.83	3825.61
992.00	3815.37
992.16	3835.85
992.32	3878.85
992.48	3780.55
992.64	3641.29
992.80	3841.99
992.96	3739.59
993.12	3782.60
993.28	3770.31
993.44	3747.78
993.60	3667.91
993.76	3770.31
993.92	3841.99
994.08	3743.69
994.24	3774.41
994.40	3620.81
994.56	3706.82
994.72	3592.14
994.88	3817.41
995.04	3631.05
995.20	3532.75
995.36	3596.23
995.52	3569.61
995.68	3651.53
995.84	3528.65
996.00	3581.90
996.16	3542.99
996.32	3452.88
996.48	3473.36
996.64	3588.04
996.80	3626.95
996.96	3499.98
997.12	3477.45
997.28	3444.68
997.44	3424.20
997.60	3545.03
997.76	3268.56
997.92	3573.71
998.08	3483.59
998.24	3321.81
998.40	3502.03
998.56	3469.26
998.72	3321.81
998.88	3348.43
999.04	3375.05
999.20	3504.07
999.36	3393.48
999.52	3407.82
999.68	3332.05
999.84	3428.30
1000.00	3309.52
1000.16	3489.74
1000.32	3229.65
1000.48	3477.45
1000.64	3250.13
1000.80	3303.37
1000.95	3198.93
1001.11	3307.47
1001.27	3166.16
1001.43	3215.31
1001.59	3270.61
1001.75	3227.60
1001.91	3282.89
1002.07	3227.60
1002.23	3145.68
1002.39	3186.64
1002.55	3162.06
1002.71	3121.10
1002.87	3248.08
1003.03	3125.20
1003.19	3164.11
1003.34	3256.27
1003.50	3071.95
1003.66	3160.02
1003.82	3231.69
1003.98	3055.57
1004.14	3018.71
1004.30	2969.55
1004.46	3000.27
1004.62	3174.35
1004.78	2987.99
1004.94	3014.61
1005.09	3047.38
1005.25	3047.38
1005.41	3065.81
1005.57	3141.58
1005.73	3092.43
1005.89	3030.99
1006.05	3053.52
1006.21	2961.36
1006.37	2906.07
1006.52	2924.50
1006.68	2899.92
1006.84	3051.47
1007.00	2881.49
1007.16	3000.27
1007.32	2826.20
1007.48	2967.51
1007.64	2965.46
1007.79	2877.40
1007.95	2973.65
1008.11	2961.36
1008.27	2885.59
1008.43	2938.84
1008.59	2977.75
1008.75	2904.02
1008.91	2924.50
1009.06	2879.44
1009.22	2928.60
1009.38	2922.45
1009.54	2912.21
1009.70	2807.77
1009.86	2840.53
1010.01	2793.43
1010.17	2842.58
1010.33	2871.25
1010.49	2836.44
1010.65	2787.29
1010.81	2789.33
1010.96	2803.67
1011.12	2744.28
1011.28	2662.36
1011.44	2791.38
1011.60	2828.24
1011.76	2686.94
1011.91	2818.00
1012.07	2711.51
1012.23	2686.94
1012.39	2629.59
1012.55	2721.75
1012.71	2670.55
1012.86	2637.78
1013.02	2643.93
1013.18	2582.49
1013.34	2633.69
1013.50	2682.84
1013.65	2650.07
1013.81	2705.37
1013.97	2586.58
1014.13	2672.60
1014.29	2658.26
1014.44	2697.17
1014.60	2688.98
1014.76	2600.92
1014.92	2539.48
1015.07	2611.16
1015.23	2635.74
1015.39	2578.39
1015.55	2566.10
1015.71	2574.30
1015.86	2564.06
1016.02	2598.87
1016.18	2453.47
1016.34	2584.54
1016.49	2551.77
1016.65	2514.91
1016.81	2490.33
1016.97	2453.47
1017.12	2521.05
1017.28	2473.95
1017.44	2545.63
1017.60	2527.19
1017.75	2531.29
1017.91	2447.32
1018.07	2574.30
1018.23	2478.04
1018.38	2389.98
1018.54	2412.51
1018.70	2478.04
1018.86	2467.80
1019.01	2316.25
1019.17	2480.09
1019.33	2555.86
1019.49	2553.82
1019.64	2412.51
1019.80	2383.84
1019.96	2467.80
1020.12	2449.37
1020.27	2385.88
1020.43	2410.46
1020.59	2418.65
1020.74	2432.99
1020.90	2379.74
1021.06	2260.96
1021.22	2437.08
1021.37	2451.42
1021.53	2367.45
1021.69	2363.36
1021.84	2375.64
1022.00	2385.88
1022.16	2291.68
1022.31	2328.54
1022.47	2295.77
1022.63	2373.60
1022.79	2238.43
1022.94	2289.63
1023.10	2416.60
1023.26	2326.49
1023.41	2289.63
1023.57	2353.12
1023.73	2289.63
1023.88	2195.42
1024.04	2222.05
1024.20	2289.63
1024.35	2295.77
1024.51	2281.44
1024.67	2310.11
1024.82	2400.22
1024.98	2195.42
1025.14	2248.67
1025.29	2220.00
1025.45	2283.49
1025.61	2189.28
1025.76	2265.05
1025.92	2195.42
1026.08	2303.96
1026.23	2277.34
1026.39	2287.58
1026.55	2213.85
1026.70	2166.75
1026.86	2170.85
1027.02	2162.66
1027.17	2154.46
1027.33	2222.05
1027.48	2133.98
1027.64	2150.37
1027.80	2179.04
1027.95	2154.46
1028.11	2156.51
1028.27	2115.55
1028.42	2179.04
1028.58	2152.42
1028.73	1998.82
1028.89	2021.35
1029.05	2230.24
1029.20	2185.18
>>>>>End Processed Spectral Data<<<<<
