SpectraSuite Data File
++++++++++++++++++++++++++++++++++++
Date: Fri Jun 02 14:57:23 CEST 2017
User: INFO_000
Dark Spectrum Present: No
Reference Spectrum Present: No
Number of Sampled Component Spectra: 1
Spectrometers: USB4H00879
Integration Time (usec): 80000 (USB4H00879)
Spectra Averaged: 1 (USB4H00879)
Boxcar Smoothing: 0 (USB4H00879)
Correct for Electrical Dark: No (USB4H00879)
Strobe/Lamp Enabled: No (USB4H00879)
Correct for Detector Non-linearity: No (USB4H00879)
Correct for Stray Light: No (USB4H00879)
Number of Pixels in Processed Spectrum: 3648
>>>>>Begin Processed Spectral Data<<<<<
345.13	1308.65
345.34	1308.65
345.56	1308.65
345.78	1247.21
345.99	1339.37
346.21	1677.29
346.42	1759.21
346.64	1609.70
346.86	1740.77
347.07	1621.99
347.29	1740.77
347.50	1605.61
347.72	1722.34
347.94	1812.45
348.15	1564.65
348.37	1650.66
348.59	1732.58
348.80	1679.33
349.02	1734.63
349.23	1884.13
349.45	1767.40
349.67	1849.32
349.88	1771.49
350.10	2029.54
350.31	1902.56
350.53	1863.65
350.75	1964.00
350.96	1744.87
351.18	1882.08
351.39	1877.99
351.61	1814.50
351.82	1970.15
352.04	2011.11
352.26	1789.92
352.47	1875.94
352.69	1982.43
352.90	1689.57
353.12	1826.79
353.34	1804.26
353.55	1951.71
353.77	1923.04
353.98	1884.13
354.20	1949.67
354.41	1988.58
354.63	1857.51
354.85	2031.58
355.06	1890.28
355.28	1816.55
355.49	1929.19
355.71	1857.51
355.92	1912.80
356.14	1974.24
356.35	1906.66
356.57	1845.22
356.79	1867.75
357.00	1865.70
357.22	2002.91
357.43	1857.51
357.65	1945.57
357.86	1884.13
358.08	1927.14
358.29	1904.61
358.51	1986.53
358.72	1994.72
358.94	1914.85
359.16	1910.75
359.37	1978.34
359.59	2043.87
359.80	1929.19
360.02	1945.57
360.23	1978.34
360.45	2041.82
360.66	1896.42
360.88	1888.23
361.09	1912.80
361.31	1996.77
361.52	1978.34
361.74	2088.93
361.95	1990.63
362.17	1978.34
362.38	2052.06
362.60	2039.78
362.81	1982.43
363.03	1943.52
363.24	2027.49
363.46	2084.83
363.67	2072.54
363.89	2011.11
364.10	1945.57
364.32	1974.24
364.53	2062.30
364.75	1937.38
364.96	2035.68
365.18	2054.11
365.39	2025.44
365.61	2052.06
365.82	2117.60
366.04	1992.67
366.25	1974.24
366.47	2072.54
366.68	2070.50
366.90	2000.87
367.11	2119.65
367.33	2107.36
367.54	2103.26
367.76	1998.82
367.97	2080.74
368.19	2052.06
368.40	2025.44
368.62	1959.91
368.83	1980.39
369.05	2107.36
369.26	2056.16
369.48	1978.34
369.69	1918.95
369.91	2093.02
370.12	1998.82
370.33	2113.50
370.55	1996.77
370.76	2080.74
370.98	2158.56
371.19	2009.06
371.41	2117.60
371.62	2043.87
371.84	2058.21
372.05	2052.06
372.27	2058.21
372.48	2068.45
372.69	2052.06
372.91	2142.18
373.12	2187.23
373.34	2154.46
373.55	2123.74
373.77	2170.85
373.98	2090.98
374.20	2220.00
374.41	2351.07
374.62	2201.57
374.84	2129.89
375.05	2191.33
375.27	2222.05
375.48	2166.75
375.70	2166.75
375.91	2203.61
376.12	2238.43
376.34	2166.75
376.55	2269.15
376.77	2154.46
376.98	2197.47
377.19	2203.61
377.41	2160.61
377.62	2160.61
377.84	2361.31
378.05	2332.64
378.27	2248.67
378.48	2260.96
378.69	2398.17
378.91	2277.34
379.12	2246.62
379.34	2224.09
379.55	2342.88
379.76	2220.00
379.98	2248.67
380.19	2260.96
380.41	2201.57
380.62	2314.20
380.83	2312.16
381.05	2121.70
381.26	2371.55
381.47	2230.24
381.69	2252.77
381.90	2387.93
382.12	2316.25
382.33	2275.29
382.54	2342.88
382.76	2275.29
382.97	2334.68
383.19	2269.15
383.40	2363.36
383.61	2248.67
383.83	2303.96
384.04	2326.49
384.25	2316.25
384.47	2371.55
384.68	2351.07
384.89	2291.68
385.11	2371.55
385.32	2338.78
385.54	2424.80
385.75	2361.31
385.96	2357.21
386.18	2459.61
386.39	2404.32
386.60	2394.08
386.82	2387.93
387.03	2377.69
387.24	2400.22
387.46	2400.22
387.67	2488.28
387.88	2551.77
388.10	2527.19
388.31	2502.62
388.52	2535.39
388.74	2457.56
388.95	2435.03
389.16	2469.85
389.38	2451.42
389.59	2631.64
389.80	2623.45
390.02	2572.25
390.23	2660.31
390.44	2566.10
390.66	2490.33
390.87	2490.33
391.08	2619.35
391.30	2705.37
391.51	2648.02
391.72	2611.16
391.94	2658.26
392.15	2633.69
392.36	2699.22
392.58	2584.54
392.79	2664.41
393.00	2637.78
393.22	2666.46
393.43	2656.22
393.64	2785.24
393.85	2799.57
394.07	2605.02
394.28	2729.94
394.49	2772.95
394.71	2744.28
394.92	2871.25
395.13	2727.89
395.35	2633.69
395.56	2731.99
395.77	2699.22
395.98	2848.72
396.20	2891.73
396.41	2854.87
396.62	2895.83
396.84	2783.19
397.05	2717.65
397.26	2805.72
397.47	3010.51
397.69	2680.79
397.90	3125.20
398.11	2942.93
398.32	2906.07
398.54	2895.83
398.75	2906.07
398.96	2951.12
399.18	3020.75
399.39	2969.55
399.60	3123.15
399.81	2967.51
400.03	2957.27
400.24	3297.23
400.45	2975.70
400.66	3074.00
400.88	2983.89
401.09	3270.61
401.30	2998.23
401.51	3160.02
401.73	3096.53
401.94	3110.86
402.15	3235.79
402.36	3057.62
402.58	3162.06
402.79	3123.15
403.00	3147.73
403.21	3174.35
403.43	3139.54
403.64	3248.08
403.85	3022.80
404.06	3221.45
404.27	3114.96
404.49	3250.13
404.70	3119.06
404.91	3323.85
405.12	3282.89
405.34	3299.28
405.55	3444.68
405.76	3141.58
405.97	3338.19
406.19	3305.42
406.40	3258.32
406.61	3366.86
406.82	3317.71
407.03	3151.82
407.25	3346.38
407.46	3321.81
407.67	3440.59
407.88	3407.82
408.09	3327.95
408.31	3346.38
408.52	3477.45
408.73	3344.33
408.94	3422.16
409.15	3420.11
409.37	3446.73
409.58	3620.81
409.79	3452.88
410.00	3446.73
410.21	3420.11
410.43	3436.49
410.64	3452.88
410.85	3512.27
411.06	3493.83
411.27	3528.65
411.48	3641.29
411.70	3633.10
411.91	3581.90
412.12	3583.95
412.33	3463.12
412.54	3565.51
412.76	3721.16
412.97	3698.63
413.18	3516.36
413.39	3565.51
413.60	3592.14
413.81	3704.78
414.03	3723.21
414.24	3626.95
414.45	3817.41
414.66	3432.40
414.87	3665.86
415.08	3733.45
415.30	3678.15
415.51	3776.45
415.72	3717.06
415.93	3712.97
416.14	3796.93
416.35	3782.60
416.56	3672.01
416.78	3737.54
416.99	3858.37
417.20	3819.46
417.41	3878.85
417.62	3876.80
417.83	3911.62
418.04	3825.61
418.26	3958.72
418.47	3919.81
418.68	4044.74
418.89	4059.07
419.10	4100.03
419.31	3960.77
419.52	4018.11
419.73	3887.04
419.95	4083.65
420.16	3952.58
420.37	4034.50
420.58	4063.17
420.79	3907.52
421.00	4161.47
421.21	4067.27
421.42	4026.31
421.63	4165.57
421.85	4065.22
422.06	4157.38
422.27	4100.03
422.48	4026.31
422.69	4204.48
422.90	4179.90
423.11	4126.66
423.32	4339.65
423.53	4444.09
423.75	4190.14
423.96	4429.76
424.17	4315.07
424.38	4489.15
424.59	4337.60
424.80	4569.02
425.01	4417.47
425.22	4460.48
425.43	4323.26
425.64	4630.46
425.85	4655.03
426.06	4540.35
426.28	4462.52
426.49	4528.06
426.70	4521.92
426.91	4472.76
427.12	4644.79
427.33	4542.39
427.54	4526.01
427.75	4665.27
427.96	4765.62
428.17	4659.13
428.38	4689.85
428.59	4951.99
428.80	4739.00
429.01	4722.62
429.23	4835.25
429.44	4982.71
429.65	4876.21
429.86	4917.17
430.07	4812.73
430.28	4730.81
430.49	4888.50
430.70	5009.33
430.91	5101.49
431.12	4974.52
431.33	5189.55
431.54	5160.88
431.75	5074.87
431.96	5031.86
432.17	5107.63
432.38	5013.43
432.59	5205.94
432.80	5085.11
433.01	5214.13
433.22	5380.01
433.43	5300.14
433.64	5214.13
433.85	5183.41
434.06	5343.15
434.27	5281.71
434.49	5492.65
434.70	5400.49
434.91	5341.10
435.12	5386.16
435.33	5425.07
435.54	5560.24
435.75	5332.91
435.96	5433.26
436.17	5283.76
436.38	5527.47
436.59	5617.58
436.80	5582.76
437.01	5693.35
437.22	5638.06
437.43	5576.62
437.64	5597.10
437.85	5824.42
438.06	5631.91
438.27	5545.90
438.48	5715.88
438.69	5722.02
438.90	5822.38
439.11	5535.66
439.32	5736.36
439.53	5914.53
439.74	5830.57
439.95	5941.16
440.16	5904.29
440.37	5935.01
440.57	5758.89
440.78	5892.01
440.99	5971.88
441.20	5836.71
441.41	5924.77
441.62	5894.05
441.83	5898.15
442.04	5992.36
442.25	6043.56
442.46	6195.11
442.67	6139.81
442.88	6414.24
443.09	5935.01
443.30	6016.93
443.51	6154.15
443.72	6502.30
443.93	6135.71
444.14	6260.64
444.35	6078.37
444.56	6344.61
444.77	6285.22
444.98	6305.70
445.19	6385.57
445.40	6412.19
445.61	6373.28
445.81	6580.12
446.02	6420.38
446.23	6401.95
446.44	6240.16
446.65	6561.69
446.86	6483.87
447.07	6602.65
447.28	6549.40
447.49	6678.43
447.70	6561.69
447.91	6676.38
448.12	6664.09
448.33	6659.99
448.54	6827.93
448.74	6643.61
448.95	6772.63
449.16	6678.43
449.37	6950.81
449.58	6807.45
449.79	7085.97
450.00	6700.95
450.21	6885.27
450.42	7038.87
450.63	7008.15
450.84	6959.00
451.05	7069.59
451.25	7016.34
451.46	6881.18
451.67	7069.59
451.88	7047.06
452.09	7131.03
452.30	6999.96
452.51	7171.99
452.72	7339.92
452.93	7546.76
453.13	7012.24
453.34	7153.55
453.55	7071.64
453.76	7364.50
453.97	7458.70
454.18	7372.69
454.39	7452.56
454.60	7483.28
454.81	7446.41
455.01	7597.96
455.22	7462.80
455.43	7579.53
455.64	7790.47
455.85	7917.45
456.06	7901.06
456.27	7761.80
456.48	7788.43
456.68	7700.36
456.89	7907.21
457.10	7911.30
457.31	7774.09
457.52	7921.54
457.73	8118.15
457.94	8050.57
458.14	7882.63
458.35	8204.16
458.56	8200.07
458.77	7972.74
458.98	8241.03
459.19	8236.93
459.39	8310.66
459.60	8429.44
459.81	8210.31
460.02	8499.07
460.23	8537.98
460.44	8712.06
460.65	8519.55
460.85	8697.72
461.06	8705.92
461.27	8292.23
461.48	8720.25
461.69	8970.10
461.89	8494.97
462.10	8941.43
462.31	8865.66
462.52	8767.35
462.73	8826.75
462.94	9144.18
463.14	8953.72
463.35	9047.93
463.56	9492.34
463.77	9301.87
463.98	9117.56
464.18	9244.53
464.39	9336.69
464.60	9590.64
464.81	9371.50
465.02	9541.49
465.23	9783.15
465.43	9424.75
465.64	10063.72
465.85	9568.11
466.06	9303.92
466.27	10182.50
466.47	9799.53
466.68	9895.78
466.89	10076.01
467.10	10073.96
467.30	9971.56
467.51	10286.95
467.72	10395.49
467.93	9996.14
468.14	10235.75
468.34	10585.95
468.55	10385.25
468.76	10413.92
468.97	10276.71
469.17	10815.32
469.38	10555.23
469.59	11073.37
469.80	10694.49
470.01	10643.29
470.21	10809.18
470.42	10966.87
470.63	10905.43
470.84	11024.22
471.04	10977.11
471.25	11157.33
471.46	11153.24
471.67	11372.37
471.87	11202.39
472.08	11614.03
472.29	11777.87
472.50	11358.03
472.70	11601.74
472.91	11681.61
473.12	11863.88
473.33	11962.19
473.53	12033.86
473.74	11894.60
473.95	12050.25
474.16	12193.61
474.36	12390.21
474.57	12281.67
474.78	12490.56
474.99	12392.26
475.19	12263.24
475.40	12810.04
475.61	12648.26
475.81	13231.93
476.02	13008.70
476.23	12967.74
476.44	13008.70
476.64	13289.27
476.85	13651.76
477.06	13367.09
477.27	13408.05
477.47	13516.59
477.68	13399.86
477.89	13606.70
478.09	13731.63
478.30	14038.83
478.51	13989.67
478.71	13942.57
478.92	14104.36
479.13	14057.26
479.34	14552.87
479.54	14090.02
479.75	14475.04
479.96	14409.51
480.16	14778.14
480.37	14675.74
480.58	14903.07
480.78	15222.55
480.99	14825.25
481.20	15046.43
481.41	15341.33
481.61	15306.52
481.82	15640.34
482.03	15505.17
482.23	15568.66
482.44	15818.51
482.65	15859.47
482.85	15871.76
483.06	15933.20
483.27	15712.02
483.47	16092.94
483.68	16148.23
483.89	16297.74
484.09	16279.30
484.30	16381.70
484.51	16557.83
484.71	16377.61
484.92	16643.84
485.13	16819.97
485.33	17059.58
485.54	17053.44
485.75	17112.83
485.95	17381.11
486.16	17213.18
486.37	17211.13
486.57	17172.22
486.78	17270.52
486.98	17411.83
487.19	17600.24
487.40	17733.36
487.60	17876.72
487.81	18364.14
488.02	18319.08
488.22	17878.77
488.43	18294.50
488.64	18274.03
488.84	18327.27
489.05	18364.14
489.25	18573.03
489.46	18650.85
489.67	18802.40
489.87	19042.01
490.08	18986.72
490.29	19207.90
490.49	19283.67
490.70	19203.80
490.90	19392.22
491.11	19486.42
491.32	19642.07
491.52	19668.69
491.73	19459.80
491.94	19521.24
492.14	19826.39
492.35	20053.71
492.55	19916.50
492.76	20170.44
492.97	20199.12
493.17	20215.50
493.38	20123.34
493.58	20614.85
493.79	20598.47
494.00	20596.42
494.20	20555.46
494.41	20827.84
494.61	20897.47
494.82	21214.91
495.02	20698.82
495.23	21102.27
495.44	21354.17
495.64	21544.63
495.85	21188.28
496.05	21610.17
496.26	21176.00
496.47	22040.24
496.67	21290.68
496.88	21653.17
497.08	21812.92
497.29	22034.10
497.49	22001.33
497.70	22120.11
497.91	22216.36
498.11	22398.63
498.32	22378.15
498.52	22447.79
498.73	22703.78
498.93	22523.56
499.14	22699.69
499.34	22650.53
499.55	22890.15
499.76	22908.58
499.96	23043.74
500.17	22955.68
500.37	23037.60
500.58	23101.09
500.78	23176.86
500.99	23150.24
501.19	23459.48
501.40	23295.64
501.60	23430.81
501.81	23633.56
502.02	23633.56
502.22	23213.73
502.43	23699.09
502.63	24196.75
502.84	24049.30
503.04	23819.92
503.25	23994.00
503.45	24008.34
503.66	24209.04
503.86	24282.77
504.07	24180.37
504.27	24047.25
504.48	24721.03
504.68	24385.16
504.89	24964.74
505.09	24839.81
505.30	24837.76
505.50	24692.36
505.71	24972.93
505.91	24708.74
506.12	24757.89
506.32	24958.60
506.53	24995.46
506.73	25241.21
506.94	24907.40
507.14	25306.75
507.35	25294.46
507.55	25525.88
507.76	25597.56
507.96	25316.99
508.17	25687.67
508.37	25482.88
508.58	25722.49
508.78	25759.35
508.99	25771.64
509.19	25755.26
509.40	26103.41
509.60	25904.76
509.81	25806.45
510.01	26015.35
510.22	25720.44
510.42	26259.06
510.63	26146.42
510.83	26332.78
511.04	26439.28
511.24	26590.83
511.44	26465.90
511.65	26547.82
511.85	26494.57
512.06	26566.25
512.26	26730.09
512.47	26865.25
512.67	26799.72
512.88	26601.07
513.08	26695.27
513.29	27051.62
513.49	26975.84
513.69	26934.88
513.90	27074.15
514.10	26984.04
514.31	27088.48
514.51	27129.44
514.72	27020.90
514.92	27151.97
515.13	27457.12
515.33	27340.38
515.53	27752.02
515.74	27672.15
515.94	27623.00
516.15	27608.67
516.35	27481.69
516.56	27631.19
516.76	27743.83
516.96	27645.53
517.17	27928.15
517.37	28186.19
517.58	27903.57
517.78	28143.19
517.99	28243.54
518.19	28212.82
518.39	28362.32
518.60	28520.01
518.80	28368.46
519.01	28667.47
519.21	28649.03
519.41	28714.57
519.62	28669.51
519.82	28671.56
520.03	28722.76
520.23	28614.22
520.43	28710.47
520.64	29109.83
520.84	29097.54
521.05	28821.06
521.25	29357.63
521.45	29191.75
521.66	29326.91
521.86	29220.42
522.07	29359.68
522.27	29460.03
522.47	29554.24
522.68	29662.78
522.88	29503.04
523.08	30078.52
523.29	29634.11
523.49	29812.28
523.70	29746.75
523.90	30250.55
524.10	30142.00
524.31	30365.23
524.51	29990.45
524.71	30395.95
524.92	30330.42
525.12	30795.31
525.33	30627.37
525.53	30869.03
525.73	30862.89
525.94	30879.27
526.14	31063.59
526.34	30979.62
526.55	31188.52
526.75	31106.60
526.95	31567.39
527.16	31274.53
527.36	31209.00
527.56	31796.76
527.77	31766.04
527.97	31684.12
528.17	31749.66
528.38	31843.87
528.58	31686.17
528.78	32079.38
528.99	31927.83
529.19	32042.52
529.39	31989.27
529.60	32476.69
529.80	32495.12
530.00	32290.32
530.21	32593.42
530.41	32910.86
530.61	32384.53
530.82	32681.49
531.02	32681.49
531.22	32910.86
531.43	32886.28
531.63	33379.84
531.83	33388.03
532.04	33603.07
532.24	33287.68
532.44	33584.64
532.64	33586.69
532.85	33596.93
533.05	33883.64
533.25	33975.80
533.46	34129.40
533.66	34027.00
533.86	33988.09
534.07	34500.08
534.27	34319.86
534.47	34389.49
534.67	34569.71
534.88	34319.86
535.08	34670.06
535.28	35173.86
535.49	34815.47
535.69	35438.05
535.89	35110.38
536.09	35352.04
536.30	35354.08
536.50	35208.68
536.70	35599.84
536.91	35505.63
537.11	35323.36
537.31	35653.09
537.51	35948.00
537.72	36179.42
537.92	36023.77
538.12	36318.68
538.32	36007.39
538.53	36242.90
538.73	36144.60
538.93	36144.60
539.13	36290.01
539.34	36459.99
539.54	36388.31
539.74	37062.09
539.94	36650.45
540.15	36619.73
540.35	36849.10
540.55	36812.24
540.75	37256.65
540.96	37180.87
541.16	37242.31
541.36	37606.85
541.56	37070.28
541.77	37604.80
541.97	37410.25
542.17	37836.22
542.37	37707.20
542.58	37483.97
542.78	37422.53
542.98	37635.52
543.18	37815.74
543.38	38475.19
543.59	38165.95
543.79	37760.45
543.99	37952.96
544.19	38135.23
544.40	38110.65
544.60	38262.20
544.80	38251.96
545.00	38655.41
545.20	39163.31
545.41	38391.22
545.61	38843.82
545.81	38903.21
546.01	39112.11
546.21	38958.51
546.42	38626.74
546.62	39108.01
546.82	38841.78
547.02	38823.34
547.22	39495.08
547.43	39212.46
547.63	39253.42
547.83	39497.13
548.03	39085.48
548.23	39851.42
548.44	39572.90
548.64	39642.53
548.84	39495.08
549.04	39660.96
549.24	39792.03
549.45	40140.19
549.65	39769.51
549.85	39751.07
550.05	39943.58
550.25	40121.76
550.45	40641.94
550.66	39945.63
550.86	40113.56
551.06	40443.29
551.26	40517.01
551.46	40293.79
551.66	40320.41
551.87	40471.96
552.07	40631.70
552.27	40754.58
552.47	40752.53
552.67	40543.64
552.87	40492.44
553.07	41041.29
553.28	40795.54
553.48	41045.39
553.68	41006.48
553.88	41315.72
554.08	40967.57
554.28	41129.36
554.48	41084.30
554.69	41186.70
554.89	41307.53
555.09	41401.74
555.29	41401.74
555.49	41440.65
555.69	41530.76
555.89	41209.23
556.10	41287.05
556.30	41536.90
556.50	41760.13
556.70	41620.87
556.90	42083.71
557.10	42155.39
557.30	41762.18
557.50	42417.53
557.70	41801.09
557.91	42177.92
558.11	42034.56
558.31	42179.96
558.51	41772.42
558.71	42157.44
558.91	42108.29
559.11	42345.85
559.31	42360.19
559.51	41784.71
559.72	42200.44
559.92	42177.92
560.12	42425.72
560.32	42368.38
560.52	42411.38
560.72	42782.07
560.92	42524.02
561.12	42634.61
561.32	42419.58
561.52	42704.24
561.72	42878.32
561.93	42528.12
562.13	42966.38
562.33	42739.06
562.53	43482.47
562.73	42612.09
562.93	43103.60
563.13	43132.27
563.33	42972.53
563.53	43335.02
563.73	43031.92
563.93	43003.25
564.13	43568.49
564.33	43521.38
564.53	42980.72
564.74	43545.96
564.94	43175.28
565.14	43208.04
565.34	43167.09
565.54	43283.82
565.74	43146.61
565.94	43713.89
566.14	43484.52
566.34	43644.26
566.54	43728.23
566.74	43672.93
566.94	43758.95
567.14	43898.21
567.34	44086.62
567.54	43867.49
567.74	43894.11
567.94	43959.65
568.14	43955.55
568.34	44150.11
568.54	44041.57
568.74	43957.60
568.94	44006.75
569.14	44162.40
569.34	44031.33
569.54	44176.73
569.75	44074.34
569.95	44082.53
570.15	44473.69
570.35	44574.04
570.55	44168.54
570.75	44217.69
570.95	44369.24
571.15	44594.52
571.35	44782.93
571.55	44864.85
571.75	44508.50
571.95	44539.22
572.15	44635.48
572.35	44778.84
572.55	44838.23
572.75	44950.87
572.95	45102.42
573.15	44827.99
573.35	45145.42
573.55	44936.53
573.75	44950.87
573.95	45086.03
574.15	45149.52
574.35	45237.58
574.55	45159.76
574.75	45008.21
574.95	45487.43
575.15	45030.74
575.34	45202.77
575.54	45460.81
575.74	45952.32
575.94	45616.46
576.14	45870.40
576.34	45905.22
576.54	45954.37
576.74	45657.42
576.94	45686.09
577.14	45854.02
577.34	46040.39
577.54	45716.81
577.74	45796.68
577.94	46396.73
578.14	46331.20
578.34	46495.03
578.54	46136.64
578.74	45731.14
578.94	46605.62
579.14	46159.17
579.34	46114.11
579.54	46058.82
579.74	46691.64
579.94	46255.42
580.13	46511.42
580.33	46724.41
580.53	47172.91
580.73	47101.23
580.93	46847.29
581.13	47109.43
581.33	47238.45
581.53	47037.75
581.73	47404.33
581.93	47351.09
582.13	47047.99
582.33	47170.86
582.53	47127.86
582.73	47422.76
582.92	47813.93
583.12	47553.83
583.32	47179.06
583.52	47199.54
583.72	47775.02
583.92	47379.76
584.12	47783.21
584.32	47621.42
584.52	47938.85
584.72	47990.05
584.92	48096.55
585.11	48672.03
585.31	47957.28
585.51	48467.23
585.71	47531.31
585.91	48553.24
586.11	47797.54
586.31	47951.14
586.51	48461.08
586.71	47932.71
586.91	48907.54
587.10	48432.41
587.30	48416.03
587.50	48346.40
587.70	48823.58
587.90	48796.95
588.10	48647.45
588.30	48403.74
588.50	49032.47
588.69	48635.16
588.89	48821.53
589.09	49138.96
589.29	49112.34
589.49	49216.78
589.69	48864.53
589.89	49411.34
590.08	48755.99
590.28	49358.09
590.48	49325.33
590.68	49384.72
590.88	49237.26
591.08	49534.22
591.28	49235.22
591.47	49583.37
591.67	49358.09
591.87	49642.76
592.07	49603.85
592.27	49757.45
592.47	49376.53
592.67	49909.00
592.86	49321.23
593.06	49612.04
593.26	49741.06
593.46	49532.17
593.66	50060.55
593.86	49865.99
594.05	50042.12
594.25	50447.61
594.45	49773.83
594.65	50103.56
594.85	49763.59
595.05	50316.54
595.24	50595.07
595.44	49753.35
595.64	49927.43
595.84	50384.13
596.04	50267.39
596.23	50255.11
596.43	50685.18
596.63	50599.16
596.83	50730.23
597.03	50806.01
597.22	51160.31
597.42	51039.48
597.62	50953.46
597.82	51000.57
598.02	51369.20
598.21	51016.95
598.41	51082.48
598.61	51143.92
598.81	51242.23
599.01	51225.84
599.20	51207.41
599.40	50830.58
599.60	51463.41
599.80	51596.52
600.00	51434.74
600.19	51373.30
600.39	51109.11
600.59	51260.66
600.79	51922.15
600.98	51492.08
601.18	51586.28
601.38	51881.19
601.58	51991.78
601.78	51881.19
601.97	51983.59
602.17	52186.34
602.37	51850.47
602.57	52034.79
602.76	52401.38
602.96	51776.75
603.16	52419.81
603.36	52428.00
603.55	52495.58
603.75	52053.22
603.95	52346.08
604.15	52647.13
604.34	52464.86
604.54	52538.59
604.74	52569.31
604.94	52274.40
605.13	52790.49
605.33	52962.52
605.53	52493.54
605.73	53009.62
605.92	52786.39
606.12	52853.98
606.32	52950.23
606.52	52872.41
606.71	52999.38
606.91	53114.07
607.11	52974.81
607.30	52714.72
607.50	53021.91
607.70	53171.41
607.90	53019.86
608.09	53189.84
608.29	53392.59
608.49	53828.81
608.68	53574.86
608.88	53439.70
609.08	53249.24
609.28	53519.57
609.47	53204.18
609.67	53826.76
609.87	53296.34
610.06	53449.94
610.26	53400.79
610.46	54303.94
610.66	53562.57
610.85	53873.87
611.05	53966.02
611.25	53576.91
611.44	53724.36
611.64	53787.85
611.84	53515.47
612.03	53746.89
612.23	53654.73
612.43	53839.05
612.62	53456.08
612.82	53843.15
613.02	53949.64
613.21	53642.45
613.41	53798.09
613.61	53482.70
613.80	53490.90
614.00	53943.50
614.20	54006.98
614.39	54109.38
614.59	54170.82
614.79	53941.45
614.98	54078.66
615.18	54142.15
615.38	54015.18
615.57	54068.42
615.77	54265.03
615.97	53884.11
616.16	54109.38
616.36	53796.04
616.56	54285.51
616.75	54299.84
616.95	54209.73
617.15	53949.64
617.34	54334.66
617.54	54121.67
617.74	54482.11
617.93	54158.53
618.13	53585.10
618.32	54291.65
618.52	53777.61
618.72	54353.09
618.91	54494.40
619.11	53863.63
619.31	54047.94
619.50	54033.61
619.70	54035.66
619.90	53945.54
620.09	54355.14
620.29	54254.79
620.48	54219.97
620.68	54504.64
620.88	54168.77
621.07	53695.69
621.27	54271.17
621.46	53687.50
621.66	54219.97
621.86	54224.07
622.05	53980.36
622.25	54291.65
622.44	53667.02
622.64	53908.68
622.84	54215.88
623.03	54260.93
623.23	54144.20
623.42	53765.32
623.62	54058.18
623.82	54480.06
624.01	53923.02
624.21	54045.90
624.40	53771.47
624.60	54445.25
624.80	53654.73
624.99	54330.56
625.19	53894.35
625.38	54408.39
625.58	54191.30
625.77	54228.16
625.97	54252.74
626.17	53933.26
626.36	54070.47
626.56	53828.81
626.75	53408.98
626.95	54072.52
627.14	53691.60
627.34	54187.21
627.54	54101.19
627.73	54052.04
627.93	53869.77
628.12	53619.92
628.32	54023.37
628.51	54183.11
628.71	53761.23
628.90	53853.39
629.10	54176.97
629.30	54117.57
629.49	54113.48
629.69	53959.88
629.88	54140.10
630.08	54482.11
630.27	54381.76
630.47	54138.05
630.66	54123.72
630.86	54226.12
631.05	54043.85
631.25	54658.24
631.44	54086.85
631.64	54205.64
631.84	54025.42
632.03	54334.66
632.23	54779.07
632.42	54557.89
632.62	54504.64
632.81	54416.58
633.01	53998.79
633.20	54256.84
633.40	54809.79
633.59	54648.00
633.79	54150.34
633.98	54457.54
634.18	54455.49
634.37	53904.59
634.57	54621.37
634.76	54385.86
634.96	54461.63
635.15	54461.63
635.35	53853.39
635.54	54105.29
635.74	54840.51
635.93	54269.12
636.13	54695.10
636.32	54559.94
636.52	54551.74
636.71	54525.12
636.91	54512.83
637.10	54619.33
637.30	54645.95
637.49	54652.09
637.69	54283.46
637.88	54834.36
638.08	54015.18
638.27	54402.24
638.46	54445.25
638.66	54451.39
638.85	54275.27
639.05	54648.00
639.24	54856.89
639.44	54668.48
639.63	54949.05
639.83	54955.19
640.02	54834.36
640.22	54518.98
640.41	55348.40
640.61	54709.44
640.80	54682.81
640.99	54408.39
641.19	55364.79
641.38	54715.58
641.58	54576.32
641.77	54672.57
641.97	54883.51
642.16	54424.77
642.36	54766.78
642.55	55090.36
642.74	54697.15
642.94	55252.15
643.13	54953.15
643.33	55082.17
643.52	55233.72
643.72	55334.07
643.91	55022.78
644.10	55194.81
644.30	55139.51
644.49	55506.10
644.69	55403.70
644.88	55133.37
645.08	54787.26
645.27	54738.11
645.46	54641.85
645.66	55379.12
645.85	54981.82
646.05	55270.58
646.24	55428.27
646.43	55506.10
646.63	55735.47
646.82	55581.87
647.02	55270.58
647.21	55469.23
647.40	55356.60
647.60	55565.49
647.79	55671.98
647.99	55567.54
648.18	55360.69
648.37	55882.92
648.57	55608.50
648.76	55442.61
648.96	55243.96
649.15	55860.40
649.34	56419.49
649.54	55567.54
649.73	55534.77
649.92	55743.66
650.12	55510.19
650.31	56253.61
650.51	55854.25
650.70	55952.55
650.89	55782.57
651.09	56288.42
651.28	55866.54
651.47	56333.48
651.67	55788.72
651.86	56360.10
652.06	55612.59
652.25	55911.59
652.44	55930.03
652.64	55815.34
652.83	55526.58
653.02	55551.15
653.22	55891.12
653.41	55821.48
653.60	55522.48
653.80	55983.27
653.99	55987.37
654.18	55899.31
654.38	56212.65
654.57	55850.16
654.76	56161.45
654.96	55653.55
655.15	55854.25
655.34	56085.67
655.54	55616.69
655.73	55913.64
655.92	56235.17
656.12	55899.31
656.31	56321.19
656.50	55977.13
656.70	55698.61
656.89	55596.21
657.08	56145.06
657.28	56163.50
657.47	55952.55
657.66	56345.76
657.86	56353.96
658.05	56321.19
658.24	56511.65
658.43	55682.22
658.63	56112.30
658.82	56243.37
659.01	56257.70
659.21	56513.70
659.40	56591.52
659.59	56315.04
659.79	56315.04
659.98	56454.31
660.17	56341.67
660.36	55911.59
660.56	56382.63
660.75	56321.19
660.94	56081.58
661.14	56202.41
661.33	56108.20
661.52	55993.51
661.71	56583.33
661.91	56325.28
662.10	56341.67
662.29	56288.42
662.49	56433.83
662.68	56157.35
662.87	56454.31
663.06	56380.58
663.26	56331.43
663.45	56497.31
663.64	56476.83
663.83	56822.94
664.03	56812.70
664.22	56476.83
664.41	56775.84
664.60	56167.59
664.80	56419.49
664.99	56525.99
665.18	56358.05
665.37	56745.12
665.57	56540.32
665.76	56437.92
665.95	56753.31
666.14	56353.96
666.34	56485.03
666.53	56507.55
666.72	56290.47
666.91	56472.74
667.11	56282.28
667.30	56562.85
667.49	56454.31
667.68	56167.59
667.87	56399.01
668.07	56321.19
668.26	56437.92
668.45	56700.06
668.64	55932.07
668.84	56624.29
669.03	56566.94
669.22	56476.83
669.41	56478.88
669.60	57040.03
669.80	56495.27
669.99	57019.55
670.18	56153.26
670.37	56763.55
670.57	56935.58
670.76	56313.00
670.95	56949.92
671.14	56286.37
671.33	56083.62
671.53	56761.50
671.72	56818.84
671.91	56472.74
672.10	56417.44
672.29	56489.12
672.48	56716.45
672.68	56835.23
672.87	56378.53
673.06	56339.62
673.25	55743.66
673.44	56126.63
673.64	56134.82
673.83	56341.67
674.02	56474.79
674.21	56751.26
674.40	56753.31
674.59	56525.99
674.79	56552.61
674.98	56253.61
675.17	56792.22
675.36	56054.95
675.55	56413.35
675.74	56356.00
675.94	56239.27
676.13	56597.66
676.32	56911.00
676.51	56747.17
676.70	56310.95
676.89	56433.83
677.08	56804.51
677.28	56456.35
677.47	56386.72
677.66	56704.16
677.85	56239.27
678.04	56605.86
678.23	56261.80
678.42	56689.82
678.62	56425.64
678.81	56771.74
679.00	56124.58
679.19	56908.96
679.38	56325.28
679.57	56382.63
679.76	56530.08
679.96	56857.76
680.15	56501.41
680.34	56345.76
680.53	55960.75
680.72	55997.61
680.91	56554.66
681.10	55635.12
681.29	56081.58
681.48	56132.78
681.68	56372.39
681.87	56196.26
682.06	56222.89
682.25	55694.51
682.44	56284.33
682.63	56278.18
682.82	55723.18
683.01	56024.23
683.20	55815.34
683.39	56018.09
683.59	55446.71
683.78	55663.79
683.97	55674.03
684.16	55882.92
684.35	55776.43
684.54	55825.58
684.73	55753.90
684.92	55825.58
685.11	55620.78
685.30	55909.55
685.49	56071.34
685.69	55796.91
685.88	55983.27
686.07	55438.51
686.26	55489.71
686.45	55884.97
686.64	55942.31
686.83	55465.14
687.02	55837.87
687.21	55747.76
687.40	55428.27
687.59	55637.17
687.78	55520.43
687.97	55706.80
688.16	55536.82
688.35	55442.61
688.54	55385.27
688.74	55815.34
688.93	55614.64
689.12	55635.12
689.31	55835.82
689.50	55549.10
689.69	55452.85
689.88	55153.85
690.07	55348.40
690.26	55469.23
690.45	55719.09
690.64	54875.32
690.83	55246.00
691.02	55106.74
691.21	55069.88
691.40	55088.31
691.59	55123.13
691.78	54981.82
691.97	55469.23
692.16	55143.61
692.35	55358.64
692.54	54973.63
692.73	55219.38
692.92	55162.04
693.11	55106.74
693.30	54979.77
693.49	55116.98
693.68	54688.96
693.87	54957.24
694.06	54662.33
694.25	54688.96
694.44	54484.16
694.63	54621.37
694.82	54879.42
695.01	54400.19
695.20	54355.14
695.39	54738.11
695.58	54404.29
695.77	54633.66
695.96	54441.15
696.15	54502.59
696.34	54355.14
696.53	54383.81
696.72	54232.26
696.91	54357.19
697.10	54441.15
697.29	54256.84
697.48	54762.68
697.67	54146.25
697.86	54273.22
698.05	54078.66
698.24	54068.42
698.43	53763.28
698.62	54457.54
698.81	53933.26
699.00	54236.36
699.19	53884.11
699.38	53935.30
699.57	53634.25
699.76	53918.92
699.95	53843.15
700.14	53527.76
700.32	53712.08
700.51	53757.13
700.70	54258.88
700.89	54043.85
701.08	54217.92
701.27	53497.04
701.46	53791.95
701.65	53402.83
701.84	53808.33
702.03	53531.86
702.22	53400.79
702.41	53456.08
702.60	53812.43
702.79	53472.46
702.98	53245.14
703.17	53810.38
703.35	53716.17
703.54	53257.43
703.73	53353.68
703.92	53294.29
704.11	53302.48
704.30	53267.67
704.49	53017.82
704.68	52983.00
704.87	53081.30
705.06	52737.24
705.25	53146.84
705.43	52876.51
705.62	53249.24
705.81	52661.47
706.00	53013.72
706.19	52554.97
706.38	52645.08
706.57	52743.39
706.76	52968.66
706.95	52509.92
707.14	52966.62
707.32	52059.37
707.51	52690.14
707.70	52655.32
707.89	52593.89
708.08	52499.68
708.27	52704.48
708.46	52645.08
708.65	52368.61
708.84	52802.78
709.02	52688.09
709.21	52614.37
709.40	52360.42
709.59	52307.17
709.78	51952.87
709.97	52176.10
710.16	52331.75
710.34	51897.58
710.53	52104.42
710.72	51700.97
710.91	52206.82
711.10	52163.81
711.29	52370.66
711.48	52276.45
711.66	52180.20
711.85	51657.96
712.04	51623.15
712.23	51817.71
712.42	51889.38
712.61	51639.53
712.80	51426.54
712.98	51567.85
713.17	51844.33
713.36	51584.24
713.55	52006.12
713.74	51682.54
713.93	51621.10
714.11	51197.17
714.30	51162.36
714.49	51289.33
714.68	51188.98
714.87	51242.23
715.06	51518.70
715.24	51098.87
715.43	51395.82
715.62	50965.75
715.81	51117.30
716.00	51338.48
716.18	50840.82
716.37	50425.09
716.56	50844.92
716.75	51324.14
716.94	50734.33
717.12	50904.31
717.31	50990.33
717.50	50658.56
717.69	50273.54
717.88	51008.76
718.06	50775.29
718.25	51033.33
718.44	50148.61
718.63	50437.37
718.82	50033.92
719.00	50410.75
719.19	50099.46
719.38	50205.95
719.57	49759.50
719.76	49626.38
719.94	49591.56
720.13	49669.39
720.32	50652.41
720.51	50107.65
720.69	49855.75
720.88	50038.02
721.07	49990.92
721.26	49308.94
721.44	49349.90
721.63	49382.67
721.82	49333.52
722.01	48870.68
722.20	49442.06
722.38	49253.65
722.57	48536.86
722.76	49167.63
722.95	49290.51
723.13	48600.35
723.32	48866.58
723.51	48887.06
723.70	48543.00
723.88	48715.03
724.07	48545.05
724.26	48487.71
724.44	48377.12
724.63	49050.90
724.82	48588.06
725.01	48401.69
725.19	48272.67
725.38	48289.06
725.57	48198.94
725.76	48510.24
725.94	48071.97
726.13	48110.88
726.32	48168.22
726.51	47955.24
726.69	48717.08
726.88	48215.33
727.07	47930.66
727.25	48244.00
727.44	48231.71
727.63	48248.10
727.82	48147.75
728.00	47938.85
728.19	47684.90
728.38	48354.59
728.56	47596.84
728.75	48022.82
728.94	47480.11
729.12	48166.18
729.31	48422.17
729.50	47592.75
729.69	48149.79
729.87	48031.01
730.06	47836.45
730.25	47740.20
730.43	48295.20
730.62	47672.62
730.81	48309.53
730.99	48272.67
731.18	47609.13
731.37	47662.38
731.55	47910.18
731.74	47850.79
731.93	47756.58
732.11	47699.24
732.30	47871.27
732.49	47514.92
732.67	47863.08
732.86	47742.25
733.05	47662.38
733.23	46980.40
733.42	47654.18
733.61	47404.33
733.79	47416.62
733.98	48008.48
734.17	47627.56
734.35	47387.95
734.54	47715.62
734.73	47527.21
734.91	47895.85
735.10	47684.90
735.29	47818.02
735.47	47177.01
735.66	47650.09
735.84	47699.24
736.03	47318.32
736.22	47332.65
736.40	47308.08
736.59	47142.19
736.78	47226.16
736.96	47215.92
737.15	47285.55
737.33	46978.36
737.52	47146.29
737.71	46693.69
737.89	46837.05
738.08	46519.61
738.27	47039.79
738.45	47125.81
738.64	47322.41
738.82	46740.79
739.01	46896.44
739.20	46914.87
739.38	47144.24
739.57	46748.98
739.75	46908.72
739.94	46310.72
740.13	47174.96
740.31	46757.17
740.50	46849.33
740.68	46601.53
740.87	46865.72
741.06	47101.23
741.24	46773.56
741.43	46208.32
741.61	46757.17
741.80	46687.54
741.99	46202.18
742.17	46388.54
742.36	46822.71
742.54	46474.55
742.73	46472.51
742.91	46921.01
743.10	46265.66
743.29	46460.22
743.47	46447.93
743.66	46144.83
743.84	46214.46
744.03	45931.84
744.21	45933.89
744.40	46292.29
744.59	46163.26
744.77	45937.99
744.96	46118.21
745.14	46216.51
745.33	45999.43
745.51	46177.60
745.70	45706.57
745.88	46224.70
746.07	45962.56
746.26	45753.67
746.44	45841.73
746.63	45964.61
746.81	45716.81
747.00	45798.73
747.18	45657.42
747.37	45792.58
747.55	45643.08
747.74	45929.80
747.92	45634.89
748.11	45174.09
748.29	45614.41
748.48	45573.45
748.66	45530.44
748.85	45415.76
749.03	45520.20
749.22	45608.26
749.41	45143.38
749.59	45485.39
749.78	45344.08
749.96	44967.25
750.15	45268.30
750.33	45430.09
750.52	45337.93
750.70	45626.70
750.89	45043.02
751.07	44811.60
751.26	45079.89
751.44	45182.29
751.63	45200.72
751.81	44852.56
752.00	44813.65
752.18	44983.63
752.37	44807.51
752.55	44733.78
752.74	44879.19
752.92	44565.85
753.10	44602.71
753.29	44711.25
753.47	44135.77
753.66	44506.46
753.84	45260.11
754.03	44633.43
754.21	43906.40
754.40	44324.19
754.58	44662.10
754.77	44207.45
754.95	44197.21
755.14	44131.68
755.32	44141.92
755.51	43804.00
755.69	44098.91
755.88	44356.96
756.06	44158.30
756.24	43920.74
756.43	43879.78
756.61	43681.13
756.80	43449.70
756.98	43461.99
757.17	44172.64
757.35	44148.06
757.54	43636.07
757.72	43986.27
757.90	43584.87
758.09	43541.86
758.27	43564.39
758.46	43717.99
758.64	43742.56
758.83	44215.65
759.01	44135.77
759.19	43783.52
759.38	43941.22
759.56	43560.30
759.75	43591.01
759.93	43591.01
760.12	43437.42
760.30	43429.23
760.48	43388.27
760.67	43314.54
760.85	43230.57
761.04	43490.66
761.22	43404.65
761.40	42892.66
761.59	43414.89
761.77	43044.21
761.96	43171.18
762.14	43099.50
762.32	43165.04
762.51	42712.44
762.69	42730.87
762.88	42909.04
763.06	43156.85
763.24	42581.37
763.43	42878.32
763.61	42747.25
763.80	42620.28
763.98	42532.22
764.16	42636.66
764.35	42569.08
764.53	41960.83
764.72	42562.93
764.90	42253.69
765.08	42538.36
765.27	42665.33
765.45	42071.42
765.63	42089.85
765.82	42188.16
766.00	42165.63
766.18	42241.40
766.37	42388.86
766.55	41903.49
766.74	41983.36
766.92	41745.80
767.10	41731.46
767.29	41981.31
767.47	41622.92
767.65	41688.45
767.84	41715.08
768.02	41846.15
768.20	41330.06
768.39	41694.60
768.57	41708.93
768.75	41461.13
768.94	41612.68
769.12	41399.69
769.30	41256.33
769.49	41692.55
769.67	41272.71
769.85	41325.96
770.04	41459.08
770.22	40818.07
770.40	40932.75
770.59	41389.45
770.77	40938.90
770.95	41094.54
771.14	40607.12
771.32	40633.75
771.50	41149.84
771.69	40693.14
771.87	40672.66
772.05	40856.98
772.24	40623.51
772.42	40590.74
772.60	40760.72
772.78	40220.06
772.97	40574.36
773.15	40818.07
773.33	40607.12
773.52	40246.68
773.70	40461.72
773.88	40486.29
774.07	40318.36
774.25	40607.12
774.43	40742.29
774.61	40873.36
774.80	40510.87
774.98	40701.33
775.16	40711.57
775.34	40560.02
775.53	40396.18
775.71	40463.77
775.89	40861.07
776.08	40908.18
776.26	40707.47
776.44	40725.91
776.62	40496.53
776.81	40596.88
776.99	41061.77
777.17	40439.19
777.35	40703.38
777.54	40969.61
777.72	40744.34
777.90	40846.74
778.08	40865.17
778.27	41026.96
778.45	41223.56
778.63	41065.87
778.81	40856.98
779.00	41461.13
779.18	41104.78
779.36	41409.93
779.54	41020.81
779.73	40691.09
779.91	41252.23
780.09	41383.30
780.27	41155.98
780.46	41039.25
780.64	41528.71
780.82	41194.89
781.00	41375.11
781.19	41964.93
781.37	41289.10
781.55	41297.29
781.73	41403.78
781.91	41651.59
782.10	41278.86
782.28	41246.09
782.46	41465.22
782.64	41573.77
782.82	41452.94
783.01	41571.72
783.19	41432.46
783.37	41514.37
783.55	41293.19
783.74	41418.12
783.92	41381.26
784.10	42091.90
784.28	41588.10
784.46	41291.15
784.64	40981.90
784.83	41645.44
785.01	41764.23
785.19	41471.37
785.37	41907.58
785.55	41514.37
785.74	41422.22
785.92	41530.76
786.10	42040.70
786.28	41704.84
786.46	41276.81
786.64	41268.62
786.83	41676.16
787.01	41846.15
787.19	41524.61
787.37	41448.84
787.55	41377.16
787.74	41039.25
787.92	41508.23
788.10	40613.27
788.28	40687.00
788.46	41371.02
788.64	40924.56
788.82	41174.41
789.01	41117.07
789.19	41057.68
789.37	40566.16
789.55	40945.04
789.73	40568.21
789.91	40465.81
790.09	40531.35
790.28	40428.95
790.46	40265.11
790.64	40748.43
790.82	40453.53
791.00	40461.72
791.18	39968.16
791.36	40437.14
791.55	40897.94
791.73	39900.58
791.91	39773.60
792.09	40068.51
792.27	39939.49
792.45	40134.04
792.63	39349.67
792.81	39437.73
793.00	39706.02
793.18	39634.34
793.36	39435.69
793.54	39361.96
793.72	39142.83
793.90	39140.78
794.08	38663.60
794.26	39349.67
794.44	38706.61
794.62	38602.16
794.81	39101.87
794.99	38849.97
795.17	38553.01
795.35	38725.04
795.53	38952.37
795.71	38692.27
795.89	38247.86
796.07	38307.26
796.25	37922.24
796.43	38241.72
796.61	37817.79
796.80	38159.80
796.98	38008.25
797.16	37488.07
797.34	37584.32
797.52	37639.62
797.70	38098.36
797.88	37631.43
798.06	37643.71
798.24	37490.12
798.42	37295.56
798.60	37287.37
798.78	37406.15
798.96	37340.61
799.14	36945.36
799.32	37232.07
799.51	36632.02
799.69	37027.28
799.87	37006.80
800.05	36607.44
800.23	36775.37
800.41	36582.87
800.59	36705.74
800.77	36455.89
800.95	36115.93
801.13	36312.53
801.31	36410.84
801.49	36126.17
801.67	36126.17
801.85	36025.82
802.03	36087.26
802.21	35814.88
802.39	35472.87
802.57	35771.87
802.75	35413.48
802.93	35667.42
803.11	35528.16
803.29	35126.76
803.47	35421.67
803.65	35196.39
803.83	34991.59
804.01	35016.17
804.19	34913.77
804.37	35079.66
804.55	34995.69
804.73	34567.66
804.91	34659.82
805.09	34764.27
805.27	34432.50
805.45	34930.16
805.63	34977.26
805.81	34608.62
805.99	34731.50
806.17	34457.07
806.35	34233.85
806.53	34268.66
806.71	34330.10
806.89	34174.45
807.07	34059.77
807.25	34008.57
807.43	33676.80
807.61	33783.29
807.79	33494.53
807.97	33412.61
808.15	33310.21
808.33	33349.12
808.51	33351.17
808.69	33224.20
808.87	33054.22
809.05	32912.91
809.23	33052.17
809.41	33254.92
809.59	32775.69
809.77	33076.74
809.95	33007.11
810.13	33127.94
810.31	32632.33
810.49	32972.30
810.67	32716.30
810.84	32396.82
811.02	32284.18
811.20	32259.60
811.38	32269.84
811.56	32235.03
811.74	32216.60
811.92	31966.74
812.10	32351.76
812.28	32474.64
812.46	32374.29
812.64	31995.42
812.82	31739.42
813.00	32048.66
813.18	31991.32
813.36	31821.34
813.53	31288.87
813.71	31739.42
813.89	31792.67
814.07	31751.71
814.25	31499.81
814.43	31260.20
814.61	31034.92
814.79	31127.08
814.97	31376.93
815.15	31395.36
815.33	31039.01
815.50	30750.25
815.68	31137.32
815.86	31350.31
816.04	30635.56
816.22	30623.28
816.40	30838.31
816.58	30899.75
816.76	30565.93
816.94	30463.54
817.11	30555.69
817.29	30606.89
817.47	30475.82
817.65	30733.87
817.83	30582.32
818.01	30123.57
818.19	29935.16
818.37	30084.66
818.54	30086.71
818.72	29902.39
818.90	30119.48
819.08	30076.47
819.26	30152.24
819.44	29593.15
819.62	29785.66
819.80	29660.73
819.97	29939.26
820.15	30047.80
820.33	29107.78
820.51	29632.06
820.69	29562.43
820.87	29615.68
821.05	29713.98
821.22	29376.06
821.40	29369.92
821.58	29486.65
821.76	29333.06
821.94	29427.26
822.12	29269.57
822.29	29376.06
822.47	29263.43
822.65	29228.61
822.83	29216.32
823.01	28939.85
823.19	29152.84
823.36	28747.34
823.54	28710.47
823.72	28733.00
823.90	28847.69
824.08	28464.72
824.25	29185.60
824.43	28438.09
824.61	28616.27
824.79	28497.49
824.97	28372.56
825.15	28431.95
825.32	28548.68
825.50	28012.12
825.68	28161.62
825.86	28487.25
826.04	28554.83
826.21	28331.60
826.39	27977.30
826.57	28091.99
826.75	28075.60
826.93	27528.80
827.10	28079.70
827.28	28159.57
827.46	28075.60
827.64	28051.03
827.81	27831.90
827.99	27891.29
828.17	27858.52
828.35	27504.22
828.53	27428.45
828.70	27817.56
828.88	27774.55
829.06	27498.08
829.24	27618.91
829.41	27760.22
829.59	27606.62
829.77	27493.98
829.95	27450.97
830.12	27455.07
830.30	27352.67
830.48	27391.58
830.66	27588.19
830.84	27041.38
831.01	27362.91
831.19	27131.49
831.37	27283.04
831.55	27297.38
831.72	26971.75
831.90	26953.32
832.08	27020.90
832.25	26873.45
832.43	26943.08
832.61	26594.92
832.79	26543.72
832.96	26748.52
833.14	26871.40
833.32	26973.80
833.50	26656.36
833.67	26525.29
833.85	26418.80
834.03	26302.06
834.20	26463.85
834.38	26566.25
834.56	26797.67
834.74	26388.08
834.91	26285.68
835.09	26437.23
835.27	26125.94
835.44	26375.79
835.62	25745.02
835.80	26295.92
835.98	26060.40
836.15	26322.54
836.33	25843.32
836.51	26214.00
836.68	26089.07
836.86	25892.47
837.04	26044.02
837.21	25955.96
837.39	25904.76
837.57	25980.53
837.75	25646.71
837.92	25400.96
838.10	25591.42
838.28	25482.88
838.45	25730.68
838.63	25536.12
838.81	25620.09
838.98	25398.91
839.16	25089.67
839.34	25200.26
839.51	25382.52
839.69	25288.32
839.87	25251.45
840.04	25194.11
840.22	25050.75
840.40	25024.13
840.57	25067.14
840.75	25323.13
840.93	24841.86
841.10	25257.60
841.28	25439.87
841.46	25097.86
841.63	25216.64
841.81	25058.95
841.98	24639.11
842.16	24651.40
842.34	25085.57
842.51	24839.81
842.69	25011.84
842.87	24761.99
843.04	24884.87
843.22	24891.01
843.40	24413.84
843.57	24436.36
843.75	24712.84
843.92	24637.06
844.10	24528.52
844.28	24596.10
844.45	24630.92
844.63	24393.36
844.81	24186.51
844.98	24432.27
845.16	24295.05
845.33	24172.18
845.51	24110.74
845.69	24125.07
845.86	24276.62
846.04	24090.26
846.21	23959.19
846.39	23957.14
846.57	24129.17
846.74	24213.13
846.92	24063.63
847.09	23994.00
847.27	23918.23
847.45	24053.39
847.62	23811.73
847.80	23862.93
847.97	23799.44
848.15	23961.23
848.32	23377.56
848.50	23723.67
848.68	23553.69
848.85	23637.66
849.03	23527.06
849.20	23359.13
849.38	23525.02
849.56	23361.18
849.73	23471.77
849.91	23531.16
850.08	23518.87
850.26	23375.52
850.43	23301.79
850.61	23447.19
850.78	23162.53
850.96	23264.92
851.14	23090.85
851.31	23060.13
851.49	23080.61
851.66	23252.64
851.84	22990.50
852.01	23217.82
852.19	22841.00
852.36	22939.30
852.54	22912.67
852.71	22896.29
852.89	22843.04
853.07	22957.73
853.24	22623.91
853.42	22924.96
853.59	22611.62
853.77	22847.14
853.94	22746.79
854.12	23185.05
854.29	22574.76
854.47	22519.46
854.64	22458.03
854.82	22376.11
854.99	22615.72
855.17	22701.73
855.34	22298.28
855.52	22754.98
855.69	22728.36
855.87	22367.91
856.04	22148.78
856.22	22498.98
856.39	21989.04
856.57	22335.15
856.74	21681.85
856.92	22382.25
857.09	21948.08
857.27	22132.40
857.44	22345.39
857.62	21788.34
857.79	22312.62
857.97	22306.48
858.14	21986.99
858.32	21862.07
858.49	21761.72
858.67	21933.75
858.84	22099.63
859.02	22083.25
859.19	21788.34
859.37	21845.68
859.54	21767.86
859.72	21819.06
859.89	21671.61
860.06	21860.02
860.24	21651.13
860.41	21472.95
860.59	21544.63
860.76	21419.71
860.94	21372.60
861.11	21583.54
861.29	21425.85
861.46	21145.28
861.64	20946.62
861.81	21259.96
861.98	21354.17
862.16	21132.99
862.33	21147.33
862.51	21128.89
862.68	21206.72
862.86	21079.74
863.03	21354.17
863.21	21006.02
863.38	21225.15
863.55	20885.19
863.73	20807.36
863.90	21003.97
864.08	20565.70
864.25	20934.34
864.43	20754.12
864.60	20534.98
864.77	20772.55
864.95	21018.30
865.12	20403.91
865.30	20790.98
865.47	20608.71
865.64	20582.09
865.82	20487.88
865.99	20625.09
866.17	20606.66
866.34	20596.42
866.51	20127.44
866.69	20459.21
866.86	20242.12
867.04	20360.91
867.21	20174.54
867.38	20215.50
867.56	20070.09
867.73	20211.40
867.91	19891.92
868.08	19982.03
868.25	19936.98
868.43	19922.64
868.60	20055.76
868.78	19846.87
868.95	19957.46
869.12	20012.75
869.30	20029.13
869.47	19912.40
869.64	19705.56
869.82	19861.20
869.99	19883.73
870.16	19836.63
870.34	19506.90
870.51	19744.47
870.69	19474.13
870.86	19723.99
871.03	19404.50
871.21	19400.41
871.38	19560.15
871.55	19482.33
871.73	19609.30
871.90	19336.92
872.07	19365.59
872.25	19320.54
872.42	19238.62
872.59	19201.76
872.77	19375.83
872.94	19136.22
873.11	19168.99
873.29	19017.44
873.46	19021.53
873.63	18861.79
873.81	18937.57
873.98	18771.68
874.15	19009.25
874.33	18675.43
874.50	18835.17
874.67	18786.02
874.85	18867.94
875.02	18532.07
875.19	18714.34
875.37	18577.12
875.54	18220.78
875.71	18435.81
875.88	18351.85
876.06	18388.71
876.23	18349.80
876.40	18200.30
876.58	18425.57
876.75	18198.25
876.92	18065.13
877.10	18224.87
877.27	18138.86
877.44	18222.83
877.61	18110.19
877.79	17929.97
877.96	18153.20
878.13	17774.32
878.31	17805.04
878.48	18044.65
878.65	17938.16
878.82	17598.20
879.00	17583.86
879.17	17581.81
879.34	17592.05
879.51	17368.82
879.69	17530.61
879.86	17299.19
880.03	17528.56
880.21	17239.80
880.38	17399.54
880.55	17514.23
880.72	17499.89
880.90	17381.11
881.07	17293.05
881.24	17325.82
881.41	17348.34
881.59	17268.47
881.76	16992.00
881.93	17159.93
882.10	17053.44
882.28	17125.11
882.45	17325.82
882.62	16922.37
882.79	17397.49
882.96	16942.85
883.14	17182.46
883.31	17356.54
883.48	16951.04
883.65	17043.20
883.83	17266.42
884.00	16942.85
884.17	17006.33
884.34	16912.13
884.51	16834.30
884.69	16832.26
884.86	16770.82
885.03	16867.07
885.20	16549.64
885.38	16903.93
885.55	16926.46
885.72	16588.55
885.89	16418.57
886.06	16502.53
886.24	16641.79
886.41	16539.40
886.58	16723.71
886.75	16582.40
886.92	16422.66
887.10	16811.78
887.27	16535.30
887.44	16355.08
887.61	16836.35
887.78	16582.40
887.95	16359.17
888.13	16199.43
888.30	16133.90
888.47	16500.48
888.64	16277.26
888.81	16201.48
888.99	16303.88
889.16	15963.92
889.33	16125.71
889.50	16092.94
889.67	16193.29
889.84	15836.94
890.01	15986.44
890.19	15941.39
890.36	15974.16
890.53	15970.06
890.70	15783.70
890.87	15748.88
891.04	15740.69
891.22	15939.34
891.39	15818.51
891.56	15671.06
891.73	15652.63
891.90	15558.42
892.07	15685.39
892.24	15605.52
892.42	15644.43
892.59	15574.80
892.76	15417.11
892.93	15699.73
893.10	15488.79
893.27	15361.81
893.44	15265.56
893.61	15492.88
893.79	15380.25
893.96	15245.08
894.13	15453.97
894.30	15515.41
894.47	15304.47
894.64	15445.78
894.81	15320.85
894.98	15314.71
895.15	15423.25
895.33	15279.89
895.50	15118.11
895.67	15380.25
895.84	15327.00
896.01	15310.61
896.18	15056.67
896.35	15556.37
896.52	15179.54
896.69	14956.32
896.86	15318.81
897.04	15046.43
897.21	15402.77
897.38	15281.94
897.55	15214.36
897.72	15503.12
897.89	15044.38
898.06	15281.94
898.23	15292.18
898.40	15130.39
898.57	15470.36
898.74	15304.47
898.91	15118.11
899.08	15238.94
899.26	15292.18
899.43	15068.95
899.60	15236.89
899.77	15355.67
899.94	14995.23
900.11	15226.65
900.28	15204.12
900.45	14860.06
900.62	14968.60
900.79	15380.25
900.96	15128.35
901.13	15019.80
901.30	15118.11
901.47	15046.43
901.64	15013.66
901.81	15146.78
901.98	15019.80
902.15	15085.34
902.32	15019.80
902.49	14978.84
902.66	15208.22
902.83	14950.17
903.01	15015.71
903.18	15154.97
903.35	15058.71
903.52	14886.68
903.69	15197.98
903.86	15023.90
904.03	14962.46
904.20	15085.34
904.37	15038.23
904.54	15132.44
904.71	15273.75
904.88	15048.47
905.05	14946.08
905.22	14874.40
905.39	14888.73
905.56	15001.37
905.73	14956.32
905.90	14976.80
906.07	14894.88
906.24	15107.87
906.41	14898.97
906.58	14974.75
906.75	14808.86
906.92	14688.03
907.09	15048.47
907.26	14765.85
907.43	14794.53
907.60	14753.57
907.77	14855.97
907.93	14905.12
908.10	14909.21
908.27	14755.61
908.44	14827.29
908.61	14728.99
908.78	14892.83
908.95	14872.35
909.12	14673.70
909.29	14870.30
909.46	15025.95
909.63	14913.31
909.80	14923.55
909.97	14628.64
910.14	14917.40
910.31	14700.32
910.48	14630.69
910.65	14720.80
910.82	14692.13
910.99	14665.50
911.16	14688.03
911.33	14559.01
911.50	14710.56
911.66	14657.31
911.83	14667.55
912.00	14657.31
912.17	14503.71
912.34	14548.77
912.51	14679.84
912.68	14403.36
912.85	14288.68
913.02	14671.65
913.19	14485.28
913.36	14501.67
913.53	14477.09
913.70	14141.22
913.86	14513.95
914.03	14427.94
914.20	14319.40
914.37	14450.47
914.54	14139.18
914.71	14196.52
914.88	14298.92
915.05	14110.50
915.22	14016.30
915.39	14061.35
915.55	13956.91
915.72	13938.48
915.89	13995.82
916.06	13696.82
916.23	13633.33
916.40	13698.86
916.57	13612.85
916.74	13715.25
916.91	13793.07
917.07	13575.98
917.24	13590.32
917.41	13623.09
917.58	13829.93
917.75	13551.41
917.92	13301.56
918.09	13766.45
918.26	13524.79
918.42	13844.27
918.59	13512.50
918.76	13420.34
918.93	13299.51
919.10	13287.22
919.27	13399.86
919.44	13367.09
919.60	13219.64
919.77	13309.75
919.94	12969.79
920.11	12947.26
920.28	12994.36
920.45	12889.92
920.61	12916.54
920.78	12930.87
920.95	12734.27
921.12	12738.37
921.29	12601.15
921.46	12844.86
921.62	12558.14
921.79	12816.19
921.96	12740.41
922.13	12674.88
922.30	12470.08
922.47	12635.97
922.63	12711.74
922.80	12537.66
922.97	12293.96
923.14	12142.41
923.31	12283.72
923.47	12242.76
923.64	12216.13
923.81	12212.04
923.98	12070.73
924.15	11888.46
924.32	12093.26
924.48	12097.35
924.65	12099.40
924.82	11951.95
924.99	11700.05
925.15	11622.22
925.32	11829.07
925.49	11824.97
925.66	11857.74
925.83	11675.47
925.99	11700.05
926.16	11771.72
926.33	11525.97
926.50	11292.50
926.67	11534.16
926.83	11489.10
927.00	11370.32
927.17	11265.88
927.34	11222.87
927.50	11183.96
927.67	11368.27
927.84	11145.05
928.01	11054.94
928.17	11026.26
928.34	10932.06
928.51	10901.34
928.68	10612.57
928.84	10960.73
929.01	10598.24
929.18	10569.57
929.35	10872.67
929.51	10661.73
929.68	10491.74
929.85	10579.81
930.02	10323.81
930.18	10286.95
930.35	10626.91
930.52	10383.20
930.69	10393.44
930.85	10215.27
931.02	10157.92
931.19	10102.63
931.36	10202.98
931.52	10268.52
931.69	10200.93
931.86	10125.16
932.02	10098.53
932.19	9977.70
932.36	9932.65
932.53	10030.95
932.69	9842.54
932.86	9895.78
933.03	9762.67
933.19	9731.95
933.36	9619.31
933.53	9547.63
933.70	9588.59
933.86	9602.93
934.03	9709.42
934.20	9391.98
934.36	9410.42
934.53	9189.24
934.70	9072.50
934.86	9064.31
935.03	8982.39
935.20	9080.69
935.36	9078.65
935.53	9080.69
935.70	8808.31
935.86	8947.58
936.03	8763.26
936.20	8499.07
936.36	8535.93
936.53	8417.15
936.70	8337.28
936.86	8411.01
937.03	8243.07
937.20	8122.24
937.36	8191.88
937.53	8054.66
937.70	7739.27
937.86	7870.34
938.03	7704.46
938.20	7950.21
938.36	7591.82
938.53	7671.69
938.70	7403.41
938.86	7526.29
939.03	7446.41
939.20	7292.82
939.36	7137.17
939.53	7200.66
939.70	7307.15
939.86	6875.03
940.03	6821.78
940.19	6772.63
940.36	6854.55
940.53	6743.96
940.69	6610.84
940.86	6608.80
941.03	6610.84
941.19	6274.98
941.36	6358.94
941.52	6401.95
941.69	6270.88
941.86	6107.04
942.02	6180.77
942.19	6135.71
942.35	6150.05
942.52	5994.40
942.69	6043.56
942.85	5754.79
943.02	5943.21
943.18	5846.95
943.35	5679.02
943.52	5648.30
943.68	5785.51
943.85	5730.22
944.01	5588.91
944.18	5619.63
944.35	5701.54
944.51	5509.04
944.68	5537.71
944.84	5375.92
945.01	5441.45
945.17	5535.66
945.34	5506.99
945.51	5521.32
945.67	5314.48
945.84	5363.63
946.00	5392.30
946.17	5296.05
946.33	5324.72
946.50	5390.25
946.67	5306.29
946.83	5328.81
947.00	5384.11
947.16	5291.95
947.33	5232.56
947.49	5277.62
947.66	5283.76
947.82	5312.43
947.99	5220.27
948.16	5304.24
948.32	5214.13
948.49	5267.38
948.65	5337.01
948.82	5285.81
948.98	5250.99
949.15	5050.29
949.31	5199.79
949.48	5224.37
949.64	5228.46
949.81	5250.99
949.97	5394.35
950.14	5289.90
950.30	5187.50
950.47	5339.05
950.63	5353.39
950.80	5271.47
950.96	5300.14
951.13	5277.62
951.30	5337.01
951.46	5447.60
951.63	5478.32
951.79	5351.34
951.96	5466.03
952.12	5337.01
952.29	5386.16
952.45	5244.85
952.62	5345.20
952.78	5414.83
952.94	5328.81
953.11	5328.81
953.27	5214.13
953.44	5476.27
953.60	5355.44
953.77	5535.66
953.93	5388.21
954.10	5525.42
954.26	5316.53
954.43	5365.68
954.59	5490.60
954.76	5572.52
954.92	5506.99
955.09	5412.78
955.25	5246.90
955.42	5515.18
955.58	5605.29
955.75	5398.45
955.91	5414.83
956.07	5480.36
956.24	5486.51
956.40	5605.29
956.57	5392.30
956.73	5386.16
956.90	5455.79
957.06	5408.69
957.23	5275.57
957.39	5316.53
957.56	5427.12
957.72	5296.05
957.88	5392.30
958.05	5373.87
958.21	5554.09
958.38	5392.30
958.54	5547.95
958.71	5441.45
958.87	5556.14
959.03	5543.85
959.20	5506.99
959.36	5400.49
959.53	5480.36
959.69	5429.17
959.85	5484.46
960.02	5349.29
960.18	5328.81
960.35	5375.92
960.51	5562.28
960.68	5322.67
960.84	5484.46
961.00	5361.58
961.17	5398.45
961.33	5525.42
961.50	5597.10
961.66	5416.88
961.82	5476.27
961.99	5513.13
962.15	5484.46
962.31	5326.77
962.48	5435.31
962.64	5459.88
962.81	5369.77
962.97	5382.06
963.13	5408.69
963.30	5435.31
963.46	5216.18
963.62	5224.37
963.79	5308.34
963.95	5490.60
964.12	5347.25
964.28	5398.45
964.44	5238.70
964.61	5509.04
964.77	5320.62
964.93	5310.38
965.10	5486.51
965.26	5312.43
965.42	5351.34
965.59	5234.61
965.75	5306.29
965.92	5375.92
966.08	5365.68
966.24	5173.17
966.41	5212.08
966.57	5435.31
966.73	5316.53
966.90	5590.95
967.06	5365.68
967.22	5269.42
967.39	5382.06
967.55	5291.95
967.71	5312.43
967.88	5269.42
968.04	5230.51
968.20	5099.44
968.37	5214.13
968.53	5187.50
968.69	5273.52
968.85	5246.90
969.02	5140.40
969.18	5128.11
969.34	5148.59
969.51	5189.55
969.67	5103.54
969.83	5081.01
970.00	5220.27
970.16	5212.08
970.32	5214.13
970.48	5185.46
970.65	5048.24
970.81	5220.27
970.97	5101.49
971.14	5050.29
971.30	5058.48
971.46	5011.38
971.63	4992.95
971.79	5099.44
971.95	5035.96
972.11	4870.07
972.28	5031.86
972.44	5156.79
972.60	4923.32
972.76	4949.94
972.93	4949.94
973.09	4982.71
973.25	4935.60
973.42	4960.18
973.58	4954.04
973.74	4984.76
973.90	4865.97
974.07	4810.68
974.23	4902.84
974.39	4951.99
974.55	4833.21
974.72	4790.20
974.88	4667.32
975.04	4843.45
975.20	4784.06
975.37	4851.64
975.53	4739.00
975.69	4667.32
975.85	4640.70
976.01	4685.75
976.18	4784.06
976.34	4808.63
976.50	4806.58
976.66	4837.30
976.83	4769.72
976.99	4798.39
977.15	4679.61
977.31	4577.21
977.47	4800.44
977.64	4663.22
977.80	4691.90
977.96	4599.74
978.12	4665.27
978.29	4552.63
978.45	4636.60
978.61	4534.20
978.77	4622.27
978.93	4476.86
979.10	4612.03
979.26	4599.74
979.42	4593.59
979.58	4507.58
979.74	4464.57
979.91	4431.80
980.07	4440.00
980.23	4444.09
980.39	4663.22
980.55	4517.82
980.71	4478.91
980.88	4421.56
981.04	4415.42
981.20	4396.99
981.36	4435.90
981.52	4392.89
981.68	4310.97
981.85	4370.37
982.01	4405.18
982.17	4290.49
982.33	4353.98
982.49	4370.37
982.65	4300.73
982.82	4474.81
982.98	4313.02
983.14	4253.63
983.30	4421.56
983.46	4372.41
983.62	4310.97
983.79	4122.56
983.95	4294.59
984.11	4108.23
984.27	4229.06
984.43	4261.82
984.59	4157.38
984.75	4237.25
984.91	4206.53
985.08	4204.48
985.24	4044.74
985.40	4106.18
985.56	4177.86
985.72	4214.72
985.88	4313.02
986.04	3921.86
986.20	4108.23
986.37	4181.95
986.53	4059.07
986.69	4065.22
986.85	3985.35
987.01	4054.98
987.17	4079.55
987.33	4009.92
987.49	3889.09
987.65	4016.07
987.82	3987.40
987.98	3956.68
988.14	4005.83
988.30	4122.56
988.46	3878.85
988.62	3973.06
988.78	3874.76
988.94	4034.50
989.10	3858.37
989.26	3837.89
989.42	3860.42
989.59	3829.70
989.75	3827.65
989.91	3823.56
990.07	3721.16
990.23	3729.35
990.39	3839.94
990.55	3878.85
990.71	3704.78
990.87	3819.46
991.03	3798.98
991.19	3706.82
991.35	3686.34
991.51	3928.00
991.67	3872.71
991.83	3733.45
992.00	3737.54
992.16	3811.27
992.32	3809.22
992.48	3917.76
992.64	3747.78
992.80	3737.54
992.96	3776.45
993.12	3708.87
993.28	3719.11
993.44	3712.97
993.60	3629.00
993.76	3702.73
993.92	3678.15
994.08	3633.10
994.24	3694.54
994.40	3590.09
994.56	3743.69
994.72	3606.47
994.88	3614.66
995.04	3502.03
995.20	3522.51
995.36	3477.45
995.52	3588.04
995.68	3491.79
995.84	3493.83
996.00	3626.95
996.16	3479.50
996.32	3487.69
996.48	3450.83
996.64	3551.18
996.80	3493.83
996.96	3481.55
997.12	3469.26
997.28	3438.54
997.44	3430.35
997.60	3313.61
997.76	3452.88
997.92	3493.83
998.08	3475.40
998.24	3346.38
998.40	3459.02
998.56	3512.27
998.72	3303.37
998.88	3373.00
999.04	3403.72
999.20	3391.44
999.36	3295.18
999.52	3428.30
999.68	3385.29
999.84	3403.72
1000.00	3418.06
1000.16	3315.66
1000.32	3272.65
1000.48	3416.01
1000.64	3276.75
1000.80	3194.83
1000.95	3215.31
1001.11	3276.75
1001.27	3211.22
1001.43	3286.99
1001.59	3063.76
1001.75	3162.06
1001.91	3217.36
1002.07	3112.91
1002.23	3121.10
1002.39	3153.87
1002.55	3141.58
1002.71	3188.69
1002.87	3133.39
1003.03	3067.86
1003.19	3074.00
1003.34	3143.63
1003.50	3065.81
1003.66	3123.15
1003.82	3100.62
1003.98	2924.50
1004.14	3037.14
1004.30	3006.42
1004.46	2977.75
1004.62	3047.38
1004.78	3076.05
1004.94	2985.94
1005.09	3086.29
1005.25	3039.19
1005.41	3045.33
1005.57	2985.94
1005.73	2990.03
1005.89	2967.51
1006.05	3028.95
1006.21	3018.71
1006.37	2908.12
1006.52	2971.60
1006.68	2889.68
1006.84	3010.51
1007.00	2867.16
1007.16	3041.23
1007.32	2850.77
1007.48	2875.35
1007.64	2926.55
1007.79	2942.93
1007.95	2924.50
1008.11	2947.03
1008.27	2815.96
1008.43	2871.25
1008.59	2918.36
1008.75	2963.41
1008.91	2842.58
1009.06	2869.20
1009.22	2842.58
1009.38	2828.24
1009.54	2838.48
1009.70	2711.51
1009.86	2877.40
1010.01	2879.44
1010.17	2666.46
1010.33	2715.61
1010.49	2914.26
1010.65	2826.20
1010.81	2803.67
1010.96	2682.84
1011.12	2602.97
1011.28	2746.33
1011.44	2846.68
1011.60	2723.80
1011.76	2684.89
1011.91	2799.57
1012.07	2752.47
1012.23	2672.60
1012.39	2645.98
1012.55	2723.80
1012.71	2674.65
1012.86	2748.37
1013.02	2705.37
1013.18	2654.17
1013.34	2680.79
1013.50	2619.35
1013.65	2709.46
1013.81	2584.54
1013.97	2568.15
1014.13	2645.98
1014.29	2662.36
1014.44	2695.13
1014.60	2609.11
1014.76	2533.34
1014.92	2600.92
1015.07	2527.19
1015.23	2641.88
1015.39	2600.92
1015.55	2568.15
1015.71	2498.52
1015.86	2453.47
1016.02	2521.05
1016.18	2432.99
1016.34	2504.67
1016.49	2516.95
1016.65	2598.87
1016.81	2437.08
1016.97	2508.76
1017.12	2551.77
1017.28	2537.43
1017.44	2459.61
1017.60	2490.33
1017.75	2527.19
1017.91	2500.57
1018.07	2498.52
1018.23	2527.19
1018.38	2392.03
1018.54	2439.13
1018.70	2392.03
1018.86	2381.79
1019.01	2318.30
1019.17	2541.53
1019.33	2535.39
1019.49	2416.60
1019.64	2351.07
1019.80	2428.89
1019.96	2338.78
1020.12	2459.61
1020.27	2355.16
1020.43	2338.78
1020.59	2416.60
1020.74	2525.15
1020.90	2557.91
1021.06	2349.02
1021.22	2379.74
1021.37	2338.78
1021.53	2193.37
1021.69	2457.56
1021.84	2193.37
1022.00	2353.12
1022.16	2340.83
1022.31	2392.03
1022.47	2369.50
1022.63	2379.74
1022.79	2205.66
1022.94	2314.20
1023.10	2318.30
1023.26	2254.81
1023.41	2279.39
1023.57	2199.52
1023.73	2246.62
1023.88	2338.78
1024.04	2312.16
1024.20	2185.18
1024.35	2340.83
1024.51	2283.49
1024.67	2187.23
1024.82	2295.77
1024.98	2123.74
1025.14	2226.14
1025.29	2154.46
1025.45	2273.25
1025.61	2226.14
1025.76	2185.18
1025.92	2125.79
1026.08	2252.77
1026.23	2199.52
1026.39	2252.77
1026.55	2146.27
1026.70	2154.46
1026.86	2156.51
1027.02	2189.28
1027.17	2193.37
1027.33	2281.44
1027.48	2203.61
1027.64	2072.54
1027.80	2154.46
1027.95	2213.85
1028.11	2072.54
1028.27	2074.59
1028.42	2236.38
1028.58	2047.97
1028.73	2095.07
1028.89	2019.30
1029.05	2129.89
1029.20	2215.90
>>>>>End Processed Spectral Data<<<<<
