SpectraSuite Data File
++++++++++++++++++++++++++++++++++++
Date: Fri Jun 02 14:57:23 CEST 2017
User: INFO_000
Dark Spectrum Present: No
Reference Spectrum Present: No
Number of Sampled Component Spectra: 1
Spectrometers: USB4H00879
Integration Time (usec): 80000 (USB4H00879)
Spectra Averaged: 1 (USB4H00879)
Boxcar Smoothing: 0 (USB4H00879)
Correct for Electrical Dark: No (USB4H00879)
Strobe/Lamp Enabled: No (USB4H00879)
Correct for Detector Non-linearity: No (USB4H00879)
Correct for Stray Light: No (USB4H00879)
Number of Pixels in Processed Spectrum: 3648
>>>>>Begin Processed Spectral Data<<<<<
345.13	1288.17
345.34	1288.17
345.56	1288.17
345.78	1302.51
345.99	1282.03
346.21	1716.20
346.42	1693.67
346.64	1667.05
346.86	1779.68
347.07	1626.09
347.29	1718.25
347.50	1671.14
347.72	1683.43
347.94	1740.77
348.15	1593.32
348.37	1613.80
348.59	1718.25
348.80	1644.52
349.02	1796.07
349.23	1908.71
349.45	1937.38
349.67	1904.61
349.88	1834.98
350.10	1955.81
350.31	1816.55
350.53	1740.77
350.75	1923.04
350.96	1769.44
351.18	1875.94
351.39	1839.08
351.61	1763.30
351.82	1873.89
352.04	1871.84
352.26	1773.54
352.47	1920.99
352.69	1875.94
352.90	1744.87
353.12	1892.32
353.34	1785.83
353.55	1957.86
353.77	1964.00
353.98	1837.03
354.20	1904.61
354.41	1976.29
354.63	1875.94
354.85	2041.82
355.06	1933.28
355.28	1814.50
355.49	1947.62
355.71	1886.18
355.92	1892.32
356.14	1847.27
356.35	1925.09
356.57	1892.32
356.79	1957.86
357.00	1908.71
357.22	1998.82
357.43	1830.88
357.65	1929.19
357.86	1800.16
358.08	1902.56
358.29	1927.14
358.51	2027.49
358.72	2007.01
358.94	1978.34
359.16	1935.33
359.37	1904.61
359.59	1890.28
359.80	2013.15
360.02	1978.34
360.23	1980.39
360.45	2019.30
360.66	1964.00
360.88	1857.51
361.09	1869.80
361.31	2035.68
361.52	1900.52
361.74	2082.78
361.95	2017.25
362.17	1925.09
362.38	2027.49
362.60	2099.17
362.81	2011.11
363.03	1933.28
363.24	1968.10
363.46	2031.58
363.67	1937.38
363.89	1953.76
364.10	2013.15
364.32	2011.11
364.53	2082.78
364.75	1845.22
364.96	2004.96
365.18	1982.43
365.39	1978.34
365.61	2015.20
365.82	2150.37
366.04	2027.49
366.25	1972.19
366.47	2090.98
366.68	2058.21
366.90	1953.76
367.11	2023.39
367.33	2033.63
367.54	2111.46
367.76	1994.72
367.97	2129.89
368.19	2002.91
368.40	2095.07
368.62	1996.77
368.83	1994.72
369.05	2123.74
369.26	1925.09
369.48	1982.43
369.69	1933.28
369.91	2017.25
370.12	2031.58
370.33	2123.74
370.55	1939.43
370.76	2076.64
370.98	2140.13
371.19	2027.49
371.41	1966.05
371.62	2068.45
371.84	2035.68
372.05	2172.89
372.27	1978.34
372.48	2056.16
372.69	2117.60
372.91	2185.18
373.12	2138.08
373.34	2050.02
373.55	2119.65
373.77	2207.71
373.98	2115.55
374.20	2179.04
374.41	2314.20
374.62	2115.55
374.84	2179.04
375.05	2203.61
375.27	2187.23
375.48	2158.56
375.70	2140.13
375.91	2191.33
376.12	2320.35
376.34	2154.46
376.55	2248.67
376.77	2275.29
376.98	2121.70
377.19	2088.93
377.41	2142.18
377.62	2136.03
377.84	2170.85
378.05	2289.63
378.27	2164.70
378.48	2328.54
378.69	2306.01
378.91	2320.35
379.12	2297.82
379.34	2211.81
379.55	2281.44
379.76	2273.25
379.98	2146.27
380.19	2236.38
380.41	2217.95
380.62	2306.01
380.83	2293.72
381.05	2181.09
381.26	2232.29
381.47	2281.44
381.69	2242.53
381.90	2441.18
382.12	2260.96
382.33	2320.35
382.54	2310.11
382.76	2324.44
382.97	2338.78
383.19	2330.59
383.40	2336.73
383.61	2213.85
383.83	2254.81
384.04	2369.50
384.25	2310.11
384.47	2379.74
384.68	2344.92
384.89	2308.06
385.11	2230.24
385.32	2308.06
385.54	2371.55
385.75	2322.40
385.96	2322.40
386.18	2428.89
386.39	2510.81
386.60	2355.16
386.82	2531.29
387.03	2346.97
387.24	2412.51
387.46	2418.65
387.67	2430.94
387.88	2443.23
388.10	2490.33
388.31	2506.71
388.52	2500.57
388.74	2588.63
388.95	2486.23
389.16	2598.87
389.38	2545.63
389.59	2570.20
389.80	2613.21
390.02	2549.72
390.23	2643.93
390.44	2631.64
390.66	2576.34
390.87	2478.04
391.08	2619.35
391.30	2658.26
391.51	2676.70
391.72	2707.41
391.94	2699.22
392.15	2475.99
392.36	2584.54
392.58	2572.25
392.79	2682.84
393.00	2697.17
393.22	2701.27
393.43	2729.94
393.64	2756.57
393.85	2791.38
394.07	2697.17
394.28	2772.95
394.49	2695.13
394.71	2725.85
394.92	2852.82
395.13	2705.37
395.35	2772.95
395.56	2748.37
395.77	2793.43
395.98	2852.82
396.20	2861.01
396.41	2842.58
396.62	2918.36
396.84	2973.65
397.05	2818.00
397.26	2893.78
397.47	3002.32
397.69	2869.20
397.90	3004.37
398.11	2912.21
398.32	2764.76
398.54	2883.54
398.75	2881.49
398.96	2932.69
399.18	3080.14
399.39	2928.60
399.60	2947.03
399.81	2914.26
400.03	2947.03
400.24	3194.83
400.45	3047.38
400.66	3110.86
400.88	3000.27
401.09	3258.32
401.30	2994.13
401.51	3139.54
401.73	3157.97
401.94	3076.05
402.15	3129.30
402.36	3112.91
402.58	3186.64
402.79	3182.54
403.00	3135.44
403.21	3289.04
403.43	3213.26
403.64	3182.54
403.85	3139.54
404.06	3172.30
404.27	3114.96
404.49	3237.84
404.70	3174.35
404.91	3190.74
405.12	3250.13
405.34	3268.56
405.55	3352.52
405.76	3203.02
405.97	3190.74
406.19	3387.34
406.40	3268.56
406.61	3295.18
406.82	3250.13
407.03	3409.87
407.25	3305.42
407.46	3348.43
407.67	3416.01
407.88	3504.07
408.09	3327.95
408.31	3358.67
408.52	3346.38
408.73	3362.76
408.94	3389.39
409.15	3356.62
409.37	3551.18
409.58	3485.64
409.79	3454.92
410.00	3694.54
410.21	3444.68
410.43	3348.43
410.64	3454.92
410.85	3502.03
411.06	3506.12
411.27	3493.83
411.48	3573.71
411.70	3575.75
411.91	3573.71
412.12	3712.97
412.33	3485.64
412.54	3575.75
412.76	3657.67
412.97	3690.44
413.18	3508.17
413.39	3600.33
413.60	3588.04
413.81	3620.81
414.03	3588.04
414.24	3604.42
414.45	3788.74
414.66	3559.37
414.87	3715.02
415.08	3684.30
415.30	3688.39
415.51	3710.92
415.72	3792.84
415.93	3782.60
416.14	3823.56
416.35	3805.13
416.56	3747.78
416.78	3698.63
416.99	3710.92
417.20	3823.56
417.41	3880.90
417.62	3821.51
417.83	3942.34
418.04	3801.03
418.26	3907.52
418.47	3889.09
418.68	3944.39
418.89	3909.57
419.10	4081.60
419.31	3925.96
419.52	4020.16
419.73	3899.33
419.95	4063.17
420.16	4026.31
420.37	3844.04
420.58	4100.03
420.79	3899.33
421.00	3964.87
421.21	4077.51
421.42	3891.14
421.63	3942.34
421.85	4075.46
422.06	4073.41
422.27	4159.42
422.48	4118.47
422.69	4114.37
422.90	4235.20
423.11	4196.29
423.32	4331.45
423.53	4374.46
423.75	4231.10
423.96	4319.17
424.17	4194.24
424.38	4366.27
424.59	4329.41
424.80	4515.77
425.01	4349.89
425.22	4196.29
425.43	4286.40
425.64	4661.18
425.85	4605.88
426.06	4542.39
426.28	4530.11
426.49	4237.25
426.70	4597.69
426.91	4665.27
427.12	4751.29
427.33	4542.39
427.54	4519.87
427.75	4566.97
427.96	4847.54
428.17	4679.61
428.38	4765.62
428.59	4782.01
428.80	4849.59
429.01	4782.01
429.23	4759.48
429.44	5054.39
429.65	4960.18
429.86	4949.94
430.07	4837.30
430.28	4853.69
430.49	4986.80
430.70	5070.77
430.91	5042.10
431.12	4927.41
431.33	5177.26
431.54	5173.17
431.75	5148.59
431.96	5117.87
432.17	5119.92
432.38	5085.11
432.59	5472.17
432.80	5130.16
433.01	5287.86
433.22	5205.94
433.43	5363.63
433.64	5357.49
433.85	5326.77
434.06	5402.54
434.27	5312.43
434.49	5347.25
434.70	5568.43
434.91	5451.69
435.12	5476.27
435.33	5476.27
435.54	5443.50
435.75	5308.34
435.96	5588.91
436.17	5353.39
436.38	5609.39
436.59	5584.81
436.80	5578.67
437.01	5738.41
437.22	5795.75
437.43	5703.59
437.64	5523.37
437.85	5599.15
438.06	5808.04
438.27	5545.90
438.48	5623.72
438.69	5935.01
438.90	5840.81
439.11	5681.07
439.32	5894.05
439.53	5713.83
439.74	5939.11
439.95	5937.06
440.16	5920.68
440.37	5879.72
440.57	5803.94
440.78	6006.69
440.99	5965.73
441.20	6066.08
441.41	5787.56
441.62	5943.21
441.83	5914.53
442.04	6191.01
442.25	6150.05
442.46	6150.05
442.67	6201.25
442.88	6526.88
443.09	6076.32
443.30	6166.43
443.51	6250.40
443.72	6512.54
443.93	6109.09
444.14	6487.96
444.35	6150.05
444.56	6197.15
444.77	6315.94
444.98	6498.20
445.19	6365.09
445.40	6340.51
445.61	6291.36
445.81	6530.97
446.02	6504.35
446.23	6582.17
446.44	6297.50
446.65	6463.39
446.86	6385.57
447.07	6610.84
447.28	6623.13
447.49	6733.72
447.70	6590.36
447.91	6737.82
448.12	6565.79
448.33	6817.69
448.54	6686.62
448.74	6707.10
448.95	6791.06
449.16	6647.71
449.37	6934.42
449.58	6668.19
449.79	7045.01
450.00	6662.04
450.21	6922.13
450.42	6918.04
450.63	7096.21
450.84	7126.93
451.05	6999.96
451.25	6913.94
451.46	6993.81
451.67	7071.64
451.88	7253.91
452.09	7071.64
452.30	6969.24
452.51	7028.63
452.72	7247.76
452.93	7503.76
453.13	7161.75
453.34	7204.75
453.55	7268.24
453.76	7311.25
453.97	7618.44
454.18	7370.64
454.39	7382.93
454.60	7382.93
454.81	7331.73
455.01	7618.44
455.22	7139.22
455.43	7602.06
455.64	7825.29
455.85	7800.71
456.06	7999.37
456.27	7647.12
456.48	7536.52
456.68	7630.73
456.89	7614.35
457.10	7858.06
457.31	7982.98
457.52	7880.58
457.73	7995.27
457.94	8206.21
458.14	8005.51
458.35	8269.70
458.56	8134.53
458.77	8052.61
458.98	8169.35
459.19	8200.07
459.39	8370.05
459.60	8408.96
459.81	8329.09
460.02	8466.30
460.23	8439.68
460.44	8552.32
460.65	8681.34
460.85	8726.39
461.06	8728.44
461.27	8458.11
461.48	8724.35
461.69	8871.80
461.89	8535.93
462.10	8806.27
462.31	8525.69
462.52	8857.46
462.73	8687.48
462.94	9058.17
463.14	9144.18
463.35	8982.39
463.56	9484.14
463.77	9092.98
463.98	9045.88
464.18	9097.08
464.39	9422.70
464.60	9496.43
464.81	9469.81
465.02	9336.69
465.23	9559.92
465.43	9572.21
465.64	9826.15
465.85	9582.45
466.06	9645.93
466.27	10129.25
466.47	9791.34
466.68	9858.92
466.89	9748.33
467.10	9867.11
467.30	9881.45
467.51	10174.31
467.72	10317.67
467.93	10022.76
468.14	10200.93
468.34	10411.87
468.55	10385.25
468.76	10293.09
468.97	10317.67
469.17	10379.11
469.38	10551.14
469.59	10897.24
469.80	10723.16
470.01	10784.60
470.21	10825.56
470.42	10995.54
470.63	10983.26
470.84	10786.65
471.04	10852.19
471.25	11030.36
471.46	11247.44
471.67	11468.62
471.87	11345.75
472.08	11478.86
472.29	11689.81
472.50	11315.03
472.70	11358.03
472.91	11638.61
473.12	11728.72
473.33	11831.12
473.53	12183.37
473.74	11886.41
473.95	12068.68
474.16	12328.77
474.36	12171.08
474.57	12373.83
474.78	12504.90
474.99	12609.34
475.19	12306.24
475.40	12830.52
475.61	12984.12
475.81	12736.32
476.02	12939.07
476.23	12904.25
476.44	13193.01
476.64	13262.65
476.85	13569.84
477.06	13301.56
477.27	13829.93
477.47	13543.22
477.68	13563.70
477.89	13887.28
478.09	13805.36
478.30	13918.00
478.51	13754.16
478.71	14063.40
478.92	14065.45
479.13	14245.67
479.34	14378.79
479.54	14411.56
479.75	14331.69
479.96	14585.63
480.16	14651.17
480.37	14745.38
480.58	14960.41
480.78	15052.57
480.99	15105.82
481.20	15222.55
481.41	15273.75
481.61	15378.20
481.82	15378.20
482.03	15515.41
482.23	15564.56
482.44	15644.43
482.65	15806.22
482.85	16295.69
483.06	15994.64
483.27	15996.68
483.47	16121.61
483.68	16201.48
483.89	16459.52
484.09	16391.94
484.30	16449.28
484.51	16662.27
484.71	16576.26
484.92	16672.51
485.13	16953.09
485.33	16918.27
485.54	16910.08
485.75	17264.38
485.95	17352.44
486.16	17364.73
486.37	17440.50
486.57	17469.17
486.78	17565.43
486.98	17772.27
487.19	17848.05
487.40	18061.04
487.60	18120.43
487.81	17884.91
488.02	18095.85
488.22	18335.46
488.43	18204.39
488.64	18476.77
488.84	18472.68
489.05	18923.23
489.25	18622.18
489.46	19082.97
489.67	18753.25
489.87	19302.11
490.08	19072.73
490.29	19072.73
490.49	19369.69
490.70	19490.52
490.90	19640.02
491.11	19517.14
491.32	19793.62
491.52	19543.77
491.73	19721.94
491.94	19957.46
492.14	19984.08
492.35	19992.27
492.55	20389.58
492.76	20303.56
492.97	20252.36
493.17	20248.27
493.38	20432.58
493.58	20729.54
493.79	20793.03
494.00	20868.80
494.20	20700.87
494.41	20903.62
494.61	21249.72
494.82	21014.21
495.02	21018.30
495.23	21120.70
495.44	21372.60
495.64	21372.60
495.85	21360.31
496.05	21585.59
496.26	21489.34
496.47	21667.51
496.67	21618.36
496.88	21810.87
497.08	21913.27
497.29	22234.80
497.49	22093.49
497.70	22273.71
497.91	22279.85
498.11	22337.20
498.32	22533.80
498.52	22597.29
498.73	22742.69
498.93	22400.68
499.14	22628.01
499.34	22849.19
499.55	22576.81
499.76	22754.98
499.96	23064.22
500.17	22707.88
500.37	22847.14
500.58	23295.64
500.78	23410.33
500.99	23547.54
501.19	23553.69
501.40	23596.70
501.60	23404.19
501.81	23492.25
502.02	23682.71
502.22	23516.83
502.43	24069.78
502.63	23889.56
502.84	24102.54
503.04	23717.53
503.25	24149.65
503.45	23846.55
503.66	24307.34
503.86	24153.74
504.07	24538.76
504.27	24413.84
504.48	24549.00
504.68	24479.37
504.89	24671.88
505.09	24794.76
505.30	24749.70
505.50	24835.72
505.71	24778.37
505.91	24915.59
506.12	25216.64
506.32	24995.46
506.53	24706.70
506.73	25210.50
506.94	25104.00
507.14	25101.95
507.35	25278.08
507.55	25278.08
507.76	25423.48
507.96	25458.30
508.17	25206.40
508.37	25390.72
508.58	25665.14
508.78	25378.43
508.99	25865.85
509.19	25693.82
509.40	25927.28
509.60	25886.32
509.81	25792.12
510.01	26021.49
510.22	25572.99
510.42	25960.05
510.63	26158.70
510.83	26015.35
511.04	26148.46
511.24	26377.84
511.44	26162.80
511.65	26234.48
511.85	26177.14
512.06	26343.02
512.26	26300.01
512.47	26539.63
512.67	26685.03
512.88	26760.81
513.08	26531.44
513.29	26883.69
513.49	26752.62
513.69	26783.34
513.90	26715.75
514.10	26760.81
514.31	27162.21
514.51	27244.13
514.72	27184.74
514.92	27180.64
515.13	27291.23
515.33	27455.07
515.53	27299.42
515.74	27485.79
515.94	27696.73
516.15	27504.22
516.35	27539.04
516.56	27749.98
516.76	27453.02
516.96	27448.93
517.17	27907.67
517.37	27700.83
517.58	27915.86
517.78	27954.77
517.99	27952.73
518.19	28042.84
518.39	27870.81
518.60	28409.42
518.80	27840.09
519.01	28290.64
519.21	28374.61
519.41	28216.91
519.62	28366.42
519.82	28896.84
520.03	28565.07
520.23	28747.34
520.43	28524.11
520.64	28968.52
520.84	29017.67
521.05	28872.26
521.25	29072.96
521.45	29150.79
521.66	29173.31
521.86	28859.98
522.07	29288.00
522.27	29206.08
522.47	29361.73
522.68	29544.00
522.88	29306.43
523.08	29838.90
523.29	29591.10
523.49	29984.31
523.70	29650.49
523.90	30033.46
524.10	29750.84
524.31	30099.00
524.51	30060.09
524.71	30498.35
524.92	30260.79
525.12	30596.65
525.33	30375.47
525.53	30817.83
525.73	30705.20
525.94	30707.24
526.14	30778.92
526.34	31104.55
526.55	30649.90
526.75	30924.33
526.95	31225.38
527.16	30989.86
527.36	31325.73
527.56	31395.36
527.77	31604.25
527.97	31757.85
528.17	31526.43
528.38	31958.55
528.58	31776.28
528.78	31850.01
528.99	31964.70
529.19	32341.52
529.39	31761.95
529.60	32054.81
529.80	31962.65
530.00	32183.83
530.21	32581.13
530.41	32704.01
530.61	32478.74
530.82	32777.74
531.02	32843.27
531.22	32839.18
531.43	32859.66
531.63	33285.64
531.83	33402.37
532.04	33396.23
532.24	33003.02
532.44	33590.78
532.64	33750.52
532.85	34100.73
533.05	34004.47
533.25	33697.28
533.46	33693.18
533.66	34100.73
533.86	33938.94
534.07	34416.11
534.27	34266.61
534.47	34577.90
534.67	34864.62
534.88	34803.18
535.08	34375.16
535.28	35028.46
535.49	34725.36
535.69	35495.39
535.89	34915.82
536.09	35528.16
536.30	35665.38
536.50	35509.73
536.70	35841.50
536.91	35583.46
537.11	35522.02
537.31	35739.10
537.51	35802.59
537.72	36216.28
537.92	36265.43
538.12	36586.96
538.32	36265.43
538.53	36351.45
538.73	36693.46
538.93	36367.83
539.13	36087.26
539.34	36584.91
539.54	36685.26
539.74	36959.69
539.94	36732.37
540.15	36361.69
540.35	36697.55
540.55	37029.32
540.75	37041.61
540.96	37479.88
541.16	37490.12
541.36	37369.29
541.56	37318.09
541.77	37701.06
541.97	37535.17
542.17	37952.96
542.37	37676.48
542.58	38151.61
542.78	37868.99
542.98	37969.34
543.18	38206.90
543.38	38352.31
543.59	38428.09
543.79	38292.92
543.99	38204.86
544.19	38526.39
544.40	38665.65
544.60	38991.28
544.80	38821.30
545.00	38462.90
545.20	38878.64
545.41	38782.38
545.61	38598.07
545.81	39089.58
546.01	39175.59
546.21	39261.61
546.42	38688.18
546.62	39632.29
546.82	39005.61
547.02	39308.71
547.22	39257.51
547.43	39394.73
547.63	39439.78
547.83	39718.31
548.03	39859.62
548.23	39591.33
548.44	40041.88
548.64	40009.12
548.84	40002.97
549.04	39894.43
549.24	40293.79
549.45	40598.93
549.65	40215.96
549.85	40011.17
550.05	40375.70
550.25	39951.77
550.45	40977.81
550.66	40449.43
550.86	40402.33
551.06	40910.22
551.26	40547.73
551.46	40719.76
551.66	40449.43
551.87	40600.98
552.07	40785.30
552.27	40770.96
552.47	41217.42
552.67	40936.85
552.87	40635.80
553.07	41102.73
553.28	41575.81
553.48	41291.15
553.68	40842.64
553.88	41190.80
554.08	41229.71
554.28	41426.31
554.48	40963.47
554.69	41629.06
554.89	41252.23
555.09	41586.05
555.29	41717.12
555.49	41811.33
555.69	41538.95
555.89	41469.32
556.10	41624.96
556.30	41846.15
556.50	41614.72
556.70	41602.44
556.90	42163.58
557.10	42280.31
557.30	41721.22
557.50	42405.24
557.70	42331.51
557.91	42478.97
558.11	42302.84
558.31	42300.79
558.51	41969.02
558.71	42546.55
558.91	42538.36
559.11	42288.51
559.31	42530.17
559.51	42399.10
559.72	42544.50
559.92	42440.06
560.12	42585.46
560.32	42571.13
560.52	42274.17
560.72	42677.62
560.92	43160.94
561.12	42894.71
561.32	43185.52
561.52	42798.45
561.72	42986.86
561.93	42468.73
562.13	42810.74
562.33	42753.40
562.53	43429.23
562.73	42644.85
562.93	42780.02
563.13	43322.73
563.33	42974.58
563.53	43251.05
563.73	43013.49
563.93	43148.65
564.13	43484.52
564.33	43056.50
564.53	43488.62
564.74	43453.80
564.94	43083.12
565.14	43384.17
565.34	43519.34
565.54	43566.44
565.74	43619.69
565.94	43726.18
566.14	43568.49
566.34	43701.61
566.54	43955.55
566.74	43670.89
566.94	43820.39
567.14	43953.51
567.34	43826.53
567.54	44336.48
567.74	43513.19
567.94	43623.78
568.14	44502.36
568.34	44248.41
568.54	44027.23
568.74	43523.43
568.94	43627.88
569.14	44385.63
569.34	44248.41
569.54	44019.04
569.75	43789.67
569.95	44141.92
570.15	44182.88
570.35	44135.77
570.55	44111.20
570.75	44559.70
570.95	44686.68
571.15	44551.51
571.35	44655.96
571.55	44676.44
571.75	44440.92
571.95	44858.71
572.15	44774.74
572.35	45036.88
572.55	44514.65
572.75	44604.76
572.95	44623.19
573.15	44995.92
573.35	44850.52
573.55	44817.75
573.75	45155.66
573.95	45393.23
574.15	44840.28
574.35	44965.20
574.55	45051.22
574.75	45143.38
574.95	45397.32
575.15	44954.96
575.34	45036.88
575.54	45405.52
575.74	45290.83
575.94	45661.51
576.14	45649.22
576.34	45641.03
576.54	45712.71
576.74	45665.61
576.94	45385.04
577.14	45817.16
577.34	45921.60
577.54	45436.23
577.74	45661.51
577.94	46134.59
578.14	46236.99
578.34	46355.77
578.54	45849.92
578.74	45983.04
578.94	45847.88
579.14	45997.38
579.34	46257.47
579.54	46822.71
579.74	46155.07
579.94	46396.73
580.13	46212.41
580.33	46325.05
580.53	46617.91
580.73	46802.23
580.93	46634.30
581.13	46603.58
581.33	46540.09
581.53	47170.86
581.73	46976.31
581.93	46996.79
582.13	46744.89
582.33	47260.97
582.53	46939.44
582.73	47207.73
582.92	47090.99
583.12	47314.22
583.32	46613.82
583.52	47301.93
583.72	47308.08
583.92	47351.09
584.12	47551.79
584.32	47684.90
584.52	47490.35
584.72	47494.44
584.92	47848.74
585.11	48100.64
585.31	47756.58
585.51	47744.30
585.71	47686.95
585.91	48299.30
586.11	47938.85
586.31	48069.92
586.51	47613.23
586.71	48325.92
586.91	48493.85
587.10	48362.78
587.30	48370.97
587.50	48092.45
587.70	48370.97
587.90	48606.49
588.10	48055.59
588.30	48157.99
588.50	48313.63
588.69	49083.67
588.89	48434.46
589.09	48469.28
589.29	48645.40
589.49	48936.21
589.69	48436.51
589.89	48917.78
590.08	48874.77
590.28	48954.64
590.48	48735.51
590.68	49020.18
590.88	49181.97
591.08	48827.67
591.28	48520.48
591.47	49261.84
591.67	49128.72
591.87	49394.96
592.07	49349.90
592.27	49773.83
592.47	49249.55
592.67	49077.52
592.86	49192.21
593.06	49679.63
593.26	49566.99
593.46	49513.74
593.66	49554.70
593.86	49505.55
594.05	49540.36
594.25	49992.97
594.45	49419.53
594.65	49284.37
594.85	49863.94
595.05	49607.95
595.24	50009.35
595.44	49812.74
595.64	50095.36
595.84	50257.15
596.04	50056.45
596.23	49874.18
596.43	50193.67
596.63	50201.86
596.83	50490.62
597.03	50756.86
597.22	50334.98
597.42	50271.49
597.62	50894.07
597.82	50509.05
598.02	50814.20
598.21	50918.65
598.41	50889.98
598.61	50810.10
598.81	50881.78
599.01	51205.36
599.20	51008.76
599.40	50789.62
599.60	51199.22
599.80	50703.61
600.00	51098.87
600.19	51655.92
600.39	51295.47
600.59	51444.98
600.79	51395.82
600.98	51555.57
601.18	51442.93
601.38	51997.93
601.58	52141.28
601.78	51899.62
601.97	51545.33
602.17	52303.07
602.37	51881.19
602.57	51670.25
602.76	52212.96
602.96	51926.25
603.16	52356.32
603.36	52106.47
603.55	52405.47
603.75	52010.21
603.95	52065.51
604.15	52483.30
604.34	52520.16
604.54	52092.13
604.74	51909.86
604.94	52608.22
605.13	52360.42
605.33	52794.59
605.53	52448.48
605.73	52655.32
605.92	52202.72
606.12	52843.74
606.32	52853.98
606.52	52559.07
606.71	52634.84
606.91	53359.83
607.11	53208.28
607.30	53198.04
607.50	53028.05
607.70	52966.62
607.90	53107.93
608.09	53525.71
608.29	53484.75
608.49	53335.25
608.68	53271.76
608.88	53310.67
609.08	53443.79
609.28	53654.73
609.47	53439.70
609.67	53689.55
609.87	53275.86
610.06	53722.32
610.26	53640.40
610.46	53791.95
610.66	53886.15
610.85	53851.34
611.05	53705.93
611.25	53560.53
611.44	53511.38
611.64	53642.45
611.84	53372.11
612.03	53832.91
612.23	53927.11
612.43	53929.16
612.62	53830.86
612.82	54109.38
613.02	54142.15
613.21	54049.99
613.41	53945.54
613.61	53978.31
613.80	53765.32
614.00	54209.73
614.20	53888.20
614.39	54400.19
614.59	54191.30
614.79	54371.52
614.98	54197.44
615.18	54392.00
615.38	54017.22
615.57	53861.58
615.77	54244.55
615.97	54514.88
616.16	53941.45
616.36	54113.48
616.56	54385.86
616.75	54121.67
616.95	54009.03
617.15	54451.39
617.34	53949.64
617.54	54191.30
617.74	54641.85
617.93	54396.10
618.13	53937.35
618.32	54224.07
618.52	53789.90
618.72	54158.53
618.91	54256.84
619.11	54062.28
619.31	54078.66
619.50	54414.53
619.70	54150.34
619.90	54318.28
620.09	54445.25
620.29	54097.09
620.48	54074.57
620.68	54686.91
620.88	54004.94
621.07	54314.18
621.27	54207.68
621.46	53816.52
621.66	54199.49
621.86	54490.30
622.05	53920.97
622.25	54545.60
622.44	54387.91
622.64	54133.96
622.84	54326.47
623.03	53941.45
623.23	54432.96
623.42	53966.02
623.62	54301.89
623.82	54801.60
624.01	54211.78
624.21	53800.14
624.40	54162.63
624.60	54019.27
624.80	54185.16
624.99	54314.18
625.19	53863.63
625.38	54363.33
625.58	54062.28
625.77	54133.96
625.97	54400.19
626.17	53871.82
626.36	54541.50
626.56	54279.36
626.75	53671.12
626.95	54906.04
627.14	54162.63
627.34	54375.62
627.54	53914.83
627.73	54375.62
627.93	54494.40
628.12	53951.69
628.32	53791.95
628.51	54242.50
628.71	54447.30
628.90	54400.19
629.10	54293.70
629.30	54418.63
629.49	54129.86
629.69	54385.86
629.88	54377.67
630.08	54330.56
630.27	54658.24
630.47	54303.94
630.66	54375.62
630.86	54379.71
631.05	54369.47
631.25	54506.69
631.44	54293.70
631.64	54240.45
631.84	54408.39
632.03	54541.50
632.23	54596.80
632.42	54744.25
632.62	54293.70
632.81	54234.31
633.01	54207.68
633.20	54795.45
633.40	54576.32
633.59	54768.83
633.79	54527.17
633.98	54310.08
634.18	54830.27
634.37	54537.41
634.57	54555.84
634.76	55088.31
634.96	54353.09
635.15	54787.26
635.35	54469.82
635.54	54600.89
635.74	54394.05
635.93	54414.53
636.13	54965.43
636.32	54715.58
636.52	54285.51
636.71	54533.31
636.91	55047.35
637.10	54809.79
637.30	54738.11
637.49	55037.11
637.69	54195.40
637.88	55178.42
638.08	54471.87
638.27	55127.22
638.46	54715.58
638.66	54377.67
638.85	55162.04
639.05	54551.74
639.24	55086.26
639.44	54924.47
639.63	54664.38
639.83	55035.06
640.02	55254.20
640.22	54738.11
640.41	55102.65
640.61	54826.17
640.80	54774.97
640.99	54639.81
641.19	55291.06
641.38	55336.12
641.58	54793.40
641.77	54947.00
641.97	54680.77
642.16	54928.57
642.36	55196.85
642.55	55317.68
642.74	54785.21
642.94	55332.02
643.13	55104.70
643.33	55319.73
643.52	55272.63
643.72	55440.56
643.91	55002.30
644.10	55327.92
644.30	55413.94
644.49	55237.81
644.69	55440.56
644.88	55551.15
645.08	55084.22
645.27	54998.20
645.46	55131.32
645.66	55497.91
645.85	55063.74
646.05	55891.12
646.24	55731.37
646.43	55633.07
646.63	55829.68
646.82	55864.49
647.02	55452.85
647.21	55694.51
647.40	55952.55
647.60	56046.76
647.79	55811.24
647.99	55661.74
648.18	55268.53
648.37	56149.16
648.57	55899.31
648.76	55714.99
648.96	55502.00
649.15	55737.52
649.34	55995.56
649.54	55858.35
649.73	55829.68
649.92	55624.88
650.12	56061.10
650.31	56194.21
650.51	56073.38
650.70	56120.49
650.89	55639.22
651.09	56349.86
651.28	55821.48
651.47	56147.11
651.67	56306.85
651.86	56517.79
652.06	55198.90
652.25	55858.35
652.44	55745.71
652.64	55985.32
652.83	55780.52
653.02	55710.89
653.22	55944.36
653.41	56065.19
653.60	55506.10
653.80	56024.23
653.99	56382.63
654.18	55833.77
654.38	55555.25
654.57	55821.48
654.76	55876.78
654.96	55905.45
655.15	55751.85
655.34	56007.85
655.54	55676.08
655.73	55956.65
655.92	56030.38
656.12	56196.26
656.31	55981.23
656.50	55760.05
656.70	55938.22
656.89	55553.20
657.08	56214.69
657.28	56216.74
657.47	56269.99
657.66	56313.00
657.86	56333.48
658.05	56259.75
658.24	56231.08
658.43	55639.22
658.63	56396.96
658.82	56333.48
659.01	56669.34
659.21	56050.86
659.40	56243.37
659.59	56450.21
659.79	56065.19
659.98	56032.42
660.17	56261.80
660.36	56456.35
660.56	56079.53
660.75	56671.39
660.94	56335.52
661.14	56222.89
661.33	56487.07
661.52	56083.62
661.71	56554.66
661.91	56259.75
662.10	56278.18
662.29	56673.44
662.49	56491.17
662.68	56501.41
662.87	56607.90
663.06	56845.47
663.26	56472.74
663.45	56104.10
663.64	56288.42
663.83	56503.46
664.03	56431.78
664.22	56513.70
664.41	56702.11
664.60	56468.64
664.80	56323.24
664.99	56085.67
665.18	56820.89
665.37	56073.38
665.57	56597.66
665.76	56208.55
665.95	56730.78
666.14	56163.50
666.34	56548.51
666.53	56452.26
666.72	56061.10
666.91	56288.42
667.11	56272.04
667.30	56794.27
667.49	56628.38
667.68	56466.59
667.87	56036.52
668.07	56358.05
668.26	56259.75
668.45	56063.14
668.64	56188.07
668.84	56841.37
669.03	56335.52
669.22	56454.31
669.41	56581.28
669.60	56454.31
669.80	56280.23
669.99	56784.03
670.18	56470.69
670.37	56282.28
670.57	56925.34
670.76	56530.08
670.95	56579.23
671.14	56566.94
671.33	56024.23
671.53	56677.54
671.72	56546.47
671.91	56384.68
672.10	55985.32
672.29	56409.25
672.48	56435.87
672.68	56646.82
672.87	56038.57
673.06	56417.44
673.25	55927.98
673.44	56196.26
673.64	56132.78
673.83	56179.88
674.02	56380.58
674.21	56059.05
674.40	56505.51
674.59	56280.23
674.79	56456.35
674.98	56085.67
675.17	56755.36
675.36	56323.24
675.55	56214.69
675.74	56108.20
675.94	55887.02
676.13	56321.19
676.32	56448.16
676.51	56499.36
676.70	56255.65
676.89	56130.73
677.08	56169.64
677.28	56196.26
677.47	56210.60
677.66	56386.72
677.85	56104.10
678.04	56339.62
678.23	56685.73
678.42	56255.65
678.62	56040.62
678.81	56317.09
679.00	55825.58
679.19	56405.16
679.38	56691.87
679.57	56276.13
679.76	55973.03
679.96	56239.27
680.15	55798.96
680.34	55676.08
680.53	55903.40
680.72	55993.51
680.91	55958.70
681.10	56063.14
681.29	55839.92
681.48	55917.74
681.68	55821.48
681.87	55973.03
682.06	55764.14
682.25	55483.57
682.44	56075.43
682.63	55721.13
682.82	55624.88
683.01	55940.27
683.20	55293.11
683.39	55338.16
683.59	55518.38
683.78	55100.60
683.97	55491.76
684.16	55030.97
684.35	55717.04
684.54	55600.30
684.73	55559.34
684.92	55536.82
685.11	55358.64
685.30	55710.89
685.49	56083.62
685.69	55424.18
685.88	55645.36
686.07	54842.56
686.26	55506.10
686.45	55702.70
686.64	55276.72
686.83	55573.68
687.02	55504.05
687.21	55706.80
687.40	55522.48
687.59	55340.21
687.78	55284.92
687.97	55612.59
688.16	55270.58
688.35	54834.36
688.54	54996.15
688.74	55387.31
688.93	54881.47
689.12	55315.64
689.31	55315.64
689.50	55510.19
689.69	54701.25
689.88	54179.01
690.07	55080.12
690.26	54738.11
690.45	55151.80
690.64	54906.04
690.83	54840.51
691.02	54531.26
691.21	54445.25
691.40	55162.04
691.59	54875.32
691.78	54641.85
691.97	55073.98
692.16	54764.73
692.35	55192.76
692.54	54992.06
692.73	54752.44
692.92	55137.46
693.11	54295.75
693.30	54531.26
693.49	54701.25
693.68	54858.94
693.87	54639.81
694.06	54047.94
694.25	54385.86
694.44	54117.57
694.63	54498.50
694.82	54381.76
695.01	54467.78
695.20	54369.47
695.39	54101.19
695.58	54336.71
695.77	54459.58
695.96	54285.51
696.15	54269.12
696.34	54357.19
696.53	54312.13
696.72	54400.19
696.91	53736.65
697.10	54547.65
697.29	54082.76
697.48	54547.65
697.67	53777.61
697.86	54275.27
698.05	53832.91
698.24	54140.10
698.43	53624.01
698.62	53933.26
698.81	53738.70
699.00	54013.13
699.19	53757.13
699.38	54041.80
699.57	53802.19
699.76	54211.78
699.95	53402.83
700.14	53404.88
700.32	53974.22
700.51	53736.65
700.70	53531.86
700.89	53961.93
701.08	53927.11
701.27	53515.47
701.46	53966.02
701.65	52827.35
701.84	53503.18
702.03	53886.15
702.22	53390.55
702.41	53726.41
702.60	53572.81
702.79	53277.91
702.98	53140.69
703.17	53339.35
703.35	53271.76
703.54	53226.71
703.73	53363.92
703.92	53079.25
704.11	53228.76
704.30	53155.03
704.49	53103.83
704.68	52823.26
704.87	52765.91
705.06	52819.16
705.25	52978.90
705.43	52837.59
705.62	52696.28
705.81	52802.78
706.00	52948.18
706.19	52286.69
706.38	52790.49
706.57	52630.75
706.76	52212.96
706.95	52847.83
707.14	52696.28
707.32	52856.03
707.51	52049.13
707.70	52319.46
707.89	52505.82
708.08	52419.81
708.27	52466.91
708.46	52384.99
708.65	52290.79
708.84	52270.31
709.02	52176.10
709.21	52622.56
709.40	52425.95
709.59	52204.77
709.78	52430.05
709.97	52366.56
710.16	52077.80
710.34	52325.60
710.53	52116.71
710.72	51997.93
710.91	52458.72
711.10	52065.51
711.29	52139.24
711.48	51723.50
711.66	51956.97
711.85	51803.37
712.04	52063.46
712.23	52258.02
712.42	51770.60
712.61	51668.20
712.80	51655.92
712.98	51426.54
713.17	51129.59
713.36	51653.87
713.55	51512.56
713.74	51361.01
713.93	51698.92
714.11	51547.37
714.30	51432.69
714.49	51410.16
714.68	51330.29
714.87	51303.67
715.06	51174.64
715.24	51172.60
715.43	51459.31
715.62	51156.21
715.81	50844.92
716.00	51455.21
716.18	50543.87
716.37	51254.51
716.56	50996.47
716.75	51389.68
716.94	51029.24
717.12	50693.37
717.31	51117.30
717.50	50990.33
717.69	50455.81
717.88	50808.06
718.06	50611.45
718.25	50871.54
718.44	50420.99
718.63	50806.01
718.82	50543.87
719.00	50246.91
719.19	50304.26
719.38	50306.30
719.57	50015.49
719.76	49528.08
719.94	49818.89
720.13	50074.88
720.32	49968.39
720.51	50199.81
720.69	50056.45
720.88	49712.39
721.07	49759.50
721.26	49239.31
721.44	49509.64
721.63	49566.99
721.82	49583.37
722.01	49292.56
722.20	49284.37
722.38	49345.81
722.57	49018.13
722.76	49487.12
722.95	49452.30
723.13	48897.30
723.32	48803.10
723.51	48715.03
723.70	48121.12
723.88	49030.42
724.07	48858.39
724.26	48502.04
724.44	48094.50
724.63	48792.86
724.82	48876.82
725.01	48231.71
725.19	48993.56
725.38	48188.70
725.57	48084.26
725.76	48069.92
725.94	48313.63
726.13	48399.65
726.32	48356.64
726.51	48131.36
726.69	48751.90
726.88	48084.26
727.07	48481.56
727.25	48362.78
727.44	47865.13
727.63	48280.86
727.82	48477.47
728.00	48233.76
728.19	48219.42
728.38	48293.15
728.56	47924.52
728.75	48342.30
728.94	47672.62
729.12	48325.92
729.31	47940.90
729.50	48096.55
729.69	48373.02
729.87	47764.78
730.06	47912.23
730.25	48164.13
730.43	48667.93
730.62	47871.27
730.81	48164.13
730.99	47947.04
731.18	47725.86
731.37	48211.23
731.55	48280.86
731.74	48370.97
731.93	48176.42
732.11	48067.87
732.30	47875.37
732.49	47783.21
732.67	47744.30
732.86	47766.82
733.05	47791.40
733.23	47514.92
733.42	47699.24
733.61	47377.71
733.79	47576.36
733.98	48200.99
734.17	47541.55
734.35	47906.08
734.54	48067.87
734.73	47863.08
734.91	47901.99
735.10	47783.21
735.29	48078.11
735.47	47559.98
735.66	47756.58
735.84	47832.36
736.03	47506.73
736.22	47766.82
736.40	47156.53
736.59	47676.71
736.78	47500.59
736.96	47281.45
737.15	47236.40
737.33	47199.54
737.52	47211.82
737.71	46925.11
737.89	47209.78
738.08	46910.77
738.27	47146.29
738.45	47623.47
738.64	47154.48
738.82	47390.00
739.01	46921.01
739.20	46927.16
739.38	46798.13
739.57	47486.25
739.75	47160.62
739.94	46705.98
740.13	46837.05
740.31	46740.79
740.50	46390.59
740.68	46890.29
740.87	46691.64
741.06	47101.23
741.24	47013.17
741.43	46765.37
741.61	46826.81
741.80	46751.03
741.99	46357.82
742.17	46456.12
742.36	46556.47
742.54	46892.34
742.73	46822.71
742.91	46806.33
743.10	46574.91
743.29	46900.53
743.47	46703.93
743.66	46748.98
743.84	46449.98
744.03	46380.35
744.21	46331.20
744.40	46519.61
744.59	46169.41
744.77	45804.87
744.96	46155.07
745.14	46341.44
745.33	46398.78
745.51	45856.07
745.70	46269.76
745.88	45864.26
746.07	46437.69
746.26	46110.02
746.44	45970.75
746.63	45960.51
746.81	45872.45
747.00	45569.35
747.18	46163.26
747.37	45925.70
747.55	46230.85
747.74	45837.64
747.92	45804.87
748.11	45604.17
748.29	45376.84
748.48	45768.01
748.66	45831.49
748.85	45628.74
749.03	45419.85
749.22	45692.23
749.41	45512.01
749.59	45839.68
749.78	45096.27
749.96	44805.46
750.15	45204.81
750.33	45446.47
750.52	45638.98
750.70	45546.82
750.89	45110.61
751.07	45634.89
751.26	44801.36
751.44	44864.85
751.63	44891.48
751.81	44801.36
752.00	44524.89
752.18	44797.27
752.37	44688.73
752.55	45053.26
752.74	44930.39
752.92	44873.04
753.10	44475.74
753.29	44850.52
753.47	45079.89
753.66	44563.80
753.84	44991.83
754.03	44651.86
754.21	44045.66
754.40	44803.41
754.58	44944.72
754.77	44731.73
754.95	44412.25
755.14	44451.16
755.32	44596.57
755.51	44363.10
755.69	44438.87
755.88	44006.75
756.06	44397.91
756.24	44025.18
756.43	44371.29
756.61	44203.36
756.80	44072.29
756.98	43816.29
757.17	43961.70
757.35	44086.62
757.54	43924.83
757.72	44068.19
757.90	44098.91
758.09	43666.79
758.27	43933.03
758.46	43251.05
758.64	43791.72
758.83	43986.27
759.01	43871.59
759.19	43615.59
759.38	43451.75
759.56	43777.38
759.75	43834.72
759.93	43771.24
760.12	43607.40
760.30	43580.78
760.48	43050.35
760.67	43365.74
760.85	43263.34
761.04	43441.51
761.22	43144.56
761.40	43214.19
761.59	43394.41
761.77	43177.33
761.96	43347.31
762.14	43142.51
762.32	42894.71
762.51	42974.58
762.69	42882.42
762.88	42788.21
763.06	43058.54
763.24	42958.19
763.43	43027.82
763.61	42474.87
763.80	42667.38
763.98	42757.49
764.16	42984.82
764.35	42382.71
764.53	42270.08
764.72	42513.78
764.90	42444.15
765.08	42460.54
765.27	42628.47
765.45	42388.86
765.63	42128.77
765.82	42808.69
766.00	42110.33
766.18	42292.60
766.37	42370.43
766.55	42085.76
766.74	42454.39
766.92	42222.97
767.10	42026.37
767.29	41995.65
767.47	41424.26
767.65	42124.67
767.84	41549.19
768.02	42128.77
768.20	41760.13
768.39	41786.75
768.57	41667.97
768.75	41524.61
768.94	41614.72
769.12	41694.60
769.30	41489.80
769.49	41158.03
769.67	41473.42
769.85	40717.71
770.04	41268.62
770.22	41112.97
770.40	41086.35
770.59	40930.70
770.77	41346.44
770.95	41237.90
771.14	41125.26
771.32	40689.04
771.50	40799.63
771.69	40781.20
771.87	40955.28
772.05	40897.94
772.24	40678.80
772.42	40887.70
772.60	40795.54
772.78	40508.82
772.97	40271.26
773.15	40922.51
773.33	40904.08
773.52	40263.07
773.70	40678.80
773.88	41012.62
774.07	40703.38
774.25	40076.70
774.43	40592.79
774.61	40773.01
774.80	40580.50
774.98	40496.53
775.16	40711.57
775.34	40381.85
775.53	40474.01
775.71	40811.92
775.89	40891.79
776.08	40820.11
776.26	40588.69
776.44	40916.37
776.62	40922.51
776.81	40402.33
776.99	40465.81
777.17	41051.53
777.35	40902.03
777.54	40695.19
777.72	40424.86
777.90	40682.90
778.08	40856.98
778.27	40795.54
778.45	40818.07
778.63	41221.52
778.81	40527.25
779.00	41645.44
779.18	41035.15
779.36	41285.00
779.54	40908.18
779.73	40705.43
779.91	40947.09
780.09	41287.05
780.27	41567.62
780.46	41252.23
780.64	41600.39
780.82	41561.48
781.00	41084.30
781.19	41344.39
781.37	41555.33
781.55	41760.13
781.73	41584.01
781.91	41780.61
782.10	41383.30
782.28	41612.68
782.46	41866.63
782.64	41467.27
782.82	41328.01
783.01	41727.36
783.19	41762.18
783.37	41725.32
783.55	41426.31
783.74	41600.39
783.92	41381.26
784.10	42065.28
784.28	41829.76
784.46	41250.19
784.64	41264.52
784.83	41364.87
785.01	41819.52
785.19	41635.20
785.37	41588.10
785.55	41577.86
785.74	41309.58
785.92	41407.88
786.10	41710.98
786.28	41375.11
786.46	41516.42
786.64	41350.54
786.83	41336.20
787.01	41424.26
787.19	41452.94
787.37	41731.46
787.55	41276.81
787.74	41160.08
787.92	41297.29
788.10	41237.90
788.28	40514.97
788.46	41541.00
788.64	40799.63
788.82	41336.20
789.01	40648.08
789.19	41293.19
789.37	40932.75
789.55	40641.94
789.73	40510.87
789.91	40705.43
790.09	40527.25
790.28	40230.30
790.46	40218.01
790.64	40641.94
790.82	40267.16
791.00	40261.02
791.18	40492.44
791.36	39986.59
791.55	40480.15
791.73	39769.51
791.91	39630.24
792.09	39896.48
792.27	39560.61
792.45	39959.97
792.63	39765.41
792.81	39493.03
793.00	39433.64
793.18	39384.49
793.36	39343.53
793.54	39523.75
793.72	38929.84
793.90	39335.34
794.08	39447.97
794.26	39251.37
794.44	38589.88
794.62	38872.49
794.81	38897.07
794.99	38575.54
795.17	38852.02
795.35	38573.49
795.53	38215.10
795.71	38569.40
795.89	38485.43
796.07	38329.78
796.25	38131.13
796.43	38008.25
796.61	37803.46
796.80	37873.09
796.98	38030.78
797.16	37477.83
797.34	37604.80
797.52	37486.02
797.70	37760.45
797.88	37387.72
798.06	37201.35
798.24	37522.88
798.42	37406.15
798.60	37557.70
798.78	37060.04
798.96	37320.13
799.14	37014.99
799.32	37303.75
799.51	37033.42
799.69	37062.09
799.87	36861.39
800.05	36693.46
800.23	36769.23
800.41	36636.11
800.59	36482.52
800.77	36371.92
800.95	35702.24
801.13	36210.14
801.31	36132.31
801.49	36302.29
801.67	35605.98
801.85	35886.56
802.03	35689.95
802.21	35481.06
802.39	35325.41
802.57	35601.89
802.75	35558.88
802.93	35577.31
803.11	35335.65
803.29	35436.00
803.47	34741.74
803.65	35259.88
803.83	35075.56
804.01	34694.64
804.19	34967.02
804.37	34774.51
804.55	34901.48
804.73	35042.79
804.91	34727.41
805.09	34751.98
805.27	34592.24
805.45	34506.23
805.63	34344.44
805.81	34682.35
805.99	34455.03
806.17	34196.98
806.35	34510.32
806.53	33977.85
806.71	34006.52
806.89	34082.30
807.07	33846.78
807.25	33820.16
807.43	33768.96
807.61	34057.72
807.79	33568.26
807.97	33420.80
808.15	33185.29
808.33	33422.85
808.51	33295.88
808.69	33201.67
808.87	32878.09
809.05	32867.85
809.23	32921.10
809.41	33000.97
809.59	32994.82
809.77	33066.50
809.95	32757.26
810.13	33019.40
810.31	32806.41
810.49	32560.66
810.67	32472.59
810.84	32611.85
811.02	32589.33
811.20	32159.25
811.38	32028.18
811.56	32140.82
811.74	32126.49
811.92	31854.11
812.10	32294.42
812.28	32146.97
812.46	32210.45
812.64	32060.95
812.82	31790.62
813.00	31462.94
813.18	31804.95
813.36	31561.25
813.53	31637.02
813.71	31415.84
813.89	31266.34
814.07	31432.22
814.25	31630.88
814.43	31217.19
814.61	31051.30
814.79	31118.89
814.97	31254.05
815.15	30944.81
815.33	30629.42
815.50	30996.01
815.68	30719.53
815.86	31014.44
816.04	30752.30
816.22	30621.23
816.40	30719.53
816.58	30715.44
816.76	30582.32
816.94	30697.00
817.11	30539.31
817.29	30430.77
817.47	30348.85
817.65	30574.13
817.83	30516.78
818.01	29959.73
818.19	30168.63
818.37	30268.98
818.54	29683.26
818.72	30043.70
818.90	29920.82
819.08	30137.91
819.26	29730.36
819.44	29724.22
819.62	29795.90
819.80	29587.00
819.97	29789.75
820.15	29505.09
820.33	29492.80
820.51	29808.19
820.69	29439.55
820.87	29298.24
821.05	29574.72
821.22	29548.09
821.40	29343.30
821.58	29353.54
821.76	29013.57
821.94	28939.85
822.12	29130.31
822.29	29328.96
822.47	29005.38
822.65	29451.84
822.83	29275.71
823.01	29056.58
823.19	28941.89
823.36	28667.47
823.54	28821.06
823.72	28808.78
823.90	28661.32
824.08	28339.79
824.25	28622.41
824.43	28606.03
824.61	28481.10
824.79	28714.57
824.97	28204.63
825.15	28427.85
825.32	28667.47
825.50	28040.79
825.68	28251.73
825.86	28456.53
826.04	28466.77
826.21	28317.26
826.39	27883.09
826.57	28194.39
826.75	27901.53
826.93	27709.02
827.10	27919.96
827.28	27993.68
827.46	27813.46
827.64	27862.61
827.81	27610.71
827.99	27522.65
828.17	27596.38
828.35	27629.15
828.53	27530.84
828.70	27211.36
828.88	27676.25
829.06	27240.03
829.24	27788.89
829.41	27358.81
829.59	27674.20
829.77	27420.25
829.95	27319.90
830.12	27113.06
830.30	26910.31
830.48	27348.57
830.66	27270.75
830.84	27070.05
831.01	26971.75
831.19	27035.24
831.37	26781.29
831.55	26969.70
831.72	26975.84
831.90	27098.72
832.08	26893.93
832.25	27207.26
832.43	26693.22
832.61	26463.85
832.79	26809.96
832.96	26705.51
833.14	26842.73
833.32	26895.97
833.50	26773.10
833.67	26691.18
833.85	26717.80
834.03	26484.33
834.20	26328.69
834.38	26691.18
834.56	26623.59
834.74	26209.90
834.91	26191.47
835.09	26271.34
835.27	26343.02
835.44	26148.46
835.62	25910.90
835.80	25945.72
835.98	26007.16
836.15	26025.59
836.33	25699.96
836.51	25843.32
836.68	25628.28
836.86	25962.10
837.04	25951.86
837.21	25794.17
837.39	25941.62
837.57	26089.07
837.75	26037.87
837.92	25634.42
838.10	25652.86
838.28	25161.34
838.45	25333.37
838.63	25167.49
838.81	25241.21
838.98	25462.40
839.16	25292.41
839.34	25407.10
839.51	25228.93
839.69	25015.94
839.87	25044.61
840.04	25075.33
840.22	25343.61
840.40	24964.74
840.57	24716.93
840.75	25052.80
840.93	25042.56
841.10	25155.20
841.28	25235.07
841.46	25163.39
841.63	25376.38
841.81	24678.02
841.98	24860.29
842.16	24819.33
842.34	24852.10
842.51	24624.78
842.69	25065.09
842.87	24675.98
843.04	24913.54
843.22	24645.26
843.40	24495.75
843.57	24698.50
843.75	24843.91
843.92	24381.07
844.10	24524.43
844.28	24632.97
844.45	24151.70
844.63	24258.19
844.81	24028.82
844.98	24276.62
845.16	24381.07
845.33	24544.91
845.51	24491.66
845.69	24022.67
845.86	24276.62
846.04	23891.60
846.21	24018.58
846.39	24016.53
846.57	24088.21
846.74	24073.87
846.92	23940.75
847.09	23946.90
847.27	23791.25
847.45	23860.88
847.62	23877.27
847.80	23629.46
847.97	23959.19
848.15	23944.85
848.32	23803.54
848.50	23625.37
848.68	23484.06
848.85	23389.85
849.03	23174.81
849.20	23545.50
849.38	23529.11
849.56	23672.47
849.73	23486.11
849.91	23318.17
850.08	23475.87
850.26	23107.23
850.43	23623.32
850.61	23344.80
850.78	23090.85
850.96	22927.01
851.14	22902.43
851.31	23228.06
851.49	22724.26
851.66	22879.91
851.84	23008.93
852.01	23148.19
852.19	23008.93
852.36	23131.81
852.54	22826.66
852.71	22931.11
852.89	22797.99
853.07	22812.32
853.24	23029.41
853.42	22900.39
853.59	23154.33
853.77	22810.28
853.94	22978.21
854.12	22773.41
854.29	22560.42
854.47	22783.65
854.64	22875.81
854.82	22554.28
854.99	22699.69
855.17	22441.64
855.34	22656.68
855.52	22857.38
855.69	22722.21
855.87	22429.35
856.04	22195.89
856.22	22408.87
856.39	21958.32
856.57	22120.11
856.74	22070.96
856.92	22206.13
857.09	22130.35
857.27	22242.99
857.44	22478.50
857.62	22199.98
857.79	22113.97
857.97	22060.72
858.14	22120.11
858.32	22062.77
858.49	21767.86
858.67	21905.07
858.84	21647.03
859.02	21890.74
859.19	21534.39
859.37	21851.83
859.54	21556.92
859.72	21784.24
859.89	21503.67
860.06	22023.86
860.24	21577.40
860.41	21817.01
860.59	21384.89
860.76	21591.73
860.94	21212.86
861.11	21382.84
861.29	21288.64
861.46	21374.65
861.64	21194.43
861.81	21145.28
861.98	21345.98
862.16	21192.38
862.33	20827.84
862.51	21073.60
862.68	21075.65
862.86	20942.53
863.03	20727.49
863.21	21124.80
863.38	20883.14
863.55	20917.95
863.73	21137.09
863.90	20946.62
864.08	20782.79
864.25	21008.06
864.43	20713.16
864.60	20758.21
864.77	20688.58
864.95	20754.12
865.12	20543.17
865.30	20817.60
865.47	20446.92
865.64	20661.96
865.82	20653.76
865.99	20555.46
866.17	20584.13
866.34	20618.95
866.51	20324.04
866.69	20678.34
866.86	20537.03
867.04	20668.10
867.21	20418.25
867.38	20281.03
867.56	20446.92
867.73	20321.99
867.91	20055.76
868.08	20272.84
868.25	20096.72
868.43	20061.90
868.60	20113.10
868.78	19885.78
868.95	20070.09
869.12	19965.65
869.30	19850.96
869.47	20072.14
869.64	19965.65
869.82	19846.87
869.99	19926.74
870.16	19801.81
870.34	19633.88
870.51	19781.33
870.69	19394.26
870.86	19830.48
871.03	19551.96
871.21	19293.91
871.38	19797.71
871.55	19535.57
871.73	19746.51
871.90	19551.96
872.07	19220.19
872.25	19263.19
872.42	19125.98
872.59	19332.82
872.77	19369.69
872.94	18984.67
873.11	19242.71
873.29	18824.93
873.46	19109.60
873.63	18714.34
873.81	18810.59
873.98	18927.33
874.15	18906.85
874.33	18448.10
874.50	18661.09
874.67	18706.15
874.85	18570.98
875.02	18525.93
875.19	18521.83
875.37	18583.27
875.54	18464.49
875.71	18388.71
875.88	18124.52
876.06	18339.56
876.23	18261.74
876.40	18175.72
876.58	18259.69
876.75	18192.11
876.92	18157.29
877.10	18370.28
877.27	18192.11
877.44	17880.82
877.61	17889.01
877.79	17905.39
877.96	18097.90
878.13	18046.70
878.31	17983.21
878.48	17792.75
878.65	17874.67
878.82	17704.69
879.00	17798.90
879.17	17592.05
879.34	17647.35
879.51	17757.94
879.69	17454.84
879.86	17383.16
880.03	17540.85
880.21	17354.49
880.38	17522.42
880.55	17518.32
880.72	17506.04
880.90	17645.30
881.07	17352.44
881.24	17295.10
881.41	17037.05
881.59	17741.55
881.76	17372.92
881.93	17121.02
882.10	17250.04
882.28	17147.64
882.45	17291.00
882.62	17192.70
882.79	17372.92
882.96	17026.81
883.14	17098.49
883.31	17016.57
883.48	17002.24
883.65	16885.50
883.83	16967.42
884.00	17047.29
884.17	16930.56
884.34	16805.63
884.51	16662.27
884.69	16733.95
884.86	16690.95
885.03	16934.65
885.20	16721.66
885.38	16822.02
885.55	16523.01
885.72	16750.34
885.89	16568.07
886.06	16746.24
886.24	16469.76
886.41	16584.45
886.58	16652.03
886.75	16678.66
886.92	16500.48
887.10	16858.88
887.27	16654.08
887.44	16514.82
887.61	16617.22
887.78	16471.81
887.95	16692.99
888.13	16230.15
888.30	16449.28
888.47	16373.51
888.64	16459.52
888.81	16197.38
888.99	16109.32
889.16	16166.67
889.33	16199.43
889.50	15937.29
889.67	16017.16
889.84	15935.24
890.01	15896.33
890.19	15804.17
890.36	16041.74
890.53	16019.21
890.70	15847.18
890.87	15650.58
891.04	15425.30
891.22	15826.70
891.39	15945.48
891.56	15814.41
891.73	15826.70
891.90	15755.02
892.07	15611.67
892.24	15867.66
892.42	15501.08
892.59	15726.35
892.76	15441.68
892.93	15509.27
893.10	15601.43
893.27	15439.64
893.44	15402.77
893.61	15421.20
893.79	15441.68
893.96	15290.13
894.13	15574.80
894.30	15376.15
894.47	15372.05
894.64	15488.79
894.81	15492.88
894.98	15597.33
895.15	15402.77
895.33	15226.65
895.50	15312.66
895.67	15423.25
895.84	15456.02
896.01	15247.13
896.18	15105.82
896.35	15269.66
896.52	15236.89
896.69	15249.18
896.86	15560.47
897.04	15253.27
897.21	15349.53
897.38	15331.09
897.55	14999.32
897.72	15116.06
897.89	15081.24
898.06	15114.01
898.23	15105.82
898.40	15212.31
898.57	15087.39
898.74	15245.08
898.91	15146.78
899.08	15249.18
899.26	15114.01
899.43	15216.41
899.60	15097.63
899.77	15308.57
899.94	14941.98
900.11	15060.76
900.28	15165.21
900.45	15175.45
900.62	15134.49
900.79	15306.52
900.96	15093.53
901.13	15148.82
901.30	15052.57
901.47	14911.26
901.64	15068.95
901.81	15128.35
901.98	15099.67
902.15	15290.13
902.32	14966.56
902.49	15142.68
902.66	15152.92
902.83	15177.50
903.01	15238.94
903.18	15195.93
903.35	15079.19
903.52	15085.34
903.69	15109.91
903.86	15161.11
904.03	15071.00
904.20	15081.24
904.37	15052.57
904.54	15071.00
904.71	15140.63
904.88	15015.71
905.05	14872.35
905.22	15025.95
905.39	15099.67
905.56	15062.81
905.73	15130.39
905.90	14956.32
906.07	14884.64
906.24	15040.28
906.41	14993.18
906.58	15222.55
906.75	14862.11
906.92	14966.56
907.09	14901.02
907.26	14743.33
907.43	14929.69
907.60	14792.48
907.77	15191.83
907.93	15056.67
908.10	14782.24
908.27	15058.71
908.44	14935.84
908.61	14903.07
908.78	14980.89
908.95	14958.36
909.12	14964.51
909.29	14733.09
909.46	14907.16
909.63	14886.68
909.80	14929.69
909.97	14995.23
910.14	14673.70
910.31	14712.61
910.48	14835.49
910.65	14907.16
910.82	14470.95
910.99	14681.89
911.16	14624.54
911.33	14706.46
911.50	14544.67
911.66	14262.05
911.83	14704.42
912.00	14442.28
912.17	14634.78
912.34	14227.24
912.51	14518.05
912.68	14343.97
912.85	14530.34
913.02	14487.33
913.19	14655.26
913.36	14229.29
913.53	14458.66
913.70	14130.98
913.86	14638.88
914.03	14362.40
914.20	14315.30
914.37	14200.62
914.54	14374.69
914.71	14122.79
914.88	14159.66
915.05	14231.33
915.22	13975.34
915.39	14257.96
915.55	13965.10
915.72	13852.46
915.89	14018.35
916.06	13879.08
916.23	14020.39
916.40	13688.62
916.57	13932.33
916.74	13791.02
916.91	13901.61
917.07	13592.37
917.24	13483.83
917.41	13692.72
917.58	13719.34
917.75	13725.49
917.92	13438.77
918.09	13434.68
918.26	13580.08
918.42	13508.40
918.59	13227.83
918.76	13258.55
918.93	12977.98
919.10	13256.50
919.27	13160.25
919.44	13309.75
919.60	13393.72
919.77	13133.62
919.94	13264.69
920.11	12810.04
920.28	13240.12
920.45	12973.88
920.61	13012.79
920.78	12869.44
920.95	12803.90
921.12	12818.24
921.29	12695.36
921.46	12869.44
921.62	12580.67
921.79	12740.41
921.96	12611.39
922.13	12797.76
922.30	12519.23
922.47	12382.02
922.63	12443.46
922.80	12459.84
922.97	12416.83
923.14	12093.26
923.31	12314.44
923.47	12070.73
923.64	12316.48
923.81	12089.16
923.98	12169.03
924.15	12140.36
924.32	12109.64
924.48	11913.03
924.65	11958.09
924.82	11800.40
924.99	11880.27
925.15	11726.67
925.32	12031.82
925.49	11743.05
925.66	11568.98
925.83	11710.29
925.99	11413.33
926.16	11497.30
926.33	11595.60
926.50	11306.84
926.67	11429.71
926.83	11517.78
927.00	11251.54
927.17	11398.99
927.34	11161.43
927.50	11263.83
927.67	11306.84
927.84	11339.60
928.01	11165.53
928.17	11011.93
928.34	10889.05
928.51	10921.82
928.68	10706.78
928.84	10755.93
929.01	10696.54
929.18	10655.58
929.35	10651.49
929.51	10680.16
929.68	10528.61
929.85	10579.81
930.02	10721.12
930.18	10297.19
930.35	10549.09
930.52	10327.91
930.69	10475.36
930.85	10389.35
931.02	10348.39
931.19	10461.02
931.36	10127.21
931.52	10415.97
931.69	10172.26
931.86	10049.38
932.02	10145.64
932.19	9901.93
932.36	9944.94
932.53	9744.24
932.69	9756.52
932.86	9858.92
933.03	9957.22
933.19	9631.60
933.36	9734.00
933.53	9787.24
933.70	9645.93
933.86	9351.03
934.03	9537.39
934.20	9416.56
934.36	9291.63
934.53	8978.30
934.70	9006.97
934.86	9248.63
935.03	9135.99
935.20	8982.39
935.36	9021.30
935.53	8693.63
935.70	8886.14
935.86	8927.10
936.03	8847.22
936.20	8519.55
936.36	8501.12
936.53	8531.84
936.70	8433.54
936.86	8474.49
937.03	8294.27
937.20	8128.39
937.36	8228.74
937.53	7837.58
937.70	7937.93
937.86	7759.75
938.03	7913.35
938.20	7853.96
938.36	7808.90
938.53	7636.88
938.70	7528.33
938.86	7438.22
939.03	7432.08
939.20	7323.54
939.36	7120.79
939.53	7243.67
939.70	7319.44
939.86	6918.04
940.03	6899.61
940.19	6881.18
940.36	6752.15
940.53	6877.08
940.69	6680.47
940.86	6533.02
941.03	6358.94
941.19	6307.74
941.36	6455.20
941.52	6293.41
941.69	6299.55
941.86	6164.39
942.02	6180.77
942.19	6178.72
942.35	6137.76
942.52	6016.93
942.69	5853.09
942.85	5754.79
943.02	5746.60
943.18	5851.05
943.35	5859.24
943.52	5732.26
943.68	5599.15
943.85	5767.08
944.01	5478.32
944.18	5545.90
944.35	5672.87
944.51	5490.60
944.68	5349.29
944.84	5423.02
945.01	5484.46
945.17	5513.13
945.34	5486.51
945.51	5429.17
945.67	5355.44
945.84	5539.76
946.00	5318.57
946.17	5289.90
946.33	5228.46
946.50	5320.62
946.67	5312.43
946.83	5261.23
947.00	5404.59
947.16	5318.57
947.33	5328.81
947.49	5349.29
947.66	5271.47
947.82	5304.24
947.99	5250.99
948.16	5345.20
948.32	5169.07
948.49	5191.60
948.65	5390.25
948.82	5296.05
948.98	5212.08
949.15	5259.18
949.31	5437.36
949.48	5285.81
949.64	5173.17
949.81	5296.05
949.97	5308.34
950.14	5261.23
950.30	5339.05
950.47	5437.36
950.63	5273.52
950.80	5273.52
950.96	5330.86
951.13	5318.57
951.30	5205.94
951.46	5308.34
951.63	5345.20
951.79	5220.27
951.96	5283.76
952.12	5449.64
952.29	5236.66
952.45	5398.45
952.62	5341.10
952.78	5445.55
952.94	5343.15
953.11	5361.58
953.27	5265.33
953.44	5537.71
953.60	5500.84
953.77	5554.09
953.93	5365.68
954.10	5443.50
954.26	5380.01
954.43	5375.92
954.59	5552.04
954.76	5582.76
954.92	5394.35
955.09	5560.24
955.25	5312.43
955.42	5484.46
955.58	5474.22
955.75	5416.88
955.91	5406.64
956.07	5502.89
956.24	5404.59
956.40	5504.94
956.57	5552.04
956.73	5349.29
956.90	5345.20
957.06	5406.64
957.23	5402.54
957.39	5480.36
957.56	5527.47
957.72	5463.98
957.88	5457.84
958.05	5527.47
958.21	5613.48
958.38	5547.95
958.54	5373.87
958.71	5642.15
958.87	5363.63
959.03	5478.32
959.20	5566.38
959.36	5187.50
959.53	5349.29
959.69	5367.73
959.85	5531.56
960.02	5468.08
960.18	5431.21
960.35	5339.05
960.51	5535.66
960.68	5451.69
960.84	5361.58
961.00	5427.12
961.17	5320.62
961.33	5597.10
961.50	5377.97
961.66	5492.65
961.82	5420.97
961.99	5474.22
962.15	5494.70
962.31	5392.30
962.48	5427.12
962.64	5408.69
962.81	5345.20
962.97	5423.02
963.13	5371.82
963.30	5595.05
963.46	5406.64
963.62	5343.15
963.79	5390.25
963.95	5334.96
964.12	5359.53
964.28	5355.44
964.44	5343.15
964.61	5523.37
964.77	5265.33
964.93	5449.64
965.10	5420.97
965.26	5357.49
965.42	5164.98
965.59	5386.16
965.75	5273.52
965.92	5193.65
966.08	5365.68
966.24	5296.05
966.41	5224.37
966.57	5291.95
966.73	5199.79
966.90	5371.82
967.06	5365.68
967.22	5343.15
967.39	5298.10
967.55	5164.98
967.71	5236.66
967.88	5253.04
968.04	5210.03
968.20	5232.56
968.37	4992.95
968.53	5191.60
968.69	5167.03
968.85	5134.26
969.02	5210.03
969.18	5191.60
969.34	5179.31
969.51	5177.26
969.67	5226.42
969.83	4982.71
970.00	5132.21
970.16	5115.83
970.32	5136.31
970.48	5142.45
970.65	5085.11
970.81	5042.10
970.97	4978.61
971.14	5060.53
971.30	5105.59
971.46	5058.48
971.63	5009.33
971.79	5107.63
971.95	5046.20
972.11	5081.01
972.28	5013.43
972.44	4913.08
972.60	4913.08
972.76	4902.84
972.93	4929.46
973.09	5013.43
973.25	4886.45
973.42	4892.60
973.58	4978.61
973.74	4786.10
973.90	4943.80
974.07	4902.84
974.23	4718.52
974.39	4839.35
974.55	4808.63
974.72	4870.07
974.88	4884.41
975.04	4902.84
975.20	4714.42
975.37	4908.98
975.53	4698.04
975.69	4747.19
975.85	4659.13
976.01	4757.43
976.18	4726.71
976.34	4671.42
976.50	4802.49
976.66	4812.73
976.83	4564.92
976.99	4739.00
977.15	4736.95
977.31	4677.56
977.47	4675.51
977.64	4691.90
977.80	4597.69
977.96	4698.04
978.12	4718.52
978.29	4599.74
978.45	4353.98
978.61	4593.59
978.77	4612.03
978.93	4718.52
979.10	4618.17
979.26	4546.49
979.42	4548.54
979.58	4372.41
979.74	4499.39
979.91	4435.90
980.07	4468.67
980.23	4507.58
980.39	4476.86
980.55	4448.19
980.71	4603.83
980.88	4394.94
981.04	4366.27
981.20	4382.65
981.36	4388.80
981.52	4566.97
981.68	4227.01
981.85	4474.81
982.01	4419.52
982.17	4224.96
982.33	4282.30
982.49	4388.80
982.65	4290.49
982.82	4417.47
982.98	4265.92
983.14	4210.62
983.30	4259.78
983.46	4437.95
983.62	4345.79
983.79	4294.59
983.95	4243.39
984.11	4100.03
984.27	4243.39
984.43	4151.23
984.59	4214.72
984.75	4249.54
984.91	4284.35
985.08	4161.47
985.24	4167.62
985.40	4151.23
985.56	4143.04
985.72	4159.42
985.88	4100.03
986.04	4130.75
986.20	4089.79
986.37	4153.28
986.53	4024.26
986.69	4054.98
986.85	3999.68
987.01	4132.80
987.17	4011.97
987.33	3878.85
987.49	3971.01
987.65	3964.87
987.82	4083.65
987.98	3928.00
988.14	4054.98
988.30	4059.07
988.46	3903.43
988.62	3854.28
988.78	3968.96
988.94	4016.07
989.10	3817.41
989.26	3882.95
989.42	4001.73
989.59	3758.02
989.75	3852.23
989.91	3893.19
990.07	3733.45
990.23	3893.19
990.39	3874.76
990.55	3852.23
990.71	3796.93
990.87	3860.42
991.03	3846.09
991.19	3762.12
991.35	3839.94
991.51	3866.56
991.67	3807.17
991.83	3694.54
992.00	3803.08
992.16	3825.61
992.32	3731.40
992.48	3747.78
992.64	3629.00
992.80	3837.89
992.96	3700.68
993.12	3712.97
993.28	3721.16
993.44	3645.38
993.60	3708.87
993.76	3674.06
993.92	3655.62
994.08	3665.86
994.24	3583.95
994.40	3655.62
994.56	3641.29
994.72	3534.79
994.88	3641.29
995.04	3526.60
995.20	3614.66
995.36	3530.70
995.52	3559.37
995.68	3563.47
995.84	3489.74
996.00	3585.99
996.16	3563.47
996.32	3518.41
996.48	3383.24
996.64	3534.79
996.80	3346.38
996.96	3514.31
997.12	3479.50
997.28	3463.12
997.44	3542.99
997.60	3362.76
997.76	3350.48
997.92	3393.48
998.08	3454.92
998.24	3411.92
998.40	3413.96
998.56	3411.92
998.72	3332.05
998.88	3360.72
999.04	3407.82
999.20	3401.68
999.36	3356.62
999.52	3495.88
999.68	3336.14
999.84	3342.28
1000.00	3360.72
1000.16	3342.28
1000.32	3321.81
1000.48	3385.29
1000.64	3170.26
1000.80	3209.17
1000.95	3221.45
1001.11	3286.99
1001.27	3221.45
1001.43	3313.61
1001.59	3180.50
1001.75	3117.01
1001.91	3192.78
1002.07	3170.26
1002.23	3069.91
1002.39	3045.33
1002.55	3164.11
1002.71	3092.43
1002.87	3170.26
1003.03	3117.01
1003.19	3141.58
1003.34	3272.65
1003.50	3100.62
1003.66	3319.76
1003.82	3188.69
1003.98	3026.90
1004.14	3018.71
1004.30	3131.34
1004.46	3125.20
1004.62	3100.62
1004.78	2998.23
1004.94	3026.90
1005.09	3067.86
1005.25	3088.34
1005.41	2996.18
1005.57	3030.99
1005.73	2959.31
1005.89	2942.93
1006.05	2955.22
1006.21	2858.96
1006.37	2936.79
1006.52	2961.36
1006.68	2920.40
1006.84	2977.75
1007.00	2942.93
1007.16	3033.04
1007.32	2887.64
1007.48	2977.75
1007.64	2852.82
1007.79	2932.69
1007.95	2901.97
1008.11	2977.75
1008.27	2879.44
1008.43	2873.30
1008.59	2873.30
1008.75	2836.44
1008.91	2850.77
1009.06	2756.57
1009.22	2944.98
1009.38	2795.48
1009.54	2836.44
1009.70	2783.19
1009.86	2854.87
1010.01	2811.86
1010.17	2768.85
1010.33	2779.09
1010.49	2793.43
1010.65	2809.81
1010.81	2666.46
1010.96	2731.99
1011.12	2791.38
1011.28	2645.98
1011.44	2770.90
1011.60	2768.85
1011.76	2717.65
1011.91	2727.89
1012.07	2637.78
1012.23	2664.41
1012.39	2688.98
1012.55	2787.29
1012.71	2672.60
1012.86	2574.30
1013.02	2656.22
1013.18	2648.02
1013.34	2674.65
1013.50	2656.22
1013.65	2729.94
1013.81	2629.59
1013.97	2629.59
1014.13	2584.54
1014.29	2629.59
1014.44	2660.31
1014.60	2613.21
1014.76	2658.26
1014.92	2521.05
1015.07	2670.55
1015.23	2650.07
1015.39	2488.28
1015.55	2592.73
1015.71	2627.54
1015.86	2508.76
1016.02	2527.19
1016.18	2453.47
1016.34	2615.26
1016.49	2502.62
1016.65	2605.02
1016.81	2613.21
1016.97	2478.04
1017.12	2539.48
1017.28	2510.81
1017.44	2416.60
1017.60	2480.09
1017.75	2504.67
1017.91	2445.27
1018.07	2480.09
1018.23	2475.99
1018.38	2303.96
1018.54	2420.70
1018.70	2392.03
1018.86	2482.14
1019.01	2396.12
1019.17	2449.37
1019.33	2555.86
1019.49	2486.23
1019.64	2443.23
1019.80	2314.20
1019.96	2410.46
1020.12	2387.93
1020.27	2342.88
1020.43	2443.23
1020.59	2408.41
1020.74	2449.37
1020.90	2447.32
1021.06	2289.63
1021.22	2338.78
1021.37	2297.82
1021.53	2334.68
1021.69	2363.36
1021.84	2201.57
1022.00	2258.91
1022.16	2365.40
1022.31	2297.82
1022.47	2336.73
1022.63	2398.17
1022.79	2291.68
1022.94	2332.64
1023.10	2402.27
1023.26	2365.40
1023.41	2252.77
1023.57	2279.39
1023.73	2271.20
1023.88	2316.25
1024.04	2195.42
1024.20	2170.85
1024.35	2291.68
1024.51	2226.14
1024.67	2265.05
1024.82	2289.63
1024.98	2244.57
1025.14	2191.33
1025.29	2213.85
1025.45	2205.66
1025.61	2222.05
1025.76	2271.20
1025.92	2131.94
1026.08	2314.20
1026.23	2310.11
1026.39	2256.86
1026.55	2164.70
1026.70	2168.80
1026.86	2199.52
1027.02	2236.38
1027.17	2191.33
1027.33	2172.89
1027.48	2123.74
1027.64	2144.22
1027.80	2138.08
1027.95	2142.18
1028.11	2105.31
1028.27	2109.41
1028.42	2215.90
1028.58	2170.85
1028.73	2176.99
1028.89	2093.02
1029.05	2176.99
1029.20	2174.94
>>>>>End Processed Spectral Data<<<<<
