SpectraSuite Data File
++++++++++++++++++++++++++++++++++++
Date: Fri Jun 02 14:57:16 CEST 2017
User: INFO_000
Dark Spectrum Present: No
Reference Spectrum Present: No
Number of Sampled Component Spectra: 1
Spectrometers: USB4H00879
Integration Time (usec): 80000 (USB4H00879)
Spectra Averaged: 1 (USB4H00879)
Boxcar Smoothing: 0 (USB4H00879)
Correct for Electrical Dark: No (USB4H00879)
Strobe/Lamp Enabled: No (USB4H00879)
Correct for Detector Non-linearity: No (USB4H00879)
Correct for Stray Light: No (USB4H00879)
Number of Pixels in Processed Spectrum: 3648
>>>>>Begin Processed Spectral Data<<<<<
345.13	1335.28
345.34	1335.28
345.56	1335.28
345.78	1310.70
345.99	1359.85
346.21	1697.77
346.42	1744.87
346.64	1687.53
346.86	1808.36
347.07	1648.61
347.29	1738.73
347.50	1656.81
347.72	1716.20
347.94	1697.77
348.15	1617.90
348.37	1566.70
348.59	1691.62
348.80	1689.57
349.02	1746.92
349.23	1708.01
349.45	1675.24
349.67	1828.84
349.88	1726.44
350.10	1920.99
350.31	1751.01
350.53	1712.10
350.75	1875.94
350.96	1716.20
351.18	1834.98
351.39	1716.20
351.61	1744.87
351.82	1822.69
352.04	1839.08
352.26	1703.91
352.47	1773.54
352.69	1787.88
352.90	1724.39
353.12	1738.73
353.34	1710.05
353.55	1802.21
353.77	1880.04
353.98	1681.38
354.20	1662.95
354.41	1814.50
354.63	1822.69
354.85	1920.99
355.06	1773.54
355.28	1591.27
355.49	1759.21
355.71	1804.26
355.92	1746.92
356.14	1888.23
356.35	1751.01
356.57	1753.06
356.79	1755.11
357.00	1771.49
357.22	1847.27
357.43	1722.34
357.65	1814.50
357.86	1662.95
358.08	1718.25
358.29	1839.08
358.51	1898.47
358.72	1789.92
358.94	1732.58
359.16	1765.35
359.37	1791.97
359.59	1748.97
359.80	1820.64
360.02	1847.27
360.23	1834.98
360.45	1779.68
360.66	1855.46
360.88	1732.58
361.09	1763.30
361.31	1830.88
361.52	1822.69
361.74	1892.32
361.95	1943.52
362.17	1785.83
362.38	1966.05
362.60	1912.80
362.81	1775.59
363.03	1705.96
363.24	1773.54
363.46	1896.42
363.67	1753.06
363.89	1837.03
364.10	1804.26
364.32	1724.39
364.53	1861.60
364.75	1705.96
364.96	1806.31
365.18	1865.70
365.39	1810.40
365.61	1761.25
365.82	1931.23
366.04	1898.47
366.25	1722.34
366.47	1912.80
366.68	1849.32
366.90	1802.21
367.11	1867.75
367.33	1787.88
367.54	1906.66
367.76	1818.60
367.97	1931.23
368.19	1755.11
368.40	1914.85
368.62	1693.67
368.83	1703.91
369.05	1796.07
369.26	1763.30
369.48	1691.62
369.69	1794.02
369.91	1834.98
370.12	1830.88
370.33	1814.50
370.55	1736.68
370.76	1880.04
370.98	1783.78
371.19	1865.70
371.41	1812.45
371.62	1787.88
371.84	1736.68
372.05	1953.76
372.27	1771.49
372.48	1892.32
372.69	1824.74
372.91	1998.82
373.12	1863.65
373.34	1826.79
373.55	1845.22
373.77	1906.66
373.98	1853.41
374.20	1904.61
374.41	1992.67
374.62	1886.18
374.84	1894.37
375.05	1826.79
375.27	1961.95
375.48	1845.22
375.70	1886.18
375.91	1890.28
376.12	2056.16
376.34	1877.99
376.55	1830.88
376.77	1984.48
376.98	1920.99
377.19	1810.40
377.41	1920.99
377.62	1896.42
377.84	1867.75
378.05	2133.98
378.27	1970.15
378.48	1968.10
378.69	2113.50
378.91	2043.87
379.12	1986.53
379.34	1927.14
379.55	1972.19
379.76	1961.95
379.98	1943.52
380.19	2047.97
380.41	1992.67
380.62	1990.63
380.83	1955.81
381.05	1884.13
381.26	2121.70
381.47	1918.95
381.69	1953.76
381.90	2095.07
382.12	1974.24
382.33	2007.01
382.54	2037.73
382.76	2025.44
382.97	2066.40
383.19	1845.22
383.40	2140.13
383.61	2029.54
383.83	2127.84
384.04	2039.78
384.25	2062.30
384.47	2144.22
384.68	2002.91
384.89	2095.07
385.11	2074.59
385.32	2105.31
385.54	2039.78
385.75	1984.48
385.96	2113.50
386.18	2093.02
386.39	2131.94
386.60	2084.83
386.82	2105.31
387.03	2199.52
387.24	2162.66
387.46	2179.04
387.67	2240.48
387.88	2271.20
388.10	2168.80
388.31	2107.36
388.52	2240.48
388.74	2281.44
388.95	2222.05
389.16	2095.07
389.38	2127.84
389.59	2232.29
389.80	2344.92
390.02	2260.96
390.23	2389.98
390.44	2150.37
390.66	2211.81
390.87	2136.03
391.08	2285.53
391.30	2490.33
391.51	2303.96
391.72	2230.24
391.94	2482.14
392.15	2420.70
392.36	2201.57
392.58	2299.87
392.79	2392.03
393.00	2437.08
393.22	2480.09
393.43	2512.86
393.64	2531.29
393.85	2523.10
394.07	2471.90
394.28	2535.39
394.49	2490.33
394.71	2598.87
394.92	2537.43
395.13	2508.76
395.35	2510.81
395.56	2344.92
395.77	2576.34
395.98	2478.04
396.20	2662.36
396.41	2672.60
396.62	2742.23
396.84	2625.50
397.05	2645.98
397.26	2463.71
397.47	2793.43
397.69	2615.26
397.90	2850.77
398.11	2672.60
398.32	2592.73
398.54	2631.64
398.75	2658.26
398.96	2760.66
399.18	2813.91
399.39	2775.00
399.60	2883.54
399.81	2654.17
400.03	2854.87
400.24	2981.84
400.45	2832.34
400.66	2805.72
400.88	2768.85
401.09	2971.60
401.30	2879.44
401.51	3119.06
401.73	2854.87
401.94	3012.56
402.15	3033.04
402.36	3055.57
402.58	3014.61
402.79	3168.21
403.00	2998.23
403.21	3022.80
403.43	3121.10
403.64	3145.68
403.85	2951.12
404.06	3104.72
404.27	3024.85
404.49	3117.01
404.70	3125.20
404.91	3157.97
405.12	3121.10
405.34	3086.29
405.55	3252.17
405.76	3084.24
405.97	3114.96
406.19	3416.01
406.40	3067.86
406.61	3272.65
406.82	3215.31
407.03	3190.74
407.25	3229.65
407.46	3332.05
407.67	3334.09
407.88	3473.36
408.09	3362.76
408.31	3348.43
408.52	3391.44
408.73	3264.46
408.94	3280.85
409.15	3411.92
409.37	3473.36
409.58	3469.26
409.79	3497.93
410.00	3489.74
410.21	3289.04
410.43	3405.77
410.64	3418.06
410.85	3413.96
411.06	3514.31
411.27	3508.17
411.48	3559.37
411.70	3520.46
411.91	3651.53
412.12	3715.02
412.33	3559.37
412.54	3520.46
412.76	3616.71
412.97	3645.38
413.18	3502.03
413.39	3653.58
413.60	3577.80
413.81	3725.26
414.03	3704.78
414.24	3659.72
414.45	3790.79
414.66	3588.04
414.87	3753.93
415.08	3643.34
415.30	3723.21
415.51	3661.77
415.72	3598.28
415.93	3694.54
416.14	3704.78
416.35	3786.69
416.56	3885.00
416.78	3794.89
416.99	3841.99
417.20	3741.64
417.41	3932.10
417.62	3833.80
417.83	3878.85
418.04	3874.76
418.26	3887.04
418.47	3958.72
418.68	4079.55
418.89	3893.19
419.10	4128.70
419.31	3915.72
419.52	4104.13
419.73	4097.99
419.95	4016.07
420.16	3923.91
420.37	4061.12
420.58	4075.46
420.79	3844.04
421.00	4054.98
421.21	4151.23
421.42	4003.78
421.63	4188.10
421.85	4036.55
422.06	4122.56
422.27	4196.29
422.48	4136.90
422.69	4188.10
422.90	4188.10
423.11	4267.97
423.32	4276.16
423.53	4437.95
423.75	4272.06
423.96	4440.00
424.17	4329.41
424.38	4497.34
424.59	4325.31
424.80	4538.30
425.01	4472.76
425.22	4501.44
425.43	4401.08
425.64	4689.85
425.85	4736.95
426.06	4616.12
426.28	4558.78
426.49	4452.28
426.70	4566.97
426.91	4546.49
427.12	4681.66
427.33	4599.74
427.54	4681.66
427.75	4806.58
427.96	4859.83
428.17	4728.76
428.38	4812.73
428.59	4900.79
428.80	4788.15
429.01	4775.86
429.23	4749.24
429.44	4964.28
429.65	4913.08
429.86	4927.41
430.07	4874.17
430.28	4829.11
430.49	4870.07
430.70	5060.53
430.91	5095.35
431.12	4939.70
431.33	5242.80
431.54	5154.74
431.75	5058.48
431.96	5103.54
432.17	5138.35
432.38	5124.02
432.59	5396.40
432.80	5273.52
433.01	5298.10
433.22	5259.18
433.43	5308.34
433.64	5353.39
433.85	5185.46
434.06	5410.73
434.27	5281.71
434.49	5365.68
434.70	5547.95
434.91	5570.48
435.12	5445.55
435.33	5496.75
435.54	5488.56
435.75	5279.66
435.96	5410.73
436.17	5455.79
436.38	5582.76
436.59	5636.01
436.80	5498.80
437.01	5840.81
437.22	5644.20
437.43	5719.98
437.64	5420.97
437.85	5719.98
438.06	5887.91
438.27	5732.26
438.48	5674.92
438.69	5787.56
438.90	5853.09
439.11	5648.30
439.32	5883.81
439.53	5955.49
439.74	5732.26
439.95	5918.63
440.16	5820.33
440.37	5865.38
440.57	5783.46
440.78	6037.41
440.99	5892.01
441.20	5994.40
441.41	5988.26
441.62	6031.27
441.83	6137.76
442.04	6135.71
442.25	6213.54
442.46	6041.51
442.67	6168.48
442.88	6608.80
443.09	6068.13
443.30	6080.42
443.51	6121.38
443.72	6549.40
443.93	6225.82
444.14	6379.42
444.35	6215.59
444.56	6270.88
444.77	6377.37
444.98	6313.89
445.19	6582.17
445.40	6377.37
445.61	6389.66
445.81	6467.49
446.02	6483.87
446.23	6555.55
446.44	6213.54
446.65	6600.60
446.86	6655.90
447.07	6553.50
447.28	6842.26
447.49	6649.75
447.70	6518.68
447.91	6813.59
448.12	6748.06
448.33	6807.45
448.54	6766.49
448.74	6696.86
448.95	6688.67
449.16	6784.92
449.37	7004.05
449.58	6752.15
449.79	7071.64
450.00	6825.88
450.21	6983.57
450.42	6981.53
450.63	6999.96
450.84	6963.09
451.05	7038.87
451.25	7038.87
451.46	6959.00
451.67	7171.99
451.88	7104.40
452.09	7219.09
452.30	7092.12
452.51	6967.19
452.72	7411.60
452.93	7509.90
453.13	6999.96
453.34	7301.01
453.55	7286.67
453.76	7249.81
453.97	7679.88
454.18	7540.62
454.39	7518.09
454.60	7462.80
454.81	7448.46
455.01	7557.00
455.22	7301.01
455.43	7643.02
455.64	7765.90
455.85	7790.47
456.06	7784.33
456.27	7821.19
456.48	7683.98
456.68	7929.74
456.89	7890.82
457.10	7894.92
457.31	7925.64
457.52	7956.36
457.73	7958.41
457.94	8327.04
458.14	7903.11
458.35	8339.33
458.56	8175.49
458.77	8064.90
458.98	8171.40
459.19	8109.96
459.39	8501.12
459.60	8699.77
459.81	8181.64
460.02	8468.35
460.23	8462.21
460.44	8720.25
460.65	8916.86
460.85	8597.37
461.06	8716.16
461.27	8419.20
461.48	8798.07
461.69	9027.45
461.89	8683.39
462.10	8933.24
462.31	8716.16
462.52	8861.56
462.73	9045.88
462.94	9168.76
463.14	9119.60
463.35	9027.45
463.56	9451.38
463.77	9508.72
463.98	9250.67
464.18	9338.74
464.39	9414.51
464.60	9676.65
464.81	9561.97
465.02	9490.29
465.23	9901.93
465.43	9537.39
465.64	9949.03
465.85	9924.46
466.06	9774.95
466.27	10178.40
466.47	10078.05
466.68	10100.58
466.89	9998.18
467.10	10018.66
467.30	10039.14
467.51	10151.78
467.72	10561.37
467.93	10168.16
468.14	10405.73
468.34	10544.99
468.55	10575.71
468.76	10700.64
468.97	10420.06
469.17	10686.30
469.38	10934.11
469.59	10889.05
469.80	10755.93
470.01	10882.91
470.21	10833.75
470.42	11214.68
470.63	11097.94
470.84	11108.18
471.04	11370.32
471.25	11181.91
471.46	11280.21
471.67	11648.85
471.87	11530.06
472.08	11843.40
472.29	11915.08
472.50	11362.13
472.70	11777.87
472.91	11603.79
473.12	11994.95
473.33	11951.95
473.53	12193.61
473.74	12226.37
473.95	12283.72
474.16	12488.51
474.36	12285.76
474.57	12605.25
474.78	12592.96
474.99	12623.68
475.19	12560.19
475.40	12814.14
475.61	13020.99
475.81	13184.82
476.02	13166.39
476.23	13020.99
476.44	13373.24
476.64	13551.41
476.85	13717.29
477.06	13436.72
477.27	13664.05
477.47	13612.85
477.68	13811.50
477.89	14008.11
478.09	13901.61
478.30	14122.79
478.51	14143.27
478.71	14176.04
478.92	14321.45
479.13	14663.46
479.34	14706.46
479.54	14384.93
479.75	14645.02
479.96	14741.28
480.16	14753.57
480.37	14929.69
480.58	14970.65
480.78	15400.72
480.99	15197.98
481.20	15169.30
481.41	15392.53
481.61	15556.37
481.82	15734.54
482.03	15582.99
482.23	15736.59
482.44	16066.31
482.65	15959.82
482.85	16135.95
483.06	16113.42
483.27	16260.87
483.47	16129.80
483.68	16174.86
483.89	16658.18
484.09	16539.40
484.30	16703.23
484.51	16760.58
484.71	16707.33
484.92	16901.89
485.13	16938.75
485.33	17252.09
485.54	16905.98
485.75	17587.96
485.95	17534.71
486.16	17563.38
486.37	17669.87
486.57	17540.85
486.78	17520.37
486.98	17735.41
487.19	17841.90
487.40	17747.70
487.60	17796.85
487.81	18126.57
488.02	18011.89
488.22	18226.92
488.43	18376.42
488.64	18652.90
488.84	18493.16
489.05	18771.68
489.25	18503.40
489.46	18706.15
489.67	18898.66
489.87	18833.12
490.08	19093.21
490.29	19265.24
490.49	19734.23
490.70	19324.63
490.90	19416.79
491.11	19613.40
491.32	19500.76
491.52	19713.75
491.73	19793.62
491.94	19789.52
492.14	19764.95
492.35	19996.37
492.55	20045.52
492.76	20190.92
492.97	20475.59
493.17	20485.83
493.38	20416.20
493.58	20844.23
493.79	20504.26
494.00	20532.93
494.20	20649.67
494.41	20887.23
494.61	21065.41
494.82	20967.10
495.02	21247.68
495.23	21116.61
495.44	21472.95
495.64	21323.45
495.85	21345.98
496.05	21796.53
496.26	21814.96
496.47	21825.20
496.67	21653.17
496.88	21911.22
497.08	21878.45
497.29	22185.65
497.49	22249.13
497.70	22261.42
497.91	22427.31
498.11	22466.22
498.32	22441.64
498.52	22769.32
498.73	22752.93
498.93	22310.57
499.14	23197.34
499.34	22941.35
499.55	22906.53
499.76	22763.17
499.96	23115.42
500.17	23350.94
500.37	23230.11
500.58	23234.21
500.78	23574.17
500.99	23443.10
501.19	23649.94
501.40	23570.07
501.60	23539.35
501.81	23920.28
502.02	23996.05
502.22	23600.79
502.43	23918.23
502.63	24018.58
502.84	24202.89
503.04	24209.04
503.25	24321.68
503.45	24350.35
503.66	24381.07
503.86	24268.43
504.07	24675.98
504.27	24389.26
504.48	24774.28
504.68	24972.93
504.89	24874.63
505.09	25050.75
505.30	25081.47
505.50	24909.44
505.71	24972.93
505.91	25503.35
506.12	24991.36
506.32	25280.13
506.53	25499.26
506.73	25720.44
506.94	25796.21
507.14	25499.26
507.35	25742.97
507.55	25863.80
507.76	25802.36
507.96	25378.43
508.17	25835.13
508.37	25820.79
508.58	25992.82
508.78	25945.72
508.99	26599.02
509.19	26228.34
509.40	26488.43
509.60	26054.26
509.81	26134.13
510.01	26230.38
510.22	26332.78
510.42	26639.98
510.63	26369.65
510.83	26476.14
511.04	26728.04
511.24	26711.66
511.44	26881.64
511.65	26619.50
511.85	26867.30
512.06	26889.83
512.26	27088.48
512.47	26973.80
512.67	27141.73
512.88	27213.41
513.08	27106.91
513.29	27246.18
513.49	27444.83
513.69	27192.93
513.90	27543.13
514.10	27811.42
514.31	27694.68
514.51	27770.46
514.72	27571.80
514.92	27612.76
515.13	27653.72
515.33	27668.06
515.53	27932.25
515.74	28159.57
515.94	27981.40
516.15	27948.63
516.35	27995.73
516.56	28341.84
516.76	27821.66
516.96	28149.33
517.17	28237.39
517.37	28434.00
517.58	28397.13
517.78	28249.68
517.99	28411.47
518.19	28724.81
518.39	28710.47
518.60	28960.33
518.80	28945.99
519.01	28733.00
519.21	28837.45
519.41	29109.83
519.62	29032.00
519.82	29290.05
520.03	29224.51
520.23	29271.62
520.43	29085.25
520.64	29722.17
520.84	29531.71
521.05	29611.58
521.25	29466.17
521.45	29609.53
521.66	29724.22
521.86	29722.17
522.07	29924.92
522.27	29701.69
522.47	29750.84
522.68	30191.16
522.88	29920.82
523.08	30602.80
523.29	30209.59
523.49	30041.65
523.70	30266.93
523.90	30578.22
524.10	30080.56
524.31	30338.61
524.51	30305.84
524.71	30895.66
524.92	30950.95
525.12	30690.86
525.33	30987.82
525.53	31219.24
525.73	31254.05
525.94	31188.52
526.14	31002.15
526.34	31303.20
526.55	31471.14
526.75	31137.32
526.95	31874.59
527.16	31247.91
527.36	31411.74
527.56	31653.40
527.77	32083.48
527.97	31815.19
528.17	31864.35
528.38	31960.60
528.58	32091.67
528.78	32089.62
528.99	32067.09
529.19	32243.22
529.39	32028.18
529.60	32564.75
529.80	32628.24
530.00	32304.66
530.21	32818.70
530.41	33021.45
530.61	32636.43
530.82	33095.18
531.02	32921.10
531.22	33529.34
531.43	33011.21
531.63	33297.92
531.83	33349.12
532.04	33580.54
532.24	33527.30
532.44	33795.58
532.64	34002.43
532.85	33945.08
533.05	34004.47
533.25	33981.95
533.46	34180.60
533.66	34264.57
533.86	34213.37
534.07	34526.71
534.27	34254.33
534.47	34993.64
534.67	34530.80
534.88	34389.49
535.08	34967.02
535.28	35292.65
535.49	35079.66
535.69	35771.87
535.89	35245.54
536.09	35366.37
536.30	35812.83
536.50	35476.96
536.70	35927.52
536.91	35577.31
537.11	35896.80
537.31	35966.43
537.51	35780.06
537.72	36390.36
537.92	36404.69
538.12	36619.73
538.32	36214.23
538.53	37010.89
538.73	36443.60
538.93	36423.12
539.13	36564.43
539.34	36459.99
539.54	36783.57
539.74	37055.95
539.94	37057.99
540.15	36871.63
540.35	37156.30
540.55	37281.22
540.75	37275.08
540.96	37721.54
541.16	37563.84
541.36	37547.46
541.56	37459.40
541.77	37762.50
541.97	37612.99
542.17	37963.20
542.37	37885.37
542.58	37866.94
542.78	37703.10
542.98	38116.79
543.18	38053.31
543.38	38596.02
543.59	38340.02
543.79	38088.12
543.99	38675.89
544.19	38872.49
544.40	38763.95
544.60	38823.34
544.80	38903.21
545.00	38847.92
545.20	39204.27
545.41	39237.03
545.61	38981.04
545.81	39591.33
546.01	39353.77
546.21	38956.46
546.42	39269.80
546.62	39783.84
546.82	39067.05
547.02	39198.12
547.22	39648.68
547.43	39613.86
547.63	39622.05
547.83	40207.77
548.03	39441.83
548.23	40162.72
548.44	39783.84
548.64	40539.54
548.84	40254.87
549.04	40132.00
549.24	40512.92
549.45	40687.00
549.65	40392.09
549.85	40295.83
550.05	40619.41
550.25	40474.01
550.45	40916.37
550.66	40873.36
550.86	40695.19
551.06	40902.03
551.26	41117.07
551.46	40953.23
551.66	41112.97
551.87	41207.18
552.07	41459.08
552.27	40934.80
552.47	41108.88
552.67	41602.44
552.87	41647.49
553.07	41432.46
553.28	41710.98
553.48	41751.94
553.68	41422.22
553.88	41762.18
554.08	41801.09
554.28	41727.36
554.48	41635.20
554.69	41813.38
554.89	42014.08
555.09	41778.56
555.29	42028.41
555.49	42036.61
555.69	42091.90
555.89	41966.98
556.10	42671.48
556.30	42077.57
556.50	42270.08
556.70	42083.71
556.90	42147.20
557.10	42767.73
557.30	42167.68
557.50	42554.74
557.70	42374.52
557.91	42718.58
558.11	42603.89
558.31	43064.69
558.51	42464.63
558.71	43277.68
558.91	42999.15
559.11	42659.19
559.31	43013.49
559.51	42755.44
559.72	42823.03
559.92	43093.36
560.12	42900.85
560.32	42970.48
560.52	43124.08
560.72	43138.41
560.92	43267.44
561.12	42894.71
561.32	43414.89
561.52	43275.63
561.72	43455.85
561.93	43249.00
562.13	43158.89
562.33	43275.63
562.53	43597.16
562.73	43283.82
562.93	43253.10
563.13	43402.60
563.33	43365.74
563.53	43537.77
563.73	43259.24
563.93	43775.33
564.13	43953.51
564.33	44191.07
564.53	43490.66
564.74	43875.68
564.94	43875.68
565.14	43713.89
565.34	43890.02
565.54	43980.13
565.74	43935.07
565.94	44172.64
566.14	44201.31
566.34	44002.66
566.54	44559.70
566.74	43976.03
566.94	44119.39
567.14	44359.00
567.34	44277.08
567.54	44103.01
567.74	44113.25
567.94	44148.06
568.14	44227.93
568.34	44322.14
568.54	44148.06
568.74	44526.94
568.94	44330.33
569.14	44610.90
569.34	44834.13
569.54	44877.14
569.75	44096.86
569.95	44602.71
570.15	44793.17
570.35	44662.10
570.55	44864.85
570.75	44492.12
570.95	44893.52
571.15	44379.48
571.35	44911.95
571.55	45165.90
571.75	44617.05
571.95	45030.74
572.15	44715.35
572.35	44911.95
572.55	45141.33
572.75	45141.33
572.95	44850.52
573.15	45278.54
573.35	45006.16
573.55	45108.56
573.75	45077.84
573.95	45380.94
574.15	45425.99
574.35	45616.46
574.55	45374.80
574.75	45137.23
574.95	45274.45
575.15	45055.31
575.34	45135.18
575.54	45743.43
575.74	45686.09
575.94	45686.09
576.14	45624.65
576.34	46310.72
576.54	46042.43
576.74	45813.06
576.94	45624.65
577.14	45659.46
577.34	46318.91
577.54	46247.23
577.74	46296.38
577.94	46081.34
578.14	46048.58
578.34	46134.59
578.54	45856.07
578.74	46273.85
578.94	46716.22
579.14	46216.51
579.34	46009.67
579.54	46308.67
579.74	46898.48
579.94	46400.83
580.13	47002.93
580.33	46247.23
580.53	46583.10
580.73	46482.75
580.93	46454.08
581.13	46742.84
581.33	47263.02
581.53	47129.90
581.73	46982.45
581.93	47222.06
582.13	47566.12
582.33	47523.11
582.53	46841.14
582.73	47619.37
582.92	47308.08
583.12	47326.51
583.32	47627.56
583.52	47424.81
583.72	47865.13
583.92	47275.31
584.12	47244.59
584.32	48082.21
584.52	47818.02
584.72	48080.16
584.92	47930.66
585.11	48282.91
585.31	48119.07
585.51	48063.78
585.71	47748.39
585.91	47955.24
586.11	48323.87
586.31	48026.92
586.51	48221.47
586.71	48127.27
586.91	48422.17
587.10	48483.61
587.30	48530.72
587.50	48721.18
587.70	48502.04
587.90	48538.91
588.10	48846.10
588.30	48188.70
588.50	48954.64
588.69	48643.35
588.89	48731.42
589.09	49026.32
589.29	49272.08
589.49	49356.05
589.69	48530.72
589.89	49474.83
590.08	49173.78
590.28	49079.57
590.48	49141.01
590.68	49028.37
590.88	49390.86
591.08	49388.81
591.28	49337.62
591.47	49978.63
591.67	49593.61
591.87	49497.36
592.07	49829.13
592.27	50027.78
592.47	49554.70
592.67	49413.39
592.86	49270.03
593.06	49274.13
593.26	49849.61
593.46	50119.94
593.66	49620.23
593.86	49728.78
594.05	50095.36
594.25	50328.83
594.45	50175.23
594.65	50418.94
594.85	49997.06
595.05	50175.23
595.24	50885.88
595.44	50390.27
595.64	50703.61
595.84	50478.33
596.04	50410.75
596.23	51221.75
596.43	51170.55
596.63	50588.92
596.83	51055.86
597.03	51135.73
597.22	51320.05
597.42	51184.88
597.62	51246.32
597.82	51219.70
598.02	51148.02
598.21	51455.21
598.41	51397.87
598.61	51092.72
598.81	51352.82
599.01	51522.80
599.20	51465.45
599.40	51133.68
599.60	52184.29
599.80	52182.24
600.00	51985.64
600.19	52456.67
600.39	52085.99
600.59	51991.78
600.79	52223.20
600.98	52198.63
601.18	51987.69
601.38	52225.25
601.58	52065.51
601.78	52495.58
601.97	52825.31
602.17	52557.02
602.37	53026.01
602.57	52145.38
602.76	53054.68
602.96	52610.27
603.16	53030.10
603.36	52542.69
603.55	53081.30
603.75	53056.73
603.95	53179.60
604.15	53490.90
604.34	52985.05
604.54	53304.53
604.74	53247.19
604.94	53624.01
605.13	53986.50
605.33	53648.59
605.53	53310.67
605.73	53699.79
605.92	53046.49
606.12	53689.55
606.32	53945.54
606.52	53775.56
606.71	54328.52
606.91	53859.53
607.11	53982.41
607.30	54172.87
607.50	54330.56
607.70	54119.62
607.90	54111.43
608.09	53910.73
608.29	54568.13
608.49	54617.28
608.68	54316.23
608.88	54267.08
609.08	54637.76
609.28	54285.51
609.47	54123.72
609.67	55110.84
609.87	54676.67
610.06	54492.35
610.26	54531.26
610.46	54992.06
610.66	54414.53
610.85	54699.20
611.05	54359.23
611.25	54582.46
611.44	54521.02
611.64	54856.89
611.84	54588.61
612.03	54930.62
612.23	55071.93
612.43	54611.13
612.62	54518.98
612.82	55071.93
613.02	54621.37
613.21	54953.15
613.41	54736.06
613.61	55227.57
613.80	54580.42
614.00	55211.19
614.20	55035.06
614.39	54924.47
614.59	54932.67
614.79	55131.32
614.98	54809.79
615.18	55219.38
615.38	54969.53
615.57	54711.49
615.77	55342.26
615.97	55284.92
616.16	54865.08
616.36	54871.23
616.56	55063.74
616.75	55358.64
616.95	54949.05
617.15	54826.17
617.34	55092.41
617.54	54990.01
617.74	55116.98
617.93	55409.84
618.13	54686.91
618.32	55088.31
618.52	54885.56
618.72	55086.26
618.91	54817.98
619.11	54629.57
619.31	55469.23
619.50	55043.26
619.70	54699.20
619.90	54979.77
620.09	54924.47
620.29	54777.02
620.48	54570.18
620.68	55182.52
620.88	54717.63
621.07	54785.21
621.27	55229.62
621.46	54621.37
621.66	55250.10
621.86	54564.03
622.05	54596.80
622.25	55014.58
622.44	54965.43
622.64	54621.37
622.84	54555.84
623.03	55102.65
623.23	55205.05
623.42	54463.68
623.62	54803.64
623.82	55100.60
624.01	54701.25
624.21	55051.45
624.40	54660.29
624.60	54760.64
624.80	54332.61
624.99	54596.80
625.19	54711.49
625.38	55104.70
625.58	54590.66
625.77	54705.34
625.97	54791.36
626.17	54674.62
626.36	54699.20
626.56	55481.52
626.75	54518.98
626.95	54912.19
627.14	54846.65
627.34	54953.15
627.54	54215.88
627.73	54396.10
627.93	54447.30
628.12	53918.92
628.32	55016.63
628.51	54879.42
628.71	54566.08
628.90	54764.73
629.10	54420.67
629.30	54521.02
629.49	54736.06
629.69	54344.90
629.88	54475.97
630.08	54910.14
630.27	54729.92
630.47	54607.04
630.66	54613.18
630.86	54895.80
631.05	54090.95
631.25	54318.28
631.44	54799.55
631.64	54340.80
631.84	54826.17
632.03	54840.51
632.23	54119.62
632.42	54883.51
632.62	54680.77
632.81	54779.07
633.01	54324.42
633.20	54787.26
633.40	54854.84
633.59	54594.75
633.79	54453.44
633.98	54678.72
634.18	54809.79
634.37	54891.71
634.57	54754.49
634.76	54977.72
634.96	54768.83
635.15	54570.18
635.35	54176.97
635.54	54457.54
635.74	54805.69
635.93	54324.42
636.13	54564.03
636.32	54654.14
636.52	54322.37
636.71	54893.75
636.91	54846.65
637.10	55022.78
637.30	54406.34
637.49	54387.91
637.69	54787.26
637.88	55106.74
638.08	54678.72
638.27	55309.49
638.46	54725.82
638.66	54453.44
638.85	54760.64
639.05	54314.18
639.24	54973.63
639.44	54531.26
639.63	54566.08
639.83	54873.27
640.02	54557.89
640.22	54817.98
640.41	54736.06
640.61	54340.80
640.80	54953.15
640.99	54584.51
641.19	55168.18
641.38	54846.65
641.58	54824.12
641.77	54932.67
641.97	54598.85
642.16	54482.11
642.36	55190.71
642.55	55073.98
642.74	54408.39
642.94	55518.38
643.13	55041.21
643.33	55172.28
643.52	55088.31
643.72	55502.00
643.91	55057.59
644.10	55069.88
644.30	54762.68
644.49	55194.81
644.69	55239.86
644.88	55086.26
645.08	54762.68
645.27	55491.76
645.46	54527.17
645.66	55295.16
645.85	55213.24
646.05	55368.88
646.24	55383.22
646.43	55489.71
646.63	55653.55
646.82	55133.37
647.02	54951.10
647.21	55663.79
647.40	55209.14
647.60	55923.88
647.79	55817.39
647.99	55415.99
648.18	55086.26
648.37	55743.66
648.57	55485.62
648.76	55522.48
648.96	55170.23
649.15	55628.98
649.34	55645.36
649.54	55442.61
649.73	55336.12
649.92	55618.74
650.12	55413.94
650.31	55706.80
650.51	55663.79
650.70	55753.90
650.89	55862.44
651.09	56063.14
651.28	55637.17
651.47	56204.45
651.67	55989.42
651.86	55887.02
652.06	55547.06
652.25	56087.72
652.44	55766.19
652.64	55874.73
652.83	55420.08
653.02	55432.37
653.22	55848.11
653.41	55825.58
653.60	55303.35
653.80	56169.64
653.99	56130.73
654.18	56016.04
654.38	55766.19
654.57	56366.24
654.76	56188.07
654.96	55667.89
655.15	55993.51
655.34	56194.21
655.54	55631.02
655.73	55942.31
655.92	56145.06
656.12	56153.26
656.31	56302.76
656.50	56091.82
656.70	56521.89
656.89	56425.64
657.08	56659.10
657.28	56333.48
657.47	56220.84
657.66	56489.12
657.86	56038.57
658.05	56229.03
658.24	56616.10
658.43	55952.55
658.63	56538.27
658.82	56769.69
659.01	56587.42
659.21	57152.66
659.40	56439.97
659.59	56372.39
659.79	56550.56
659.98	56757.41
660.17	56775.84
660.36	56503.46
660.56	57099.42
660.75	56386.72
660.94	56548.51
661.14	56272.04
661.33	56364.20
661.52	56702.11
661.71	57285.78
661.91	56462.50
662.10	56333.48
662.29	57078.94
662.49	57085.08
662.68	56845.47
662.87	56618.14
663.06	57031.83
663.26	56581.28
663.45	56980.63
663.64	57207.96
663.83	57848.97
664.03	57238.68
664.22	56878.24
664.41	57128.09
664.60	56698.01
664.80	57097.37
664.99	56976.54
665.18	56587.42
665.37	57095.32
665.57	57283.73
665.76	56808.61
665.95	56736.93
666.14	57046.17
666.34	57025.69
666.53	57097.37
666.72	57115.80
666.91	56566.94
667.11	56923.29
667.30	56931.48
667.49	56691.87
667.68	56558.75
667.87	56966.30
668.07	57531.54
668.26	57035.93
668.45	57142.42
668.64	56923.29
668.84	57365.65
669.03	57697.42
669.22	57222.29
669.41	57230.49
669.60	56925.34
669.80	56736.93
669.99	57277.59
670.18	57552.02
670.37	57126.04
670.57	58178.70
670.76	57050.27
670.95	57742.48
671.14	57107.61
671.33	57152.66
671.53	57410.71
671.72	57212.06
671.91	56824.99
672.10	57005.21
672.29	57158.81
672.48	57115.80
672.68	57443.48
672.87	56892.57
673.06	56745.12
673.25	56958.11
673.44	57005.21
673.64	56841.37
673.83	57136.28
674.02	56964.25
674.21	57228.44
674.40	57291.93
674.59	56874.14
674.79	56845.47
674.98	56714.40
675.17	57167.00
675.36	57048.22
675.55	57324.69
675.74	56792.22
675.94	56919.20
676.13	57316.50
676.32	57291.93
676.51	57425.04
676.70	56925.34
676.89	57078.94
677.08	57193.62
677.28	57167.00
677.47	57343.12
677.66	57447.57
677.85	57044.12
678.04	57459.86
678.23	57222.29
678.42	57513.11
678.62	57064.60
678.81	57410.71
679.00	56917.15
679.19	57660.56
679.38	57154.71
679.57	57191.58
679.76	57181.34
679.96	57341.08
680.15	57029.79
680.34	56702.11
680.53	56857.76
680.72	56927.39
680.91	57150.62
681.10	56730.78
681.29	57320.60
681.48	56767.65
681.68	56874.14
681.87	56781.98
682.06	56947.87
682.25	56315.04
682.44	56599.71
682.63	56505.51
682.82	56505.51
683.01	56689.82
683.20	56267.94
683.39	56542.37
683.59	56810.65
683.78	56349.86
683.97	56503.46
684.16	56632.48
684.35	55966.89
684.54	55932.07
684.73	55921.83
684.92	56255.65
685.11	56124.58
685.30	56585.38
685.49	56655.01
685.69	56528.03
685.88	56186.02
686.07	56335.52
686.26	55768.24
686.45	56163.50
686.64	56538.27
686.83	56478.88
687.02	55936.17
687.21	56132.78
687.40	55964.84
687.59	55884.97
687.78	56554.66
687.97	56333.48
688.16	56335.52
688.35	55585.97
688.54	55833.77
688.74	55813.29
688.93	55747.76
689.12	55647.41
689.31	55653.55
689.50	56145.06
689.69	55704.75
689.88	55315.64
690.07	56059.05
690.26	55696.56
690.45	56026.28
690.64	55512.24
690.83	55491.76
691.02	55407.79
691.21	55749.81
691.40	55710.89
691.59	55545.01
691.78	55428.27
691.97	55463.09
692.16	55645.36
692.35	55653.55
692.54	55415.99
692.73	55450.80
692.92	55049.40
693.11	55188.66
693.30	54914.23
693.49	55121.08
693.68	54891.71
693.87	55321.78
694.06	55211.19
694.25	54809.79
694.44	55280.82
694.63	54957.24
694.82	55039.16
695.01	55030.97
695.20	54897.85
695.39	54951.10
695.58	54744.25
695.77	54551.74
695.96	54858.94
696.15	54899.90
696.34	54412.48
696.53	54867.13
696.72	54670.53
696.91	54742.20
697.10	54758.59
697.29	54244.55
697.48	54441.15
697.67	54219.97
697.86	54443.20
698.05	54021.32
698.24	54623.42
698.43	54203.59
698.62	54142.15
698.81	53871.82
699.00	54400.19
699.19	53605.58
699.38	53753.04
699.57	53679.31
699.76	54420.67
699.95	53560.53
700.14	54148.29
700.32	53664.97
700.51	53640.40
700.70	54064.33
700.89	54058.18
701.08	53765.32
701.27	53478.61
701.46	53959.88
701.65	52931.80
701.84	53480.66
702.03	53718.22
702.22	53480.66
702.41	53425.36
702.60	53593.29
702.79	53406.93
702.98	53877.96
703.17	53382.35
703.35	53261.52
703.54	53454.03
703.73	53624.01
703.92	53507.28
704.11	53208.28
704.30	52933.85
704.49	52616.41
704.68	52651.23
704.87	52792.54
705.06	52927.70
705.25	52663.52
705.43	52606.17
705.62	52978.90
705.81	52780.25
706.00	52442.34
706.19	52628.70
706.38	52344.03
706.57	52671.71
706.76	52124.90
706.95	52550.88
707.14	52544.73
707.32	52239.59
707.51	52423.90
707.70	52434.14
707.89	52165.86
708.08	51950.82
708.27	52272.35
708.46	52507.87
708.65	52106.47
708.84	52335.84
709.02	52401.38
709.21	52172.00
709.40	51987.69
709.59	52354.27
709.78	51551.47
709.97	51987.69
710.16	51864.81
710.34	51924.20
710.53	51930.34
710.72	51694.83
710.91	52002.02
711.10	51725.55
711.29	51809.51
711.48	52077.80
711.66	51582.19
711.85	51526.89
712.04	51447.02
712.23	51631.34
712.42	51547.37
712.61	51610.86
712.80	51131.64
712.98	51545.33
713.17	51293.43
713.36	51479.79
713.55	51176.69
713.74	51774.70
713.93	51225.84
714.11	51381.49
714.30	51090.68
714.49	51182.84
714.68	51422.45
714.87	50928.89
715.06	51367.15
715.24	51041.53
715.43	50986.23
715.62	50742.52
715.81	50844.92
716.00	51281.14
716.18	50959.61
716.37	50623.74
716.56	50283.78
716.75	51100.92
716.94	50232.58
717.12	50302.21
717.31	50908.41
717.50	50709.75
717.69	50437.37
717.88	50693.37
718.06	50263.30
718.25	50896.12
718.44	50449.66
718.63	50101.51
718.82	49902.85
719.00	50353.41
719.19	49890.57
719.38	50162.95
719.57	50068.74
719.76	49689.87
719.94	49718.54
720.13	50011.40
720.32	49939.72
720.51	49702.15
720.69	49564.94
720.88	49665.29
721.07	49581.32
721.26	49419.53
721.44	49329.42
721.63	49313.04
721.82	48731.42
722.01	49274.13
722.20	49401.10
722.38	49112.34
722.57	48694.55
722.76	49059.09
722.95	49042.71
723.13	48612.63
723.32	48813.34
723.51	48561.44
723.70	48647.45
723.88	49048.85
724.07	48626.97
724.26	48768.28
724.44	48026.92
724.63	48446.75
724.82	48137.51
725.01	48446.75
725.19	48567.58
725.38	48700.70
725.57	48508.19
725.76	48862.49
725.94	48358.69
726.13	48258.34
726.32	48813.34
726.51	48129.31
726.69	48647.45
726.88	48764.18
727.07	48481.56
727.25	48096.55
727.44	48262.43
727.63	48424.22
727.82	48293.15
728.00	48389.41
728.19	48108.83
728.38	48168.22
728.56	47717.67
728.75	48452.89
728.94	47906.08
729.12	48147.75
729.31	48084.26
729.50	47867.17
729.69	48735.51
729.87	48348.45
730.06	48020.77
730.25	48186.66
730.43	48778.52
730.62	48413.98
730.81	48450.84
730.99	48452.89
731.18	48135.46
731.37	48037.16
731.55	48387.36
731.74	48450.84
731.93	48196.90
732.11	48071.97
732.30	48153.89
732.49	48000.29
732.67	48033.06
732.86	48063.78
733.05	48069.92
733.23	48018.72
733.42	48168.22
733.61	48112.93
733.79	47969.57
733.98	48311.58
734.17	47760.68
734.35	47867.17
734.54	47830.31
734.73	48256.29
734.91	48188.70
735.10	47803.69
735.29	48506.14
735.47	47670.57
735.66	47983.91
735.84	48196.90
736.03	47635.75
736.22	48327.97
736.40	47834.41
736.59	48059.68
736.78	48014.63
736.96	47574.31
737.15	47809.83
737.33	47901.99
737.52	47645.99
737.71	47732.01
737.89	47703.34
738.08	47494.44
738.27	47498.54
738.45	47904.04
738.64	47662.38
738.82	47478.06
739.01	48020.77
739.20	47592.75
739.38	47445.29
739.57	47576.36
739.75	47568.17
739.94	47387.95
740.13	47695.14
740.31	47539.50
740.50	47553.83
740.68	47629.61
740.87	47289.65
741.06	47377.71
741.24	47174.96
741.43	47682.86
741.61	47715.62
741.80	47263.02
741.99	47326.51
742.17	46822.71
742.36	47496.49
742.54	47144.24
742.73	47371.57
742.91	47426.86
743.10	47224.11
743.29	47430.96
743.47	47437.10
743.66	46947.64
743.84	47373.61
744.03	46859.57
744.21	46886.20
744.40	47330.61
744.59	46972.21
744.77	46910.77
744.96	47191.34
745.14	46789.94
745.33	46955.83
745.51	46888.24
745.70	47066.42
745.88	46771.51
746.07	46910.77
746.26	46941.49
746.44	47195.44
746.63	46828.85
746.81	46927.16
747.00	46738.74
747.18	46912.82
747.37	46937.40
747.55	47017.27
747.74	47215.92
747.92	46630.20
748.11	46783.80
748.29	46869.81
748.48	46740.79
748.66	46437.69
748.85	46427.45
749.03	46695.74
749.22	46624.06
749.41	45937.99
749.59	46716.22
749.78	46767.41
749.96	46052.67
750.15	46224.70
750.33	46323.01
750.52	46591.29
750.70	46650.68
750.89	46280.00
751.07	46441.79
751.26	46171.46
751.44	46132.54
751.63	46282.05
751.81	45911.36
752.00	45978.95
752.18	45774.15
752.37	45532.49
752.55	45735.24
752.74	45790.53
752.92	45675.85
753.10	45665.61
753.29	46062.91
753.47	45716.81
753.66	45145.42
753.84	45960.51
754.03	45260.11
754.21	45684.04
754.40	45694.28
754.58	45520.20
754.77	45509.96
754.95	45274.45
755.14	45751.62
755.32	45382.99
755.51	45290.83
755.69	45219.15
755.88	45090.13
756.06	45030.74
756.24	45094.22
756.43	44823.89
756.61	45339.98
756.80	45264.21
756.98	44950.87
757.17	45188.43
757.35	45028.69
757.54	45049.17
757.72	44932.43
757.90	45000.02
758.09	45215.05
758.27	44741.97
758.46	44723.54
758.64	44832.08
758.83	44852.56
759.01	45153.62
759.19	44727.64
759.38	44342.62
759.56	45174.09
759.75	44424.54
759.93	44756.31
760.12	44385.63
760.30	44580.18
760.48	44840.28
760.67	44189.02
760.85	44445.02
761.04	44272.99
761.22	44463.45
761.40	44375.39
761.59	44479.83
761.77	43873.63
761.96	44520.79
762.14	44156.25
762.32	43621.73
762.51	43853.15
762.69	44021.09
762.88	43644.26
763.06	44086.62
763.24	43552.10
763.43	43971.94
763.61	43568.49
763.80	43535.72
763.98	43513.19
764.16	43861.35
764.35	43382.12
764.53	43142.51
764.72	43515.24
764.90	43332.97
765.08	43242.86
765.27	43396.46
765.45	43423.08
765.63	42976.62
765.82	43171.18
766.00	43087.21
766.18	42820.98
766.37	43658.60
766.55	42950.00
766.74	43468.14
766.92	42896.75
767.10	42722.68
767.29	42933.62
767.47	42689.91
767.65	42730.87
767.84	42487.16
768.02	42712.44
768.20	42505.59
768.39	42648.95
768.57	42878.32
768.75	42472.82
768.94	43117.93
769.12	42720.63
769.30	42294.65
769.49	42364.28
769.67	42265.98
769.85	42083.71
770.04	42024.32
770.22	41956.74
770.40	42022.27
770.59	41704.84
770.77	41764.23
770.95	42194.30
771.14	41469.32
771.32	41657.73
771.50	41770.37
771.69	41522.57
771.87	41842.05
772.05	41760.13
772.24	41356.68
772.42	41598.34
772.60	41751.94
772.78	41262.47
772.97	41262.47
773.15	41315.72
773.33	41192.84
773.52	41276.81
773.70	41325.96
773.88	41428.36
774.07	41014.67
774.25	41092.49
774.43	41430.41
774.61	41051.53
774.80	40965.52
774.98	41293.19
775.16	41483.66
775.34	41497.99
775.53	41082.25
775.71	41704.84
775.89	41186.70
776.08	41147.79
776.26	41289.10
776.44	40992.14
776.62	41561.48
776.81	41162.12
776.99	41600.39
777.17	41067.92
777.35	41254.28
777.54	41653.64
777.72	41104.78
777.90	41149.84
778.08	41485.70
778.27	41416.07
778.45	41616.77
778.63	41690.50
778.81	41211.28
779.00	41932.16
779.18	41749.89
779.36	41598.34
779.54	41256.33
779.73	41198.99
779.91	41469.32
780.09	41710.98
780.27	41653.64
780.46	41883.01
780.64	41481.61
780.82	41524.61
781.00	41741.70
781.19	41790.85
781.37	41622.92
781.55	41885.06
781.73	42390.91
781.91	42007.94
782.10	41850.24
782.28	42063.23
782.46	41651.59
782.64	42212.73
782.82	41672.07
783.01	41854.34
783.19	41780.61
783.37	42186.11
783.55	41821.57
783.74	42323.32
783.92	41878.91
784.10	42433.91
784.28	41842.05
784.46	41688.45
784.64	42057.09
784.83	41600.39
785.01	41956.74
785.19	42153.34
785.37	41893.25
785.55	41655.68
785.74	41340.30
785.92	41518.47
786.10	41780.61
786.28	41977.22
786.46	41344.39
786.64	41352.58
786.83	41467.27
787.01	41469.32
787.19	41510.28
787.37	41717.12
787.55	41264.52
787.74	41059.73
787.92	41305.48
788.10	41055.63
788.28	40693.14
788.46	41248.14
788.64	40916.37
788.82	41254.28
789.01	40627.60
789.19	40748.43
789.37	40848.78
789.55	40957.33
789.73	40881.55
789.91	40326.55
790.09	40433.05
790.28	40164.76
790.46	40261.02
790.64	40576.40
790.82	40334.74
791.00	40230.30
791.18	40070.56
791.36	40170.91
791.55	39966.11
791.73	39986.59
791.91	39716.26
792.09	39523.75
792.27	39699.87
792.45	39796.13
792.63	39693.73
792.81	39562.66
793.00	39339.43
793.18	39568.80
793.36	39259.56
793.54	39439.78
793.72	38667.70
793.90	38919.60
794.08	38571.44
794.26	38671.79
794.44	38741.42
794.62	38616.50
794.81	38417.85
794.99	38344.12
795.17	38213.05
795.35	38202.81
795.53	38217.14
795.71	38288.82
795.89	37963.20
796.07	38270.39
796.25	37799.36
796.43	37557.70
796.61	37311.94
796.80	37514.69
796.98	37619.14
797.16	37393.86
797.34	37115.34
797.52	36812.24
797.70	37381.57
797.88	37348.81
798.06	36982.22
798.24	37023.18
798.42	36847.05
798.60	36851.15
798.78	36853.20
798.96	36609.49
799.14	36269.53
799.32	36269.53
799.51	36210.14
799.69	36345.30
799.87	36304.34
800.05	36042.20
800.23	36279.77
800.41	36287.96
800.59	35962.33
800.77	35814.88
800.95	35620.32
801.13	35704.29
801.31	35685.86
801.49	35280.36
801.67	35483.11
801.85	35380.71
802.03	35485.15
802.21	34975.21
802.39	34874.86
802.57	35069.42
802.75	34878.96
802.93	34850.28
803.11	34477.55
803.29	34733.55
803.47	34909.68
803.65	34704.88
803.83	34590.19
804.01	34473.46
804.19	34168.31
804.37	34405.88
804.55	34264.57
804.73	34280.95
804.91	34100.73
805.09	34004.47
805.27	33920.51
805.45	34205.17
805.63	34196.98
805.81	33809.92
805.99	33971.71
806.17	33834.49
806.35	33517.06
806.53	33076.74
806.71	33596.93
806.89	33166.85
807.07	33299.97
807.25	33394.18
807.43	33078.79
807.61	33490.43
807.79	33205.77
807.97	32964.10
808.15	32777.74
808.33	32855.56
808.51	32486.93
808.69	32830.99
808.87	32364.05
809.05	32906.76
809.23	32237.08
809.41	32318.99
809.59	32394.77
809.77	32546.32
809.95	32189.97
810.13	32345.62
810.31	32228.88
810.49	31948.31
810.67	31817.24
810.84	31643.17
811.02	31745.56
811.20	31579.68
811.38	31931.93
811.56	31354.40
811.74	31436.32
811.92	31743.52
812.10	31352.35
812.28	31667.74
812.46	31503.90
812.64	31798.81
812.82	31204.90
813.00	31282.72
813.18	31055.40
813.36	30969.38
813.53	31024.68
813.71	31196.71
813.89	30754.35
814.07	30705.20
814.25	30930.47
814.43	30877.22
814.61	30975.53
814.79	30551.60
814.97	30441.01
815.15	30637.61
815.33	30367.28
815.50	30213.68
815.68	30375.47
815.86	30543.41
816.04	30281.27
816.22	30361.14
816.40	30168.63
816.58	30320.18
816.76	29759.03
816.94	29965.88
817.11	29853.24
817.29	29812.28
817.47	29752.89
817.65	29566.52
817.83	29648.44
818.01	29605.44
818.19	29335.10
818.37	29664.83
818.54	29238.85
818.72	29265.47
818.90	29498.94
819.08	29347.39
819.26	29650.49
819.44	29036.10
819.62	29312.58
819.80	29519.42
819.97	29093.44
820.15	28857.93
820.33	29003.33
820.51	29548.09
820.69	28941.89
820.87	29365.82
821.05	29283.91
821.22	28925.51
821.40	28673.61
821.58	28892.74
821.76	28440.14
821.94	28868.17
822.12	28663.37
822.29	28677.71
822.47	28577.36
822.65	28624.46
822.83	28835.40
823.01	28368.46
823.19	28315.22
823.36	28245.58
823.54	28290.64
823.72	28294.74
823.90	28184.15
824.08	28055.12
824.25	28157.52
824.43	27915.86
824.61	28178.00
824.79	28126.80
824.97	28180.05
825.15	28139.09
825.32	27973.21
825.50	27829.85
825.68	27754.07
825.86	27909.72
826.04	27743.83
826.21	27782.74
826.39	27694.68
826.57	27565.66
826.75	27571.80
826.93	27702.87
827.10	27752.02
827.28	27438.69
827.46	27412.06
827.64	27522.65
827.81	27598.43
827.99	27362.91
828.17	27559.52
828.35	27194.98
828.53	27432.54
828.70	27299.42
828.88	27215.46
829.06	27098.72
829.24	27156.07
829.41	27350.62
829.59	27582.04
829.77	27186.79
829.95	27227.74
830.12	26793.58
830.30	27174.50
830.48	27186.79
830.66	26838.63
830.84	27305.57
831.01	26795.62
831.19	26820.20
831.37	26771.05
831.55	26867.30
831.72	26535.53
831.90	26611.31
832.08	26685.03
832.25	26603.11
832.43	26521.20
832.61	26490.48
832.79	26357.36
832.96	26367.60
833.14	26486.38
833.32	26498.67
833.50	26648.17
833.67	26322.54
833.85	26369.65
834.03	26295.92
834.20	26422.89
834.38	26449.52
834.56	26146.42
834.74	26383.98
834.91	26599.02
835.09	26199.66
835.27	26080.88
835.44	26138.23
835.62	25394.81
835.80	25790.07
835.98	26211.95
836.15	25536.12
836.33	25888.37
836.51	25955.96
836.68	25816.69
836.86	26025.59
837.04	25953.91
837.21	25683.58
837.39	25779.83
837.57	25607.80
837.75	25736.82
837.92	25511.55
838.10	25517.69
838.28	25161.34
838.45	25603.71
838.63	25286.27
838.81	25341.57
838.98	25267.84
839.16	25308.80
839.34	25280.13
839.51	25333.37
839.69	25144.96
839.87	25091.71
840.04	25079.43
840.22	25181.82
840.40	25183.87
840.57	25028.23
840.75	25194.11
840.93	24942.21
841.10	25122.43
841.28	25140.86
841.46	25151.10
841.63	25218.69
841.81	25136.77
841.98	25071.23
842.16	24848.00
842.34	24899.20
842.51	24450.70
842.69	24966.79
842.87	24981.12
843.04	24839.81
843.22	24532.62
843.40	24721.03
843.57	24710.79
843.75	24960.64
843.92	24632.97
844.10	24694.41
844.28	24561.29
844.45	24579.72
844.63	24786.57
844.81	24579.72
844.98	24399.50
845.16	24909.44
845.33	24573.58
845.51	24540.81
845.69	24479.37
845.86	24227.47
846.04	24411.79
846.21	24520.33
846.39	24323.72
846.57	24155.79
846.74	24202.89
846.92	24462.99
847.09	24276.62
847.27	23903.89
847.45	23942.80
847.62	24280.72
847.80	24090.26
847.97	24409.74
848.15	24022.67
848.32	23940.75
848.50	23850.64
848.68	23670.42
848.85	23938.71
849.03	23680.66
849.20	23643.80
849.38	23955.09
849.56	23764.63
849.73	23645.85
849.91	23664.28
850.08	23850.64
850.26	23621.27
850.43	23611.03
850.61	23486.11
850.78	23193.25
850.96	23711.38
851.14	23105.18
851.31	23568.02
851.49	23070.37
851.66	23162.53
851.84	23447.19
852.01	23608.98
852.19	23355.04
852.36	23361.18
852.54	23043.74
852.71	23312.03
852.89	23137.95
853.07	23318.17
853.24	23076.51
853.42	23209.63
853.59	23373.47
853.77	22877.86
853.94	23137.95
854.12	23266.97
854.29	22886.05
854.47	22890.15
854.64	23273.12
854.82	22861.48
854.99	23133.86
855.17	22797.99
855.34	22787.75
855.52	22986.40
855.69	23053.98
855.87	22671.01
856.04	22369.96
856.22	22711.97
856.39	22726.31
856.57	22597.29
856.74	22521.51
856.92	22732.45
857.09	22683.30
857.27	22292.14
857.44	22595.24
857.62	22425.26
857.79	22316.72
857.97	22365.87
858.14	22611.62
858.32	22468.27
858.49	22449.83
858.67	22060.72
858.84	22447.79
859.02	22220.46
859.19	22265.52
859.37	22050.48
859.54	22286.00
859.72	22333.10
859.89	22099.63
860.06	22062.77
860.24	22003.38
860.41	22195.89
860.59	21925.55
860.76	22222.51
860.94	21976.75
861.11	21925.55
861.29	21788.34
861.46	21825.20
861.64	21495.48
861.81	21769.91
861.98	21780.15
862.16	21640.89
862.33	21573.30
862.51	21368.51
862.68	21761.72
862.86	21360.31
863.03	21452.47
863.21	21503.67
863.38	21427.90
863.55	21407.42
863.73	21573.30
863.90	21509.82
864.08	21339.83
864.25	21337.79
864.43	21225.15
864.60	21040.83
864.77	21540.54
864.95	21321.40
865.12	20924.10
865.30	21305.02
865.47	21104.32
865.64	21110.46
865.82	21259.96
865.99	21214.91
866.17	20756.16
866.34	21130.94
866.51	20797.12
866.69	21147.33
866.86	20942.53
867.04	21055.17
867.21	20831.94
867.38	20971.20
867.56	20653.76
867.73	20659.91
867.91	20692.68
868.08	20842.18
868.25	20668.10
868.43	20655.81
868.60	20543.17
868.78	20373.19
868.95	20524.74
869.12	20588.23
869.30	20260.55
869.47	20516.55
869.64	20240.08
869.82	20299.47
869.99	20231.88
870.16	20471.50
870.34	20166.35
870.51	20063.95
870.69	20016.85
870.86	20201.16
871.03	19990.22
871.21	19969.74
871.38	20231.88
871.55	20031.18
871.73	19900.11
871.90	19807.95
872.07	19963.60
872.25	19752.66
872.42	19818.19
872.59	19566.29
872.77	19769.04
872.94	19629.78
873.11	19580.63
873.29	19846.87
873.46	19574.49
873.63	19369.69
873.81	19812.05
873.98	19234.52
874.15	19484.37
874.33	19134.17
874.50	18976.48
874.67	19187.42
874.85	19224.28
875.02	19396.31
875.19	18974.43
875.37	18874.08
875.54	18956.00
875.71	18898.66
875.88	18798.31
876.06	18773.73
876.23	18761.44
876.40	18712.29
876.58	18912.99
876.75	18745.06
876.92	18626.28
877.10	19023.58
877.27	18763.49
877.44	18570.98
877.61	18581.22
877.79	18484.97
877.96	18536.17
878.13	18331.37
878.31	18386.66
878.48	18378.47
878.65	18306.79
878.82	18140.91
879.00	18507.49
879.17	18284.26
879.34	18294.50
879.51	17876.72
879.69	17884.91
879.86	17768.18
880.03	17882.86
880.21	18054.89
880.38	18013.93
880.55	17979.12
880.72	17854.19
880.90	17759.98
881.07	17684.21
881.24	17915.63
881.41	17952.49
881.59	17716.98
881.76	17831.66
881.93	17684.21
882.10	17458.93
882.28	17229.56
882.45	17514.23
882.62	17733.36
882.79	17686.26
882.96	17131.26
883.14	17659.63
883.31	17356.54
883.48	17565.43
883.65	17444.60
883.83	17530.61
884.00	17590.00
884.17	17293.05
884.34	17424.12
884.51	17153.79
884.69	17336.06
884.86	17235.70
885.03	17313.53
885.20	17043.20
885.38	17069.82
885.55	17108.73
885.72	17088.25
885.89	16854.78
886.06	17151.74
886.24	16910.08
886.41	16875.26
886.58	17035.00
886.75	17116.92
886.92	16977.66
887.10	17026.81
887.27	16914.17
887.44	16901.89
887.61	17100.54
887.78	16848.64
887.95	17092.35
888.13	16625.41
888.30	16547.59
888.47	16715.52
888.64	16703.23
888.81	16590.59
888.99	16508.68
889.16	16400.13
889.33	16498.44
889.50	16531.20
889.67	16443.14
889.84	16355.08
890.01	16400.13
890.19	16353.03
890.36	16195.34
890.53	16367.37
890.70	16148.23
890.87	16439.05
891.04	15951.63
891.22	16025.36
891.39	16035.60
891.56	16082.70
891.73	16043.79
891.90	16033.55
892.07	16031.50
892.24	15894.29
892.42	15793.94
892.59	16094.99
892.76	15789.84
892.93	15808.27
893.10	15886.09
893.27	16006.92
893.44	15857.42
893.61	15636.24
893.79	15994.64
893.96	15709.97
894.13	15863.57
894.30	15808.27
894.47	15763.22
894.64	15970.06
894.81	15861.52
894.98	15679.25
895.15	15841.04
895.33	15691.54
895.50	15726.35
895.67	15644.43
895.84	15859.47
896.01	15490.84
896.18	15406.87
896.35	15675.15
896.52	15484.69
896.69	15585.04
896.86	15617.81
897.04	15353.62
897.21	15656.72
897.38	15687.44
897.55	15478.55
897.72	15591.19
897.89	15408.92
898.06	15648.53
898.23	15456.02
898.40	15302.42
898.57	15511.32
898.74	15445.78
898.91	15490.84
899.08	15648.53
899.26	15324.95
899.43	15570.71
899.60	15484.69
899.77	15351.57
899.94	15306.52
900.11	15099.67
900.28	15476.50
900.45	15384.34
900.62	15306.52
900.79	15755.02
900.96	15406.87
901.13	15216.41
901.30	15148.82
901.47	15085.34
901.64	15386.39
901.81	15181.59
901.98	15286.04
902.15	15648.53
902.32	15103.77
902.49	15392.53
902.66	15451.92
902.83	15134.49
903.01	15085.34
903.18	15363.86
903.35	15347.48
903.52	15400.72
903.69	15312.66
903.86	15425.30
904.03	15374.10
904.20	15406.87
904.37	15507.22
904.54	15271.70
904.71	14972.70
904.88	15273.75
905.05	15390.49
905.22	15111.96
905.39	15183.64
905.56	15228.70
905.73	15109.91
905.90	15128.35
906.07	15138.58
906.24	15249.18
906.41	14927.64
906.58	15200.02
906.75	15017.75
906.92	14806.81
907.09	15140.63
907.26	15118.11
907.43	15058.71
907.60	15003.42
907.77	15220.50
907.93	15263.51
908.10	15011.61
908.27	15148.82
908.44	15103.77
908.61	14774.05
908.78	15003.42
908.95	15118.11
909.12	15042.33
909.29	14747.42
909.46	15157.02
909.63	15046.43
909.80	15036.19
909.97	14976.80
910.14	15046.43
910.31	14919.45
910.48	14831.39
910.65	15204.12
910.82	15005.47
910.99	14716.70
911.16	14798.62
911.33	14706.46
911.50	14647.07
911.66	14528.29
911.83	14714.66
912.00	14759.71
912.17	14647.07
912.34	14806.81
912.51	14513.95
912.68	14516.00
912.85	14624.54
913.02	14655.26
913.19	14505.76
913.36	14438.18
913.53	14485.28
913.70	14337.83
913.86	14669.60
914.03	14405.41
914.20	14419.75
914.37	14495.52
914.54	14235.43
914.71	14333.73
914.88	14085.93
915.05	14190.38
915.22	13889.32
915.39	14116.65
915.55	13907.76
915.72	14112.55
915.89	14171.94
916.06	13827.88
916.23	13926.19
916.40	13748.01
916.57	13727.53
916.74	13637.42
916.91	13762.35
917.07	13668.14
917.24	13633.33
917.41	13793.07
917.58	13575.98
917.75	13506.35
917.92	13573.94
918.09	13776.69
918.26	13473.59
918.42	13565.74
918.59	13332.28
918.76	13510.45
918.93	13133.62
919.10	13131.58
919.27	13223.73
919.44	13358.90
919.60	13305.65
919.77	13078.33
919.94	13125.43
920.11	13078.33
920.28	13178.68
920.45	12918.59
920.61	12963.64
920.78	12910.40
920.95	13000.51
921.12	12848.96
921.29	12726.08
921.46	12562.24
921.62	12578.62
921.79	12693.31
921.96	12605.25
922.13	12605.25
922.30	12578.62
922.47	12474.18
922.63	12369.73
922.80	12382.02
922.97	12296.00
923.14	12009.29
923.31	12302.15
923.47	12214.09
923.64	12611.39
923.81	12064.58
923.98	12232.52
924.15	11929.42
924.32	12064.58
924.48	11999.05
924.65	12017.48
924.82	11734.86
924.99	11843.40
925.15	11857.74
925.32	11953.99
925.49	11779.92
925.66	11644.75
925.83	11587.41
925.99	11558.74
926.16	11528.02
926.33	11491.15
926.50	11364.18
926.67	11558.74
926.83	11315.03
927.00	11394.90
927.17	11269.97
927.34	11099.99
927.50	11138.90
927.67	11235.16
927.84	11296.60
928.01	11030.36
928.17	10866.52
928.34	11059.03
928.51	10909.53
928.68	10700.64
928.84	10581.85
929.01	10725.21
929.18	10551.14
929.35	10639.20
929.51	10491.74
929.68	10289.00
929.85	10569.57
930.02	10448.74
930.18	10549.09
930.35	10307.43
930.52	10334.05
930.69	10555.23
930.85	10368.87
931.02	10319.71
931.19	10243.94
931.36	10299.23
931.52	10065.77
931.69	9953.13
931.86	9932.65
932.02	10004.33
932.19	9959.27
932.36	9893.74
932.53	9680.75
932.69	9699.18
932.86	9910.12
933.03	9793.39
933.19	9508.72
933.36	9850.73
933.53	9572.21
933.70	9629.55
933.86	9584.49
934.03	9506.67
934.20	9396.08
934.36	9463.66
934.53	9215.86
934.70	9080.69
934.86	9265.01
935.03	9072.50
935.20	8859.51
935.36	9072.50
935.53	8812.41
935.70	8933.24
935.86	8564.61
936.03	8456.06
936.20	8562.56
936.36	8558.46
936.53	8494.97
936.70	8251.27
936.86	8580.99
937.03	8413.06
937.20	8085.38
937.36	8245.12
937.53	8171.40
937.70	7939.97
937.86	7683.98
938.03	7720.84
938.20	7860.10
938.36	7643.02
938.53	7567.24
938.70	7276.43
938.86	7470.99
939.03	7511.95
939.20	7131.03
939.36	7212.95
939.53	7098.26
939.70	7266.19
939.86	6965.14
940.03	6860.70
940.19	6764.44
940.36	6694.81
940.53	6858.65
940.69	6676.38
940.86	6780.82
941.03	6381.47
941.19	6287.26
941.36	6414.24
941.52	6338.46
941.69	6285.22
941.86	6244.26
942.02	6156.19
942.19	6207.39
942.35	6109.09
942.52	5949.35
942.69	5998.50
942.85	5879.72
943.02	5840.81
943.18	5949.35
943.35	5627.82
943.52	5726.12
943.68	5660.59
943.85	5627.82
944.01	5586.86
944.18	5582.76
944.35	5738.41
944.51	5416.88
944.68	5382.06
944.84	5394.35
945.01	5332.91
945.17	5312.43
945.34	5345.20
945.51	5400.49
945.67	5302.19
945.84	5324.72
946.00	5173.17
946.17	5306.29
946.33	5400.49
946.50	5416.88
946.67	5312.43
946.83	5220.27
947.00	5390.25
947.16	5359.53
947.33	5261.23
947.49	5197.74
947.66	5111.73
947.82	5369.77
947.99	5121.97
948.16	5310.38
948.32	5140.40
948.49	5226.42
948.65	5164.98
948.82	5136.31
948.98	5306.29
949.15	5185.46
949.31	5314.48
949.48	5158.83
949.64	5308.34
949.81	5189.55
949.97	5113.78
950.14	5263.28
950.30	5242.80
950.47	5232.56
950.63	5316.53
950.80	5244.85
950.96	5345.20
951.13	5263.28
951.30	5343.15
951.46	5255.09
951.63	5343.15
951.79	5304.24
951.96	5291.95
952.12	5308.34
952.29	5349.29
952.45	5226.42
952.62	5453.74
952.78	5212.08
952.94	5394.35
953.11	5291.95
953.27	5281.71
953.44	5545.90
953.60	5490.60
953.77	5390.25
953.93	5382.06
954.10	5431.21
954.26	5457.84
954.43	5230.51
954.59	5562.28
954.76	5580.71
954.92	5545.90
955.09	5447.60
955.25	5423.02
955.42	5398.45
955.58	5521.32
955.75	5547.95
955.91	5312.43
956.07	5382.06
956.24	5449.64
956.40	5578.67
956.57	5429.17
956.73	5347.25
956.90	5367.73
957.06	5457.84
957.23	5320.62
957.39	5306.29
957.56	5410.73
957.72	5328.81
957.88	5222.32
958.05	5433.26
958.21	5560.24
958.38	5394.35
958.54	5341.10
958.71	5386.16
958.87	5506.99
959.03	5451.69
959.20	5638.06
959.36	5332.91
959.53	5322.67
959.69	5281.71
959.85	5433.26
960.02	5361.58
960.18	5337.01
960.35	5324.72
960.51	5494.70
960.68	5337.01
960.84	5316.53
961.00	5523.37
961.17	5392.30
961.33	5402.54
961.50	5539.76
961.66	5451.69
961.82	5347.25
961.99	5377.97
962.15	5445.55
962.31	5380.01
962.48	5392.30
962.64	5457.84
962.81	5437.36
962.97	5312.43
963.13	5257.14
963.30	5492.65
963.46	5330.86
963.62	5347.25
963.79	5234.61
963.95	5246.90
964.12	5310.38
964.28	5382.06
964.44	5205.94
964.61	5255.09
964.77	5306.29
964.93	5420.97
965.10	5398.45
965.26	5271.47
965.42	5390.25
965.59	5226.42
965.75	5261.23
965.92	5242.80
966.08	5400.49
966.24	5312.43
966.41	5193.65
966.57	5347.25
966.73	5332.91
966.90	5369.77
967.06	5355.44
967.22	5222.32
967.39	5119.92
967.55	5285.81
967.71	5339.05
967.88	5273.52
968.04	5095.35
968.20	5195.70
968.37	5007.28
968.53	5128.11
968.69	5099.44
968.85	5009.33
969.02	5158.83
969.18	5234.61
969.34	5232.56
969.51	5058.48
969.67	5203.89
969.83	5109.68
970.00	5363.63
970.16	5216.18
970.32	5138.35
970.48	5148.59
970.65	5081.01
970.81	5160.88
970.97	5046.20
971.14	5025.72
971.30	5136.31
971.46	4947.89
971.63	4970.42
971.79	5136.31
971.95	5062.58
972.11	4878.26
972.28	5074.87
972.44	4972.47
972.60	4753.34
972.76	5007.28
972.93	4951.99
973.09	5019.57
973.25	4986.80
973.42	4888.50
973.58	5019.57
973.74	4861.88
973.90	4884.41
974.07	4798.39
974.23	4847.54
974.39	4915.12
974.55	4782.01
974.72	4747.19
974.88	4718.52
975.04	4870.07
975.20	4782.01
975.37	4771.77
975.53	4818.87
975.69	4743.10
975.85	4790.20
976.01	4695.99
976.18	4659.13
976.34	4704.18
976.50	4827.06
976.66	4728.76
976.83	4722.62
976.99	4601.79
977.15	4802.49
977.31	4616.12
977.47	4800.44
977.64	4661.18
977.80	4534.20
977.96	4607.93
978.12	4640.70
978.29	4550.59
978.45	4587.45
978.61	4507.58
978.77	4618.17
978.93	4544.44
979.10	4609.98
979.26	4509.63
979.42	4515.77
979.58	4462.52
979.74	4392.89
979.91	4499.39
980.07	4562.87
980.23	4558.78
980.39	4437.95
980.55	4468.67
980.71	4554.68
980.88	4515.77
981.04	4415.42
981.20	4444.09
981.36	4513.72
981.52	4294.59
981.68	4396.99
981.85	4378.56
982.01	4403.13
982.17	4306.88
982.33	4280.25
982.49	4509.63
982.65	4343.74
982.82	4235.20
982.98	4288.45
983.14	4181.95
983.30	4317.12
983.46	4394.94
983.62	4403.13
983.79	4210.62
983.95	4247.49
984.11	4163.52
984.27	4239.30
984.43	4188.10
984.59	4249.54
984.75	4224.96
984.91	4204.48
985.08	4343.74
985.24	4065.22
985.40	4130.75
985.56	4245.44
985.72	4282.30
985.88	4241.34
986.04	4048.83
986.20	4046.79
986.37	4208.58
986.53	4003.78
986.69	4011.97
986.85	4097.99
987.01	3870.66
987.17	4067.27
987.33	4057.03
987.49	3864.52
987.65	4022.21
987.82	4065.22
987.98	3966.92
988.14	3856.33
988.30	4052.93
988.46	3923.91
988.62	3913.67
988.78	4016.07
988.94	3891.14
989.10	3841.99
989.26	3866.56
989.42	3739.59
989.59	3788.74
989.75	3891.14
989.91	3921.86
990.07	3637.19
990.23	3907.52
990.39	3844.04
990.55	3891.14
990.71	3690.44
990.87	3895.24
991.03	3858.37
991.19	3571.66
991.35	3807.17
991.51	3774.41
991.67	3819.46
991.83	3645.38
992.00	3753.93
992.16	3803.08
992.32	3887.04
992.48	3741.64
992.64	3661.77
992.80	3704.78
992.96	3667.91
993.12	3696.58
993.28	3538.89
993.44	3733.45
993.60	3530.70
993.76	3696.58
993.92	3710.92
994.08	3704.78
994.24	3534.79
994.40	3612.62
994.56	3577.80
994.72	3538.89
994.88	3444.68
995.04	3588.04
995.20	3485.64
995.36	3442.64
995.52	3581.90
995.68	3608.52
995.84	3434.44
996.00	3528.65
996.16	3383.24
996.32	3526.60
996.48	3362.76
996.64	3545.03
996.80	3387.34
996.96	3512.27
997.12	3434.44
997.28	3368.91
997.44	3315.66
997.60	3274.70
997.76	3248.08
997.92	3340.24
998.08	3405.77
998.24	3266.51
998.40	3346.38
998.56	3475.40
998.72	3332.05
998.88	3381.20
999.04	3237.84
999.20	3340.24
999.36	3162.06
999.52	3325.90
999.68	3301.33
999.84	3268.56
1000.00	3221.45
1000.16	3393.48
1000.32	3127.25
1000.48	3299.28
1000.64	3057.62
1000.80	3098.58
1000.95	3071.95
1001.11	3229.65
1001.27	3065.81
1001.43	3049.43
1001.59	3133.39
1001.75	3051.47
1001.91	3117.01
1002.07	2971.60
1002.23	2889.68
1002.39	3043.28
1002.55	2975.70
1002.71	3016.66
1002.87	3094.48
1003.03	3055.57
1003.19	3094.48
1003.34	3114.96
1003.50	2920.40
1003.66	3133.39
1003.82	2926.55
1003.98	2936.79
1004.14	3039.19
1004.30	2899.92
1004.46	2861.01
1004.62	2955.22
1004.78	2815.96
1004.94	2883.54
1005.09	2949.08
1005.25	2863.06
1005.41	2944.98
1005.57	2826.20
1005.73	2793.43
1005.89	2824.15
1006.05	2910.16
1006.21	2813.91
1006.37	2637.78
1006.52	2777.05
1006.68	2662.36
1006.84	2811.86
1007.00	2731.99
1007.16	2807.77
1007.32	2746.33
1007.48	2826.20
1007.64	2668.50
1007.79	2629.59
1007.95	2623.45
1008.11	2754.52
1008.27	2639.83
1008.43	2512.86
1008.59	2619.35
1008.75	2699.22
1008.91	2664.41
1009.06	2648.02
1009.22	2582.49
1009.38	2684.89
1009.54	2553.82
1009.70	2463.71
1009.86	2568.15
1010.01	2555.86
1010.17	2539.48
1010.33	2654.17
1010.49	2615.26
1010.65	2656.22
1010.81	2484.19
1010.96	2478.04
1011.12	2400.22
1011.28	2273.25
1011.44	2693.08
1011.60	2514.91
1011.76	2344.92
1011.91	2467.80
1012.07	2365.40
1012.23	2486.23
1012.39	2471.90
1012.55	2389.98
1012.71	2473.95
1012.86	2410.46
1013.02	2279.39
1013.18	2328.54
1013.34	2377.69
1013.50	2408.41
1013.65	2346.97
1013.81	2336.73
1013.97	2402.27
1014.13	2252.77
1014.29	2334.68
1014.44	2402.27
1014.60	2269.15
1014.76	2258.91
1014.92	2222.05
1015.07	2265.05
1015.23	2291.68
1015.39	2211.81
1015.55	2265.05
1015.71	2351.07
1015.86	2181.09
1016.02	2179.04
1016.18	2168.80
1016.34	2234.33
1016.49	2045.92
1016.65	2279.39
1016.81	2228.19
1016.97	2211.81
1017.12	2181.09
1017.28	2113.50
1017.44	1974.24
1017.60	2093.02
1017.75	2076.64
1017.91	2168.80
1018.07	2133.98
1018.23	2125.79
1018.38	2117.60
1018.54	2056.16
1018.70	2242.53
1018.86	2150.37
1019.01	2097.12
1019.17	2154.46
1019.33	2234.33
1019.49	2060.26
1019.64	2047.97
1019.80	2035.68
1019.96	1996.77
1020.12	2105.31
1020.27	1925.09
1020.43	2111.46
1020.59	2056.16
1020.74	2146.27
1020.90	2064.35
1021.06	1894.37
1021.22	2056.16
1021.37	1990.63
1021.53	2080.74
1021.69	2035.68
1021.84	1837.03
1022.00	1990.63
1022.16	2045.92
1022.31	1929.19
1022.47	2007.01
1022.63	1994.72
1022.79	1867.75
1022.94	1855.46
1023.10	2088.93
1023.26	1990.63
1023.41	1927.14
1023.57	1961.95
1023.73	1910.75
1023.88	1863.65
1024.04	1757.16
1024.20	1884.13
1024.35	1953.76
1024.51	1904.61
1024.67	2011.11
1024.82	1966.05
1024.98	1773.54
1025.14	1773.54
1025.29	1900.52
1025.45	1863.65
1025.61	1796.07
1025.76	1886.18
1025.92	1875.94
1026.08	1837.03
1026.23	1966.05
1026.39	1896.42
1026.55	1853.41
1026.70	1787.88
1026.86	1888.23
1027.02	1837.03
1027.17	1894.37
1027.33	1904.61
1027.48	1744.87
1027.64	1806.31
1027.80	1724.39
1027.95	1931.23
1028.11	1699.81
1028.27	1740.77
1028.42	1908.71
1028.58	1787.88
1028.73	1777.64
1028.89	1699.81
1029.05	1841.12
1029.20	1751.01
>>>>>End Processed Spectral Data<<<<<
