SpectraSuite Data File
++++++++++++++++++++++++++++++++++++
Date: Fri Jun 02 14:57:19 CEST 2017
User: INFO_000
Dark Spectrum Present: No
Reference Spectrum Present: No
Number of Sampled Component Spectra: 1
Spectrometers: USB4H00879
Integration Time (usec): 80000 (USB4H00879)
Spectra Averaged: 1 (USB4H00879)
Boxcar Smoothing: 0 (USB4H00879)
Correct for Electrical Dark: No (USB4H00879)
Strobe/Lamp Enabled: No (USB4H00879)
Correct for Detector Non-linearity: No (USB4H00879)
Correct for Stray Light: No (USB4H00879)
Number of Pixels in Processed Spectrum: 3648
>>>>>Begin Processed Spectral Data<<<<<
345.13	1269.74
345.34	1269.74
345.56	1269.74
345.78	1273.84
345.99	1298.41
346.21	1667.05
346.42	1699.81
346.64	1683.43
346.86	1775.59
347.07	1667.05
347.29	1744.87
347.50	1630.18
347.72	1689.57
347.94	1693.67
348.15	1628.14
348.37	1564.65
348.59	1662.95
348.80	1621.99
349.02	1783.78
349.23	1943.52
349.45	1712.10
349.67	1863.65
349.88	1755.11
350.10	1970.15
350.31	1794.02
350.53	1816.55
350.75	1970.15
350.96	1851.36
351.18	1882.08
351.39	1914.85
351.61	1843.17
351.82	1861.60
352.04	1900.52
352.26	1830.88
352.47	1918.95
352.69	1845.22
352.90	1695.72
353.12	1914.85
353.34	1908.71
353.55	1882.08
353.77	2002.91
353.98	1910.75
354.20	1898.47
354.41	1884.13
354.63	1875.94
354.85	2011.11
355.06	1884.13
355.28	1814.50
355.49	1945.57
355.71	1992.67
355.92	1855.46
356.14	1943.52
356.35	1853.41
356.57	1882.08
356.79	2007.01
357.00	1859.56
357.22	1920.99
357.43	1873.89
357.65	1968.10
357.86	1845.22
358.08	1880.04
358.29	1949.67
358.51	1996.77
358.72	1943.52
358.94	1923.04
359.16	1968.10
359.37	1996.77
359.59	1961.95
359.80	1978.34
360.02	1900.52
360.23	2000.87
360.45	1988.58
360.66	1925.09
360.88	1888.23
361.09	1943.52
361.31	2002.91
361.52	2062.30
361.74	2052.06
361.95	2074.59
362.17	1873.89
362.38	2062.30
362.60	2074.59
362.81	1984.48
363.03	1966.05
363.24	2076.64
363.46	2043.87
363.67	1933.28
363.89	2011.11
364.10	1998.82
364.32	2000.87
364.53	2045.92
364.75	1918.95
364.96	2066.40
365.18	1986.53
365.39	1992.67
365.61	1996.77
365.82	2086.88
366.04	2021.35
366.25	1961.95
366.47	2090.98
366.68	2047.97
366.90	1918.95
367.11	2074.59
367.33	2101.22
367.54	2033.63
367.76	2013.15
367.97	2113.50
368.19	2017.25
368.40	2076.64
368.62	1953.76
368.83	2011.11
369.05	2068.45
369.26	2017.25
369.48	1978.34
369.69	2099.17
369.91	2035.68
370.12	1957.86
370.33	2002.91
370.55	2033.63
370.76	2133.98
370.98	2185.18
371.19	2140.13
371.41	2035.68
371.62	2062.30
371.84	2023.39
372.05	2183.13
372.27	2043.87
372.48	2158.56
372.69	2170.85
372.91	2056.16
373.12	2115.55
373.34	2078.69
373.55	2162.66
373.77	2150.37
373.98	2105.31
374.20	2144.22
374.41	2246.62
374.62	2152.42
374.84	2170.85
375.05	2250.72
375.27	2203.61
375.48	2146.27
375.70	2232.29
375.91	2207.71
376.12	2310.11
376.34	2195.42
376.55	2222.05
376.77	2220.00
376.98	2187.23
377.19	2144.22
377.41	2150.37
377.62	2306.01
377.84	2238.43
378.05	2383.84
378.27	2209.76
378.48	2365.40
378.69	2334.68
378.91	2236.38
379.12	2125.79
379.34	2195.42
379.55	2297.82
379.76	2236.38
379.98	2228.19
380.19	2162.66
380.41	2232.29
380.62	2312.16
380.83	2193.37
381.05	2199.52
381.26	2449.37
381.47	2256.86
381.69	2256.86
381.90	2437.08
382.12	2353.12
382.33	2318.30
382.54	2353.12
382.76	2324.44
382.97	2324.44
383.19	2375.64
383.40	2326.49
383.61	2289.63
383.83	2256.86
384.04	2299.87
384.25	2490.33
384.47	2400.22
384.68	2394.08
384.89	2240.48
385.11	2367.45
385.32	2344.92
385.54	2291.68
385.75	2385.88
385.96	2478.04
386.18	2437.08
386.39	2494.43
386.60	2336.73
386.82	2418.65
387.03	2369.50
387.24	2521.05
387.46	2406.36
387.67	2549.72
387.88	2469.85
388.10	2488.28
388.31	2418.65
388.52	2531.29
388.74	2478.04
388.95	2572.25
389.16	2535.39
389.38	2500.57
389.59	2609.11
389.80	2627.54
390.02	2609.11
390.23	2656.22
390.44	2555.86
390.66	2574.30
390.87	2572.25
391.08	2572.25
391.30	2705.37
391.51	2590.68
391.72	2699.22
391.94	2648.02
392.15	2582.49
392.36	2670.55
392.58	2615.26
392.79	2715.61
393.00	2703.32
393.22	2658.26
393.43	2754.52
393.64	2736.09
393.85	2779.09
394.07	2682.84
394.28	2736.09
394.49	2836.44
394.71	2801.62
394.92	2858.96
395.13	2684.89
395.35	2682.84
395.56	2809.81
395.77	2815.96
395.98	2738.13
396.20	2797.53
396.41	2832.34
396.62	2951.12
396.84	2797.53
397.05	2885.59
397.26	2846.68
397.47	2953.17
397.69	2856.92
397.90	2918.36
398.11	2998.23
398.32	2877.40
398.54	2924.50
398.75	2893.78
398.96	2901.97
399.18	3084.24
399.39	2875.35
399.60	3051.47
399.81	3000.27
400.03	2918.36
400.24	3225.55
400.45	3004.37
400.66	3051.47
400.88	3069.91
401.09	3096.53
401.30	3114.96
401.51	3162.06
401.73	3061.71
401.94	3112.91
402.15	3123.15
402.36	3133.39
402.58	3100.62
402.79	3080.14
403.00	3227.60
403.21	3246.03
403.43	3250.13
403.64	3303.37
403.85	3071.95
404.06	3221.45
404.27	3147.73
404.49	3082.19
404.70	3223.50
404.91	3231.69
405.12	3190.74
405.34	3348.43
405.55	3438.54
405.76	3188.69
405.97	3235.79
406.19	3383.24
406.40	3219.41
406.61	3344.33
406.82	3399.63
407.03	3284.94
407.25	3323.85
407.46	3428.30
407.67	3407.82
407.88	3528.65
408.09	3348.43
408.31	3385.29
408.52	3383.24
408.73	3342.28
408.94	3434.44
409.15	3481.55
409.37	3524.55
409.58	3524.55
409.79	3551.18
410.00	3592.14
410.21	3450.83
410.43	3332.05
410.64	3360.72
410.85	3608.52
411.06	3555.27
411.27	3542.99
411.48	3641.29
411.70	3481.55
411.91	3575.75
412.12	3786.69
412.33	3551.18
412.54	3592.14
412.76	3653.58
412.97	3723.21
413.18	3645.38
413.39	3585.99
413.60	3669.96
413.81	3602.38
414.03	3614.66
414.24	3553.23
414.45	3815.37
414.66	3573.71
414.87	3717.06
415.08	3733.45
415.30	3715.02
415.51	3647.43
415.72	3731.40
415.93	3719.11
416.14	3807.17
416.35	3831.75
416.56	3758.02
416.78	3786.69
416.99	3839.94
417.20	3858.37
417.41	3960.77
417.62	3856.33
417.83	3907.52
418.04	3919.81
418.26	3915.72
418.47	3825.61
418.68	3866.56
418.89	3950.53
419.10	4216.77
419.31	4001.73
419.52	3975.11
419.73	3977.16
419.95	4175.81
420.16	4016.07
420.37	4214.72
420.58	4057.03
420.79	3946.44
421.00	4104.13
421.21	4210.62
421.42	4063.17
421.63	4171.71
421.85	4069.31
422.06	4091.84
422.27	4147.14
422.48	4192.19
422.69	4220.86
422.90	4229.06
423.11	4374.46
423.32	4210.62
423.53	4483.00
423.75	4388.80
423.96	4435.90
424.17	4308.93
424.38	4526.01
424.59	4374.46
424.80	4558.78
425.01	4362.17
425.22	4452.28
425.43	4364.22
425.64	4577.21
425.85	4814.77
426.06	4597.69
426.28	4667.32
426.49	4337.60
426.70	4642.75
426.91	4689.85
427.12	4581.31
427.33	4763.58
427.54	4521.92
427.75	4712.38
427.96	4841.40
428.17	4763.58
428.38	4822.97
428.59	4892.60
428.80	4878.26
429.01	4722.62
429.23	4906.93
429.44	5103.54
429.65	4929.46
429.86	5048.24
430.07	4925.36
430.28	4964.28
430.49	5081.01
430.70	5060.53
430.91	5113.78
431.12	5001.14
431.33	5136.31
431.54	5031.86
431.75	5136.31
431.96	5121.97
432.17	5136.31
432.38	5132.21
432.59	5357.49
432.80	5326.77
433.01	5361.58
433.22	5246.90
433.43	5300.14
433.64	5171.12
433.85	5353.39
434.06	5447.60
434.27	5382.06
434.49	5269.42
434.70	5574.57
434.91	5572.52
435.12	5541.80
435.33	5451.69
435.54	5449.64
435.75	5386.16
435.96	5552.04
436.17	5384.11
436.38	5550.00
436.59	5595.05
436.80	5539.76
437.01	5969.83
437.22	5859.24
437.43	5730.22
437.64	5509.04
437.85	5562.28
438.06	5885.86
438.27	5533.61
438.48	5756.84
438.69	5818.28
438.90	5767.08
439.11	5734.31
439.32	5722.02
439.53	5803.94
439.74	5885.86
439.95	5969.83
440.16	5777.32
440.37	5910.44
440.57	5701.54
440.78	5918.63
440.99	6018.98
441.20	5941.16
441.41	5844.90
441.62	6154.15
441.83	5779.37
442.04	5973.92
442.25	5975.97
442.46	6021.03
442.67	6088.61
442.88	6412.19
443.09	5918.63
443.30	6088.61
443.51	6191.01
443.72	6393.76
443.93	6197.15
444.14	6395.81
444.35	6135.71
444.56	6328.22
444.77	6178.72
444.98	6426.53
445.19	6504.35
445.40	6397.85
445.61	6455.20
445.81	6541.21
446.02	6461.34
446.23	6311.84
446.44	6336.42
446.65	6530.97
446.86	6426.53
447.07	6555.55
447.28	6733.72
447.49	6522.78
447.70	6551.45
447.91	6692.76
448.12	6543.26
448.33	6885.27
448.54	6784.92
448.74	6686.62
448.95	6727.58
449.16	6686.62
449.37	7282.58
449.58	6770.58
449.79	6999.96
450.00	6782.87
450.21	6926.23
450.42	7063.44
450.63	7098.26
450.84	6977.43
451.05	7069.59
451.25	7210.90
451.46	6965.14
451.67	7069.59
451.88	7223.19
452.09	7137.17
452.30	7016.34
452.51	7139.22
452.72	7315.34
452.93	7438.22
453.13	7073.68
453.34	7284.62
453.55	7192.47
453.76	7294.86
453.97	7724.94
454.18	7182.23
454.39	7434.13
454.60	7460.75
454.81	7364.50
455.01	7661.45
455.22	7462.80
455.43	7454.61
455.64	7790.47
455.85	7817.10
456.06	8056.71
456.27	7688.07
456.48	7704.46
456.68	7817.10
456.89	7905.16
457.10	8052.61
457.31	7954.31
457.52	7946.12
457.73	8054.66
457.94	8177.54
458.14	7950.21
458.35	8402.82
458.56	8007.56
458.77	8120.20
458.98	8163.20
459.19	8185.73
459.39	8406.91
459.60	8494.97
459.81	8193.92
460.02	8402.82
460.23	8548.22
460.44	8439.68
460.65	8580.99
460.85	8722.30
461.06	8802.17
461.27	8413.06
461.48	8863.61
461.69	8826.75
461.89	8587.13
462.10	8843.13
462.31	8859.51
462.52	8687.48
462.73	8785.79
462.94	9267.06
463.14	8982.39
463.35	8925.05
463.56	9402.22
463.77	9408.37
463.98	9152.37
464.18	9291.63
464.39	9514.86
464.60	9658.22
464.81	9545.58
465.02	9375.60
465.23	9889.64
465.43	9478.00
465.64	9875.31
465.85	9764.72
466.06	9754.48
466.27	10192.74
466.47	9916.26
466.68	9971.56
466.89	10010.47
467.10	9973.61
467.30	10098.53
467.51	10178.40
467.72	10538.85
467.93	10065.77
468.14	10364.77
468.34	10540.90
468.55	10667.87
468.76	10471.26
468.97	10383.20
469.17	10782.56
469.38	10676.06
469.59	10893.15
469.80	10794.84
470.01	10719.07
470.21	10866.52
470.42	10930.01
470.63	11196.25
470.84	11044.70
471.04	11030.36
471.25	11388.75
471.46	11315.03
471.67	11589.46
471.87	11460.43
472.08	11439.95
472.29	11720.53
472.50	11398.99
472.70	11593.55
472.91	11714.38
473.12	11835.21
473.33	11839.31
473.53	12136.26
473.74	12021.58
473.95	12416.83
474.16	12322.63
474.36	12349.25
474.57	12531.52
474.78	12633.92
474.99	12672.83
475.19	12347.20
475.40	12764.99
475.61	12865.34
475.81	13068.09
476.02	13166.39
476.23	12928.83
476.44	13233.97
476.64	13262.65
476.85	13436.72
477.06	13461.30
477.27	13778.73
477.47	13612.85
477.68	13840.17
477.89	13940.52
478.09	13848.36
478.30	13934.38
478.51	13932.33
478.71	14294.82
478.92	14337.83
479.13	14358.31
479.34	14595.87
479.54	14462.76
479.75	14612.26
479.96	14571.30
480.16	14690.08
480.37	14829.34
480.58	14980.89
480.78	15292.18
480.99	15181.59
481.20	15494.93
481.41	15390.49
481.61	15363.86
481.82	15410.96
482.03	15617.81
482.23	15695.63
482.44	15892.24
482.65	16127.75
482.85	16262.92
483.06	15851.28
483.27	15992.59
483.47	16250.63
483.68	16299.78
483.89	16357.13
484.09	16496.39
484.30	16662.27
484.51	16953.09
484.71	16836.35
484.92	16639.75
485.13	17207.03
485.33	17196.79
485.54	16987.90
485.75	17297.14
485.95	17479.41
486.16	17794.80
486.37	17702.64
486.57	17604.34
486.78	17864.43
486.98	17497.84
487.19	17979.12
487.40	17966.83
487.60	18265.83
487.81	18368.23
488.02	18126.57
488.22	18392.81
488.43	18462.44
488.64	18659.04
488.84	18564.84
489.05	18833.12
489.25	18507.49
489.46	19015.39
489.67	18874.08
489.87	19214.04
490.08	19275.48
490.29	19261.15
490.49	19429.08
490.70	19424.98
490.90	19594.96
491.11	19738.32
491.32	19816.15
491.52	19726.04
491.73	20049.61
491.94	20096.72
492.14	19728.08
492.35	20317.90
492.55	20336.33
492.76	20299.47
492.97	20385.48
493.17	20235.98
493.38	20807.36
493.58	20860.61
493.79	20850.37
494.00	20797.12
494.20	20889.28
494.41	21235.39
494.61	20889.28
494.82	21223.10
495.02	21085.89
495.23	21524.15
495.44	21395.13
495.64	21671.61
495.85	21706.42
496.05	21718.71
496.26	21753.52
496.47	22128.30
496.67	21946.03
496.88	22124.21
497.08	21636.79
497.29	22181.55
497.49	22191.79
497.70	22261.42
497.91	22126.25
498.11	22369.96
498.32	22417.07
498.52	22541.99
498.73	23070.37
498.93	22668.97
499.14	22841.00
499.34	22865.57
499.55	23164.57
499.76	23072.42
499.96	23279.26
500.17	23463.58
500.37	23283.36
500.58	23250.59
500.78	23373.47
500.99	23619.22
501.19	23912.08
501.40	23821.97
501.60	23664.28
501.81	23770.77
502.02	23805.59
502.22	23598.74
502.43	23826.07
502.63	24286.86
502.84	24061.58
503.04	24209.04
503.25	24172.18
503.45	24030.87
503.66	24520.33
503.86	24557.19
504.07	24577.67
504.27	24553.10
504.48	25249.41
504.68	24698.50
504.89	24790.66
505.09	24995.46
505.30	24893.06
505.50	24862.34
505.71	25040.51
505.91	25071.23
506.12	25060.99
506.32	24921.73
506.53	25093.76
506.73	25212.54
506.94	25534.07
507.14	25255.55
507.35	25249.41
507.55	25529.98
507.76	25464.44
507.96	25255.55
508.17	25757.30
508.37	25640.57
508.58	25644.66
508.78	26148.46
508.99	26185.33
509.19	25851.51
509.40	26103.41
509.60	26175.09
509.81	26111.60
510.01	25919.09
510.22	26345.07
510.42	26064.50
510.63	26453.61
510.83	26314.35
511.04	26361.45
511.24	26515.05
511.44	26521.20
511.65	26732.14
511.85	26644.07
512.06	26818.15
512.26	26685.03
512.47	26967.65
512.67	26842.73
512.88	26787.43
513.08	26537.58
513.29	26936.93
513.49	26990.18
513.69	26775.14
513.90	27115.11
514.10	27190.88
514.31	27094.63
514.51	27536.99
514.72	27455.07
514.92	27213.41
515.13	27393.63
515.33	27342.43
515.53	27729.50
515.74	27731.54
515.94	27743.83
516.15	27649.63
516.35	27600.47
516.56	27872.85
516.76	27590.24
516.96	27934.29
517.17	27799.13
517.37	27899.48
517.58	28091.99
517.78	28167.76
517.99	28165.71
518.19	28530.25
518.39	28386.89
518.60	29077.06
518.80	28335.70
519.01	28542.54
519.21	28413.52
519.41	28603.98
519.62	28681.80
519.82	28737.10
520.03	28556.88
520.23	28984.90
520.43	28997.19
520.64	29105.73
520.84	29292.10
521.05	28937.80
521.25	29537.85
521.45	29507.13
521.66	29765.18
521.86	29599.29
522.07	29441.60
522.27	29308.48
522.47	29371.97
522.68	29810.23
522.88	29775.42
523.08	29890.10
523.29	30096.95
523.49	29949.50
523.70	30027.32
523.90	29900.34
524.10	30252.59
524.31	30197.30
524.51	30053.94
524.71	30627.37
524.92	30543.41
525.12	30643.76
525.33	30602.80
525.53	30774.83
525.73	31082.02
525.94	30973.48
526.14	30955.05
526.34	30850.60
526.55	31047.21
526.75	31372.83
526.95	31286.82
527.16	31313.44
527.36	31485.47
527.56	31520.29
527.77	31931.93
527.97	31641.12
528.17	31974.94
528.38	31917.59
528.58	31940.12
528.78	32196.12
528.99	31835.67
529.19	32161.30
529.39	32040.47
529.60	32196.12
529.80	32648.72
530.00	32364.05
530.21	32937.48
530.41	32820.75
530.61	32785.93
530.82	32986.63
531.02	32970.25
531.22	32906.76
531.43	32826.89
531.63	33062.41
531.83	33324.55
532.04	33439.23
532.24	33191.43
532.44	33455.62
532.64	33791.48
532.85	33910.27
533.05	33834.49
533.25	33758.72
533.46	34002.43
533.66	34352.63
533.86	34000.38
534.07	34397.68
534.27	34149.88
534.47	34735.60
534.67	34723.31
534.88	34522.61
535.08	34522.61
535.28	35061.22
535.49	34770.41
535.69	35245.54
535.89	35046.89
536.09	35409.38
536.30	35450.34
536.50	35546.59
536.70	35413.48
536.91	35515.87
537.11	35323.36
537.31	35726.81
537.51	35591.65
537.72	36437.46
537.92	35753.44
538.12	36742.61
538.32	35960.28
538.53	36408.79
538.73	36216.28
538.93	36421.08
539.13	36443.60
539.34	36539.86
539.54	36081.11
539.74	37209.54
539.94	36382.16
540.15	36885.97
540.35	37334.47
540.55	36791.76
540.75	37107.15
540.96	37193.16
541.16	37166.54
541.36	37193.16
541.56	37365.19
541.77	38137.27
541.97	37752.26
542.17	37576.13
542.37	37619.14
542.58	38086.07
542.78	37836.22
542.98	38127.03
543.18	38127.03
543.38	38268.34
543.59	38423.99
543.79	37860.80
543.99	38335.93
544.19	38372.79
544.40	38235.58
544.60	38825.39
544.80	38540.72
545.00	38784.43
545.20	38952.37
545.41	38815.15
545.61	38632.88
545.81	39052.72
546.01	39032.24
546.21	38944.17
546.42	39013.80
546.62	39542.18
546.82	38733.23
547.02	39155.11
547.22	39675.30
547.43	39325.10
547.63	39411.11
547.83	39736.74
548.03	39669.15
548.23	39832.99
548.44	39634.34
548.64	39740.83
548.84	39908.77
549.04	39720.35
549.24	40258.97
549.45	40242.59
549.65	40127.90
549.85	40064.41
550.05	40592.79
550.25	40238.49
550.45	40572.31
550.66	40426.90
550.86	40334.74
551.06	40654.23
551.26	40451.48
551.46	40574.36
551.66	41123.21
551.87	40670.61
552.07	40938.90
552.27	40650.13
552.47	41166.22
552.67	41102.73
552.87	41332.11
553.07	41469.32
553.28	41285.00
553.48	41213.32
553.68	40705.43
553.88	41440.65
554.08	41385.35
554.28	41696.64
554.48	41530.76
554.69	41588.10
554.89	41796.99
555.09	41633.16
555.29	41590.15
555.49	41702.79
555.69	41876.86
555.89	41493.89
556.10	42331.51
556.30	41995.65
556.50	41952.64
556.70	41735.56
556.90	42034.56
557.10	42370.43
557.30	41835.91
557.50	42558.84
557.70	42409.34
557.91	42726.77
558.11	42202.49
558.31	42405.24
558.51	42454.39
558.71	42728.82
558.91	42724.72
559.11	42149.24
559.31	42446.20
559.51	42470.78
559.72	42921.33
559.92	43095.41
560.12	42857.84
560.32	42685.81
560.52	42548.60
560.72	42870.13
560.92	42833.27
561.12	43171.18
561.32	42995.06
561.52	43296.11
561.72	43146.61
561.93	43165.04
562.13	43359.59
562.33	43042.16
562.53	43980.13
562.73	42718.58
562.93	43451.75
563.13	43308.40
563.33	43480.42
563.53	43394.41
563.73	43468.14
563.93	43535.72
564.13	43902.31
564.33	43847.01
564.53	43881.83
564.74	44121.44
564.94	44084.58
565.14	43949.41
565.34	43679.08
565.54	44004.70
565.74	43873.63
565.94	44506.46
566.14	43769.19
566.34	43664.74
566.54	44316.00
566.74	43998.56
566.94	43681.13
567.14	44453.21
567.34	44084.58
567.54	44481.88
567.74	44324.19
567.94	44103.01
568.14	44729.69
568.34	44348.76
568.54	44371.29
568.74	44481.88
568.94	44440.92
569.14	44971.35
569.34	44410.20
569.54	44766.55
569.75	44442.97
569.95	44539.22
570.15	45213.01
570.35	45028.69
570.55	44778.84
570.75	45421.90
570.95	44674.39
571.15	44995.92
571.35	45272.40
571.55	45266.25
571.75	45104.46
571.95	45223.25
572.15	45094.22
572.35	45681.99
572.55	45258.06
572.75	45241.68
572.95	45337.93
573.15	45532.49
573.35	45469.00
573.55	45628.74
573.75	45458.76
573.95	45884.74
574.15	45622.60
574.35	45739.33
574.55	45780.29
574.75	45753.67
574.95	45931.84
575.15	45753.67
575.34	45841.73
575.54	46513.47
575.74	46464.32
575.94	46019.91
576.14	46183.74
576.34	46257.47
576.54	46345.53
576.74	46085.44
576.94	46425.40
577.14	46957.88
577.34	46667.06
577.54	46273.85
577.74	46716.22
577.94	46689.59
578.14	46419.26
578.34	46730.55
578.54	46583.10
578.74	46452.03
578.94	47152.43
579.14	46855.48
579.34	46712.12
579.54	46603.58
579.74	47367.47
579.94	46984.50
580.13	47193.39
580.33	47220.02
580.53	47248.69
580.73	47340.85
580.93	47404.33
581.13	47463.72
581.33	47154.48
581.53	47605.03
581.73	47457.58
581.93	47670.57
582.13	47959.33
582.33	47906.08
582.53	47807.78
582.73	48268.58
582.92	47901.99
583.12	48215.33
583.32	47828.26
583.52	48143.65
583.72	48606.49
583.92	48194.85
584.12	48590.11
584.32	48684.31
584.52	48250.14
584.72	48600.35
584.92	48555.29
585.11	48799.00
585.31	48770.33
585.51	48635.16
585.71	48323.87
585.91	48866.58
586.11	48678.17
586.31	48596.25
586.51	48450.84
586.71	49190.16
586.91	49347.86
587.10	49362.19
587.30	49247.50
587.50	49403.15
587.70	49360.14
587.90	49634.57
588.10	49120.53
588.30	48846.10
588.50	49290.51
588.69	49034.52
588.89	49313.04
589.09	49202.45
589.29	49548.56
589.49	49896.71
589.69	49198.35
589.89	49659.15
590.08	49288.46
590.28	49714.44
590.48	49603.85
590.68	49667.34
590.88	49849.61
591.08	49882.37
591.28	49263.89
591.47	50054.40
591.67	49786.12
591.87	49808.65
592.07	50101.51
592.27	50167.04
592.47	50132.23
592.67	50048.26
592.86	50058.50
593.06	50394.37
593.26	50416.89
593.46	49952.01
593.66	50115.84
593.86	50275.58
594.05	50074.88
594.25	50578.68
594.45	50398.46
594.65	50257.15
594.85	50306.30
595.05	50445.57
595.24	50560.25
595.44	50701.56
595.64	50541.82
595.84	50208.00
596.04	50828.54
596.23	50617.60
596.43	51100.92
596.63	50994.42
596.83	50941.17
597.03	51619.05
597.22	51207.41
597.42	50951.41
597.62	51197.17
597.82	51178.74
598.02	51473.65
598.21	51561.71
598.41	51197.17
598.61	51547.37
598.81	51475.69
599.01	51596.52
599.20	51459.31
599.40	51281.14
599.60	51510.51
599.80	51647.72
600.00	52004.07
600.19	52047.08
600.39	51416.30
600.59	51856.62
600.79	51789.03
600.98	51535.09
601.18	52049.13
601.38	52139.24
601.58	52139.24
601.78	52024.55
601.97	52679.90
602.17	52192.48
602.37	51780.84
602.57	52468.96
602.76	52612.32
602.96	52241.63
603.16	52233.44
603.36	52387.04
603.55	52497.63
603.75	52655.32
603.95	52743.39
604.15	52667.61
604.34	52290.79
604.54	53210.32
604.74	52761.82
604.94	52851.93
605.13	53064.92
605.33	52593.89
605.53	52823.26
605.73	52804.83
605.92	53271.76
606.12	52901.08
606.32	53034.20
606.52	53179.60
606.71	53177.56
606.91	53034.20
607.11	52946.14
607.30	53521.62
607.50	53408.98
607.70	53771.47
607.90	53155.03
608.09	53380.31
608.29	53507.28
608.49	53626.06
608.68	53277.91
608.88	53671.12
609.08	53499.09
609.28	53654.73
609.47	52974.81
609.67	53976.26
609.87	53734.60
610.06	54203.59
610.26	53968.07
610.46	53630.16
610.66	53402.83
610.85	54189.25
611.05	53664.97
611.25	53765.32
611.44	53431.50
611.64	53615.82
611.84	53847.24
612.03	53839.05
612.23	54017.22
612.43	54049.99
612.62	53806.28
612.82	53990.60
613.02	54064.33
613.21	54133.96
613.41	53507.28
613.61	54115.53
613.80	53374.16
614.00	54236.36
614.20	54045.90
614.39	54367.43
614.59	53996.74
614.79	54144.20
614.98	54121.67
615.18	54203.59
615.38	54441.15
615.57	54111.43
615.77	54019.27
615.97	54224.07
616.16	54113.48
616.36	53689.55
616.56	54568.13
616.75	54461.63
616.95	53761.23
617.15	53974.22
617.34	54379.71
617.54	54547.65
617.74	54459.58
617.93	54377.67
618.13	53578.96
618.32	54205.64
618.52	54027.46
618.72	53894.35
618.91	54553.79
619.11	54105.29
619.31	54238.40
619.50	54172.87
619.70	53501.14
619.90	54277.32
620.09	54281.41
620.29	54269.12
620.48	53720.27
620.68	54500.54
620.88	53736.65
621.07	54226.12
621.27	53877.96
621.46	53884.11
621.66	54246.60
621.86	54375.62
622.05	53464.27
622.25	54027.46
622.44	53748.94
622.64	53914.83
622.84	54361.28
623.03	53744.84
623.23	53781.71
623.42	53826.76
623.62	53949.64
623.82	54357.19
624.01	54027.46
624.21	54103.24
624.40	53945.54
624.60	54025.42
624.80	53843.15
624.99	53738.70
625.19	53619.92
625.38	53900.49
625.58	53869.77
625.77	54054.09
625.97	54203.59
626.17	53638.35
626.36	54301.89
626.56	54322.37
626.75	53333.20
626.95	54006.98
627.14	53880.01
627.34	53892.30
627.54	53646.54
627.73	53538.00
627.93	53812.43
628.12	53593.29
628.32	54084.81
628.51	53900.49
628.71	54107.33
628.90	54322.37
629.10	54238.40
629.30	53849.29
629.49	54197.44
629.69	53912.78
629.88	54312.13
630.08	54834.36
630.27	54346.95
630.47	53855.43
630.66	54045.90
630.86	54277.32
631.05	53707.98
631.25	54641.85
631.44	54383.81
631.64	54072.52
631.84	53994.70
632.03	54731.96
632.23	54344.90
632.42	54478.02
632.62	54047.94
632.81	53789.90
633.01	54361.28
633.20	54480.06
633.40	54367.43
633.59	54459.58
633.79	53935.30
633.98	54156.49
634.18	54459.58
634.37	54281.41
634.57	54494.40
634.76	54813.88
634.96	54713.53
635.15	54627.52
635.35	54162.63
635.54	53740.75
635.74	54351.04
635.93	54047.94
636.13	54621.37
636.32	54891.71
636.52	53990.60
636.71	54527.17
636.91	54461.63
637.10	54623.42
637.30	54594.75
637.49	54445.25
637.69	54252.74
637.88	55342.26
638.08	54840.51
638.27	54598.85
638.46	54172.87
638.66	54514.88
638.85	54457.54
639.05	54408.39
639.24	55112.89
639.44	54400.19
639.63	54727.87
639.83	54867.13
640.02	54396.10
640.22	54789.31
640.41	55041.21
640.61	54420.67
640.80	55235.77
640.99	54559.94
641.19	55008.44
641.38	54699.20
641.58	54713.53
641.77	54613.18
641.97	54600.89
642.16	54924.47
642.36	55477.43
642.55	55317.68
642.74	54629.57
642.94	55856.30
643.13	54596.80
643.33	54932.67
643.52	54979.77
643.72	55162.04
643.91	54670.53
644.10	55110.84
644.30	55047.35
644.49	55078.07
644.69	55250.10
644.88	54848.70
645.08	54817.98
645.27	55057.59
645.46	54736.06
645.66	55723.18
645.85	55284.92
646.05	55147.70
646.24	55246.00
646.43	55336.12
646.63	55164.09
646.82	55489.71
647.02	55301.30
647.21	55073.98
647.40	55053.50
647.60	55415.99
647.79	55405.75
647.99	55821.48
648.18	55237.81
648.37	55667.89
648.57	55731.37
648.76	55547.06
648.96	55157.94
649.15	56091.82
649.34	55852.20
649.54	55663.79
649.73	55313.59
649.92	55530.67
650.12	55438.51
650.31	55641.26
650.51	55454.90
650.70	56313.00
650.89	55764.14
651.09	56284.33
651.28	55889.07
651.47	55911.59
651.67	56024.23
651.86	56177.83
652.06	55600.30
652.25	56130.73
652.44	55809.20
652.64	55504.05
652.83	55811.24
653.02	55620.78
653.22	55925.93
653.41	56067.24
653.60	55669.93
653.80	55782.57
653.99	56124.58
654.18	55354.55
654.38	55762.09
654.57	55852.20
654.76	56114.34
654.96	55977.13
655.15	56034.47
655.34	55639.22
655.54	55538.86
655.73	56315.04
655.92	56427.68
656.12	56106.15
656.31	56163.50
656.50	55952.55
656.70	56482.98
656.89	55743.66
657.08	56530.08
657.28	56132.78
657.47	56112.30
657.66	56632.48
657.86	56288.42
658.05	56439.97
658.24	56579.23
658.43	56034.47
658.63	56480.93
658.82	56581.28
659.01	56716.45
659.21	56685.73
659.40	56767.65
659.59	56577.18
659.79	56542.37
659.98	56698.01
660.17	56716.45
660.36	56738.97
660.56	56562.85
660.75	56677.54
660.94	56564.90
661.14	56163.50
661.33	56511.65
661.52	56538.27
661.71	56614.05
661.91	56165.54
662.10	56304.80
662.29	56857.76
662.49	56605.86
662.68	56544.42
662.87	56499.36
663.06	56816.80
663.26	56947.87
663.45	56800.41
663.64	56698.01
663.83	56929.44
664.03	57185.43
664.22	56476.83
664.41	56702.11
664.60	56591.52
664.80	56288.42
664.99	56681.63
665.18	56460.45
665.37	56824.99
665.57	56911.00
665.76	56644.77
665.95	57048.22
666.14	56724.64
666.34	56386.72
666.53	57216.15
666.72	56560.80
666.91	56464.55
667.11	56128.68
667.30	56333.48
667.49	56736.93
667.68	56194.21
667.87	56659.10
668.07	56530.08
668.26	56583.33
668.45	56593.57
668.64	56630.43
668.84	56958.11
669.03	56911.00
669.22	56370.34
669.41	56820.89
669.60	56726.69
669.80	56943.77
669.99	57021.59
670.18	57119.90
670.37	56845.47
670.57	56992.92
670.76	56831.13
670.95	56687.78
671.14	57435.28
671.33	56575.14
671.53	56978.59
671.72	57005.21
671.91	56984.73
672.10	56620.19
672.29	56882.33
672.48	56534.18
672.68	57351.32
672.87	56429.73
673.06	56915.10
673.25	56599.71
673.44	56927.39
673.64	56851.61
673.83	56673.44
674.02	56718.49
674.21	56472.74
674.40	57150.62
674.59	56736.93
674.79	56538.27
674.98	56734.88
675.17	56503.46
675.36	56994.97
675.55	56816.80
675.74	56659.10
675.94	56808.61
676.13	57027.74
676.32	57234.58
676.51	57046.17
676.70	56792.22
676.89	56745.12
677.08	56919.20
677.28	56597.66
677.47	56870.04
677.66	56665.25
677.85	56720.54
678.04	57025.69
678.23	57248.92
678.42	56976.54
678.62	56534.18
678.81	57087.13
679.00	56714.40
679.19	57195.67
679.38	57187.48
679.57	56837.28
679.76	56972.44
679.96	57099.42
680.15	56634.53
680.34	56911.00
680.53	56448.16
680.72	56997.02
680.91	56888.48
681.10	56095.91
681.29	56642.72
681.48	56517.79
681.68	56861.85
681.87	56521.89
682.06	56247.46
682.25	56388.77
682.44	56202.41
682.63	56491.17
682.82	56511.65
683.01	56255.65
683.20	56267.94
683.39	56454.31
683.59	56241.32
683.78	56198.31
683.97	56108.20
684.16	56206.50
684.35	56247.46
684.54	56388.77
684.73	56319.14
684.92	56245.41
685.11	56030.38
685.30	56206.50
685.49	56732.83
685.69	56272.04
685.88	56556.70
686.07	55768.24
686.26	56235.17
686.45	56171.69
686.64	56261.80
686.83	56399.01
687.02	56186.02
687.21	56603.81
687.40	56122.54
687.59	56183.97
687.78	56470.69
687.97	55884.97
688.16	55563.44
688.35	56220.84
688.54	56042.66
688.74	56044.71
688.93	56112.30
689.12	55891.12
689.31	55792.81
689.50	55940.27
689.69	55784.62
689.88	55686.32
690.07	55706.80
690.26	55778.48
690.45	56136.87
690.64	55788.72
690.83	55801.00
691.02	55321.78
691.21	55618.74
691.40	55661.74
691.59	55618.74
691.78	55641.26
691.97	55641.26
692.16	55721.13
692.35	55612.59
692.54	55508.14
692.73	55504.05
692.92	55555.25
693.11	55426.23
693.30	55239.86
693.49	55440.56
693.68	55346.36
693.87	55305.40
694.06	54963.39
694.25	55614.64
694.44	55053.50
694.63	55256.24
694.82	55473.33
695.01	55338.16
695.20	54867.13
695.39	54691.01
695.58	55276.72
695.77	54916.28
695.96	54838.46
696.15	55176.37
696.34	54764.73
696.53	55151.80
696.72	55063.74
696.91	54883.51
697.10	55280.82
697.29	54949.05
697.48	54928.57
697.67	54441.15
697.86	54703.29
698.05	54492.35
698.24	55051.45
698.43	54435.01
698.62	55131.32
698.81	54123.72
699.00	55006.39
699.19	54285.51
699.38	54555.84
699.57	54244.55
699.76	55149.75
699.95	54287.56
700.14	54162.63
700.32	54662.33
700.51	54504.64
700.70	54582.46
700.89	54613.18
701.08	54006.98
701.27	54502.59
701.46	54860.99
701.65	54015.18
701.84	54414.53
702.03	53945.54
702.22	53882.06
702.41	54248.64
702.60	54398.15
702.79	54166.73
702.98	54117.57
703.17	54348.99
703.35	53730.51
703.54	53888.20
703.73	54371.52
703.92	53982.41
704.11	53693.64
704.30	54056.14
704.49	53519.57
704.68	53728.46
704.87	53880.01
705.06	53458.13
705.25	53107.93
705.43	53527.76
705.62	53732.56
705.81	53560.53
706.00	54011.08
706.19	53060.82
706.38	53396.69
706.57	53494.99
706.76	53523.66
706.95	53257.43
707.14	53132.50
707.32	53048.53
707.51	53042.39
707.70	53298.39
707.89	53368.02
708.08	53066.97
708.27	53251.28
708.46	53607.63
708.65	52921.56
708.84	53050.58
709.02	53019.86
709.21	53109.97
709.40	52233.44
709.59	52722.91
709.78	52735.20
709.97	52954.33
710.16	52372.70
710.34	52929.75
710.53	53052.63
710.72	52538.59
710.91	52460.77
711.10	52630.75
711.29	52712.67
711.48	52991.19
711.66	52315.36
711.85	52819.16
712.04	52325.60
712.23	52376.80
712.42	52514.01
712.61	52454.62
712.80	52075.75
712.98	52794.59
713.17	52403.42
713.36	52393.18
713.55	52249.83
713.74	52233.44
713.93	52059.37
714.11	52360.42
714.30	51967.21
714.49	52227.30
714.68	52073.70
714.87	52325.60
715.06	52110.56
715.24	52217.06
715.43	51948.78
715.62	51305.71
715.81	52190.44
716.00	52098.28
716.18	51887.34
716.37	51483.89
716.56	51248.37
716.75	51436.78
716.94	51557.61
717.12	51516.65
717.31	51778.79
717.50	51444.98
717.69	51240.18
717.88	51494.13
718.06	51457.26
718.25	52061.41
718.44	51019.00
718.63	51264.75
718.82	50953.46
719.00	51262.71
719.19	50896.12
719.38	51356.91
719.57	50728.19
719.76	50322.69
719.94	50767.10
720.13	50574.59
720.32	50504.96
720.51	50513.15
720.69	51102.96
720.88	50208.00
721.07	50257.15
721.26	49892.61
721.44	50257.15
721.63	50380.03
721.82	49761.54
722.01	50029.83
722.20	50044.16
722.38	49839.37
722.57	49540.36
722.76	49814.79
722.95	49665.29
723.13	49411.34
723.32	49583.37
723.51	49282.32
723.70	49237.26
723.88	49501.45
724.07	49001.75
724.26	49591.56
724.44	48981.27
724.63	49394.96
724.82	49464.59
725.01	49184.02
725.19	49243.41
725.38	48710.94
725.57	49153.30
725.76	49405.20
725.94	49120.53
726.13	48805.14
726.32	49280.27
726.51	48817.43
726.69	49419.53
726.88	48952.60
727.07	49009.94
727.25	48807.19
727.44	48717.08
727.63	48538.91
727.82	48577.82
728.00	48872.73
728.19	48401.69
728.38	48817.43
728.56	48106.79
728.75	49093.91
728.94	48682.27
729.12	48870.68
729.31	48612.63
729.50	48807.19
729.69	48637.21
729.87	48379.17
730.06	48456.99
730.25	48549.15
730.43	48942.36
730.62	48020.77
730.81	48624.92
730.99	48317.73
731.18	48717.08
731.37	48645.40
731.55	48493.85
731.74	48444.70
731.93	48026.92
732.11	48354.59
732.30	48108.83
732.49	48354.59
732.67	48616.73
732.86	48348.45
733.05	48330.01
733.23	47713.58
733.42	48227.62
733.61	48485.66
733.79	48778.52
733.98	48579.87
734.17	48366.88
734.35	48524.57
734.54	48346.40
734.73	48323.87
734.91	48102.69
735.10	48182.56
735.29	48289.06
735.47	48284.96
735.66	48055.59
735.84	48309.53
736.03	48100.64
736.22	48086.31
736.40	47529.26
736.59	47797.54
736.78	47547.69
736.96	47623.47
737.15	47519.02
737.33	48014.63
737.52	47684.90
737.71	47263.02
737.89	47439.15
738.08	47371.57
738.27	47125.81
738.45	47768.87
738.64	47820.07
738.82	47508.78
739.01	47521.07
739.20	47658.28
739.38	47729.96
739.57	47838.50
739.75	47324.46
739.94	47156.53
740.13	46941.49
740.31	47244.59
740.50	47277.36
740.68	47336.75
740.87	47846.69
741.06	47643.94
741.24	47111.47
741.43	46886.20
741.61	47314.22
741.80	46769.46
741.99	46818.61
742.17	47299.89
742.36	46933.30
742.54	46693.69
742.73	46818.61
742.91	47156.53
743.10	46843.19
743.29	47058.23
743.47	46771.51
743.66	46628.15
743.84	46791.99
744.03	46748.98
744.21	46273.85
744.40	47318.32
744.59	46419.26
744.77	46751.03
744.96	46390.59
745.14	46163.26
745.33	46499.13
745.51	46363.96
745.70	46445.88
745.88	46142.78
746.07	46302.53
746.26	46282.05
746.44	46441.79
746.63	46146.88
746.81	46495.03
747.00	45929.80
747.18	46581.05
747.37	45911.36
747.55	46142.78
747.74	46353.72
747.92	45878.60
748.11	46177.60
748.29	45636.94
748.48	45954.37
748.66	45761.86
748.85	45751.62
749.03	45937.99
749.22	45813.06
749.41	45798.73
749.59	45641.03
749.78	45372.75
749.96	45315.40
750.15	45790.53
750.33	45663.56
750.52	45129.04
750.70	45565.26
750.89	45399.37
751.07	45112.66
751.26	45610.31
751.44	45387.08
751.63	44928.34
751.81	44936.53
752.00	45120.85
752.18	45389.13
752.37	45342.03
752.55	44881.24
752.74	45155.66
752.92	44703.06
753.10	44877.14
753.29	44860.76
753.47	44973.39
753.66	44707.16
753.84	44756.31
754.03	44848.47
754.21	44461.40
754.40	45086.03
754.58	45008.21
754.77	44846.42
754.95	44516.70
755.14	44709.21
755.32	44498.26
755.51	44248.41
755.69	44496.22
755.88	44193.12
756.06	44514.65
756.24	44502.36
756.43	44016.99
756.61	44043.62
756.80	43930.98
756.98	43617.64
757.17	43969.89
757.35	44080.48
757.54	43879.78
757.72	44135.77
757.90	43957.60
758.09	43703.65
758.27	43576.68
758.46	43521.38
758.64	43709.80
758.83	43908.45
759.01	44049.76
759.19	43634.02
759.38	43863.39
759.56	43717.99
759.75	43877.73
759.93	43887.97
760.12	43324.78
760.30	43441.51
760.48	42915.19
760.67	43203.95
760.85	43445.61
761.04	43318.64
761.22	43107.69
761.40	43107.69
761.59	43232.62
761.77	42896.75
761.96	43171.18
762.14	42851.70
762.32	42911.09
762.51	42640.76
762.69	42743.16
762.88	42941.81
763.06	42816.88
763.24	42644.85
763.43	42857.84
763.61	42601.85
763.80	42534.26
763.98	42489.21
764.16	42599.80
764.35	42644.85
764.53	42892.66
764.72	42294.65
764.90	42251.64
765.08	42130.81
765.27	42255.74
765.45	42089.85
765.63	41926.02
765.82	42601.85
766.00	42108.29
766.18	41981.31
766.37	42173.82
766.55	42018.17
766.74	42243.45
766.92	41874.82
767.10	42059.13
767.29	42104.19
767.47	41708.93
767.65	41653.64
767.84	41631.11
768.02	42026.37
768.20	41244.04
768.39	41919.87
768.57	41631.11
768.75	41663.88
768.94	41694.60
769.12	41401.74
769.30	41055.63
769.49	41444.74
769.67	41166.22
769.85	40832.40
770.04	41000.33
770.22	41035.15
770.40	41102.73
770.59	41203.08
770.77	41164.17
770.95	41145.74
771.14	40723.86
771.32	40940.94
771.50	40469.91
771.69	40916.37
771.87	40740.24
772.05	40908.18
772.24	40285.59
772.42	40742.29
772.60	40519.06
772.78	40396.18
772.97	40555.93
773.15	40310.17
773.33	40230.30
773.52	39894.43
773.70	40326.55
773.88	40469.91
774.07	40693.14
774.25	40648.08
774.43	40306.07
774.61	40224.15
774.80	40914.32
774.98	40588.69
775.16	40752.53
775.34	40586.64
775.53	40320.41
775.71	40877.46
775.89	40469.91
776.08	40633.75
776.26	40840.59
776.44	40406.42
776.62	40523.16
776.81	40383.90
776.99	40818.07
777.17	40365.46
777.35	40316.31
777.54	40809.87
777.72	40316.31
777.90	40408.47
778.08	40621.46
778.27	40482.20
778.45	40854.93
778.63	41076.11
778.81	40791.44
779.00	41166.22
779.18	41119.12
779.36	41141.64
779.54	40742.29
779.73	40291.74
779.91	40631.70
780.09	41145.74
780.27	41201.04
780.46	40785.30
780.64	41287.05
780.82	41194.89
781.00	40725.91
781.19	41180.56
781.37	41340.30
781.55	41235.85
781.73	41282.95
781.91	40881.55
782.10	40998.29
782.28	41125.26
782.46	41278.86
782.64	41362.82
782.82	41194.89
783.01	41555.33
783.19	41706.88
783.37	41459.08
783.55	41018.77
783.74	41733.51
783.92	41022.86
784.10	41778.56
784.28	41778.56
784.46	41051.53
784.64	41366.92
784.83	41297.29
785.01	41764.23
785.19	41469.32
785.37	41420.17
785.55	41645.44
785.74	40996.24
785.92	41250.19
786.10	41186.70
786.28	41479.56
786.46	41123.21
786.64	40453.53
786.83	41233.80
787.01	40791.44
787.19	41481.61
787.37	41301.39
787.55	40883.60
787.74	40336.79
787.92	41067.92
788.10	40752.53
788.28	40330.65
788.46	40689.04
788.64	40084.89
788.82	41008.53
789.01	40783.25
789.19	40564.12
789.37	40273.31
789.55	40629.65
789.73	39982.49
789.91	40136.09
790.09	40068.51
790.28	40107.42
790.46	39671.20
790.64	40381.85
790.82	39902.62
791.00	39751.07
791.18	39800.22
791.36	39867.81
791.55	39789.98
791.73	39767.46
791.91	39474.60
792.09	39650.72
792.27	39400.87
792.45	39198.12
792.63	39609.76
792.81	39245.23
793.00	39378.34
793.18	39157.16
793.36	38958.51
793.54	38872.49
793.72	38741.42
793.90	38749.62
794.08	38565.30
794.26	38643.12
794.44	38389.17
794.62	38557.11
794.81	38626.74
794.99	38436.28
795.17	38385.08
795.35	38303.16
795.53	38573.49
795.71	38282.68
795.89	38524.34
796.07	37752.26
796.25	37549.51
796.43	37408.20
796.61	37520.84
796.80	37762.50
796.98	37408.20
797.16	37021.13
797.34	37539.27
797.52	37191.11
797.70	37580.23
797.88	37313.99
798.06	36857.29
798.24	37232.07
798.42	37092.81
798.60	37049.80
798.78	36736.46
798.96	37006.80
799.14	36591.06
799.32	36736.46
799.51	36484.56
799.69	36613.59
799.87	36382.16
800.05	36134.36
800.23	36474.32
800.41	36384.21
800.59	36097.50
800.77	36107.74
800.95	35646.94
801.13	35993.05
801.31	35802.59
801.49	35591.65
801.67	35167.72
801.85	35755.49
802.03	35368.42
802.21	35499.49
802.39	35081.70
802.57	35274.21
802.75	35507.68
802.93	35161.58
803.11	35128.81
803.29	34858.48
803.47	34778.61
803.65	34569.71
803.83	34981.35
804.01	34844.14
804.19	34557.42
804.37	34534.90
804.55	34293.24
804.73	34285.04
804.91	34276.85
805.09	34270.71
805.27	34299.38
805.45	34545.14
805.63	34100.73
805.81	34278.90
805.99	34262.52
806.17	34074.10
806.35	33932.79
806.53	33496.58
806.71	33828.35
806.89	33576.45
807.07	33584.64
807.25	33873.40
807.43	33353.22
807.61	33682.94
807.79	33402.37
807.97	32998.92
808.15	33177.09
808.33	33134.09
808.51	33162.76
808.69	33129.99
808.87	32755.21
809.05	33089.03
809.23	32333.33
809.41	32558.61
809.59	32298.52
809.77	32685.58
809.95	32417.30
810.13	32441.87
810.31	32249.36
810.49	32230.93
810.67	32374.29
810.84	32699.92
811.02	32142.87
811.20	32245.27
811.38	31878.68
811.56	31825.43
811.74	32046.62
811.92	31729.18
812.10	31956.50
812.28	32288.28
812.46	32022.04
812.64	31811.10
812.82	31381.03
813.00	31352.35
813.18	31594.01
813.36	31370.79
813.53	31247.91
813.71	31284.77
813.89	31239.72
814.07	31157.80
814.25	31270.43
814.43	30692.91
814.61	30801.45
814.79	30948.90
814.97	31460.90
815.15	30985.77
815.33	30717.48
815.50	30645.80
815.68	30883.37
815.86	31024.68
816.04	30617.13
816.22	30678.57
816.40	30615.08
816.58	30723.63
816.76	29994.55
816.94	30524.97
817.11	30402.10
817.29	30158.39
817.47	30342.70
817.65	30125.62
817.83	29967.93
818.01	29845.05
818.19	29881.91
818.37	30111.28
818.54	29914.68
818.72	29969.97
818.90	29961.78
819.08	29449.79
819.26	29769.27
819.44	29544.00
819.62	29554.24
819.80	29599.29
819.97	29697.59
820.15	29836.86
820.33	29492.80
820.51	29693.50
820.69	29191.75
820.87	29394.50
821.05	29457.98
821.22	29214.27
821.40	29281.86
821.58	29103.68
821.76	29148.74
821.94	29285.95
822.12	28745.29
822.29	29427.26
822.47	29003.33
822.65	29095.49
822.83	29208.13
823.01	29009.48
823.19	28931.65
823.36	28790.34
823.54	28343.89
823.72	28554.83
823.90	28763.72
824.08	28243.54
824.25	28522.06
824.43	28165.71
824.61	28067.41
824.79	28751.43
824.97	28145.23
825.15	28558.92
825.32	28022.36
825.50	28515.92
825.68	27905.62
825.86	28466.77
826.04	28333.65
826.21	27868.76
826.39	28315.22
826.57	27737.69
826.75	27778.65
826.93	27682.39
827.10	28051.03
827.28	28018.26
827.46	28065.36
827.64	28038.74
827.81	27539.04
827.99	27659.87
828.17	27485.79
828.35	27229.79
828.53	27754.07
828.70	27240.03
828.88	27233.89
829.06	27303.52
829.24	27842.14
829.41	27483.74
829.59	27539.04
829.77	27084.39
829.95	27213.41
830.12	27217.50
830.30	27203.17
830.48	27168.35
830.66	27186.79
830.84	27192.93
831.01	26801.77
831.19	27149.92
831.37	27072.10
831.55	26924.65
831.72	26941.03
831.90	26646.12
832.08	26842.73
832.25	26719.85
832.43	26506.86
832.61	26324.59
832.79	26529.39
832.96	26435.18
833.14	26721.90
833.32	27014.76
833.50	26873.45
833.67	26693.22
833.85	26672.74
834.03	26375.79
834.20	26592.87
834.38	26654.31
834.56	26535.53
834.74	26078.83
834.91	26269.30
835.09	26250.86
835.27	26101.36
835.44	26025.59
835.62	25575.03
835.80	25880.18
835.98	26166.90
836.15	25747.06
836.33	26013.30
836.51	26013.30
836.68	25927.28
836.86	25886.32
837.04	25632.38
837.21	25898.61
837.39	25714.30
837.57	25958.00
837.75	25732.73
837.92	25515.64
838.10	25591.42
838.28	25577.08
838.45	25779.83
838.63	25310.85
838.81	25306.75
838.98	25187.97
839.16	25550.46
839.34	25398.91
839.51	25425.53
839.69	24952.45
839.87	25112.19
840.04	25132.67
840.22	25198.21
840.40	24876.68
840.57	25138.82
840.75	25044.61
840.93	25065.09
841.10	24868.48
841.28	25384.57
841.46	25151.10
841.63	25187.97
841.81	25042.56
841.98	24960.64
842.16	24878.72
842.34	24819.33
842.51	24618.63
842.69	25214.59
842.87	24770.18
843.04	24954.50
843.22	24458.89
843.40	24563.34
843.57	24495.75
843.75	24817.29
843.92	24714.89
844.10	24233.61
844.28	24571.53
844.45	24600.20
844.63	24583.82
844.81	24479.37
844.98	24481.42
845.16	24551.05
845.33	24698.50
845.51	24364.68
845.69	24438.41
845.86	24405.64
846.04	24188.56
846.21	24350.35
846.39	23817.88
846.57	23883.41
846.74	24295.05
846.92	24061.58
847.09	23948.95
847.27	23920.28
847.45	23791.25
847.62	24362.64
847.80	24395.40
847.97	24170.13
848.15	24024.72
848.32	23623.32
848.50	23602.84
848.68	23561.88
848.85	23735.96
849.03	23451.29
849.20	23955.09
849.38	23594.65
849.56	23598.74
849.73	23375.52
849.91	23412.38
850.08	23793.30
850.26	23441.05
850.43	23305.88
850.61	23514.78
850.78	23213.73
850.96	23127.71
851.14	23213.73
851.31	23510.68
851.49	23133.86
851.66	23279.26
851.84	23357.08
852.01	23309.98
852.19	23084.70
852.36	23238.30
852.54	23099.04
852.71	23033.50
852.89	23043.74
853.07	23166.62
853.24	23078.56
853.42	22990.50
853.59	22892.19
853.77	23053.98
853.94	22845.09
854.12	23170.72
854.29	22640.29
854.47	22671.01
854.64	22992.55
854.82	22283.95
854.99	23049.89
855.17	22638.25
855.34	22820.52
855.52	22742.69
855.69	22683.30
855.87	22525.61
856.04	22288.04
856.22	22482.60
856.39	21935.79
856.57	22458.03
856.74	22271.66
856.92	22060.72
857.09	22269.61
857.27	22253.23
857.44	22372.01
857.62	22345.39
857.79	22144.69
857.97	22427.31
858.14	22412.97
858.32	22144.69
858.49	21915.31
858.67	21927.60
858.84	22394.54
859.02	22056.62
859.19	21819.06
859.37	21872.31
859.54	21991.09
859.72	21915.31
859.89	21974.70
860.06	22187.69
860.24	21954.22
860.41	22120.11
860.59	21708.47
860.76	21767.86
860.94	21651.13
861.11	21841.59
861.29	21597.88
861.46	21735.09
861.64	21475.00
861.81	21098.17
861.98	21526.20
862.16	21395.13
862.33	21296.83
862.51	21231.29
862.68	21569.21
862.86	21212.86
863.03	21046.97
863.21	21165.76
863.38	21462.71
863.55	21128.89
863.73	21341.88
863.90	21229.24
864.08	21118.65
864.25	21167.80
864.43	21120.70
864.60	21010.11
864.77	21073.60
864.95	21120.70
865.12	20672.20
865.30	20926.14
865.47	20664.00
865.64	20651.72
865.82	21051.07
865.99	20954.82
866.17	20674.24
866.34	20821.70
866.51	20598.47
866.69	20858.56
866.86	20836.03
867.04	20580.04
867.21	20731.59
867.38	20731.59
867.56	20408.01
867.73	20328.14
867.91	20362.95
868.08	20391.62
868.25	20424.39
868.43	20252.36
868.60	20297.42
868.78	20121.29
868.95	20440.78
869.12	20092.62
869.30	20262.60
869.47	20371.15
869.64	20158.16
869.82	20367.05
869.99	20070.09
870.16	20195.02
870.34	20025.04
870.51	20367.05
870.69	19711.70
870.86	19920.59
871.03	19769.04
871.21	19832.53
871.38	20022.99
871.55	19697.36
871.73	19642.07
871.90	19930.83
872.07	19640.02
872.25	19539.67
872.42	19388.12
872.59	19498.71
872.77	19472.09
872.94	19314.39
873.11	19396.31
873.29	19386.07
873.46	19375.83
873.63	19500.76
873.81	19093.21
873.98	19320.54
874.15	19242.71
874.33	18962.14
874.50	19048.16
874.67	18996.96
874.85	19183.32
875.02	18960.09
875.19	18777.83
875.37	18966.24
875.54	18771.68
875.71	18882.27
875.88	18757.35
876.06	18726.63
876.23	18570.98
876.40	18743.01
876.58	18532.07
876.75	18468.58
876.92	18493.16
877.10	18669.28
877.27	18439.91
877.44	18378.47
877.61	18536.17
877.79	18271.98
877.96	18218.73
878.13	18208.49
878.31	18179.82
878.48	18249.45
878.65	18138.86
878.82	17954.54
879.00	18028.27
879.17	18003.69
879.34	18151.15
879.51	17655.54
879.69	17800.94
879.86	17729.27
880.03	17807.09
880.21	17764.08
880.38	17598.20
880.55	17663.73
880.72	17653.49
880.90	17493.75
881.07	17919.73
881.24	17483.51
881.41	17577.72
881.59	17575.67
881.76	17575.67
881.93	17532.66
882.10	17422.07
882.28	17522.42
882.45	17700.59
882.62	17655.54
882.79	17555.19
882.96	17157.88
883.14	17211.13
883.31	17270.52
883.48	17231.61
883.65	17473.27
883.83	17422.07
884.00	17282.81
884.17	17321.72
884.34	17430.26
884.51	17100.54
884.69	17266.42
884.86	17209.08
885.03	17231.61
885.20	16842.50
885.38	17168.12
885.55	17141.50
885.72	17051.39
885.89	16912.13
886.06	16887.55
886.24	16924.41
886.41	16760.58
886.58	16912.13
886.75	17237.75
886.92	16588.55
887.10	16983.80
887.27	16740.10
887.44	16701.19
887.61	16854.78
887.78	16756.48
887.95	16852.73
888.13	16627.46
888.30	16748.29
888.47	16617.22
888.64	16453.38
888.81	16654.08
888.99	16713.47
889.16	16465.67
889.33	16385.80
889.50	16250.63
889.67	16406.28
889.84	16396.04
890.01	16293.64
890.19	16250.63
890.36	16365.32
890.53	15984.40
890.70	16383.75
890.87	16154.38
891.04	16043.79
891.22	16060.17
891.39	15886.09
891.56	15961.87
891.73	16072.46
891.90	15906.57
892.07	15855.37
892.24	15890.19
892.42	15845.13
892.59	15752.98
892.76	15775.50
892.93	15779.60
893.10	16060.17
893.27	15785.74
893.44	15591.19
893.61	15884.05
893.79	15947.53
893.96	15587.09
894.13	15826.70
894.30	15877.90
894.47	15705.87
894.64	15769.36
894.81	15712.02
894.98	15699.73
895.15	15714.06
895.33	15429.40
895.50	15523.60
895.67	15793.94
895.84	15591.19
896.01	15677.20
896.18	15394.58
896.35	15843.09
896.52	15615.76
896.69	15609.62
896.86	15585.04
897.04	15742.74
897.21	15456.02
897.38	15564.56
897.55	15204.12
897.72	15691.54
897.89	15769.36
898.06	15435.54
898.23	15480.60
898.40	15623.95
898.57	15511.32
898.74	15376.15
898.91	15480.60
899.08	15421.20
899.26	15425.30
899.43	15712.02
899.60	15075.10
899.77	15509.27
899.94	15695.63
900.11	15429.40
900.28	15304.47
900.45	15347.48
900.62	15257.37
900.79	15531.80
900.96	15456.02
901.13	15421.20
901.30	15345.43
901.47	15333.14
901.64	15605.52
901.81	15398.68
901.98	15478.55
902.15	15384.34
902.32	15150.87
902.49	15494.93
902.66	15521.56
902.83	15435.54
903.01	15435.54
903.18	15329.05
903.35	15322.90
903.52	15120.15
903.69	15533.84
903.86	15449.88
904.03	15367.96
904.20	15343.38
904.37	15501.08
904.54	15312.66
904.71	15259.42
904.88	15343.38
905.05	14997.28
905.22	15220.50
905.39	15447.83
905.56	15167.26
905.73	15175.45
905.90	15283.99
906.07	15490.84
906.24	15288.09
906.41	15329.05
906.58	15320.85
906.75	15144.73
906.92	15216.41
907.09	15263.51
907.26	15292.18
907.43	15105.82
907.60	15042.33
907.77	15574.80
907.93	15236.89
908.10	15355.67
908.27	15185.69
908.44	15277.85
908.61	14919.45
908.78	15087.39
908.95	15283.99
909.12	15228.70
909.29	15204.12
909.46	15007.52
909.63	15103.77
909.80	15181.59
909.97	15114.01
910.14	15263.51
910.31	15216.41
910.48	14956.32
910.65	15152.92
910.82	14972.70
910.99	14962.46
911.16	14913.31
911.33	14882.59
911.50	14892.83
911.66	14726.94
911.83	15179.54
912.00	14845.73
912.17	14907.16
912.34	14862.11
912.51	14815.01
912.68	14837.53
912.85	14763.81
913.02	14858.01
913.19	14585.63
913.36	14780.19
913.53	14915.36
913.70	14505.76
913.86	14821.15
914.03	14765.85
914.20	14694.18
914.37	14794.53
914.54	14450.47
914.71	14485.28
914.88	14552.87
915.05	14315.30
915.22	14190.38
915.39	14507.81
915.55	14405.41
915.72	14075.69
915.89	14151.46
916.06	13958.96
916.23	14085.93
916.40	14153.51
916.57	14122.79
916.74	14202.66
916.91	13846.32
917.07	13840.17
917.24	13899.56
917.41	13748.01
917.58	13877.04
917.75	13752.11
917.92	13737.77
918.09	13791.02
918.26	13657.90
918.42	13688.62
918.59	13625.14
918.76	13504.31
918.93	13444.91
919.10	13360.95
919.27	13285.17
919.44	13594.42
919.60	13522.74
919.77	13260.60
919.94	13274.93
920.11	13121.34
920.28	13092.66
920.45	13303.60
920.61	13254.45
920.78	13133.62
920.95	13203.25
921.12	13188.92
921.29	12973.88
921.46	12844.86
921.62	12861.24
921.79	12908.35
921.96	12869.44
922.13	12644.16
922.30	12461.89
922.47	12619.58
922.63	12523.33
922.80	12734.27
922.97	12406.59
923.14	12420.93
923.31	12709.69
923.47	12367.68
923.64	12545.86
923.81	12345.16
923.98	12437.31
924.15	12226.37
924.32	12154.69
924.48	12248.90
924.65	12224.33
924.82	12062.54
924.99	11941.71
925.15	12062.54
925.32	12164.93
925.49	12093.26
925.66	11917.13
925.83	11849.55
925.99	12037.96
926.16	11802.44
926.33	11788.11
926.50	11579.22
926.67	11515.73
926.83	11468.62
927.00	11513.68
927.17	11411.28
927.34	11308.88
927.50	11290.45
927.67	11575.12
927.84	11347.79
928.01	11431.76
928.17	11386.71
928.34	11116.37
928.51	10901.34
928.68	11087.70
928.84	11128.66
929.01	10729.31
929.18	10833.75
929.35	10776.41
929.51	10901.34
929.68	10780.51
929.85	10698.59
930.02	10676.06
930.18	10575.71
930.35	10684.25
930.52	10602.33
930.69	10815.32
930.85	10430.30
931.02	10370.91
931.19	10276.71
931.36	10133.35
931.52	10356.58
931.69	10334.05
931.86	10104.68
932.02	10141.54
932.19	9879.40
932.36	10202.98
932.53	10112.87
932.69	9938.79
932.86	9998.18
933.03	9828.20
933.19	9703.28
933.36	9791.34
933.53	9858.92
933.70	9604.97
933.86	9813.87
934.03	9774.95
934.20	9478.00
934.36	9758.57
934.53	9211.76
934.70	9410.42
934.86	9400.18
935.03	9277.30
935.20	9027.45
935.36	9140.08
935.53	8828.79
935.70	8990.58
935.86	9119.60
936.03	8783.74
936.20	8798.07
936.36	8660.86
936.53	8482.69
936.70	8593.28
936.86	8714.11
937.03	8497.02
937.20	8134.53
937.36	8370.05
937.53	8007.56
937.70	8066.95
937.86	8023.94
938.03	7755.66
938.20	8017.80
938.36	7589.77
938.53	7808.90
938.70	7667.60
938.86	7604.11
939.03	7270.29
939.20	7423.89
939.36	7356.30
939.53	7397.26
939.70	7417.74
939.86	7018.39
940.03	6950.81
940.19	6719.39
940.36	6748.06
940.53	6981.53
940.69	6651.80
940.86	6633.37
941.03	6459.29
941.19	6279.07
941.36	6487.96
941.52	6358.94
941.69	6377.37
941.86	6254.50
942.02	6129.57
942.19	6184.87
942.35	6045.60
942.52	6098.85
942.69	5824.42
942.85	5920.68
943.02	5969.83
943.18	5818.28
943.35	5812.14
943.52	5726.12
943.68	5805.99
943.85	5775.27
944.01	5728.17
944.18	5564.33
944.35	5793.70
944.51	5707.69
944.68	5394.35
944.84	5560.24
945.01	5515.18
945.17	5525.42
945.34	5515.18
945.51	5459.88
945.67	5431.21
945.84	5351.34
946.00	5201.84
946.17	5494.70
946.33	5255.09
946.50	5439.40
946.67	5341.10
946.83	5271.47
947.00	5556.14
947.16	5459.88
947.33	5306.29
947.49	5226.42
947.66	5326.77
947.82	5345.20
947.99	5255.09
948.16	5398.45
948.32	5296.05
948.49	5287.86
948.65	5443.50
948.82	5156.79
948.98	5173.17
949.15	5195.70
949.31	5427.12
949.48	5283.76
949.64	5289.90
949.81	5246.90
949.97	5203.89
950.14	5337.01
950.30	5269.42
950.47	5367.73
950.63	5359.53
950.80	5394.35
950.96	5322.67
951.13	5224.37
951.30	5384.11
951.46	5435.31
951.63	5328.81
951.79	5365.68
951.96	5353.39
952.12	5337.01
952.29	5394.35
952.45	5275.57
952.62	5294.00
952.78	5521.32
952.94	5275.57
953.11	5451.69
953.27	5289.90
953.44	5449.64
953.60	5435.31
953.77	5392.30
953.93	5361.58
954.10	5427.12
954.26	5365.68
954.43	5320.62
954.59	5492.65
954.76	5486.51
954.92	5523.37
955.09	5494.70
955.25	5375.92
955.42	5427.12
955.58	5496.75
955.75	5500.84
955.91	5470.12
956.07	5525.42
956.24	5486.51
956.40	5523.37
956.57	5582.76
956.73	5369.77
956.90	5484.46
957.06	5367.73
957.23	5355.44
957.39	5349.29
957.56	5457.84
957.72	5427.12
957.88	5371.82
958.05	5570.48
958.21	5668.78
958.38	5457.84
958.54	5459.88
958.71	5590.95
958.87	5431.21
959.03	5425.07
959.20	5558.19
959.36	5347.25
959.53	5351.34
959.69	5433.26
959.85	5388.21
960.02	5386.16
960.18	5400.49
960.35	5476.27
960.51	5662.63
960.68	5420.97
960.84	5359.53
961.00	5361.58
961.17	5328.81
961.33	5384.11
961.50	5425.07
961.66	5492.65
961.82	5414.83
961.99	5476.27
962.15	5486.51
962.31	5265.33
962.48	5445.55
962.64	5463.98
962.81	5418.93
962.97	5527.47
963.13	5377.97
963.30	5365.68
963.46	5402.54
963.62	5425.07
963.79	5339.05
963.95	5398.45
964.12	5437.36
964.28	5369.77
964.44	5326.77
964.61	5324.72
964.77	5371.82
964.93	5595.05
965.10	5230.51
965.26	5318.57
965.42	5439.40
965.59	5275.57
965.75	5392.30
965.92	5195.70
966.08	5476.27
966.24	5234.61
966.41	5246.90
966.57	5390.25
966.73	5330.86
966.90	5343.15
967.06	5357.49
967.22	5281.71
967.39	5267.38
967.55	5087.15
967.71	5189.55
967.88	5291.95
968.04	5218.22
968.20	5212.08
968.37	5162.93
968.53	5236.66
968.69	5136.31
968.85	5150.64
969.02	5117.87
969.18	5236.66
969.34	5048.24
969.51	5164.98
969.67	5158.83
969.83	5103.54
970.00	5185.46
970.16	5197.74
970.32	5091.25
970.48	5226.42
970.65	5095.35
970.81	5099.44
970.97	5097.39
971.14	4933.56
971.30	5064.63
971.46	4972.47
971.63	5150.64
971.79	5021.62
971.95	5048.24
972.11	4947.89
972.28	5148.59
972.44	5027.76
972.60	4853.69
972.76	4861.88
972.93	4935.60
973.09	5035.96
973.25	4966.32
973.42	4945.84
973.58	4792.25
973.74	4927.41
973.90	4890.55
974.07	4853.69
974.23	4921.27
974.39	4935.60
974.55	4956.08
974.72	4863.93
974.88	4722.62
975.04	4751.29
975.20	4878.26
975.37	4802.49
975.53	4644.79
975.69	4806.58
975.85	4773.82
976.01	4663.22
976.18	4667.32
976.34	4673.46
976.50	4833.21
976.66	4833.21
976.83	4904.89
976.99	4655.03
977.15	4681.66
977.31	4562.87
977.47	4730.81
977.64	4657.08
977.80	4591.55
977.96	4765.62
978.12	4589.50
978.29	4665.27
978.45	4569.02
978.61	4511.68
978.77	4523.96
978.93	4462.52
979.10	4423.61
979.26	4536.25
979.42	4601.79
979.58	4548.54
979.74	4526.01
979.91	4542.39
980.07	4452.28
980.23	4566.97
980.39	4421.56
980.55	4380.61
980.71	4452.28
980.88	4384.70
981.04	4396.99
981.20	4405.18
981.36	4403.13
981.52	4372.41
981.68	4272.06
981.85	4321.21
982.01	4390.84
982.17	4272.06
982.33	4329.41
982.49	4425.66
982.65	4358.08
982.82	4304.83
982.98	4345.79
983.14	4265.92
983.30	4243.39
983.46	4220.86
983.62	4204.48
983.79	4104.13
983.95	4206.53
984.11	4061.12
984.27	4132.80
984.43	4128.70
984.59	4052.93
984.75	4235.20
984.91	4157.38
985.08	4263.87
985.24	4100.03
985.40	4071.36
985.56	4091.84
985.72	4124.61
985.88	4227.01
986.04	4063.17
986.20	4016.07
986.37	4106.18
986.53	3952.58
986.69	3993.54
986.85	3958.72
987.01	3989.44
987.17	4014.02
987.33	4009.92
987.49	3942.34
987.65	4005.83
987.82	3827.65
987.98	3876.80
988.14	3948.48
988.30	3983.30
988.46	3964.87
988.62	3885.00
988.78	3919.81
988.94	3893.19
989.10	3794.89
989.26	3841.99
989.42	3835.85
989.59	3696.58
989.75	3823.56
989.91	3870.66
990.07	3663.82
990.23	3862.47
990.39	3764.17
990.55	3837.89
990.71	3717.06
990.87	3821.51
991.03	3821.51
991.19	3784.65
991.35	3686.34
991.51	3696.58
991.67	3745.73
991.83	3747.78
992.00	3647.43
992.16	3803.08
992.32	3792.84
992.48	3721.16
992.64	3686.34
992.80	3688.39
992.96	3680.20
993.12	3704.78
993.28	3776.45
993.44	3635.14
993.60	3717.06
993.76	3661.77
993.92	3624.90
994.08	3588.04
994.24	3735.50
994.40	3602.38
994.56	3489.74
994.72	3461.07
994.88	3399.63
995.04	3483.59
995.20	3510.22
995.36	3565.51
995.52	3575.75
995.68	3590.09
995.84	3485.64
996.00	3655.62
996.16	3397.58
996.32	3448.78
996.48	3418.06
996.64	3682.25
996.80	3391.44
996.96	3495.88
997.12	3397.58
997.28	3342.28
997.44	3321.81
997.60	3424.20
997.76	3373.00
997.92	3469.26
998.08	3385.29
998.24	3303.37
998.40	3379.15
998.56	3477.45
998.72	3203.02
998.88	3248.08
999.04	3280.85
999.20	3366.86
999.36	3295.18
999.52	3358.67
999.68	3368.91
999.84	3301.33
1000.00	3252.17
1000.16	3278.80
1000.32	3284.94
1000.48	3319.76
1000.64	3131.34
1000.80	3125.20
1000.95	3174.35
1001.11	3254.22
1001.27	3139.54
1001.43	3153.87
1001.59	3143.63
1001.75	3151.82
1001.91	3139.54
1002.07	3084.24
1002.23	3125.20
1002.39	3178.45
1002.55	3196.88
1002.71	3074.00
1002.87	3114.96
1003.03	3188.69
1003.19	3141.58
1003.34	3137.49
1003.50	3123.15
1003.66	3018.71
1003.82	3133.39
1003.98	3102.67
1004.14	3043.28
1004.30	3039.19
1004.46	3010.51
1004.62	3055.57
1004.78	2973.65
1004.94	2973.65
1005.09	3008.47
1005.25	3059.67
1005.41	3012.56
1005.57	2979.79
1005.73	2904.02
1005.89	2930.64
1006.05	3076.05
1006.21	2953.17
1006.37	2836.44
1006.52	2897.88
1006.68	2863.06
1006.84	2977.75
1007.00	2885.59
1007.16	2922.45
1007.32	2826.20
1007.48	2813.91
1007.64	2889.68
1007.79	2848.72
1007.95	2838.48
1008.11	2891.73
1008.27	2889.68
1008.43	2832.34
1008.59	2775.00
1008.75	2959.31
1008.91	2846.68
1009.06	2852.82
1009.22	2942.93
1009.38	2760.66
1009.54	2809.81
1009.70	2729.94
1009.86	2744.28
1010.01	2875.35
1010.17	2721.75
1010.33	2836.44
1010.49	2760.66
1010.65	2863.06
1010.81	2727.89
1010.96	2697.17
1011.12	2676.70
1011.28	2650.07
1011.44	2742.23
1011.60	2623.45
1011.76	2676.70
1011.91	2764.76
1012.07	2670.55
1012.23	2674.65
1012.39	2516.95
1012.55	2754.52
1012.71	2676.70
1012.86	2654.17
1013.02	2680.79
1013.18	2680.79
1013.34	2695.13
1013.50	2764.76
1013.65	2676.70
1013.81	2633.69
1013.97	2586.58
1014.13	2559.96
1014.29	2555.86
1014.44	2668.50
1014.60	2721.75
1014.76	2605.02
1014.92	2555.86
1015.07	2564.06
1015.23	2480.09
1015.39	2590.68
1015.55	2551.77
1015.71	2543.58
1015.86	2607.06
1016.02	2500.57
1016.18	2459.61
1016.34	2568.15
1016.49	2478.04
1016.65	2535.39
1016.81	2500.57
1016.97	2533.34
1017.12	2527.19
1017.28	2408.41
1017.44	2437.08
1017.60	2410.46
1017.75	2422.75
1017.91	2461.66
1018.07	2478.04
1018.23	2494.43
1018.38	2453.47
1018.54	2506.71
1018.70	2418.65
1018.86	2332.64
1019.01	2414.56
1019.17	2422.75
1019.33	2592.73
1019.49	2463.71
1019.64	2490.33
1019.80	2377.69
1019.96	2426.84
1020.12	2398.17
1020.27	2400.22
1020.43	2346.97
1020.59	2377.69
1020.74	2488.28
1020.90	2486.23
1021.06	2363.36
1021.22	2402.27
1021.37	2373.60
1021.53	2316.25
1021.69	2400.22
1021.84	2248.67
1022.00	2342.88
1022.16	2199.52
1022.31	2351.07
1022.47	2344.92
1022.63	2340.83
1022.79	2228.19
1022.94	2254.81
1023.10	2306.01
1023.26	2293.72
1023.41	2207.71
1023.57	2285.53
1023.73	2326.49
1023.88	2224.09
1024.04	2172.89
1024.20	2185.18
1024.35	2248.67
1024.51	2238.43
1024.67	2254.81
1024.82	2328.54
1024.98	2166.75
1025.14	2215.90
1025.29	2209.76
1025.45	2265.05
1025.61	2160.61
1025.76	2140.13
1025.92	2166.75
1026.08	2211.81
1026.23	2162.66
1026.39	2224.09
1026.55	2181.09
1026.70	2181.09
1026.86	2082.78
1027.02	2189.28
1027.17	2170.85
1027.33	2295.77
1027.48	2170.85
1027.64	2133.98
1027.80	2095.07
1027.95	2170.85
1028.11	2148.32
1028.27	2119.65
1028.42	2148.32
1028.58	2072.54
1028.73	2117.60
1028.89	2080.74
1029.05	2197.47
1029.20	2117.60
>>>>>End Processed Spectral Data<<<<<
