SpectraSuite Data File
++++++++++++++++++++++++++++++++++++
Date: Fri Jun 02 14:57:19 CEST 2017
User: INFO_000
Dark Spectrum Present: No
Reference Spectrum Present: No
Number of Sampled Component Spectra: 1
Spectrometers: USB4H00879
Integration Time (usec): 80000 (USB4H00879)
Spectra Averaged: 1 (USB4H00879)
Boxcar Smoothing: 0 (USB4H00879)
Correct for Electrical Dark: No (USB4H00879)
Strobe/Lamp Enabled: No (USB4H00879)
Correct for Detector Non-linearity: No (USB4H00879)
Correct for Stray Light: No (USB4H00879)
Number of Pixels in Processed Spectrum: 3648
>>>>>Begin Processed Spectral Data<<<<<
345.13	1286.12
345.34	1286.12
345.56	1286.12
345.78	1273.84
345.99	1298.41
346.21	1726.44
346.42	1720.29
346.64	1613.80
346.86	1832.93
347.07	1615.85
347.29	1755.11
347.50	1675.24
347.72	1671.14
347.94	1705.96
348.15	1597.42
348.37	1630.18
348.59	1665.00
348.80	1624.04
349.02	1814.50
349.23	1880.04
349.45	1857.51
349.67	1896.42
349.88	1845.22
350.10	1959.91
350.31	1898.47
350.53	1857.51
350.75	2009.06
350.96	1744.87
351.18	1927.14
351.39	1755.11
351.61	1759.21
351.82	1877.99
352.04	1839.08
352.26	1820.64
352.47	1884.13
352.69	2000.87
352.90	1699.81
353.12	1845.22
353.34	1851.36
353.55	1914.85
353.77	1851.36
353.98	1843.17
354.20	1847.27
354.41	1986.53
354.63	1925.09
354.85	1964.00
355.06	1896.42
355.28	1771.49
355.49	1925.09
355.71	1871.84
355.92	1841.12
356.14	1953.76
356.35	1859.56
356.57	1888.23
356.79	1970.15
357.00	1871.84
357.22	1912.80
357.43	1949.67
357.65	2007.01
357.86	1796.07
358.08	1826.79
358.29	1935.33
358.51	1935.33
358.72	1964.00
358.94	1943.52
359.16	1865.70
359.37	1937.38
359.59	1972.19
359.80	1978.34
360.02	1990.63
360.23	1959.91
360.45	1937.38
360.66	1992.67
360.88	1908.71
361.09	1902.56
361.31	2025.44
361.52	1918.95
361.74	2052.06
361.95	2107.36
362.17	1877.99
362.38	2047.97
362.60	2107.36
362.81	1990.63
363.03	1920.99
363.24	1976.29
363.46	2002.91
363.67	1949.67
363.89	1974.24
364.10	1957.86
364.32	1943.52
364.53	2150.37
364.75	1998.82
364.96	2068.45
365.18	2121.70
365.39	1982.43
365.61	1929.19
365.82	2052.06
366.04	2047.97
366.25	1986.53
366.47	2070.50
366.68	2060.26
366.90	2033.63
367.11	2076.64
367.33	2148.32
367.54	2023.39
367.76	2047.97
367.97	2154.46
368.19	2025.44
368.40	2072.54
368.62	2031.58
368.83	2015.20
369.05	2062.30
369.26	2035.68
369.48	2013.15
369.69	2060.26
369.91	2131.94
370.12	2060.26
370.33	2195.42
370.55	2027.49
370.76	2068.45
370.98	2172.89
371.19	2074.59
371.41	2031.58
371.62	2123.74
371.84	1941.47
372.05	2185.18
372.27	2082.78
372.48	2072.54
372.69	2052.06
372.91	2142.18
373.12	2121.70
373.34	2090.98
373.55	2117.60
373.77	2150.37
373.98	2103.26
374.20	2183.13
374.41	2291.68
374.62	2136.03
374.84	2117.60
375.05	2207.71
375.27	2142.18
375.48	2189.28
375.70	2181.09
375.91	2297.82
376.12	2287.58
376.34	2179.04
376.55	2213.85
376.77	2152.42
376.98	2160.61
377.19	2050.02
377.41	2166.75
377.62	2281.44
377.84	2258.91
378.05	2357.21
378.27	2260.96
378.48	2285.53
378.69	2410.46
378.91	2273.25
379.12	2185.18
379.34	2222.05
379.55	2312.16
379.76	2275.29
379.98	2312.16
380.19	2248.67
380.41	2197.47
380.62	2355.16
380.83	2201.57
381.05	2220.00
381.26	2463.71
381.47	2228.19
381.69	2289.63
381.90	2385.88
382.12	2291.68
382.33	2281.44
382.54	2299.87
382.76	2328.54
382.97	2322.40
383.19	2336.73
383.40	2320.35
383.61	2351.07
383.83	2215.90
384.04	2377.69
384.25	2418.65
384.47	2328.54
384.68	2295.77
384.89	2439.13
385.11	2342.88
385.32	2379.74
385.54	2338.78
385.75	2369.50
385.96	2385.88
386.18	2461.66
386.39	2422.75
386.60	2355.16
386.82	2451.42
387.03	2441.18
387.24	2502.62
387.46	2383.84
387.67	2469.85
387.88	2580.44
388.10	2465.75
388.31	2600.92
388.52	2541.53
388.74	2461.66
388.95	2519.00
389.16	2580.44
389.38	2447.32
389.59	2564.06
389.80	2557.91
390.02	2598.87
390.23	2559.96
390.44	2533.34
390.66	2580.44
390.87	2461.66
391.08	2572.25
391.30	2715.61
391.51	2615.26
391.72	2645.98
391.94	2650.07
392.15	2543.58
392.36	2621.40
392.58	2617.30
392.79	2662.36
393.00	2691.03
393.22	2768.85
393.43	2752.47
393.64	2801.62
393.85	2844.63
394.07	2656.22
394.28	2670.55
394.49	2738.13
394.71	2750.42
394.92	2738.13
395.13	2645.98
395.35	2828.24
395.56	2744.28
395.77	2865.11
395.98	2793.43
396.20	2799.57
396.41	2875.35
396.62	2906.07
396.84	2793.43
397.05	2715.61
397.26	2910.16
397.47	2875.35
397.69	2873.30
397.90	2940.88
398.11	2858.96
398.32	2916.31
398.54	2893.78
398.75	2893.78
398.96	2981.84
399.18	3010.51
399.39	2914.26
399.60	3010.51
399.81	2992.08
400.03	2969.55
400.24	3252.17
400.45	2965.46
400.66	3157.97
400.88	3035.09
401.09	3137.49
401.30	3014.61
401.51	3080.14
401.73	3151.82
401.94	3200.98
402.15	3110.86
402.36	3184.59
402.58	3133.39
402.79	3196.88
403.00	3114.96
403.21	3286.99
403.43	3129.30
403.64	3225.55
403.85	3114.96
404.06	3248.08
404.27	3131.34
404.49	3157.97
404.70	3190.74
404.91	3266.51
405.12	3307.47
405.34	3266.51
405.55	3407.82
405.76	3231.69
405.97	3223.50
406.19	3397.58
406.40	3278.80
406.61	3393.48
406.82	3299.28
407.03	3299.28
407.25	3196.88
407.46	3477.45
407.67	3420.11
407.88	3540.94
408.09	3422.16
408.31	3389.39
408.52	3375.05
408.73	3348.43
408.94	3399.63
409.15	3428.30
409.37	3520.46
409.58	3475.40
409.79	3452.88
410.00	3522.51
410.21	3434.44
410.43	3483.59
410.64	3303.37
410.85	3479.50
411.06	3524.55
411.27	3579.85
411.48	3649.48
411.70	3579.85
411.91	3573.71
412.12	3663.82
412.33	3596.23
412.54	3571.66
412.76	3649.48
412.97	3618.76
413.18	3526.60
413.39	3735.50
413.60	3807.17
413.81	3674.06
414.03	3708.87
414.24	3602.38
414.45	3782.60
414.66	3530.70
414.87	3803.08
415.08	3749.83
415.30	3792.84
415.51	3803.08
415.72	3676.10
415.93	3778.50
416.14	3729.35
416.35	3792.84
416.56	3893.19
416.78	3872.71
416.99	3903.43
417.20	3817.41
417.41	3952.58
417.62	3821.51
417.83	3897.28
418.04	3954.63
418.26	3882.95
418.47	3807.17
418.68	3993.54
418.89	3936.20
419.10	4120.51
419.31	4190.14
419.52	4143.04
419.73	4016.07
419.95	4167.62
420.16	3983.30
420.37	4067.27
420.58	4196.29
420.79	3870.66
421.00	4231.10
421.21	4169.66
421.42	4057.03
421.63	4198.34
421.85	4048.83
422.06	4181.95
422.27	4227.01
422.48	4247.49
422.69	4265.92
422.90	4198.34
423.11	4181.95
423.32	4290.49
423.53	4466.62
423.75	4366.27
423.96	4571.07
424.17	4513.72
424.38	4562.87
424.59	4433.85
424.80	4538.30
425.01	4442.04
425.22	4323.26
425.43	4546.49
425.64	4652.98
425.85	4630.46
426.06	4540.35
426.28	4636.60
426.49	4452.28
426.70	4519.87
426.91	4607.93
427.12	4693.94
427.33	4870.07
427.54	4550.59
427.75	4798.39
427.96	4851.64
428.17	4743.10
428.38	4939.70
428.59	4857.78
428.80	4835.25
429.01	4868.02
429.23	4954.04
429.44	5038.00
429.65	5095.35
429.86	4990.90
430.07	4759.48
430.28	4839.35
430.49	4990.90
430.70	5148.59
430.91	5173.17
431.12	4976.56
431.33	5201.84
431.54	5300.14
431.75	5156.79
431.96	5185.46
432.17	5259.18
432.38	5115.83
432.59	5347.25
432.80	5330.86
433.01	5222.32
433.22	5359.53
433.43	5291.95
433.64	5185.46
433.85	5337.01
434.06	5590.95
434.27	5265.33
434.49	5439.40
434.70	5416.88
434.91	5306.29
435.12	5416.88
435.33	5582.76
435.54	5568.43
435.75	5263.28
435.96	5498.80
436.17	5410.73
436.38	5572.52
436.59	5732.26
436.80	5679.02
437.01	5955.49
437.22	5685.16
437.43	5652.39
437.64	5564.33
437.85	5902.25
438.06	5752.74
438.27	5615.53
438.48	5691.31
438.69	5885.86
438.90	5818.28
439.11	5750.70
439.32	5846.95
439.53	5998.50
439.74	5943.21
439.95	5990.31
440.16	5754.79
440.37	5955.49
440.57	5799.85
440.78	6070.18
440.99	5955.49
441.20	5932.97
441.41	5945.25
441.62	6047.65
441.83	5894.05
442.04	5998.50
442.25	6119.33
442.46	6070.18
442.67	6152.10
442.88	6504.35
443.09	6082.47
443.30	5996.45
443.51	6143.91
443.72	6467.49
443.93	6139.81
444.14	6424.48
444.35	6102.95
444.56	6299.55
444.77	6340.51
444.98	6301.60
445.19	6356.90
445.40	6414.24
445.61	6274.98
445.81	6291.36
446.02	6547.36
446.23	6426.53
446.44	6371.23
446.65	6457.25
446.86	6565.79
447.07	6522.78
447.28	6762.39
447.49	6645.66
447.70	6461.34
447.91	6659.99
448.12	6795.16
448.33	6791.06
448.54	6827.93
448.74	6645.66
448.95	6786.97
449.16	6606.75
449.37	6690.71
449.58	6764.44
449.79	7004.05
450.00	6692.76
450.21	6891.41
450.42	6938.52
450.63	6926.23
450.84	6952.85
451.05	7034.77
451.25	6852.50
451.46	6991.77
451.67	7073.68
451.88	7159.70
452.09	7180.18
452.30	7034.77
452.51	6983.57
452.72	7106.45
452.93	7440.27
453.13	7112.60
453.34	7227.28
453.55	7204.75
453.76	7262.10
453.97	7655.31
454.18	7337.87
454.39	7389.07
454.60	7489.42
454.81	7421.84
455.01	7655.31
455.22	7278.48
455.43	7438.22
455.64	7735.18
455.85	7649.16
456.06	7870.34
456.27	7714.70
456.48	7921.54
456.68	7729.03
456.89	7774.09
457.10	7911.30
457.31	7970.69
457.52	7899.02
457.73	8030.09
457.94	8128.39
458.14	7876.49
458.35	8335.23
458.56	8249.22
458.77	8187.78
458.98	8187.78
459.19	8294.27
459.39	8431.49
459.60	8267.65
459.81	8351.62
460.02	8439.68
460.23	8324.99
460.44	8589.18
460.65	8511.36
460.85	8382.34
461.06	8646.52
461.27	8425.34
461.48	8820.60
461.69	8859.51
461.89	8556.41
462.10	8902.52
462.31	8578.94
462.52	8775.55
462.73	8834.94
462.94	9076.60
463.14	9058.17
463.35	9006.97
463.56	9402.22
463.77	9203.57
463.98	9060.21
464.18	9131.89
464.39	9447.28
464.60	9637.74
464.81	9537.39
465.02	9402.22
465.23	9527.15
465.43	9527.15
465.64	9912.17
465.85	9693.04
466.06	9709.42
466.27	10067.81
466.47	9885.55
466.68	9867.11
466.89	9916.26
467.10	10043.24
467.30	9725.80
467.51	9975.66
467.72	10348.39
467.93	10106.73
468.14	10157.92
468.34	10536.80
468.55	10235.75
468.76	10473.31
468.97	10540.90
469.17	10739.55
469.38	10796.89
469.59	10772.32
469.80	10522.46
470.01	10755.93
470.21	10839.90
470.42	11147.09
470.63	11253.59
470.84	11013.98
471.04	11343.70
471.25	11132.76
471.46	11237.20
471.67	11620.17
471.87	11241.30
472.08	11573.07
472.29	11765.58
472.50	11394.90
472.70	11476.82
472.91	11792.20
473.12	11765.58
473.33	11966.28
473.53	12306.24
473.74	12007.24
473.95	12066.63
474.16	12220.23
474.36	12408.64
474.57	12531.52
474.78	12699.45
474.99	12470.08
475.19	12490.56
475.40	12894.01
475.61	12836.67
475.81	13055.80
476.02	13135.67
476.23	12941.11
476.44	13383.48
476.64	13520.69
476.85	13694.77
477.06	13502.26
477.27	13756.21
477.47	13639.47
477.68	13903.66
477.89	14079.79
478.09	14085.93
478.30	13967.15
478.51	14161.70
478.71	14356.26
478.92	14386.98
479.13	14548.77
479.34	14614.30
479.54	14413.60
479.75	14739.23
479.96	14583.59
480.16	14737.18
480.37	14896.92
480.58	15017.75
480.78	15376.15
480.99	15079.19
481.20	15216.41
481.41	15619.86
481.61	15707.92
481.82	15785.74
482.03	15726.35
482.23	15769.36
482.44	15824.65
482.65	15994.64
482.85	16086.79
483.06	16314.12
483.27	16285.45
483.47	16289.54
483.68	16504.58
483.89	16480.00
484.09	16488.20
484.30	16742.14
484.51	16899.84
484.71	17035.00
484.92	16965.37
485.13	17030.91
485.33	17225.47
485.54	17131.26
485.75	17415.93
485.95	17499.89
486.16	17571.57
486.37	17903.34
486.57	17643.25
486.78	17712.88
486.98	17923.82
487.19	17997.55
487.40	17983.21
487.60	17934.06
487.81	18495.21
488.02	18474.73
488.22	18441.96
488.43	18446.05
488.64	18710.24
488.84	18648.80
489.05	18908.90
489.25	18808.54
489.46	19005.15
489.67	19132.12
489.87	19175.13
490.08	19484.37
490.29	19453.66
490.49	19685.08
490.70	19791.57
490.90	19859.15
491.11	19693.27
491.32	19873.49
491.52	19734.23
491.73	20090.57
491.94	20229.84
492.14	20002.51
492.35	20444.87
492.55	20465.35
492.76	20518.60
492.97	20516.55
493.17	20664.00
493.38	20870.85
493.58	20981.44
493.79	20805.31
494.00	20889.28
494.20	20899.52
494.41	21325.50
494.61	21190.33
494.82	21307.07
495.02	21386.94
495.23	21370.55
495.44	21552.82
495.64	21941.94
495.85	21622.45
496.05	21845.68
496.26	21737.14
496.47	22070.96
496.67	21851.83
496.88	22347.44
497.08	22175.41
497.29	22349.48
497.49	22378.15
497.70	22412.97
497.91	22357.67
498.11	22775.46
498.32	22697.64
498.52	22666.92
498.73	23021.22
498.93	22621.86
499.14	23205.53
499.34	22847.14
499.55	23185.05
499.76	23266.97
499.96	23277.21
500.17	23193.25
500.37	23582.36
500.58	23338.65
500.78	23484.06
500.99	23553.69
501.19	23858.84
501.40	23830.16
501.60	23803.54
501.81	23633.56
502.02	24082.06
502.22	23963.28
502.43	23891.60
502.63	23998.10
502.84	24567.43
503.04	24157.84
503.25	24346.25
503.45	24505.99
503.66	24401.55
503.86	24125.07
504.07	24852.10
504.27	24540.81
504.48	24974.98
504.68	24583.82
504.89	25005.70
505.09	24637.06
505.30	24921.73
505.50	25257.60
505.71	25101.95
505.91	25120.38
506.12	25364.09
506.32	24954.50
506.53	25368.19
506.73	25558.65
506.94	25689.72
507.14	25241.21
507.35	25464.44
507.55	25482.88
507.76	25519.74
507.96	25615.99
508.17	25775.73
508.37	25910.90
508.58	25800.31
508.78	25915.00
508.99	26074.74
509.19	26060.40
509.40	26420.84
509.60	26193.52
509.81	26232.43
510.01	26134.13
510.22	26449.52
510.42	26435.18
510.63	26191.47
510.83	26082.93
511.04	26236.53
511.24	26381.93
511.44	26390.13
511.65	26582.63
511.85	26404.46
512.06	26725.99
512.26	26400.37
512.47	26584.68
512.67	27100.77
512.88	26941.03
513.08	26773.10
513.29	27246.18
513.49	27178.59
513.69	27033.19
513.90	27213.41
514.10	27141.73
514.31	27330.14
514.51	27231.84
514.72	27172.45
514.92	27317.86
515.13	27588.19
515.33	27565.66
515.53	27532.89
515.74	27567.71
515.94	27504.22
516.15	27698.78
516.35	27493.98
516.56	27645.53
516.76	27629.15
516.96	27922.01
517.17	27932.25
517.37	28071.51
517.58	28108.37
517.78	28194.39
517.99	27864.66
518.19	28493.39
518.39	28685.90
518.60	28558.92
518.80	28298.83
519.01	28284.50
519.21	28554.83
519.41	28747.34
519.62	28515.92
519.82	28718.67
520.03	28733.00
520.23	28767.82
520.43	28776.01
520.64	29025.86
520.84	29261.38
521.05	28851.78
521.25	29468.22
521.45	28999.24
521.66	29283.91
521.86	29343.30
522.07	29232.71
522.27	29298.24
522.47	29244.99
522.68	29699.64
522.88	29818.42
523.08	29914.68
523.29	29886.01
523.49	29990.45
523.70	30037.56
523.90	30361.14
524.10	29943.35
524.31	30545.45
524.51	30187.06
524.71	30537.26
524.92	30053.94
525.12	30512.69
525.33	30332.47
525.53	30887.46
525.73	30803.50
525.94	30834.22
526.14	30903.85
526.34	31108.65
526.55	31096.36
526.75	30733.87
526.95	31571.49
527.16	31075.88
527.36	31260.20
527.56	31342.11
527.77	31565.34
527.97	31739.42
528.17	31821.34
528.38	32036.38
528.58	31690.27
528.78	31882.78
528.99	31942.17
529.19	32316.95
529.39	31757.85
529.60	32167.45
529.80	32409.11
530.00	32030.23
530.21	32386.58
530.41	32833.04
530.61	32695.82
530.82	33068.55
531.02	32681.49
531.22	33033.74
531.43	33062.41
531.63	32945.67
531.83	33326.60
532.04	33705.47
532.24	33121.80
532.44	33773.05
532.64	33646.08
532.85	33547.78
533.05	33558.02
533.25	33738.24
533.46	33613.31
533.66	34104.82
533.86	33834.49
534.07	34285.04
534.27	34362.87
534.47	34561.52
534.67	34504.18
534.88	34366.96
535.08	34379.25
535.28	34604.53
535.49	34665.97
535.69	35173.86
535.89	35061.22
536.09	35390.95
536.30	35581.41
536.50	34981.35
536.70	35847.64
536.91	35112.42
537.11	35433.96
537.31	35925.47
537.51	35667.42
537.72	35825.12
537.92	36005.34
538.12	36296.15
538.32	35741.15
538.53	36392.40
538.73	36107.74
538.93	36224.47
539.13	36326.87
539.34	36150.74
539.54	36617.68
539.74	36621.78
539.94	36722.13
540.15	36621.78
540.35	36933.07
540.55	37010.89
540.75	37125.58
540.96	36959.69
541.16	37137.87
541.36	37117.39
541.56	37590.47
541.77	37815.74
541.97	37438.92
542.17	37752.26
542.37	37336.52
542.58	37844.41
542.78	37836.22
542.98	37594.56
543.18	38020.54
543.38	38512.05
543.59	38229.43
543.79	38069.69
543.99	37916.09
544.19	38237.62
544.40	38106.55
544.60	38628.79
544.80	38532.53
545.00	38135.23
545.20	38917.55
545.41	38847.92
545.61	38516.15
545.81	39204.27
546.01	39292.33
546.21	38610.35
546.42	39130.54
546.62	39712.16
546.82	38737.33
547.02	39277.99
547.22	39257.51
547.43	39073.20
547.63	39511.46
547.83	39685.54
548.03	39116.20
548.23	39828.90
548.44	39695.78
548.64	39794.08
548.84	40138.14
549.04	39902.62
549.24	40308.12
549.45	40560.02
549.65	40113.56
549.85	40115.61
550.05	40199.58
550.25	40291.74
550.45	40666.52
550.66	40510.87
550.86	40007.07
551.06	40730.00
551.26	40600.98
551.46	40674.71
551.66	40588.69
551.87	40799.63
552.07	40895.89
552.27	40981.90
552.47	40834.45
552.67	41088.40
552.87	40936.85
553.07	41125.26
553.28	40957.33
553.48	41313.67
553.68	41121.16
553.88	41577.86
554.08	41612.68
554.28	41104.78
554.48	41063.82
554.69	41569.67
554.89	41680.26
555.09	41864.58
555.29	41416.07
555.49	41168.27
555.69	41780.61
555.89	41651.59
556.10	42020.22
556.30	41923.97
556.50	41948.54
556.70	41940.35
556.90	42233.21
557.10	42407.29
557.30	42139.00
557.50	42481.02
557.70	42235.26
557.91	42478.97
558.11	42458.49
558.31	42194.30
558.51	42298.75
558.71	42595.70
558.91	42644.85
559.11	42849.65
559.31	42601.85
559.51	42427.77
559.72	42773.88
559.92	42689.91
560.12	42906.99
560.32	43206.00
560.52	42800.50
560.72	43115.89
560.92	43222.38
561.12	43316.59
561.32	43531.62
561.52	42927.47
561.72	43160.94
561.93	42945.90
562.13	43521.38
562.33	43132.27
562.53	43775.33
562.73	43212.14
562.93	43308.40
563.13	43591.01
563.33	43658.60
563.53	43818.34
563.73	43314.54
563.93	43717.99
564.13	44111.20
564.33	43775.33
564.53	43662.69
564.74	44295.52
564.94	43922.79
565.14	43898.21
565.34	43380.07
565.54	44039.52
565.74	44019.04
565.94	44090.72
566.14	44031.33
566.34	44012.90
566.54	44096.86
566.74	43920.74
566.94	44393.82
567.14	44549.46
567.34	44078.43
567.54	44662.10
567.74	44074.34
567.94	44270.94
568.14	44731.73
568.34	44733.78
568.54	44670.29
568.74	44741.97
568.94	44569.94
569.14	44967.25
569.34	44860.76
569.54	44930.39
569.75	44703.06
569.95	44770.64
570.15	44922.19
570.35	44957.01
570.55	45086.03
570.75	45227.34
570.95	45032.78
571.15	45456.71
571.35	45313.36
571.55	45335.88
571.75	45387.08
571.95	45516.11
572.15	45227.34
572.35	45770.05
572.55	45344.08
572.75	45489.48
572.95	45628.74
573.15	45366.60
573.35	45743.43
573.55	45315.40
573.75	45616.46
573.95	45864.26
574.15	45907.27
574.35	45825.35
574.55	46028.10
574.75	45561.16
574.95	45823.30
575.15	45751.62
575.34	45991.23
575.54	46241.09
575.74	46490.94
575.94	46533.95
576.14	46253.37
576.34	46671.16
576.54	46904.63
576.74	46501.18
576.94	46087.49
577.14	46622.01
577.34	47037.75
577.54	46431.55
577.74	46816.57
577.94	46638.39
578.14	46923.06
578.34	46857.52
578.54	46437.69
578.74	46912.82
578.94	47115.57
579.14	46968.12
579.34	46943.54
579.54	47148.34
579.74	47390.00
579.94	46898.48
580.13	47582.51
580.33	47052.08
580.53	47138.10
580.73	47383.85
580.93	46925.11
581.13	47592.75
581.33	48092.45
581.53	47824.17
581.73	47707.43
581.93	47822.12
582.13	47920.42
582.33	47791.40
582.53	47994.15
582.73	48147.75
582.92	47840.55
583.12	47678.76
583.32	48258.34
583.52	47957.28
583.72	48291.10
583.92	48100.64
584.12	48225.57
584.32	48407.84
584.52	48264.48
584.72	48416.03
584.92	48491.80
585.11	48794.90
585.31	48573.72
585.51	48592.15
585.71	48512.28
585.91	48956.69
586.11	48592.15
586.31	48432.41
586.51	48844.05
586.71	48602.39
586.91	49265.94
587.10	49165.59
587.30	49288.46
587.50	49237.26
587.70	49130.77
587.90	49380.62
588.10	49083.67
588.30	49083.67
588.50	49440.01
588.69	49618.19
588.89	49575.18
589.09	49618.19
589.29	49333.52
589.49	49771.78
589.69	49085.72
589.89	49814.79
590.08	49714.44
590.28	49556.75
590.48	49460.49
590.68	49509.64
590.88	49898.76
591.08	50152.71
591.28	49704.20
591.47	50291.97
591.67	49947.91
591.87	49898.76
592.07	50345.22
592.27	50232.58
592.47	50638.08
592.67	50197.76
592.86	50443.52
593.06	50242.82
593.26	50261.25
593.46	50134.28
593.66	50185.47
593.86	50275.58
594.05	50064.64
594.25	50527.48
594.45	50095.36
594.65	50513.15
594.85	50197.76
595.05	50783.48
595.24	50775.29
595.44	50799.86
595.64	50668.79
595.84	50781.43
596.04	51205.36
596.23	50941.17
596.43	51487.98
596.63	51051.76
596.83	50824.44
597.03	51191.03
597.22	51115.25
597.42	51027.19
597.62	51842.28
597.82	51141.88
598.02	51287.28
598.21	51649.77
598.41	51246.32
598.61	51406.06
598.81	51926.25
599.01	51547.37
599.20	51352.82
599.40	51148.02
599.60	51506.41
599.80	51371.25
600.00	51381.49
600.19	51889.38
600.39	51518.70
600.59	51741.93
600.79	52237.54
600.98	51543.28
601.18	51727.59
601.38	52016.36
601.58	52292.83
601.78	52102.37
601.97	52038.89
602.17	52073.70
602.37	52403.42
602.57	52561.12
602.76	52651.23
602.96	52346.08
603.16	52647.13
603.36	52514.01
603.55	52671.71
603.75	52434.14
603.95	52542.69
604.15	52298.98
604.34	52442.34
604.54	53138.65
604.74	52749.53
604.94	52600.03
605.13	52749.53
605.33	53046.49
605.53	52939.99
605.73	53157.08
605.92	53138.65
606.12	53013.72
606.32	53361.87
606.52	52931.80
606.71	53236.95
606.91	53427.41
607.11	52995.29
607.30	53761.23
607.50	53183.70
607.70	53460.18
607.90	53339.35
608.09	53695.69
608.29	53605.58
608.49	53677.26
608.68	53736.65
608.88	53513.42
609.08	53837.00
609.28	53861.58
609.47	53675.21
609.67	53863.63
609.87	53771.47
610.06	53933.26
610.26	53912.78
610.46	53931.21
610.66	53798.09
610.85	54099.14
611.05	53630.16
611.25	53959.88
611.44	53726.41
611.64	53918.92
611.84	53808.33
612.03	53310.67
612.23	53681.36
612.43	54041.80
612.62	53832.91
612.82	53933.26
613.02	54097.09
613.21	54009.03
613.41	53523.66
613.61	54148.29
613.80	53494.99
614.00	53804.24
614.20	54355.14
614.39	54449.35
614.59	54084.81
614.79	54254.79
614.98	54099.14
615.18	54428.87
615.38	54412.48
615.57	53888.20
615.77	53974.22
615.97	54392.00
616.16	54398.15
616.36	54078.66
616.56	53972.17
616.75	54385.86
616.95	54066.38
617.15	54244.55
617.34	53966.02
617.54	53853.39
617.74	54262.98
617.93	54209.73
618.13	53607.63
618.32	53953.74
618.52	54033.61
618.72	53779.66
618.91	54138.05
619.11	53761.23
619.31	54396.10
619.50	54287.56
619.70	53722.32
619.90	53976.26
620.09	53959.88
620.29	54209.73
620.48	53753.04
620.68	54748.35
620.88	53515.47
621.07	54015.18
621.27	53843.15
621.46	54068.42
621.66	53855.43
621.86	54027.46
622.05	53959.88
622.25	54392.00
622.44	53837.00
622.64	53988.55
622.84	54500.54
623.03	54236.36
623.23	54285.51
623.42	53572.81
623.62	54207.68
623.82	54580.42
624.01	53814.47
624.21	54058.18
624.40	53986.50
624.60	53615.82
624.80	53867.72
624.99	53933.26
625.19	53783.76
625.38	54006.98
625.58	54228.16
625.77	53837.00
625.97	53832.91
626.17	53761.23
626.36	54019.27
626.56	54076.61
626.75	53382.35
626.95	54420.67
627.14	53437.65
627.34	53871.82
627.54	53343.44
627.73	53888.20
627.93	53834.95
628.12	53517.52
628.32	54058.18
628.51	53896.39
628.71	53890.25
628.90	53916.87
629.10	54088.90
629.30	54074.57
629.49	54127.81
629.69	53933.26
629.88	53968.07
630.08	54482.11
630.27	54203.59
630.47	53959.88
630.66	54117.57
630.86	54158.53
631.05	54031.56
631.25	54482.11
631.44	53841.10
631.64	54162.63
631.84	54584.51
632.03	54719.68
632.23	54142.15
632.42	54465.73
632.62	54351.04
632.81	54074.57
633.01	53839.05
633.20	53820.62
633.40	54500.54
633.59	54111.43
633.79	53689.55
633.98	54275.27
634.18	54435.01
634.37	54719.68
634.57	54277.32
634.76	54353.09
634.96	54211.78
635.15	54621.37
635.35	54129.86
635.54	54095.05
635.74	54260.93
635.93	54033.61
636.13	54441.15
636.32	54598.85
636.52	53963.98
636.71	54435.01
636.91	54326.47
637.10	54539.46
637.30	54844.60
637.49	54414.53
637.69	54326.47
637.88	54762.68
638.08	54400.19
638.27	54787.26
638.46	54592.70
638.66	54115.53
638.85	54547.65
639.05	54406.34
639.24	55096.50
639.44	54385.86
639.63	54785.21
639.83	54959.29
640.02	54697.15
640.22	54840.51
640.41	54625.47
640.61	54580.42
640.80	54736.06
640.99	54609.09
641.19	55033.02
641.38	55139.51
641.58	54836.41
641.77	54674.62
641.97	54789.31
642.16	54856.89
642.36	54897.85
642.55	55295.16
642.74	54279.36
642.94	55510.19
643.13	54846.65
643.33	54844.60
643.52	55014.58
643.72	55110.84
643.91	54555.84
644.10	55094.46
644.30	55377.08
644.49	55338.16
644.69	55518.38
644.88	55293.11
645.08	54604.99
645.27	55350.45
645.46	54865.08
645.66	55520.43
645.85	54967.48
646.05	55420.08
646.24	55411.89
646.43	55542.96
646.63	55401.65
646.82	55444.66
647.02	55465.14
647.21	55577.78
647.40	55366.84
647.60	55262.39
647.79	55559.34
647.99	55463.09
648.18	55190.71
648.37	55909.55
648.57	55598.26
648.76	55579.82
648.96	55295.16
649.15	55688.37
649.34	55923.88
649.54	55645.36
649.73	55448.75
649.92	55350.45
650.12	55710.89
650.31	55891.12
650.51	55753.90
650.70	55862.44
650.89	55891.12
651.09	56269.99
651.28	55862.44
651.47	55784.62
651.67	55422.13
651.86	56403.11
652.06	55633.07
652.25	55891.12
652.44	55469.23
652.64	55899.31
652.83	55588.02
653.02	55936.17
653.22	55942.31
653.41	55264.44
653.60	55620.78
653.80	55659.69
653.99	56173.73
654.18	55960.75
654.38	56048.81
654.57	55817.39
654.76	56292.52
654.96	56073.38
655.15	55669.93
655.34	55784.62
655.54	55837.87
655.73	56161.45
655.92	56069.29
656.12	56267.94
656.31	56214.69
656.50	55997.61
656.70	56214.69
656.89	55915.69
657.08	56239.27
657.28	56063.14
657.47	56120.49
657.66	56439.97
657.86	56329.38
658.05	56112.30
658.24	56628.38
658.43	55946.41
658.63	56290.47
658.82	56591.52
659.01	56542.37
659.21	56759.45
659.40	56536.23
659.59	56304.80
659.79	56661.15
659.98	56505.51
660.17	56997.02
660.36	56454.31
660.56	56482.98
660.75	56644.77
660.94	56251.56
661.14	56427.68
661.33	56579.23
661.52	56575.14
661.71	56745.12
661.91	56616.10
662.10	56534.18
662.29	57111.70
662.49	56519.84
662.68	56083.62
662.87	56665.25
663.06	56714.40
663.26	56685.73
663.45	56853.66
663.64	56638.62
663.83	57093.27
664.03	57031.83
664.22	56982.68
664.41	56603.81
664.60	56407.20
664.80	56951.96
664.99	56638.62
665.18	56628.38
665.37	56585.38
665.57	56712.35
665.76	56722.59
665.95	57001.11
666.14	57048.22
666.34	56761.50
666.53	56917.15
666.72	55997.61
666.91	56327.33
667.11	56374.44
667.30	56718.49
667.49	56456.35
667.68	56841.37
667.87	56878.24
668.07	56845.47
668.26	56460.45
668.45	56833.18
668.64	57023.64
668.84	57457.81
669.03	57177.24
669.22	57080.98
669.41	56810.65
669.60	56939.68
669.80	56575.14
669.99	57302.17
670.18	56894.62
670.37	56954.01
670.57	56906.91
670.76	56714.40
670.95	57318.55
671.14	56833.18
671.33	56982.68
671.53	57347.22
671.72	57275.54
671.91	57205.91
672.10	56452.26
672.29	56923.29
672.48	56384.68
672.68	56814.75
672.87	56648.86
673.06	56837.28
673.25	56824.99
673.44	56466.59
673.64	56892.57
673.83	56327.33
674.02	56700.06
674.21	56265.89
674.40	56951.96
674.59	56712.35
674.79	56546.47
674.98	56554.66
675.17	56898.72
675.36	57019.55
675.55	56743.07
675.74	56851.61
675.94	56732.83
676.13	56712.35
676.32	56689.82
676.51	57175.19
676.70	56779.93
676.89	56980.63
677.08	57048.22
677.28	56595.62
677.47	56915.10
677.66	56515.75
677.85	56521.89
678.04	56941.72
678.23	57050.27
678.42	57001.11
678.62	56554.66
678.81	56818.84
679.00	56718.49
679.19	57398.42
679.38	56894.62
679.57	56683.68
679.76	56921.24
679.96	56992.92
680.15	56804.51
680.34	56513.70
680.53	56442.02
680.72	56728.73
680.91	57169.05
681.10	56624.29
681.29	56341.67
681.48	56626.34
681.68	56808.61
681.87	56829.08
682.06	56366.24
682.25	56196.26
682.44	56267.94
682.63	56247.46
682.82	56005.80
683.01	56138.92
683.20	56202.41
683.39	56587.42
683.59	56095.91
683.78	55909.55
683.97	56132.78
684.16	56452.26
684.35	56300.71
684.54	56065.19
684.73	55936.17
684.92	56210.60
685.11	55641.26
685.30	55966.89
685.49	56767.65
685.69	56206.50
685.88	56153.26
686.07	55985.32
686.26	56106.15
686.45	56018.09
686.64	55846.06
686.83	55735.47
687.02	56372.39
687.21	56100.01
687.40	56057.00
687.59	55659.69
687.78	56130.73
687.97	56177.83
688.16	55772.33
688.35	56024.23
688.54	55778.48
688.74	56034.47
688.93	55751.85
689.12	55850.16
689.31	56013.99
689.50	56022.19
689.69	55415.99
689.88	55520.43
690.07	55850.16
690.26	55637.17
690.45	56079.53
690.64	55385.27
690.83	55577.78
691.02	55512.24
691.21	55481.52
691.40	55157.94
691.59	55760.05
691.78	55293.11
691.97	56114.34
692.16	55092.41
692.35	56040.62
692.54	55321.78
692.73	55700.65
692.92	55264.44
693.11	55751.85
693.30	55063.74
693.49	55424.18
693.68	55549.10
693.87	55383.22
694.06	55375.03
694.25	55170.23
694.44	55190.71
694.63	54899.90
694.82	55610.54
695.01	55440.56
695.20	54969.53
695.39	54869.18
695.58	54979.77
695.77	54955.19
695.96	54977.72
696.15	55270.58
696.34	54076.61
696.53	55299.25
696.72	55078.07
696.91	54996.15
697.10	54811.84
697.29	54664.38
697.48	55377.08
697.67	54428.87
697.86	54570.18
698.05	54574.27
698.24	55289.01
698.43	54303.94
698.62	54568.13
698.81	54416.58
699.00	54639.81
699.19	53894.35
699.38	54404.29
699.57	53814.47
699.76	55033.02
699.95	54305.99
700.14	54486.21
700.32	54457.54
700.51	54283.46
700.70	54496.45
700.89	54082.76
701.08	54461.63
701.27	54336.71
701.46	54484.16
701.65	53449.94
701.84	53886.15
702.03	54504.64
702.22	53961.93
702.41	53658.83
702.60	53884.11
702.79	54097.09
702.98	53789.90
703.17	54056.14
703.35	54049.99
703.54	53916.87
703.73	53884.11
703.92	53695.69
704.11	53697.74
704.30	53634.25
704.49	53267.67
704.68	53521.62
704.87	53525.71
705.06	53601.49
705.25	53560.53
705.43	53433.55
705.62	53368.02
705.81	53318.87
706.00	53118.17
706.19	53152.98
706.38	53302.48
706.57	53071.06
706.76	52901.08
706.95	53124.31
707.14	52956.38
707.32	53081.30
707.51	53001.43
707.70	53069.01
707.89	53159.12
708.08	53247.19
708.27	53126.36
708.46	53124.31
708.65	52618.46
708.84	52942.04
709.02	52817.11
709.21	53069.01
709.40	53028.05
709.59	53122.26
709.78	52442.34
709.97	52956.38
710.16	52626.65
710.34	52671.71
710.53	52600.03
710.72	52341.99
710.91	52573.41
711.10	52634.84
711.29	52524.25
711.48	52133.09
711.66	52153.57
711.85	52634.84
712.04	52438.24
712.23	52274.40
712.42	51989.73
712.61	52024.55
712.80	51854.57
712.98	52444.38
713.17	51963.11
713.36	52155.62
713.55	51723.50
713.74	52151.52
713.93	52370.66
714.11	51684.59
714.30	51786.99
714.49	51784.94
714.68	51975.40
714.87	51698.92
715.06	51487.98
715.24	51707.12
715.43	51760.36
715.62	51389.68
715.81	51524.85
716.00	51737.83
716.18	51371.25
716.37	51182.84
716.56	51000.57
716.75	52182.24
716.94	51422.45
717.12	51154.16
717.31	51580.14
717.50	51481.84
717.69	50963.70
717.88	51094.77
718.06	51227.89
718.25	50937.08
718.44	50470.14
718.63	50597.12
718.82	50722.04
719.00	50851.06
719.19	50975.99
719.38	51006.71
719.57	50554.11
719.76	50230.53
719.94	50078.98
720.13	50464.00
720.32	50390.27
720.51	50445.57
720.69	50521.34
720.88	50083.08
721.07	50337.02
721.26	49894.66
721.44	49685.77
721.63	49853.70
721.82	49437.97
722.01	49653.00
722.20	49984.77
722.38	49560.84
722.57	49452.30
722.76	49374.48
722.95	49573.13
723.13	49222.93
723.32	49669.39
723.51	48956.69
723.70	49061.14
723.88	49308.94
724.07	48825.62
724.26	49247.50
724.44	48770.33
724.63	49177.87
724.82	49399.05
725.01	49011.99
725.19	49089.81
725.38	48915.73
725.57	49046.80
725.76	48727.32
725.94	47965.48
726.13	48846.10
726.32	48799.00
726.51	48321.82
726.69	49292.56
726.88	49001.75
727.07	48731.42
727.25	48375.07
727.44	48813.34
727.63	48719.13
727.82	48524.57
728.00	48581.91
728.19	48291.10
728.38	48512.28
728.56	47949.09
728.75	48610.59
728.94	48561.44
729.12	48749.85
729.31	48590.11
729.50	48436.51
729.69	47928.61
729.87	48266.53
730.06	48145.70
730.25	48465.18
730.43	48919.83
730.62	48348.45
730.81	48061.73
730.99	48602.39
731.18	48112.93
731.37	48665.88
731.55	48416.03
731.74	48559.39
731.93	48475.42
732.11	48184.61
732.30	48110.88
732.49	48071.97
732.67	48051.49
732.86	47785.25
733.05	48047.39
733.23	47828.26
733.42	47746.34
733.61	48002.34
733.79	47818.02
733.98	48545.05
734.17	47842.60
734.35	48239.90
734.54	47674.66
734.73	48096.55
734.91	47949.09
735.10	47453.48
735.29	48096.55
735.47	47367.47
735.66	47844.65
735.84	47971.62
736.03	47693.10
736.22	48010.53
736.40	47795.49
736.59	47889.70
736.78	47680.81
736.96	47789.35
737.15	47811.88
737.33	47543.59
737.52	47281.45
737.71	47400.24
737.89	47588.65
738.08	46992.69
738.27	47531.31
738.45	47541.55
738.64	47592.75
738.82	47742.25
739.01	47172.91
739.20	47316.27
739.38	47064.37
739.57	47162.67
739.75	47172.91
739.94	47351.09
740.13	47328.56
740.31	46794.04
740.50	46884.15
740.68	47150.38
740.87	47072.56
741.06	47047.99
741.24	46708.02
741.43	46789.94
741.61	46835.00
741.80	47127.86
741.99	46441.79
742.17	46857.52
742.36	46576.95
742.54	46404.92
742.73	46683.45
742.91	47039.79
743.10	46603.58
743.29	46667.06
743.47	46914.87
743.66	46765.37
743.84	46912.82
744.03	46538.04
744.21	46439.74
744.40	46835.00
744.59	46372.16
744.77	46564.67
744.96	46148.93
745.14	46427.45
745.33	46339.39
745.51	45919.56
745.70	46474.55
745.88	46282.05
746.07	46347.58
746.26	46150.98
746.44	46067.01
746.63	46177.60
746.81	46298.43
747.00	45995.33
747.18	46306.62
747.37	46202.18
747.55	45700.42
747.74	45813.06
747.92	45763.91
748.11	45401.42
748.29	46040.39
748.48	45606.22
748.66	45718.85
748.85	45890.88
749.03	45768.01
749.22	45430.09
749.41	45995.33
749.59	46001.47
749.78	45307.21
749.96	45000.02
750.15	45612.36
750.33	45870.40
750.52	45477.19
750.70	45264.21
750.89	45184.33
751.07	44844.37
751.26	45305.16
751.44	45331.79
751.63	45331.79
751.81	45022.54
752.00	44987.73
752.18	45030.74
752.37	44799.32
752.55	44940.63
752.74	45145.42
752.92	44883.28
753.10	44494.17
753.29	44750.17
753.47	44395.87
753.66	44717.40
753.84	44975.44
754.03	44748.12
754.21	44225.89
754.40	44629.34
754.58	44987.73
754.77	44516.70
754.95	44270.94
755.14	44608.86
755.32	44703.06
755.51	44053.86
755.69	44135.77
755.88	44264.80
756.06	44492.12
756.24	44043.62
756.43	43978.08
756.61	44227.93
756.80	43998.56
756.98	43785.57
757.17	43916.64
757.35	44107.10
757.54	43918.69
757.72	43982.18
757.90	43525.48
758.09	43847.01
758.27	43871.59
758.46	43791.72
758.64	43640.17
758.83	43720.04
759.01	43922.79
759.19	43566.44
759.38	43758.95
759.56	43789.67
759.75	43607.40
759.93	43609.45
760.12	43425.13
760.30	43087.21
760.48	43214.19
760.67	42872.18
760.85	43312.49
761.04	43437.42
761.22	43521.38
761.40	43294.06
761.59	43269.48
761.77	42685.81
761.96	42640.76
762.14	42939.76
762.32	42624.37
762.51	42812.79
762.69	42702.20
762.88	43031.92
763.06	42892.66
763.24	42814.83
763.43	42667.38
763.61	42311.03
763.80	42495.35
763.98	42726.77
764.16	42818.93
764.35	42343.80
764.53	41948.54
764.72	42861.94
764.90	42409.34
765.08	42085.76
765.27	42388.86
765.45	41926.02
765.63	41416.07
765.82	42591.61
766.00	42130.81
766.18	41833.86
766.37	42499.45
766.55	41891.20
766.74	41811.33
766.92	42079.61
767.10	41813.38
767.29	42067.33
767.47	41667.97
767.65	41659.78
767.84	41684.36
768.02	41977.22
768.20	41442.70
768.39	41840.00
768.57	41659.78
768.75	41856.39
768.94	41631.11
769.12	41424.26
769.30	41039.25
769.49	41311.63
769.67	41285.00
769.85	41039.25
770.04	41334.15
770.22	41166.22
770.40	40770.96
770.59	41059.73
770.77	40842.64
770.95	41223.56
771.14	40799.63
771.32	40756.63
771.50	40572.31
771.69	40523.16
771.87	40996.24
772.05	40342.94
772.24	40400.28
772.42	40367.51
772.60	40433.05
772.78	40052.12
772.97	40803.73
773.15	40658.32
773.33	40459.67
773.52	40459.67
773.70	40506.77
773.88	40787.35
774.07	40396.18
774.25	40394.14
774.43	40539.54
774.61	40160.67
774.80	40551.83
774.98	40560.02
775.16	40480.15
775.34	40789.39
775.53	40164.76
775.71	40494.49
775.89	40363.42
776.08	40474.01
776.26	40693.14
776.44	40359.32
776.62	40367.51
776.81	40525.21
776.99	40699.28
777.17	40861.07
777.35	40820.11
777.54	40709.52
777.72	40060.32
777.90	40670.61
778.08	40906.13
778.27	40416.66
778.45	40848.78
778.63	40934.80
778.81	40684.95
779.00	40920.46
779.18	41139.60
779.36	41285.00
779.54	40820.11
779.73	40785.30
779.91	40893.84
780.09	40777.11
780.27	40834.45
780.46	41239.95
780.64	41323.91
780.82	41035.15
781.00	40773.01
781.19	41438.60
781.37	41207.18
781.55	41233.80
781.73	41547.14
781.91	41104.78
782.10	41317.77
782.28	41375.11
782.46	41260.43
782.64	41782.66
782.82	40762.77
783.01	41379.21
783.19	41620.87
783.37	41020.81
783.55	41270.67
783.74	41741.70
783.92	40752.53
784.10	41801.09
784.28	41448.84
784.46	41637.25
784.64	41020.81
784.83	41448.84
785.01	41407.88
785.19	41518.47
785.37	41592.20
785.55	41289.10
785.74	40904.08
785.92	40848.78
786.10	41276.81
786.28	40881.55
786.46	40957.33
786.64	41002.38
786.83	41254.28
787.01	41072.01
787.19	41055.63
787.37	41321.87
787.55	41129.36
787.74	40723.86
787.92	40910.22
788.10	40744.34
788.28	40617.36
788.46	41014.67
788.64	40498.58
788.82	41029.01
789.01	40959.38
789.19	40891.79
789.37	40609.17
789.55	40682.90
789.73	40068.51
789.91	40357.27
790.09	40449.43
790.28	40209.82
790.46	40037.79
790.64	40175.00
790.82	40347.03
791.00	40211.87
791.18	40105.37
791.36	39914.91
791.55	39910.82
791.73	39890.34
791.91	40054.17
792.09	40189.34
792.27	39564.71
792.45	39710.11
792.63	39472.55
792.81	39052.72
793.00	39548.32
793.18	39288.23
793.36	38704.56
793.54	39185.83
793.72	38772.14
793.90	38561.20
794.08	38989.23
794.26	39001.52
794.44	38684.08
794.62	38706.61
794.81	38940.08
794.99	39032.24
795.17	38907.31
795.35	38710.71
795.53	38364.60
795.71	38587.83
795.89	37918.14
796.07	37696.96
796.25	37836.22
796.43	38030.78
796.61	37565.89
796.80	37447.11
796.98	37897.66
797.16	37189.06
797.34	37637.57
797.52	37199.30
797.70	37891.52
797.88	37828.03
798.06	37137.87
798.24	36916.68
798.42	37381.57
798.60	37158.34
798.78	37105.10
798.96	36799.95
799.14	36621.78
799.32	36840.91
799.51	36775.37
799.69	36881.87
799.87	36599.25
800.05	36443.60
800.23	36580.82
800.41	36410.84
800.59	36302.29
800.77	36163.03
800.95	35732.96
801.13	35790.30
801.31	35812.83
801.49	35673.57
801.67	35753.44
801.85	35900.89
802.03	35364.32
802.21	35648.99
802.39	35108.33
802.57	35333.60
802.75	35214.82
802.93	35354.08
803.11	35223.01
803.29	35366.37
803.47	34981.35
803.65	34850.28
803.83	35134.95
804.01	34756.08
804.19	34747.89
804.37	34409.97
804.55	34543.09
804.73	34352.63
804.91	34237.94
805.09	34688.49
805.27	33981.95
805.45	34530.80
805.63	34250.23
805.81	34448.88
805.99	34620.91
806.17	34463.22
806.35	34141.69
806.53	33934.84
806.71	34147.83
806.89	33918.46
807.07	33721.85
807.25	33572.35
807.43	33664.51
807.61	33912.31
807.79	33637.89
807.97	33390.08
808.15	33385.99
808.33	33070.60
808.51	33074.70
808.69	33496.58
808.87	32992.78
809.05	32761.36
809.23	33050.12
809.41	32484.88
809.59	32521.74
809.77	32904.71
809.95	32661.01
810.13	32798.22
810.31	32339.47
810.49	32501.26
810.67	32581.13
810.84	32597.52
811.02	32417.30
811.20	32054.81
811.38	32300.56
811.56	31995.42
811.74	31847.96
811.92	31929.88
812.10	32417.30
812.28	32316.95
812.46	31927.83
812.64	32318.99
812.82	31841.82
813.00	31735.32
813.18	31495.71
813.36	31548.96
813.53	31129.12
813.71	31469.09
813.89	31528.48
814.07	31479.33
814.25	31276.58
814.43	30793.26
814.61	31043.11
814.79	31067.69
814.97	31032.87
815.15	31213.09
815.33	30756.39
815.50	30803.50
815.68	30848.55
815.86	30905.90
816.04	30780.97
816.22	30596.65
816.40	30860.84
816.58	30641.71
816.76	30340.66
816.94	30500.40
817.11	30381.62
817.29	30416.43
817.47	30305.84
817.65	30336.56
817.83	30322.23
818.01	30268.98
818.19	30359.09
818.37	30127.67
818.54	29761.08
818.72	29619.77
818.90	29988.41
819.08	30090.80
819.26	29849.14
819.44	29802.04
819.62	29462.08
819.80	29902.39
819.97	29441.60
820.15	29756.99
820.33	29548.09
820.51	29609.53
820.69	29376.06
820.87	29257.28
821.05	29808.19
821.22	29496.89
821.40	29693.50
821.58	29431.36
821.76	29111.88
821.94	29062.72
822.12	29455.93
822.29	29331.01
822.47	29244.99
822.65	29249.09
822.83	29328.96
823.01	29079.11
823.19	28993.09
823.36	28798.54
823.54	28595.79
823.72	28683.85
823.90	28884.55
824.08	28857.93
824.25	28864.07
824.43	28823.11
824.61	28642.89
824.79	28778.06
824.97	28395.09
825.15	28573.26
825.32	28380.75
825.50	28315.22
825.68	28026.45
825.86	28573.26
826.04	28094.04
826.21	27952.73
826.39	28429.90
826.57	28071.51
826.75	27973.21
826.93	27668.06
827.10	27922.01
827.28	27752.02
827.46	27821.66
827.64	27876.95
827.81	27618.91
827.99	27854.42
828.17	27430.49
828.35	27596.38
828.53	27666.01
828.70	27618.91
828.88	27432.54
829.06	27633.24
829.24	27563.61
829.41	27393.63
829.59	27659.87
829.77	27405.92
829.95	27512.41
830.12	27379.29
830.30	27379.29
830.48	27324.00
830.66	27348.57
830.84	27377.25
831.01	27012.71
831.19	27102.82
831.37	27231.84
831.55	27137.63
831.72	27256.42
831.90	26750.57
832.08	27029.09
832.25	26973.80
832.43	26721.90
832.61	26711.66
832.79	26435.18
832.96	26631.79
833.14	26938.98
833.32	26971.75
833.50	26932.84
833.67	26932.84
833.85	26728.04
834.03	26379.89
834.20	26541.68
834.38	26750.57
834.56	26885.73
834.74	26175.09
834.91	26334.83
835.09	26459.76
835.27	26263.15
835.44	26123.89
835.62	25890.42
835.80	26105.46
835.98	26170.99
836.15	26238.58
836.33	26068.59
836.51	26113.65
836.68	26123.89
836.86	25876.09
837.04	25726.58
837.21	25953.91
837.39	25892.47
837.57	26263.15
837.75	25904.76
837.92	25609.85
838.10	25740.92
838.28	25425.53
838.45	25532.03
838.63	25491.07
838.81	25726.58
838.98	25292.41
839.16	25407.10
839.34	25413.24
839.51	25194.11
839.69	25093.76
839.87	25079.43
840.04	25339.52
840.22	25624.18
840.40	25142.91
840.57	25013.89
840.75	25251.45
840.93	24927.88
841.10	25245.31
841.28	25546.36
841.46	25251.45
841.63	25429.63
841.81	24866.44
841.98	25022.08
842.16	25015.94
842.34	24714.89
842.51	24690.31
842.69	24964.74
842.87	24690.31
843.04	24958.60
843.22	24807.05
843.40	24530.57
843.57	24843.91
843.75	24841.86
843.92	24645.26
844.10	24546.95
844.28	24739.46
844.45	24690.31
844.63	24647.30
844.81	24487.56
844.98	24501.90
845.16	24352.40
845.33	24682.12
845.51	24651.40
845.69	24276.62
845.86	24325.77
846.04	24454.79
846.21	24413.84
846.39	24202.89
846.57	24057.49
846.74	24534.67
846.92	24254.09
847.09	24190.61
847.27	24125.07
847.45	24159.89
847.62	24022.67
847.80	23899.80
847.97	24192.65
848.15	23985.81
848.32	23811.73
848.50	24018.58
848.68	23834.26
848.85	23971.47
849.03	23486.11
849.20	23744.15
849.38	23709.33
849.56	23441.05
849.73	23402.14
849.91	23703.19
850.08	23563.93
850.26	23363.23
850.43	23756.44
850.61	23494.30
850.78	23025.31
850.96	23127.71
851.14	23094.94
851.31	23369.37
851.49	23451.29
851.66	23482.01
851.84	23414.43
852.01	23471.77
852.19	23258.78
852.36	23359.13
852.54	23160.48
852.71	23113.38
852.89	23201.44
853.07	23125.66
853.24	23189.15
853.42	22845.09
853.59	23332.51
853.77	23209.63
853.94	23064.22
854.12	23363.23
854.29	22580.90
854.47	22871.72
854.64	22875.81
854.82	22572.71
854.99	22560.42
855.17	22724.26
855.34	22580.90
855.52	22767.27
855.69	22951.59
855.87	22738.60
856.04	22628.01
856.22	22271.66
856.39	22257.32
856.57	22425.26
856.74	22304.43
856.92	22306.48
857.09	22099.63
857.27	22298.28
857.44	22544.04
857.62	22216.36
857.79	22443.69
857.97	22423.21
858.14	22156.97
858.32	22152.88
858.49	22116.01
858.67	22210.22
858.84	21948.08
859.02	22019.76
859.19	22161.07
859.37	22068.91
859.54	22091.44
859.72	22075.06
859.89	21968.56
860.06	22392.49
860.24	21986.99
860.41	22081.20
860.59	21958.32
860.76	21851.83
860.94	21731.00
861.11	21456.57
861.29	21464.76
861.46	21665.46
861.64	21421.75
861.81	21499.58
861.98	21659.32
862.16	21317.31
862.33	21153.47
862.51	21415.61
862.68	21542.58
862.86	21194.43
863.03	21151.42
863.21	21270.20
863.38	21231.29
863.55	21419.71
863.73	21194.43
863.90	21419.71
864.08	21161.66
864.25	20922.05
864.43	21231.29
864.60	21415.61
864.77	20809.41
864.95	20905.66
865.12	20661.96
865.30	20979.39
865.47	21096.13
865.64	20666.05
865.82	20997.82
865.99	20928.19
866.17	20876.99
866.34	20963.01
866.51	20668.10
866.69	20848.32
866.86	20494.02
867.04	20692.68
867.21	20504.26
867.38	20446.92
867.56	20354.76
867.73	20567.75
867.91	20457.16
868.08	20698.82
868.25	20461.26
868.43	20365.00
868.60	20281.03
868.78	19908.30
868.95	20573.89
869.12	20166.35
869.30	19982.03
869.47	20199.12
869.64	20045.52
869.82	19959.50
869.99	19887.82
870.16	20297.42
870.34	19943.12
870.51	20311.75
870.69	19621.59
870.86	19830.48
871.03	19830.48
871.21	19664.60
871.38	19979.98
871.55	19902.16
871.73	19881.68
871.90	19758.80
872.07	19367.64
872.25	19363.54
872.42	19764.95
872.59	19345.11
872.77	19388.12
872.94	19474.13
873.11	19545.81
873.29	19326.68
873.46	19336.92
873.63	19265.24
873.81	19105.50
873.98	19347.16
874.15	18792.16
874.33	18923.23
874.50	18847.46
874.67	19240.67
874.85	19072.73
875.02	18994.91
875.19	18939.62
875.37	18867.94
875.54	18968.29
875.71	18599.65
875.88	18638.56
876.06	18669.28
876.23	18728.67
876.40	18190.06
876.58	18452.20
876.75	18628.32
876.92	18314.98
877.10	18626.28
877.27	18327.27
877.44	18564.84
877.61	18231.02
877.79	18489.06
877.96	18294.50
878.13	18376.42
878.31	17901.29
878.48	18243.31
878.65	18044.65
878.82	18298.60
879.00	18171.63
879.17	18102.00
879.34	18007.79
879.51	17551.09
879.69	17876.72
879.86	17413.88
880.03	17751.79
880.21	17716.98
880.38	17839.86
880.55	17866.48
880.72	17456.89
880.90	17880.82
881.07	17821.42
881.24	17827.57
881.41	17714.93
881.59	17721.07
881.76	17471.22
881.93	17295.10
882.10	17225.47
882.28	17512.18
882.45	17317.62
882.62	17420.02
882.79	17530.61
882.96	16977.66
883.14	17555.19
883.31	17340.15
883.48	17260.28
883.65	17428.21
883.83	17141.50
884.00	17313.53
884.17	17268.47
884.34	16996.09
884.51	17143.55
884.69	17307.38
884.86	17061.63
885.03	17100.54
885.20	16873.21
885.38	17090.30
885.55	16867.07
885.72	17204.99
885.89	16852.73
886.06	16635.65
886.24	16766.72
886.41	16731.90
886.58	16883.45
886.75	16690.95
886.92	16717.57
887.10	16826.11
887.27	16789.25
887.44	16652.03
887.61	16922.37
887.78	16985.85
887.95	16754.43
888.13	16740.10
888.30	16606.98
888.47	16426.76
888.64	16617.22
888.81	16629.51
888.99	16322.31
889.16	16205.58
889.33	16289.54
889.50	16461.57
889.67	16549.64
889.84	16281.35
890.01	16338.69
890.19	16285.45
890.36	16461.57
890.53	16135.95
890.70	16260.87
890.87	16099.08
891.04	16101.13
891.22	16224.01
891.39	15888.14
891.56	16088.84
891.73	15947.53
891.90	15851.28
892.07	16011.02
892.24	15816.46
892.42	15650.58
892.59	15828.75
892.76	15914.77
892.93	15740.69
893.10	15777.55
893.27	15769.36
893.44	15716.11
893.61	15750.93
893.79	15869.71
893.96	15621.91
894.13	15730.45
894.30	15804.17
894.47	15499.03
894.64	15843.09
894.81	15568.66
894.98	15558.42
895.15	15826.70
895.33	15755.02
895.50	15447.83
895.67	15902.48
895.84	15367.96
896.01	15574.80
896.18	15544.08
896.35	15666.96
896.52	15484.69
896.69	15685.39
896.86	15453.97
897.04	15453.97
897.21	15628.05
897.38	15327.00
897.55	15589.14
897.72	15421.20
897.89	15507.22
898.06	15572.75
898.23	15408.92
898.40	15490.84
898.57	15515.41
898.74	15595.28
898.91	15470.36
899.08	15664.91
899.26	15386.39
899.43	15781.65
899.60	15329.05
899.77	15709.97
899.94	15464.21
900.11	15197.98
900.28	15339.29
900.45	15390.49
900.62	15271.70
900.79	15476.50
900.96	15439.64
901.13	15263.51
901.30	15253.27
901.47	15458.07
901.64	15374.10
901.81	15322.90
901.98	15294.23
902.15	15458.07
902.32	15011.61
902.49	15316.76
902.66	15345.43
902.83	15372.05
903.01	15255.32
903.18	15296.28
903.35	15341.33
903.52	15288.09
903.69	15415.06
903.86	15388.44
904.03	15169.30
904.20	15527.70
904.37	15558.42
904.54	15140.63
904.71	15320.85
904.88	15245.08
905.05	15283.99
905.22	15462.16
905.39	14956.32
905.56	15003.42
905.73	15079.19
905.90	15093.53
906.07	15322.90
906.24	15347.48
906.41	15134.49
906.58	15353.62
906.75	15253.27
906.92	14911.26
907.09	15109.91
907.26	15275.80
907.43	14884.64
907.60	15165.21
907.77	15261.46
907.93	15015.71
908.10	15210.26
908.27	15394.58
908.44	15120.15
908.61	14888.73
908.78	15083.29
908.95	15101.72
909.12	15011.61
909.29	15003.42
909.46	15007.52
909.63	15066.91
909.80	14876.44
909.97	15173.40
910.14	14821.15
910.31	14972.70
910.48	15224.60
910.65	14855.97
910.82	14991.13
910.99	14683.94
911.16	14739.23
911.33	14812.96
911.50	14671.65
911.66	14778.14
911.83	14792.48
912.00	14737.18
912.17	14606.11
912.34	14778.14
912.51	14831.39
912.68	14702.37
912.85	14765.85
913.02	14710.56
913.19	14743.33
913.36	14696.22
913.53	14421.80
913.70	14561.06
913.86	14681.89
914.03	14346.02
914.20	14524.19
914.37	14483.24
914.54	14419.75
914.71	14245.67
914.88	14401.32
915.05	14368.55
915.22	14184.23
915.39	14280.49
915.55	13850.41
915.72	14124.84
915.89	14067.50
916.06	14092.07
916.23	14006.06
916.40	13797.17
916.57	13766.45
916.74	14102.31
916.91	14036.78
917.07	13666.10
917.24	13543.22
917.41	13735.73
917.58	13852.46
917.75	13682.48
917.92	13700.91
918.09	13629.23
918.26	13543.22
918.42	13549.36
918.59	13629.23
918.76	13363.00
918.93	13244.21
919.10	13184.82
919.27	13297.46
919.44	13383.48
919.60	13356.85
919.77	13403.96
919.94	13281.08
920.11	13324.08
920.28	13137.72
920.45	13141.82
920.61	13217.59
920.78	12945.21
920.95	12971.83
921.12	12818.24
921.29	12760.89
921.46	12826.43
921.62	12810.04
921.79	12955.45
921.96	12834.62
922.13	12783.42
922.30	12660.54
922.47	12615.49
922.63	12611.39
922.80	12365.64
922.97	12365.64
923.14	12226.37
923.31	12578.62
923.47	12306.24
923.64	12611.39
923.81	12324.68
923.98	12109.64
924.15	12095.30
924.32	12152.65
924.48	12011.34
924.65	12205.89
924.82	12095.30
924.99	11806.54
925.15	11792.20
925.32	11767.63
925.49	11927.37
925.66	11820.88
925.83	11722.57
925.99	11689.81
926.16	11894.60
926.33	11689.81
926.50	11317.08
926.67	11675.47
926.83	11560.78
927.00	11442.00
927.17	11288.40
927.34	11413.33
927.50	11429.71
927.67	11362.13
927.84	11222.87
928.01	11360.08
928.17	11157.33
928.34	10979.16
928.51	10950.49
928.68	10897.24
928.84	10841.95
929.01	11013.98
929.18	10721.12
929.35	10600.29
929.51	10760.03
929.68	10700.64
929.85	10420.06
930.02	10671.97
930.18	10446.69
930.35	10518.37
930.52	10573.66
930.69	10538.85
930.85	10422.11
931.02	10407.78
931.19	10440.54
931.36	10401.63
931.52	10149.73
931.69	10268.52
931.86	10239.84
932.02	10217.32
932.19	10057.57
932.36	9858.92
932.53	9887.59
932.69	9787.24
932.86	10006.38
933.03	9676.65
933.19	9570.16
933.36	9760.62
933.53	9695.08
933.70	9598.83
933.86	9600.88
934.03	9512.81
934.20	9471.86
934.36	9443.18
934.53	9240.44
934.70	9049.97
934.86	9205.62
935.03	9121.65
935.20	9004.92
935.36	8832.89
935.53	8830.84
935.70	8859.51
935.86	8761.21
936.03	8699.77
936.20	8679.29
936.36	8609.66
936.53	8562.56
936.70	8427.39
936.86	8593.28
937.03	8351.62
937.20	8249.22
937.36	8269.70
937.53	8144.77
937.70	7985.03
937.86	7851.91
938.03	7909.26
938.20	7919.50
938.36	7620.49
938.53	7700.36
938.70	7468.94
938.86	7462.80
939.03	7516.05
939.20	7464.85
939.36	7190.42
939.53	7169.94
939.70	7260.05
939.86	6940.57
940.03	6811.54
940.19	6844.31
940.36	6735.77
940.53	6692.76
940.69	6584.22
940.86	6592.41
941.03	6510.49
941.19	6512.54
941.36	6344.61
941.52	6442.91
941.69	6047.65
941.86	6322.08
942.02	6178.72
942.19	6025.12
942.35	5996.45
942.52	6172.58
942.69	5779.37
942.85	5726.12
943.02	5590.95
943.18	5703.59
943.35	5722.02
943.52	5756.84
943.68	5552.04
943.85	5611.43
944.01	5636.01
944.18	5664.68
944.35	5531.56
944.51	5494.70
944.68	5476.27
944.84	5443.50
945.01	5375.92
945.17	5447.60
945.34	5435.31
945.51	5388.21
945.67	5402.54
945.84	5463.98
946.00	5283.76
946.17	5279.66
946.33	5304.24
946.50	5269.42
946.67	5328.81
946.83	5324.72
947.00	5429.17
947.16	5404.59
947.33	5066.67
947.49	5103.54
947.66	5199.79
947.82	5314.48
947.99	5207.98
948.16	5320.62
948.32	5300.14
948.49	5193.65
948.65	5404.59
948.82	5240.75
948.98	5443.50
949.15	5140.40
949.31	5302.19
949.48	5355.44
949.64	5177.26
949.81	5236.66
949.97	5224.37
950.14	5244.85
950.30	5187.50
950.47	5314.48
950.63	5195.70
950.80	5205.94
950.96	5167.03
951.13	5334.96
951.30	5291.95
951.46	5521.32
951.63	5457.84
951.79	5429.17
951.96	5420.97
952.12	5398.45
952.29	5431.21
952.45	5316.53
952.62	5398.45
952.78	5412.78
952.94	5420.97
953.11	5332.91
953.27	5199.79
953.44	5463.98
953.60	5431.21
953.77	5461.93
953.93	5406.64
954.10	5429.17
954.26	5443.50
954.43	5277.62
954.59	5494.70
954.76	5545.90
954.92	5455.79
955.09	5572.52
955.25	5337.01
955.42	5435.31
955.58	5525.42
955.75	5351.34
955.91	5361.58
956.07	5427.12
956.24	5443.50
956.40	5506.99
956.57	5552.04
956.73	5500.84
956.90	5394.35
957.06	5377.97
957.23	5312.43
957.39	5273.52
957.56	5388.21
957.72	5234.61
957.88	5322.67
958.05	5502.89
958.21	5416.88
958.38	5414.83
958.54	5351.34
958.71	5408.69
958.87	5324.72
959.03	5390.25
959.20	5466.03
959.36	5392.30
959.53	5291.95
959.69	5449.64
959.85	5418.93
960.02	5257.14
960.18	5425.07
960.35	5457.84
960.51	5511.08
960.68	5244.85
960.84	5472.17
961.00	5300.14
961.17	5345.20
961.33	5334.96
961.50	5312.43
961.66	5461.93
961.82	5402.54
961.99	5511.08
962.15	5345.20
962.31	5386.16
962.48	5347.25
962.64	5488.56
962.81	5148.59
962.97	5480.36
963.13	5490.60
963.30	5449.64
963.46	5310.38
963.62	5261.23
963.79	5345.20
963.95	5212.08
964.12	5271.47
964.28	5402.54
964.44	5224.37
964.61	5339.05
964.77	5357.49
964.93	5418.93
965.10	5310.38
965.26	5228.46
965.42	5337.01
965.59	5169.07
965.75	5263.28
965.92	5277.62
966.08	5193.65
966.24	5279.66
966.41	5203.89
966.57	5341.10
966.73	5310.38
966.90	5371.82
967.06	5300.14
967.22	5107.63
967.39	5183.41
967.55	5240.75
967.71	5320.62
967.88	5076.91
968.04	5183.41
968.20	5236.66
968.37	5134.26
968.53	4972.47
968.69	5081.01
968.85	5228.46
969.02	5246.90
969.18	5138.35
969.34	5023.67
969.51	5056.43
969.67	5054.39
969.83	5134.26
970.00	5087.15
970.16	5093.30
970.32	5093.30
970.48	5195.70
970.65	4970.42
970.81	4886.45
970.97	4919.22
971.14	4966.32
971.30	5070.77
971.46	4964.28
971.63	5138.35
971.79	4964.28
971.95	5007.28
972.11	4992.95
972.28	5052.34
972.44	5050.29
972.60	4782.01
972.76	5025.72
972.93	4913.08
973.09	5015.48
973.25	4839.35
973.42	4872.12
973.58	5009.33
973.74	4956.08
973.90	4874.17
974.07	4720.57
974.23	4843.45
974.39	4898.74
974.55	4681.66
974.72	4759.48
974.88	4648.89
975.04	4808.63
975.20	4802.49
975.37	4833.21
975.53	4665.27
975.69	4706.23
975.85	4659.13
976.01	4599.74
976.18	4550.59
976.34	4663.22
976.50	4796.34
976.66	4644.79
976.83	4622.27
976.99	4652.98
977.15	4665.27
977.31	4528.06
977.47	4562.87
977.64	4607.93
977.80	4593.59
977.96	4620.22
978.12	4640.70
978.29	4599.74
978.45	4380.61
978.61	4626.36
978.77	4542.39
978.93	4468.67
979.10	4526.01
979.26	4526.01
979.42	4505.53
979.58	4310.97
979.74	4384.70
979.91	4550.59
980.07	4362.17
980.23	4452.28
980.39	4401.08
980.55	4374.46
980.71	4288.45
980.88	4378.56
981.04	4329.41
981.20	4382.65
981.36	4480.96
981.52	4335.55
981.68	4239.30
981.85	4474.81
982.01	4227.01
982.17	4353.98
982.33	4253.63
982.49	4421.56
982.65	4214.72
982.82	4292.54
982.98	4237.25
983.14	4173.76
983.30	4302.78
983.46	4335.55
983.62	4276.16
983.79	4249.54
983.95	4317.12
984.11	4196.29
984.27	4136.90
984.43	4161.47
984.59	4169.66
984.75	4292.54
984.91	4110.27
985.08	4130.75
985.24	4128.70
985.40	4016.07
985.56	4157.38
985.72	4157.38
985.88	4241.34
986.04	4057.03
986.20	4169.66
986.37	4005.83
986.53	3952.58
986.69	4075.46
986.85	3887.04
987.01	3985.35
987.17	4167.62
987.33	3925.96
987.49	3917.76
987.65	4014.02
987.82	4026.31
987.98	3866.56
988.14	3938.24
988.30	3973.06
988.46	3932.10
988.62	4005.83
988.78	3899.33
988.94	3936.20
989.10	3858.37
989.26	3690.44
989.42	3911.62
989.59	3880.90
989.75	3815.37
989.91	3801.03
990.07	3620.81
990.23	3723.21
990.39	3653.58
990.55	3764.17
990.71	3717.06
990.87	3672.01
991.03	3788.74
991.19	3743.69
991.35	3690.44
991.51	3743.69
991.67	3858.37
991.83	3764.17
992.00	3751.88
992.16	3803.08
992.32	3723.21
992.48	3665.86
992.64	3655.62
992.80	3755.97
992.96	3624.90
993.12	3620.81
993.28	3682.25
993.44	3620.81
993.60	3641.29
993.76	3551.18
993.92	3602.38
994.08	3622.86
994.24	3565.51
994.40	3606.47
994.56	3672.01
994.72	3510.22
994.88	3551.18
995.04	3540.94
995.20	3639.24
995.36	3588.04
995.52	3569.61
995.68	3536.84
995.84	3289.04
996.00	3588.04
996.16	3563.47
996.32	3424.20
996.48	3424.20
996.64	3456.97
996.80	3536.84
996.96	3465.16
997.12	3436.49
997.28	3348.43
997.44	3262.41
997.60	3397.58
997.76	3327.95
997.92	3387.34
998.08	3385.29
998.24	3332.05
998.40	3358.67
998.56	3444.68
998.72	3387.34
998.88	3336.14
999.04	3231.69
999.20	3248.08
999.36	3203.02
999.52	3399.63
999.68	3315.66
999.84	3252.17
1000.00	3297.23
1000.16	3303.37
1000.32	3176.40
1000.48	3426.25
1000.64	3160.02
1000.80	3174.35
1000.95	3076.05
1001.11	3207.12
1001.27	3108.82
1001.43	3243.98
1001.59	3168.21
1001.75	3207.12
1001.91	3217.36
1002.07	3127.25
1002.23	3192.78
1002.39	3041.23
1002.55	3162.06
1002.71	3055.57
1002.87	3100.62
1003.03	3080.14
1003.19	3057.62
1003.34	3157.97
1003.50	3018.71
1003.66	3065.81
1003.82	2967.51
1003.98	3078.10
1004.14	3065.81
1004.30	3002.32
1004.46	2990.03
1004.62	3071.95
1004.78	3063.76
1004.94	2977.75
1005.09	3114.96
1005.25	3037.14
1005.41	3035.09
1005.57	2990.03
1005.73	2928.60
1005.89	2928.60
1006.05	2979.79
1006.21	2953.17
1006.37	2867.16
1006.52	2895.83
1006.68	2901.97
1006.84	3057.62
1007.00	2893.78
1007.16	2838.48
1007.32	2908.12
1007.48	2949.08
1007.64	2883.54
1007.79	2908.12
1007.95	2842.58
1008.11	2895.83
1008.27	2901.97
1008.43	2781.14
1008.59	2748.37
1008.75	2820.05
1008.91	3002.32
1009.06	2772.95
1009.22	2871.25
1009.38	2873.30
1009.54	2863.06
1009.70	2770.90
1009.86	2797.53
1010.01	2770.90
1010.17	2746.33
1010.33	2822.10
1010.49	2770.90
1010.65	2787.29
1010.81	2674.65
1010.96	2803.67
1011.12	2680.79
1011.28	2611.16
1011.44	2711.51
1011.60	2748.37
1011.76	2680.79
1011.91	2799.57
1012.07	2656.22
1012.23	2631.64
1012.39	2643.93
1012.55	2666.46
1012.71	2729.94
1012.86	2588.63
1013.02	2701.27
1013.18	2615.26
1013.34	2650.07
1013.50	2658.26
1013.65	2664.41
1013.81	2574.30
1013.97	2514.91
1014.13	2615.26
1014.29	2619.35
1014.44	2627.54
1014.60	2621.40
1014.76	2660.31
1014.92	2635.74
1015.07	2674.65
1015.23	2588.63
1015.39	2500.57
1015.55	2533.34
1015.71	2529.24
1015.86	2600.92
1016.02	2432.99
1016.18	2500.57
1016.34	2527.19
1016.49	2539.48
1016.65	2523.10
1016.81	2480.09
1016.97	2484.19
1017.12	2588.63
1017.28	2389.98
1017.44	2418.65
1017.60	2490.33
1017.75	2473.95
1017.91	2494.43
1018.07	2461.66
1018.23	2541.53
1018.38	2408.41
1018.54	2475.99
1018.70	2484.19
1018.86	2398.17
1019.01	2355.16
1019.17	2420.70
1019.33	2525.15
1019.49	2455.51
1019.64	2447.32
1019.80	2443.23
1019.96	2383.84
1020.12	2394.08
1020.27	2355.16
1020.43	2445.27
1020.59	2306.01
1020.74	2387.93
1020.90	2457.56
1021.06	2342.88
1021.22	2297.82
1021.37	2367.45
1021.53	2258.91
1021.69	2330.59
1021.84	2283.49
1022.00	2326.49
1022.16	2240.48
1022.31	2316.25
1022.47	2344.92
1022.63	2394.08
1022.79	2287.58
1022.94	2279.39
1023.10	2449.37
1023.26	2254.81
1023.41	2230.24
1023.57	2289.63
1023.73	2318.30
1023.88	2236.38
1024.04	2248.67
1024.20	2211.81
1024.35	2174.94
1024.51	2220.00
1024.67	2193.37
1024.82	2363.36
1024.98	2115.55
1025.14	2246.62
1025.29	2283.49
1025.45	2297.82
1025.61	2232.29
1025.76	2344.92
1025.92	2187.23
1026.08	2258.91
1026.23	2209.76
1026.39	2197.47
1026.55	2224.09
1026.70	2162.66
1026.86	2154.46
1027.02	2181.09
1027.17	2195.42
1027.33	2285.53
1027.48	2174.94
1027.64	2150.37
1027.80	2131.94
1027.95	2189.28
1028.11	2088.93
1028.27	2140.13
1028.42	2127.84
1028.58	2056.16
1028.73	2101.22
1028.89	2064.35
1029.05	2166.75
1029.20	2195.42
>>>>>End Processed Spectral Data<<<<<
