SpectraSuite Data File
++++++++++++++++++++++++++++++++++++
Date: Fri Jun 02 14:57:23 CEST 2017
User: INFO_000
Dark Spectrum Present: No
Reference Spectrum Present: No
Number of Sampled Component Spectra: 1
Spectrometers: USB4H00879
Integration Time (usec): 80000 (USB4H00879)
Spectra Averaged: 1 (USB4H00879)
Boxcar Smoothing: 0 (USB4H00879)
Correct for Electrical Dark: No (USB4H00879)
Strobe/Lamp Enabled: No (USB4H00879)
Correct for Detector Non-linearity: No (USB4H00879)
Correct for Stray Light: No (USB4H00879)
Number of Pixels in Processed Spectrum: 3648
>>>>>Begin Processed Spectral Data<<<<<
345.13	1241.07
345.34	1241.07
345.56	1241.07
345.78	1322.99
345.99	1310.70
346.21	1691.62
346.42	1708.01
346.64	1613.80
346.86	1730.53
347.07	1656.81
347.29	1738.73
347.50	1589.22
347.72	1646.57
347.94	1796.07
348.15	1544.17
348.37	1685.48
348.59	1695.72
348.80	1656.81
349.02	1773.54
349.23	1843.17
349.45	1826.79
349.67	1861.60
349.88	1781.73
350.10	1961.95
350.31	1841.12
350.53	1816.55
350.75	2031.58
350.96	1710.05
351.18	1839.08
351.39	1859.56
351.61	1818.60
351.82	1908.71
352.04	1943.52
352.26	1880.04
352.47	1857.51
352.69	1894.37
352.90	1785.83
353.12	1914.85
353.34	1822.69
353.55	1896.42
353.77	1834.98
353.98	1892.32
354.20	1880.04
354.41	1943.52
354.63	1945.57
354.85	2007.01
355.06	1925.09
355.28	1843.17
355.49	1880.04
355.71	1857.51
355.92	1832.93
356.14	1976.29
356.35	1808.36
356.57	1822.69
356.79	1888.23
357.00	1863.65
357.22	1935.33
357.43	1890.28
357.65	2007.01
357.86	1871.84
358.08	1916.90
358.29	1945.57
358.51	2007.01
358.72	1912.80
358.94	1933.28
359.16	1951.71
359.37	1920.99
359.59	2009.06
359.80	1929.19
360.02	2000.87
360.23	1964.00
360.45	1992.67
360.66	1949.67
360.88	1914.85
361.09	1912.80
361.31	2088.93
361.52	1892.32
361.74	2084.83
361.95	2076.64
362.17	2011.11
362.38	2058.21
362.60	2066.40
362.81	2078.69
363.03	1943.52
363.24	2019.30
363.46	2021.35
363.67	1982.43
363.89	1990.63
364.10	2027.49
364.32	1955.81
364.53	2129.89
364.75	1951.71
364.96	1976.29
365.18	2002.91
365.39	2035.68
365.61	1970.15
365.82	2164.70
366.04	2015.20
366.25	2027.49
366.47	2031.58
366.68	2105.31
366.90	1939.43
367.11	2056.16
367.33	2076.64
367.54	2113.50
367.76	2033.63
367.97	2084.83
368.19	2017.25
368.40	2119.65
368.62	1984.48
368.83	1916.90
369.05	2039.78
369.26	2062.30
369.48	2068.45
369.69	2009.06
369.91	2123.74
370.12	2029.54
370.33	2109.41
370.55	1961.95
370.76	2035.68
370.98	2088.93
371.19	2070.50
371.41	1972.19
371.62	2021.35
371.84	2023.39
372.05	2179.04
372.27	2045.92
372.48	2133.98
372.69	2031.58
372.91	2138.08
373.12	2107.36
373.34	2103.26
373.55	2181.09
373.77	2109.41
373.98	2123.74
374.20	2084.83
374.41	2250.72
374.62	2060.26
374.84	2148.32
375.05	2162.66
375.27	2140.13
375.48	2166.75
375.70	2160.61
375.91	2205.66
376.12	2232.29
376.34	2185.18
376.55	2211.81
376.77	2158.56
376.98	2080.74
377.19	2107.36
377.41	2125.79
377.62	2195.42
377.84	2314.20
378.05	2379.74
378.27	2174.94
378.48	2269.15
378.69	2361.31
378.91	2371.55
379.12	2183.13
379.34	2275.29
379.55	2248.67
379.76	2195.42
379.98	2203.61
380.19	2242.53
380.41	2303.96
380.62	2318.30
380.83	2297.82
381.05	2217.95
381.26	2490.33
381.47	2203.61
381.69	2240.48
381.90	2394.08
382.12	2361.31
382.33	2303.96
382.54	2248.67
382.76	2293.72
382.97	2277.34
383.19	2232.29
383.40	2346.97
383.61	2346.97
383.83	2271.20
384.04	2310.11
384.25	2408.41
384.47	2392.03
384.68	2478.04
384.89	2295.77
385.11	2299.87
385.32	2396.12
385.54	2260.96
385.75	2301.92
385.96	2445.27
386.18	2389.98
386.39	2338.78
386.60	2303.96
386.82	2426.84
387.03	2445.27
387.24	2414.56
387.46	2467.80
387.67	2420.70
387.88	2498.52
388.10	2519.00
388.31	2510.81
388.52	2449.37
388.74	2533.34
388.95	2398.17
389.16	2480.09
389.38	2514.91
389.59	2592.73
389.80	2615.26
390.02	2578.39
390.23	2613.21
390.44	2594.78
390.66	2502.62
390.87	2482.14
391.08	2580.44
391.30	2652.12
391.51	2586.58
391.72	2592.73
391.94	2572.25
392.15	2686.94
392.36	2660.31
392.58	2648.02
392.79	2645.98
393.00	2691.03
393.22	2742.23
393.43	2820.05
393.64	2652.12
393.85	2822.10
394.07	2760.66
394.28	2697.17
394.49	2793.43
394.71	2764.76
394.92	2856.92
395.13	2678.74
395.35	2652.12
395.56	2682.84
395.77	2754.52
395.98	2746.33
396.20	2889.68
396.41	2914.26
396.62	2775.00
396.84	2772.95
397.05	2820.05
397.26	2871.25
397.47	2940.88
397.69	2844.63
397.90	2994.13
398.11	2895.83
398.32	2889.68
398.54	2861.01
398.75	2965.46
398.96	2979.79
399.18	3041.23
399.39	2924.50
399.60	3047.38
399.81	2895.83
400.03	2932.69
400.24	3164.11
400.45	2889.68
400.66	3104.72
400.88	3000.27
401.09	3092.43
401.30	2979.79
401.51	3028.95
401.73	3174.35
401.94	3164.11
402.15	3069.91
402.36	3139.54
402.58	3092.43
402.79	3182.54
403.00	3147.73
403.21	3110.86
403.43	3241.93
403.64	3330.00
403.85	3127.25
404.06	3284.94
404.27	3078.10
404.49	3182.54
404.70	3272.65
404.91	3233.74
405.12	3217.36
405.34	3346.38
405.55	3442.64
405.76	3188.69
405.97	3223.50
406.19	3436.49
406.40	3192.78
406.61	3348.43
406.82	3330.00
407.03	3395.53
407.25	3209.17
407.46	3364.81
407.67	3403.72
407.88	3485.64
408.09	3368.91
408.31	3266.51
408.52	3413.96
408.73	3383.24
408.94	3327.95
409.15	3381.20
409.37	3434.44
409.58	3485.64
409.79	3547.08
410.00	3585.99
410.21	3497.93
410.43	3436.49
410.64	3387.34
410.85	3559.37
411.06	3577.80
411.27	3549.13
411.48	3680.20
411.70	3526.60
411.91	3557.32
412.12	3624.90
412.33	3688.39
412.54	3547.08
412.76	3626.95
412.97	3639.24
413.18	3698.63
413.39	3629.00
413.60	3745.73
413.81	3702.73
414.03	3723.21
414.24	3624.90
414.45	3805.13
414.66	3479.50
414.87	3696.58
415.08	3700.68
415.30	3782.60
415.51	3774.41
415.72	3710.92
415.93	3743.69
416.14	3841.99
416.35	3772.36
416.56	3821.51
416.78	3778.50
416.99	3784.65
417.20	3862.47
417.41	3827.65
417.62	3856.33
417.83	3901.38
418.04	3907.52
418.26	3962.82
418.47	3950.53
418.68	4097.99
418.89	3911.62
419.10	4124.61
419.31	3911.62
419.52	3964.87
419.73	4054.98
419.95	4153.28
420.16	3954.63
420.37	4046.79
420.58	4151.23
420.79	3975.11
421.00	4081.60
421.21	4143.04
421.42	4018.11
421.63	4145.09
421.85	3993.54
422.06	4206.53
422.27	4188.10
422.48	4224.96
422.69	4198.34
422.90	4214.72
423.11	4308.93
423.32	4413.37
423.53	4327.36
423.75	4315.07
423.96	4370.37
424.17	4433.85
424.38	4470.72
424.59	4466.62
424.80	4542.39
425.01	4315.07
425.22	4364.22
425.43	4495.29
425.64	4464.57
425.85	4460.48
426.06	4560.83
426.28	4483.00
426.49	4530.11
426.70	4521.92
426.91	4675.51
427.12	4757.43
427.33	4519.87
427.54	4513.72
427.75	4616.12
427.96	4984.76
428.17	4609.98
428.38	4747.19
428.59	4882.36
428.80	4808.63
429.01	4788.15
429.23	4900.79
429.44	4931.51
429.65	4923.32
429.86	4976.56
430.07	4808.63
430.28	4812.73
430.49	4917.17
430.70	5048.24
430.91	5042.10
431.12	4933.56
431.33	5128.11
431.54	5099.44
431.75	5038.00
431.96	5222.32
432.17	5033.91
432.38	5035.96
432.59	5289.90
432.80	5121.97
433.01	5201.84
433.22	5298.10
433.43	5232.56
433.64	5220.27
433.85	5140.40
434.06	5416.88
434.27	5281.71
434.49	5277.62
434.70	5455.79
434.91	5406.64
435.12	5406.64
435.33	5287.86
435.54	5363.63
435.75	5185.46
435.96	5414.83
436.17	5287.86
436.38	5550.00
436.59	5576.62
436.80	5435.31
437.01	5875.62
437.22	5900.20
437.43	5687.21
437.64	5490.60
437.85	5730.22
438.06	5617.58
438.27	5451.69
438.48	5605.29
438.69	5693.35
438.90	5699.50
439.11	5648.30
439.32	5857.19
439.53	5728.17
439.74	5734.31
439.95	5955.49
440.16	5910.44
440.37	5887.91
440.57	5681.07
440.78	5928.87
440.99	5838.76
441.20	5908.39
441.41	5836.71
441.62	5875.62
441.83	5803.94
442.04	5930.92
442.25	6033.32
442.46	5935.01
442.67	6084.52
442.88	6352.80
443.09	5990.31
443.30	6016.93
443.51	6002.60
443.72	6336.42
443.93	5994.40
444.14	6408.09
444.35	6053.80
444.56	6365.09
444.77	6332.32
444.98	6260.64
445.19	6295.46
445.40	6240.16
445.61	6301.60
445.81	6383.52
446.02	6449.05
446.23	6475.68
446.44	6217.63
446.65	6530.97
446.86	6352.80
447.07	6475.68
447.28	6467.49
447.49	6592.41
447.70	6498.20
447.91	6633.37
448.12	6569.88
448.33	6713.24
448.54	6887.32
448.74	6637.47
448.95	6588.32
449.16	6567.84
449.37	7100.31
449.58	6602.65
449.79	7006.10
450.00	6764.44
450.21	6838.17
450.42	7002.01
450.63	7016.34
450.84	6883.22
451.05	6963.09
451.25	7090.07
451.46	6997.91
451.67	7102.36
451.88	7059.35
452.09	7192.47
452.30	6961.05
452.51	7012.24
452.72	7247.76
452.93	7391.12
453.13	7229.33
453.34	7237.52
453.55	7266.19
453.76	7251.86
453.97	7479.18
454.18	7227.28
454.39	7448.46
454.60	7542.67
454.81	7516.05
455.01	7655.31
455.22	7241.62
455.43	7491.47
455.64	7720.84
455.85	7876.49
456.06	7884.68
456.27	7714.70
456.48	7774.09
456.68	7876.49
456.89	7872.39
457.10	7870.34
457.31	7907.21
457.52	7843.72
457.73	8019.85
457.94	8040.33
458.14	7942.02
458.35	8310.66
458.56	8101.76
458.77	8112.00
458.98	8236.93
459.19	8347.52
459.39	8505.21
459.60	8607.61
459.81	8368.00
460.02	8501.12
460.23	8380.29
460.44	8566.65
460.65	8628.09
460.85	8748.92
461.06	8691.58
461.27	8451.97
461.48	8818.55
461.69	9062.26
461.89	8429.44
462.10	8900.47
462.31	8712.06
462.52	8841.08
462.73	8867.70
462.94	9129.84
463.14	9068.41
463.35	9185.14
463.56	9488.24
463.77	9371.50
463.98	9197.43
464.18	9344.88
464.39	9564.01
464.60	9623.41
464.81	9521.01
465.02	9406.32
465.23	9666.41
465.43	9592.69
465.64	9824.11
465.85	9705.32
466.06	9678.70
466.27	9940.84
466.47	9985.90
466.68	10030.95
466.89	9979.75
467.10	10082.15
467.30	9971.56
467.51	10518.37
467.72	10518.37
467.93	10006.38
468.14	10157.92
468.34	10395.49
468.55	10461.02
468.76	10631.01
468.97	10354.53
469.17	10694.49
469.38	10721.12
469.59	10667.87
469.80	10686.30
470.01	10805.08
470.21	10876.76
470.42	11038.55
470.63	11188.05
470.84	10882.91
471.04	11282.26
471.25	11341.65
471.46	11138.90
471.67	11482.96
471.87	11614.03
472.08	11585.36
472.29	11595.60
472.50	11601.74
472.70	11386.71
472.91	11581.26
473.12	12087.11
473.33	11935.56
473.53	12169.03
473.74	11949.90
473.95	12539.71
474.16	12306.24
474.36	12463.94
474.57	12308.29
474.78	12631.87
474.99	12228.42
475.19	12500.80
475.40	12726.08
475.61	12898.11
475.81	12859.20
476.02	13229.88
476.23	12904.25
476.44	13297.46
476.64	13297.46
476.85	13532.98
477.06	13117.24
477.27	13582.13
477.47	13528.88
477.68	13686.58
477.89	13608.75
478.09	13827.88
478.30	14004.01
478.51	14108.46
478.71	14081.83
478.92	14231.33
479.13	14053.16
479.34	14329.64
479.54	14348.07
479.75	14421.80
479.96	14608.16
480.16	14677.79
480.37	14528.29
480.58	14845.73
480.78	14989.08
480.99	14864.16
481.20	15249.18
481.41	15331.09
481.61	15327.00
481.82	15468.31
482.03	15417.11
482.23	15548.18
482.44	15892.24
482.65	15847.18
482.85	15906.57
483.06	15908.62
483.27	15920.91
483.47	15918.86
483.68	16133.90
483.89	16230.15
484.09	16228.10
484.30	16596.74
484.51	16502.53
484.71	16713.47
484.92	16637.70
485.13	16844.54
485.33	16887.55
485.54	16725.76
485.75	17149.69
485.95	17153.79
486.16	17278.71
486.37	17551.09
486.57	17293.05
486.78	17125.11
486.98	17166.07
487.19	17590.00
487.40	17659.63
487.60	17686.26
487.81	17575.67
488.02	17862.38
488.22	17809.14
488.43	18216.68
488.64	18034.41
488.84	18192.11
489.05	18566.88
489.25	18454.25
489.46	18734.82
489.67	18757.35
489.87	18732.77
490.08	19056.35
490.29	18777.83
490.49	19250.91
490.70	19146.46
490.90	19271.39
491.11	19054.30
491.32	19508.95
491.52	19316.44
491.73	19621.59
491.94	19715.80
492.14	19584.73
492.35	20072.14
492.55	20066.00
492.76	19975.89
492.97	20086.48
493.17	20039.37
493.38	20371.15
493.58	20516.55
493.79	20405.96
494.00	20403.91
494.20	20534.98
494.41	20747.97
494.61	20772.55
494.82	20829.89
495.02	21067.45
495.23	21032.64
495.44	21026.50
495.64	21388.99
495.85	21268.16
496.05	21227.20
496.26	21311.16
496.47	21573.30
496.67	21393.08
496.88	21712.56
497.08	21481.14
497.29	22005.42
497.49	21776.05
497.70	21833.39
497.91	22062.77
498.11	22064.82
498.32	22081.20
498.52	22433.45
498.73	22621.86
498.93	22193.84
499.14	22533.80
499.34	22335.15
499.55	22832.80
499.76	22515.37
499.96	22947.49
500.17	22797.99
500.37	22912.67
500.58	22924.96
500.78	23127.71
500.99	23002.78
501.19	23172.77
501.40	23180.96
501.60	23203.49
501.81	23461.53
502.02	23457.43
502.22	23279.26
502.43	23658.14
502.63	23654.04
502.84	23711.38
503.04	23907.99
503.25	23682.71
503.45	23791.25
503.66	24059.54
503.86	24010.39
504.07	24485.51
504.27	24037.01
504.48	24620.68
504.68	24102.54
504.89	24657.54
505.09	24553.10
505.30	24434.32
505.50	24727.17
505.71	24721.03
505.91	24598.15
506.12	24919.68
506.32	25192.06
506.53	25218.69
506.73	24827.53
506.94	25259.65
507.14	24821.38
507.35	25034.37
507.55	25298.56
507.76	25353.85
507.96	25040.51
508.17	25452.16
508.37	25439.87
508.58	25568.89
508.78	25708.15
508.99	25896.56
509.19	25755.26
509.40	25882.23
509.60	25822.84
509.81	26021.49
510.01	25865.85
510.22	25904.76
510.42	25960.05
510.63	26545.77
510.83	26107.51
511.04	26523.24
511.24	26508.91
511.44	26343.02
511.65	26300.01
511.85	26592.87
512.06	26470.00
512.26	26689.13
512.47	26787.43
512.67	26709.61
512.88	26883.69
513.08	26721.90
513.29	26895.97
513.49	26961.51
513.69	26744.42
513.90	27186.79
514.10	27068.00
514.31	27199.07
514.51	27338.33
514.72	27252.32
514.92	27330.14
515.13	27647.58
515.33	27280.99
515.53	27670.11
515.74	27606.62
515.94	27733.59
516.15	27618.91
516.35	27559.52
516.56	28030.55
516.76	27989.59
516.96	27913.81
517.17	27995.73
517.37	27704.92
517.58	27811.42
517.78	28120.66
517.99	28249.68
518.19	28567.12
518.39	28243.54
518.60	28429.90
518.80	28272.21
519.01	28644.94
519.21	28669.51
519.41	28835.40
519.62	28718.67
519.82	28741.19
520.03	28579.40
520.23	28835.40
520.43	28843.59
520.64	29075.01
520.84	29394.50
521.05	29183.55
521.25	29433.41
521.45	29316.67
521.66	29484.61
521.86	29124.16
522.07	29619.77
522.27	29732.41
522.47	29845.05
522.68	30099.00
522.88	29953.59
523.08	30025.27
523.29	29808.19
523.49	30238.26
523.70	30197.30
523.90	30318.13
524.10	30176.82
524.31	30469.68
524.51	30250.55
524.71	30869.03
524.92	30508.59
525.12	30955.05
525.33	30375.47
525.53	30680.62
525.73	31071.78
525.94	31049.25
526.14	30981.67
526.34	31225.38
526.55	31108.65
526.75	31331.87
526.95	31475.23
527.16	31360.55
527.36	31530.53
527.56	31583.77
527.77	31745.56
527.97	31958.55
528.17	31772.19
528.38	31923.74
528.58	32212.50
528.78	32296.47
528.99	31723.04
529.19	32525.84
529.39	31946.26
529.60	32521.74
529.80	32419.35
530.00	32454.16
530.21	32712.20
530.41	32755.21
530.61	32712.20
530.82	32888.33
531.02	32828.94
531.22	33330.69
531.43	33261.06
531.63	33449.47
531.83	33641.98
532.04	33746.43
532.24	33314.31
532.44	33955.32
532.64	34188.79
532.85	33834.49
533.05	33848.83
533.25	34506.23
533.46	33879.55
533.66	34567.66
533.86	34039.29
534.07	34807.28
534.27	34680.30
534.47	34876.91
534.67	34833.90
534.88	34758.13
535.08	34897.39
535.28	35063.27
535.49	34952.68
535.69	35362.28
535.89	35741.15
536.09	35386.85
536.30	35696.10
536.50	35421.67
536.70	35704.29
536.91	35810.78
537.11	35823.07
537.31	36107.74
537.51	35784.16
537.72	36349.40
537.92	36347.35
538.12	36251.09
538.32	36197.85
538.53	36367.83
538.73	36597.20
538.93	36574.67
539.13	36525.52
539.34	36482.52
539.54	36761.04
539.74	36857.29
539.94	37336.52
540.15	36730.32
540.35	37246.41
540.55	37164.49
540.75	37520.84
540.96	37467.59
541.16	37348.81
541.36	37436.87
541.56	37230.02
541.77	37815.74
541.97	37871.04
542.17	37670.34
542.37	37672.39
542.58	38088.12
542.78	37864.89
542.98	38012.35
543.18	37885.37
543.38	38034.88
543.59	38555.06
543.79	38211.00
543.99	38192.57
544.19	38727.09
544.40	38045.12
544.60	38862.26
544.80	38950.32
545.00	38710.71
545.20	39177.64
545.41	38778.29
545.61	38464.95
545.81	38909.36
546.01	39228.84
546.21	38958.51
546.42	38901.17
546.62	39136.68
546.82	38897.07
547.02	39536.04
547.22	39130.54
547.43	39124.40
547.63	39503.27
547.83	39646.63
548.03	39300.52
548.23	39738.79
548.44	39325.10
548.64	39753.12
548.84	39949.73
549.04	39615.91
549.24	39843.23
549.45	40295.83
549.65	39787.94
549.85	40146.33
550.05	40353.18
550.25	39753.12
550.45	40646.04
550.66	39888.29
550.86	40181.15
551.06	40756.63
551.26	40555.93
551.46	40107.42
551.66	40215.96
551.87	40500.63
552.07	40510.87
552.27	40727.95
552.47	40539.54
552.67	40822.16
552.87	40592.79
553.07	40535.45
553.28	41131.40
553.48	40801.68
553.68	40533.40
553.88	41276.81
554.08	41307.53
554.28	40613.27
554.48	40568.21
554.69	41248.14
554.89	41397.64
555.09	41588.10
555.29	41026.96
555.49	41395.59
555.69	41649.54
555.89	41323.91
556.10	41573.77
556.30	41158.03
556.50	41506.18
556.70	41563.53
556.90	41690.50
557.10	41149.84
557.30	41362.82
557.50	41852.29
557.70	41866.63
557.91	42120.57
558.11	41846.15
558.31	41774.47
558.51	41756.03
558.71	42296.70
558.91	41979.26
559.11	42161.53
559.31	42104.19
559.51	41766.27
559.72	42272.12
559.92	42317.18
560.12	41997.70
560.32	42122.62
560.52	42079.61
560.72	42681.72
560.92	42190.20
561.12	42605.94
561.32	42612.09
561.52	42382.71
561.72	42931.57
561.93	42321.27
562.13	42607.99
562.33	42210.68
562.53	43081.07
562.73	42669.43
562.93	42524.02
563.13	42704.24
563.33	42466.68
563.53	42880.37
563.73	42440.06
563.93	42659.19
564.13	43052.40
564.33	42620.28
564.53	42761.59
564.74	43269.48
564.94	43056.50
565.14	43179.37
565.34	42710.39
565.54	43394.41
565.74	42898.80
565.94	43681.13
566.14	43269.48
566.34	43187.56
566.54	43339.11
566.74	43269.48
566.94	43525.48
567.14	43517.29
567.34	43625.83
567.54	43900.26
567.74	43341.16
567.94	42976.62
568.14	43957.60
568.34	43709.80
568.54	43734.37
568.74	44066.14
568.94	43808.10
569.14	43621.73
569.34	43783.52
569.54	43916.64
569.75	43791.72
569.95	44014.94
570.15	44279.13
570.35	43844.96
570.55	44045.66
570.75	44283.23
570.95	43652.45
571.15	44418.39
571.35	44246.36
571.55	44526.94
571.75	44367.20
571.95	44780.88
572.15	44537.18
572.35	44703.06
572.55	44643.67
572.75	44402.01
572.95	44553.56
573.15	44574.04
573.35	44840.28
573.55	44469.59
573.75	44754.26
573.95	45040.98
574.15	44619.10
574.35	44916.05
574.55	44971.35
574.75	44586.33
574.95	44948.82
575.15	44883.28
575.34	44707.16
575.54	45421.90
575.74	45337.93
575.94	45546.82
576.14	44805.46
576.34	45434.19
576.54	45587.78
576.74	45469.00
576.94	45634.89
577.14	45389.13
577.34	45374.80
577.54	45600.07
577.74	45608.26
577.94	45788.49
578.14	45849.92
578.34	46134.59
578.54	45456.71
578.74	45284.68
578.94	46097.73
579.14	45659.46
579.34	46013.76
579.54	45616.46
579.74	46732.60
579.94	45911.36
580.13	46273.85
580.33	46447.93
580.53	46241.09
580.73	46112.06
580.93	46609.72
581.13	46609.72
581.33	46828.85
581.53	46642.49
581.73	46914.87
581.93	46679.35
582.13	46992.69
582.33	46796.09
582.53	46546.23
582.73	47070.51
582.92	46914.87
583.12	47240.50
583.32	46988.60
583.52	46908.72
583.72	47179.06
583.92	46892.34
584.12	47256.88
584.32	47658.28
584.52	47539.50
584.72	47527.21
584.92	47500.59
585.11	47748.39
585.31	47760.68
585.51	47621.42
585.71	47596.84
585.91	47658.28
586.11	47711.53
586.31	48041.25
586.51	47734.06
586.71	48266.53
586.91	48354.59
587.10	48260.38
587.30	48676.12
587.50	48153.89
587.70	48147.75
587.90	48340.25
588.10	48307.49
588.30	48475.42
588.50	48473.37
588.69	48495.90
588.89	48157.99
589.09	48692.50
589.29	48540.96
589.49	48987.41
589.69	48112.93
589.89	48891.16
590.08	48665.88
590.28	48678.17
590.48	48921.88
590.68	49061.14
590.88	49222.93
591.08	49009.94
591.28	48938.26
591.47	49378.57
591.67	49294.61
591.87	49173.78
592.07	49296.66
592.27	49222.93
592.47	49251.60
592.67	49607.95
592.86	49110.29
593.06	49573.13
593.26	49884.42
593.46	49661.19
593.66	49710.35
593.86	49898.76
594.05	49775.88
594.25	49909.00
594.45	49595.66
594.65	49706.25
594.85	49851.66
595.05	49992.97
595.24	49931.53
595.44	50021.64
595.64	49945.86
595.84	50205.95
596.04	49954.05
596.23	50726.14
596.43	50361.60
596.63	50001.16
596.83	50181.38
597.03	50629.88
597.22	50793.72
597.42	50050.31
597.62	50744.57
597.82	51094.77
598.02	50967.80
598.21	50771.19
598.41	50676.99
598.61	50861.30
598.81	51211.51
599.01	51238.13
599.20	51006.71
599.40	51201.27
599.60	51148.02
599.80	51332.34
600.00	51039.48
600.19	51270.90
600.39	51404.02
600.59	51279.09
600.79	51770.60
600.98	51555.57
601.18	51778.79
601.38	51694.83
601.58	51999.97
601.78	51973.35
601.97	51987.69
602.17	52333.79
602.37	52049.13
602.57	51895.53
602.76	51989.73
602.96	52298.98
603.16	51971.30
603.36	52333.79
603.55	52499.68
603.75	52368.61
603.95	52524.25
604.15	52597.98
604.34	52384.99
604.54	52675.80
604.74	52567.26
604.94	52866.27
605.13	52874.46
605.33	52298.98
605.53	52798.68
605.73	52929.75
605.92	52786.39
606.12	53427.41
606.32	52974.81
606.52	52409.57
606.71	52901.08
606.91	53245.14
607.11	52696.28
607.30	53271.76
607.50	53236.95
607.70	53523.66
607.90	53556.43
608.09	53339.35
608.29	53443.79
608.49	53361.87
608.68	53388.50
608.88	54172.87
609.08	53570.77
609.28	53738.70
609.47	53402.83
609.67	54273.22
609.87	53884.11
610.06	53986.50
610.26	53914.83
610.46	54064.33
610.66	53771.47
610.85	53888.20
611.05	54152.39
611.25	53794.00
611.44	53626.06
611.64	54031.56
611.84	53966.02
612.03	54015.18
612.23	54480.06
612.43	54074.57
612.62	53839.05
612.82	54166.73
613.02	54338.75
613.21	54271.17
613.41	53865.67
613.61	54066.38
613.80	54082.76
614.00	54090.95
614.20	54170.82
614.39	54131.91
614.59	54326.47
614.79	54283.46
614.98	54592.70
615.18	54635.71
615.38	54297.80
615.57	54172.87
615.77	54699.20
615.97	54279.36
616.16	54359.23
616.36	54420.67
616.56	54455.49
616.75	54523.07
616.95	54209.73
617.15	54213.83
617.34	54312.13
617.54	54291.65
617.74	54586.56
617.93	54744.25
618.13	54129.86
618.32	54670.53
618.52	54348.99
618.72	54478.02
618.91	54688.96
619.11	54785.21
619.31	54361.28
619.50	54817.98
619.70	54535.36
619.90	54447.30
620.09	54367.43
620.29	54721.72
620.48	54490.30
620.68	54783.16
620.88	54299.84
621.07	54871.23
621.27	54670.53
621.46	54299.84
621.66	54717.63
621.86	54518.98
622.05	54060.23
622.25	54883.51
622.44	54437.06
622.64	54621.37
622.84	54891.71
623.03	54588.61
623.23	54891.71
623.42	54561.98
623.62	54785.21
623.82	54981.82
624.01	54473.92
624.21	54545.60
624.40	54392.00
624.60	54625.47
624.80	54674.62
624.99	54566.08
625.19	53957.83
625.38	54697.15
625.58	54447.30
625.77	54559.94
625.97	54713.53
626.17	54183.11
626.36	54555.84
626.56	54314.18
626.75	53918.92
626.95	54834.36
627.14	54654.14
627.34	55223.48
627.54	54367.43
627.73	54535.36
627.93	54770.88
628.12	54148.29
628.32	54666.43
628.51	54537.41
628.71	54695.10
628.90	54502.59
629.10	54756.54
629.30	54682.81
629.49	54490.30
629.69	54621.37
629.88	54650.05
630.08	54803.64
630.27	54932.67
630.47	54688.96
630.66	54699.20
630.86	54879.42
631.05	54273.22
631.25	54748.35
631.44	54432.96
631.64	54465.73
631.84	54701.25
632.03	54977.72
632.23	54826.17
632.42	54844.60
632.62	54492.35
632.81	54883.51
633.01	54213.83
633.20	54752.44
633.40	54727.87
633.59	54955.19
633.79	54584.51
633.98	54770.88
634.18	54908.09
634.37	55141.56
634.57	55129.27
634.76	54985.91
634.96	55008.44
635.15	54975.67
635.35	54600.89
635.54	54951.10
635.74	55039.16
635.93	54877.37
636.13	54969.53
636.32	54860.99
636.52	54645.95
636.71	54574.27
636.91	55682.22
637.10	55280.82
637.30	54871.23
637.49	54793.40
637.69	54719.68
637.88	55121.08
638.08	54777.02
638.27	55411.89
638.46	54922.43
638.66	54645.95
638.85	55149.75
639.05	55096.50
639.24	55260.34
639.44	54867.13
639.63	54944.95
639.83	55121.08
640.02	54922.43
640.22	55047.35
640.41	55215.29
640.61	54846.65
640.80	55139.51
640.99	55198.90
641.19	55495.86
641.38	55033.02
641.58	54971.58
641.77	55256.24
641.97	54994.10
642.16	55209.14
642.36	55399.60
642.55	55420.08
642.74	54947.00
642.94	55661.74
643.13	54889.66
643.33	55139.51
643.52	55413.94
643.72	55203.00
643.91	55186.61
644.10	55119.03
644.30	55481.52
644.49	55235.77
644.69	55571.63
644.88	55583.92
645.08	55135.41
645.27	55530.67
645.46	55127.22
645.66	55770.28
645.85	55284.92
646.05	55235.77
646.24	55256.24
646.43	55698.61
646.63	55522.48
646.82	55944.36
647.02	55366.84
647.21	55684.27
647.40	55473.33
647.60	55473.33
647.79	55805.10
647.99	55858.35
648.18	55344.31
648.37	55934.12
648.57	55764.14
648.76	55708.85
648.96	55850.16
649.15	55563.44
649.34	56042.66
649.54	55731.37
649.73	55563.44
649.92	55753.90
650.12	55540.91
650.31	56173.73
650.51	55768.24
650.70	56147.11
650.89	55682.22
651.09	56409.25
651.28	55860.40
651.47	56204.45
651.67	56136.87
651.86	56558.75
652.06	55213.24
652.25	56079.53
652.44	55727.28
652.64	55721.13
652.83	55592.11
653.02	55407.79
653.22	55536.82
653.41	55848.11
653.60	55723.18
653.80	55909.55
653.99	56487.07
654.18	55999.66
654.38	56143.02
654.57	55985.32
654.76	55491.76
654.96	55801.00
655.15	55694.51
655.34	56097.96
655.54	55694.51
655.73	55698.61
655.92	56243.37
656.12	56347.81
656.31	55911.59
656.50	55704.75
656.70	55870.64
656.89	55641.26
657.08	56220.84
657.28	55964.84
657.47	55927.98
657.66	56069.29
657.86	55927.98
658.05	56417.44
658.24	55825.58
658.43	55872.68
658.63	55975.08
658.82	55876.78
659.01	56116.39
659.21	56521.89
659.40	56001.71
659.59	55530.67
659.79	55915.69
659.98	56186.02
660.17	56394.92
660.36	56138.92
660.56	55968.94
660.75	56347.81
660.94	56233.13
661.14	56022.19
661.33	55813.29
661.52	55579.82
661.71	56011.95
661.91	56034.47
662.10	55692.46
662.29	56183.97
662.49	56609.95
662.68	56329.38
662.87	56288.42
663.06	56116.39
663.26	56097.96
663.45	56161.45
663.64	55923.88
663.83	56177.83
664.03	56220.84
664.22	56288.42
664.41	56102.06
664.60	55938.22
664.80	56386.72
664.99	55968.94
665.18	56057.00
665.37	56382.63
665.57	56415.40
665.76	56016.04
665.95	56366.24
666.14	55575.73
666.34	56026.28
666.53	56085.67
666.72	55995.56
666.91	55645.36
667.11	55940.27
667.30	56009.90
667.49	55997.61
667.68	55852.20
667.87	55764.14
668.07	56306.85
668.26	55495.86
668.45	56075.43
668.64	56007.85
668.84	56612.00
669.03	56284.33
669.22	56034.47
669.41	56079.53
669.60	55612.59
669.80	55696.56
669.99	56276.13
670.18	55872.68
670.37	56321.19
670.57	56030.38
670.76	56097.96
670.95	56337.57
671.14	56136.87
671.33	55909.55
671.53	56183.97
671.72	56206.50
671.91	55792.81
672.10	55825.58
672.29	56050.86
672.48	56016.04
672.68	56181.93
672.87	55852.20
673.06	56054.95
673.25	55755.95
673.44	55780.52
673.64	55497.91
673.83	55424.18
674.02	55745.71
674.21	55694.51
674.40	56380.58
674.59	55430.32
674.79	55708.85
674.98	55817.39
675.17	56028.33
675.36	55375.03
675.55	55821.48
675.74	55610.54
675.94	55596.21
676.13	55497.91
676.32	56140.97
676.51	55872.68
676.70	55827.63
676.89	55545.01
677.08	55674.03
677.28	55352.50
677.47	55731.37
677.66	55745.71
677.85	55579.82
678.04	55749.81
678.23	55813.29
678.42	55671.98
678.62	55680.17
678.81	56175.78
679.00	55592.11
679.19	56102.06
679.38	55700.65
679.57	55764.14
679.76	56001.71
679.96	55911.59
680.15	55467.19
680.34	55555.25
680.53	55096.50
680.72	55628.98
680.91	55755.95
681.10	55127.22
681.29	55780.52
681.48	55186.61
681.68	55602.35
681.87	55149.75
682.06	55260.34
682.25	54942.91
682.44	55094.46
682.63	55624.88
682.82	55004.34
683.01	54924.47
683.20	54633.66
683.39	54975.67
683.59	55047.35
683.78	55082.17
683.97	55237.81
684.16	54914.23
684.35	55157.94
684.54	55116.98
684.73	55301.30
684.92	55104.70
685.11	54928.57
685.30	55284.92
685.49	55573.68
685.69	54940.86
685.88	55307.44
686.07	54971.58
686.26	54658.24
686.45	54822.08
686.64	54953.15
686.83	54959.29
687.02	54807.74
687.21	55125.17
687.40	54564.03
687.59	54985.91
687.78	54908.09
687.97	55223.48
688.16	54858.94
688.35	54934.71
688.54	54449.35
688.74	54955.19
688.93	54621.37
689.12	54318.28
689.31	55041.21
689.50	54852.80
689.69	54447.30
689.88	54258.88
690.07	55035.06
690.26	54467.78
690.45	54822.08
690.64	54613.18
690.83	54291.65
691.02	54381.76
691.21	54604.99
691.40	54580.42
691.59	54295.75
691.78	54410.43
691.97	54686.91
692.16	54516.93
692.35	54906.04
692.54	54578.37
692.73	54680.77
692.92	54731.96
693.11	54334.66
693.30	54011.08
693.49	54527.17
693.68	54359.23
693.87	53984.46
694.06	53525.71
694.25	53875.91
694.44	54295.75
694.63	54279.36
694.82	54154.44
695.01	53908.68
695.20	54047.94
695.39	54047.94
695.58	53703.88
695.77	53996.74
695.96	53527.76
696.15	54164.68
696.34	54076.61
696.53	53933.26
696.72	54000.84
696.91	53494.99
697.10	54017.22
697.29	53351.63
697.48	54267.08
697.67	54115.53
697.86	53707.98
698.05	53636.30
698.24	53871.82
698.43	53257.43
698.62	54004.94
698.81	53294.29
699.00	53935.30
699.19	53279.96
699.38	53742.80
699.57	53353.68
699.76	53923.02
699.95	53523.66
700.14	53748.94
700.32	53540.05
700.51	53368.02
700.70	53785.80
700.89	53222.61
701.08	53578.96
701.27	53294.29
701.46	53548.24
701.65	53017.82
701.84	52923.61
702.03	53163.22
702.22	53144.79
702.41	53036.25
702.60	53040.34
702.79	53552.33
702.98	52516.06
703.17	53185.75
703.35	52917.46
703.54	53093.59
703.73	53327.06
703.92	53073.11
704.11	52671.71
704.30	53023.96
704.49	52737.24
704.68	52788.44
704.87	52755.68
705.06	52786.39
705.25	52561.12
705.43	52331.75
705.62	52577.50
705.81	52925.66
706.00	52884.70
706.19	52143.33
706.38	52743.39
706.57	52542.69
706.76	52395.23
706.95	52518.11
707.14	52423.90
707.32	52579.55
707.51	52110.56
707.70	52143.33
707.89	52417.76
708.08	52284.64
708.27	52428.00
708.46	52354.27
708.65	52274.40
708.84	52632.80
709.02	51827.95
709.21	52370.66
709.40	51559.66
709.59	52020.45
709.78	51979.49
709.97	52278.50
710.16	52606.17
710.34	51909.86
710.53	51651.82
710.72	51909.86
710.91	52188.39
711.10	52425.95
711.29	52155.62
711.48	52073.70
711.66	51795.18
711.85	51543.28
712.04	51678.44
712.23	51586.28
712.42	51414.26
712.61	51479.79
712.80	51688.68
712.98	51786.99
713.17	51739.88
713.36	52067.56
713.55	51707.12
713.74	51774.70
713.93	51660.01
714.11	51463.41
714.30	51401.97
714.49	51229.94
714.68	51406.06
714.87	51440.88
715.06	51764.46
715.24	51131.64
715.43	51655.92
715.62	50949.37
715.81	50738.43
716.00	51315.95
716.18	51682.54
716.37	50746.62
716.56	50857.21
716.75	51709.16
716.94	50674.94
717.12	51219.70
717.31	50722.04
717.50	51070.20
717.69	50474.24
717.88	51168.50
718.06	50959.61
718.25	50922.74
718.44	50652.41
718.63	50676.99
718.82	50588.92
719.00	50478.33
719.19	50672.89
719.38	50509.05
719.57	50408.70
719.76	49988.87
719.94	49892.61
720.13	50427.13
720.32	50334.98
720.51	50320.64
720.69	50005.25
720.88	50124.04
721.07	50072.84
721.26	49319.18
721.44	49622.28
721.63	49526.03
721.82	49560.84
722.01	49822.98
722.20	50160.90
722.38	49431.82
722.57	49155.35
722.76	49542.41
722.95	49542.41
723.13	49233.17
723.32	49757.45
723.51	48893.21
723.70	49487.12
723.88	49276.18
724.07	49087.76
724.26	49241.36
724.44	48747.80
724.63	49339.66
724.82	49181.97
725.01	48821.53
725.19	49206.55
725.38	48573.72
725.57	48710.94
725.76	48799.00
725.94	48887.06
726.13	48661.79
726.32	48758.04
726.51	48805.14
726.69	48895.25
726.88	48694.55
727.07	49044.76
727.25	48340.25
727.44	48694.55
727.63	48512.28
727.82	49032.47
728.00	48215.33
728.19	48450.84
728.38	48493.85
728.56	48104.74
728.75	49034.52
728.94	48364.83
729.12	48506.14
729.31	48352.54
729.50	48442.65
729.69	48850.20
729.87	48586.01
730.06	48622.87
730.25	48868.63
730.43	48915.73
730.62	47934.76
730.81	48895.25
730.99	48715.03
731.18	48444.70
731.37	48567.58
731.55	48168.22
731.74	48727.32
731.93	48358.69
732.11	48299.30
732.30	48399.65
732.49	48137.51
732.67	48241.95
732.86	48350.49
733.05	48196.90
733.23	48190.75
733.42	48411.93
733.61	48321.82
733.79	48413.98
733.98	48952.60
734.17	48338.21
734.35	48338.21
734.54	48162.08
734.73	48411.93
734.91	48164.13
735.10	47838.50
735.29	48246.05
735.47	47742.25
735.66	47781.16
735.84	48297.25
736.03	47772.97
736.22	47932.71
736.40	47701.29
736.59	48659.74
736.78	47736.10
736.96	47899.94
737.15	47830.31
737.33	47781.16
737.52	47695.14
737.71	47772.97
737.89	47805.73
738.08	47582.51
738.27	47201.58
738.45	48174.37
738.64	47682.86
738.82	47564.07
739.01	47756.58
739.20	47705.38
739.38	47390.00
739.57	47881.51
739.75	47713.58
739.94	47830.31
740.13	47428.91
740.31	47043.89
740.50	47209.78
740.68	47609.13
740.87	47478.06
741.06	47578.41
741.24	47174.96
741.43	47168.82
741.61	47396.14
741.80	47201.58
741.99	46935.35
742.17	47291.69
742.36	47400.24
742.54	47205.68
742.73	46902.58
742.91	47355.18
743.10	47072.56
743.29	47502.64
743.47	47146.29
743.66	46857.52
743.84	46986.55
744.03	46906.68
744.21	47154.48
744.40	47256.88
744.59	46990.64
744.77	46345.53
744.96	46880.05
745.14	46570.81
745.33	47123.76
745.51	46210.37
745.70	46474.55
745.88	46748.98
746.07	46955.83
746.26	46419.26
746.44	46597.43
746.63	46511.42
746.81	46970.16
747.00	46337.34
747.18	46503.23
747.37	46579.00
747.55	46523.71
747.74	46597.43
747.92	46366.01
748.11	46009.67
748.29	46323.01
748.48	46679.35
748.66	46208.32
748.85	46218.56
749.03	45987.14
749.22	46243.13
749.41	46075.20
749.59	46552.38
749.78	46134.59
749.96	45280.59
750.15	46236.99
750.33	46032.19
750.52	46300.48
750.70	45661.51
750.89	45634.89
751.07	45847.88
751.26	45464.91
751.44	45593.93
751.63	45759.81
751.81	45735.24
752.00	45438.28
752.18	46036.29
752.37	45659.46
752.55	45733.19
752.74	45411.66
752.92	45565.26
753.10	45348.17
753.29	45432.14
753.47	45462.86
753.66	44580.18
753.84	45667.66
754.03	45094.22
754.21	44893.52
754.40	45477.19
754.58	45315.40
754.77	44971.35
754.95	44629.34
755.14	44791.12
755.32	45096.27
755.51	44660.05
755.69	44782.93
755.88	44627.29
756.06	44684.63
756.24	44778.84
756.43	44524.89
756.61	44356.96
756.80	44875.09
756.98	44451.16
757.17	44809.56
757.35	44541.27
757.54	44539.22
757.72	44504.41
757.90	44143.97
758.09	44146.01
758.27	44402.01
758.46	44369.24
758.64	44447.07
758.83	44311.90
759.01	44451.16
759.19	44115.29
759.38	44004.70
759.56	44244.32
759.75	44258.65
759.93	44320.09
760.12	43812.20
760.30	43851.11
760.48	43939.17
760.67	43629.93
760.85	43627.88
761.04	43892.07
761.22	43973.98
761.40	43554.15
761.59	44006.75
761.77	43029.87
761.96	43287.92
762.14	43281.77
762.32	43142.51
762.51	43111.79
762.69	43355.50
762.88	43214.19
763.06	43505.00
763.24	43142.51
763.43	43552.10
763.61	43279.72
763.80	43359.59
763.98	42702.20
764.16	42765.68
764.35	42599.80
764.53	42788.21
764.72	42685.81
764.90	42765.68
765.08	43056.50
765.27	42950.00
765.45	42456.44
765.63	42351.99
765.82	42956.14
766.00	42122.62
766.18	42493.30
766.37	42997.10
766.55	42417.53
766.74	42861.94
766.92	42024.32
767.10	42349.95
767.29	42397.05
767.47	41487.75
767.65	42192.25
767.84	41819.52
768.02	42403.19
768.20	42073.47
768.39	41883.01
768.57	42382.71
768.75	41952.64
768.94	41991.55
769.12	41653.64
769.30	41858.43
769.49	41516.42
769.67	41377.16
769.85	41266.57
770.04	41553.29
770.22	41497.99
770.40	41389.45
770.59	41667.97
770.77	41588.10
770.95	41653.64
771.14	41309.58
771.32	41112.97
771.50	41162.12
771.69	41002.38
771.87	41180.56
772.05	40596.88
772.24	40742.29
772.42	41031.05
772.60	41151.88
772.78	40748.43
772.97	40760.72
773.15	40781.20
773.33	40715.67
773.52	40637.84
773.70	40998.29
773.88	40967.57
774.07	40453.53
774.25	40478.10
774.43	40910.22
774.61	40777.11
774.80	40574.36
774.98	41072.01
775.16	40908.18
775.34	41151.88
775.53	40664.47
775.71	40754.58
775.89	41026.96
776.08	40861.07
776.26	41000.33
776.44	40785.30
776.62	40689.04
776.81	40742.29
776.99	41022.86
777.17	40826.26
777.35	40916.37
777.54	41067.92
777.72	40519.06
777.90	40760.72
778.08	40977.81
778.27	40801.68
778.45	41006.48
778.63	41160.08
778.81	41024.91
779.00	41600.39
779.18	40897.94
779.36	41549.19
779.54	41182.60
779.73	41057.68
779.91	41031.05
780.09	41057.68
780.27	41381.26
780.46	41641.35
780.64	41397.64
780.82	41182.60
781.00	41129.36
781.19	41477.51
781.37	41647.49
781.55	41432.46
781.73	41721.22
781.91	41055.63
782.10	41291.15
782.28	41469.32
782.46	41483.66
782.64	41784.71
782.82	41336.20
783.01	41545.09
783.19	41747.84
783.37	41665.92
783.55	41551.24
783.74	41680.26
783.92	41241.99
784.10	42057.09
784.28	41796.99
784.46	40842.64
784.64	41274.76
784.83	41358.73
785.01	41753.99
785.19	41940.35
785.37	41379.21
785.55	41198.99
785.74	41035.15
785.92	41125.26
786.10	41405.83
786.28	41233.80
786.46	41051.53
786.64	41147.79
786.83	41155.98
787.01	41389.45
787.19	40986.00
787.37	41172.36
787.55	41385.35
787.74	40990.09
787.92	40689.04
788.10	40928.66
788.28	40621.46
788.46	41043.34
788.64	40330.65
788.82	41287.05
789.01	40967.57
789.19	40650.13
789.37	40537.49
789.55	40674.71
789.73	40369.56
789.91	40193.43
790.09	40414.62
790.28	40166.81
790.46	40349.08
790.64	40289.69
790.82	40191.39
791.00	39939.49
791.18	39906.72
791.36	39994.78
791.55	40017.31
791.73	39650.72
791.91	39863.71
792.09	39789.98
792.27	39820.70
792.45	39888.29
792.63	39390.63
792.81	39335.34
793.00	39310.76
793.18	39062.96
793.36	38794.67
793.54	38849.97
793.72	39007.66
793.90	38849.97
794.08	38565.30
794.26	38712.75
794.44	38708.66
794.62	38368.69
794.81	38716.85
794.99	38661.55
795.17	38399.41
795.35	38520.24
795.53	38512.05
795.71	38548.92
795.89	38217.14
796.07	37811.65
796.25	37799.36
796.43	37838.27
796.61	37432.77
796.80	37434.82
796.98	37664.19
797.16	37746.11
797.34	37430.72
797.52	37316.04
797.70	37623.23
797.88	37254.60
798.06	37322.18
798.24	36937.16
798.42	37037.51
798.60	36799.95
798.78	36484.56
798.96	36941.26
799.14	36699.60
799.32	36695.50
799.51	36640.21
799.69	36453.84
799.87	36769.23
800.05	36218.33
800.23	36535.76
800.41	36308.44
800.59	36185.56
800.77	35886.56
800.95	35583.46
801.13	35888.60
801.31	35646.94
801.49	35800.54
801.67	35390.95
801.85	35436.00
802.03	35616.22
802.21	34985.45
802.39	35173.86
802.57	35085.80
802.75	34799.08
802.93	35202.53
803.11	35114.47
803.29	34739.69
803.47	35071.46
803.65	34700.78
803.83	34733.55
804.01	34778.61
804.19	34323.96
804.37	34479.60
804.55	34313.72
804.73	34057.72
804.91	34274.80
805.09	34450.93
805.27	34457.07
805.45	33828.35
805.63	34190.84
805.81	33992.19
805.99	33863.16
806.17	34018.81
806.35	33572.35
806.53	33639.93
806.71	33533.44
806.89	33582.59
807.07	33734.14
807.25	33373.70
807.43	33093.13
807.61	33644.03
807.79	33097.22
807.97	32882.19
808.15	32661.01
808.33	33017.35
808.51	33054.22
808.69	33031.69
808.87	32656.91
809.05	32396.82
809.23	32423.44
809.41	32386.58
809.59	32607.76
809.77	32325.14
809.95	32089.62
810.13	32538.13
810.31	32396.82
810.49	32435.73
810.67	31845.91
810.84	32341.52
811.02	31950.36
811.20	32247.32
811.38	32134.68
811.56	31594.01
811.74	31530.53
811.92	31546.91
812.10	31854.11
812.28	31983.13
812.46	31731.23
812.64	31594.01
812.82	31237.67
813.00	31462.94
813.18	31342.11
813.36	31350.31
813.53	31190.56
813.71	30854.70
813.89	31200.80
814.07	31071.78
814.25	31022.63
814.43	30731.82
814.61	30744.11
814.79	30674.48
814.97	30799.40
815.15	30684.72
815.33	30555.69
815.50	30320.18
815.68	30635.56
815.86	30443.06
816.04	30285.36
816.22	30133.81
816.40	30334.51
816.58	30078.52
816.76	30068.28
816.94	30088.76
817.11	29896.25
817.29	29937.21
817.47	30088.76
817.65	30088.76
817.83	29818.42
818.01	29716.03
818.19	29664.83
818.37	29607.48
818.54	29527.61
818.72	29240.90
818.90	29748.79
819.08	29605.44
819.26	29466.17
819.44	29406.78
819.62	29519.42
819.80	29478.46
819.97	29337.15
820.15	29167.17
820.33	28837.45
820.51	29363.78
820.69	29122.12
820.87	29230.66
821.05	29290.05
821.22	29167.17
821.40	28948.04
821.58	28724.81
821.76	28483.15
821.94	28628.56
822.12	28720.71
822.29	28886.60
822.47	28644.94
822.65	28573.26
822.83	28728.91
823.01	28677.71
823.19	28458.57
823.36	28110.42
823.54	27848.28
823.72	28458.57
823.90	28304.98
824.08	27643.48
824.25	28184.15
824.43	27608.67
824.61	28030.55
824.79	28094.04
824.97	27917.91
825.15	27924.05
825.32	27922.01
825.50	27536.99
825.68	27807.32
825.86	28046.93
826.04	27774.55
826.21	27960.92
826.39	27651.67
826.57	27536.99
826.75	27760.22
826.93	27643.48
827.10	27340.38
827.28	27383.39
827.46	27635.29
827.64	27469.40
827.81	26967.65
827.99	27338.33
828.17	27139.68
828.35	27170.40
828.53	27299.42
828.70	27231.84
828.88	26803.82
829.06	27125.35
829.24	27133.54
829.41	26861.16
829.59	27065.96
829.77	27248.22
829.95	27188.83
830.12	26691.18
830.30	26928.74
830.48	27065.96
830.66	26832.49
830.84	26781.29
831.01	26863.21
831.19	26875.49
831.37	26644.07
831.55	26725.99
831.72	26586.73
831.90	26379.89
832.08	26605.16
832.25	26463.85
832.43	26273.39
832.61	26332.78
832.79	26250.86
832.96	26220.14
833.14	26355.31
833.32	26154.61
833.50	26412.65
833.67	26246.77
833.85	26054.26
834.03	26084.98
834.20	26539.63
834.38	26142.32
834.56	26156.66
834.74	26033.78
834.91	26132.08
835.09	25984.63
835.27	25484.92
835.44	25867.89
835.62	25218.69
835.80	25769.59
835.98	25808.50
836.15	26015.35
836.33	25599.61
836.51	25695.86
836.68	25312.89
836.86	25335.42
837.04	25704.06
837.21	25190.02
837.39	25372.28
837.57	25470.59
837.75	25384.57
837.92	25093.76
838.10	25476.73
838.28	24872.58
838.45	25003.65
838.63	25249.41
838.81	25241.21
838.98	25185.92
839.16	25075.33
839.34	24698.50
839.51	24825.48
839.69	24755.85
839.87	24800.90
840.04	25120.38
840.22	24802.95
840.40	24784.52
840.57	24487.56
840.75	24649.35
840.93	24655.50
841.10	24923.78
841.28	25104.00
841.46	24876.68
841.63	24837.76
841.81	24587.91
841.98	24602.25
842.16	24888.96
842.34	24252.05
842.51	24376.97
842.69	24622.73
842.87	24432.27
843.04	24241.81
843.22	24188.56
843.40	24284.81
843.57	23989.91
843.75	24288.91
843.92	24479.37
844.10	24532.62
844.28	24313.48
844.45	24096.40
844.63	24026.77
844.81	23871.12
844.98	24102.54
845.16	23975.57
845.33	23981.71
845.51	24080.02
845.69	23879.32
845.86	23707.29
846.04	23643.80
846.21	23840.40
846.39	23568.02
846.57	23912.08
846.74	23819.92
846.92	23695.00
847.09	23819.92
847.27	23613.08
847.45	23371.42
847.62	23482.01
847.80	23256.73
847.97	23342.75
848.15	23699.09
848.32	23314.08
848.50	23330.46
848.68	23346.84
848.85	23352.99
849.03	23211.68
849.20	23410.33
849.38	23457.43
849.56	23436.95
849.73	23183.01
849.91	23180.96
850.08	23570.07
850.26	22845.09
850.43	23414.43
850.61	23060.13
850.78	22935.20
850.96	22978.21
851.14	22720.17
851.31	23047.84
851.49	22820.52
851.66	22970.02
851.84	22828.71
852.01	22965.92
852.19	22990.50
852.36	22630.05
852.54	22793.89
852.71	22804.13
852.89	22449.83
853.07	22664.87
853.24	22996.64
853.42	22986.40
853.59	22701.73
853.77	22791.84
853.94	22820.52
854.12	22773.41
854.29	22552.23
854.47	22398.63
854.64	22511.27
854.82	22179.50
854.99	22658.73
855.17	22523.56
855.34	22242.99
855.52	22353.58
855.69	22554.28
855.87	22294.19
856.04	22111.92
856.22	22111.92
856.39	21821.11
856.57	21997.23
856.74	21933.75
856.92	22257.32
857.09	21939.89
857.27	21870.26
857.44	22005.42
857.62	22083.25
857.79	22003.38
857.97	21982.90
858.14	21864.11
858.32	21984.94
858.49	21714.61
858.67	22015.66
858.84	21628.60
859.02	21794.48
859.19	21821.11
859.37	21786.29
859.54	21757.62
859.72	21903.03
859.89	21638.84
860.06	21538.49
860.24	21563.06
860.41	21685.94
860.59	21393.08
860.76	21700.28
860.94	21149.37
861.11	21434.04
861.29	21350.07
861.46	21323.45
861.64	21130.94
861.81	21520.06
861.98	21259.96
862.16	20979.39
862.33	20809.41
862.51	20977.34
862.68	21026.50
862.86	20930.24
863.03	21102.27
863.21	20946.62
863.38	20809.41
863.55	20913.86
863.73	20936.38
863.90	21229.24
864.08	20805.31
864.25	20836.03
864.43	20899.52
864.60	20799.17
864.77	20674.24
864.95	20678.34
865.12	20491.98
865.30	20575.94
865.47	20596.42
865.64	20750.02
865.82	20643.52
865.99	20489.93
866.17	20293.32
866.34	20711.11
866.51	20389.58
866.69	20471.50
866.86	20645.57
867.04	20383.43
867.21	20285.13
867.38	20109.01
867.56	20051.66
867.73	20104.91
867.91	20051.66
868.08	20231.88
868.25	20006.61
868.43	20027.09
868.60	19873.49
868.78	20012.75
868.95	19994.32
869.12	20242.12
869.30	20055.76
869.47	20098.77
869.64	19857.10
869.82	19867.34
869.99	19648.21
870.16	19779.28
870.34	19713.75
870.51	19793.62
870.69	19427.03
870.86	19775.19
871.03	19470.04
871.21	19463.90
871.38	19525.33
871.55	19398.36
871.73	19533.53
871.90	19660.50
872.07	19271.39
872.25	19232.47
872.42	19338.97
872.59	19175.13
872.77	19314.39
872.94	19211.99
873.11	19119.84
873.29	19109.60
873.46	19074.78
873.63	19039.97
873.81	19209.95
873.98	18824.93
874.15	18915.04
874.33	18767.59
874.50	18487.01
874.67	18626.28
874.85	18622.18
875.02	18708.19
875.19	18439.91
875.37	18564.84
875.54	18472.68
875.71	18425.57
875.88	18378.47
876.06	18579.17
876.23	18669.28
876.40	18255.59
876.58	18542.31
876.75	18167.53
876.92	18413.29
877.10	18335.46
877.27	18208.49
877.44	18001.65
877.61	18030.32
877.79	18179.82
877.96	18095.85
878.13	18056.94
878.31	17997.55
878.48	17929.97
878.65	17909.49
878.82	17555.19
879.00	17903.34
879.17	17876.72
879.34	17817.33
879.51	17630.96
879.69	17600.24
879.86	17622.77
880.03	17616.63
880.21	17571.57
880.38	17737.46
880.55	17665.78
880.72	17377.01
880.90	17471.22
881.07	17350.39
881.24	17397.49
881.41	17788.66
881.59	17747.70
881.76	17377.01
881.93	17297.14
882.10	17237.75
882.28	17096.44
882.45	17331.96
882.62	17276.66
882.79	17350.39
882.96	17090.30
883.14	17471.22
883.31	17366.78
883.48	17075.96
883.65	17065.72
883.83	17118.97
884.00	17204.99
884.17	16951.04
884.34	17157.88
884.51	16981.76
884.69	17106.68
884.86	16955.13
885.03	17092.35
885.20	16690.95
885.38	16895.74
885.55	16774.91
885.72	17106.68
885.89	16680.71
886.06	16697.09
886.24	16785.15
886.41	16541.44
886.58	16805.63
886.75	16930.56
886.92	16453.38
887.10	16629.51
887.27	16502.53
887.44	16623.36
887.61	16793.34
887.78	16729.86
887.95	16615.17
888.13	16516.87
888.30	16432.90
888.47	16508.68
888.64	16633.60
888.81	16369.41
888.99	16393.99
889.16	16187.14
889.33	16080.65
889.50	16590.59
889.67	16496.39
889.84	16101.13
890.01	16373.51
890.19	15982.35
890.36	16240.39
890.53	16060.17
890.70	15920.91
890.87	16025.36
891.04	16144.14
891.22	15822.61
891.39	16056.08
891.56	15879.95
891.73	15974.16
891.90	15943.44
892.07	15630.10
892.24	15681.30
892.42	15646.48
892.59	15646.48
892.76	15529.75
892.93	15828.75
893.10	15914.77
893.27	15646.48
893.44	15724.30
893.61	15685.39
893.79	15740.69
893.96	15587.09
894.13	15687.44
894.30	15621.91
894.47	15609.62
894.64	15499.03
894.81	15456.02
894.98	15783.70
895.15	15615.76
895.33	15552.27
895.50	15413.01
895.67	15509.27
895.84	15433.49
896.01	15286.04
896.18	15343.38
896.35	15484.69
896.52	15402.77
896.69	15484.69
896.86	15488.79
897.04	15578.90
897.21	15421.20
897.38	15505.17
897.55	15533.84
897.72	15640.34
897.89	15499.03
898.06	15509.27
898.23	15466.26
898.40	15355.67
898.57	15462.16
898.74	15503.12
898.91	15570.71
899.08	15576.85
899.26	15570.71
899.43	15341.33
899.60	15218.46
899.77	15513.36
899.94	15333.14
900.11	15257.37
900.28	15372.05
900.45	15175.45
900.62	15488.79
900.79	15603.47
900.96	15546.13
901.13	15480.60
901.30	15107.87
901.47	15425.30
901.64	15396.63
901.81	15441.68
901.98	15085.34
902.15	15478.55
902.32	15312.66
902.49	15568.66
902.66	15519.51
902.83	15234.84
903.01	15304.47
903.18	15300.37
903.35	15400.72
903.52	15091.48
903.69	15480.60
903.86	15339.29
904.03	15341.33
904.20	15531.80
904.37	15509.27
904.54	15240.98
904.71	15228.70
904.88	15312.66
905.05	15163.16
905.22	15189.78
905.39	15023.90
905.56	15271.70
905.73	15009.56
905.90	15408.92
906.07	15212.31
906.24	15515.41
906.41	15202.07
906.58	15263.51
906.75	15071.00
906.92	14829.34
907.09	15093.53
907.26	15099.67
907.43	15130.39
907.60	14972.70
907.77	15386.39
907.93	15095.58
908.10	15314.71
908.27	15286.04
908.44	15032.09
908.61	15224.60
908.78	15025.95
908.95	14966.56
909.12	14759.71
909.29	15068.95
909.46	15118.11
909.63	15265.56
909.80	15101.72
909.97	15073.05
910.14	15120.15
910.31	14755.61
910.48	14941.98
910.65	15148.82
910.82	14862.11
910.99	14903.07
911.16	14913.31
911.33	14753.57
911.50	14864.16
911.66	14554.91
911.83	14817.05
912.00	15001.37
912.17	14853.92
912.34	14599.97
912.51	14892.83
912.68	14649.12
912.85	14884.64
913.02	14569.25
913.19	14497.57
913.36	14679.84
913.53	14759.71
913.70	14724.90
913.86	14628.64
914.03	14364.45
914.20	14419.75
914.37	14479.14
914.54	14501.67
914.71	14358.31
914.88	14348.07
915.05	14442.28
915.22	14206.76
915.39	14294.82
915.55	14337.83
915.72	14257.96
915.89	14116.65
916.06	13950.76
916.23	14333.73
916.40	13963.05
916.57	13944.62
916.74	13946.67
916.91	14130.98
917.07	13823.79
917.24	13860.65
917.41	13784.88
917.58	13997.87
917.75	13803.31
917.92	13516.59
918.09	13795.12
918.26	13782.83
918.42	13553.46
918.59	13836.08
918.76	13393.72
918.93	13414.20
919.10	13551.41
919.27	13399.86
919.44	13623.09
919.60	13563.70
919.77	13211.45
919.94	13213.49
920.11	13231.93
920.28	13375.28
920.45	13152.06
920.61	13291.32
920.78	13276.98
920.95	13029.18
921.12	13039.42
921.29	12930.87
921.46	13016.89
921.62	12869.44
921.79	12877.63
921.96	12973.88
922.13	12836.67
922.30	12652.35
922.47	12572.48
922.63	12545.86
922.80	12461.89
922.97	12584.77
923.14	12386.12
923.31	12584.77
923.47	12566.34
923.64	12701.50
923.81	12406.59
923.98	12289.86
924.15	12267.33
924.32	12250.95
924.48	12359.49
924.65	12293.96
924.82	12093.26
924.99	12128.07
925.15	11923.27
925.32	12048.20
925.49	11808.59
925.66	11939.66
925.83	11824.97
925.99	11947.85
926.16	11953.99
926.33	12023.62
926.50	11515.73
926.67	11714.38
926.83	11695.95
927.00	11614.03
927.17	11390.80
927.34	11355.99
927.50	11558.74
927.67	11571.02
927.84	11312.98
928.01	11325.27
928.17	11269.97
928.34	10979.16
928.51	11216.72
928.68	11040.60
928.84	10964.82
929.01	10743.64
929.18	10854.23
929.35	10846.04
929.51	10684.25
929.68	10678.11
929.85	10614.62
930.02	10784.60
930.18	10489.70
930.35	10671.97
930.52	10622.81
930.69	10463.07
930.85	10413.92
931.02	10350.43
931.19	10456.93
931.36	10440.54
931.52	10239.84
931.69	10471.26
931.86	10162.02
932.02	10264.42
932.19	10076.01
932.36	10166.12
932.53	9928.55
932.69	9899.88
932.86	10024.81
933.03	9797.48
933.19	9717.61
933.36	9678.70
933.53	9768.81
933.70	9633.64
933.86	9805.67
934.03	9699.18
934.20	9430.90
934.36	9492.34
934.53	9199.48
934.70	9193.33
934.86	9250.67
935.03	9224.05
935.20	9199.48
935.36	9015.16
935.53	9039.73
935.70	9060.21
935.86	8966.01
936.03	8826.75
936.20	8753.02
936.36	8628.09
936.53	8580.99
936.70	8578.94
936.86	8478.59
937.03	8476.54
937.20	8144.77
937.36	8365.95
937.53	7942.02
937.70	7978.89
937.86	8064.90
938.03	7970.69
938.20	7839.62
938.36	7663.50
938.53	7878.54
938.70	7528.33
938.86	7565.20
939.03	7198.61
939.20	7274.38
939.36	7331.73
939.53	7120.79
939.70	7485.33
939.86	7051.16
940.03	6928.28
940.19	6662.04
940.36	6799.26
940.53	6817.69
940.69	6686.62
940.86	6633.37
941.03	6492.06
941.19	6375.33
941.36	6586.27
941.52	6516.64
941.69	6137.76
941.86	6301.60
942.02	6123.43
942.19	6154.15
942.35	6043.56
942.52	6010.79
942.69	5842.85
942.85	5920.68
943.02	5889.96
943.18	5822.38
943.35	5924.77
943.52	5957.54
943.68	5687.21
943.85	5861.29
944.01	5613.48
944.18	5603.24
944.35	5687.21
944.51	5517.23
944.68	5468.08
944.84	5529.52
945.01	5529.52
945.17	5537.71
945.34	5494.70
945.51	5513.13
945.67	5509.04
945.84	5398.45
946.00	5285.81
946.17	5455.79
946.33	5296.05
946.50	5377.97
946.67	5226.42
946.83	5341.10
947.00	5414.83
947.16	5275.57
947.33	5324.72
947.49	5318.57
947.66	5277.62
947.82	5283.76
947.99	5302.19
948.16	5201.84
948.32	5347.25
948.49	5369.77
948.65	5351.34
948.82	5285.81
948.98	5236.66
949.15	5238.70
949.31	5414.83
949.48	5459.88
949.64	5261.23
949.81	5179.31
949.97	5212.08
950.14	5455.79
950.30	5253.04
950.47	5238.70
950.63	5281.71
950.80	5326.77
950.96	5230.51
951.13	5328.81
951.30	5414.83
951.46	5371.82
951.63	5324.72
951.79	5326.77
951.96	5474.22
952.12	5382.06
952.29	5328.81
952.45	5328.81
952.62	5560.24
952.78	5404.59
952.94	5404.59
953.11	5443.50
953.27	5382.06
953.44	5455.79
953.60	5418.93
953.77	5599.15
953.93	5437.36
954.10	5468.08
954.26	5396.40
954.43	5492.65
954.59	5511.08
954.76	5597.10
954.92	5521.32
955.09	5529.52
955.25	5463.98
955.42	5476.27
955.58	5488.56
955.75	5584.81
955.91	5423.02
956.07	5316.53
956.24	5543.85
956.40	5695.40
956.57	5570.48
956.73	5420.97
956.90	5513.13
957.06	5308.34
957.23	5455.79
957.39	5527.47
957.56	5461.93
957.72	5328.81
957.88	5457.84
958.05	5482.41
958.21	5625.77
958.38	5560.24
958.54	5457.84
958.71	5631.91
958.87	5380.01
959.03	5443.50
959.20	5511.08
959.36	5414.83
959.53	5453.74
959.69	5445.55
959.85	5509.04
960.02	5412.78
960.18	5509.04
960.35	5525.42
960.51	5541.80
960.68	5294.00
960.84	5390.25
961.00	5455.79
961.17	5394.35
961.33	5369.77
961.50	5429.17
961.66	5529.52
961.82	5425.07
961.99	5390.25
962.15	5388.21
962.31	5451.69
962.48	5597.10
962.64	5564.33
962.81	5425.07
962.97	5318.57
963.13	5373.87
963.30	5314.48
963.46	5287.86
963.62	5490.60
963.79	5418.93
963.95	5326.77
964.12	5386.16
964.28	5437.36
964.44	5392.30
964.61	5474.22
964.77	5375.92
964.93	5339.05
965.10	5406.64
965.26	5242.80
965.42	5279.66
965.59	5242.80
965.75	5322.67
965.92	5406.64
966.08	5330.86
966.24	5412.78
966.41	5302.19
966.57	5322.67
966.73	5212.08
966.90	5312.43
967.06	5226.42
967.22	5232.56
967.39	5240.75
967.55	5255.09
967.71	5173.17
967.88	5220.27
968.04	5113.78
968.20	5296.05
968.37	5130.16
968.53	5085.11
968.69	5300.14
968.85	5285.81
969.02	5316.53
969.18	5195.70
969.34	5228.46
969.51	5119.92
969.67	5201.84
969.83	5140.40
970.00	5287.86
970.16	4945.84
970.32	5152.69
970.48	5296.05
970.65	5119.92
970.81	5003.19
970.97	5021.62
971.14	5025.72
971.30	5138.35
971.46	5078.96
971.63	4982.71
971.79	5087.15
971.95	4927.41
972.11	5033.91
972.28	4775.86
972.44	5023.67
972.60	4855.73
972.76	4808.63
972.93	4908.98
973.09	4958.13
973.25	4941.75
973.42	4935.60
973.58	5017.52
973.74	4908.98
973.90	4845.49
974.07	4861.88
974.23	4968.37
974.39	4825.01
974.55	4820.92
974.72	4888.50
974.88	4706.23
975.04	4886.45
975.20	4759.48
975.37	4884.41
975.53	4779.96
975.69	4820.92
975.85	4691.90
976.01	4739.00
976.18	4757.43
976.34	4786.10
976.50	4646.84
976.66	4886.45
976.83	4718.52
976.99	4724.66
977.15	4730.81
977.31	4493.24
977.47	4698.04
977.64	4616.12
977.80	4786.10
977.96	4673.46
978.12	4710.33
978.29	4599.74
978.45	4564.92
978.61	4614.07
978.77	4687.80
978.93	4521.92
979.10	4476.86
979.26	4734.90
979.42	4401.08
979.58	4349.89
979.74	4528.06
979.91	4558.78
980.07	4462.52
980.23	4419.52
980.39	4446.14
980.55	4491.20
980.71	4489.15
980.88	4351.93
981.04	4444.09
981.20	4460.48
981.36	4374.46
981.52	4458.43
981.68	4280.25
981.85	4386.75
982.01	4368.32
982.17	4298.69
982.33	4343.74
982.49	4403.13
982.65	4294.59
982.82	4421.56
982.98	4310.97
983.14	4212.67
983.30	4327.36
983.46	4452.28
983.62	4323.26
983.79	4169.66
983.95	4218.82
984.11	4138.94
984.27	4181.95
984.43	4163.52
984.59	4231.10
984.75	4259.78
984.91	4075.46
985.08	4229.06
985.24	4153.28
985.40	4081.60
985.56	4130.75
985.72	4321.21
985.88	4181.95
986.04	4163.52
986.20	4188.10
986.37	4009.92
986.53	4057.03
986.69	4208.58
986.85	4102.08
987.01	4007.87
987.17	4050.88
987.33	3997.64
987.49	3940.29
987.65	4091.84
987.82	3985.35
987.98	3917.76
988.14	3983.30
988.30	3917.76
988.46	3913.67
988.62	3948.48
988.78	3852.23
988.94	3827.65
989.10	3844.04
989.26	3825.61
989.42	3868.61
989.59	3805.13
989.75	3762.12
989.91	3882.95
990.07	3629.00
990.23	3817.41
990.39	3610.57
990.55	3958.72
990.71	3737.54
990.87	3772.36
991.03	3887.04
991.19	3657.67
991.35	3624.90
991.51	3819.46
991.67	3928.00
991.83	3858.37
992.00	3690.44
992.16	3809.22
992.32	3733.45
992.48	3846.09
992.64	3626.95
992.80	3704.78
992.96	3704.78
993.12	3655.62
993.28	3743.69
993.44	3727.30
993.60	3629.00
993.76	3659.72
993.92	3772.36
994.08	3659.72
994.24	3581.90
994.40	3452.88
994.56	3559.37
994.72	3577.80
994.88	3538.89
995.04	3567.56
995.20	3526.60
995.36	3444.68
995.52	3538.89
995.68	3530.70
995.84	3473.36
996.00	3497.93
996.16	3481.55
996.32	3444.68
996.48	3473.36
996.64	3649.48
996.80	3377.10
996.96	3420.11
997.12	3385.29
997.28	3336.14
997.44	3397.58
997.60	3375.05
997.76	3354.57
997.92	3383.24
998.08	3313.61
998.24	3282.89
998.40	3348.43
998.56	3452.88
998.72	3223.50
998.88	3274.70
999.04	3284.94
999.20	3330.00
999.36	3182.54
999.52	3432.40
999.68	3280.85
999.84	3264.46
1000.00	3192.78
1000.16	3362.76
1000.32	3260.37
1000.48	3346.38
1000.64	3209.17
1000.80	3164.11
1000.95	3160.02
1001.11	3295.18
1001.27	3176.40
1001.43	3309.52
1001.59	3110.86
1001.75	3098.58
1001.91	3227.60
1002.07	3149.78
1002.23	3164.11
1002.39	3121.10
1002.55	3067.86
1002.71	3080.14
1002.87	3153.87
1003.03	3057.62
1003.19	3094.48
1003.34	3248.08
1003.50	3104.72
1003.66	3149.78
1003.82	3131.34
1003.98	3106.77
1004.14	3153.87
1004.30	2998.23
1004.46	2959.31
1004.62	2998.23
1004.78	3006.42
1004.94	3026.90
1005.09	3051.47
1005.25	3024.85
1005.41	2967.51
1005.57	2881.49
1005.73	3043.28
1005.89	2942.93
1006.05	2994.13
1006.21	2914.26
1006.37	2871.25
1006.52	2904.02
1006.68	2781.14
1006.84	2914.26
1007.00	2801.62
1007.16	2969.55
1007.32	2832.34
1007.48	3016.66
1007.64	2928.60
1007.79	2844.63
1007.95	2893.78
1008.11	2910.16
1008.27	2891.73
1008.43	2834.39
1008.59	2916.31
1008.75	2848.72
1008.91	2889.68
1009.06	2813.91
1009.22	2865.11
1009.38	2793.43
1009.54	2744.28
1009.70	2758.61
1009.86	2832.34
1010.01	2781.14
1010.17	2746.33
1010.33	2834.39
1010.49	2805.72
1010.65	2838.48
1010.81	2799.57
1010.96	2760.66
1011.12	2598.87
1011.28	2658.26
1011.44	2748.37
1011.60	2748.37
1011.76	2717.65
1011.91	2820.05
1012.07	2744.28
1012.23	2617.30
1012.39	2611.16
1012.55	2752.47
1012.71	2553.82
1012.86	2541.53
1013.02	2746.33
1013.18	2576.34
1013.34	2674.65
1013.50	2641.88
1013.65	2639.83
1013.81	2598.87
1013.97	2586.58
1014.13	2652.12
1014.29	2598.87
1014.44	2586.58
1014.60	2543.58
1014.76	2572.25
1014.92	2602.97
1015.07	2580.44
1015.23	2582.49
1015.39	2508.76
1015.55	2557.91
1015.71	2656.22
1015.86	2543.58
1016.02	2510.81
1016.18	2478.04
1016.34	2568.15
1016.49	2529.24
1016.65	2623.45
1016.81	2568.15
1016.97	2582.49
1017.12	2473.95
1017.28	2441.18
1017.44	2398.17
1017.60	2459.61
1017.75	2510.81
1017.91	2414.56
1018.07	2451.42
1018.23	2457.56
1018.38	2389.98
1018.54	2475.99
1018.70	2422.75
1018.86	2486.23
1019.01	2353.12
1019.17	2432.99
1019.33	2486.23
1019.49	2516.95
1019.64	2402.27
1019.80	2375.64
1019.96	2439.13
1020.12	2394.08
1020.27	2320.35
1020.43	2371.55
1020.59	2418.65
1020.74	2394.08
1020.90	2381.79
1021.06	2293.72
1021.22	2291.68
1021.37	2371.55
1021.53	2299.87
1021.69	2373.60
1021.84	2158.56
1022.00	2375.64
1022.16	2295.77
1022.31	2330.59
1022.47	2402.27
1022.63	2320.35
1022.79	2131.94
1022.94	2291.68
1023.10	2342.88
1023.26	2250.72
1023.41	2242.53
1023.57	2254.81
1023.73	2367.45
1023.88	2289.63
1024.04	2230.24
1024.20	2242.53
1024.35	2277.34
1024.51	2248.67
1024.67	2283.49
1024.82	2283.49
1024.98	2197.47
1025.14	2252.77
1025.29	2115.55
1025.45	2289.63
1025.61	2213.85
1025.76	2187.23
1025.92	2209.76
1026.08	2224.09
1026.23	2226.14
1026.39	2222.05
1026.55	2154.46
1026.70	2097.12
1026.86	2248.67
1027.02	2220.00
1027.17	2127.84
1027.33	2209.76
1027.48	2086.88
1027.64	2129.89
1027.80	2043.87
1027.95	2136.03
1028.11	2076.64
1028.27	2174.94
1028.42	2144.22
1028.58	2142.18
1028.73	2121.70
1028.89	2043.87
1029.05	2142.18
1029.20	2213.85
>>>>>End Processed Spectral Data<<<<<
