SpectraSuite Data File
++++++++++++++++++++++++++++++++++++
Date: Fri Jun 02 14:57:22 CEST 2017
User: INFO_000
Dark Spectrum Present: No
Reference Spectrum Present: No
Number of Sampled Component Spectra: 1
Spectrometers: USB4H00879
Integration Time (usec): 80000 (USB4H00879)
Spectra Averaged: 1 (USB4H00879)
Boxcar Smoothing: 0 (USB4H00879)
Correct for Electrical Dark: No (USB4H00879)
Strobe/Lamp Enabled: No (USB4H00879)
Correct for Detector Non-linearity: No (USB4H00879)
Correct for Stray Light: No (USB4H00879)
Number of Pixels in Processed Spectrum: 3648
>>>>>Begin Processed Spectral Data<<<<<
345.13	1351.66
345.34	1351.66
345.56	1351.66
345.78	1257.45
345.99	1318.89
346.21	1748.97
346.42	1679.33
346.64	1630.18
346.86	1785.83
347.07	1671.14
347.29	1742.82
347.50	1615.85
347.72	1671.14
347.94	1781.73
348.15	1613.80
348.37	1626.09
348.59	1744.87
348.80	1628.14
349.02	1744.87
349.23	1871.84
349.45	1896.42
349.67	1896.42
349.88	1796.07
350.10	1998.82
350.31	1830.88
350.53	1763.30
350.75	1974.24
350.96	1841.12
351.18	1843.17
351.39	1824.74
351.61	1763.30
351.82	1869.80
352.04	1970.15
352.26	1757.16
352.47	1918.95
352.69	1892.32
352.90	1810.40
353.12	1837.03
353.34	1781.73
353.55	1863.65
353.77	1941.47
353.98	1896.42
354.20	1847.27
354.41	1943.52
354.63	1886.18
354.85	1949.67
355.06	1937.38
355.28	1759.21
355.49	1906.66
355.71	1931.23
355.92	1875.94
356.14	1890.28
356.35	1886.18
356.57	1861.60
356.79	1933.28
357.00	1824.74
357.22	2052.06
357.43	1863.65
357.65	2013.15
357.86	1839.08
358.08	1920.99
358.29	1941.47
358.51	1968.10
358.72	1990.63
358.94	1847.27
359.16	1970.15
359.37	1947.62
359.59	1920.99
359.80	2052.06
360.02	2000.87
360.23	1935.33
360.45	2037.73
360.66	1949.67
360.88	1859.56
361.09	1906.66
361.31	1945.57
361.52	1935.33
361.74	2072.54
361.95	1970.15
362.17	1959.91
362.38	2088.93
362.60	1966.05
362.81	1980.39
363.03	1978.34
363.24	2041.82
363.46	2035.68
363.67	2021.35
363.89	2031.58
364.10	1951.71
364.32	2004.96
364.53	2011.11
364.75	1888.23
364.96	1996.77
365.18	2027.49
365.39	2064.35
365.61	1941.47
365.82	2109.41
366.04	2023.39
366.25	1937.38
366.47	2052.06
366.68	2068.45
366.90	2011.11
367.11	2052.06
367.33	2109.41
367.54	2123.74
367.76	1976.29
367.97	2107.36
368.19	2009.06
368.40	1998.82
368.62	1966.05
368.83	1900.52
369.05	2052.06
369.26	1961.95
369.48	2033.63
369.69	1943.52
369.91	2043.87
370.12	1957.86
370.33	2129.89
370.55	1982.43
370.76	2072.54
370.98	2166.75
371.19	2058.21
371.41	1996.77
371.62	2000.87
371.84	2015.20
372.05	2197.47
372.27	2000.87
372.48	2033.63
372.69	2101.22
372.91	2213.85
373.12	2215.90
373.34	2117.60
373.55	2187.23
373.77	2125.79
373.98	2072.54
374.20	2166.75
374.41	2242.53
374.62	2088.93
374.84	2220.00
375.05	2158.56
375.27	2162.66
375.48	2125.79
375.70	2129.89
375.91	2168.80
376.12	2281.44
376.34	2191.33
376.55	2220.00
376.77	2197.47
376.98	2121.70
377.19	2164.70
377.41	2133.98
377.62	2174.94
377.84	2131.94
378.05	2246.62
378.27	2209.76
378.48	2328.54
378.69	2398.17
378.91	2260.96
379.12	2236.38
379.34	2242.53
379.55	2273.25
379.76	2232.29
379.98	2191.33
380.19	2236.38
380.41	2217.95
380.62	2379.74
380.83	2234.33
381.05	2230.24
381.26	2418.65
381.47	2197.47
381.69	2250.72
381.90	2389.98
382.12	2277.34
382.33	2232.29
382.54	2232.29
382.76	2297.82
382.97	2346.97
383.19	2263.01
383.40	2338.78
383.61	2267.10
383.83	2269.15
384.04	2222.05
384.25	2289.63
384.47	2338.78
384.68	2351.07
384.89	2287.58
385.11	2291.68
385.32	2377.69
385.54	2355.16
385.75	2404.32
385.96	2342.88
386.18	2467.80
386.39	2320.35
386.60	2414.56
386.82	2437.08
387.03	2400.22
387.24	2408.41
387.46	2455.51
387.67	2402.27
387.88	2510.81
388.10	2449.37
388.31	2435.03
388.52	2564.06
388.74	2590.68
388.95	2580.44
389.16	2494.43
389.38	2465.75
389.59	2547.67
389.80	2574.30
390.02	2533.34
390.23	2693.08
390.44	2533.34
390.66	2488.28
390.87	2516.95
391.08	2525.15
391.30	2775.00
391.51	2686.94
391.72	2760.66
391.94	2602.97
392.15	2576.34
392.36	2578.39
392.58	2527.19
392.79	2609.11
393.00	2721.75
393.22	2748.37
393.43	2818.00
393.64	2834.39
393.85	2723.80
394.07	2715.61
394.28	2686.94
394.49	2756.57
394.71	2838.48
394.92	2826.20
395.13	2693.08
395.35	2750.42
395.56	2787.29
395.77	2797.53
395.98	2815.96
396.20	2908.12
396.41	2854.87
396.62	2938.84
396.84	2848.72
397.05	2793.43
397.26	2914.26
397.47	3010.51
397.69	2838.48
397.90	3026.90
398.11	2881.49
398.32	2830.29
398.54	2947.03
398.75	3024.85
398.96	2901.97
399.18	3147.73
399.39	2955.22
399.60	3049.43
399.81	2936.79
400.03	2990.03
400.24	3260.37
400.45	2906.07
400.66	3125.20
400.88	2975.70
401.09	3282.89
401.30	3033.04
401.51	3219.41
401.73	3135.44
401.94	3084.24
402.15	3190.74
402.36	3174.35
402.58	3203.02
402.79	3282.89
403.00	3198.93
403.21	3248.08
403.43	3209.17
403.64	3207.12
403.85	3155.92
404.06	3330.00
404.27	3139.54
404.49	3321.81
404.70	3094.48
404.91	3330.00
405.12	3375.05
405.34	3241.93
405.55	3381.20
405.76	3196.88
405.97	3205.07
406.19	3399.63
406.40	3248.08
406.61	3444.68
406.82	3387.34
407.03	3360.72
407.25	3303.37
407.46	3522.51
407.67	3444.68
407.88	3444.68
408.09	3381.20
408.31	3338.19
408.52	3420.11
408.73	3432.40
408.94	3405.77
409.15	3463.12
409.37	3624.90
409.58	3393.48
409.79	3495.88
410.00	3538.89
410.21	3395.53
410.43	3528.65
410.64	3538.89
410.85	3551.18
411.06	3583.95
411.27	3524.55
411.48	3735.50
411.70	3680.20
411.91	3452.88
412.12	3641.29
412.33	3542.99
412.54	3598.28
412.76	3745.73
412.97	3616.71
413.18	3602.38
413.39	3588.04
413.60	3692.49
413.81	3633.10
414.03	3561.42
414.24	3624.90
414.45	3827.65
414.66	3559.37
414.87	3809.22
415.08	3807.17
415.30	3649.48
415.51	3825.61
415.72	3655.62
415.93	3751.88
416.14	3819.46
416.35	3801.03
416.56	3829.70
416.78	3870.66
416.99	3835.85
417.20	3784.65
417.41	3911.62
417.62	3973.06
417.83	3960.77
418.04	3895.24
418.26	3971.01
418.47	3872.71
418.68	3936.20
418.89	3805.13
419.10	4132.80
419.31	3950.53
419.52	3938.24
419.73	4052.93
419.95	4036.55
420.16	3975.11
420.37	4067.27
420.58	4102.08
420.79	3934.15
421.00	3993.54
421.21	4038.59
421.42	3985.35
421.63	4202.43
421.85	4179.90
422.06	4169.66
422.27	4128.70
422.48	4091.84
422.69	4188.10
422.90	4153.28
423.11	4210.62
423.32	4331.45
423.53	4407.23
423.75	4247.49
423.96	4476.86
424.17	4427.71
424.38	4452.28
424.59	4405.18
424.80	4569.02
425.01	4358.08
425.22	4466.62
425.43	4464.57
425.64	4497.34
425.85	4616.12
426.06	4491.20
426.28	4349.89
426.49	4573.11
426.70	4503.48
426.91	4515.77
427.12	4616.12
427.33	4673.46
427.54	4493.24
427.75	4616.12
427.96	4732.86
428.17	4726.71
428.38	4837.30
428.59	4788.15
428.80	4665.27
429.01	4724.66
429.23	4788.15
429.44	5038.00
429.65	4882.36
429.86	5035.96
430.07	4882.36
430.28	4745.14
430.49	4970.42
430.70	5031.86
430.91	4992.95
431.12	4947.89
431.33	5136.31
431.54	5085.11
431.75	5003.19
431.96	5076.91
432.17	5046.20
432.38	5050.29
432.59	5332.91
432.80	5150.64
433.01	5222.32
433.22	5318.57
433.43	5148.59
433.64	5312.43
433.85	5283.76
434.06	5377.97
434.27	5091.25
434.49	5377.97
434.70	5392.30
434.91	5414.83
435.12	5480.36
435.33	5539.76
435.54	5519.28
435.75	5316.53
435.96	5468.08
436.17	5242.80
436.38	5601.19
436.59	5693.35
436.80	5398.45
437.01	5736.36
437.22	5676.97
437.43	5586.86
437.64	5388.21
437.85	5664.68
438.06	5900.20
438.27	5670.83
438.48	5615.53
438.69	5709.74
438.90	5713.83
439.11	5566.38
439.32	5924.77
439.53	5627.82
439.74	5873.57
439.95	5937.06
440.16	5902.25
440.37	5865.38
440.57	5722.02
440.78	5816.23
440.99	5904.29
441.20	5959.59
441.41	5879.72
441.62	5892.01
441.83	5812.14
442.04	6029.22
442.25	5959.59
442.46	5967.78
442.67	6100.90
442.88	6350.75
443.09	6119.33
443.30	6162.34
443.51	6182.82
443.72	6422.43
443.93	6025.12
444.14	6457.25
444.35	6129.57
444.56	6285.22
444.77	6373.28
444.98	6291.36
445.19	6479.77
445.40	6240.16
445.61	6395.81
445.81	6399.90
446.02	6465.44
446.23	6537.12
446.44	6264.74
446.65	6494.11
446.86	6567.84
447.07	6565.79
447.28	6791.06
447.49	6784.92
447.70	6614.94
447.91	6834.07
448.12	6696.86
448.33	6688.67
448.54	6760.34
448.74	6778.78
448.95	6686.62
449.16	6711.19
449.37	7096.21
449.58	6870.94
449.79	7085.97
450.00	6737.82
450.21	7126.93
450.42	7034.77
450.63	7067.54
450.84	7100.31
451.05	7200.66
451.25	7145.36
451.46	6854.55
451.67	7344.02
451.88	7409.55
452.09	7106.45
452.30	7024.53
452.51	7190.42
452.72	7319.44
452.93	7499.66
453.13	7393.17
453.34	7245.71
453.55	7327.63
453.76	7253.91
453.97	7665.55
454.18	7491.47
454.39	7458.70
454.60	7679.88
454.81	7569.29
455.01	7804.81
455.22	7274.38
455.43	7554.96
455.64	7843.72
455.85	8136.58
456.06	7907.21
456.27	7769.99
456.48	7858.06
456.68	7890.82
456.89	8155.01
457.10	8103.81
457.31	8165.25
457.52	7882.63
457.73	8249.22
457.94	8320.90
458.14	8009.61
458.35	8478.59
458.56	8427.39
458.77	8202.11
458.98	8378.24
459.19	8341.38
459.39	8447.87
459.60	8527.74
459.81	8464.25
460.02	8728.44
460.23	8595.32
460.44	8710.01
460.65	8718.20
460.85	8783.74
461.06	8955.77
461.27	8714.11
461.48	9070.45
461.69	9162.61
461.89	8753.02
462.10	8863.61
462.31	8773.50
462.52	8845.18
462.73	9150.32
462.94	9197.43
463.14	9054.07
463.35	9181.04
463.56	9946.98
463.77	9410.42
463.98	9187.19
464.18	9342.83
464.39	9547.63
464.60	9607.02
464.81	9690.99
465.02	9521.01
465.23	9936.74
465.43	9695.08
465.64	10119.01
465.85	9838.44
466.06	9744.24
466.27	10334.05
466.47	10026.86
466.68	10135.40
466.89	10092.39
467.10	10264.42
467.30	10028.90
467.51	10379.11
467.72	10710.88
467.93	10295.14
468.14	10368.87
468.34	10696.54
468.55	10661.73
468.76	10553.18
468.97	10510.18
469.17	10848.09
469.38	10864.47
469.59	11061.08
469.80	10878.81
470.01	10960.73
470.21	10805.08
470.42	11259.73
470.63	11112.28
470.84	11224.92
471.04	11415.38
471.25	11208.53
471.46	11306.84
471.67	11597.65
471.87	11585.36
472.08	11757.39
472.29	11853.64
472.50	11532.11
472.70	11628.37
472.91	11614.03
473.12	12046.15
473.33	11947.85
473.53	12281.67
473.74	11929.42
473.95	12128.07
474.16	12228.42
474.36	12259.14
474.57	12521.28
474.78	12531.52
474.99	12447.55
475.19	12592.96
475.40	12648.26
475.61	12840.76
475.81	13127.48
476.02	13152.06
476.23	13047.61
476.44	13098.81
476.64	13649.71
476.85	13383.48
477.06	13473.59
477.27	13715.25
477.47	13866.80
477.68	13610.80
477.89	14106.41
478.09	13819.69
478.30	14061.35
478.51	13973.29
478.71	14159.66
478.92	14120.74
479.13	14200.62
479.34	14389.03
479.54	14491.43
479.75	14595.87
479.96	14509.86
480.16	14518.05
480.37	14542.63
480.58	14786.33
480.78	15124.25
480.99	15118.11
481.20	15193.88
481.41	15157.02
481.61	15308.57
481.82	15195.93
482.03	15425.30
482.23	15394.58
482.44	15535.89
482.65	15712.02
482.85	15738.64
483.06	15957.77
483.27	15806.22
483.47	15986.44
483.68	15976.20
483.89	16129.80
484.09	16117.51
484.30	16299.78
484.51	16445.19
484.71	16484.10
484.92	16332.55
485.13	16766.72
485.33	16551.68
485.54	16590.59
485.75	17069.82
485.95	16938.75
486.16	17247.99
486.37	17327.86
486.57	17204.99
486.78	17133.31
486.98	17393.40
487.19	17495.80
487.40	17608.44
487.60	17424.12
487.81	17622.77
488.02	17618.68
488.22	17891.06
488.43	17880.82
488.64	18243.31
488.84	18093.80
489.05	18411.24
489.25	18069.23
489.46	18538.21
489.67	18685.67
489.87	18685.67
490.08	18523.88
490.29	18960.09
490.49	19185.37
490.70	19037.92
490.90	19388.12
491.11	19003.10
491.32	19394.26
491.52	19326.68
491.73	19345.11
491.94	19515.09
492.14	19246.81
492.35	19678.93
492.55	19812.05
492.76	19992.27
492.97	19543.77
493.17	19793.62
493.38	19986.13
493.58	20260.55
493.79	19963.60
494.00	20532.93
494.20	20285.13
494.41	20471.50
494.61	20399.82
494.82	20752.07
495.02	20731.59
495.23	20813.51
495.44	20913.86
495.64	21020.35
495.85	20983.49
496.05	21360.31
496.26	21190.33
496.47	21339.83
496.67	21204.67
496.88	21464.76
497.08	21038.78
497.29	21872.31
497.49	21368.51
497.70	21814.96
497.91	21827.25
498.11	21917.36
498.32	21839.54
498.52	22048.43
498.73	22398.63
498.93	22242.99
499.14	22234.80
499.34	22234.80
499.55	22711.97
499.76	22281.90
499.96	22630.05
500.17	22654.63
500.37	22568.62
500.58	22650.53
500.78	22705.83
500.99	23140.00
501.19	23158.43
501.40	23328.41
501.60	23096.99
501.81	23430.81
502.02	23238.30
502.22	23123.62
502.43	23473.82
502.63	23416.47
502.84	23844.50
503.04	23580.31
503.25	23846.55
503.45	23965.33
503.66	23879.32
503.86	23848.60
504.07	24098.45
504.27	24096.40
504.48	24469.13
504.68	24174.22
504.89	24452.75
505.09	24448.65
505.30	24522.38
505.50	24409.74
505.71	24694.41
505.91	24899.20
506.12	24755.85
506.32	24802.95
506.53	24764.04
506.73	25235.07
506.94	25048.71
507.14	25218.69
507.35	25020.03
507.55	25392.76
507.76	25376.38
507.96	25368.19
508.17	25642.62
508.37	25501.31
508.58	25380.48
508.78	25462.40
508.99	25669.24
509.19	25902.71
509.40	25689.72
509.60	25912.95
509.81	25837.17
510.01	25790.07
510.22	25998.96
510.42	26084.98
510.63	26496.62
510.83	26226.29
511.04	26357.36
511.24	26259.06
511.44	26426.99
511.65	26566.25
511.85	26842.73
512.06	26666.60
512.26	26799.72
512.47	26771.05
512.67	26883.69
512.88	26795.62
513.08	26992.23
513.29	27037.28
513.49	26875.49
513.69	27014.76
513.90	27149.92
514.10	27559.52
514.31	27412.06
514.51	27149.92
514.72	27235.94
514.92	27547.23
515.13	27631.19
515.33	27803.22
515.53	27557.47
515.74	28016.21
515.94	27852.38
516.15	27913.81
516.35	27557.47
516.56	27831.90
516.76	27936.34
516.96	28270.16
517.17	28268.11
517.37	28073.56
517.58	28677.71
517.78	28409.42
517.99	28292.69
518.19	28489.29
518.39	28417.61
518.60	28771.91
518.80	28927.56
519.01	28968.52
519.21	28991.05
519.41	29036.10
519.62	28833.35
519.82	29324.86
520.03	28960.33
520.23	29556.28
520.43	29277.76
520.64	29556.28
520.84	29902.39
521.05	29806.14
521.25	30068.28
521.45	29894.20
521.66	30193.20
521.86	29630.01
522.07	29748.79
522.27	29953.59
522.47	30416.43
522.68	30443.06
522.88	30332.47
523.08	30647.85
523.29	30615.08
523.49	30531.12
523.70	30615.08
523.90	30821.93
524.10	30721.58
524.31	30768.68
524.51	30803.50
524.71	31338.02
524.92	31032.87
525.12	31274.53
525.33	31276.58
525.53	31374.88
525.73	31880.73
525.94	31794.71
526.14	31675.93
526.34	31718.94
526.55	31950.36
526.75	32040.47
526.95	32114.20
527.16	32261.65
527.36	32101.91
527.56	32329.23
527.77	32726.54
527.97	32349.71
528.17	32464.40
528.38	32626.19
528.58	32562.70
528.78	32931.34
528.99	32962.06
529.19	33011.21
529.39	32790.03
529.60	33678.85
529.80	33160.71
530.00	33105.41
530.21	33531.39
530.41	33641.98
530.61	33441.28
530.82	33379.84
531.02	33926.65
531.22	33738.24
531.43	33904.12
531.63	34027.00
531.83	34573.81
532.04	34606.58
532.24	34006.52
532.44	34620.91
532.64	34395.64
532.85	34747.89
533.05	34758.13
533.25	34653.68
533.46	34706.93
533.66	35128.81
533.86	35294.69
534.07	35616.22
534.27	35530.21
534.47	35331.56
534.67	35374.56
534.88	35347.94
535.08	35948.00
535.28	35913.18
535.49	35784.16
535.69	36275.67
535.89	36296.15
536.09	36322.77
536.30	36736.46
536.50	36355.54
536.70	36503.00
536.91	36261.33
537.11	36496.85
537.31	36595.15
537.51	36683.22
537.72	37217.74
537.92	37189.06
538.12	37443.01
538.32	37496.26
538.53	37543.36
538.73	36990.41
538.93	37344.71
539.13	37367.24
539.34	37293.51
539.54	37510.60
539.74	38014.40
539.94	37389.77
540.15	37449.16
540.35	37809.60
540.55	38114.75
540.75	37492.16
540.96	38008.25
541.16	38190.52
541.36	38231.48
541.56	38245.82
541.77	38720.95
541.97	38518.20
542.17	38518.20
542.37	38344.12
542.58	38630.83
542.78	38571.44
542.98	38688.18
543.18	38913.45
543.38	39044.52
543.59	39108.01
543.79	38919.60
543.99	38974.89
544.19	39263.66
544.40	39314.86
544.60	39380.39
544.80	39261.61
545.00	39701.92
545.20	39286.18
545.41	39425.45
545.61	39165.35
545.81	39622.05
546.01	39898.53
546.21	39699.87
546.42	39665.06
546.62	40146.33
546.82	39679.39
547.02	40101.28
547.22	40142.24
547.43	40287.64
547.63	39908.77
547.83	40295.83
548.03	39869.86
548.23	40068.51
548.44	40367.51
548.64	39976.35
548.84	40402.33
549.04	40396.18
549.24	40680.85
549.45	40957.33
549.65	40101.28
549.85	40381.85
550.05	40748.43
550.25	40347.03
550.45	40875.41
550.66	40793.49
550.86	40580.50
551.06	40732.05
551.26	40701.33
551.46	41235.85
551.66	41035.15
551.87	40816.02
552.07	41131.40
552.27	41067.92
552.47	41098.64
552.67	41215.37
552.87	40971.66
553.07	41276.81
553.28	41110.92
553.48	41121.16
553.68	41223.56
553.88	41891.20
554.08	41422.22
554.28	41555.33
554.48	41371.02
554.69	41569.67
554.89	41223.56
555.09	41620.87
555.29	41260.43
555.49	41270.67
555.69	41409.93
555.89	41489.80
556.10	41522.57
556.30	41258.38
556.50	41926.02
556.70	41747.84
556.90	41983.36
557.10	42032.51
557.30	41852.29
557.50	42257.79
557.70	41817.47
557.91	42734.96
558.11	42360.19
558.31	42444.15
558.51	41889.15
558.71	42337.66
558.91	42190.20
559.11	42139.00
559.31	42202.49
559.51	42456.44
559.72	42192.25
559.92	42456.44
560.12	42026.37
560.32	42571.13
560.52	42351.99
560.72	42376.57
560.92	42423.67
561.12	42407.29
561.32	42612.09
561.52	42636.66
561.72	43009.39
561.93	42847.60
562.13	42452.34
562.33	42466.68
562.53	42990.96
562.73	42442.10
562.93	42417.53
563.13	42558.84
563.33	42636.66
563.53	43023.73
563.73	42614.13
563.93	42440.06
564.13	43154.80
564.33	43097.45
564.53	42960.24
564.74	43070.83
564.94	42909.04
565.14	42898.80
565.34	42665.33
565.54	42958.19
565.74	43052.40
565.94	43154.80
566.14	42900.85
566.34	42843.51
566.54	43339.11
566.74	43054.45
566.94	43498.86
567.14	43429.23
567.34	43023.73
567.54	43461.99
567.74	43492.71
567.94	43234.67
568.14	43382.12
568.34	43582.82
568.54	43382.12
568.74	43355.50
568.94	43963.75
569.14	43599.21
569.34	43410.79
569.54	43650.41
569.75	43457.90
569.95	43609.45
570.15	44156.25
570.35	43756.90
570.55	43703.65
570.75	43236.72
570.95	43726.18
571.15	44277.08
571.35	44414.30
571.55	44127.58
571.75	44143.97
571.95	43894.11
572.15	43840.87
572.35	44070.24
572.55	43824.48
572.75	44422.49
572.95	43875.68
573.15	44449.11
573.35	43982.18
573.55	44373.34
573.75	43926.88
573.95	44725.59
574.15	44535.13
574.35	44684.63
574.55	44455.26
574.75	44500.31
574.95	44430.68
575.15	43910.50
575.34	44496.22
575.54	44819.80
575.74	44832.08
575.94	44938.58
576.14	44928.34
576.34	45114.70
576.54	45200.72
576.74	45020.50
576.94	44676.44
577.14	44946.77
577.34	45346.12
577.54	44889.43
577.74	44985.68
577.94	45012.31
578.14	45520.20
578.34	45378.89
578.54	44909.91
578.74	44948.82
578.94	45751.62
579.14	45339.98
579.34	45788.49
579.54	45708.61
579.74	45608.26
579.94	45509.96
580.13	45997.38
580.33	45483.34
580.53	45804.87
580.73	46062.91
580.93	46089.54
581.13	46175.55
581.33	46245.18
581.53	46327.10
581.73	46355.77
581.93	46245.18
582.13	46476.60
582.33	46216.51
582.53	46415.16
582.73	46183.74
582.92	46525.75
583.12	46529.85
583.32	46791.99
583.52	46701.88
583.72	46753.08
583.92	46787.89
584.12	46697.78
584.32	47244.59
584.52	46921.01
584.72	47045.94
584.92	47060.27
585.11	47306.03
585.31	46959.92
585.51	47367.47
585.71	47183.15
585.91	47299.89
586.11	47226.16
586.31	47068.47
586.51	47117.62
586.71	47494.44
586.91	47656.23
587.10	47566.12
587.30	47672.62
587.50	47592.75
587.70	47713.58
587.90	47863.08
588.10	48026.92
588.30	47781.16
588.50	47740.20
588.69	47756.58
588.89	47975.72
589.09	47990.05
589.29	48538.91
589.49	48600.35
589.69	48170.27
589.89	48293.15
590.08	48651.55
590.28	48256.29
590.48	48344.35
590.68	48344.35
590.88	48678.17
591.08	48504.09
591.28	48076.07
591.47	48911.64
591.67	48991.51
591.87	48981.27
592.07	48827.67
592.27	48651.55
592.47	48958.74
592.67	48858.39
592.86	48622.87
593.06	49163.54
593.26	49188.11
593.46	49145.11
593.66	49380.62
593.86	49294.61
594.05	49382.67
594.25	49870.09
594.45	49100.05
594.65	49536.27
594.85	49431.82
595.05	50081.03
595.24	50068.74
595.44	49364.24
595.64	49595.66
595.84	49792.26
596.04	49825.03
596.23	50459.90
596.43	50152.71
596.63	50001.16
596.83	50167.04
597.03	50640.12
597.22	50371.84
597.42	50337.02
597.62	50390.27
597.82	50298.11
598.02	50251.01
598.21	51102.96
598.41	50615.55
598.61	51004.66
598.81	50736.38
599.01	50904.31
599.20	50935.03
599.40	50713.85
599.60	51115.25
599.80	51121.40
600.00	51430.64
600.19	51041.53
600.39	51096.82
600.59	51240.18
600.79	51590.38
600.98	51064.05
601.18	51442.93
601.38	51225.84
601.58	51680.49
601.78	51776.75
601.97	51526.89
602.17	52468.96
602.37	51856.62
602.57	52012.26
602.76	52085.99
602.96	52255.97
603.16	52108.52
603.36	52075.75
603.55	52321.51
603.75	52174.05
603.95	52249.83
604.15	52370.66
604.34	52137.19
604.54	52393.18
604.74	52843.74
604.94	52765.91
605.13	52694.24
605.33	52313.31
605.53	52774.11
605.73	52892.89
605.92	53044.44
606.12	53271.76
606.32	53103.83
606.52	53202.13
606.71	53062.87
606.91	53521.62
607.11	53228.76
607.30	53296.34
607.50	53720.27
607.70	53718.22
607.90	53542.10
608.09	53398.74
608.29	53847.24
608.49	53630.16
608.68	54006.98
608.88	54138.05
609.08	54357.19
609.28	53847.24
609.47	54064.33
609.67	54373.57
609.87	53658.83
610.06	54144.20
610.26	54115.53
610.46	54056.14
610.66	54240.45
610.85	54195.40
611.05	54093.00
611.25	54719.68
611.44	54285.51
611.64	54271.17
611.84	54019.27
612.03	54256.84
612.23	54600.89
612.43	54817.98
612.62	54320.32
612.82	54850.75
613.02	54793.40
613.21	54521.02
613.41	54482.11
613.61	54932.67
613.80	54576.32
614.00	54740.16
614.20	54815.93
614.39	54869.18
614.59	55119.03
614.79	55334.07
614.98	54795.45
615.18	54951.10
615.38	55235.77
615.57	55170.23
615.77	55157.94
615.97	54860.99
616.16	55108.79
616.36	54871.23
616.56	54961.34
616.75	55159.99
616.95	54672.57
617.15	54965.43
617.34	55217.33
617.54	54891.71
617.74	55317.68
617.93	55303.35
618.13	54545.60
618.32	54895.80
618.52	55188.66
618.72	55211.19
618.91	55217.33
619.11	55172.28
619.31	55286.96
619.50	55016.63
619.70	54987.96
619.90	55661.74
620.09	54965.43
620.29	55139.51
620.48	55174.33
620.68	55878.83
620.88	55084.22
621.07	55360.69
621.27	55682.22
621.46	54940.86
621.66	55217.33
621.86	55229.62
622.05	55082.17
622.25	55637.17
622.44	55147.70
622.64	55428.27
622.84	55764.14
623.03	55106.74
623.23	55661.74
623.42	55780.52
623.62	55139.51
623.82	55940.27
624.01	55932.07
624.21	55796.91
624.40	55092.41
624.60	55604.40
624.80	55422.13
624.99	55411.89
625.19	54949.05
625.38	55436.47
625.58	55415.99
625.77	55571.63
625.97	55360.69
626.17	55092.41
626.36	55256.24
626.56	55780.52
626.75	55004.34
626.95	55876.78
627.14	55260.34
627.34	55676.08
627.54	55534.77
627.73	55600.30
627.93	55622.83
628.12	55299.25
628.32	55522.48
628.51	55428.27
628.71	55307.44
628.90	55721.13
629.10	55411.89
629.30	55606.45
629.49	55547.06
629.69	55739.57
629.88	55852.20
630.08	55907.50
630.27	55813.29
630.47	55731.37
630.66	55702.70
630.86	56269.99
631.05	55286.96
631.25	56263.85
631.44	56169.64
631.64	56095.91
631.84	56132.78
632.03	56450.21
632.23	55684.27
632.42	56485.03
632.62	55805.10
632.81	55618.74
633.01	55835.82
633.20	56093.86
633.40	55858.35
633.59	56261.80
633.79	55592.11
633.98	55852.20
634.18	55803.05
634.37	55706.80
634.57	55884.97
634.76	56464.55
634.96	56120.49
635.15	56800.41
635.35	56007.85
635.54	55801.00
635.74	56087.72
635.93	56038.57
636.13	55899.31
636.32	56063.14
636.52	55755.95
636.71	55841.96
636.91	55944.36
637.10	56452.26
637.30	55946.41
637.49	56233.13
637.69	55968.94
637.88	56595.62
638.08	56429.73
638.27	56052.90
638.46	56040.62
638.66	56136.87
638.85	55934.12
639.05	56349.86
639.24	56005.80
639.44	55983.27
639.63	56558.75
639.83	56591.52
640.02	56329.38
640.22	56251.56
640.41	56632.48
640.61	56317.09
640.80	56628.38
640.99	56550.56
641.19	56829.08
641.38	56859.80
641.58	56499.36
641.77	56116.39
641.97	56149.16
642.16	56755.36
642.36	56583.33
642.55	56698.01
642.74	55913.64
642.94	56923.29
643.13	56308.90
643.33	56792.22
643.52	56558.75
643.72	56951.96
643.91	56358.05
644.10	56661.15
644.30	57099.42
644.49	56575.14
644.69	56943.77
644.88	56876.19
645.08	56157.35
645.27	56685.73
645.46	56687.78
645.66	57154.71
645.85	56423.59
646.05	56833.18
646.24	57253.01
646.43	56900.76
646.63	57046.17
646.82	56941.72
647.02	56669.34
647.21	56870.04
647.40	56655.01
647.60	57162.90
647.79	56925.34
647.99	56720.54
648.18	56792.22
648.37	56964.25
648.57	57199.77
648.76	56796.32
648.96	56612.00
649.15	57709.71
649.34	57369.75
649.54	57123.99
649.73	56683.68
649.92	57025.69
650.12	57296.02
650.31	57185.43
650.51	57203.86
650.70	57312.41
650.89	57019.55
651.09	57738.38
651.28	57230.49
651.47	57304.21
651.67	57570.45
651.86	57283.73
652.06	56843.42
652.25	57314.45
652.44	57232.53
652.64	57115.80
652.83	57228.44
653.02	56751.26
653.22	57017.50
653.41	56966.30
653.60	56767.65
653.80	57152.66
653.99	57447.57
654.18	57103.51
654.38	56898.72
654.57	57365.65
654.76	57078.94
654.96	56575.14
655.15	57296.02
655.34	56607.90
655.54	56722.59
655.73	56755.36
655.92	57187.48
656.12	57171.10
656.31	57083.03
656.50	57566.35
656.70	57058.46
656.89	56841.37
657.08	57234.58
657.28	57121.94
657.47	57136.28
657.66	57404.56
657.86	56683.68
658.05	56941.72
658.24	57107.61
658.43	56575.14
658.63	56861.85
658.82	57199.77
659.01	57185.43
659.21	57566.35
659.40	57316.50
659.59	56790.17
659.79	57781.39
659.98	57144.47
660.17	57617.55
660.36	57414.80
660.56	57132.18
660.75	56833.18
660.94	57056.41
661.14	57115.80
661.33	56515.75
661.52	56525.99
661.71	57492.63
661.91	56587.42
662.10	56949.92
662.29	57371.80
662.49	57216.15
662.68	57132.18
662.87	57050.27
663.06	57029.79
663.26	56927.39
663.45	56863.90
663.64	56767.65
663.83	57609.36
664.03	57031.83
664.22	57296.02
664.41	57015.45
664.60	56874.14
664.80	57003.16
664.99	57177.24
665.18	56994.97
665.37	57001.11
665.57	57136.28
665.76	56773.79
665.95	57015.45
666.14	56958.11
666.34	56444.07
666.53	56894.62
666.72	56671.39
666.91	56544.42
667.11	56257.70
667.30	56931.48
667.49	56804.51
667.68	57044.12
667.87	56382.63
668.07	57164.95
668.26	56669.34
668.45	56779.93
668.64	56132.78
668.84	57095.32
669.03	56884.38
669.22	56908.96
669.41	56599.71
669.60	57017.50
669.80	56747.17
669.99	56874.14
670.18	56417.44
670.37	56872.09
670.57	57291.93
670.76	56386.72
670.95	56777.89
671.14	56579.23
671.33	56698.01
671.53	57293.97
671.72	56241.32
671.91	56829.08
672.10	56622.24
672.29	56331.43
672.48	56456.35
672.68	56902.81
672.87	56253.61
673.06	56415.40
673.25	56188.07
673.44	56390.82
673.64	55874.73
673.83	56300.71
674.02	55977.13
674.21	56071.34
674.40	56132.78
674.59	56278.18
674.79	56104.10
674.98	55844.01
675.17	56257.70
675.36	55987.37
675.55	56462.50
675.74	56081.58
675.94	56392.87
676.13	56073.38
676.32	56456.35
676.51	56640.67
676.70	56061.10
676.89	55927.98
677.08	56001.71
677.28	55665.84
677.47	56136.87
677.66	56114.34
677.85	55964.84
678.04	56054.95
678.23	56253.61
678.42	56231.08
678.62	55905.45
678.81	55907.50
679.00	55641.26
679.19	56321.19
679.38	55841.96
679.57	55641.26
679.76	55897.26
679.96	56018.09
680.15	55809.20
680.34	55452.85
680.53	55405.75
680.72	55753.90
680.91	55542.96
681.10	55669.93
681.29	55649.45
681.48	55258.29
681.68	55502.00
681.87	55710.89
682.06	55332.02
682.25	55338.16
682.44	55039.16
682.63	55504.05
682.82	55153.85
683.01	55252.15
683.20	55342.26
683.39	55336.12
683.59	54777.02
683.78	54949.05
683.97	55153.85
684.16	54817.98
684.35	54981.82
684.54	55213.24
684.73	55116.98
684.92	55170.23
685.11	54588.61
685.30	54842.56
685.49	55506.10
685.69	54953.15
685.88	54903.99
686.07	55194.81
686.26	54836.41
686.45	54533.31
686.64	54951.10
686.83	54453.44
687.02	55049.40
687.21	55106.74
687.40	54551.74
687.59	54512.83
687.78	55043.26
687.97	55090.36
688.16	54824.12
688.35	54613.18
688.54	54293.70
688.74	54678.72
688.93	54330.56
689.12	54129.86
689.31	54369.47
689.50	54580.42
689.69	54133.96
689.88	54047.94
690.07	54797.50
690.26	54719.68
690.45	54779.07
690.64	54191.30
690.83	54475.97
691.02	53818.57
691.21	54332.61
691.40	54219.97
691.59	54101.19
691.78	53808.33
691.97	54097.09
692.16	54142.15
692.35	54455.49
692.54	53800.14
692.73	53937.35
692.92	54099.14
693.11	53974.22
693.30	53740.75
693.49	53613.77
693.68	54045.90
693.87	54035.66
694.06	53593.29
694.25	53333.20
694.44	53550.29
694.63	53910.73
694.82	53449.94
695.01	53963.98
695.20	53306.58
695.39	53781.71
695.58	53411.02
695.77	53269.72
695.96	52853.98
696.15	53564.62
696.34	52927.70
696.53	53228.76
696.72	53259.48
696.91	53327.06
697.10	53462.22
697.29	53118.17
697.48	53376.21
697.67	53109.97
697.86	52868.31
698.05	53468.37
698.24	53462.22
698.43	52868.31
698.62	52772.06
698.81	52520.16
699.00	53132.50
699.19	52616.41
699.38	53243.09
699.57	52835.55
699.76	53499.09
699.95	52440.29
700.14	52485.34
700.32	52597.98
700.51	52786.39
700.70	52778.20
700.89	52866.27
701.08	53028.05
701.27	52477.15
701.46	52884.70
701.65	52090.09
701.84	52608.22
702.03	52710.62
702.22	52499.68
702.41	52450.53
702.60	52393.18
702.79	52311.27
702.98	51959.02
703.17	52511.97
703.35	52186.34
703.54	52454.62
703.73	52569.31
703.92	52450.53
704.11	52327.65
704.30	51721.45
704.49	51832.04
704.68	51713.26
704.87	52051.17
705.06	51852.52
705.25	51696.88
705.43	52446.43
705.62	51664.11
705.81	51756.27
706.00	51537.13
706.19	51584.24
706.38	51635.44
706.57	51889.38
706.76	51408.11
706.95	51838.18
707.14	51498.22
707.32	51555.57
707.51	51440.88
707.70	51272.95
707.89	51666.16
708.08	51289.33
708.27	51559.66
708.46	51739.88
708.65	51131.64
708.84	51459.31
709.02	51406.06
709.21	51553.52
709.40	51129.59
709.59	51049.72
709.78	50861.30
709.97	51817.71
710.16	51066.10
710.34	51205.36
710.53	51459.31
710.72	51246.32
710.91	51008.76
711.10	50816.25
711.29	51258.61
711.48	51361.01
711.66	50967.80
711.85	50918.65
712.04	50699.51
712.23	50824.44
712.42	51209.46
712.61	51074.29
712.80	50912.50
712.98	50990.33
713.17	50812.15
713.36	50390.27
713.55	50713.85
713.74	50558.20
713.93	50574.59
714.11	50537.72
714.30	50273.54
714.49	50593.02
714.68	50980.09
714.87	50775.29
715.06	50459.90
715.24	50599.16
715.43	50648.32
715.62	50509.05
715.81	50603.26
716.00	50615.55
716.18	50144.51
716.37	50103.56
716.56	50029.83
716.75	50308.35
716.94	50173.19
717.12	49771.78
717.31	50509.05
717.50	49976.58
717.69	49790.22
717.88	49763.59
718.06	49687.82
718.25	49855.75
718.44	49700.11
718.63	49833.22
718.82	49587.47
719.00	49560.84
719.19	49829.13
719.38	49749.26
719.57	49491.21
719.76	49087.76
719.94	49132.82
720.13	49450.25
720.32	49493.26
720.51	49247.50
720.69	49339.66
720.88	48932.12
721.07	48999.70
721.26	48710.94
721.44	48674.07
721.63	48960.79
721.82	48641.31
722.01	48579.87
722.20	48567.58
722.38	48450.84
722.57	48233.76
722.76	48846.10
722.95	48839.96
723.13	48330.01
723.32	48483.61
723.51	48348.45
723.70	48031.01
723.88	48604.44
724.07	48481.56
724.26	48590.11
724.44	48004.39
724.63	48717.08
724.82	48182.56
725.01	47797.54
725.19	48473.37
725.38	47899.94
725.57	48313.63
725.76	47936.80
725.94	47676.71
726.13	48059.68
726.32	47666.47
726.51	47791.40
726.69	48182.56
726.88	48340.25
727.07	47897.89
727.25	47934.76
727.44	47893.80
727.63	47777.06
727.82	47719.72
728.00	47744.30
728.19	47310.13
728.38	48200.99
728.56	47064.37
728.75	48188.70
728.94	47553.83
729.12	47676.71
729.31	47822.12
729.50	47457.58
729.69	47750.44
729.87	47758.63
730.06	47521.07
730.25	47691.05
730.43	48139.55
730.62	47793.45
730.81	47858.98
730.99	47621.42
731.18	47383.85
731.37	47766.82
731.55	47734.06
731.74	48047.39
731.93	47760.68
732.11	47770.92
732.30	47695.14
732.49	47002.93
732.67	47617.32
732.86	47586.60
733.05	47684.90
733.23	47408.43
733.42	47486.25
733.61	47578.41
733.79	47496.49
733.98	47582.51
734.17	47494.44
734.35	47815.97
734.54	47719.72
734.73	47975.72
734.91	46957.88
735.10	47181.10
735.29	47963.43
735.47	47140.14
735.66	47463.72
735.84	47549.74
736.03	47330.61
736.22	47211.82
736.40	47303.98
736.59	47676.71
736.78	47516.97
736.96	47449.39
737.15	47514.92
737.33	47390.00
737.52	47269.17
737.71	46820.66
737.89	47181.10
738.08	47123.76
738.27	47162.67
738.45	47586.60
738.64	47230.26
738.82	47326.51
739.01	46873.91
739.20	47228.21
739.38	47242.54
739.57	46929.20
739.75	46994.74
739.94	47078.71
740.13	47332.65
740.31	47009.07
740.50	46923.06
740.68	47437.10
740.87	47392.04
741.06	47078.71
741.24	46738.74
741.43	47095.09
741.61	47086.90
741.80	46927.16
741.99	46818.61
742.17	46548.28
742.36	47029.55
742.54	46773.56
742.73	46667.06
742.91	47404.33
743.10	47125.81
743.29	47281.45
743.47	46751.03
743.66	46505.27
743.84	46587.19
744.03	46449.98
744.21	46370.11
744.40	46662.97
744.59	46433.60
744.77	46372.16
744.96	46394.68
745.14	46558.52
745.33	46603.58
745.51	46411.07
745.70	46687.54
745.88	46286.14
746.07	46452.03
746.26	46423.36
746.44	46570.81
746.63	46523.71
746.81	46095.68
747.00	46265.66
747.18	46654.78
747.37	46650.68
747.55	45950.27
747.74	46644.54
747.92	45950.27
748.11	46445.88
748.29	46118.21
748.48	46607.67
748.66	45841.73
748.85	45829.44
749.03	46015.81
749.22	46257.47
749.41	46028.10
749.59	46005.57
749.78	45851.97
749.96	45716.81
750.15	45749.57
750.33	46302.53
750.52	45946.18
750.70	45901.12
750.89	45614.41
751.07	45708.61
751.26	45679.94
751.44	45780.29
751.63	45811.01
751.81	45579.59
752.00	45481.29
752.18	45727.05
752.37	45778.25
752.55	45436.23
752.74	45798.73
752.92	45593.93
753.10	45393.23
753.29	45411.66
753.47	45196.62
753.66	45368.65
753.84	45733.19
754.03	45071.70
754.21	45124.94
754.40	45135.18
754.58	45464.91
754.77	45114.70
754.95	44823.89
755.14	44959.06
755.32	44975.44
755.51	45018.45
755.69	44916.05
755.88	44916.05
756.06	45143.38
756.24	44748.12
756.43	44911.95
756.61	44877.14
756.80	44778.84
756.98	44688.73
757.17	44754.26
757.35	44991.83
757.54	44809.56
757.72	44842.32
757.90	44748.12
758.09	44387.67
758.27	44784.98
758.46	44563.80
758.64	44344.67
758.83	45051.22
759.01	44524.89
759.19	44227.93
759.38	44492.12
759.56	44524.89
759.75	44696.92
759.93	44592.47
760.12	43822.44
760.30	44432.73
760.48	44197.21
760.67	44062.05
760.85	44119.39
761.04	44189.02
761.22	44283.23
761.40	44217.69
761.59	44117.34
761.77	43574.63
761.96	44072.29
762.14	44164.45
762.32	43521.38
762.51	43505.00
762.69	43795.81
762.88	43824.48
763.06	43838.82
763.24	43869.54
763.43	44213.60
763.61	43478.38
763.80	43341.16
763.98	43380.07
764.16	43457.90
764.35	43707.75
764.53	43287.92
764.72	43564.39
764.90	43347.31
765.08	43525.48
765.27	43328.87
765.45	42780.02
765.63	42870.13
765.82	43367.79
766.00	43058.54
766.18	43332.97
766.37	43312.49
766.55	42794.36
766.74	42999.15
766.92	42728.82
767.10	42956.14
767.29	43091.31
767.47	42755.44
767.65	42771.83
767.84	42976.62
768.02	43056.50
768.20	42722.68
768.39	43007.34
768.57	43038.06
768.75	42632.57
768.94	42620.28
769.12	42362.23
769.30	42100.09
769.49	42644.85
769.67	42653.05
769.85	42163.58
770.04	42319.23
770.22	42005.89
770.40	42204.54
770.59	41870.72
770.77	42376.57
770.95	42343.80
771.14	42079.61
771.32	42091.90
771.50	42028.41
771.69	41649.54
771.87	42050.94
772.05	41573.77
772.24	41266.57
772.42	41999.74
772.60	41571.72
772.78	41567.62
772.97	41692.55
773.15	41819.52
773.33	41487.75
773.52	41516.42
773.70	41739.65
773.88	41661.83
774.07	41549.19
774.25	41567.62
774.43	41461.13
774.61	41653.64
774.80	41786.75
774.98	41538.95
775.16	41710.98
775.34	41692.55
775.53	41510.28
775.71	42014.08
775.89	41678.21
776.08	41719.17
776.26	41837.95
776.44	41604.49
776.62	41766.27
776.81	41670.02
776.99	41733.51
777.17	41487.75
777.35	41747.84
777.54	41969.02
777.72	42083.71
777.90	41778.56
778.08	42110.33
778.27	41463.18
778.45	42096.00
778.63	42171.77
778.81	41829.76
779.00	42581.37
779.18	42098.05
779.36	42265.98
779.54	42091.90
779.73	42210.68
779.91	42278.27
780.09	42425.72
780.27	42409.34
780.46	42382.71
780.64	42861.94
780.82	42474.87
781.00	42169.72
781.19	42657.14
781.37	42706.29
781.55	42622.33
781.73	42978.67
781.91	42466.68
782.10	42220.92
782.28	42433.91
782.46	42444.15
782.64	42900.85
782.82	42460.54
783.01	42804.59
783.19	42863.99
783.37	42890.61
783.55	42472.82
783.74	42849.65
783.92	42646.90
784.10	43076.97
784.28	42861.94
784.46	42317.18
784.64	42464.63
784.83	42653.05
785.01	43095.41
785.19	42761.59
785.37	42890.61
785.55	42560.89
785.74	42530.17
785.92	42186.11
786.10	42630.52
786.28	42890.61
786.46	42597.75
786.64	42325.37
786.83	42558.84
787.01	42403.19
787.19	42335.61
787.37	42513.78
787.55	42519.93
787.74	42358.14
787.92	42589.56
788.10	41758.08
788.28	41833.86
788.46	42120.57
788.64	41692.55
788.82	42182.01
789.01	41694.60
789.19	42147.20
789.37	41510.28
789.55	41942.40
789.73	41629.06
789.91	41383.30
790.09	41782.66
790.28	41391.50
790.46	41153.93
790.64	41616.77
790.82	41491.85
791.00	41182.60
791.18	40926.61
791.36	41383.30
791.55	41002.38
791.73	40848.78
791.91	40938.90
792.09	41106.83
792.27	40920.46
792.45	41076.11
792.63	40916.37
792.81	40621.46
793.00	40598.93
793.18	40461.72
793.36	40283.55
793.54	40281.50
793.72	40086.94
793.90	40189.34
794.08	39761.31
794.26	39947.68
794.44	39865.76
794.62	39785.89
794.81	39417.25
794.99	39953.82
795.17	39818.66
795.35	39597.48
795.53	39951.77
795.71	39996.83
795.89	39062.96
796.07	38968.75
796.25	38778.29
796.43	38942.13
796.61	39220.65
796.80	39036.33
796.98	38806.96
797.16	38415.80
797.34	38757.81
797.52	38616.50
797.70	38962.61
797.88	38147.51
798.06	38194.62
798.24	38692.27
798.42	38292.92
798.60	38161.85
798.78	38147.51
798.96	38190.52
799.14	37793.22
799.32	38024.64
799.51	37586.37
799.69	37653.95
799.87	37664.19
800.05	37238.22
800.23	37457.35
800.41	36902.35
800.59	37354.95
800.77	37246.41
800.95	36845.01
801.13	37006.80
801.31	36746.70
801.49	37062.09
801.67	36670.93
801.85	36879.82
802.03	36494.80
802.21	36560.34
802.39	36429.27
802.57	36038.11
802.75	36222.42
802.93	36132.31
803.11	36208.09
803.29	36453.84
803.47	35915.23
803.65	35704.29
803.83	35585.50
804.01	36193.75
804.19	35423.72
804.37	35794.40
804.55	35646.94
804.73	35474.91
804.91	35663.33
805.09	35233.25
805.27	35352.04
805.45	35460.58
805.63	35284.45
805.81	35173.86
805.99	34911.72
806.17	35325.41
806.35	35315.17
806.53	34715.12
806.71	34844.14
806.89	35153.38
807.07	34668.02
807.25	34698.73
807.43	34326.00
807.61	34641.39
807.79	34123.26
807.97	34371.06
808.15	34289.14
808.33	33932.79
808.51	33852.92
808.69	33840.64
808.87	34205.17
809.05	33906.17
809.23	33918.46
809.41	33097.22
809.59	33752.57
809.77	33740.29
809.95	33117.70
810.13	33648.13
810.31	33666.56
810.49	33318.40
810.67	33125.89
810.84	33267.20
811.02	33312.26
811.20	33054.22
811.38	33082.89
811.56	32517.65
811.74	32861.71
811.92	32538.13
812.10	32663.05
812.28	33000.97
812.46	32654.86
812.64	32419.35
812.82	32568.85
813.00	32151.06
813.18	32032.28
813.36	32155.16
813.53	31964.70
813.71	32099.86
813.89	31874.59
814.07	31796.76
814.25	32189.97
814.43	31743.52
814.61	31755.80
814.79	32155.16
814.97	31667.74
815.15	31620.64
815.33	31159.84
815.50	31385.12
815.68	31135.27
815.86	31413.79
816.04	31442.46
816.22	31049.25
816.40	31464.99
816.58	31143.46
816.76	31186.47
816.94	31163.94
817.11	30928.42
817.29	30625.32
817.47	31084.07
817.65	30961.19
817.83	30610.99
818.01	30447.15
818.19	30690.86
818.37	30496.30
818.54	30506.54
818.72	30299.70
818.90	30465.58
819.08	30539.31
819.26	30383.66
819.44	30301.75
819.62	30174.77
819.80	30631.47
819.97	30447.15
820.15	30025.27
820.33	29961.78
820.51	30354.99
820.69	29775.42
820.87	29986.36
821.05	30086.71
821.22	29853.24
821.40	29820.47
821.58	29666.88
821.76	29896.25
821.94	29404.74
822.12	29713.98
822.29	29795.90
822.47	29347.39
822.65	29572.67
822.83	29599.29
823.01	29333.06
823.19	29378.11
823.36	28931.65
823.54	28952.13
823.72	29113.92
823.90	28874.31
824.08	29062.72
824.25	29021.77
824.43	28753.48
824.61	28902.98
824.79	28810.82
824.97	29013.57
825.15	28724.81
825.32	28829.26
825.50	28669.51
825.68	28464.72
825.86	28462.67
826.04	28626.51
826.21	28733.00
826.39	28544.59
826.57	28378.70
826.75	28321.36
826.93	28079.70
827.10	28284.50
827.28	28233.30
827.46	28221.01
827.64	28214.87
827.81	28016.21
827.99	28055.12
828.17	27625.05
828.35	27623.00
828.53	27795.03
828.70	28077.65
828.88	27833.94
829.06	28194.39
829.24	27760.22
829.41	27876.95
829.59	28087.89
829.77	27235.94
829.95	27530.84
830.12	27307.62
830.30	27225.70
830.48	27580.00
830.66	27502.17
830.84	27450.97
831.01	27090.53
831.19	27340.38
831.37	27143.78
831.55	27022.95
831.72	26971.75
831.90	27199.07
832.08	27131.49
832.25	27362.91
832.43	27025.00
832.61	26773.10
832.79	26701.42
832.96	26818.15
833.14	26736.23
833.32	26723.94
833.50	27070.05
833.67	26912.36
833.85	26758.76
834.03	26703.46
834.20	26519.15
834.38	26771.05
834.56	26873.45
834.74	26480.24
834.91	26584.68
835.09	26449.52
835.27	26250.86
835.44	26091.12
835.62	26336.88
835.80	25839.22
835.98	26447.47
836.15	26130.03
836.33	25898.61
836.51	26558.06
836.68	25878.13
836.86	26162.80
837.04	25855.61
837.21	25761.40
837.39	26039.92
837.57	26029.68
837.75	26003.06
837.92	25808.50
838.10	25704.06
838.28	25652.86
838.45	25923.19
838.63	25376.38
838.81	25722.49
838.98	25448.06
839.16	25263.74
839.34	25196.16
839.51	25198.21
839.69	25407.10
839.87	25341.57
840.04	25343.61
840.22	25370.24
840.40	25171.58
840.57	25069.19
840.75	25374.33
840.93	24708.74
841.10	25138.82
841.28	25405.05
841.46	25022.08
841.63	25353.85
841.81	25060.99
841.98	25011.84
842.16	24915.59
842.34	25020.03
842.51	24493.71
842.69	25026.18
842.87	24680.07
843.04	24909.44
843.22	24622.73
843.40	24407.69
843.57	24802.95
843.75	24657.54
843.92	24639.11
844.10	24460.94
844.28	24536.71
844.45	24542.86
844.63	24393.36
844.81	24245.90
844.98	24358.54
845.16	24256.14
845.33	24534.67
845.51	24254.09
845.69	24059.54
845.86	24000.15
846.04	24282.77
846.21	24190.61
846.39	24270.48
846.57	23963.28
846.74	24067.73
846.92	24250.00
847.09	23963.28
847.27	23871.12
847.45	24043.15
847.62	23830.16
847.80	23983.76
847.97	23832.21
848.15	23864.98
848.32	23776.92
848.50	23635.61
848.68	23522.97
848.85	23649.94
849.03	23414.43
849.20	23738.01
849.38	23359.13
849.56	23850.64
849.73	23305.88
849.91	23629.46
850.08	23525.02
850.26	23281.31
850.43	23400.09
850.61	23156.38
850.78	22857.38
850.96	23226.01
851.14	22974.11
851.31	23084.70
851.49	23146.14
851.66	23375.52
851.84	22836.90
852.01	23051.94
852.19	22998.69
852.36	22597.29
852.54	22955.68
852.71	22953.63
852.89	22697.64
853.07	22763.17
853.24	22732.45
853.42	22642.34
853.59	22591.14
853.77	22810.28
853.94	22759.08
854.12	23131.81
854.29	22144.69
854.47	22402.73
854.64	22615.72
854.82	22320.81
854.99	22685.35
855.17	22638.25
855.34	22576.81
855.52	22259.37
855.69	22687.40
855.87	22179.50
856.04	21972.66
856.22	22337.20
856.39	22302.38
856.57	22091.44
856.74	22034.10
856.92	22369.96
857.09	21808.82
857.27	22042.29
857.44	21892.79
857.62	21968.56
857.79	21978.80
857.97	22187.69
858.14	21884.59
858.32	22083.25
858.49	21706.42
858.67	21876.40
858.84	21817.01
859.02	21622.45
859.19	21638.84
859.37	21270.20
859.54	21300.92
859.72	21776.05
859.89	21483.19
860.06	21663.41
860.24	21522.10
860.41	21626.55
860.59	21024.45
860.76	21638.84
860.94	21350.07
861.11	21288.64
861.29	21266.11
861.46	21421.75
861.64	20844.23
861.81	21130.94
861.98	20997.82
862.16	20793.03
862.33	21028.54
862.51	21176.00
862.68	21264.06
862.86	20952.77
863.03	21198.52
863.21	20858.56
863.38	20821.70
863.55	20936.38
863.73	21067.45
863.90	20702.92
864.08	20930.24
864.25	20569.80
864.43	20573.89
864.60	20768.45
864.77	20496.07
864.95	20717.25
865.12	20444.87
865.30	20629.19
865.47	20373.19
865.64	20573.89
865.82	20618.95
865.99	20588.23
866.17	20504.26
866.34	20309.71
866.51	20180.68
866.69	20498.12
866.86	20393.67
867.04	20260.55
867.21	20137.68
867.38	19887.82
867.56	20209.36
867.73	20119.24
867.91	19859.15
868.08	19959.50
868.25	20080.33
868.43	19932.88
868.60	19924.69
868.78	19797.71
868.95	20137.68
869.12	20002.51
869.30	19848.91
869.47	19973.84
869.64	19506.90
869.82	19762.90
869.99	19648.21
870.16	19574.49
870.34	19656.40
870.51	19775.19
870.69	19521.24
870.86	19504.85
871.03	19597.01
871.21	19318.49
871.38	19322.59
871.55	19318.49
871.73	19193.56
871.90	19214.04
872.07	19078.88
872.25	19017.44
872.42	18910.94
872.59	19205.85
872.77	19173.08
872.94	19033.82
873.11	19171.04
873.29	18843.36
873.46	18900.70
873.63	18849.50
873.81	18798.31
873.98	18394.86
874.15	18761.44
874.33	18525.93
874.50	18394.86
874.67	18667.24
874.85	18622.18
875.02	18398.95
875.19	18329.32
875.37	18403.05
875.54	18185.96
875.71	18282.22
875.88	18423.53
876.06	18247.40
876.23	18433.77
876.40	18267.88
876.58	18167.53
876.75	18114.28
876.92	18007.79
877.10	18185.96
877.27	17778.42
877.44	18024.17
877.61	17876.72
877.79	17651.44
877.96	17772.27
878.13	17712.88
878.31	17813.23
878.48	17680.11
878.65	17811.18
878.82	17467.13
879.00	17518.32
879.17	17501.94
879.34	17594.10
879.51	17600.24
879.69	17487.61
879.86	17313.53
880.03	17313.53
880.21	17344.25
880.38	17547.00
880.55	17434.36
880.72	17317.62
880.90	17247.99
881.07	17098.49
881.24	17155.83
881.41	17266.42
881.59	17157.88
881.76	17209.08
881.93	17037.05
882.10	17088.25
882.28	17104.64
882.45	17098.49
882.62	17178.36
882.79	16979.71
882.96	16772.86
883.14	17039.10
883.31	16946.94
883.48	16934.65
883.65	16992.00
883.83	16905.98
884.00	16760.58
884.17	16867.07
884.34	16879.36
884.51	16588.55
884.69	16815.87
884.86	16639.75
885.03	16697.09
885.20	16391.94
885.38	16834.30
885.55	16711.42
885.72	16678.66
885.89	16391.94
886.06	16594.69
886.24	16492.29
886.41	16441.09
886.58	16385.80
886.75	16760.58
886.92	16353.03
887.10	16557.83
887.27	16197.38
887.44	16281.35
887.61	16461.57
887.78	16551.68
887.95	16260.87
888.13	16168.71
888.30	16219.91
888.47	16242.44
888.64	16086.79
888.81	16004.88
888.99	16060.17
889.16	16082.70
889.33	15959.82
889.50	15732.50
889.67	15955.72
889.84	15847.18
890.01	15845.13
890.19	15877.90
890.36	15718.16
890.53	15865.61
890.70	15718.16
890.87	15978.25
891.04	15945.48
891.22	15830.80
891.39	15728.40
891.56	15431.44
891.73	15552.27
891.90	15433.49
892.07	15449.88
892.24	15626.00
892.42	15320.85
892.59	15466.26
892.76	15249.18
892.93	15458.07
893.10	15640.34
893.27	15378.20
893.44	15259.42
893.61	15496.98
893.79	15517.46
893.96	15347.48
894.13	15185.69
894.30	15271.70
894.47	15353.62
894.64	15298.33
894.81	15173.40
894.98	15324.95
895.15	15324.95
895.33	15238.94
895.50	14819.10
895.67	15382.29
895.84	15367.96
896.01	15189.78
896.18	15370.01
896.35	15267.61
896.52	15312.66
896.69	15140.63
896.86	15197.98
897.04	15372.05
897.21	15087.39
897.38	15193.88
897.55	15157.02
897.72	15062.81
897.89	15068.95
898.06	15046.43
898.23	15097.63
898.40	15114.01
898.57	15333.14
898.74	15054.62
898.91	15159.06
899.08	15095.58
899.26	14882.59
899.43	15167.26
899.60	14905.12
899.77	15130.39
899.94	14960.41
900.11	15034.14
900.28	14944.03
900.45	14794.53
900.62	15159.06
900.79	15208.22
900.96	14911.26
901.13	15044.38
901.30	14829.34
901.47	14810.91
901.64	14987.04
901.81	15157.02
901.98	14862.11
902.15	15124.25
902.32	14810.91
902.49	14837.53
902.66	14874.40
902.83	14862.11
903.01	15105.82
903.18	15005.47
903.35	15085.34
903.52	14767.90
903.69	15261.46
903.86	14960.41
904.03	14894.88
904.20	15093.53
904.37	14989.08
904.54	14759.71
904.71	14743.33
904.88	15083.29
905.05	14892.83
905.22	14894.88
905.39	14702.37
905.56	14798.62
905.73	14587.68
905.90	14737.18
906.07	14886.68
906.24	15044.38
906.41	14745.38
906.58	15163.16
906.75	15075.10
906.92	14679.84
907.09	14724.90
907.26	14862.11
907.43	14591.78
907.60	14772.00
907.77	15001.37
907.93	14970.65
908.10	14792.48
908.27	15038.23
908.44	14831.39
908.61	14632.74
908.78	14831.39
908.95	14941.98
909.12	14368.55
909.29	14573.35
909.46	14477.09
909.63	14722.85
909.80	14610.21
909.97	14524.19
910.14	14614.30
910.31	14702.37
910.48	14604.07
910.65	14513.95
910.82	14577.44
910.99	14507.81
911.16	14589.73
911.33	14552.87
911.50	14491.43
911.66	14735.14
911.83	14681.89
912.00	14200.62
912.17	14438.18
912.34	14429.99
912.51	14268.20
912.68	14450.47
912.85	14421.80
913.02	14485.28
913.19	14417.70
913.36	14276.39
913.53	14346.02
913.70	14202.66
913.86	14401.32
914.03	14202.66
914.20	14155.56
914.37	14208.81
914.54	14102.31
914.71	13993.77
914.88	14077.74
915.05	14161.70
915.22	13954.86
915.39	13915.95
915.55	13745.97
915.72	13774.64
915.89	13809.45
916.06	13543.22
916.23	13670.19
916.40	13420.34
916.57	13705.01
916.74	13713.20
916.91	13520.69
917.07	13754.16
917.24	13455.15
917.41	13449.01
917.58	13465.39
917.75	13748.01
917.92	13367.09
918.09	13295.41
918.26	13465.39
918.42	13465.39
918.59	13215.54
918.76	13012.79
918.93	13240.12
919.10	13094.71
919.27	13074.23
919.44	13193.01
919.60	13215.54
919.77	13008.70
919.94	12967.74
920.11	12980.03
920.28	13119.29
920.45	12969.79
920.61	12887.87
920.78	12623.68
920.95	12812.09
921.12	12670.78
921.29	12537.66
921.46	12726.08
921.62	12511.04
921.79	12726.08
921.96	12371.78
922.13	12494.66
922.30	12408.64
922.47	12588.86
922.63	12232.52
922.80	12230.47
922.97	12328.77
923.14	12240.71
923.31	12281.67
923.47	12212.04
923.64	12212.04
923.81	12115.78
923.98	11902.79
924.15	11863.88
924.32	12017.48
924.48	11966.28
924.65	12033.86
924.82	11632.46
924.99	11839.31
925.15	11532.11
925.32	11724.62
925.49	11515.73
925.66	11667.28
925.83	11523.92
925.99	11411.28
926.16	11767.63
926.33	11431.76
926.50	11208.53
926.67	11480.91
926.83	11319.12
927.00	11286.36
927.17	11249.49
927.34	11077.46
927.50	10991.45
927.67	11351.89
927.84	11132.76
928.01	11263.83
928.17	10923.87
928.34	11038.55
928.51	10815.32
928.68	10891.10
928.84	10874.71
929.01	10690.40
929.18	10585.95
929.35	10563.42
929.51	10557.28
929.68	10563.42
929.85	10413.92
930.02	10407.78
930.18	10401.63
930.35	10594.14
930.52	10362.72
930.69	10444.64
930.85	10256.23
931.02	10153.83
931.19	10147.69
931.36	10053.48
931.52	10043.24
931.69	10076.01
931.86	10020.71
932.02	9971.56
932.19	9881.45
932.36	9957.22
932.53	10024.81
932.69	9715.56
932.86	9901.93
933.03	9639.79
933.19	9463.66
933.36	9502.58
933.53	9570.16
933.70	9580.40
933.86	9510.77
934.03	9484.14
934.20	9385.84
934.36	9248.63
934.53	9052.02
934.70	9078.65
934.86	9019.25
935.03	8861.56
935.20	8998.77
935.36	8886.14
935.53	8865.66
935.70	8806.27
935.86	8855.42
936.03	8632.19
936.20	8488.83
936.36	8394.62
936.53	8480.64
936.70	8386.43
936.86	8345.47
937.03	8286.08
937.20	8181.64
937.36	8198.02
937.53	7958.41
937.70	7946.12
937.86	7874.44
938.03	7792.52
938.20	8064.90
938.36	7466.89
938.53	7729.03
938.70	7278.48
938.86	7391.12
939.03	7331.73
939.20	7286.67
939.36	7233.43
939.53	7081.88
939.70	7210.90
939.86	6713.24
940.03	6850.46
940.19	6756.25
940.36	6977.43
940.53	6784.92
940.69	6606.75
940.86	6496.16
941.03	6244.26
941.19	6231.97
941.36	6344.61
941.52	6291.36
941.69	6223.78
941.86	6055.84
942.02	6148.00
942.19	6057.89
942.35	6061.99
942.52	5992.36
942.69	5902.25
942.85	5762.98
943.02	5883.81
943.18	5791.66
943.35	5732.26
943.52	5656.49
943.68	5605.29
943.85	5586.86
944.01	5476.27
944.18	5529.52
944.35	5689.26
944.51	5468.08
944.68	5459.88
944.84	5334.96
945.01	5463.98
945.17	5373.87
945.34	5578.67
945.51	5371.82
945.67	5375.92
945.84	5349.29
946.00	5289.90
946.17	5171.12
946.33	5322.67
946.50	5429.17
946.67	5429.17
946.83	5287.86
947.00	5296.05
947.16	5324.72
947.33	5330.86
947.49	5330.86
947.66	5197.74
947.82	5294.00
947.99	5201.84
948.16	5377.97
948.32	5236.66
948.49	5267.38
948.65	5238.70
948.82	5283.76
948.98	5236.66
949.15	5230.51
949.31	5294.00
949.48	5300.14
949.64	5199.79
949.81	5281.71
949.97	5363.63
950.14	5455.79
950.30	5310.38
950.47	5287.86
950.63	5283.76
950.80	5283.76
950.96	5214.13
951.13	5263.28
951.30	5267.38
951.46	5433.26
951.63	5451.69
951.79	5228.46
951.96	5443.50
952.12	5273.52
952.29	5373.87
952.45	5203.89
952.62	5363.63
952.78	5330.86
952.94	5423.02
953.11	5310.38
953.27	5326.77
953.44	5496.75
953.60	5392.30
953.77	5386.16
953.93	5382.06
954.10	5466.03
954.26	5519.28
954.43	5304.24
954.59	5564.33
954.76	5457.84
954.92	5386.16
955.09	5451.69
955.25	5377.97
955.42	5537.71
955.58	5410.73
955.75	5472.17
955.91	5533.61
956.07	5369.77
956.24	5480.36
956.40	5502.89
956.57	5525.42
956.73	5320.62
956.90	5369.77
957.06	5353.39
957.23	5410.73
957.39	5398.45
957.56	5451.69
957.72	5427.12
957.88	5392.30
958.05	5490.60
958.21	5562.28
958.38	5500.84
958.54	5367.73
958.71	5488.56
958.87	5445.55
959.03	5398.45
959.20	5359.53
959.36	5271.47
959.53	5509.04
959.69	5455.79
959.85	5566.38
960.02	5404.59
960.18	5431.21
960.35	5511.08
960.51	5562.28
960.68	5238.70
960.84	5343.15
961.00	5312.43
961.17	5289.90
961.33	5349.29
961.50	5517.23
961.66	5351.34
961.82	5447.60
961.99	5521.32
962.15	5500.84
962.31	5337.01
962.48	5431.21
962.64	5531.56
962.81	5402.54
962.97	5269.42
963.13	5468.08
963.30	5394.35
963.46	5343.15
963.62	5283.76
963.79	5287.86
963.95	5250.99
964.12	5318.57
964.28	5343.15
964.44	5310.38
964.61	5345.20
964.77	5365.68
964.93	5410.73
965.10	5447.60
965.26	5353.39
965.42	5263.28
965.59	5214.13
965.75	5175.22
965.92	5355.44
966.08	5242.80
966.24	5423.02
966.41	5132.21
966.57	5306.29
966.73	5457.84
966.90	5296.05
967.06	5214.13
967.22	5228.46
967.39	5294.00
967.55	5263.28
967.71	5087.15
967.88	5126.07
968.04	5238.70
968.20	5183.41
968.37	5242.80
968.53	5121.97
968.69	5162.93
968.85	5173.17
969.02	5187.50
969.18	5246.90
969.34	5177.26
969.51	5062.58
969.67	5193.65
969.83	5081.01
970.00	5134.26
970.16	5081.01
970.32	5181.36
970.48	5242.80
970.65	4960.18
970.81	5062.58
970.97	5046.20
971.14	4929.46
971.30	5107.63
971.46	4964.28
971.63	5119.92
971.79	5019.57
971.95	5074.87
972.11	4992.95
972.28	4939.70
972.44	5021.62
972.60	4943.80
972.76	5070.77
972.93	4827.06
973.09	4935.60
973.25	4968.37
973.42	4935.60
973.58	5003.19
973.74	4935.60
973.90	4839.35
974.07	4859.83
974.23	4882.36
974.39	4825.01
974.55	4870.07
974.72	4931.51
974.88	4734.90
975.04	4652.98
975.20	4820.92
975.37	4814.77
975.53	4743.10
975.69	4757.43
975.85	4771.77
976.01	4677.56
976.18	4630.46
976.34	4771.77
976.50	4796.34
976.66	4878.26
976.83	4689.85
976.99	4794.29
977.15	4636.60
977.31	4595.64
977.47	4710.33
977.64	4736.95
977.80	4640.70
977.96	4552.63
978.12	4644.79
978.29	4562.87
978.45	4532.15
978.61	4501.44
978.77	4706.23
978.93	4587.45
979.10	4544.44
979.26	4427.71
979.42	4466.62
979.58	4444.09
979.74	4505.53
979.91	4409.28
980.07	4452.28
980.23	4497.34
980.39	4480.96
980.55	4368.32
980.71	4407.23
980.88	4384.70
981.04	4476.86
981.20	4394.94
981.36	4378.56
981.52	4435.90
981.68	4468.67
981.85	4499.39
982.01	4290.49
982.17	4374.46
982.33	4452.28
982.49	4427.71
982.65	4337.60
982.82	4394.94
982.98	4300.73
983.14	4130.75
983.30	4407.23
983.46	4349.89
983.62	4427.71
983.79	4153.28
983.95	4239.30
984.11	4149.18
984.27	4163.52
984.43	4257.73
984.59	4208.58
984.75	4278.21
984.91	4235.20
985.08	4245.44
985.24	4050.88
985.40	4267.97
985.56	4128.70
985.72	4247.49
985.88	4116.42
986.04	4059.07
986.20	4138.94
986.37	4208.58
986.53	4159.42
986.69	4192.19
986.85	3983.30
987.01	4024.26
987.17	4100.03
987.33	3928.00
987.49	4003.78
987.65	3993.54
987.82	4042.69
987.98	3907.52
988.14	3989.44
988.30	4050.88
988.46	3932.10
988.62	3887.04
988.78	3964.87
988.94	3932.10
989.10	3866.56
989.26	3819.46
989.42	3921.86
989.59	3841.99
989.75	3735.50
989.91	4011.97
990.07	3794.89
990.23	3835.85
990.39	3805.13
990.55	3770.31
990.71	3766.21
990.87	3876.80
991.03	3837.89
991.19	3827.65
991.35	3760.07
991.51	3876.80
991.67	3817.41
991.83	3747.78
992.00	3864.52
992.16	3805.13
992.32	3770.31
992.48	3790.79
992.64	3633.10
992.80	3729.35
992.96	3680.20
993.12	3727.30
993.28	3688.39
993.44	3633.10
993.60	3719.11
993.76	3590.09
993.92	3682.25
994.08	3780.55
994.24	3672.01
994.40	3557.32
994.56	3614.66
994.72	3491.79
994.88	3497.93
995.04	3610.57
995.20	3481.55
995.36	3551.18
995.52	3530.70
995.68	3596.23
995.84	3536.84
996.00	3596.23
996.16	3547.08
996.32	3467.21
996.48	3456.97
996.64	3504.07
996.80	3432.40
996.96	3409.87
997.12	3536.84
997.28	3370.96
997.44	3428.30
997.60	3469.26
997.76	3485.64
997.92	3389.39
998.08	3442.64
998.24	3336.14
998.40	3358.67
998.56	3467.21
998.72	3323.85
998.88	3303.37
999.04	3321.81
999.20	3467.21
999.36	3401.68
999.52	3432.40
999.68	3338.19
999.84	3309.52
1000.00	3432.40
1000.16	3332.05
1000.32	3243.98
1000.48	3340.24
1000.64	3102.67
1000.80	3293.13
1000.95	3172.30
1001.11	3272.65
1001.27	3108.82
1001.43	3305.42
1001.59	3241.93
1001.75	3153.87
1001.91	3274.70
1002.07	3215.31
1002.23	3006.42
1002.39	3127.25
1002.55	3190.74
1002.71	3135.44
1002.87	3149.78
1003.03	3090.38
1003.19	3041.23
1003.34	3137.49
1003.50	3176.40
1003.66	3135.44
1003.82	3133.39
1003.98	3051.47
1004.14	3055.57
1004.30	3059.67
1004.46	3061.71
1004.62	3043.28
1004.78	3112.91
1004.94	3008.47
1005.09	3090.38
1005.25	3112.91
1005.41	2973.65
1005.57	2983.89
1005.73	3010.51
1005.89	2885.59
1006.05	3010.51
1006.21	3006.42
1006.37	2891.73
1006.52	2963.41
1006.68	2977.75
1006.84	2953.17
1007.00	2899.92
1007.16	3022.80
1007.32	2877.40
1007.48	3010.51
1007.64	2906.07
1007.79	2912.21
1007.95	2863.06
1008.11	2881.49
1008.27	2858.96
1008.43	2912.21
1008.59	2818.00
1008.75	2854.87
1008.91	2803.67
1009.06	2871.25
1009.22	2920.40
1009.38	2963.41
1009.54	2893.78
1009.70	2781.14
1009.86	2877.40
1010.01	2852.82
1010.17	2852.82
1010.33	2861.01
1010.49	2758.61
1010.65	2924.50
1010.81	2721.75
1010.96	2815.96
1011.12	2766.81
1011.28	2715.61
1011.44	2875.35
1011.60	2705.37
1011.76	2699.22
1011.91	2721.75
1012.07	2680.79
1012.23	2629.59
1012.39	2697.17
1012.55	2674.65
1012.71	2623.45
1012.86	2734.04
1013.02	2611.16
1013.18	2664.41
1013.34	2576.34
1013.50	2762.71
1013.65	2682.84
1013.81	2658.26
1013.97	2549.72
1014.13	2645.98
1014.29	2635.74
1014.44	2645.98
1014.60	2549.72
1014.76	2541.53
1014.92	2611.16
1015.07	2564.06
1015.23	2727.89
1015.39	2519.00
1015.55	2529.24
1015.71	2545.63
1015.86	2527.19
1016.02	2549.72
1016.18	2496.47
1016.34	2480.09
1016.49	2537.43
1016.65	2635.74
1016.81	2541.53
1016.97	2529.24
1017.12	2574.30
1017.28	2445.27
1017.44	2457.56
1017.60	2416.60
1017.75	2498.52
1017.91	2531.29
1018.07	2482.14
1018.23	2406.36
1018.38	2441.18
1018.54	2377.69
1018.70	2432.99
1018.86	2287.58
1019.01	2459.61
1019.17	2379.74
1019.33	2508.76
1019.49	2398.17
1019.64	2502.62
1019.80	2426.84
1019.96	2445.27
1020.12	2467.80
1020.27	2332.64
1020.43	2303.96
1020.59	2351.07
1020.74	2383.84
1020.90	2451.42
1021.06	2332.64
1021.22	2435.03
1021.37	2398.17
1021.53	2338.78
1021.69	2371.55
1021.84	2371.55
1022.00	2324.44
1022.16	2246.62
1022.31	2389.98
1022.47	2367.45
1022.63	2389.98
1022.79	2244.57
1022.94	2254.81
1023.10	2377.69
1023.26	2246.62
1023.41	2267.10
1023.57	2150.37
1023.73	2400.22
1023.88	2279.39
1024.04	2310.11
1024.20	2148.32
1024.35	2287.58
1024.51	2217.95
1024.67	2211.81
1024.82	2336.73
1024.98	2158.56
1025.14	2306.01
1025.29	2265.05
1025.45	2367.45
1025.61	2142.18
1025.76	2265.05
1025.92	2320.35
1026.08	2248.67
1026.23	2260.96
1026.39	2256.86
1026.55	2226.14
1026.70	2117.60
1026.86	2197.47
1027.02	2279.39
1027.17	2201.57
1027.33	2234.33
1027.48	2066.40
1027.64	2138.08
1027.80	2148.32
1027.95	2181.09
1028.11	2131.94
1028.27	2097.12
1028.42	2154.46
1028.58	2158.56
1028.73	2107.36
1028.89	2021.35
1029.05	2248.67
1029.20	2170.85
>>>>>End Processed Spectral Data<<<<<
