SpectraSuite Data File
++++++++++++++++++++++++++++++++++++
Date: Fri Jun 02 14:57:19 CEST 2017
User: INFO_000
Dark Spectrum Present: No
Reference Spectrum Present: No
Number of Sampled Component Spectra: 1
Spectrometers: USB4H00879
Integration Time (usec): 80000 (USB4H00879)
Spectra Averaged: 1 (USB4H00879)
Boxcar Smoothing: 0 (USB4H00879)
Correct for Electrical Dark: No (USB4H00879)
Strobe/Lamp Enabled: No (USB4H00879)
Correct for Detector Non-linearity: No (USB4H00879)
Correct for Stray Light: No (USB4H00879)
Number of Pixels in Processed Spectrum: 3648
>>>>>Begin Processed Spectral Data<<<<<
345.13	1239.02
345.34	1239.02
345.56	1239.02
345.78	1314.80
345.99	1275.88
346.21	1748.97
346.42	1753.06
346.64	1636.33
346.86	1779.68
347.07	1544.17
347.29	1662.95
347.50	1634.28
347.72	1683.43
347.94	1771.49
348.15	1511.40
348.37	1638.38
348.59	1791.97
348.80	1671.14
349.02	1789.92
349.23	1847.27
349.45	1910.75
349.67	1855.46
349.88	1886.18
350.10	2004.96
350.31	1806.31
350.53	1812.45
350.75	1964.00
350.96	1845.22
351.18	1888.23
351.39	1832.93
351.61	1851.36
351.82	1939.43
352.04	1916.90
352.26	1789.92
352.47	1863.65
352.69	1834.98
352.90	1832.93
353.12	1863.65
353.34	1769.44
353.55	1914.85
353.77	1890.28
353.98	1863.65
354.20	1851.36
354.41	1906.66
354.63	1914.85
354.85	2002.91
355.06	1945.57
355.28	1857.51
355.49	1869.80
355.71	1843.17
355.92	1859.56
356.14	1886.18
356.35	1839.08
356.57	1871.84
356.79	1992.67
357.00	1873.89
357.22	2062.30
357.43	1834.98
357.65	1902.56
357.86	1810.40
358.08	1974.24
358.29	1978.34
358.51	1964.00
358.72	1927.14
358.94	2000.87
359.16	1912.80
359.37	1933.28
359.59	1943.52
359.80	2035.68
360.02	1902.56
360.23	1920.99
360.45	2009.06
360.66	1951.71
360.88	1890.28
361.09	1949.67
361.31	2027.49
361.52	1898.47
361.74	2039.78
361.95	2047.97
362.17	1943.52
362.38	2168.80
362.60	2062.30
362.81	1927.14
363.03	1931.23
363.24	2011.11
363.46	2011.11
363.67	2029.54
363.89	2080.74
364.10	2009.06
364.32	1982.43
364.53	2033.63
364.75	1871.84
364.96	1970.15
365.18	2043.87
365.39	1972.19
365.61	1912.80
365.82	2113.50
366.04	2060.26
366.25	1978.34
366.47	2023.39
366.68	1994.72
366.90	1970.15
367.11	2064.35
367.33	2078.69
367.54	2050.02
367.76	2025.44
367.97	2125.79
368.19	1984.48
368.40	2136.03
368.62	2021.35
368.83	1955.81
369.05	2015.20
369.26	1990.63
369.48	2039.78
369.69	1978.34
369.91	2033.63
370.12	2009.06
370.33	2090.98
370.55	2029.54
370.76	2078.69
370.98	2076.64
371.19	2082.78
371.41	2062.30
371.62	2033.63
371.84	2066.40
372.05	2205.66
372.27	2109.41
372.48	2060.26
372.69	2062.30
372.91	2101.22
373.12	2142.18
373.34	2074.59
373.55	2183.13
373.77	2181.09
373.98	2154.46
374.20	2183.13
374.41	2244.57
374.62	2109.41
374.84	2109.41
375.05	2220.00
375.27	2244.57
375.48	2164.70
375.70	2152.42
375.91	2246.62
376.12	2252.77
376.34	2242.53
376.55	2230.24
376.77	2271.20
376.98	2164.70
377.19	2133.98
377.41	2179.04
377.62	2215.90
377.84	2211.81
378.05	2318.30
378.27	2207.71
378.48	2289.63
378.69	2449.37
378.91	2361.31
379.12	2230.24
379.34	2207.71
379.55	2375.64
379.76	2244.57
379.98	2238.43
380.19	2220.00
380.41	2250.72
380.62	2336.73
380.83	2351.07
381.05	2205.66
381.26	2404.32
381.47	2226.14
381.69	2244.57
381.90	2478.04
382.12	2359.26
382.33	2299.87
382.54	2287.58
382.76	2293.72
382.97	2346.97
383.19	2373.60
383.40	2406.36
383.61	2338.78
383.83	2324.44
384.04	2414.56
384.25	2328.54
384.47	2389.98
384.68	2412.51
384.89	2336.73
385.11	2377.69
385.32	2236.38
385.54	2359.26
385.75	2447.32
385.96	2332.64
386.18	2455.51
386.39	2404.32
386.60	2375.64
386.82	2420.70
387.03	2416.60
387.24	2475.99
387.46	2488.28
387.67	2478.04
387.88	2506.71
388.10	2516.95
388.31	2525.15
388.52	2471.90
388.74	2590.68
388.95	2480.09
389.16	2553.82
389.38	2428.89
389.59	2525.15
389.80	2678.74
390.02	2570.20
390.23	2686.94
390.44	2471.90
390.66	2521.05
390.87	2473.95
391.08	2613.21
391.30	2666.46
391.51	2594.78
391.72	2691.03
391.94	2652.12
392.15	2699.22
392.36	2508.76
392.58	2619.35
392.79	2686.94
393.00	2584.54
393.22	2633.69
393.43	2695.13
393.64	2803.67
393.85	2801.62
394.07	2660.31
394.28	2731.99
394.49	2686.94
394.71	2791.38
394.92	2838.48
395.13	2701.27
395.35	2693.08
395.56	2727.89
395.77	2803.67
395.98	2756.57
396.20	2901.97
396.41	2824.15
396.62	2854.87
396.84	2854.87
397.05	2658.26
397.26	2846.68
397.47	2873.30
397.69	2815.96
397.90	3047.38
398.11	2965.46
398.32	2940.88
398.54	2910.16
398.75	2877.40
398.96	2901.97
399.18	2973.65
399.39	2951.12
399.60	3102.67
399.81	2914.26
400.03	2887.64
400.24	3342.28
400.45	2951.12
400.66	3028.95
400.88	2912.21
401.09	3231.69
401.30	3035.09
401.51	3102.67
401.73	3043.28
401.94	3188.69
402.15	3186.64
402.36	3131.34
402.58	3110.86
402.79	3168.21
403.00	3133.39
403.21	3139.54
403.43	3137.49
403.64	3301.33
403.85	3084.24
404.06	3268.56
404.27	3192.78
404.49	3141.58
404.70	3135.44
404.91	3309.52
405.12	3223.50
405.34	3223.50
405.55	3330.00
405.76	3155.92
405.97	3272.65
406.19	3370.96
406.40	3246.03
406.61	3307.47
406.82	3280.85
407.03	3231.69
407.25	3268.56
407.46	3485.64
407.67	3305.42
407.88	3385.29
408.09	3350.48
408.31	3381.20
408.52	3375.05
408.73	3389.39
408.94	3330.00
409.15	3444.68
409.37	3504.07
409.58	3461.07
409.79	3524.55
410.00	3600.33
410.21	3391.44
410.43	3346.38
410.64	3463.12
410.85	3573.71
411.06	3641.29
411.27	3620.81
411.48	3602.38
411.70	3569.61
411.91	3485.64
412.12	3731.40
412.33	3530.70
412.54	3590.09
412.76	3702.73
412.97	3649.48
413.18	3524.55
413.39	3743.69
413.60	3690.44
413.81	3684.30
414.03	3553.23
414.24	3727.30
414.45	3737.54
414.66	3487.69
414.87	3784.65
415.08	3727.30
415.30	3737.54
415.51	3780.55
415.72	3762.12
415.93	3717.06
416.14	3747.78
416.35	3895.24
416.56	3778.50
416.78	3829.70
416.99	3850.18
417.20	3839.94
417.41	3975.11
417.62	3813.32
417.83	3950.53
418.04	4028.35
418.26	3960.77
418.47	3882.95
418.68	4120.51
418.89	3868.61
419.10	4192.19
419.31	3964.87
419.52	4110.27
419.73	4077.51
419.95	4157.38
420.16	3856.33
420.37	4095.94
420.58	4288.45
420.79	4009.92
421.00	4140.99
421.21	4345.79
421.42	4130.75
421.63	4132.80
421.85	4138.94
422.06	4136.90
422.27	4370.37
422.48	4184.00
422.69	4278.21
422.90	4331.45
423.11	4270.01
423.32	4460.48
423.53	4528.06
423.75	4421.56
423.96	4433.85
424.17	4550.59
424.38	4532.15
424.59	4489.15
424.80	4720.57
425.01	4503.48
425.22	4364.22
425.43	4446.14
425.64	4650.94
425.85	4749.24
426.06	4706.23
426.28	4657.08
426.49	4515.77
426.70	4558.78
426.91	4706.23
427.12	4759.48
427.33	4657.08
427.54	4739.00
427.75	4804.53
427.96	5011.38
428.17	4902.84
428.38	4908.98
428.59	4921.27
428.80	4782.01
429.01	4995.00
429.23	4964.28
429.44	4988.85
429.65	5136.31
429.86	5113.78
430.07	4900.79
430.28	4868.02
430.49	5183.41
430.70	5156.79
430.91	5093.30
431.12	5091.25
431.33	5234.61
431.54	5183.41
431.75	5255.09
431.96	5152.69
432.17	5248.94
432.38	5179.31
432.59	5369.77
432.80	5234.61
433.01	5328.81
433.22	5287.86
433.43	5455.79
433.64	5320.62
433.85	5337.01
434.06	5375.92
434.27	5359.53
434.49	5599.15
434.70	5523.37
434.91	5541.80
435.12	5527.47
435.33	5490.60
435.54	5564.33
435.75	5474.22
435.96	5509.04
436.17	5357.49
436.38	5515.18
436.59	5519.28
436.80	5578.67
437.01	5922.73
437.22	5717.93
437.43	5640.11
437.64	5685.16
437.85	5656.49
438.06	5873.57
438.27	5803.94
438.48	5711.78
438.69	5797.80
438.90	5828.52
439.11	5713.83
439.32	5920.68
439.53	5867.43
439.74	5898.15
439.95	5984.16
440.16	5920.68
440.37	5947.30
440.57	5865.38
440.78	5939.11
440.99	5996.45
441.20	6186.91
441.41	5791.66
441.62	5957.54
441.83	5971.88
442.04	6066.08
442.25	6160.29
442.46	6018.98
442.67	6195.11
442.88	6502.30
443.09	6057.89
443.30	6104.99
443.51	6049.70
443.72	6338.46
443.93	6080.42
444.14	6277.02
444.35	6107.04
444.56	6264.74
444.77	6369.18
444.98	6338.46
445.19	6428.57
445.40	6324.13
445.61	6375.33
445.81	6467.49
446.02	6475.68
446.23	6377.37
446.44	6145.95
446.65	6352.80
446.86	6444.96
447.07	6633.37
447.28	6586.27
447.49	6614.94
447.70	6578.08
447.91	6559.64
448.12	6539.16
448.33	6698.91
448.54	6672.28
448.74	6459.29
448.95	6901.65
449.16	6637.47
449.37	6920.09
449.58	6514.59
449.79	6834.07
450.00	6754.20
450.21	6965.14
450.42	6971.29
450.63	6942.61
450.84	6821.78
451.05	7038.87
451.25	7008.15
451.46	6903.70
451.67	7053.20
451.88	7139.22
452.09	7069.59
452.30	7020.44
452.51	6909.85
452.72	7268.24
452.93	7505.81
453.13	7051.16
453.34	7073.68
453.55	7280.53
453.76	7135.12
453.97	7516.05
454.18	7264.15
454.39	7425.93
454.60	7341.97
454.81	7362.45
455.01	7460.75
455.22	7161.75
455.43	7485.33
455.64	7681.93
455.85	7589.77
456.06	7808.90
456.27	7542.67
456.48	7737.23
456.68	7671.69
456.89	7604.11
457.10	7821.19
457.31	7892.87
457.52	7688.07
457.73	7819.14
457.94	7901.06
458.14	7731.08
458.35	8318.85
458.56	8171.40
458.77	8007.56
458.98	8114.05
459.19	8087.43
459.39	8130.44
459.60	8447.87
459.81	8191.88
460.02	8568.70
460.23	8269.70
460.44	8462.21
460.65	8527.74
460.85	8568.70
461.06	8511.36
461.27	8480.64
461.48	8761.21
461.69	8927.10
461.89	8380.29
462.10	8710.01
462.31	8388.48
462.52	8544.13
462.73	8759.16
462.94	8990.58
463.14	8808.31
463.35	8933.24
463.56	9295.73
463.77	9138.04
463.98	9144.18
464.18	9252.72
464.39	9279.35
464.60	9449.33
464.81	9334.64
465.02	9434.99
465.23	9559.92
465.43	9441.14
465.64	9650.03
465.85	9641.84
466.06	9498.48
466.27	9799.53
466.47	9717.61
466.68	9977.70
466.89	9836.39
467.10	9916.26
467.30	9588.59
467.51	10026.86
467.72	10268.52
467.93	9957.22
468.14	10235.75
468.34	10319.71
468.55	10428.26
468.76	10317.67
468.97	10239.84
469.17	10555.23
469.38	10616.67
469.59	10805.08
469.80	10571.61
470.01	10596.19
470.21	10741.60
470.42	10911.58
470.63	10837.85
470.84	10862.43
471.04	11124.57
471.25	11095.89
471.46	11042.65
471.67	11495.25
471.87	11333.46
472.08	11536.21
472.29	11675.47
472.50	11366.23
472.70	11669.33
472.91	11538.26
473.12	11865.93
473.33	11939.66
473.53	12253.00
473.74	11884.36
473.95	12134.21
474.16	12177.22
474.36	12123.98
474.57	12523.33
474.78	12580.67
474.99	12537.66
475.19	12236.61
475.40	12906.30
475.61	12957.50
475.81	12910.40
476.02	13133.62
476.23	12894.01
476.44	13205.30
476.64	13561.65
476.85	13612.85
477.06	13399.86
477.27	13885.23
477.47	13709.10
477.68	13834.03
477.89	13897.52
478.09	13981.48
478.30	14149.42
478.51	14182.18
478.71	14198.57
478.92	14411.56
479.13	14370.60
479.34	14604.07
479.54	14747.42
479.75	14679.84
479.96	14866.21
480.16	15042.33
480.37	15089.43
480.58	14970.65
480.78	15478.55
480.99	15386.39
481.20	15539.99
481.41	15496.98
481.61	15572.75
481.82	15947.53
482.03	15810.32
482.23	16002.83
482.44	16127.75
482.65	16101.13
482.85	16097.03
483.06	16367.37
483.27	16357.13
483.47	16389.89
483.68	16518.92
483.89	16828.16
484.09	16678.66
484.30	16725.76
484.51	17090.30
484.71	16946.94
484.92	17084.16
485.13	17444.60
485.33	17268.47
485.54	17348.34
485.75	17630.96
485.95	17778.42
486.16	17823.47
486.37	17856.24
486.57	17880.82
486.78	18011.89
486.98	17972.97
487.19	17987.31
487.40	18472.68
487.60	18556.64
487.81	18843.36
488.02	18466.53
488.22	18583.27
488.43	18640.61
488.64	18943.71
488.84	19191.52
489.05	19130.08
489.25	19013.34
489.46	19437.27
489.67	19338.97
489.87	19447.51
490.08	19717.84
490.29	19580.63
490.49	19926.74
490.70	19867.34
490.90	20149.96
491.11	19814.10
491.32	20383.43
491.52	20209.36
491.73	20498.12
491.94	20590.28
492.14	20432.58
492.35	20707.01
492.55	20625.09
492.76	20831.94
492.97	21110.46
493.17	20844.23
493.38	21112.51
493.58	21317.31
493.79	21163.71
494.00	21092.03
494.20	21223.10
494.41	21667.51
494.61	21778.10
494.82	21475.00
495.02	21919.41
495.23	21958.32
495.44	21798.58
495.64	22027.95
495.85	22085.30
496.05	22275.76
496.26	22281.90
496.47	22615.72
496.67	22294.19
496.88	22748.84
497.08	22083.25
497.29	23023.26
497.49	22726.31
497.70	22898.34
497.91	23090.85
498.11	23213.73
498.32	22888.10
498.52	23242.40
498.73	23453.34
498.93	23072.42
499.14	23367.32
499.34	23713.43
499.55	23516.83
499.76	23553.69
499.96	23625.37
500.17	23725.72
500.37	24120.98
500.58	23776.92
500.78	23846.55
500.99	24153.74
501.19	24133.26
501.40	24352.40
501.60	24190.61
501.81	24270.48
502.02	24219.28
502.22	24229.52
502.43	24407.69
502.63	24786.57
502.84	24845.96
503.04	24604.30
503.25	24600.20
503.45	24788.61
503.66	24985.22
503.86	24858.24
504.07	25216.64
504.27	25030.27
504.48	25159.30
504.68	25167.49
504.89	25384.57
505.09	25425.53
505.30	25218.69
505.50	25523.83
505.71	25718.39
505.91	25443.96
506.12	25456.25
506.32	25466.49
506.53	25558.65
506.73	25847.41
506.94	25826.93
507.14	25912.95
507.35	25732.73
507.55	25871.99
507.76	26181.23
507.96	26064.50
508.17	26021.49
508.37	26277.49
508.58	26226.29
508.78	26226.29
508.99	26572.39
509.19	26347.12
509.40	26224.24
509.60	26652.27
509.81	26584.68
510.01	26420.84
510.22	26375.79
510.42	26500.72
510.63	26865.25
510.83	26580.59
511.04	26685.03
511.24	26967.65
511.44	26873.45
511.65	26967.65
511.85	26556.01
512.06	26824.29
512.26	27266.66
512.47	27125.35
512.67	27287.14
512.88	27354.72
513.08	27051.62
513.29	27612.76
513.49	27459.16
513.69	26945.12
513.90	27653.72
514.10	27541.08
514.31	27305.57
514.51	27326.05
514.72	27805.27
514.92	27694.68
515.13	27446.88
515.33	27340.38
515.53	27553.37
515.74	27620.95
515.94	28057.17
516.15	28077.65
516.35	27723.35
516.56	27981.40
516.76	27696.73
516.96	27752.02
517.17	27977.30
517.37	28272.21
517.58	27985.49
517.78	28085.84
517.99	28456.53
518.19	28628.56
518.39	28497.49
518.60	28407.37
518.80	28386.89
519.01	28444.24
519.21	28083.80
519.41	28718.67
519.62	28874.31
519.82	28479.05
520.03	28997.19
520.23	28733.00
520.43	28485.20
520.64	29025.86
520.84	29177.41
521.05	28827.21
521.25	29300.29
521.45	29089.35
521.66	29525.57
521.86	29359.68
522.07	29589.05
522.27	29494.85
522.47	29177.41
522.68	29763.13
522.88	29632.06
523.08	29742.65
523.29	29806.14
523.49	30273.07
523.70	29945.40
523.90	29980.21
524.10	29713.98
524.31	29949.50
524.51	29816.38
524.71	30330.42
524.92	30119.48
525.12	30776.87
525.33	30578.22
525.53	30295.60
525.73	30602.80
525.94	30596.65
526.14	30750.25
526.34	30641.71
526.55	30656.04
526.75	31112.74
526.95	30987.82
527.16	30989.86
527.36	31116.84
527.56	31221.28
527.77	31573.53
527.97	31587.87
528.17	31110.69
528.38	31839.77
528.58	31278.63
528.78	31407.65
528.99	31381.03
529.19	31868.44
529.39	31272.48
529.60	32073.24
529.80	32017.94
530.00	31993.37
530.21	32325.14
530.41	32259.60
530.61	32407.06
530.82	32484.88
531.02	32497.17
531.22	32675.34
531.43	32593.42
531.63	32654.86
531.83	32955.91
532.04	32980.49
532.24	33062.41
532.44	33379.84
532.64	33342.98
532.85	33162.76
533.05	33222.15
533.25	33111.56
533.46	33443.33
533.66	33644.03
533.86	33535.49
534.07	33830.40
534.27	33635.84
534.47	33867.26
534.67	33908.22
534.88	33963.51
535.08	33861.12
535.28	34264.57
535.49	34231.80
535.69	34680.30
535.89	34483.70
536.09	34719.21
536.30	34835.95
536.50	34686.45
536.70	34649.58
536.91	34686.45
537.11	34960.87
537.31	35001.83
537.51	35177.96
537.72	35413.48
537.92	35390.95
538.12	35892.70
538.32	35530.21
538.53	35798.49
538.73	35200.49
538.93	35759.58
539.13	35935.71
539.34	35831.26
539.54	35888.60
539.74	35943.90
539.94	36029.91
540.15	35970.52
540.35	36156.89
540.55	36261.33
540.75	36242.90
540.96	36369.88
541.16	36562.39
541.36	36476.37
541.56	36677.07
541.77	37088.71
541.97	36505.04
542.17	37021.13
542.37	37098.95
542.58	37084.62
542.78	37117.39
542.98	37008.84
543.18	37111.24
543.38	37780.93
543.59	37371.33
543.79	37721.54
543.99	37289.42
544.19	37830.08
544.40	37631.43
544.60	37889.47
544.80	37537.22
545.00	38090.17
545.20	38514.10
545.41	38026.68
545.61	37944.76
545.81	38081.98
546.01	38421.94
546.21	38475.19
546.42	38311.35
546.62	38495.67
546.82	38319.54
547.02	38417.85
547.22	38299.06
547.43	38800.82
547.63	38467.00
547.83	38909.36
548.03	38647.22
548.23	38751.66
548.44	38956.46
548.64	39130.54
548.84	39234.99
549.04	39189.93
549.24	39228.84
549.45	39886.24
549.65	39187.88
549.85	39345.58
550.05	39669.15
550.25	39398.82
550.45	40017.31
550.66	39620.00
550.86	39364.01
551.06	40007.07
551.26	39890.34
551.46	39964.06
551.66	39955.87
551.87	40211.87
552.07	40091.04
552.27	40013.21
552.47	40488.34
552.67	39871.90
552.87	40834.45
553.07	40252.83
553.28	40727.95
553.48	40678.80
553.68	40187.29
553.88	40942.99
554.08	40723.86
554.28	40918.42
554.48	40646.04
554.69	40662.42
554.89	41072.01
555.09	41149.84
555.29	40959.38
555.49	41039.25
555.69	41223.56
555.89	41188.75
556.10	41420.17
556.30	41264.52
556.50	41282.95
556.70	41270.67
556.90	41614.72
557.10	41784.71
557.30	41440.65
557.50	41956.74
557.70	41891.20
557.91	41977.22
558.11	41942.40
558.31	42235.26
558.51	41805.19
558.71	41860.48
558.91	41975.17
559.11	42018.17
559.31	41833.86
559.51	41868.67
559.72	42141.05
559.92	42521.98
560.12	42268.03
560.32	42458.49
560.52	42431.86
560.72	42569.08
560.92	42435.96
561.12	42820.98
561.32	43128.17
561.52	42763.64
561.72	42859.89
561.93	42935.66
562.13	43255.15
562.33	42661.24
562.53	43349.35
562.73	42927.47
562.93	42956.14
563.13	43613.54
563.33	43072.88
563.53	43388.27
563.73	43138.41
563.93	43027.82
564.13	43943.27
564.33	43472.23
564.53	43296.11
564.74	43781.48
564.94	43613.54
565.14	43654.50
565.34	43074.93
565.54	44313.95
565.74	43957.60
565.94	44156.25
566.14	44354.91
566.34	43887.97
566.54	44160.35
566.74	44039.52
566.94	44500.31
567.14	44768.60
567.34	44055.90
567.54	44359.00
567.74	44086.62
567.94	44395.87
568.14	44631.38
568.34	44873.04
568.54	44512.60
568.74	44817.75
568.94	44959.06
569.14	44766.55
569.34	45014.35
569.54	45368.65
569.75	45061.46
569.95	44911.95
570.15	45286.73
570.35	45253.97
570.55	45241.68
570.75	45382.99
570.95	45325.64
571.15	45552.97
571.35	45151.57
571.55	45299.02
571.75	45290.83
571.95	45690.18
572.15	45677.90
572.35	45530.44
572.55	45866.31
572.75	45659.46
572.95	45442.38
573.15	45886.79
573.35	45937.99
573.55	46085.44
573.75	46216.51
573.95	46703.93
574.15	45999.43
574.35	46218.56
574.55	46265.66
574.75	46249.28
574.95	46400.83
575.15	46306.62
575.34	46529.85
575.54	46548.28
575.74	46900.53
575.94	46591.29
576.14	46757.17
576.34	46988.60
576.54	46644.54
576.74	47375.66
576.94	46794.04
577.14	47007.03
577.34	47566.12
577.54	46830.90
577.74	47486.25
577.94	47332.65
578.14	47197.49
578.34	48174.37
578.54	46841.14
578.74	47404.33
578.94	47955.24
579.14	47478.06
579.34	47512.88
579.54	47467.82
579.74	48031.01
579.94	48258.34
580.13	47969.57
580.33	48133.41
580.53	48153.89
580.73	48151.84
580.93	47961.38
581.13	48135.46
581.33	48948.50
581.53	48725.27
581.73	48123.17
581.93	48882.97
582.13	48342.30
582.33	48727.32
582.53	48747.80
582.73	48850.20
582.92	48411.93
583.12	49179.92
583.32	48915.73
583.52	48661.79
583.72	49300.75
583.92	49124.63
584.12	48960.79
584.32	49665.29
584.52	49540.36
584.72	49327.38
584.92	49376.53
585.11	49743.11
585.31	49440.01
585.51	50435.33
585.71	49358.09
585.91	50121.99
586.11	49634.57
586.31	49849.61
586.51	49859.85
586.71	50341.12
586.91	50304.26
587.10	50427.13
587.30	50062.60
587.50	50038.02
587.70	50664.70
587.90	50476.29
588.10	50443.52
588.30	50633.98
588.50	50234.63
588.69	50269.44
588.89	50574.59
589.09	50609.40
589.29	50529.53
589.49	50793.72
589.69	50423.04
589.89	51156.21
590.08	50959.61
590.28	50599.16
590.48	50556.16
590.68	50912.50
590.88	51029.24
591.08	50853.11
591.28	50978.04
591.47	51430.64
591.67	51188.98
591.87	51545.33
592.07	50947.32
592.27	51168.50
592.47	51590.38
592.67	51449.07
592.86	51045.62
593.06	51614.96
593.26	51705.07
593.46	51655.92
593.66	51320.05
593.86	52094.18
594.05	51705.07
594.25	51500.27
594.45	51461.36
594.65	51737.83
594.85	51213.55
595.05	52098.28
595.24	52178.15
595.44	51713.26
595.64	52022.50
595.84	52163.81
596.04	52514.01
596.23	51954.92
596.43	52446.43
596.63	52145.38
596.83	52223.20
597.03	52192.48
597.22	52471.01
597.42	52315.36
597.62	52962.52
597.82	52253.92
598.02	52368.61
598.21	52784.35
598.41	52552.93
598.61	52796.63
598.81	53124.31
599.01	52960.47
599.20	52577.50
599.40	52993.24
599.60	53134.55
599.80	52966.62
600.00	53015.77
600.19	53638.35
600.39	53142.74
600.59	53515.47
600.79	52778.20
600.98	52778.20
601.18	53630.16
601.38	53392.59
601.58	53705.93
601.78	53691.60
601.97	53773.52
602.17	53820.62
602.37	53707.98
602.57	53523.66
602.76	53869.77
602.96	53054.68
603.16	54002.89
603.36	53621.97
603.55	53812.43
603.75	53925.07
603.95	54254.79
604.15	54045.90
604.34	53882.06
604.54	54320.32
604.74	54129.86
604.94	54076.61
605.13	54439.11
605.33	54615.23
605.53	53861.58
605.73	54201.54
605.92	54211.78
606.12	54152.39
606.32	54508.74
606.52	54541.50
606.71	54123.72
606.91	54424.77
607.11	54084.81
607.30	54068.42
607.50	54598.85
607.70	54650.05
607.90	54834.36
608.09	54863.03
608.29	54908.09
608.49	54527.17
608.68	54578.37
608.88	54979.77
609.08	55143.61
609.28	54838.46
609.47	54371.52
609.67	55164.09
609.87	54666.43
610.06	55110.84
610.26	54600.89
610.46	55510.19
610.66	54705.34
610.85	54903.99
611.05	55006.39
611.25	55252.15
611.44	55211.19
611.64	55112.89
611.84	55336.12
612.03	55106.74
612.23	55170.23
612.43	55178.42
612.62	54916.28
612.82	55401.65
613.02	55166.13
613.21	55221.43
613.41	54750.40
613.61	54949.05
613.80	54949.05
614.00	55176.37
614.20	55055.54
614.39	54883.51
614.59	54846.65
614.79	54975.67
614.98	54918.33
615.18	55141.56
615.38	55092.41
615.57	54795.45
615.77	55366.84
615.97	55116.98
616.16	54994.10
616.36	55307.44
616.56	55174.33
616.75	55170.23
616.95	54715.58
617.15	54793.40
617.34	55129.27
617.54	55061.69
617.74	55198.90
617.93	55008.44
618.13	54721.72
618.32	54961.34
618.52	54797.50
618.72	54805.69
618.91	55092.41
619.11	54361.28
619.31	55321.78
619.50	54852.80
619.70	54527.17
619.90	54506.69
620.09	55018.68
620.29	54711.49
620.48	54482.11
620.68	54834.36
620.88	54731.96
621.07	54324.42
621.27	54715.58
621.46	54703.29
621.66	54553.79
621.86	54899.90
622.05	54539.46
622.25	54803.64
622.44	54557.89
622.64	54760.64
622.84	54686.91
623.03	54361.28
623.23	54637.76
623.42	54709.44
623.62	54793.40
623.82	54860.99
624.01	54545.60
624.21	54662.33
624.40	54318.28
624.60	54418.63
624.80	53925.07
624.99	54355.14
625.19	54275.27
625.38	54400.19
625.58	54441.15
625.77	54265.03
625.97	54535.36
626.17	54080.71
626.36	54375.62
626.56	54547.65
626.75	53847.24
626.95	54348.99
627.14	54097.09
627.34	54402.24
627.54	53802.19
627.73	54201.54
627.93	54316.23
628.12	53703.88
628.32	54037.70
628.51	54041.80
628.71	53863.63
628.90	54344.90
629.10	53851.34
629.30	54269.12
629.49	54144.20
629.69	53794.00
629.88	54379.71
630.08	54318.28
630.27	54162.63
630.47	54154.44
630.66	53638.35
630.86	54172.87
631.05	54019.27
631.25	54293.70
631.44	54293.70
631.64	54047.94
631.84	54230.21
632.03	54746.30
632.23	54082.76
632.42	54217.92
632.62	53767.37
632.81	53583.05
633.01	54138.05
633.20	54207.68
633.40	53925.07
633.59	53789.90
633.79	53624.01
633.98	53959.88
634.18	54262.98
634.37	54185.16
634.57	54428.87
634.76	54039.75
634.96	54039.75
635.15	54158.53
635.35	53941.45
635.54	53607.63
635.74	54353.09
635.93	53722.32
636.13	54326.47
636.32	53660.88
636.52	53886.15
636.71	53757.13
636.91	54170.82
637.10	54199.49
637.30	54002.89
637.49	53851.34
637.69	54000.84
637.88	54346.95
638.08	54082.76
638.27	54394.05
638.46	53572.81
638.66	53884.11
638.85	53916.87
639.05	54326.47
639.24	54172.87
639.44	53828.81
639.63	53779.66
639.83	54164.68
640.02	53990.60
640.22	54056.14
640.41	54400.19
640.61	53877.96
640.80	54531.26
640.99	53957.83
641.19	54437.06
641.38	54052.04
641.58	53585.10
641.77	53740.75
641.97	53738.70
642.16	54262.98
642.36	54191.30
642.55	54392.00
642.74	53648.59
642.94	54502.59
643.13	54084.81
643.33	54164.68
643.52	54111.43
643.72	54312.13
643.91	53802.19
644.10	53787.85
644.30	54222.02
644.49	54506.69
644.69	54475.97
644.88	54508.74
645.08	53587.15
645.27	53976.26
645.46	54004.94
645.66	54482.11
645.85	54064.33
646.05	54645.95
646.24	54185.16
646.43	54125.77
646.63	54594.75
646.82	54764.73
647.02	54367.43
647.21	54584.51
647.40	54375.62
647.60	54596.80
647.79	54420.67
647.99	54705.34
648.18	54066.38
648.37	54926.52
648.57	54545.60
648.76	54394.05
648.96	54090.95
649.15	54482.11
649.34	54789.31
649.54	54660.29
649.73	54078.66
649.92	54752.44
650.12	54545.60
650.31	54607.04
650.51	55045.30
650.70	54889.66
650.89	54502.59
651.09	55180.47
651.28	54672.57
651.47	54588.61
651.67	54670.53
651.86	55250.10
652.06	54215.88
652.25	55090.36
652.44	54265.03
652.64	54242.50
652.83	54475.97
653.02	54224.07
653.22	54922.43
653.41	54617.28
653.60	54387.91
653.80	54746.30
653.99	54965.43
654.18	54609.09
654.38	54817.98
654.57	54899.90
654.76	54807.74
654.96	54529.22
655.15	54396.10
655.34	54617.28
655.54	54686.91
655.73	54322.37
655.92	54850.75
656.12	54858.94
656.31	54666.43
656.50	54752.44
656.70	54795.45
656.89	54701.25
657.08	54969.53
657.28	55067.83
657.47	54867.13
657.66	54856.89
657.86	55196.85
658.05	54852.80
658.24	54514.88
658.43	54867.13
658.63	55149.75
658.82	55338.16
659.01	55022.78
659.21	54967.48
659.40	55039.16
659.59	54715.58
659.79	55215.29
659.98	54981.82
660.17	55180.47
660.36	54598.85
660.56	54967.48
660.75	55303.35
660.94	55237.81
661.14	55203.00
661.33	54879.42
661.52	54924.47
661.71	55598.26
661.91	55010.49
662.10	55071.93
662.29	55143.61
662.49	54975.67
662.68	55342.26
662.87	55182.52
663.06	55127.22
663.26	55108.79
663.45	55178.42
663.64	55125.17
663.83	55964.84
664.03	55549.10
664.22	54879.42
664.41	55090.36
664.60	55491.76
664.80	55348.40
664.99	55004.34
665.18	55291.06
665.37	55250.10
665.57	56022.19
665.76	55241.91
665.95	55334.07
666.14	54871.23
666.34	55278.77
666.53	55379.12
666.72	54899.90
666.91	55209.14
667.11	55506.10
667.30	55162.04
667.49	54846.65
667.68	54793.40
667.87	55243.96
668.07	55645.36
668.26	54918.33
668.45	55096.50
668.64	55153.85
668.84	55934.12
669.03	55413.94
669.22	54985.91
669.41	55461.04
669.60	55526.58
669.80	55030.97
669.99	55608.50
670.18	55592.11
670.37	55217.33
670.57	55934.12
670.76	55078.07
670.95	55563.44
671.14	55227.57
671.33	55030.97
671.53	56007.85
671.72	55338.16
671.91	55266.48
672.10	55227.57
672.29	55145.65
672.48	55301.30
672.68	56059.05
672.87	55012.54
673.06	55170.23
673.25	55086.26
673.44	55207.09
673.64	55332.02
673.83	55352.50
674.02	55319.73
674.21	54990.01
674.40	55346.36
674.59	55194.81
674.79	55428.27
674.98	55254.20
675.17	55260.34
675.36	55235.77
675.55	55409.84
675.74	55080.12
675.94	54785.21
676.13	55702.70
676.32	55661.74
676.51	55628.98
676.70	55239.86
676.89	55479.47
677.08	55440.56
677.28	54701.25
677.47	55665.84
677.66	55571.63
677.85	55542.96
678.04	55698.61
678.23	55776.43
678.42	55706.80
678.62	55641.26
678.81	55405.75
679.00	55102.65
679.19	55936.17
679.38	55723.18
679.57	55268.53
679.76	55508.14
679.96	55776.43
680.15	55733.42
680.34	55432.37
680.53	55272.63
680.72	55571.63
680.91	55577.78
681.10	55424.18
681.29	55145.65
681.48	55159.99
681.68	55336.12
681.87	55010.49
682.06	55616.69
682.25	55342.26
682.44	55301.30
682.63	55385.27
682.82	55063.74
683.01	55280.82
683.20	55289.01
683.39	55264.44
683.59	55174.33
683.78	55125.17
683.97	54889.66
684.16	55123.13
684.35	55170.23
684.54	55100.60
684.73	55395.51
684.92	55262.39
685.11	55280.82
685.30	55022.78
685.49	55549.10
685.69	54926.52
685.88	55667.89
686.07	55145.65
686.26	55121.08
686.45	55411.89
686.64	55157.94
686.83	55375.03
687.02	55399.60
687.21	55426.23
687.40	55284.92
687.59	55272.63
687.78	55180.47
687.97	55168.18
688.16	55119.03
688.35	55209.14
688.54	55006.39
688.74	55030.97
688.93	55332.02
689.12	55069.88
689.31	55049.40
689.50	54967.48
689.69	54525.12
689.88	54918.33
690.07	54910.14
690.26	55071.93
690.45	55645.36
690.64	55022.78
690.83	55174.33
691.02	54881.47
691.21	54947.00
691.40	54760.64
691.59	54670.53
691.78	55164.09
691.97	54740.16
692.16	54965.43
692.35	55508.14
692.54	54947.00
692.73	55153.85
692.92	55078.07
693.11	55129.27
693.30	54850.75
693.49	55073.98
693.68	54897.85
693.87	55196.85
694.06	54879.42
694.25	54645.95
694.44	54437.06
694.63	54803.64
694.82	55090.36
695.01	54435.01
695.20	55053.50
695.39	54795.45
695.58	54832.32
695.77	54537.41
695.96	54705.34
696.15	55043.26
696.34	54553.79
696.53	54680.77
696.72	54475.97
696.91	54674.62
697.10	54400.19
697.29	54269.12
697.48	54498.50
697.67	54826.17
697.86	53783.76
698.05	54504.64
698.24	54881.47
698.43	54164.68
698.62	54457.54
698.81	53869.77
699.00	54756.54
699.19	54254.79
699.38	54572.22
699.57	54082.76
699.76	55096.50
699.95	54555.84
700.14	53931.21
700.32	54523.07
700.51	54246.60
700.70	54596.80
700.89	54207.68
701.08	54566.08
701.27	54463.68
701.46	54840.51
701.65	53873.87
701.84	54353.09
702.03	54234.31
702.22	53908.68
702.41	53974.22
702.60	54179.01
702.79	53861.58
702.98	54068.42
703.17	54015.18
703.35	54019.27
703.54	53972.17
703.73	54545.60
703.92	54277.32
704.11	53875.91
704.30	53867.72
704.49	53605.58
704.68	54230.21
704.87	53992.65
705.06	54066.38
705.25	53636.30
705.43	54033.61
705.62	54197.44
705.81	54097.09
706.00	53959.88
706.19	53685.45
706.38	53351.63
706.57	53832.91
706.76	53822.67
706.95	53581.01
707.14	53789.90
707.32	53888.20
707.51	53441.74
707.70	53474.51
707.89	53658.83
708.08	53576.91
708.27	53697.74
708.46	53486.80
708.65	53081.30
708.84	53777.61
709.02	53888.20
709.21	53894.35
709.40	53617.87
709.59	53572.81
709.78	53148.88
709.97	53228.76
710.16	53159.12
710.34	53112.02
710.53	53583.05
710.72	53363.92
710.91	53677.26
711.10	53597.39
711.29	53548.24
711.48	53597.39
711.66	52868.31
711.85	53128.41
712.04	52937.94
712.23	53116.12
712.42	52944.09
712.61	52944.09
712.80	53060.82
712.98	53103.83
713.17	52806.87
713.36	53023.96
713.55	52950.23
713.74	53071.06
713.93	52819.16
714.11	52954.33
714.30	52573.41
714.49	52565.21
714.68	52876.51
714.87	53048.53
715.06	53212.37
715.24	52434.14
715.43	52845.79
715.62	52499.68
715.81	52577.50
716.00	52962.52
716.18	52481.25
716.37	52258.02
716.56	51780.84
716.75	52935.90
716.94	52559.07
717.12	52079.85
717.31	52761.82
717.50	52085.99
717.69	51934.44
717.88	52567.26
718.06	52147.43
718.25	52708.57
718.44	52337.89
718.63	52053.22
718.82	51784.94
719.00	51780.84
719.19	51995.88
719.38	52088.04
719.57	51604.72
719.76	51789.03
719.94	51553.52
720.13	51412.21
720.32	51688.68
720.51	51660.01
720.69	51619.05
720.88	51551.47
721.07	51105.01
721.26	51066.10
721.44	51338.48
721.63	51332.34
721.82	51150.07
722.01	51023.09
722.20	51602.67
722.38	51416.30
722.57	50554.11
722.76	51070.20
722.95	51381.49
723.13	50363.65
723.32	50746.62
723.51	50707.71
723.70	50269.44
723.88	50554.11
724.07	50627.84
724.26	50916.60
724.44	50144.51
724.63	50926.84
724.82	50167.04
725.01	50216.19
725.19	50308.35
725.38	50236.67
725.57	50044.16
725.76	50072.84
725.94	50261.25
726.13	50263.30
726.32	49939.72
726.51	49863.94
726.69	50658.56
726.88	50646.27
727.07	50214.15
727.25	50234.63
727.44	50240.77
727.63	49450.25
727.82	50169.09
728.00	49814.79
728.19	50048.26
728.38	50363.65
728.56	49585.42
728.75	49902.85
728.94	49714.44
729.12	50547.96
729.31	50308.35
729.50	49999.11
729.69	50005.25
729.87	49757.45
730.06	49949.96
730.25	50011.40
730.43	50468.09
730.62	50042.12
730.81	50326.78
730.99	50111.75
731.18	49562.89
731.37	50064.64
731.55	49503.50
731.74	49796.36
731.93	50322.69
732.11	49446.16
732.30	49804.55
732.49	49642.76
732.67	49626.38
732.86	49894.66
733.05	49487.12
733.23	49421.58
733.42	49755.40
733.61	49319.18
733.79	49849.61
733.98	50263.30
734.17	49507.60
734.35	49626.38
734.54	49673.48
734.73	50236.67
734.91	49810.70
735.10	49458.45
735.29	49978.63
735.47	49452.30
735.66	49798.41
735.84	49255.70
736.03	49071.38
736.22	49745.16
736.40	49267.98
736.59	49552.65
736.78	49630.47
736.96	49208.59
737.15	49288.46
737.33	49542.41
737.52	49452.30
737.71	49112.34
737.89	49237.26
738.08	49231.12
738.27	48762.14
738.45	49261.84
738.64	49511.69
738.82	49306.90
739.01	48764.18
739.20	48784.66
739.38	49009.94
739.57	49186.07
739.75	48799.00
739.94	49040.66
740.13	49210.64
740.31	48672.03
740.50	48680.22
740.68	48766.23
740.87	48348.45
741.06	49167.63
741.24	48653.59
741.43	48330.01
741.61	48637.21
741.80	48524.57
741.99	48747.80
742.17	48991.51
742.36	48737.56
742.54	48694.55
742.73	48803.10
742.91	48911.64
743.10	48747.80
743.29	48688.41
743.47	48680.22
743.66	48127.27
743.84	48403.74
744.03	48057.63
744.21	48446.75
744.40	48522.52
744.59	48266.53
744.77	47891.75
744.96	48018.72
745.14	48153.89
745.33	48141.60
745.51	47988.00
745.70	48295.20
745.88	47535.40
746.07	48282.91
746.26	47406.38
746.44	47920.42
746.63	47992.10
746.81	48094.50
747.00	47617.32
747.18	48061.73
747.37	47791.40
747.55	47973.67
747.74	47766.82
747.92	47705.38
748.11	47390.00
748.29	47627.56
748.48	47453.48
748.66	47394.09
748.85	47496.49
749.03	47170.86
749.22	47490.35
749.41	47177.01
749.59	47150.38
749.78	47433.00
749.96	46626.10
750.15	46994.74
750.33	47170.86
750.52	46755.13
750.70	46894.39
750.89	47113.52
751.07	46775.61
751.26	47220.02
751.44	46632.25
751.63	46933.30
751.81	46677.30
752.00	46775.61
752.18	46716.22
752.37	46671.16
752.55	46454.08
752.74	46718.26
752.92	46417.21
753.10	46519.61
753.29	46462.27
753.47	45940.04
753.66	46202.18
753.84	46570.81
754.03	46007.62
754.21	45931.84
754.40	46161.22
754.58	46159.17
754.77	46488.89
754.95	46183.74
755.14	45972.80
755.32	46077.25
755.51	45538.63
755.69	45397.32
755.88	45507.91
756.06	45559.11
756.24	45503.82
756.43	45512.01
756.61	45688.13
756.80	45587.78
756.98	45458.76
757.17	45610.31
757.35	45708.61
757.54	45595.98
757.72	45315.40
757.90	45485.39
758.09	45172.05
758.27	45221.20
758.46	45106.51
758.64	45385.04
758.83	45651.27
759.01	45167.95
759.19	45157.71
759.38	45413.71
759.56	45567.30
759.75	45372.75
759.93	45428.04
760.12	44717.40
760.30	45045.07
760.48	44832.08
760.67	44866.90
760.85	44629.34
761.04	44766.55
761.22	44717.40
761.40	44782.93
761.59	44789.08
761.77	44227.93
761.96	44615.00
762.14	44520.79
762.32	44174.69
762.51	44012.90
762.69	44293.47
762.88	44377.43
763.06	44148.06
763.24	44490.07
763.43	44109.15
763.61	43908.45
763.80	44174.69
763.98	44008.80
764.16	43642.21
764.35	43605.35
764.53	43404.65
764.72	43607.40
764.90	43910.50
765.08	43666.79
765.27	43566.44
765.45	42999.15
765.63	43091.31
765.82	43605.35
766.00	43601.25
766.18	43279.72
766.37	43054.45
766.55	43179.37
766.74	42931.57
766.92	42837.36
767.10	42925.42
767.29	42851.70
767.47	42235.26
767.65	42986.86
767.84	42876.27
768.02	42874.23
768.20	42511.74
768.39	42732.92
768.57	42792.31
768.75	42689.91
768.94	42939.76
769.12	42853.75
769.30	42395.00
769.49	42667.38
769.67	42335.61
769.85	41979.26
770.04	41956.74
770.22	41700.74
770.40	41977.22
770.59	41936.26
770.77	42005.89
770.95	42114.43
771.14	42046.85
771.32	41600.39
771.50	41426.31
771.69	41645.44
771.87	41952.64
772.05	41817.47
772.24	41313.67
772.42	41694.60
772.60	41469.32
772.78	41352.58
772.97	41223.56
773.15	41481.61
773.33	41051.53
773.52	41176.46
773.70	41074.06
773.88	41108.88
774.07	41393.54
774.25	40869.26
774.43	41262.47
774.61	41272.71
774.80	41743.75
774.98	40957.33
775.16	41311.63
775.34	41377.16
775.53	41401.74
775.71	41414.02
775.89	41346.44
776.08	41287.05
776.26	41641.35
776.44	41270.67
776.62	41131.40
776.81	41223.56
776.99	41459.08
777.17	41330.06
777.35	41299.34
777.54	41592.20
777.72	40848.78
777.90	41338.25
778.08	41512.33
778.27	40942.99
778.45	41260.43
778.63	41663.88
778.81	41219.47
779.00	41840.00
779.18	41414.02
779.36	41868.67
779.54	41446.79
779.73	41559.43
779.91	41510.28
780.09	41258.38
780.27	41481.61
780.46	41725.32
780.64	41844.10
780.82	41586.05
781.00	41485.70
781.19	41704.84
781.37	41940.35
781.55	41866.63
781.73	42204.54
781.91	41809.28
782.10	41831.81
782.28	41940.35
782.46	41762.18
782.64	41729.41
782.82	41452.94
783.01	42153.34
783.19	41887.10
783.37	41756.03
783.55	41778.56
783.74	41870.72
783.92	41794.95
784.10	42161.53
784.28	41856.39
784.46	41844.10
784.64	41747.84
784.83	41835.91
785.01	41530.76
785.19	41379.21
785.37	42292.60
785.55	41258.38
785.74	41348.49
785.92	41368.97
786.10	41885.06
786.28	41579.91
786.46	41391.50
786.64	41502.09
786.83	41659.78
787.01	41702.79
787.19	41196.94
787.37	41407.88
787.55	41524.61
787.74	40793.49
787.92	41348.49
788.10	41178.51
788.28	40713.62
788.46	41246.09
788.64	40818.07
788.82	41106.83
789.01	40887.70
789.19	41102.73
789.37	40744.34
789.55	40549.78
789.73	40641.94
789.91	40207.77
790.09	40318.36
790.28	40152.48
790.46	40291.74
790.64	40301.98
790.82	40158.62
791.00	40015.26
791.18	39691.68
791.36	39990.69
791.55	40050.08
791.73	39566.76
791.91	39423.40
792.09	39355.82
792.27	39495.08
792.45	39761.31
792.63	39417.25
792.81	39179.69
793.00	39144.87
793.18	39036.33
793.36	39116.20
793.54	39243.18
793.72	38759.86
793.90	38567.35
794.08	38419.89
794.26	38802.86
794.44	38383.03
794.62	38325.69
794.81	38755.76
794.99	38442.42
795.17	38542.77
795.35	38397.37
795.53	38188.47
795.71	38317.50
795.89	37995.96
796.07	38077.88
796.25	37451.20
796.43	37703.10
796.61	37705.15
796.80	37486.02
796.98	37434.82
797.16	37289.42
797.34	37064.14
797.52	36818.38
797.70	37252.55
797.88	37051.85
798.06	36871.63
798.24	36965.84
798.42	37101.00
798.60	36943.31
798.78	36810.19
798.96	36658.64
799.14	36390.36
799.32	36648.40
799.51	36427.22
799.69	36625.87
799.87	36320.73
800.05	36066.78
800.23	35986.91
800.41	36062.68
800.59	35952.09
800.77	36140.50
800.95	35581.41
801.13	35622.37
801.31	35253.73
801.49	35565.03
801.67	35509.73
801.85	35436.00
802.03	34840.04
802.21	35063.27
802.39	35005.93
802.57	35020.27
802.75	34584.05
802.93	34829.80
803.11	34420.21
803.29	34885.10
803.47	34315.76
803.65	34332.15
803.83	34473.46
804.01	34696.69
804.19	34022.90
804.37	34014.71
804.55	34342.39
804.73	33986.04
804.91	34174.45
805.09	34137.59
805.27	33244.68
805.45	33996.28
805.63	33889.79
805.81	33666.56
805.99	33740.29
806.17	33918.46
806.35	33558.02
806.53	33293.83
806.71	33568.26
806.89	33496.58
807.07	33201.67
807.25	33326.60
807.43	32968.20
807.61	33201.67
807.79	32851.47
807.97	32574.99
808.15	32757.26
808.33	32648.72
808.51	32509.46
808.69	32491.02
808.87	32552.46
809.05	32210.45
809.23	32577.04
809.41	31895.07
809.59	32167.45
809.77	32200.21
809.95	31716.89
810.13	32073.24
810.31	32175.64
810.49	31927.83
810.67	31888.92
810.84	31860.25
811.02	31716.89
811.20	31497.76
811.38	31944.22
811.56	31137.32
811.74	31278.63
811.92	31131.17
812.10	30987.82
812.28	31594.01
812.46	31495.71
812.64	31262.24
812.82	31125.03
813.00	30850.60
813.18	31247.91
813.36	30815.79
813.53	30543.41
813.71	30877.22
813.89	30893.61
814.07	31065.64
814.25	30723.63
814.43	30762.54
814.61	30445.10
814.79	30314.03
814.97	30160.44
815.15	30449.20
815.33	30000.69
815.50	30117.43
815.68	30375.47
815.86	30246.45
816.04	29881.91
816.22	29933.11
816.40	30311.99
816.58	29826.62
816.76	29646.40
816.94	29763.13
817.11	29953.59
817.29	29562.43
817.47	29300.29
817.65	29281.86
817.83	29201.99
818.01	29433.41
818.19	29261.38
818.37	29406.78
818.54	29099.59
818.72	29034.05
818.90	29257.28
819.08	29224.51
819.26	29369.92
819.44	28810.82
819.62	28939.85
819.80	28835.40
819.97	28728.91
820.15	28831.30
820.33	28905.03
820.51	29015.62
820.69	28560.97
820.87	28745.29
821.05	28911.17
821.22	28509.77
821.40	28620.36
821.58	28380.75
821.76	28479.05
821.94	28417.61
822.12	28563.02
822.29	28517.96
822.47	28010.07
822.65	28460.62
822.83	28327.50
823.01	28266.06
823.19	28069.46
823.36	27768.41
823.54	28126.80
823.72	27762.26
823.90	27762.26
824.08	27590.24
824.25	27827.80
824.43	27629.15
824.61	27440.73
824.79	27735.64
824.97	27598.43
825.15	27539.04
825.32	27795.03
825.50	27340.38
825.68	27557.47
825.86	27629.15
826.04	27465.31
826.21	27082.34
826.39	27209.31
826.57	27098.72
826.75	26965.60
826.93	27051.62
827.10	26926.69
827.28	27203.17
827.46	27356.77
827.64	27215.46
827.81	27000.42
827.99	26904.17
828.17	26766.95
828.35	26553.96
828.53	26629.74
828.70	26740.33
828.88	26699.37
829.06	26744.42
829.24	26476.14
829.41	26556.01
829.59	26826.34
829.77	26539.63
829.95	26816.10
830.12	26357.36
830.30	26273.39
830.48	26531.44
830.66	26492.52
830.84	26244.72
831.01	26549.87
831.19	26123.89
831.37	26175.09
831.55	25908.85
831.72	25984.63
831.90	26113.65
832.08	25990.77
832.25	26160.75
832.43	25843.32
832.61	25734.78
832.79	25857.65
832.96	25986.68
833.14	26062.45
833.32	25978.48
833.50	25878.13
833.67	25939.57
833.85	25364.09
834.03	25456.25
834.20	25900.66
834.38	25732.73
834.56	25525.88
834.74	25583.23
834.91	25304.70
835.09	25347.71
835.27	25124.48
835.44	25278.08
835.62	25009.79
835.80	24979.07
835.98	25024.13
836.15	25007.75
836.33	25214.59
836.51	25044.61
836.68	25196.16
836.86	25075.33
837.04	25048.71
837.21	24985.22
837.39	24823.43
837.57	25239.17
837.75	24782.47
837.92	24835.72
838.10	24737.41
838.28	24716.93
838.45	24563.34
838.63	24491.66
838.81	24499.85
838.98	24426.12
839.16	24575.62
839.34	24641.16
839.51	24575.62
839.69	24270.48
839.87	24127.12
840.04	24452.75
840.22	24530.57
840.40	24180.37
840.57	24145.55
840.75	24346.25
840.93	24051.34
841.10	24176.27
841.28	24614.54
841.46	23950.99
841.63	24319.63
841.81	24151.70
841.98	24143.50
842.16	24362.64
842.34	24118.93
842.51	24270.48
842.69	23973.52
842.87	23975.57
843.04	23928.47
843.22	23781.01
843.40	23791.25
843.57	23971.47
843.75	23805.59
843.92	23656.09
844.10	23568.02
844.28	23809.68
844.45	23651.99
844.63	23885.46
844.81	23881.36
844.98	23783.06
845.16	23744.15
845.33	23658.14
845.51	23400.09
845.69	23289.50
845.86	23506.59
846.04	23645.85
846.21	23449.24
846.39	23400.09
846.57	23156.38
846.74	23486.11
846.92	23140.00
847.09	23445.15
847.27	23021.22
847.45	23369.37
847.62	23324.32
847.80	23215.77
847.97	23172.77
848.15	22896.29
848.32	22881.95
848.50	22974.11
848.68	22787.75
848.85	23029.41
849.03	22863.52
849.20	22773.41
849.38	22810.28
849.56	23203.49
849.73	22638.25
849.91	22841.00
850.08	22857.38
850.26	22589.10
850.43	22783.65
850.61	22705.83
850.78	22257.32
850.96	22908.58
851.14	22480.55
851.31	22558.38
851.49	22431.40
851.66	22458.03
851.84	22443.69
852.01	22574.76
852.19	22388.39
852.36	22646.44
852.54	22384.30
852.71	22300.33
852.89	22408.87
853.07	22390.44
853.24	22302.38
853.42	22126.25
853.59	22380.20
853.77	22109.87
853.94	22163.12
854.12	22232.75
854.29	21851.83
854.47	21995.18
854.64	21974.70
854.82	22113.97
854.99	22073.01
855.17	21837.49
855.34	21892.79
855.52	22193.84
855.69	22140.59
855.87	21909.17
856.04	21866.16
856.22	21792.44
856.39	21630.65
856.57	21558.97
856.74	21395.13
856.92	21743.28
857.09	21612.21
857.27	21685.94
857.44	21847.73
857.62	21675.70
857.79	21728.95
857.97	21552.82
858.14	21483.19
858.32	21352.12
858.49	21286.59
858.67	21202.62
858.84	21495.48
859.02	21530.30
859.19	21425.85
859.37	21472.95
859.54	21245.63
859.72	21317.31
859.89	21237.44
860.06	21354.17
860.24	21253.82
860.41	21384.89
860.59	21010.11
860.76	21262.01
860.94	20858.56
861.11	21044.93
861.29	20592.33
861.46	20735.68
861.64	20754.12
861.81	21001.92
861.98	20850.37
862.16	20836.03
862.33	20561.61
862.51	20684.48
862.68	20963.01
862.86	20823.75
863.03	20616.90
863.21	20762.31
863.38	20588.23
863.55	20461.26
863.73	20463.30
863.90	20594.37
864.08	20762.31
864.25	20586.18
864.43	20575.94
864.60	20336.33
864.77	20143.82
864.95	20293.32
865.12	20225.74
865.30	20428.49
865.47	20348.62
865.64	20221.64
865.82	20174.54
865.99	20467.40
866.17	19949.26
866.34	20252.36
866.51	19965.65
866.69	20231.88
866.86	20223.69
867.04	20209.36
867.21	19816.15
867.38	19977.94
867.56	19947.22
867.73	19893.97
867.91	19715.80
868.08	19779.28
868.25	19920.59
868.43	19754.71
868.60	19443.42
868.78	19760.85
868.95	19871.44
869.12	19654.36
869.30	19543.77
869.47	19590.87
869.64	19515.09
869.82	19513.05
869.99	19394.26
870.16	19656.40
870.34	19361.50
870.51	19584.73
870.69	19480.28
870.86	19408.60
871.03	19240.67
871.21	19220.19
871.38	19517.14
871.55	19332.82
871.73	19398.36
871.90	19125.98
872.07	19099.36
872.25	19058.40
872.42	18783.97
872.59	19101.40
872.77	18976.48
872.94	19019.49
873.11	18740.96
873.29	18966.24
873.46	18833.12
873.63	18863.84
873.81	18824.93
873.98	18527.97
874.15	18489.06
874.33	18366.18
874.50	18581.22
874.67	18413.29
874.85	18622.18
875.02	18357.99
875.19	18325.22
875.37	18437.86
875.54	18372.33
875.71	18327.27
875.88	18360.04
876.06	18237.16
876.23	18274.03
876.40	18099.95
876.58	18069.23
876.75	18241.26
876.92	18327.27
877.10	18097.90
877.27	18200.30
877.44	17938.16
877.61	17897.20
877.79	18022.12
877.96	17981.17
878.13	17940.21
878.31	17755.89
878.48	17723.12
878.65	17616.63
878.82	17684.21
879.00	17712.88
879.17	17657.59
879.34	17536.76
879.51	17587.96
879.69	17291.00
879.86	17512.18
880.03	17364.73
880.21	17473.27
880.38	17592.05
880.55	17551.09
880.72	17428.21
880.90	17325.82
881.07	17276.66
881.24	17168.12
881.41	17282.81
881.59	17243.90
881.76	17186.55
881.93	17237.75
882.10	16908.03
882.28	16951.04
882.45	17252.09
882.62	17198.84
882.79	17108.73
882.96	16781.06
883.14	17147.64
883.31	17166.07
883.48	16908.03
883.65	17106.68
883.83	16924.41
884.00	16987.90
884.17	17141.50
884.34	16877.31
884.51	16928.51
884.69	16924.41
884.86	17094.40
885.03	16901.89
885.20	16789.25
885.38	16885.50
885.55	16766.72
885.72	16785.15
885.89	16580.36
886.06	16723.71
886.24	16701.19
886.41	16467.72
886.58	16664.32
886.75	16822.02
886.92	16363.27
887.10	16682.75
887.27	16625.41
887.44	16545.54
887.61	16703.23
887.78	16695.04
887.95	16592.64
888.13	16576.26
888.30	16205.58
888.47	16033.55
888.64	16260.87
888.81	16279.30
888.99	16334.60
889.16	16121.61
889.33	16101.13
889.50	16148.23
889.67	16101.13
889.84	16166.67
890.01	16088.84
890.19	16103.18
890.36	16060.17
890.53	16252.68
890.70	15838.99
890.87	16131.85
891.04	16037.64
891.22	15970.06
891.39	16019.21
891.56	15875.85
891.73	15802.13
891.90	15898.38
892.07	15660.82
892.24	15777.55
892.42	15443.73
892.59	15814.41
892.76	15607.57
892.93	15601.43
893.10	15675.15
893.27	15699.73
893.44	15728.40
893.61	15671.06
893.79	15691.54
893.96	15763.22
894.13	15630.10
894.30	15683.34
894.47	15582.99
894.64	15861.52
894.81	15527.70
894.98	15589.14
895.15	15681.30
895.33	15585.04
895.50	15343.38
895.67	15687.44
895.84	15599.38
896.01	15380.25
896.18	15597.33
896.35	15648.53
896.52	15599.38
896.69	15570.71
896.86	15617.81
897.04	15513.36
897.21	15374.10
897.38	15394.58
897.55	15490.84
897.72	15292.18
897.89	15464.21
898.06	15523.60
898.23	15255.32
898.40	15435.54
898.57	15447.83
898.74	15388.44
898.91	15511.32
899.08	15445.78
899.26	15382.29
899.43	15486.74
899.60	15290.13
899.77	15431.44
899.94	15384.34
900.11	15148.82
900.28	15243.03
900.45	15302.42
900.62	15122.20
900.79	15619.86
900.96	15486.74
901.13	15269.66
901.30	15310.61
901.47	15281.94
901.64	15314.71
901.81	15456.02
901.98	15345.43
902.15	15410.96
902.32	15259.42
902.49	15515.41
902.66	15347.48
902.83	15288.09
903.01	15372.05
903.18	15372.05
903.35	15279.89
903.52	15351.57
903.69	15628.05
903.86	15535.89
904.03	15423.25
904.20	15370.01
904.37	15361.81
904.54	15324.95
904.71	15335.19
904.88	15443.73
905.05	15357.72
905.22	15533.84
905.39	15091.48
905.56	15073.05
905.73	15355.67
905.90	15163.16
906.07	15308.57
906.24	15308.57
906.41	15245.08
906.58	15370.01
906.75	15132.44
906.92	15230.74
907.09	15077.15
907.26	15179.54
907.43	15138.58
907.60	14909.21
907.77	15433.49
907.93	15441.68
908.10	15271.70
908.27	15294.23
908.44	15253.27
908.61	15046.43
908.78	15286.04
908.95	15087.39
909.12	15064.86
909.29	15343.38
909.46	15144.73
909.63	15204.12
909.80	15114.01
909.97	15255.32
910.14	15122.20
910.31	15281.94
910.48	15128.35
910.65	15140.63
910.82	14966.56
910.99	14855.97
911.16	14884.64
911.33	14913.31
911.50	14941.98
911.66	14923.55
911.83	15095.58
912.00	15054.62
912.17	14767.90
912.34	14890.78
912.51	14620.45
912.68	14487.33
912.85	14862.11
913.02	14835.49
913.19	14632.74
913.36	14788.38
913.53	14798.62
913.70	14704.42
913.86	14862.11
914.03	14763.81
914.20	14739.23
914.37	14661.41
914.54	14448.42
914.71	14665.50
914.88	14393.12
915.05	14630.69
915.22	14288.68
915.39	14300.97
915.55	14389.03
915.72	14272.29
915.89	14165.80
916.06	14198.57
916.23	14350.12
916.40	14114.60
916.57	14116.65
916.74	14167.85
916.91	14081.83
917.07	14124.84
917.24	14085.93
917.41	13952.81
917.58	13942.57
917.75	14118.70
917.92	13793.07
918.09	13864.75
918.26	13659.95
918.42	13956.91
918.59	13684.53
918.76	13600.56
918.93	13625.14
919.10	13389.62
919.27	13590.32
919.44	13508.40
919.60	13616.94
919.77	13477.68
919.94	13360.95
920.11	13424.44
920.28	13655.86
920.45	13346.61
920.61	13188.92
920.78	13475.63
920.95	13233.97
921.12	13240.12
921.29	13063.99
921.46	13203.25
921.62	12920.63
921.79	13315.89
921.96	12918.59
922.13	13006.65
922.30	12699.45
922.47	13061.94
922.63	12615.49
922.80	12674.88
922.97	12810.04
923.14	12646.21
923.31	12629.82
923.47	12635.97
923.64	12898.11
923.81	12437.31
923.98	12394.31
924.15	12420.93
924.32	12363.59
924.48	12470.08
924.65	12437.31
924.82	12373.83
924.99	12054.34
925.15	12109.64
925.32	12418.88
925.49	12021.58
925.66	11945.80
925.83	11900.75
925.99	11837.26
926.16	12156.74
926.33	11982.67
926.50	11753.29
926.67	11716.43
926.83	11796.30
927.00	11755.34
927.17	11593.55
927.34	11577.17
927.50	11554.64
927.67	11700.05
927.84	11403.09
928.01	11556.69
928.17	11454.29
928.34	11282.26
928.51	11276.12
928.68	11321.17
928.84	11206.48
929.01	11192.15
929.18	11007.83
929.35	11042.65
929.51	10952.54
929.68	10862.43
929.85	10833.75
930.02	10731.36
930.18	10743.64
930.35	10645.34
930.52	10598.24
930.69	10710.88
930.85	10698.59
931.02	10659.68
931.19	10577.76
931.36	10354.53
931.52	10407.78
931.69	10506.08
931.86	10501.98
932.02	10409.83
932.19	10303.33
932.36	10110.82
932.53	10155.88
932.69	10172.26
932.86	10334.05
933.03	10061.67
933.19	9949.03
933.36	10041.19
933.53	10035.05
933.70	9854.83
933.86	9686.89
934.03	9817.96
934.20	9602.93
934.36	9674.60
934.53	9385.84
934.70	9301.87
934.86	9447.28
935.03	9281.39
935.20	9379.70
935.36	9373.55
935.53	9138.04
935.70	9002.87
935.86	9142.13
936.03	8943.48
936.20	8759.16
936.36	8597.37
936.53	8814.46
936.70	8888.18
936.86	8806.27
937.03	8626.04
937.20	8474.49
937.36	8478.59
937.53	8185.73
937.70	8187.78
937.86	7970.69
938.03	8011.65
938.20	8079.24
938.36	7905.16
938.53	7890.82
938.70	7679.88
938.86	7624.59
939.03	7552.91
939.20	7425.93
939.36	7354.26
939.53	7399.31
939.70	7540.62
939.86	7214.99
940.03	7059.35
940.19	6999.96
940.36	7057.30
940.53	6938.52
940.69	6692.76
940.86	6639.51
941.03	6752.15
941.19	6563.74
941.36	6696.86
941.52	6467.49
941.69	6311.84
941.86	6377.37
942.02	6444.96
942.19	6381.47
942.35	6397.85
942.52	6193.06
942.69	6148.00
942.85	6111.14
943.02	5943.21
943.18	6082.47
943.35	6078.37
943.52	5951.40
943.68	5910.44
943.85	5820.33
944.01	5756.84
944.18	5681.07
944.35	5693.35
944.51	5674.92
944.68	5650.35
944.84	5593.00
945.01	5588.91
945.17	5599.15
945.34	5558.19
945.51	5695.40
945.67	5603.24
945.84	5574.57
946.00	5541.80
946.17	5513.13
946.33	5521.32
946.50	5521.32
946.67	5365.68
946.83	5566.38
947.00	5605.29
947.16	5349.29
947.33	5517.23
947.49	5408.69
947.66	5527.47
947.82	5474.22
947.99	5496.75
948.16	5595.05
948.32	5486.51
948.49	5431.21
948.65	5541.80
948.82	5445.55
948.98	5259.18
949.15	5334.96
949.31	5408.69
949.48	5392.30
949.64	5353.39
949.81	5488.56
949.97	5494.70
950.14	5459.88
950.30	5363.63
950.47	5545.90
950.63	5484.46
950.80	5513.13
950.96	5533.61
951.13	5369.77
951.30	5453.74
951.46	5420.97
951.63	5642.15
951.79	5554.09
951.96	5492.65
952.12	5605.29
952.29	5523.37
952.45	5447.60
952.62	5619.63
952.78	5578.67
952.94	5455.79
953.11	5588.91
953.27	5345.20
953.44	5658.54
953.60	5554.09
953.77	5646.25
953.93	5494.70
954.10	5529.52
954.26	5566.38
954.43	5623.72
954.59	5705.64
954.76	5689.26
954.92	5494.70
955.09	5699.50
955.25	5574.57
955.42	5529.52
955.58	5773.22
955.75	5582.76
955.91	5545.90
956.07	5705.64
956.24	5603.24
956.40	5595.05
956.57	5652.39
956.73	5566.38
956.90	5681.07
957.06	5506.99
957.23	5476.27
957.39	5539.76
957.56	5547.95
957.72	5533.61
957.88	5392.30
958.05	5588.91
958.21	5621.67
958.38	5531.56
958.54	5529.52
958.71	5697.45
958.87	5574.57
959.03	5525.42
959.20	5578.67
959.36	5480.36
959.53	5582.76
959.69	5515.18
959.85	5670.83
960.02	5572.52
960.18	5668.78
960.35	5652.39
960.51	5590.95
960.68	5599.15
960.84	5574.57
961.00	5689.26
961.17	5586.86
961.33	5564.33
961.50	5693.35
961.66	5650.35
961.82	5550.00
961.99	5603.24
962.15	5482.41
962.31	5496.75
962.48	5629.87
962.64	5683.11
962.81	5468.08
962.97	5623.72
963.13	5619.63
963.30	5562.28
963.46	5515.18
963.62	5607.34
963.79	5482.41
963.95	5535.66
964.12	5488.56
964.28	5455.79
964.44	5429.17
964.61	5570.48
964.77	5494.70
964.93	5722.02
965.10	5445.55
965.26	5414.83
965.42	5455.79
965.59	5289.90
965.75	5373.87
965.92	5410.73
966.08	5484.46
966.24	5367.73
966.41	5490.60
966.57	5447.60
966.73	5334.96
966.90	5408.69
967.06	5470.12
967.22	5455.79
967.39	5351.34
967.55	5531.56
967.71	5394.35
967.88	5480.36
968.04	5281.71
968.20	5255.09
968.37	5365.68
968.53	5382.06
968.69	5302.19
968.85	5351.34
969.02	5345.20
969.18	5250.99
969.34	5314.48
969.51	5392.30
969.67	5328.81
969.83	5375.92
970.00	5326.77
970.16	5189.55
970.32	5230.51
970.48	5244.85
970.65	5136.31
970.81	5038.00
970.97	5216.18
971.14	5027.76
971.30	5089.20
971.46	5130.16
971.63	5099.44
971.79	5312.43
971.95	5177.26
972.11	5113.78
972.28	5109.68
972.44	5179.31
972.60	5017.52
972.76	4933.56
972.93	5029.81
973.09	5015.48
973.25	5050.29
973.42	4857.78
973.58	4986.80
973.74	4923.32
973.90	5050.29
974.07	4956.08
974.23	4900.79
974.39	4921.27
974.55	4900.79
974.72	4911.03
974.88	4853.69
975.04	4966.32
975.20	4892.60
975.37	4902.84
975.53	4820.92
975.69	4876.21
975.85	4722.62
976.01	4904.89
976.18	4822.97
976.34	5007.28
976.50	4923.32
976.66	4911.03
976.83	4829.11
976.99	4777.91
977.15	4771.77
977.31	4724.66
977.47	4810.68
977.64	4898.74
977.80	4868.02
977.96	4792.25
978.12	4804.53
978.29	4720.57
978.45	4812.73
978.61	4691.90
978.77	4763.58
978.93	4769.72
979.10	4566.97
979.26	4640.70
979.42	4804.53
979.58	4591.55
979.74	4695.99
979.91	4769.72
980.07	4509.63
980.23	4599.74
980.39	4464.57
980.55	4632.51
980.71	4605.88
980.88	4491.20
981.04	4396.99
981.20	4396.99
981.36	4534.20
981.52	4433.85
981.68	4423.61
981.85	4583.35
982.01	4474.81
982.17	4405.18
982.33	4425.66
982.49	4476.86
982.65	4376.51
982.82	4431.80
982.98	4405.18
983.14	4208.58
983.30	4399.04
983.46	4403.13
983.62	4308.93
983.79	4313.02
983.95	4216.77
984.11	4274.11
984.27	4304.83
984.43	4347.84
984.59	4245.44
984.75	4274.11
984.91	4194.24
985.08	4396.99
985.24	4204.48
985.40	4145.09
985.56	4448.19
985.72	4315.07
985.88	4341.69
986.04	4136.90
986.20	4220.86
986.37	4267.97
986.53	4212.67
986.69	4198.34
986.85	4048.83
987.01	4208.58
987.17	4159.42
987.33	4042.69
987.49	4005.83
987.65	4120.51
987.82	4140.99
987.98	4134.85
988.14	4089.79
988.30	4016.07
988.46	4181.95
988.62	4085.70
988.78	3942.34
988.94	4024.26
989.10	4018.11
989.26	3837.89
989.42	3950.53
989.59	3833.80
989.75	3866.56
989.91	4044.74
990.07	3837.89
990.23	3911.62
990.39	3846.09
990.55	4001.73
990.71	3839.94
990.87	3751.88
991.03	3801.03
991.19	3702.73
991.35	3866.56
991.51	3958.72
991.67	3911.62
991.83	3835.85
992.00	3858.37
992.16	3915.72
992.32	3743.69
992.48	3735.50
992.64	3667.91
992.80	3784.65
992.96	3743.69
993.12	3821.51
993.28	3770.31
993.44	3635.14
993.60	3827.65
993.76	3745.73
993.92	3706.82
994.08	3739.59
994.24	3829.70
994.40	3600.33
994.56	3753.93
994.72	3690.44
994.88	3624.90
995.04	3778.50
995.20	3545.03
995.36	3575.75
995.52	3655.62
995.68	3551.18
995.84	3608.52
996.00	3590.09
996.16	3522.51
996.32	3577.80
996.48	3475.40
996.64	3667.91
996.80	3506.12
996.96	3608.52
997.12	3538.89
997.28	3465.16
997.44	3497.93
997.60	3477.45
997.76	3405.77
997.92	3475.40
998.08	3432.40
998.24	3350.48
998.40	3411.92
998.56	3561.42
998.72	3452.88
998.88	3397.58
999.04	3463.12
999.20	3446.73
999.36	3344.33
999.52	3418.06
999.68	3293.13
999.84	3428.30
1000.00	3436.49
1000.16	3416.01
1000.32	3340.24
1000.48	3405.77
1000.64	3203.02
1000.80	3157.97
1000.95	3192.78
1001.11	3295.18
1001.27	3114.96
1001.43	3385.29
1001.59	3178.45
1001.75	3264.46
1001.91	3166.16
1002.07	3225.55
1002.23	3207.12
1002.39	3192.78
1002.55	3151.82
1002.71	3172.30
1002.87	3325.90
1003.03	3147.73
1003.19	3188.69
1003.34	3264.46
1003.50	3188.69
1003.66	3157.97
1003.82	3239.89
1003.98	3067.86
1004.14	3108.82
1004.30	3119.06
1004.46	3088.34
1004.62	3063.76
1004.78	3049.43
1004.94	3026.90
1005.09	3084.24
1005.25	3092.43
1005.41	3008.47
1005.57	3043.28
1005.73	2983.89
1005.89	3006.42
1006.05	3139.54
1006.21	3108.82
1006.37	3041.23
1006.52	2942.93
1006.68	2965.46
1006.84	3065.81
1007.00	2910.16
1007.16	3002.32
1007.32	2947.03
1007.48	2920.40
1007.64	2944.98
1007.79	2901.97
1007.95	2877.40
1008.11	3076.05
1008.27	2793.43
1008.43	2858.96
1008.59	2787.29
1008.75	2955.22
1008.91	2899.92
1009.06	2752.47
1009.22	2766.81
1009.38	2729.94
1009.54	2899.92
1009.70	2785.24
1009.86	2899.92
1010.01	2809.81
1010.17	2781.14
1010.33	2899.92
1010.49	2766.81
1010.65	2899.92
1010.81	2752.47
1010.96	2801.62
1011.12	2795.48
1011.28	2703.32
1011.44	2793.43
1011.60	2727.89
1011.76	2705.37
1011.91	2863.06
1012.07	2650.07
1012.23	2705.37
1012.39	2557.91
1012.55	2734.04
1012.71	2705.37
1012.86	2660.31
1013.02	2672.60
1013.18	2699.22
1013.34	2666.46
1013.50	2666.46
1013.65	2725.85
1013.81	2658.26
1013.97	2576.34
1014.13	2701.27
1014.29	2574.30
1014.44	2787.29
1014.60	2547.67
1014.76	2516.95
1014.92	2637.78
1015.07	2508.76
1015.23	2617.30
1015.39	2568.15
1015.55	2510.81
1015.71	2613.21
1015.86	2494.43
1016.02	2555.86
1016.18	2367.45
1016.34	2613.21
1016.49	2574.30
1016.65	2631.64
1016.81	2531.29
1016.97	2475.99
1017.12	2574.30
1017.28	2422.75
1017.44	2525.15
1017.60	2426.84
1017.75	2488.28
1017.91	2490.33
1018.07	2478.04
1018.23	2578.39
1018.38	2457.56
1018.54	2412.51
1018.70	2424.80
1018.86	2432.99
1019.01	2301.92
1019.17	2422.75
1019.33	2498.52
1019.49	2420.70
1019.64	2432.99
1019.80	2381.79
1019.96	2451.42
1020.12	2406.36
1020.27	2306.01
1020.43	2369.50
1020.59	2385.88
1020.74	2432.99
1020.90	2457.56
1021.06	2303.96
1021.22	2400.22
1021.37	2369.50
1021.53	2303.96
1021.69	2334.68
1021.84	2281.44
1022.00	2365.40
1022.16	2232.29
1022.31	2320.35
1022.47	2389.98
1022.63	2355.16
1022.79	2240.48
1022.94	2303.96
1023.10	2441.18
1023.26	2357.21
1023.41	2271.20
1023.57	2371.55
1023.73	2353.12
1023.88	2230.24
1024.04	2252.77
1024.20	2240.48
1024.35	2228.19
1024.51	2281.44
1024.67	2207.71
1024.82	2324.44
1024.98	2242.53
1025.14	2269.15
1025.29	2299.87
1025.45	2250.72
1025.61	2146.27
1025.76	2215.90
1025.92	2099.17
1026.08	2244.57
1026.23	2244.57
1026.39	2224.09
1026.55	2226.14
1026.70	2152.42
1026.86	2205.66
1027.02	2197.47
1027.17	2226.14
1027.33	2138.08
1027.48	2142.18
1027.64	2220.00
1027.80	2125.79
1027.95	2222.05
1028.11	2129.89
1028.27	2203.61
1028.42	2162.66
1028.58	2115.55
1028.73	2129.89
1028.89	2093.02
1029.05	2140.13
1029.20	2187.23
>>>>>End Processed Spectral Data<<<<<
