SpectraSuite Data File
++++++++++++++++++++++++++++++++++++
Date: Fri Jun 02 14:57:19 CEST 2017
User: INFO_000
Dark Spectrum Present: No
Reference Spectrum Present: No
Number of Sampled Component Spectra: 1
Spectrometers: USB4H00879
Integration Time (usec): 80000 (USB4H00879)
Spectra Averaged: 1 (USB4H00879)
Boxcar Smoothing: 0 (USB4H00879)
Correct for Electrical Dark: No (USB4H00879)
Strobe/Lamp Enabled: No (USB4H00879)
Correct for Detector Non-linearity: No (USB4H00879)
Correct for Stray Light: No (USB4H00879)
Number of Pixels in Processed Spectrum: 3648
>>>>>Begin Processed Spectral Data<<<<<
345.13	1282.03
345.34	1282.03
345.56	1282.03
345.78	1267.69
345.99	1241.07
346.21	1628.14
346.42	1765.35
346.64	1642.47
346.86	1703.91
347.07	1724.39
347.29	1753.06
347.50	1626.09
347.72	1601.51
347.94	1660.90
348.15	1605.61
348.37	1564.65
348.59	1708.01
348.80	1607.66
349.02	1703.91
349.23	1941.47
349.45	1863.65
349.67	1877.99
349.88	1834.98
350.10	1966.05
350.31	1828.84
350.53	1808.36
350.75	1902.56
350.96	1703.91
351.18	1824.74
351.39	1814.50
351.61	1812.45
351.82	1902.56
352.04	1902.56
352.26	1902.56
352.47	1896.42
352.69	1869.80
352.90	1730.53
353.12	1894.37
353.34	1826.79
353.55	1964.00
353.77	1955.81
353.98	1841.12
354.20	1830.88
354.41	1910.75
354.63	1984.48
354.85	2078.69
355.06	1900.52
355.28	1822.69
355.49	1896.42
355.71	1964.00
355.92	1916.90
356.14	1966.05
356.35	1841.12
356.57	1839.08
356.79	1914.85
357.00	1875.94
357.22	2009.06
357.43	1830.88
357.65	1925.09
357.86	1863.65
358.08	1902.56
358.29	1974.24
358.51	1982.43
358.72	1933.28
358.94	1949.67
359.16	1920.99
359.37	1943.52
359.59	1951.71
359.80	2039.78
360.02	1980.39
360.23	1888.23
360.45	2019.30
360.66	1968.10
360.88	1888.23
361.09	1939.43
361.31	1949.67
361.52	2000.87
361.74	2045.92
361.95	2019.30
362.17	1957.86
362.38	2056.16
362.60	2019.30
362.81	1996.77
363.03	2021.35
363.24	1992.67
363.46	2043.87
363.67	2045.92
363.89	2013.15
364.10	2011.11
364.32	2021.35
364.53	2039.78
364.75	1931.23
364.96	2015.20
365.18	2115.55
365.39	1974.24
365.61	1933.28
365.82	2099.17
366.04	2076.64
366.25	1970.15
366.47	2056.16
366.68	1986.53
366.90	2004.96
367.11	2068.45
367.33	2121.70
367.54	2142.18
367.76	2007.01
367.97	2158.56
368.19	2041.82
368.40	2009.06
368.62	2027.49
368.83	1978.34
369.05	2039.78
369.26	1978.34
369.48	2093.02
369.69	1986.53
369.91	1994.72
370.12	2050.02
370.33	2131.94
370.55	2037.73
370.76	2099.17
370.98	2189.28
371.19	2041.82
371.41	1988.58
371.62	2060.26
371.84	2035.68
372.05	2150.37
372.27	2082.78
372.48	2148.32
372.69	2113.50
372.91	2080.74
373.12	2097.12
373.34	2043.87
373.55	2201.57
373.77	2133.98
373.98	2066.40
374.20	2154.46
374.41	2256.86
374.62	2093.02
374.84	2166.75
375.05	2183.13
375.27	2142.18
375.48	2213.85
375.70	2174.94
375.91	2168.80
376.12	2271.20
376.34	2115.55
376.55	2205.66
376.77	2201.57
376.98	2082.78
377.19	2150.37
377.41	2117.60
377.62	2248.67
377.84	2375.64
378.05	2361.31
378.27	2213.85
378.48	2293.72
378.69	2375.64
378.91	2361.31
379.12	2336.73
379.34	2191.33
379.55	2332.64
379.76	2277.34
379.98	2222.05
380.19	2355.16
380.41	2183.13
380.62	2281.44
380.83	2267.10
381.05	2181.09
381.26	2365.40
381.47	2353.12
381.69	2172.89
381.90	2383.84
382.12	2322.40
382.33	2342.88
382.54	2301.92
382.76	2383.84
382.97	2316.25
383.19	2310.11
383.40	2478.04
383.61	2349.02
383.83	2181.09
384.04	2252.77
384.25	2320.35
384.47	2371.55
384.68	2420.70
384.89	2301.92
385.11	2334.68
385.32	2379.74
385.54	2394.08
385.75	2430.94
385.96	2459.61
386.18	2461.66
386.39	2377.69
386.60	2361.31
386.82	2502.62
387.03	2379.74
387.24	2484.19
387.46	2498.52
387.67	2473.95
387.88	2451.42
388.10	2467.80
388.31	2541.53
388.52	2568.15
388.74	2519.00
388.95	2502.62
389.16	2592.73
389.38	2455.51
389.59	2598.87
389.80	2600.92
390.02	2574.30
390.23	2596.82
390.44	2592.73
390.66	2531.29
390.87	2576.34
391.08	2625.50
391.30	2637.78
391.51	2672.60
391.72	2582.49
391.94	2643.93
392.15	2609.11
392.36	2609.11
392.58	2559.96
392.79	2645.98
393.00	2699.22
393.22	2719.70
393.43	2828.24
393.64	2799.57
393.85	2858.96
394.07	2664.41
394.28	2748.37
394.49	2809.81
394.71	2717.65
394.92	2867.16
395.13	2705.37
395.35	2752.47
395.56	2781.14
395.77	2818.00
395.98	2795.48
396.20	2842.58
396.41	2813.91
396.62	2826.20
396.84	2772.95
397.05	2809.81
397.26	2910.16
397.47	2858.96
397.69	2760.66
397.90	3035.09
398.11	2924.50
398.32	2965.46
398.54	2959.31
398.75	2852.82
398.96	2920.40
399.18	3133.39
399.39	3018.71
399.60	3006.42
399.81	2893.78
400.03	2979.79
400.24	3239.89
400.45	3012.56
400.66	3112.91
400.88	3098.58
401.09	3129.30
401.30	3049.43
401.51	3119.06
401.73	3114.96
401.94	3094.48
402.15	3125.20
402.36	3121.10
402.58	3178.45
402.79	3135.44
403.00	3207.12
403.21	3147.73
403.43	3297.23
403.64	3229.65
403.85	3125.20
404.06	3217.36
404.27	3108.82
404.49	3147.73
404.70	3033.04
404.91	3356.62
405.12	3330.00
405.34	3268.56
405.55	3469.26
405.76	3143.63
405.97	3264.46
406.19	3413.96
406.40	3309.52
406.61	3198.93
406.82	3381.20
407.03	3399.63
407.25	3121.10
407.46	3391.44
407.67	3389.39
407.88	3475.40
408.09	3327.95
408.31	3411.92
408.52	3459.02
408.73	3409.87
408.94	3330.00
409.15	3450.83
409.37	3448.78
409.58	3489.74
409.79	3557.32
410.00	3452.88
410.21	3387.34
410.43	3469.26
410.64	3573.71
410.85	3518.41
411.06	3512.27
411.27	3579.85
411.48	3604.42
411.70	3581.90
411.91	3520.46
412.12	3608.52
412.33	3588.04
412.54	3524.55
412.76	3633.10
412.97	3649.48
413.18	3387.34
413.39	3491.79
413.60	3758.02
413.81	3637.19
414.03	3659.72
414.24	3647.43
414.45	3887.04
414.66	3612.62
414.87	3659.72
415.08	3751.88
415.30	3643.34
415.51	3837.89
415.72	3633.10
415.93	3798.98
416.14	3729.35
416.35	3899.33
416.56	3737.54
416.78	3803.08
416.99	4007.87
417.20	3868.61
417.41	4022.21
417.62	3921.86
417.83	3878.85
418.04	3915.72
418.26	3919.81
418.47	4020.16
418.68	4040.64
418.89	3960.77
419.10	4102.08
419.31	4005.83
419.52	4073.41
419.73	4040.64
419.95	4124.61
420.16	4022.21
420.37	4104.13
420.58	4091.84
420.79	3874.76
421.00	3983.30
421.21	4245.44
421.42	4009.92
421.63	4165.57
421.85	4093.89
422.06	4253.63
422.27	4364.22
422.48	4165.57
422.69	4288.45
422.90	4270.01
423.11	4259.78
423.32	4284.35
423.53	4534.20
423.75	4396.99
423.96	4532.15
424.17	4501.44
424.38	4517.82
424.59	4335.55
424.80	4642.75
425.01	4577.21
425.22	4392.89
425.43	4474.81
425.64	4655.03
425.85	4857.78
426.06	4683.70
426.28	4683.70
426.49	4493.24
426.70	4566.97
426.91	4540.35
427.12	4835.25
427.33	4657.08
427.54	4591.55
427.75	4802.49
427.96	4911.03
428.17	4765.62
428.38	4773.82
428.59	4896.69
428.80	4788.15
429.01	4931.51
429.23	4845.49
429.44	5121.97
429.65	5072.82
429.86	4980.66
430.07	4855.73
430.28	4917.17
430.49	5050.29
430.70	5046.20
430.91	5242.80
431.12	4992.95
431.33	5103.54
431.54	5310.38
431.75	5021.62
431.96	5078.96
432.17	5175.22
432.38	5162.93
432.59	5341.10
432.80	5490.60
433.01	5265.33
433.22	5201.84
433.43	5353.39
433.64	5314.48
433.85	5308.34
434.06	5482.41
434.27	5289.90
434.49	5451.69
434.70	5564.33
434.91	5644.20
435.12	5537.71
435.33	5658.54
435.54	5574.57
435.75	5394.35
435.96	5521.32
436.17	5547.95
436.38	5584.81
436.59	5627.82
436.80	5599.15
437.01	5865.38
437.22	5808.04
437.43	5666.73
437.64	5601.19
437.85	5769.13
438.06	5812.14
438.27	5726.12
438.48	5650.35
438.69	5808.04
438.90	5812.14
439.11	5756.84
439.32	5918.63
439.53	5793.70
439.74	5867.43
439.95	5865.38
440.16	5777.32
440.37	5844.90
440.57	5767.08
440.78	5830.57
440.99	5918.63
441.20	5988.26
441.41	5924.77
441.62	6131.62
441.83	5801.90
442.04	6074.28
442.25	6145.95
442.46	6090.66
442.67	6025.12
442.88	6541.21
443.09	6012.84
443.30	6068.13
443.51	6270.88
443.72	6295.46
443.93	6180.77
444.14	6406.05
444.35	6154.15
444.56	6365.09
444.77	6244.26
444.98	6545.31
445.19	6217.63
445.40	6457.25
445.61	6420.38
445.81	6588.32
446.02	6580.12
446.23	6381.47
446.44	6186.91
446.65	6440.86
446.86	6571.93
447.07	6569.88
447.28	6754.20
447.49	6680.47
447.70	6657.95
447.91	6678.43
448.12	6551.45
448.33	6727.58
448.54	6698.91
448.74	6768.54
448.95	6768.54
449.16	6619.04
449.37	7045.01
449.58	6819.74
449.79	6911.89
450.00	6721.43
450.21	7030.68
450.42	7106.45
450.63	6774.68
450.84	6889.37
451.05	6946.71
451.25	6903.70
451.46	6881.18
451.67	7204.75
451.88	7167.89
452.09	7157.65
452.30	7057.30
452.51	7008.15
452.72	7272.34
452.93	7559.05
453.13	7212.95
453.34	7077.78
453.55	7071.64
453.76	7258.00
453.97	7602.06
454.18	7454.61
454.39	7339.92
454.60	7315.34
454.81	7350.16
455.01	7557.00
455.22	7225.23
455.43	7620.49
455.64	7858.06
455.85	7724.94
456.06	7704.46
456.27	7669.64
456.48	7634.83
456.68	7763.85
456.89	7679.88
457.10	7874.44
457.31	7892.87
457.52	7833.48
457.73	7892.87
457.94	8124.29
458.14	7835.53
458.35	8484.73
458.56	8079.24
458.77	7874.44
458.98	8175.49
459.19	8202.11
459.39	8181.64
459.60	8419.20
459.81	8335.23
460.02	8497.02
460.23	8337.28
460.44	8697.72
460.65	8546.17
460.85	8718.20
461.06	8597.37
461.27	8562.56
461.48	8646.52
461.69	8847.22
461.89	8439.68
462.10	8879.99
462.31	8583.04
462.52	8763.26
462.73	8839.03
462.94	9115.51
463.14	9039.73
463.35	8865.66
463.56	9322.35
463.77	9381.74
463.98	9179.00
464.18	9113.46
464.39	9224.05
464.60	9494.38
464.81	9506.67
465.02	9279.35
465.23	9629.55
465.43	9437.04
465.64	9779.05
465.85	9508.72
466.06	9748.33
466.27	9693.04
466.47	9891.69
466.68	10051.43
466.89	9897.83
467.10	10078.05
467.30	9629.55
467.51	10100.58
467.72	10377.06
467.93	9944.94
468.14	10348.39
468.34	10379.11
468.55	10483.55
468.76	10393.44
468.97	10219.36
469.17	10512.22
469.38	10788.70
469.59	10870.62
469.80	10528.61
470.01	10610.53
470.21	10905.43
470.42	10999.64
470.63	11079.51
470.84	11126.61
471.04	11165.53
471.25	11411.28
471.46	11044.70
471.67	11456.34
471.87	11333.46
472.08	11732.81
472.29	11751.24
472.50	11427.67
472.70	11489.10
472.91	11482.96
473.12	11882.31
473.33	11970.38
473.53	12238.66
473.74	11951.95
473.95	12390.21
474.16	12533.57
474.36	12228.42
474.57	12408.64
474.78	12717.89
474.99	12549.95
475.19	12638.02
475.40	12738.37
475.61	12816.19
475.81	12922.68
476.02	13252.41
476.23	12926.78
476.44	13297.46
476.64	13291.32
476.85	13494.07
477.06	13469.49
477.27	13770.54
477.47	13649.71
477.68	13918.00
477.89	13944.62
478.09	13840.17
478.30	14073.64
478.51	14108.46
478.71	14335.78
478.92	14343.97
479.13	14530.34
479.34	14454.56
479.54	14513.95
479.75	14364.45
479.96	14509.86
480.16	14788.38
480.37	14833.44
480.58	14894.88
480.78	15263.51
480.99	15154.97
481.20	15482.64
481.41	15623.95
481.61	15664.91
481.82	15697.68
482.03	15615.76
482.23	15666.96
482.44	15959.82
482.65	16060.17
482.85	16293.64
483.06	16054.03
483.27	16123.66
483.47	16125.71
483.68	16402.18
483.89	16762.62
484.09	16344.84
484.30	16742.14
484.51	16975.61
484.71	17086.20
484.92	16985.85
485.13	17239.80
485.33	17196.79
485.54	17284.86
485.75	17434.36
485.95	17547.00
486.16	17682.16
486.37	17848.05
486.57	17745.65
486.78	17622.77
486.98	17895.15
487.19	18052.84
487.40	18257.64
487.60	18278.12
487.81	18593.51
488.02	18204.39
488.22	18425.57
488.43	18650.85
488.64	18409.19
488.84	18714.34
489.05	19150.56
489.25	18953.95
489.46	19218.14
489.67	19009.25
489.87	19422.94
490.08	19457.75
490.29	19615.44
490.49	19709.65
490.70	19816.15
490.90	20018.89
491.11	19982.03
491.32	19910.35
491.52	20088.53
491.73	20147.92
491.94	20573.89
492.14	20111.05
492.35	20434.63
492.55	20565.70
492.76	20563.65
492.97	20817.60
493.17	20723.40
493.38	21012.16
493.58	21055.17
493.79	21075.65
494.00	21075.65
494.20	21192.38
494.41	21247.68
494.61	21436.09
494.82	21350.07
495.02	21192.38
495.23	21814.96
495.44	21528.25
495.64	21847.73
495.85	22015.66
496.05	22240.94
496.26	21874.35
496.47	22351.53
496.67	22116.01
496.88	22404.78
497.08	22492.84
497.29	22761.12
497.49	22490.79
497.70	22683.30
497.91	22785.70
498.11	22775.46
498.32	23000.74
498.52	23099.04
498.73	23142.05
498.93	23146.14
499.14	23389.85
499.34	23111.33
499.55	23463.58
499.76	23594.65
499.96	23383.71
500.17	23314.08
500.37	23824.02
500.58	23731.86
500.78	23830.16
500.99	24198.80
501.19	24077.97
501.40	23940.75
501.60	23973.52
501.81	23916.18
502.02	24098.45
502.22	23987.86
502.43	24280.72
502.63	24452.75
502.84	24473.23
503.04	24317.58
503.25	24684.17
503.45	24549.00
503.66	24456.84
503.86	24604.30
504.07	24974.98
504.27	24757.89
504.48	25286.27
504.68	25069.19
504.89	25345.66
505.09	25253.50
505.30	25599.61
505.50	25296.51
505.71	25171.58
505.91	25491.07
506.12	25312.89
506.32	25321.09
506.53	25486.97
506.73	25761.40
506.94	25761.40
507.14	25720.44
507.35	25507.45
507.55	25505.40
507.76	26019.44
507.96	25943.67
508.17	26283.63
508.37	26189.42
508.58	26046.07
508.78	26150.51
508.99	26504.81
509.19	26183.28
509.40	26199.66
509.60	26209.90
509.81	26322.54
510.01	26318.45
510.22	26281.58
510.42	26484.33
510.63	26676.84
510.83	26474.09
511.04	26922.60
511.24	26867.30
511.44	26781.29
511.65	26738.28
511.85	26642.03
512.06	27162.21
512.26	26967.65
512.47	27055.72
512.67	27018.85
512.88	27207.26
513.08	26922.60
513.29	27438.69
513.49	27020.90
513.69	27108.96
513.90	27029.09
514.10	27639.39
514.31	27457.12
514.51	27352.67
514.72	27358.81
514.92	27762.26
515.13	27420.25
515.33	27641.43
515.53	27840.09
515.74	27899.48
515.94	27651.67
516.15	28196.43
516.35	27797.08
516.56	28040.79
516.76	27944.53
516.96	28118.61
517.17	27711.07
517.37	28272.21
517.58	28053.08
517.78	28143.19
517.99	28139.09
518.19	28429.90
518.39	28372.56
518.60	28810.82
518.80	28411.47
519.01	28728.91
519.21	28464.72
519.41	28806.73
519.62	28419.66
519.82	28845.64
520.03	28919.37
520.23	28874.31
520.43	28872.26
520.64	29066.82
520.84	29187.65
521.05	29273.67
521.25	29406.78
521.45	29410.88
521.66	29552.19
521.86	29244.99
522.07	29527.61
522.27	29511.23
522.47	29607.48
522.68	29752.89
522.88	29777.47
523.08	30160.44
523.29	29830.71
523.49	29894.20
523.70	30187.06
523.90	30303.79
524.10	29969.97
524.31	30236.21
524.51	30185.01
524.71	30776.87
524.92	30254.64
525.12	30481.97
525.33	30686.76
525.53	30688.81
525.73	31082.02
525.94	30699.05
526.14	30656.04
526.34	31143.46
526.55	31022.63
526.75	31303.20
526.95	31536.67
527.16	30778.92
527.36	31170.08
527.56	31405.60
527.77	31522.34
527.97	31508.00
528.17	31718.94
528.38	31788.57
528.58	31505.95
528.78	31993.37
528.99	31612.45
529.19	32132.63
529.39	31811.10
529.60	32189.97
529.80	32122.39
530.00	32165.40
530.21	32691.73
530.41	32839.18
530.61	32466.45
530.82	32570.90
531.02	32773.64
531.22	32417.30
531.43	32546.32
531.63	33138.18
531.83	33103.37
532.04	33508.86
532.24	33105.41
532.44	33580.54
532.64	33728.00
532.85	33680.89
533.05	33689.09
533.25	33396.23
533.46	33805.82
533.66	33357.32
533.86	33932.79
534.07	34237.94
534.27	34131.45
534.47	34295.28
534.67	34162.17
534.88	33906.17
535.08	34530.80
535.28	34821.61
535.49	34559.47
535.69	34801.13
535.89	34500.08
536.09	35001.83
536.30	34921.96
536.50	35206.63
536.70	35106.28
536.91	35132.90
537.11	35141.10
537.31	35319.27
537.51	35458.53
537.72	36005.34
537.92	35796.45
538.12	36150.74
538.32	35884.51
538.53	36140.50
538.73	35509.73
538.93	35870.17
539.13	36005.34
539.34	36079.07
539.54	35945.95
539.74	36343.25
539.94	36421.08
540.15	36234.71
540.35	36429.27
540.55	36537.81
540.75	36873.68
540.96	36871.63
541.16	36949.45
541.36	37152.20
541.56	37125.58
541.77	37332.42
541.97	37236.17
542.17	37182.92
542.37	37279.18
542.58	37422.53
542.78	37174.73
542.98	37311.94
543.18	37604.80
543.38	38192.57
543.59	37922.24
543.79	37709.25
543.99	37901.76
544.19	38157.75
544.40	38573.49
544.60	38604.21
544.80	38129.08
545.00	38182.33
545.20	38669.75
545.41	38294.97
545.61	38639.03
545.81	38546.87
546.01	38995.37
546.21	38759.86
546.42	38598.07
546.62	38892.97
546.82	38446.52
547.02	38913.45
547.22	38876.59
547.43	39028.14
547.63	39153.07
547.83	39417.25
548.03	39060.91
548.23	39368.10
548.44	39165.35
548.64	39466.41
548.84	39667.11
549.04	39368.10
549.24	39919.01
549.45	40000.93
549.65	39896.48
549.85	39916.96
550.05	40045.98
550.25	40269.21
550.45	40052.12
550.66	40080.80
550.86	40140.19
551.06	40242.59
551.26	40146.33
551.46	40293.79
551.66	40480.15
551.87	40383.90
552.07	40508.82
552.27	40715.67
552.47	40687.00
552.67	40623.51
552.87	40506.77
553.07	40582.55
553.28	40646.04
553.48	41022.86
553.68	40920.46
553.88	41125.26
554.08	41184.65
554.28	41153.93
554.48	40656.28
554.69	41055.63
554.89	41272.71
555.09	41330.06
555.29	41463.18
555.49	41530.76
555.69	41592.20
555.89	41459.08
556.10	41641.35
556.30	41465.22
556.50	41305.48
556.70	41719.17
556.90	41776.51
557.10	42130.81
557.30	41944.45
557.50	42128.77
557.70	41833.86
557.91	42272.12
558.11	41891.20
558.31	42220.92
558.51	42210.68
558.71	42337.66
558.91	42233.21
559.11	42620.28
559.31	42063.23
559.51	42311.03
559.72	42401.14
559.92	42491.26
560.12	42317.18
560.32	42790.26
560.52	42698.10
560.72	42849.65
560.92	43138.41
561.12	42937.71
561.32	43021.68
561.52	42722.68
561.72	43347.31
561.93	42618.23
562.13	43203.95
562.33	42755.44
562.53	43775.33
562.73	43072.88
562.93	43042.16
563.13	43115.89
563.33	43754.85
563.53	43664.74
563.73	43181.42
563.93	43300.20
564.13	43502.95
564.33	43621.73
564.53	43357.55
564.74	43582.82
564.94	43728.23
565.14	43883.87
565.34	43599.21
565.54	43916.64
565.74	43799.91
565.94	44127.58
566.14	44037.47
566.34	43906.40
566.54	44211.55
566.74	43699.56
566.94	44369.24
567.14	44148.06
567.34	44143.97
567.54	44596.57
567.74	44545.37
567.94	44115.29
568.14	44580.18
568.34	44520.79
568.54	44629.34
568.74	44365.15
568.94	44705.11
569.14	44705.11
569.34	44690.77
569.54	44936.53
569.75	44705.11
569.95	44727.64
570.15	45501.77
570.35	45499.72
570.55	44678.49
570.75	45073.74
570.95	45225.29
571.15	45409.61
571.35	45149.52
571.55	45350.22
571.75	45331.79
571.95	45604.17
572.15	45210.96
572.35	45454.67
572.55	45356.36
572.75	45522.25
572.95	45393.23
573.15	45425.99
573.35	45669.70
573.55	45700.42
573.75	45630.79
573.95	45874.50
574.15	45872.45
574.35	45880.64
574.55	46144.83
574.75	45770.05
574.95	46310.72
575.15	45901.12
575.34	46138.69
575.54	46640.44
575.74	46835.00
575.94	46355.77
576.14	46280.00
576.34	46912.82
576.54	46445.88
576.74	46746.93
576.94	46609.72
577.14	46751.03
577.34	46931.25
577.54	46722.36
577.74	47029.55
577.94	46927.16
578.14	47105.33
578.34	47508.78
578.54	46949.68
578.74	47131.95
578.94	47625.51
579.14	47260.97
579.34	47576.36
579.54	47392.04
579.74	47721.77
579.94	47588.65
580.13	47906.08
580.33	47947.04
580.53	47787.30
580.73	48043.30
580.93	47881.51
581.13	47908.13
581.33	48225.57
581.53	48336.16
581.73	48098.59
581.93	48512.28
582.13	48094.50
582.33	48604.44
582.53	48145.70
582.73	48360.73
582.92	48540.96
583.12	48700.70
583.32	48338.21
583.52	48842.01
583.72	48979.22
583.92	48788.76
584.12	48864.53
584.32	49388.81
584.52	48936.21
584.72	49134.87
584.92	49476.88
585.11	49354.00
585.31	49231.12
585.51	49345.81
585.71	49005.84
585.91	49804.55
586.11	49116.43
586.31	49485.07
586.51	49374.48
586.71	49474.83
586.91	49530.12
587.10	49417.49
587.30	49915.14
587.50	49468.69
587.70	49591.56
587.90	49775.88
588.10	49431.82
588.30	50083.08
588.50	49691.91
588.69	49952.01
588.89	49796.36
589.09	50060.55
589.29	50283.78
589.49	50500.86
589.69	50019.59
589.89	50457.85
590.08	49880.33
590.28	50414.85
590.48	50328.83
590.68	50676.99
590.88	50597.12
591.08	50388.22
591.28	50445.57
591.47	50732.28
591.67	50853.11
591.87	50617.60
592.07	50550.01
592.27	51086.58
592.47	50930.93
592.67	50709.75
592.86	50566.40
593.06	50951.41
593.26	51121.40
593.46	50904.31
593.66	51188.98
593.86	51131.64
594.05	51123.44
594.25	51647.72
594.45	50599.16
594.65	51447.02
594.85	50990.33
595.05	51516.65
595.24	51668.20
595.44	51150.07
595.64	51395.82
595.84	51688.68
596.04	51506.41
596.23	52016.36
596.43	51809.51
596.63	51342.58
596.83	51602.67
597.03	51959.02
597.22	52378.85
597.42	52096.23
597.62	51918.06
597.82	52053.22
598.02	51666.16
598.21	51852.52
598.41	52020.45
598.61	51926.25
598.81	52526.30
599.01	52260.07
599.20	52016.36
599.40	52135.14
599.60	52180.20
599.80	52249.83
600.00	52370.66
600.19	52499.68
600.39	52012.26
600.59	52673.76
600.79	52757.72
600.98	52622.56
601.18	53050.58
601.38	52933.85
601.58	52657.37
601.78	53034.20
601.97	52892.89
602.17	53183.70
602.37	53404.88
602.57	52806.87
602.76	53511.38
602.96	53124.31
603.16	53079.25
603.36	53466.32
603.55	53066.97
603.75	53331.15
603.95	53587.15
604.15	53652.69
604.34	53611.73
604.54	53601.49
604.74	53429.46
604.94	53640.40
605.13	53855.43
605.33	53632.21
605.53	53216.47
605.73	53632.21
605.92	53996.74
606.12	53863.63
606.32	53769.42
606.52	54123.72
606.71	53726.41
606.91	54070.47
607.11	53826.76
607.30	54084.81
607.50	54015.18
607.70	54248.64
607.90	54267.08
608.09	54060.23
608.29	54109.38
608.49	54420.67
608.68	53949.64
608.88	54281.41
609.08	54363.33
609.28	54170.82
609.47	54154.44
609.67	54727.87
609.87	54471.87
610.06	54627.52
610.26	54533.31
610.46	54918.33
610.66	54383.81
610.85	54351.04
611.05	54498.50
611.25	54437.06
611.44	54361.28
611.64	54494.40
611.84	54611.13
612.03	54148.29
612.23	55211.19
612.43	54834.36
612.62	54404.29
612.82	54834.36
613.02	54713.53
613.21	54848.70
613.41	54774.97
613.61	55063.74
613.80	54338.75
614.00	54645.95
614.20	54576.32
614.39	54408.39
614.59	54774.97
614.79	55239.86
614.98	54570.18
615.18	54903.99
615.38	54385.86
615.57	54654.14
615.77	55065.78
615.97	54844.60
616.16	54654.14
616.36	54500.54
616.56	54625.47
616.75	54533.31
616.95	54443.20
617.15	54645.95
617.34	54252.74
617.54	54691.01
617.74	55252.15
617.93	54877.37
618.13	53943.50
618.32	54582.46
618.52	54559.94
618.72	54721.72
618.91	54533.31
619.11	54658.24
619.31	54564.03
619.50	54795.45
619.70	53966.02
619.90	54734.01
620.09	54138.05
620.29	54815.93
620.48	54709.44
620.68	54899.90
620.88	54379.71
621.07	54801.60
621.27	54602.94
621.46	54109.38
621.66	54750.40
621.86	54523.07
622.05	54238.40
622.25	54482.11
622.44	54574.27
622.64	54293.70
622.84	54478.02
623.03	54555.84
623.23	54342.85
623.42	54854.84
623.62	54533.31
623.82	54547.65
624.01	54232.26
624.21	54508.74
624.40	54015.18
624.60	54486.21
624.80	54045.90
624.99	54734.01
625.19	54162.63
625.38	54080.71
625.58	54152.39
625.77	54586.56
625.97	54260.93
626.17	54396.10
626.36	54099.14
626.56	53998.79
626.75	53374.16
626.95	54443.20
627.14	54127.81
627.34	54473.92
627.54	53753.04
627.73	54402.24
627.93	54015.18
628.12	54035.66
628.32	54080.71
628.51	54467.78
628.71	54004.94
628.90	54312.13
629.10	54211.78
629.30	54738.11
629.49	54234.31
629.69	53974.22
629.88	53775.56
630.08	54318.28
630.27	54426.82
630.47	54281.41
630.66	54412.48
630.86	54531.26
631.05	54320.32
631.25	54490.30
631.44	54310.08
631.64	53787.85
631.84	54066.38
632.03	54504.64
632.23	54121.67
632.42	54410.43
632.62	54154.44
632.81	54031.56
633.01	54228.16
633.20	54150.34
633.40	54441.15
633.59	54303.94
633.79	53837.00
633.98	54080.71
634.18	54287.56
634.37	54471.87
634.57	54082.76
634.76	54267.08
634.96	54412.48
635.15	54287.56
635.35	54060.23
635.54	54179.01
635.74	54334.66
635.93	54269.12
636.13	54318.28
636.32	54463.68
636.52	54224.07
636.71	54621.37
636.91	54332.61
637.10	54176.97
637.30	54394.05
637.49	54031.56
637.69	54209.73
637.88	54363.33
638.08	54164.68
638.27	54506.69
638.46	54344.90
638.66	54328.52
638.85	54506.69
639.05	53906.63
639.24	54615.23
639.44	54086.85
639.63	54400.19
639.83	54506.69
640.02	54310.08
640.22	54158.53
640.41	54596.80
640.61	53957.83
640.80	54875.32
640.99	54277.32
641.19	54607.04
641.38	54338.75
641.58	54508.74
641.77	54588.61
641.97	54289.60
642.16	54545.60
642.36	54465.73
642.55	55342.26
642.74	54310.08
642.94	55059.64
643.13	54428.87
643.33	55063.74
643.52	55121.08
643.72	55137.46
643.91	54473.92
644.10	54392.00
644.30	54944.95
644.49	55123.13
644.69	54953.15
644.88	54912.19
645.08	54484.16
645.27	54684.86
645.46	54537.41
645.66	55116.98
645.85	54961.34
646.05	54877.37
646.24	54928.57
646.43	54881.47
646.63	54889.66
646.82	54703.29
647.02	54844.60
647.21	55272.63
647.40	55071.93
647.60	55162.04
647.79	55342.26
647.99	55155.89
648.18	54801.60
648.37	55575.73
648.57	55297.20
648.76	55205.05
648.96	54729.92
649.15	55289.01
649.34	54760.64
649.54	54959.29
649.73	54873.27
649.92	55092.41
650.12	55342.26
650.31	55477.43
650.51	55375.03
650.70	55291.06
650.89	55035.06
651.09	56241.32
651.28	55129.27
651.47	55241.91
651.67	55440.56
651.86	55739.57
652.06	54955.19
652.25	55420.08
652.44	55010.49
652.64	55358.64
652.83	55628.98
653.02	55059.64
653.22	55383.22
653.41	55180.47
653.60	55137.46
653.80	55219.38
653.99	55571.63
654.18	55227.57
654.38	55430.32
654.57	55448.75
654.76	55133.37
654.96	55299.25
655.15	55286.96
655.34	55207.09
655.54	55182.52
655.73	55428.27
655.92	55815.34
656.12	55764.14
656.31	55616.69
656.50	55456.95
656.70	55327.92
656.89	55260.34
657.08	55622.83
657.28	55661.74
657.47	55446.71
657.66	55813.29
657.86	55506.10
658.05	55833.77
658.24	55846.06
658.43	55456.95
658.63	55866.54
658.82	55911.59
659.01	56018.09
659.21	55706.80
659.40	55743.66
659.59	55739.57
659.79	55833.77
659.98	55798.96
660.17	56083.62
660.36	55944.36
660.56	55833.77
660.75	56104.10
660.94	55694.51
661.14	55964.84
661.33	55798.96
661.52	55837.87
661.71	56091.82
661.91	55641.26
662.10	55442.61
662.29	55682.22
662.49	55753.90
662.68	56247.46
662.87	55817.39
663.06	56591.52
663.26	55749.81
663.45	56093.86
663.64	56069.29
663.83	56026.28
664.03	56073.38
664.22	56067.24
664.41	55964.84
664.60	55893.16
664.80	56065.19
664.99	55866.54
665.18	55884.97
665.37	55997.61
665.57	56100.01
665.76	56108.20
665.95	55850.16
666.14	55915.69
666.34	55798.96
666.53	55966.89
666.72	55794.86
666.91	55917.74
667.11	55524.53
667.30	55811.24
667.49	55727.28
667.68	55612.59
667.87	55854.25
668.07	55938.22
668.26	55751.85
668.45	55968.94
668.64	56087.72
668.84	56673.44
669.03	56454.31
669.22	56190.12
669.41	55973.03
669.60	55788.72
669.80	56130.73
669.99	56194.21
670.18	56302.76
670.37	56282.28
670.57	56448.16
670.76	56210.60
670.95	56102.06
671.14	56417.44
671.33	55960.75
671.53	56411.30
671.72	56376.48
671.91	56083.62
672.10	55794.86
672.29	55997.61
672.48	56108.20
672.68	56181.93
672.87	56257.70
673.06	56202.41
673.25	55936.17
673.44	55948.46
673.64	55911.59
673.83	56042.66
674.02	56100.01
674.21	55637.17
674.40	56157.35
674.59	56413.35
674.79	56118.44
674.98	55743.66
675.17	56136.87
675.36	55868.59
675.55	56050.86
675.74	56190.12
675.94	55948.46
676.13	56278.18
676.32	55927.98
676.51	56577.18
676.70	56294.56
676.89	56081.58
677.08	55884.97
677.28	55999.66
677.47	56040.62
677.66	56229.03
677.85	56075.43
678.04	56104.10
678.23	56386.72
678.42	56097.96
678.62	55987.37
678.81	56042.66
679.00	56226.98
679.19	56824.99
679.38	56165.54
679.57	56030.38
679.76	56022.19
679.96	56444.07
680.15	56112.30
680.34	56065.19
680.53	55905.45
680.72	56222.89
680.91	56454.31
681.10	55858.35
681.29	55755.95
681.48	56323.24
681.68	55946.41
681.87	56057.00
682.06	55938.22
682.25	55749.81
682.44	55686.32
682.63	55911.59
682.82	55745.71
683.01	55612.59
683.20	55518.38
683.39	55991.47
683.59	55624.88
683.78	55407.79
683.97	55663.79
684.16	55758.00
684.35	55592.11
684.54	56104.10
684.73	55626.93
684.92	55479.47
685.11	55796.91
685.30	55841.96
685.49	55852.20
685.69	55442.61
685.88	55458.99
686.07	55440.56
686.26	55278.77
686.45	55874.73
686.64	55520.43
686.83	55497.91
687.02	55952.55
687.21	55934.12
687.40	55545.01
687.59	55592.11
687.78	55399.60
687.97	55927.98
688.16	55555.25
688.35	56243.37
688.54	55565.49
688.74	55260.34
688.93	55893.16
689.12	55522.48
689.31	55393.46
689.50	55596.21
689.69	55555.25
689.88	54686.91
690.07	55448.75
690.26	55094.46
690.45	56030.38
690.64	55502.00
690.83	55188.66
691.02	55041.21
691.21	55356.60
691.40	55217.33
691.59	55051.45
691.78	54887.61
691.97	55391.41
692.16	55313.59
692.35	55295.16
692.54	55200.95
692.73	55340.21
692.92	55364.79
693.11	55246.00
693.30	55383.22
693.49	55086.26
693.68	55096.50
693.87	55524.53
694.06	55352.50
694.25	55010.49
694.44	54860.99
694.63	55137.46
694.82	55280.82
695.01	55194.81
695.20	55022.78
695.39	54744.25
695.58	55028.92
695.77	55004.34
695.96	54572.22
696.15	54666.43
696.34	54762.68
696.53	54828.22
696.72	55063.74
696.91	54852.80
697.10	54996.15
697.29	54785.21
697.48	55024.82
697.67	54762.68
697.86	54457.54
698.05	54766.78
698.24	55143.61
698.43	54017.22
698.62	54738.11
698.81	53939.40
699.00	54453.44
699.19	54312.13
699.38	54963.39
699.57	54129.86
699.76	54824.12
699.95	54473.92
700.14	54076.61
700.32	54082.76
700.51	54197.44
700.70	54537.41
700.89	54611.13
701.08	54219.97
701.27	54336.71
701.46	54465.73
701.65	53857.48
701.84	54189.25
702.03	54275.27
702.22	54152.39
702.41	54054.09
702.60	54295.75
702.79	54021.32
702.98	53748.94
703.17	53621.97
703.35	54060.23
703.54	54047.94
703.73	54482.11
703.92	54158.53
704.11	53705.93
704.30	54109.38
704.49	53581.01
704.68	53910.73
704.87	53605.58
705.06	53693.64
705.25	53824.71
705.43	53703.88
705.62	53552.33
705.81	53480.66
706.00	53466.32
706.19	53552.33
706.38	53728.46
706.57	53941.45
706.76	53568.72
706.95	53384.40
707.14	53695.69
707.32	53204.18
707.51	53574.86
707.70	53408.98
707.89	53146.84
708.08	53535.95
708.27	53378.26
708.46	53867.72
708.65	53163.22
708.84	53556.43
709.02	53492.94
709.21	53335.25
709.40	53138.65
709.59	53023.96
709.78	52858.07
709.97	53261.52
710.16	53081.30
710.34	53290.19
710.53	53001.43
710.72	52946.14
710.91	52733.15
711.10	53150.93
711.29	53183.70
711.48	53118.17
711.66	53003.48
711.85	52913.37
712.04	53083.35
712.23	52690.14
712.42	52597.98
712.61	52841.69
712.80	52520.16
712.98	52559.07
713.17	52548.83
713.36	52460.77
713.55	52866.27
713.74	52532.45
713.93	52573.41
714.11	52438.24
714.30	52536.54
714.49	52122.85
714.68	52339.94
714.87	52358.37
715.06	52747.48
715.24	52202.72
715.43	52425.95
715.62	52589.79
715.81	52411.62
716.00	52440.29
716.18	51875.05
716.37	52012.26
716.56	51598.57
716.75	52221.16
716.94	51813.61
717.12	51703.02
717.31	52262.11
717.50	51588.33
717.69	51766.51
717.88	51877.10
718.06	51645.68
718.25	52114.66
718.44	51262.71
718.63	51514.61
718.82	51090.68
719.00	51375.34
719.19	51502.32
719.38	51404.02
719.57	51117.30
719.76	51234.03
719.94	50732.28
720.13	50973.94
720.32	51256.56
720.51	51006.71
720.69	50875.64
720.88	50838.78
721.07	51369.20
721.26	50865.40
721.44	50789.62
721.63	50550.01
721.82	50599.16
722.01	50476.29
722.20	50414.85
722.38	50457.85
722.57	49999.11
722.76	50388.22
722.95	50558.20
723.13	50005.25
723.32	50064.64
723.51	49853.70
723.70	49876.23
723.88	50087.17
724.07	49947.91
724.26	49886.47
724.44	49632.52
724.63	50355.46
724.82	49968.39
725.01	49722.63
725.19	49804.55
725.38	49779.98
725.57	49687.82
725.76	49659.15
725.94	49804.55
726.13	49245.46
726.32	49501.45
726.51	49657.10
726.69	49990.92
726.88	49401.10
727.07	49622.28
727.25	49450.25
727.44	49384.72
727.63	49468.69
727.82	49321.23
728.00	49550.60
728.19	49270.03
728.38	49534.22
728.56	48809.24
728.75	49345.81
728.94	49356.05
729.12	49169.68
729.31	49306.90
729.50	49274.13
729.69	49327.38
729.87	49198.35
730.06	49245.46
730.25	49100.05
730.43	49618.19
730.62	49306.90
730.81	49374.48
730.99	49184.02
731.18	49007.89
731.37	49181.97
731.55	49331.47
731.74	49374.48
731.93	49173.78
732.11	49517.84
732.30	49063.19
732.49	48610.59
732.67	48862.49
732.86	48452.89
733.05	49112.34
733.23	48497.95
733.42	48715.03
733.61	48962.84
733.79	49079.57
733.98	48909.59
734.17	48932.12
734.35	49194.26
734.54	49157.39
734.73	49112.34
734.91	48854.29
735.10	48389.41
735.29	48737.56
735.47	48401.69
735.66	48786.71
735.84	48747.80
736.03	48461.08
736.22	48868.63
736.40	48573.72
736.59	48825.62
736.78	48698.65
736.96	48518.43
737.15	48784.66
737.33	48868.63
737.52	48078.11
737.71	48100.64
737.89	47869.22
738.08	48020.77
738.27	47809.83
738.45	48686.36
738.64	48692.50
738.82	48268.58
739.01	47928.61
739.20	48411.93
739.38	48018.72
739.57	48532.76
739.75	48432.41
739.94	47955.24
740.13	47969.57
740.31	47973.67
740.50	48139.55
740.68	47764.78
740.87	48303.39
741.06	48246.05
741.24	48100.64
741.43	47842.60
741.61	48078.11
741.80	47453.48
741.99	48012.58
742.17	47742.25
742.36	47979.81
742.54	47680.81
742.73	47418.67
742.91	47850.79
743.10	47531.31
743.29	47813.93
743.47	47736.10
743.66	47535.40
743.84	47689.00
744.03	47611.18
744.21	47512.88
744.40	47781.16
744.59	47414.57
744.77	47293.74
744.96	47529.26
745.14	47539.50
745.33	47609.13
745.51	47043.89
745.70	47541.55
745.88	46843.19
746.07	47652.14
746.26	47045.94
746.44	47086.90
746.63	47301.93
746.81	46839.09
747.00	46423.36
747.18	47037.75
747.37	46830.90
747.55	46738.74
747.74	47232.30
747.92	46601.53
748.11	46755.13
748.29	46693.69
748.48	46654.78
748.66	46372.16
748.85	46351.68
749.03	46671.16
749.22	46732.60
749.41	46654.78
749.59	47002.93
749.78	46247.23
749.96	46067.01
750.15	46185.79
750.33	46632.25
750.52	46316.86
750.70	46290.24
750.89	46329.15
751.07	46048.58
751.26	46134.59
751.44	46128.45
751.63	46167.36
751.81	45790.53
752.00	45948.23
752.18	46064.96
752.37	46273.85
752.55	45770.05
752.74	45811.01
752.92	45550.92
753.10	45499.72
753.29	45872.45
753.47	45598.02
753.66	45471.05
753.84	45847.88
754.03	45833.54
754.21	45569.35
754.40	45245.77
754.58	45661.51
754.77	45157.71
754.95	44875.09
755.14	45409.61
755.32	45485.39
755.51	44946.77
755.69	44719.45
755.88	44526.94
756.06	44987.73
756.24	45047.12
756.43	45143.38
756.61	44881.24
756.80	44811.60
756.98	44528.98
757.17	44703.06
757.35	44760.40
757.54	44776.79
757.72	45188.43
757.90	44604.76
758.09	44647.77
758.27	44756.31
758.46	44545.37
758.64	44766.55
758.83	45141.33
759.01	44596.57
759.19	44197.21
759.38	44268.89
759.56	44668.25
759.75	44100.96
759.93	44408.15
760.12	43883.87
760.30	44428.63
760.48	44023.14
760.67	44090.72
760.85	44164.45
761.04	44092.77
761.22	44016.99
761.40	43746.66
761.59	43863.39
761.77	43697.51
761.96	44076.38
762.14	44000.61
762.32	43345.26
762.51	43472.23
762.69	43677.03
762.88	43902.31
763.06	43316.59
763.24	43586.92
763.43	43443.56
763.61	43230.57
763.80	43298.16
763.98	43455.85
764.16	43494.76
764.35	43148.65
764.53	42831.22
764.72	42982.77
764.90	42882.42
765.08	43046.26
765.27	43003.25
765.45	42739.06
765.63	42501.50
765.82	43322.73
766.00	43013.49
766.18	42655.09
766.37	42681.72
766.55	42734.96
766.74	42677.62
766.92	42716.53
767.10	42972.53
767.29	42689.91
767.47	42161.53
767.65	42364.28
767.84	42048.89
768.02	42509.69
768.20	41837.95
768.39	42560.89
768.57	42253.69
768.75	42079.61
768.94	42292.60
769.12	41932.16
769.30	41852.29
769.49	42055.04
769.67	41385.35
769.85	41706.88
770.04	41614.72
770.22	41815.43
770.40	41407.88
770.59	41590.15
770.77	41813.38
770.95	41414.02
771.14	41358.73
771.32	41276.81
771.50	40994.19
771.69	41037.20
771.87	41612.68
772.05	41391.50
772.24	40768.91
772.42	41500.04
772.60	40850.83
772.78	41155.98
772.97	40981.90
773.15	40965.52
773.33	41131.40
773.52	41145.74
773.70	40805.78
773.88	41004.43
774.07	40748.43
774.25	41108.88
774.43	40875.41
774.61	40963.47
774.80	41299.34
774.98	40740.24
775.16	41121.16
775.34	41135.50
775.53	40189.34
775.71	41020.81
775.89	41342.35
776.08	41285.00
776.26	40752.53
776.44	40721.81
776.62	41006.48
776.81	40682.90
776.99	41196.94
777.17	41072.01
777.35	41399.69
777.54	41254.28
777.72	40654.23
777.90	41366.92
778.08	41045.39
778.27	41336.20
778.45	41299.34
778.63	41309.58
778.81	40926.61
779.00	42022.27
779.18	41184.65
779.36	41541.00
779.54	41094.54
779.73	41428.36
779.91	41106.83
780.09	41676.16
780.27	41825.67
780.46	41237.90
780.64	41760.13
780.82	41522.57
781.00	41495.94
781.19	41725.32
781.37	41696.64
781.55	41272.71
781.73	41899.39
781.91	41409.93
782.10	41594.25
782.28	41821.57
782.46	41676.16
782.64	41756.03
782.82	41768.32
783.01	41600.39
783.19	41751.94
783.37	41559.43
783.55	41688.45
783.74	42061.18
783.92	41348.49
784.10	42145.15
784.28	41612.68
784.46	41696.64
784.64	41612.68
784.83	41481.61
785.01	41985.41
785.19	41942.40
785.37	41665.92
785.55	41770.37
785.74	41465.22
785.92	41557.38
786.10	42009.98
786.28	41672.07
786.46	41387.40
786.64	41444.74
786.83	41647.49
787.01	41493.89
787.19	41524.61
787.37	41522.57
787.55	41196.94
787.74	41092.49
787.92	41463.18
788.10	40773.01
788.28	40906.13
788.46	41303.43
788.64	40574.36
788.82	41014.67
789.01	40736.15
789.19	40760.72
789.37	40547.73
789.55	40957.33
789.73	40564.12
789.91	40781.20
790.09	40588.69
790.28	40234.39
790.46	40533.40
790.64	40480.15
790.82	39812.51
791.00	40287.64
791.18	40035.74
791.36	39990.69
791.55	40146.33
791.73	40062.36
791.91	39816.61
792.09	39796.13
792.27	39595.43
792.45	39763.36
792.63	39683.49
792.81	39404.97
793.00	39335.34
793.18	39460.26
793.36	39349.67
793.54	39128.49
793.72	39087.53
793.90	39306.66
794.08	39003.56
794.26	38823.34
794.44	38438.33
794.62	38573.49
794.81	38749.62
794.99	38495.67
795.17	38245.82
795.35	38411.70
795.53	38393.27
795.71	38419.89
795.89	37952.96
796.07	37942.72
796.25	37451.20
796.43	37647.81
796.61	37559.75
796.80	37408.20
796.98	37619.14
797.16	37404.10
797.34	37174.73
797.52	37557.70
797.70	37803.46
797.88	37365.19
798.06	36888.01
798.24	37045.71
798.42	36996.56
798.60	36939.21
798.78	36711.89
798.96	36951.50
799.14	36339.16
799.32	36718.03
799.51	36425.17
799.69	36320.73
799.87	36773.33
800.05	36402.64
800.23	35995.10
800.41	36359.64
800.59	36197.85
800.77	36015.58
800.95	35663.33
801.13	35898.84
801.31	35509.73
801.49	35911.13
801.67	35487.20
801.85	35653.09
802.03	35386.85
802.21	34995.69
802.39	35388.90
802.57	35325.41
802.75	35341.80
802.93	35175.91
803.11	35198.44
803.29	34887.15
803.47	34907.63
803.65	34840.04
803.83	35071.46
804.01	34842.09
804.19	34235.89
804.37	34524.66
804.55	34153.97
804.73	34352.63
804.91	34328.05
805.09	33814.01
805.27	34031.10
805.45	34178.55
805.63	34397.68
805.81	34180.60
805.99	34063.86
806.17	34215.41
806.35	33699.33
806.53	33590.78
806.71	33732.09
806.89	33932.79
807.07	33375.75
807.25	33715.71
807.43	33222.15
807.61	33543.68
807.79	33218.05
807.97	33035.78
808.15	33078.79
808.33	33003.02
808.51	33164.81
808.69	32906.76
808.87	32691.73
809.05	32736.78
809.23	32259.60
809.41	32153.11
809.59	32251.41
809.77	32783.88
809.95	32505.36
810.13	32642.57
810.31	32417.30
810.49	32409.11
810.67	32189.97
810.84	32271.89
811.02	32114.20
811.20	31733.28
811.38	31796.76
811.56	31581.73
811.74	31890.97
811.92	31485.47
812.10	31712.80
812.28	31974.94
812.46	31508.00
812.64	31524.38
812.82	31788.57
813.00	31569.44
813.18	31268.39
813.36	30887.46
813.53	31075.88
813.71	30987.82
813.89	31026.73
814.07	31157.80
814.25	30989.86
814.43	30987.82
814.61	30512.69
814.79	30842.41
814.97	30621.23
815.15	30844.46
815.33	30596.65
815.50	30666.28
815.68	30654.00
815.86	30631.47
816.04	30594.61
816.22	30207.54
816.40	30281.27
816.58	30402.10
816.76	30088.76
816.94	30185.01
817.11	30111.28
817.29	30150.20
817.47	30193.20
817.65	29789.75
817.83	29965.88
818.01	29593.15
818.19	29646.40
818.37	29709.88
818.54	29574.72
818.72	29640.25
818.90	29728.31
819.08	29617.72
819.26	29449.79
819.44	29318.72
819.62	29095.49
819.80	29142.60
819.97	29253.19
820.15	29500.99
820.33	28911.17
820.51	29363.78
820.69	29240.90
820.87	29187.65
821.05	29345.34
821.22	28888.65
821.40	28966.47
821.58	28517.96
821.76	28765.77
821.94	28894.79
822.12	28849.74
822.29	28823.11
822.47	28780.10
822.65	28868.17
822.83	28741.19
823.01	28563.02
823.19	28409.42
823.36	28450.38
823.54	28223.06
823.72	28227.15
823.90	28155.47
824.08	28149.33
824.25	28300.88
824.43	28132.95
824.61	27885.14
824.79	28235.35
824.97	28042.84
825.15	27887.19
825.32	27991.64
825.50	27813.46
825.68	28206.67
825.86	28104.28
826.04	28018.26
826.21	27606.62
826.39	28016.21
826.57	27811.42
826.75	27534.94
826.93	27283.04
827.10	27428.45
827.28	27373.15
827.46	27817.56
827.64	27573.85
827.81	27430.49
827.99	27504.22
828.17	27276.90
828.35	27051.62
828.53	27336.29
828.70	27254.37
828.88	27113.06
829.06	27139.68
829.24	27242.08
829.41	26773.10
829.59	27074.15
829.77	27076.19
829.95	27002.47
830.12	26789.48
830.30	26494.57
830.48	27197.02
830.66	26797.67
830.84	26799.72
831.01	26728.04
831.19	26895.97
831.37	26486.38
831.55	26297.97
831.72	26582.63
831.90	26543.72
832.08	26560.11
832.25	26461.80
832.43	26132.08
832.61	26277.49
832.79	26121.84
832.96	26334.83
833.14	25982.58
833.32	26494.57
833.50	26269.30
833.67	26205.81
833.85	26117.75
834.03	25837.17
834.20	26345.07
834.38	26277.49
834.56	26156.66
834.74	25720.44
834.91	25939.57
835.09	25945.72
835.27	25777.78
835.44	25763.45
835.62	25323.13
835.80	25749.11
835.98	25808.50
836.15	25863.80
836.33	25544.31
836.51	25577.08
836.68	25308.80
836.86	25294.46
837.04	25513.59
837.21	25417.34
837.39	25443.96
837.57	25462.40
837.75	25409.15
837.92	25304.70
838.10	24878.72
838.28	25323.13
838.45	25060.99
838.63	25046.66
838.81	25441.92
838.98	24966.79
839.16	25030.27
839.34	25079.43
839.51	24862.34
839.69	24954.50
839.87	24872.58
840.04	24813.19
840.22	24948.36
840.40	24643.21
840.57	24655.50
840.75	24610.44
840.93	24688.26
841.10	24802.95
841.28	24958.60
841.46	24899.20
841.63	24680.07
841.81	24641.16
841.98	24319.63
842.16	24305.29
842.34	24602.25
842.51	24264.33
842.69	24632.97
842.87	24313.48
843.04	24581.77
843.22	24231.57
843.40	24235.66
843.57	24356.49
843.75	24544.91
843.92	24198.80
844.10	24213.13
844.28	24188.56
844.45	24198.80
844.63	24200.85
844.81	24276.62
844.98	24465.03
845.16	24133.26
845.33	23946.90
845.51	24090.26
845.69	24030.87
845.86	23950.99
846.04	23574.17
846.21	23635.61
846.39	24094.35
846.57	23494.30
846.74	23885.46
846.92	24090.26
847.09	23895.70
847.27	23709.33
847.45	23828.12
847.62	23768.73
847.80	23717.53
847.97	23473.82
848.15	23697.05
848.32	23316.12
848.50	23387.80
848.68	23303.84
848.85	23342.75
849.03	23252.64
849.20	23414.43
849.38	23570.07
849.56	23533.21
849.73	22945.44
849.91	23244.45
850.08	23393.95
850.26	22861.48
850.43	23103.14
850.61	23328.41
850.78	22816.42
850.96	22998.69
851.14	22593.19
851.31	23000.74
851.49	22681.25
851.66	23045.79
851.84	22920.87
852.01	23180.96
852.19	22875.81
852.36	22709.93
852.54	22972.07
852.71	22804.13
852.89	22601.38
853.07	22705.83
853.24	22521.51
853.42	22562.47
853.59	22757.03
853.77	22550.18
853.94	22664.87
854.12	22625.96
854.29	22228.65
854.47	22707.88
854.64	22353.58
854.82	22161.07
854.99	22570.66
855.17	22425.26
855.34	22400.68
855.52	22419.11
855.69	22263.47
855.87	22171.31
856.04	21905.07
856.22	22181.55
856.39	22105.77
856.57	22148.78
856.74	21927.60
856.92	21933.75
857.09	21886.64
857.27	21831.35
857.44	22116.01
857.62	21888.69
857.79	22173.36
857.97	21925.55
858.14	22015.66
858.32	21995.18
858.49	21556.92
858.67	21798.58
858.84	21720.76
859.02	21741.24
859.19	21927.60
859.37	21362.36
859.54	21810.87
859.72	21649.08
859.89	21849.78
860.06	21587.64
860.24	21548.73
860.41	21743.28
860.59	21198.52
860.76	21507.77
860.94	21370.55
861.11	21378.75
861.29	20981.44
861.46	21128.89
861.64	20971.20
861.81	21251.77
861.98	21247.68
862.16	20948.67
862.33	20948.67
862.51	20928.19
862.68	21130.94
862.86	20795.07
863.03	20819.65
863.21	21227.20
863.38	21024.45
863.55	20930.24
863.73	21022.40
863.90	20936.38
864.08	20760.26
864.25	20844.23
864.43	20719.30
864.60	20899.52
864.77	20528.84
864.95	20926.14
865.12	20506.31
865.30	20569.80
865.47	20612.81
865.64	20799.17
865.82	20571.85
865.99	20895.43
866.17	20520.65
866.34	20434.63
866.51	20346.57
866.69	20565.70
866.86	20504.26
867.04	20483.78
867.21	20434.63
867.38	20272.84
867.56	20055.76
867.73	20244.17
867.91	20002.51
868.08	20180.68
868.25	19949.26
868.43	20055.76
868.60	19990.22
868.78	19783.38
868.95	20244.17
869.12	19881.68
869.30	19574.49
869.47	20379.34
869.64	19814.10
869.82	19891.92
869.99	19523.29
870.16	19576.53
870.34	19680.98
870.51	20027.09
870.69	19476.18
870.86	19662.55
871.03	19660.50
871.21	19527.38
871.38	19637.97
871.55	19353.30
871.73	19111.64
871.90	19373.78
872.07	19214.04
872.25	19218.14
872.42	19199.71
872.59	19183.32
872.77	19130.08
872.94	18982.62
873.11	19255.00
873.29	19308.25
873.46	19142.36
873.63	19187.42
873.81	19277.53
873.98	19072.73
874.15	18986.72
874.33	18710.24
874.50	18587.36
874.67	18788.07
874.85	18859.74
875.02	18431.72
875.19	18239.21
875.37	18724.58
875.54	18466.53
875.71	18593.51
875.88	18700.00
876.06	18671.33
876.23	18513.64
876.40	18321.13
876.58	18196.20
876.75	18562.79
876.92	18161.39
877.10	18118.38
877.27	18233.07
877.44	18310.89
877.61	18226.92
877.79	18038.51
877.96	18157.29
878.13	18165.48
878.31	17936.11
878.48	17831.66
878.65	17882.86
878.82	17770.22
879.00	17721.07
879.17	17800.94
879.34	17864.43
879.51	17690.35
879.69	17571.57
879.86	17659.63
880.03	17870.58
880.21	17680.11
880.38	17528.56
880.55	17682.16
880.72	17596.15
880.90	17336.06
881.07	17499.89
881.24	17313.53
881.41	17417.97
881.59	17487.61
881.76	17379.06
881.93	17399.54
882.10	17270.52
882.28	17215.23
882.45	17262.33
882.62	17395.45
882.79	17405.69
882.96	16975.61
883.14	17235.70
883.31	17432.31
883.48	16953.09
883.65	17086.20
883.83	17190.65
884.00	17041.15
884.17	17114.87
884.34	17016.57
884.51	17002.24
884.69	17084.16
884.86	16834.30
885.03	16940.80
885.20	16965.37
885.38	16883.45
885.55	16889.60
885.72	16930.56
885.89	16686.85
886.06	16881.41
886.24	16449.28
886.41	16625.41
886.58	16838.40
886.75	16928.51
886.92	16428.81
887.10	16824.06
887.27	16414.47
887.44	16930.56
887.61	16819.97
887.78	16805.63
887.95	16979.71
888.13	16269.06
888.30	16492.29
888.47	16699.14
888.64	16516.87
888.81	16471.81
888.99	16363.27
889.16	16146.19
889.33	16404.23
889.50	16154.38
889.67	16094.99
889.84	16303.88
890.01	16205.58
890.19	16158.47
890.36	16328.45
890.53	16086.79
890.70	15998.73
890.87	15859.47
891.04	15990.54
891.22	16070.41
891.39	15845.13
891.56	16152.33
891.73	16103.18
891.90	15607.57
892.07	15920.91
892.24	15869.71
892.42	15660.82
892.59	15865.61
892.76	15750.93
892.93	15707.92
893.10	15855.37
893.27	15871.76
893.44	15568.66
893.61	15585.04
893.79	15578.90
893.96	15445.78
894.13	15791.89
894.30	15486.74
894.47	15486.74
894.64	15798.03
894.81	15492.88
894.98	15730.45
895.15	15634.19
895.33	15421.20
895.50	15597.33
895.67	15599.38
895.84	15511.32
896.01	15486.74
896.18	15322.90
896.35	15666.96
896.52	15576.85
896.69	15480.60
896.86	15212.31
897.04	15562.51
897.21	15576.85
897.38	15343.38
897.55	15542.03
897.72	15386.39
897.89	15281.94
898.06	15634.19
898.23	15599.38
898.40	15525.65
898.57	15503.12
898.74	15593.23
898.91	15568.66
899.08	15490.84
899.26	15605.52
899.43	15527.70
899.60	15566.61
899.77	15533.84
899.94	15302.42
900.11	15093.53
900.28	15470.36
900.45	15144.73
900.62	15206.17
900.79	15755.02
900.96	15464.21
901.13	15288.09
901.30	15318.81
901.47	15161.11
901.64	15206.17
901.81	15460.12
901.98	15324.95
902.15	15531.80
902.32	15179.54
902.49	15533.84
902.66	15345.43
902.83	15322.90
903.01	15077.15
903.18	15101.72
903.35	15292.18
903.52	15476.50
903.69	15179.54
903.86	15433.49
904.03	15161.11
904.20	15218.46
904.37	15630.10
904.54	15462.16
904.71	15036.19
904.88	15476.50
905.05	15527.70
905.22	15370.01
905.39	15163.16
905.56	15222.55
905.73	15200.02
905.90	15267.61
906.07	15216.41
906.24	15335.19
906.41	15355.67
906.58	15408.92
906.75	15517.46
906.92	15173.40
907.09	15214.36
907.26	15064.86
907.43	15161.11
907.60	15122.20
907.77	15372.05
907.93	15345.43
908.10	15134.49
908.27	15429.40
908.44	15071.00
908.61	15058.71
908.78	15015.71
908.95	15212.31
909.12	15107.87
909.29	14984.99
909.46	15013.66
909.63	15384.34
909.80	15089.43
909.97	15263.51
910.14	15034.14
910.31	15017.75
910.48	15073.05
910.65	14956.32
910.82	14872.35
910.99	14737.18
911.16	14819.10
911.33	14917.40
911.50	14939.93
911.66	14757.66
911.83	15003.42
912.00	15017.75
912.17	14683.94
912.34	14571.30
912.51	14559.01
912.68	14497.57
912.85	14917.40
913.02	14788.38
913.19	14905.12
913.36	14645.02
913.53	14620.45
913.70	14563.11
913.86	14720.80
914.03	14741.28
914.20	14731.04
914.37	14499.62
914.54	14413.60
914.71	14620.45
914.88	14518.05
915.05	14268.20
915.22	14260.01
915.39	14311.21
915.55	14434.08
915.72	14307.11
915.89	14165.80
916.06	14014.25
916.23	14038.83
916.40	14098.22
916.57	13987.63
916.74	14026.54
916.91	13866.80
917.07	13877.04
917.24	14122.79
917.41	13696.82
917.58	13926.19
917.75	13666.10
917.92	13778.73
918.09	13762.35
918.26	13803.31
918.42	13741.87
918.59	13707.05
918.76	13446.96
918.93	13494.07
919.10	13403.96
919.27	13319.99
919.44	13475.63
919.60	13471.54
919.77	13549.36
919.94	13180.73
920.11	13471.54
920.28	13285.17
920.45	13479.73
920.61	13227.83
920.78	13184.82
920.95	13317.94
921.12	13049.66
921.29	13139.77
921.46	13057.85
921.62	12685.12
921.79	13027.13
921.96	12934.97
922.13	12678.97
922.30	12709.69
922.47	12635.97
922.63	12758.85
922.80	12535.62
922.97	12502.85
923.14	12365.64
923.31	12590.91
923.47	12267.33
923.64	12562.24
923.81	12336.96
923.98	12498.75
924.15	12547.90
924.32	12357.44
924.48	12330.82
924.65	12398.40
924.82	11968.33
924.99	12097.35
925.15	12287.81
925.32	12101.45
925.49	11810.64
925.66	11986.76
925.83	11784.01
925.99	11845.45
926.16	11876.17
926.33	11745.10
926.50	11558.74
926.67	11781.96
926.83	11587.41
927.00	11415.38
927.17	11429.71
927.34	11341.65
927.50	11554.64
927.67	11695.95
927.84	11487.06
928.01	11272.02
928.17	11222.87
928.34	11263.83
928.51	11079.51
928.68	11028.31
928.84	10815.32
929.01	10944.34
929.18	10907.48
929.35	11069.27
929.51	10848.09
929.68	10571.61
929.85	10684.25
930.02	10729.31
930.18	10676.06
930.35	10659.68
930.52	10536.80
930.69	10686.30
930.85	10516.32
931.02	10639.20
931.19	10434.40
931.36	10469.22
931.52	10481.50
931.69	10467.17
931.86	10348.39
932.02	10243.94
932.19	10254.18
932.36	10114.92
932.53	9989.99
932.69	9959.27
932.86	10147.69
933.03	10080.10
933.19	9940.84
933.36	9844.59
933.53	10092.39
933.70	9600.88
933.86	9715.56
934.03	9701.23
934.20	9596.78
934.36	9449.33
934.53	9441.14
934.70	9285.49
934.86	9424.75
935.03	9185.14
935.20	9115.51
935.36	9103.22
935.53	8900.47
935.70	8916.86
935.86	8908.66
936.03	8863.61
936.20	8796.03
936.36	8697.72
936.53	8605.56
936.70	8574.85
936.86	8613.76
937.03	8437.63
937.20	8249.22
937.36	8580.99
937.53	8173.44
937.70	8179.59
937.86	7907.21
938.03	7939.97
938.20	7896.97
938.36	7702.41
938.53	7823.24
938.70	7522.19
938.86	7653.26
939.03	7563.15
939.20	7391.12
939.36	7333.78
939.53	7315.34
939.70	7337.87
939.86	7167.89
940.03	6895.51
940.19	6864.79
940.36	6811.54
940.53	6670.23
940.69	6690.71
940.86	6682.52
941.03	6657.95
941.19	6594.46
941.36	6428.57
941.52	6528.92
941.69	6184.87
941.86	6287.26
942.02	6299.55
942.19	6293.41
942.35	6072.23
942.52	6137.76
942.69	6012.84
942.85	5924.77
943.02	5881.77
943.18	6070.18
943.35	5943.21
943.52	5826.47
943.68	5724.07
943.85	5746.60
944.01	5601.19
944.18	5613.48
944.35	5765.03
944.51	5656.49
944.68	5472.17
944.84	5445.55
945.01	5433.26
945.17	5668.78
945.34	5513.13
945.51	5539.76
945.67	5550.00
945.84	5513.13
946.00	5431.21
946.17	5443.50
946.33	5371.82
946.50	5582.76
946.67	5355.44
946.83	5357.49
947.00	5384.11
947.16	5369.77
947.33	5369.77
947.49	5412.78
947.66	5359.53
947.82	5457.84
947.99	5353.39
948.16	5375.92
948.32	5281.71
948.49	5334.96
948.65	5504.94
948.82	5341.10
948.98	5199.79
949.15	5418.93
949.31	5291.95
949.48	5339.05
949.64	5238.70
949.81	5388.21
949.97	5273.52
950.14	5414.83
950.30	5308.34
950.47	5298.10
950.63	5222.32
950.80	5365.68
950.96	5371.82
951.13	5347.25
951.30	5431.21
951.46	5367.73
951.63	5373.87
951.79	5341.10
951.96	5543.85
952.12	5513.13
952.29	5498.80
952.45	5439.40
952.62	5332.91
952.78	5578.67
952.94	5472.17
953.11	5506.99
953.27	5328.81
953.44	5535.66
953.60	5453.74
953.77	5638.06
953.93	5550.00
954.10	5390.25
954.26	5562.28
954.43	5461.93
954.59	5586.86
954.76	5672.87
954.92	5498.80
955.09	5552.04
955.25	5566.38
955.42	5394.35
955.58	5574.57
955.75	5439.40
955.91	5468.08
956.07	5466.03
956.24	5513.13
956.40	5486.51
956.57	5689.26
956.73	5423.02
956.90	5613.48
957.06	5375.92
957.23	5451.69
957.39	5394.35
957.56	5519.28
957.72	5523.37
957.88	5314.48
958.05	5627.82
958.21	5554.09
958.38	5519.28
958.54	5550.00
958.71	5615.53
958.87	5509.04
959.03	5562.28
959.20	5580.71
959.36	5554.09
959.53	5509.04
959.69	5453.74
959.85	5619.63
960.02	5367.73
960.18	5732.26
960.35	5457.84
960.51	5515.18
960.68	5558.19
960.84	5492.65
961.00	5502.89
961.17	5556.14
961.33	5345.20
961.50	5601.19
961.66	5572.52
961.82	5525.42
961.99	5461.93
962.15	5461.93
962.31	5521.32
962.48	5664.68
962.64	5420.97
962.81	5316.53
962.97	5369.77
963.13	5545.90
963.30	5484.46
963.46	5373.87
963.62	5304.24
963.79	5326.77
963.95	5506.99
964.12	5359.53
964.28	5486.51
964.44	5337.01
964.61	5429.17
964.77	5533.61
964.93	5420.97
965.10	5468.08
965.26	5380.01
965.42	5425.07
965.59	5359.53
965.75	5492.65
965.92	5312.43
966.08	5392.30
966.24	5375.92
966.41	5373.87
966.57	5435.31
966.73	5228.46
966.90	5337.01
967.06	5380.01
967.22	5279.66
967.39	5214.13
967.55	5281.71
967.71	5216.18
967.88	5261.23
968.04	5189.55
968.20	5224.37
968.37	5119.92
968.53	5136.31
968.69	5334.96
968.85	5224.37
969.02	5246.90
969.18	5171.12
969.34	5191.60
969.51	5230.51
969.67	5255.09
969.83	5210.03
970.00	5144.50
970.16	5259.18
970.32	5048.24
970.48	5275.57
970.65	5046.20
970.81	5095.35
970.97	5183.41
971.14	5091.25
971.30	5140.40
971.46	5074.87
971.63	5099.44
971.79	5160.88
971.95	5095.35
972.11	5007.28
972.28	4956.08
972.44	5042.10
972.60	4888.50
972.76	4943.80
972.93	4896.69
973.09	4937.65
973.25	4908.98
973.42	4982.71
973.58	4843.45
973.74	4974.52
973.90	4980.66
974.07	4839.35
974.23	4870.07
974.39	4849.59
974.55	4796.34
974.72	4751.29
974.88	4732.86
975.04	4837.30
975.20	4716.47
975.37	4788.15
975.53	4816.82
975.69	4843.45
975.85	4794.29
976.01	4730.81
976.18	4632.51
976.34	4923.32
976.50	4767.67
976.66	4859.83
976.83	4857.78
976.99	4743.10
977.15	4681.66
977.31	4650.94
977.47	4698.04
977.64	4714.42
977.80	4634.55
977.96	4663.22
978.12	4648.89
978.29	4704.18
978.45	4577.21
978.61	4530.11
978.77	4659.13
978.93	4597.69
979.10	4573.11
979.26	4612.03
979.42	4636.60
979.58	4452.28
979.74	4530.11
979.91	4515.77
980.07	4489.15
980.23	4554.68
980.39	4526.01
980.55	4515.77
980.71	4507.58
980.88	4366.27
981.04	4310.97
981.20	4460.48
981.36	4409.28
981.52	4446.14
981.68	4427.71
981.85	4423.61
982.01	4413.37
982.17	4374.46
982.33	4370.37
982.49	4450.24
982.65	4239.30
982.82	4362.17
982.98	4386.75
983.14	4288.45
983.30	4190.14
983.46	4284.35
983.62	4278.21
983.79	4345.79
983.95	4136.90
984.11	4151.23
984.27	4327.36
984.43	4306.88
984.59	4229.06
984.75	4278.21
984.91	4251.58
985.08	4194.24
985.24	4132.80
985.40	4007.87
985.56	4216.77
985.72	4194.24
985.88	4159.42
986.04	4046.79
986.20	4118.47
986.37	4155.33
986.53	4120.51
986.69	4202.43
986.85	4132.80
987.01	4042.69
987.17	4077.51
987.33	4003.78
987.49	4128.70
987.65	4095.94
987.82	3846.09
987.98	3985.35
988.14	4007.87
988.30	4044.74
988.46	3841.99
988.62	4011.97
988.78	3975.11
988.94	3925.96
989.10	3940.29
989.26	3817.41
989.42	3852.23
989.59	3923.91
989.75	3915.72
989.91	3985.35
990.07	3667.91
990.23	3872.71
990.39	3805.13
990.55	3885.00
990.71	3743.69
990.87	3903.43
991.03	3801.03
991.19	3770.31
991.35	3825.61
991.51	3964.87
991.67	3887.04
991.83	3862.47
992.00	3762.12
992.16	3829.70
992.32	3723.21
992.48	3870.66
992.64	3680.20
992.80	3733.45
992.96	3665.86
993.12	3766.21
993.28	3731.40
993.44	3665.86
993.60	3676.10
993.76	3743.69
993.92	3743.69
994.08	3608.52
994.24	3723.21
994.40	3649.48
994.56	3686.34
994.72	3606.47
994.88	3528.65
995.04	3614.66
995.20	3547.08
995.36	3438.54
995.52	3499.98
995.68	3532.75
995.84	3557.32
996.00	3778.50
996.16	3524.55
996.32	3532.75
996.48	3481.55
996.64	3551.18
996.80	3483.59
996.96	3477.45
997.12	3495.88
997.28	3323.85
997.44	3432.40
997.60	3397.58
997.76	3518.41
997.92	3528.65
998.08	3377.10
998.24	3297.23
998.40	3452.88
998.56	3475.40
998.72	3305.42
998.88	3334.09
999.04	3317.71
999.20	3452.88
999.36	3334.09
999.52	3430.35
999.68	3246.03
999.84	3330.00
1000.00	3356.62
1000.16	3350.48
1000.32	3289.04
1000.48	3411.92
1000.64	3207.12
1000.80	3178.45
1000.95	3313.61
1001.11	3295.18
1001.27	3188.69
1001.43	3215.31
1001.59	3164.11
1001.75	3198.93
1001.91	3282.89
1002.07	3155.92
1002.23	3188.69
1002.39	3106.77
1002.55	3086.29
1002.71	3080.14
1002.87	3164.11
1003.03	3098.58
1003.19	3235.79
1003.34	3145.68
1003.50	3141.58
1003.66	3092.43
1003.82	3094.48
1003.98	3108.82
1004.14	3090.38
1004.30	3117.01
1004.46	3078.10
1004.62	3039.19
1004.78	3051.47
1004.94	3108.82
1005.09	3055.57
1005.25	3135.44
1005.41	3057.62
1005.57	3067.86
1005.73	2985.94
1005.89	2973.65
1006.05	2985.94
1006.21	2967.51
1006.37	2918.36
1006.52	2842.58
1006.68	2899.92
1006.84	2934.74
1007.00	2879.44
1007.16	3004.37
1007.32	2818.00
1007.48	2938.84
1007.64	2961.36
1007.79	2875.35
1007.95	2826.20
1008.11	2871.25
1008.27	2846.68
1008.43	2832.34
1008.59	2928.60
1008.75	2949.08
1008.91	2951.12
1009.06	2856.92
1009.22	2863.06
1009.38	2879.44
1009.54	2838.48
1009.70	2762.71
1009.86	2770.90
1010.01	2801.62
1010.17	2772.95
1010.33	2756.57
1010.49	2797.53
1010.65	2924.50
1010.81	2686.94
1010.96	2766.81
1011.12	2697.17
1011.28	2617.30
1011.44	2795.48
1011.60	2803.67
1011.76	2578.39
1011.91	2830.29
1012.07	2731.99
1012.23	2650.07
1012.39	2582.49
1012.55	2697.17
1012.71	2619.35
1012.86	2686.94
1013.02	2701.27
1013.18	2654.17
1013.34	2629.59
1013.50	2633.69
1013.65	2609.11
1013.81	2623.45
1013.97	2711.51
1014.13	2592.73
1014.29	2584.54
1014.44	2680.79
1014.60	2557.91
1014.76	2605.02
1014.92	2584.54
1015.07	2510.81
1015.23	2623.45
1015.39	2506.71
1015.55	2590.68
1015.71	2525.15
1015.86	2545.63
1016.02	2523.10
1016.18	2531.29
1016.34	2592.73
1016.49	2516.95
1016.65	2566.10
1016.81	2519.00
1016.97	2547.67
1017.12	2527.19
1017.28	2418.65
1017.44	2475.99
1017.60	2484.19
1017.75	2506.71
1017.91	2531.29
1018.07	2492.38
1018.23	2455.51
1018.38	2467.80
1018.54	2369.50
1018.70	2459.61
1018.86	2484.19
1019.01	2338.78
1019.17	2453.47
1019.33	2490.33
1019.49	2478.04
1019.64	2437.08
1019.80	2523.10
1019.96	2394.08
1020.12	2428.89
1020.27	2355.16
1020.43	2418.65
1020.59	2402.27
1020.74	2396.12
1020.90	2453.47
1021.06	2396.12
1021.22	2404.32
1021.37	2383.84
1021.53	2316.25
1021.69	2332.64
1021.84	2263.01
1022.00	2275.29
1022.16	2312.16
1022.31	2377.69
1022.47	2336.73
1022.63	2326.49
1022.79	2220.00
1022.94	2328.54
1023.10	2406.36
1023.26	2301.92
1023.41	2256.86
1023.57	2353.12
1023.73	2320.35
1023.88	2281.44
1024.04	2295.77
1024.20	2299.87
1024.35	2248.67
1024.51	2289.63
1024.67	2170.85
1024.82	2408.41
1024.98	2197.47
1025.14	2248.67
1025.29	2260.96
1025.45	2334.68
1025.61	2181.09
1025.76	2174.94
1025.92	2203.61
1026.08	2189.28
1026.23	2240.48
1026.39	2271.20
1026.55	2176.99
1026.70	2211.81
1026.86	2107.36
1027.02	2293.72
1027.17	2232.29
1027.33	2179.04
1027.48	2140.13
1027.64	2125.79
1027.80	2191.33
1027.95	2205.66
1028.11	2113.50
1028.27	2183.13
1028.42	2164.70
1028.58	2172.89
1028.73	2123.74
1028.89	2074.59
1029.05	2213.85
1029.20	2176.99
>>>>>End Processed Spectral Data<<<<<
