SpectraSuite Data File
++++++++++++++++++++++++++++++++++++
Date: Fri Jun 02 14:57:16 CEST 2017
User: INFO_000
Dark Spectrum Present: No
Reference Spectrum Present: No
Number of Sampled Component Spectra: 1
Spectrometers: USB4H00879
Integration Time (usec): 80000 (USB4H00879)
Spectra Averaged: 1 (USB4H00879)
Boxcar Smoothing: 0 (USB4H00879)
Correct for Electrical Dark: No (USB4H00879)
Strobe/Lamp Enabled: No (USB4H00879)
Correct for Detector Non-linearity: No (USB4H00879)
Correct for Stray Light: No (USB4H00879)
Number of Pixels in Processed Spectrum: 3648
>>>>>Begin Processed Spectral Data<<<<<
345.13	1275.88
345.34	1275.88
345.56	1275.88
345.78	1183.73
345.99	1286.12
346.21	1736.68
346.42	1667.05
346.64	1683.43
346.86	1785.83
347.07	1656.81
347.29	1687.53
347.50	1609.70
347.72	1679.33
347.94	1773.54
348.15	1542.12
348.37	1697.77
348.59	1720.29
348.80	1689.57
349.02	1763.30
349.23	1798.12
349.45	1685.48
349.67	1712.10
349.88	1671.14
350.10	1853.41
350.31	1759.21
350.53	1708.01
350.75	1798.12
350.96	1691.62
351.18	1761.25
351.39	1785.83
351.61	1650.66
351.82	1812.45
352.04	1773.54
352.26	1654.76
352.47	1740.77
352.69	1814.50
352.90	1658.85
353.12	1675.24
353.34	1679.33
353.55	1783.78
353.77	1656.81
353.98	1753.06
354.20	1703.91
354.41	1847.27
354.63	1816.55
354.85	1961.95
355.06	1781.73
355.28	1691.62
355.49	1779.68
355.71	1656.81
355.92	1759.21
356.14	1726.44
356.35	1734.63
356.57	1665.00
356.79	1732.58
357.00	1695.72
357.22	1800.16
357.43	1652.71
357.65	1757.16
357.86	1687.53
358.08	1710.05
358.29	1781.73
358.51	1728.49
358.72	1757.16
358.94	1744.87
359.16	1728.49
359.37	1746.92
359.59	1687.53
359.80	1728.49
360.02	1716.20
360.23	1759.21
360.45	1787.88
360.66	1712.10
360.88	1642.47
361.09	1695.72
361.31	1767.40
361.52	1728.49
361.74	1763.30
361.95	1855.46
362.17	1697.77
362.38	1849.32
362.60	1882.08
362.81	1699.81
363.03	1724.39
363.24	1763.30
363.46	1839.08
363.67	1775.59
363.89	1779.68
364.10	1722.34
364.32	1683.43
364.53	1794.02
364.75	1615.85
364.96	1771.49
365.18	1806.31
365.39	1689.57
365.61	1671.14
365.82	1767.40
366.04	1712.10
366.25	1599.46
366.47	1785.83
366.68	1728.49
366.90	1699.81
367.11	1730.53
367.33	1732.58
367.54	1794.02
367.76	1744.87
367.97	1810.40
368.19	1675.24
368.40	1787.88
368.62	1691.62
368.83	1648.61
369.05	1718.25
369.26	1740.77
369.48	1691.62
369.69	1671.14
369.91	1720.29
370.12	1640.42
370.33	1771.49
370.55	1669.09
370.76	1683.43
370.98	1736.68
371.19	1656.81
371.41	1667.05
371.62	1658.85
371.84	1644.52
372.05	1834.98
372.27	1781.73
372.48	1761.25
372.69	1673.19
372.91	1746.92
373.12	1781.73
373.34	1828.84
373.55	1785.83
373.77	1794.02
373.98	1714.15
374.20	1828.84
374.41	1857.51
374.62	1724.39
374.84	1798.12
375.05	1734.63
375.27	1781.73
375.48	1800.16
375.70	1658.85
375.91	1738.73
376.12	1834.98
376.34	1699.81
376.55	1765.35
376.77	1769.44
376.98	1697.77
377.19	1730.53
377.41	1703.91
377.62	1781.73
377.84	1861.60
378.05	1914.85
378.27	1789.92
378.48	1849.32
378.69	1877.99
378.91	1841.12
379.12	1875.94
379.34	1746.92
379.55	1857.51
379.76	1777.64
379.98	1791.97
380.19	1773.54
380.41	1771.49
380.62	1724.39
380.83	1771.49
381.05	1720.29
381.26	1927.14
381.47	1763.30
381.69	1742.82
381.90	1898.47
382.12	1699.81
382.33	1796.07
382.54	1689.57
382.76	1789.92
382.97	1783.78
383.19	1748.97
383.40	1902.56
383.61	1687.53
383.83	1734.63
384.04	1773.54
384.25	1734.63
384.47	1806.31
384.68	1748.97
384.89	1652.71
385.11	1851.36
385.32	1740.77
385.54	1753.06
385.75	1794.02
385.96	1773.54
386.18	1796.07
386.39	1865.70
386.60	1738.73
386.82	1798.12
387.03	1769.44
387.24	1757.16
387.46	1718.25
387.67	1771.49
387.88	1900.52
388.10	1767.40
388.31	1816.55
388.52	1810.40
388.74	1830.88
388.95	1742.82
389.16	1820.64
389.38	1697.77
389.59	1830.88
389.80	1923.04
390.02	1839.08
390.23	1929.19
390.44	1759.21
390.66	1753.06
390.87	1712.10
391.08	1740.77
391.30	1888.23
391.51	1851.36
391.72	1857.51
391.94	1855.46
392.15	1888.23
392.36	1761.25
392.58	1814.50
392.79	1820.64
393.00	1847.27
393.22	1865.70
393.43	1978.34
393.64	1984.48
393.85	1980.39
394.07	1773.54
394.28	1832.93
394.49	1771.49
394.71	1990.63
394.92	1910.75
395.13	1800.16
395.35	1730.53
395.56	1732.58
395.77	1972.19
395.98	1798.12
396.20	1912.80
396.41	1961.95
396.62	1959.91
396.84	1853.41
397.05	1802.21
397.26	1875.94
397.47	2047.97
397.69	1869.80
397.90	2129.89
398.11	1961.95
398.32	1810.40
398.54	1812.45
398.75	1902.56
398.96	1957.86
399.18	1974.24
399.39	1837.03
399.60	2027.49
399.81	1839.08
400.03	1861.60
400.24	1945.57
400.45	1974.24
400.66	1914.85
400.88	1787.88
401.09	1998.82
401.30	1794.02
401.51	2064.35
401.73	1892.32
401.94	1992.67
402.15	1949.67
402.36	2088.93
402.58	1978.34
402.79	2093.02
403.00	1996.77
403.21	2062.30
403.43	2013.15
403.64	2090.98
403.85	2021.35
404.06	2058.21
404.27	1998.82
404.49	2015.20
404.70	2054.11
404.91	2013.15
405.12	1939.43
405.34	1972.19
405.55	2131.94
405.76	1910.75
405.97	2004.96
406.19	2416.60
406.40	1912.80
406.61	2103.26
406.82	1966.05
407.03	1980.39
407.25	1925.09
407.46	2174.94
407.67	2082.78
407.88	2371.55
408.09	2107.36
408.31	1980.39
408.52	2148.32
408.73	2099.17
408.94	2109.41
409.15	2043.87
409.37	2199.52
409.58	2125.79
409.79	2074.59
410.00	2244.57
410.21	1994.72
410.43	2158.56
410.64	1935.33
410.85	2113.50
411.06	2260.96
411.27	2224.09
411.48	2226.14
411.70	2308.06
411.91	2213.85
412.12	2424.80
412.33	2402.27
412.54	2150.37
412.76	2359.26
412.97	2271.20
413.18	2101.22
413.39	2113.50
413.60	2375.64
413.81	2248.67
414.03	2185.18
414.24	2191.33
414.45	2525.15
414.66	2273.25
414.87	2459.61
415.08	2111.46
415.30	2295.77
415.51	2371.55
415.72	2144.22
415.93	2496.47
416.14	2224.09
416.35	2371.55
416.56	2361.31
416.78	2351.07
416.99	2338.78
417.20	2207.71
417.41	2527.19
417.62	2432.99
417.83	2234.33
418.04	2265.05
418.26	2701.27
418.47	2410.46
418.68	2529.24
418.89	2426.84
419.10	2746.33
419.31	2516.95
419.52	2346.97
419.73	2289.63
419.95	2684.89
420.16	2320.35
420.37	2496.47
420.58	2297.82
420.79	2363.36
421.00	2365.40
421.21	2283.49
421.42	2725.85
421.63	2504.67
421.85	2596.82
422.06	2486.23
422.27	2727.89
422.48	2590.68
422.69	2553.82
422.90	2613.21
423.11	2490.33
423.32	2818.00
423.53	2797.53
423.75	2459.61
423.96	2703.32
424.17	2783.19
424.38	3010.51
424.59	2760.66
424.80	2697.17
425.01	2807.77
425.22	2705.37
425.43	2809.81
425.64	2973.65
425.85	3397.58
426.06	3256.27
426.28	2977.75
426.49	2607.06
426.70	2850.77
426.91	2932.69
427.12	3129.30
427.33	3284.94
427.54	3092.43
427.75	3188.69
427.96	3344.33
428.17	3456.97
428.38	2924.50
428.59	3229.65
428.80	3168.21
429.01	3203.02
429.23	2957.27
429.44	3051.47
429.65	3303.37
429.86	3379.15
430.07	3489.74
430.28	3272.65
430.49	3463.12
430.70	3110.86
430.91	3606.47
431.12	3618.76
431.33	3493.83
431.54	3688.39
431.75	3373.00
431.96	3479.50
432.17	3635.14
432.38	3585.99
432.59	3608.52
432.80	3686.34
433.01	3811.27
433.22	3518.41
433.43	3672.01
433.64	3887.04
433.85	3585.99
434.06	3770.31
434.27	3571.66
434.49	3653.58
434.70	4009.92
434.91	3798.98
435.12	3878.85
435.33	3688.39
435.54	3907.52
435.75	3489.74
435.96	3604.42
436.17	3809.22
436.38	3981.25
436.59	3997.64
436.80	3647.43
437.01	3923.91
437.22	4087.75
437.43	4022.21
437.64	3778.50
437.85	3977.16
438.06	4366.27
438.27	3493.83
438.48	4097.99
438.69	4071.36
438.90	4241.34
439.11	4267.97
439.32	4589.50
439.53	4044.74
439.74	4134.85
439.95	4231.10
440.16	4042.69
440.37	4114.37
440.57	4159.42
440.78	4495.29
440.99	4644.79
441.20	4054.98
441.41	4474.81
441.62	4341.69
441.83	4319.17
442.04	4503.48
442.25	4300.73
442.46	4450.24
442.67	4511.68
442.88	4691.90
443.09	4329.41
443.30	4337.60
443.51	4325.31
443.72	4612.03
443.93	4573.11
444.14	4882.36
444.35	4171.71
444.56	4513.72
444.77	4507.58
444.98	5013.43
445.19	5152.69
445.40	4630.46
445.61	4753.34
445.81	4755.38
446.02	4827.06
446.23	4802.49
446.44	4751.29
446.65	5162.93
446.86	5367.73
447.07	5392.30
447.28	4982.71
447.49	4937.65
447.70	5240.75
447.91	5459.88
448.12	5013.43
448.33	5435.31
448.54	5167.03
448.74	4927.41
448.95	5404.59
449.16	5007.28
449.37	5429.17
449.58	5492.65
449.79	5560.24
450.00	5255.09
450.21	5363.63
450.42	5873.57
450.63	5484.46
450.84	5410.73
451.05	5662.63
451.25	5369.77
451.46	5412.78
451.67	5650.35
451.88	5787.56
452.09	5572.52
452.30	5328.81
452.51	5560.24
452.72	5519.28
452.93	6277.02
453.13	5343.15
453.34	5666.73
453.55	5988.26
453.76	5834.66
453.97	6244.26
454.18	5470.12
454.39	5840.81
454.60	6014.88
454.81	6004.64
455.01	6135.71
455.22	5490.60
455.43	6211.49
455.64	6709.15
455.85	6215.59
456.06	6516.64
456.27	6449.05
456.48	6084.52
456.68	6606.75
456.89	6586.27
457.10	6313.89
457.31	6061.99
457.52	6004.64
457.73	6506.40
457.94	6737.82
458.14	6535.07
458.35	7253.91
458.56	6383.52
458.77	6678.43
458.98	6850.46
459.19	6971.29
459.39	6973.33
459.60	7290.77
459.81	6926.23
460.02	7223.19
460.23	7143.32
460.44	7311.25
460.65	7128.98
460.85	7147.41
461.06	7163.79
461.27	7008.15
461.48	7317.39
461.69	7327.63
461.89	7151.51
462.10	7356.30
462.31	6940.57
462.52	7630.73
462.73	7671.69
462.94	7731.08
463.14	7667.60
463.35	7653.26
463.56	8517.50
463.77	8146.82
463.98	7976.84
464.18	7612.30
464.39	8597.37
464.60	8382.34
464.81	8204.16
465.02	8560.51
465.23	8521.60
465.43	8472.45
465.64	8640.38
465.85	8175.49
466.06	8425.34
466.27	8920.95
466.47	8824.70
466.68	8632.19
466.89	8810.36
467.10	8963.96
467.30	8392.58
467.51	9336.69
467.72	8892.28
467.93	8853.37
468.14	8814.46
468.34	9537.39
468.55	9236.34
468.76	9338.74
468.97	9117.56
469.17	9652.08
469.38	9275.25
469.59	9709.42
469.80	9195.38
470.01	9609.07
470.21	9281.39
470.42	10207.08
470.63	9983.85
470.84	10069.86
471.04	9826.15
471.25	10530.66
471.46	9975.66
471.67	10829.66
471.87	10471.26
472.08	10352.48
472.29	10405.73
472.50	10319.71
472.70	10807.13
472.91	10329.95
473.12	11011.93
473.33	10661.73
473.53	11128.66
473.74	10780.51
473.95	11337.56
474.16	11452.24
474.36	11226.96
474.57	11802.44
474.78	11566.93
474.99	11679.57
475.19	11353.94
475.40	11800.40
475.61	12250.95
475.81	11353.94
476.02	12156.74
476.23	12257.09
476.44	12232.52
476.64	12373.83
476.85	12703.55
477.06	12502.85
477.27	13121.34
477.47	13037.37
477.68	12928.83
477.89	12889.92
478.09	12857.15
478.30	12910.40
478.51	13014.84
478.71	13266.74
478.92	13305.65
479.13	13428.53
479.34	13782.83
479.54	14057.26
479.75	13592.37
479.96	14020.39
480.16	13872.94
480.37	14114.60
480.58	14200.62
480.78	14610.21
480.99	14313.25
481.20	14642.98
481.41	14397.22
481.61	14806.81
481.82	14978.84
482.03	14913.31
482.23	14642.98
482.44	14972.70
482.65	15329.05
482.85	15361.81
483.06	15204.12
483.27	15552.27
483.47	15359.77
483.68	15341.33
483.89	15666.96
484.09	15826.70
484.30	15750.93
484.51	15773.46
484.71	16359.17
484.92	16207.62
485.13	16480.00
485.33	16559.88
485.54	16385.80
485.75	16424.71
485.95	17024.76
486.16	16690.95
486.37	17086.20
486.57	16584.45
486.78	16891.65
486.98	17331.96
487.19	16832.26
487.40	17315.58
487.60	17307.38
487.81	17493.75
488.02	17506.04
488.22	17516.28
488.43	17987.31
488.64	18140.91
488.84	18011.89
489.05	18185.96
489.25	18179.82
489.46	18245.35
489.67	18235.11
489.87	18794.21
490.08	18654.95
490.29	18669.28
490.49	18824.93
490.70	18863.84
490.90	19025.63
491.11	18659.04
491.32	19193.56
491.52	18968.29
491.73	19345.11
491.94	19472.09
492.14	19515.09
492.35	19236.57
492.55	19453.66
492.76	19642.07
492.97	19975.89
493.17	19912.40
493.38	20033.23
493.58	20545.22
493.79	20123.34
494.00	20293.32
494.20	20453.06
494.41	20917.95
494.61	20805.31
494.82	20774.60
495.02	20586.18
495.23	21012.16
495.44	20909.76
495.64	21292.73
495.85	21282.49
496.05	21407.42
496.26	21221.05
496.47	21532.34
496.67	21350.07
496.88	21882.55
497.08	21460.66
497.29	21827.25
497.49	21692.08
497.70	21866.16
497.91	21956.27
498.11	21978.80
498.32	22228.65
498.52	22265.52
498.73	22230.70
498.93	22656.68
499.14	22556.33
499.34	22318.76
499.55	22918.82
499.76	22548.14
499.96	22611.62
500.17	22726.31
500.37	23154.33
500.58	23099.04
500.78	22998.69
500.99	23004.83
501.19	23510.68
501.40	23342.75
501.60	22896.29
501.81	23674.52
502.02	23686.81
502.22	23379.61
502.43	23807.64
502.63	23838.36
502.84	24057.49
503.04	23785.11
503.25	24077.97
503.45	23950.99
503.66	24317.58
503.86	24071.82
504.07	24200.85
504.27	23824.02
504.48	24403.60
504.68	24385.16
504.89	24747.65
505.09	24575.62
505.30	24422.03
505.50	24489.61
505.71	24565.39
505.91	25187.97
506.12	24784.52
506.32	24489.61
506.53	24901.25
506.73	25273.98
506.94	25386.62
507.14	24901.25
507.35	25271.93
507.55	24997.51
507.76	25527.93
507.96	25149.06
508.17	25441.92
508.37	25519.74
508.58	25669.24
508.78	25374.33
508.99	25871.99
509.19	25728.63
509.40	25865.85
509.60	26205.81
509.81	25960.05
510.01	26162.80
510.22	26066.55
510.42	26054.26
510.63	26179.18
510.83	26207.86
511.04	26297.97
511.24	26730.09
511.44	26347.12
511.65	26537.58
511.85	26443.37
512.06	26558.06
512.26	26836.58
512.47	26705.51
512.67	26961.51
512.88	26986.08
513.08	26728.04
513.29	27037.28
513.49	26820.20
513.69	27006.56
513.90	27254.37
514.10	27295.33
514.31	27113.06
514.51	27512.41
514.72	27391.58
514.92	27035.24
515.13	27299.42
515.33	27702.87
515.53	27508.32
515.74	27821.66
515.94	27596.38
516.15	27762.26
516.35	27367.01
516.56	27719.26
516.76	27647.58
516.96	27893.33
517.17	27991.64
517.37	27903.57
517.58	28266.06
517.78	28194.39
517.99	28042.84
518.19	28216.91
518.39	28223.06
518.60	28675.66
518.80	28499.53
519.01	28608.08
519.21	28718.67
519.41	28943.94
519.62	28685.90
519.82	28794.44
520.03	29095.49
520.23	28886.60
520.43	29085.25
520.64	29249.09
520.84	29437.50
521.05	29419.07
521.25	29439.55
521.45	29531.71
521.66	29523.52
521.86	29468.22
522.07	29503.04
522.27	29769.27
522.47	29773.37
522.68	29980.21
522.88	29929.02
523.08	30213.68
523.29	29810.23
523.49	29982.26
523.70	30322.23
523.90	30418.48
524.10	30324.27
524.31	30430.77
524.51	30230.07
524.71	30838.31
524.92	30582.32
525.12	30881.32
525.33	31118.89
525.53	31274.53
525.73	30946.86
525.94	31239.72
526.14	31026.73
526.34	31155.75
526.55	31481.38
526.75	31604.25
526.95	31553.05
527.16	31561.25
527.36	31700.51
527.56	31718.94
527.77	32075.29
527.97	31864.35
528.17	32116.25
528.38	32124.44
528.58	32357.91
528.78	32493.07
528.99	32044.57
529.19	32712.20
529.39	32298.52
529.60	32615.95
529.80	32368.15
530.00	32554.51
530.21	32859.66
530.41	33187.33
530.61	33091.08
530.82	33113.61
531.02	32863.75
531.22	33220.10
531.43	32964.10
531.63	33283.59
531.83	33807.87
532.04	34067.96
532.24	33121.80
532.44	33934.84
532.64	33783.29
532.85	34219.51
533.05	34164.21
533.25	34076.15
533.46	34178.55
533.66	34332.15
533.86	34479.60
534.07	34911.72
534.27	34719.21
534.47	35014.12
534.67	34958.83
534.88	35096.04
535.08	34715.12
535.28	35151.34
535.49	35100.14
535.69	35544.55
535.89	35337.70
536.09	35380.71
536.30	35628.51
536.50	35708.38
536.70	35759.58
536.91	35485.15
537.11	35665.38
537.31	35970.52
537.51	36236.76
537.72	36124.12
537.92	36984.27
538.12	36675.02
538.32	36662.74
538.53	36681.17
538.73	36482.52
538.93	36730.32
539.13	36634.06
539.34	36924.88
539.54	36933.07
539.74	36937.16
539.94	36615.63
540.15	36888.01
540.35	37248.46
540.55	37307.85
540.75	37191.11
540.96	37504.45
541.16	37656.00
541.36	37508.55
541.56	37758.40
541.77	37901.76
541.97	38073.79
542.17	37993.92
542.37	37731.78
542.58	38069.69
542.78	38452.66
542.98	37895.61
543.18	38626.74
543.38	38528.44
543.59	38315.45
543.79	38249.91
543.99	38593.97
544.19	38712.75
544.40	38360.50
544.60	38802.86
544.80	39187.88
545.00	38581.68
545.20	39347.62
545.41	38829.49
545.61	39105.96
545.81	39382.44
546.01	39181.74
546.21	39443.88
546.42	39331.24
546.62	39908.77
546.82	39331.24
547.02	39417.25
547.22	39364.01
547.43	39409.06
547.63	39509.41
547.83	39935.39
548.03	39968.16
548.23	39816.61
548.44	39861.66
548.64	39855.52
548.84	39947.68
549.04	39826.85
549.24	40359.32
549.45	40676.76
549.65	40125.85
549.85	40076.70
550.05	40687.00
550.25	40002.97
550.45	40834.45
550.66	40381.85
550.86	40189.34
551.06	40754.58
551.26	40842.64
551.46	40910.22
551.66	40955.28
551.87	41115.02
552.07	40658.32
552.27	41088.40
552.47	41293.19
552.67	41463.18
552.87	41229.71
553.07	41246.09
553.28	41383.30
553.48	41360.78
553.68	41262.47
553.88	41485.70
554.08	41788.80
554.28	40945.04
554.48	41432.46
554.69	41268.62
554.89	41801.09
555.09	41565.57
555.29	41704.84
555.49	41891.20
555.69	41973.12
555.89	41932.16
556.10	41770.37
556.30	41864.58
556.50	41860.48
556.70	41876.86
556.90	42280.31
557.10	42358.14
557.30	42079.61
557.50	42294.65
557.70	42368.38
557.91	42544.50
558.11	42345.85
558.31	42331.51
558.51	42274.17
558.71	42669.43
558.91	43066.73
559.11	42188.16
559.31	42364.28
559.51	42009.98
559.72	42489.21
559.92	42636.66
560.12	42669.43
560.32	42884.47
560.52	42677.62
560.72	43001.20
560.92	43109.74
561.12	42993.01
561.32	43244.91
561.52	42974.58
561.72	43472.23
561.93	42808.69
562.13	43062.64
562.33	42894.71
562.53	43586.92
562.73	42777.97
562.93	43111.79
563.13	43437.42
563.33	43394.41
563.53	43267.44
563.73	43197.80
563.93	43449.70
564.13	43906.40
564.33	43650.41
564.53	43656.55
564.74	43351.40
564.94	43371.88
565.14	43883.87
565.34	43476.33
565.54	43476.33
565.74	43922.79
565.94	44422.49
566.14	43631.97
566.34	44135.77
566.54	44643.67
566.74	43597.16
566.94	44285.28
567.14	44086.62
567.34	43916.64
567.54	44600.66
567.74	44248.41
567.94	44262.75
568.14	44035.42
568.34	44426.59
568.54	44420.44
568.74	44531.03
568.94	44301.66
569.14	44784.98
569.34	44473.69
569.54	44303.71
569.75	44119.39
569.95	44520.79
570.15	44778.84
570.35	44621.14
570.55	44971.35
570.75	44744.02
570.95	44801.36
571.15	45122.90
571.35	44852.56
571.55	45370.70
571.75	45151.57
571.95	45210.96
572.15	44973.39
572.35	45051.22
572.55	45075.79
572.75	45075.79
572.95	44967.25
573.15	45047.12
573.35	44952.91
573.55	45303.12
573.75	45346.12
573.95	45450.57
574.15	45374.80
574.35	45567.30
574.55	45655.37
574.75	45573.45
574.95	45776.20
575.15	45692.23
575.34	45579.59
575.54	45753.67
575.74	45872.45
575.94	46040.39
576.14	45591.88
576.34	46024.00
576.54	46075.20
576.74	46187.84
576.94	45862.21
577.14	46210.37
577.34	46081.34
577.54	46234.94
577.74	46318.91
577.94	46138.69
578.14	46091.58
578.34	46425.40
578.54	46085.44
578.74	46378.30
578.94	46581.05
579.14	46443.84
579.34	46830.90
579.54	46386.49
579.74	46708.02
579.94	46748.98
580.13	47062.32
580.33	46611.77
580.53	47234.35
580.73	47119.66
580.93	47267.12
581.13	47078.71
581.33	47416.62
581.53	47422.76
581.73	47422.76
581.93	47510.83
582.13	47299.89
582.33	47404.33
582.53	47363.37
582.73	47621.42
582.92	47654.18
583.12	47519.02
583.32	47635.75
583.52	47570.22
583.72	47981.86
583.92	47349.04
584.12	47871.27
584.32	48475.42
584.52	48016.68
584.72	48258.34
584.92	48106.79
585.11	48586.01
585.31	48495.90
585.51	48514.33
585.71	48141.60
585.91	48194.85
586.11	48313.63
586.31	48172.32
586.51	48162.08
586.71	48794.90
586.91	48704.79
587.10	48915.73
587.30	49011.99
587.50	48739.61
587.70	49100.05
587.90	49063.19
588.10	49507.60
588.30	48651.55
588.50	49102.10
588.69	49343.76
588.89	49024.28
589.09	49181.97
589.29	49517.84
589.49	49503.50
589.69	48923.93
589.89	49179.92
590.08	49394.96
590.28	49370.38
590.48	49728.78
590.68	49591.56
590.88	49997.06
591.08	49458.45
591.28	49321.23
591.47	49831.18
591.67	49751.30
591.87	49892.61
592.07	49773.83
592.27	49763.59
592.47	49636.62
592.67	49833.22
592.86	49925.38
593.06	49804.55
593.26	50005.25
593.46	50353.41
593.66	50257.15
593.86	50310.40
594.05	50158.85
594.25	50658.56
594.45	50068.74
594.65	50056.45
594.85	50177.28
595.05	50496.77
595.24	50693.37
595.44	50482.43
595.64	50119.94
595.84	51025.14
596.04	50633.98
596.23	51160.31
596.43	50863.35
596.63	50586.88
596.83	50824.44
597.03	50789.62
597.22	51160.31
597.42	51029.24
597.62	51068.15
597.82	51199.22
598.02	51213.55
598.21	51713.26
598.41	51107.06
598.61	51600.62
598.81	51840.23
599.01	51303.67
599.20	51213.55
599.40	51352.82
599.60	51574.00
599.80	51557.61
600.00	52131.04
600.19	51795.18
600.39	51578.09
600.59	51909.86
600.79	52077.80
600.98	51551.47
601.18	51897.58
601.38	51676.40
601.58	52057.32
601.78	52354.27
601.97	52112.61
602.17	52989.14
602.37	52419.81
602.57	52309.22
602.76	52935.90
602.96	52188.39
603.16	52638.94
603.36	52389.09
603.55	52841.69
603.75	52843.74
603.95	52948.18
604.15	53132.50
604.34	52892.89
604.54	52692.19
604.74	52974.81
604.94	52780.25
605.13	53169.36
605.33	52993.24
605.53	52954.33
605.73	53533.90
605.92	53290.19
606.12	53095.64
606.32	53044.44
606.52	53470.42
606.71	53654.73
606.91	54131.91
607.11	53191.89
607.30	53902.54
607.50	53372.11
607.70	54074.57
607.90	53408.98
608.09	53664.97
608.29	53736.65
608.49	53916.87
608.68	54185.16
608.88	53869.77
609.08	53988.55
609.28	53568.72
609.47	53804.24
609.67	54088.90
609.87	54013.13
610.06	54093.00
610.26	54129.86
610.46	54179.01
610.66	54170.82
610.85	54492.35
611.05	53806.28
611.25	54428.87
611.44	53961.93
611.64	54461.63
611.84	54105.29
612.03	53839.05
612.23	54320.32
612.43	54435.01
612.62	53949.64
612.82	54205.64
613.02	54154.44
613.21	54611.13
613.41	54371.52
613.61	54473.92
613.80	54068.42
614.00	54703.29
614.20	54269.12
614.39	54269.12
614.59	54785.21
614.79	54201.54
614.98	54490.30
615.18	54023.37
615.38	54394.05
615.57	54590.66
615.77	54660.29
615.97	54783.16
616.16	54586.56
616.36	54482.11
616.56	54879.42
616.75	54809.79
616.95	54181.06
617.15	54580.42
617.34	55024.82
617.54	54875.32
617.74	54940.86
617.93	54713.53
618.13	54265.03
618.32	54719.68
618.52	54232.26
618.72	54721.72
618.91	54803.64
619.11	54551.74
619.31	54549.70
619.50	54752.44
619.70	54443.20
619.90	54516.93
620.09	54764.73
620.29	54549.70
620.48	54432.96
620.68	55139.51
620.88	54467.78
621.07	54539.46
621.27	54660.29
621.46	54539.46
621.66	54385.86
621.86	54621.37
622.05	53814.47
622.25	54963.39
622.44	54273.22
622.64	54564.03
622.84	55260.34
623.03	54725.82
623.23	54588.61
623.42	54293.70
623.62	54944.95
623.82	54895.80
624.01	54609.09
624.21	54785.21
624.40	54189.25
624.60	54619.33
624.80	54293.70
624.99	54744.25
625.19	54232.26
625.38	54842.56
625.58	54432.96
625.77	54963.39
625.97	54668.48
626.17	54908.09
626.36	54830.27
626.56	54727.87
626.75	54447.30
626.95	54619.33
627.14	54627.52
627.34	54607.04
627.54	54449.35
627.73	54727.87
627.93	54688.96
628.12	54525.12
628.32	54574.27
628.51	54449.35
628.71	54533.31
628.90	54144.20
629.10	54502.59
629.30	54723.77
629.49	54811.84
629.69	54174.92
629.88	54662.33
630.08	54688.96
630.27	55030.97
630.47	54940.86
630.66	54604.99
630.86	55028.92
631.05	54355.14
631.25	55239.86
631.44	54664.38
631.64	54770.88
631.84	55125.17
632.03	55450.80
632.23	54795.45
632.42	54963.39
632.62	54607.04
632.81	54521.02
633.01	54906.04
633.20	54654.14
633.40	54947.00
633.59	54817.98
633.79	54504.64
633.98	55084.22
634.18	54983.86
634.37	55223.48
634.57	55092.41
634.76	55203.00
634.96	54604.99
635.15	55473.33
635.35	54691.01
635.54	55250.10
635.74	55321.78
635.93	54756.54
636.13	55100.60
636.32	55188.66
636.52	55135.41
636.71	54992.06
636.91	55114.94
637.10	54830.27
637.30	55067.83
637.49	54899.90
637.69	55069.88
637.88	55516.34
638.08	54893.75
638.27	55438.51
638.46	54770.88
638.66	55389.36
638.85	54908.09
639.05	55080.12
639.24	55612.59
639.44	54908.09
639.63	55289.01
639.83	55211.19
640.02	54953.15
640.22	55289.01
640.41	55456.95
640.61	55012.54
640.80	55387.31
640.99	55188.66
641.19	55338.16
641.38	55317.68
641.58	55198.90
641.77	55248.05
641.97	55078.07
642.16	55035.06
642.36	55618.74
642.55	55948.46
642.74	55309.49
642.94	55680.17
643.13	55114.94
643.33	55868.59
643.52	55833.77
643.72	55731.37
643.91	55217.33
644.10	55336.12
644.30	55620.78
644.49	55927.98
644.69	55921.83
644.88	55714.99
645.08	55291.06
645.27	55581.87
645.46	55354.55
645.66	55975.08
645.85	55393.46
646.05	55653.55
646.24	55878.83
646.43	55719.09
646.63	55778.48
646.82	55884.97
647.02	55882.92
647.21	55377.08
647.40	55651.50
647.60	56220.84
647.79	56349.86
647.99	56001.71
648.18	55628.98
648.37	56501.41
648.57	56087.72
648.76	56089.77
648.96	55426.23
649.15	56093.86
649.34	56622.24
649.54	56163.50
649.73	55692.46
649.92	56384.68
650.12	56032.42
650.31	56112.30
650.51	56063.14
650.70	56349.86
650.89	56087.72
651.09	56808.61
651.28	56208.55
651.47	56001.71
651.67	55948.46
651.86	56974.49
652.06	55553.20
652.25	56284.33
652.44	56016.04
652.64	55911.59
652.83	56181.93
653.02	55698.61
653.22	55915.69
653.41	55952.55
653.60	56079.53
653.80	56396.96
653.99	56423.59
654.18	56222.89
654.38	55577.78
654.57	56644.77
654.76	56353.96
654.96	56190.12
655.15	56202.41
655.34	56147.11
655.54	55999.66
655.73	56272.04
655.92	56585.38
656.12	56374.44
656.31	56448.16
656.50	56229.03
656.70	56634.53
656.89	56235.17
657.08	56380.58
657.28	56446.11
657.47	56650.91
657.66	56439.97
657.86	56464.55
658.05	56587.42
658.24	56149.16
658.43	56081.58
658.63	56718.49
658.82	56675.49
659.01	56702.11
659.21	56702.11
659.40	56743.07
659.59	56405.16
659.79	56855.71
659.98	56607.90
660.17	56937.63
660.36	56081.58
660.56	56583.33
660.75	56726.69
660.94	57130.14
661.14	56206.50
661.33	56618.14
661.52	56120.49
661.71	56937.63
661.91	56415.40
662.10	56188.07
662.29	56767.65
662.49	56767.65
662.68	56534.18
662.87	56841.37
663.06	56896.67
663.26	56530.08
663.45	56972.44
663.64	56751.26
663.83	57144.47
664.03	56870.04
664.22	56820.89
664.41	57021.59
664.60	56751.26
664.80	56794.27
664.99	56919.20
665.18	56810.65
665.37	57099.42
665.57	57101.46
665.76	56681.63
665.95	56708.25
666.14	56511.65
666.34	56454.31
666.53	56579.23
666.72	56698.01
666.91	56620.19
667.11	56614.05
667.30	56876.19
667.49	56476.83
667.68	56798.37
667.87	56272.04
668.07	56964.25
668.26	56755.36
668.45	57015.45
668.64	56452.26
668.84	56964.25
669.03	57003.16
669.22	56607.90
669.41	56577.18
669.60	56523.94
669.80	56652.96
669.99	57275.54
670.18	57072.79
670.37	56863.90
670.57	57318.55
670.76	57011.35
670.95	56861.85
671.14	56452.26
671.33	56358.05
671.53	57083.03
671.72	56808.61
671.91	56437.92
672.10	56485.03
672.29	56796.32
672.48	56366.24
672.68	56994.97
672.87	56423.59
673.06	56624.29
673.25	56282.28
673.44	56452.26
673.64	56040.62
673.83	56511.65
674.02	56325.28
674.21	56454.31
674.40	56702.11
674.59	56591.52
674.79	56695.97
674.98	56583.33
675.17	57056.41
675.36	55870.64
675.55	56751.26
675.74	56620.19
675.94	56980.63
676.13	56491.17
676.32	56620.19
676.51	56616.10
676.70	56663.20
676.89	56612.00
677.08	56534.18
677.28	56571.04
677.47	56822.94
677.66	56792.22
677.85	56378.53
678.04	56485.03
678.23	56444.07
678.42	56784.03
678.62	56229.03
678.81	56409.25
679.00	56325.28
679.19	56894.62
679.38	56339.62
679.57	56462.50
679.76	56847.52
679.96	56358.05
680.15	56296.61
680.34	55940.27
680.53	56480.93
680.72	56450.21
680.91	56226.98
681.10	56093.86
681.29	56333.48
681.48	56321.19
681.68	56081.58
681.87	56263.85
682.06	55925.93
682.25	56089.77
682.44	56013.99
682.63	55921.83
682.82	55825.58
683.01	56173.73
683.20	55452.85
683.39	55782.57
683.59	55588.02
683.78	55737.52
683.97	55778.48
684.16	55831.72
684.35	55653.55
684.54	55891.12
684.73	55782.57
684.92	55932.07
685.11	55864.49
685.30	56005.80
685.49	56302.76
685.69	56106.15
685.88	55964.84
686.07	55760.05
686.26	55762.09
686.45	55792.81
686.64	55612.59
686.83	56075.43
687.02	55825.58
687.21	55880.88
687.40	55647.41
687.59	55866.54
687.78	55604.40
687.97	55569.58
688.16	55749.81
688.35	55456.95
688.54	55614.64
688.74	55317.68
688.93	55329.97
689.12	55411.89
689.31	55483.57
689.50	55579.82
689.69	55293.11
689.88	54973.63
690.07	55542.96
690.26	55030.97
690.45	55497.91
690.64	54930.62
690.83	54899.90
691.02	55039.16
691.21	54828.22
691.40	55016.63
691.59	54865.08
691.78	54875.32
691.97	55319.73
692.16	55063.74
692.35	55317.68
692.54	55033.02
692.73	55178.42
692.92	55043.26
693.11	54990.01
693.30	54617.28
693.49	55030.97
693.68	54834.36
693.87	54938.81
694.06	54613.18
694.25	54899.90
694.44	54746.30
694.63	55014.58
694.82	54924.47
695.01	54746.30
695.20	54500.54
695.39	54826.17
695.58	54514.88
695.77	54338.75
695.96	54043.85
696.15	54858.94
696.34	54478.02
696.53	54256.84
696.72	54400.19
696.91	54006.98
697.10	54267.08
697.29	54281.41
697.48	54406.34
697.67	54080.71
697.86	53812.43
698.05	54228.16
698.24	54691.01
698.43	53673.16
698.62	54117.57
698.81	53863.63
699.00	54402.24
699.19	53961.93
699.38	54246.60
699.57	53789.90
699.76	54715.58
699.95	54078.66
700.14	53759.18
700.32	53914.83
700.51	54174.92
700.70	54201.54
700.89	53949.64
701.08	54115.53
701.27	53644.49
701.46	54179.01
701.65	53425.36
701.84	53591.25
702.03	54156.49
702.22	53865.67
702.41	53578.96
702.60	53585.10
702.79	53632.21
702.98	53556.43
703.17	53513.42
703.35	54021.32
703.54	53349.59
703.73	53832.91
703.92	53474.51
704.11	53069.01
704.30	53394.64
704.49	53007.58
704.68	53060.82
704.87	53396.69
705.06	53189.84
705.25	53048.53
705.43	53341.39
705.62	53214.42
705.81	52763.87
706.00	53157.08
706.19	52409.57
706.38	52985.05
706.57	52958.42
706.76	52462.82
706.95	52659.42
707.14	52806.87
707.32	52804.83
707.51	52456.67
707.70	52892.89
707.89	52755.68
708.08	52765.91
708.27	52882.65
708.46	52847.83
708.65	52425.95
708.84	52755.68
709.02	52866.27
709.21	52714.72
709.40	52597.98
709.59	52190.44
709.78	51877.10
709.97	52624.60
710.16	52278.50
710.34	52524.25
710.53	52335.84
710.72	52487.39
710.91	52565.21
711.10	52341.99
711.29	52640.99
711.48	52288.74
711.66	51995.88
711.85	52032.74
712.04	52012.26
712.23	51913.96
712.42	52100.32
712.61	51537.13
712.80	51668.20
712.98	51918.06
713.17	52321.51
713.36	52118.76
713.55	51952.87
713.74	52104.42
713.93	52411.62
714.11	51752.17
714.30	51647.72
714.49	51352.82
714.68	51743.98
714.87	51778.79
715.06	51803.37
715.24	52022.50
715.43	51651.82
715.62	51256.56
715.81	51328.24
716.00	51541.23
716.18	51348.72
716.37	51068.15
716.56	51258.61
716.75	51733.74
716.94	51477.74
717.12	51074.29
717.31	51385.58
717.50	50906.36
717.69	50918.65
717.88	51160.31
718.06	50781.43
718.25	51346.67
718.44	50627.84
718.63	50953.46
718.82	50775.29
719.00	50795.77
719.19	50640.12
719.38	50724.09
719.57	50109.70
719.76	50748.67
719.94	50265.34
720.13	50642.17
720.32	50406.65
720.51	50296.06
720.69	50373.89
720.88	50234.63
721.07	50228.48
721.26	49726.73
721.44	49818.89
721.63	49775.88
721.82	49583.37
722.01	49796.36
722.20	49949.96
722.38	49458.45
722.57	49603.85
722.76	49513.74
722.95	49548.56
723.13	49425.68
723.32	49263.89
723.51	49118.48
723.70	49083.67
723.88	49886.47
724.07	49253.65
724.26	49315.09
724.44	48837.91
724.63	49460.49
724.82	49208.59
725.01	49018.13
725.19	49042.71
725.38	49087.76
725.57	48948.50
725.76	49317.14
725.94	48878.87
726.13	48936.21
726.32	48698.65
726.51	48905.49
726.69	49083.67
726.88	49028.37
727.07	49181.97
727.25	48760.09
727.44	48559.39
727.63	48614.68
727.82	48520.48
728.00	48749.85
728.19	48852.25
728.38	49108.24
728.56	48051.49
728.75	48995.60
728.94	48616.73
729.12	48381.21
729.31	48692.50
729.50	48424.22
729.69	48553.24
729.87	48516.38
730.06	48260.38
730.25	48493.85
730.43	48833.81
730.62	48121.12
730.81	48717.08
730.99	48665.88
731.18	48168.22
731.37	49009.94
731.55	48758.04
731.74	48289.06
731.93	48567.58
732.11	48973.08
732.30	48534.81
732.49	48024.87
732.67	48026.92
732.86	48184.61
733.05	48526.62
733.23	48252.19
733.42	48674.07
733.61	48287.01
733.79	48346.40
733.98	48379.17
734.17	48350.49
734.35	48082.21
734.54	48088.35
734.73	48602.39
734.91	48012.58
735.10	48157.99
735.29	48280.86
735.47	48260.38
735.66	48323.87
735.84	48237.86
736.03	47781.16
736.22	48973.08
736.40	47953.19
736.59	47945.00
736.78	48041.25
736.96	48082.21
737.15	47961.38
737.33	47332.65
737.52	47330.61
737.71	48078.11
737.89	47420.72
738.08	47504.68
738.27	47461.68
738.45	47949.09
738.64	47512.88
738.82	48022.82
739.01	47496.49
739.20	47289.65
739.38	47899.94
739.57	47543.59
739.75	47705.38
739.94	47564.07
740.13	47539.50
740.31	47551.79
740.50	47156.53
740.68	47627.56
740.87	47498.54
741.06	47031.60
741.24	47277.36
741.43	46853.43
741.61	47400.24
741.80	47025.46
741.99	47220.02
742.17	47248.69
742.36	47359.28
742.54	47396.14
742.73	47080.75
742.91	47441.20
743.10	46656.82
743.29	47299.89
743.47	47224.11
743.66	46646.58
743.84	46980.40
744.03	46939.44
744.21	46875.96
744.40	47349.04
744.59	47007.03
744.77	46597.43
744.96	46390.59
745.14	46837.05
745.33	46902.58
745.51	46912.82
745.70	46935.35
745.88	46396.73
746.07	46574.91
746.26	46189.89
746.44	46763.32
746.63	46427.45
746.81	46253.37
747.00	46148.93
747.18	46697.78
747.37	45985.09
747.55	46218.56
747.74	46699.83
747.92	46318.91
748.11	46196.03
748.29	46026.05
748.48	46009.67
748.66	46136.64
748.85	45997.38
749.03	46056.77
749.22	46441.79
749.41	46032.19
749.59	46419.26
749.78	45901.12
749.96	45473.10
750.15	45772.10
750.33	45905.22
750.52	45739.33
750.70	45622.60
750.89	45643.08
751.07	45643.08
751.26	45765.96
751.44	45581.64
751.63	45720.90
751.81	45223.25
752.00	45610.31
752.18	45505.87
752.37	45395.28
752.55	45487.43
752.74	45079.89
752.92	45364.56
753.10	45176.14
753.29	45225.29
753.47	44928.34
753.66	44846.42
753.84	45618.50
754.03	44991.83
754.21	44842.32
754.40	45010.26
754.58	45413.71
754.77	45221.20
754.95	44553.56
755.14	44709.21
755.32	44578.14
755.51	44905.81
755.69	44320.09
755.88	44809.56
756.06	44780.88
756.24	44375.39
756.43	44336.48
756.61	44557.66
756.80	44381.53
756.98	44336.48
757.17	44414.30
757.35	44316.00
757.54	44303.71
757.72	44387.67
757.90	44565.85
758.09	44016.99
758.27	44225.89
758.46	44006.75
758.64	44086.62
758.83	44180.83
759.01	44352.86
759.19	43750.76
759.38	43773.28
759.56	43877.73
759.75	44094.82
759.93	44055.90
760.12	43752.80
760.30	43795.81
760.48	43603.30
760.67	43588.97
760.85	43722.08
761.04	43773.28
761.22	43879.78
761.40	43738.47
761.59	43804.00
761.77	43271.53
761.96	43756.90
762.14	43353.45
762.32	43191.66
762.51	43509.10
762.69	43021.68
762.88	43337.07
763.06	43091.31
763.24	43459.94
763.43	43136.37
763.61	42919.28
763.80	42978.67
763.98	42777.97
764.16	43384.17
764.35	43038.06
764.53	42636.66
764.72	42673.52
764.90	42892.66
765.08	42792.31
765.27	42591.61
765.45	42343.80
765.63	42427.77
765.82	42579.32
766.00	42335.61
766.18	42483.06
766.37	42653.05
766.55	42429.82
766.74	42384.76
766.92	42435.96
767.10	42071.42
767.29	42048.89
767.47	42100.09
767.65	42591.61
767.84	41731.46
768.02	42333.56
768.20	41876.86
768.39	42171.77
768.57	41854.34
768.75	42024.32
768.94	41858.43
769.12	41766.27
769.30	41473.42
769.49	41573.77
769.67	41567.62
769.85	41256.33
770.04	41459.08
770.22	41387.40
770.40	41479.56
770.59	41139.60
770.77	41733.51
770.95	41395.59
771.14	41074.06
771.32	41184.65
771.50	40334.74
771.69	40895.89
771.87	41139.60
772.05	41137.55
772.24	40500.63
772.42	40801.68
772.60	40672.66
772.78	40734.10
772.97	40412.57
773.15	40736.15
773.33	40453.53
773.52	40355.22
773.70	40918.42
773.88	40820.11
774.07	40549.78
774.25	40306.07
774.43	40730.00
774.61	40674.71
774.80	41055.63
774.98	40598.93
775.16	40818.07
775.34	40600.98
775.53	40809.87
775.71	41272.71
775.89	40998.29
776.08	41031.05
776.26	40742.29
776.44	41151.88
776.62	40742.29
776.81	41026.96
776.99	40977.81
777.17	41192.84
777.35	41006.48
777.54	41082.25
777.72	40508.82
777.90	40650.13
778.08	40793.49
778.27	40820.11
778.45	41151.88
778.63	41256.33
778.81	41057.68
779.00	41137.55
779.18	41061.77
779.36	41624.96
779.54	41080.21
779.73	41092.49
779.91	41360.78
780.09	41678.21
780.27	41176.46
780.46	41282.95
780.64	41735.56
780.82	41526.66
781.00	41264.52
781.19	41381.26
781.37	41465.22
781.55	41620.87
781.73	41678.21
781.91	41196.94
782.10	41842.05
782.28	41473.42
782.46	41192.84
782.64	42030.46
782.82	41231.75
783.01	41919.87
783.19	41821.57
783.37	41921.92
783.55	41981.31
783.74	41887.10
783.92	41768.32
784.10	42354.04
784.28	41491.85
784.46	41602.44
784.64	41393.54
784.83	41655.68
785.01	41706.88
785.19	41454.98
785.37	41602.44
785.55	41631.11
785.74	41694.60
785.92	41272.71
786.10	41725.32
786.28	41659.78
786.46	41176.46
786.64	41096.59
786.83	41551.24
787.01	41723.27
787.19	41557.38
787.37	41471.37
787.55	41328.01
787.74	41123.21
787.92	41239.95
788.10	40988.05
788.28	40623.51
788.46	41196.94
788.64	40754.58
788.82	41467.27
789.01	41006.48
789.19	40918.42
789.37	41063.82
789.55	41471.37
789.73	40451.48
789.91	40752.53
790.09	40748.43
790.28	40457.62
790.46	39953.82
790.64	40744.34
790.82	40441.24
791.00	40324.50
791.18	39753.12
791.36	40050.08
791.55	40234.39
791.73	39792.03
791.91	40029.60
792.09	39978.40
792.27	39679.39
792.45	39853.47
792.63	39789.98
792.81	39738.79
793.00	39542.18
793.18	39611.81
793.36	39495.08
793.54	38966.70
793.72	39181.74
793.90	39005.61
794.08	39173.55
794.26	38997.42
794.44	38847.92
794.62	38876.59
794.81	39108.01
794.99	38819.25
795.17	38800.82
795.35	38931.89
795.53	38892.97
795.71	38688.18
795.89	38241.72
796.07	38202.81
796.25	38196.67
796.43	37711.30
796.61	38469.04
796.80	37473.73
796.98	37422.53
797.16	37672.39
797.34	37510.60
797.52	37658.05
797.70	37830.08
797.88	37221.83
798.06	37340.61
798.24	37340.61
798.42	37320.13
798.60	37074.38
798.78	37148.11
798.96	36890.06
799.14	37301.70
799.32	36894.16
799.51	36470.23
799.69	36910.54
799.87	36935.12
800.05	36300.25
800.23	36687.31
800.41	35974.62
800.59	36513.23
800.77	36021.72
800.95	35939.80
801.13	35925.47
801.31	35943.90
801.49	36435.41
801.67	35861.98
801.85	36017.63
802.03	35522.02
802.21	35626.46
802.39	35110.38
802.57	35505.63
802.75	35325.41
802.93	35739.10
803.11	34962.92
803.29	34907.63
803.47	35329.51
803.65	35141.10
803.83	34489.84
804.01	35104.23
804.19	34854.38
804.37	34713.07
804.55	34948.59
804.73	34653.68
804.91	34647.54
805.09	34811.37
805.27	34182.65
805.45	34293.24
805.63	34225.65
805.81	34397.68
805.99	34217.46
806.17	34194.93
806.35	33752.57
806.53	34041.34
806.71	34182.65
806.89	33562.11
807.07	33986.04
807.25	33584.64
807.43	33691.13
807.61	33959.42
807.79	33529.34
807.97	33644.03
808.15	33426.95
808.33	32882.19
808.51	33250.82
808.69	33336.84
808.87	32742.92
809.05	33162.76
809.23	32677.39
809.41	32581.13
809.59	32886.28
809.77	32878.09
809.95	32497.17
810.13	32955.91
810.31	32413.20
810.49	32409.11
810.67	32493.07
810.84	32587.28
811.02	32265.75
811.20	32247.32
811.38	32577.04
811.56	31727.13
811.74	32364.05
811.92	31864.35
812.10	32149.01
812.28	32151.06
812.46	32120.34
812.64	31888.92
812.82	31454.75
813.00	31661.60
813.18	31573.53
813.36	31510.05
813.53	31073.83
813.71	31606.30
813.89	31532.57
814.07	31155.75
814.25	31270.43
814.43	31045.16
814.61	30975.53
814.79	31008.29
814.97	30922.28
815.15	31272.48
815.33	30631.47
815.50	30690.86
815.68	30854.70
815.86	30811.69
816.04	30455.34
816.22	30469.68
816.40	30506.54
816.58	30623.28
816.76	30598.70
816.94	30340.66
817.11	30377.52
817.29	30158.39
817.47	30303.79
817.65	30109.24
817.83	30103.09
818.01	29906.49
818.19	29857.34
818.37	29920.82
818.54	29492.80
818.72	29711.93
818.90	29969.97
819.08	29963.83
819.26	29642.30
819.44	29869.62
819.62	29726.27
819.80	29404.74
819.97	29539.90
820.15	29306.43
820.33	29257.28
820.51	29255.23
820.69	29087.30
820.87	29324.86
821.05	29316.67
821.22	29380.16
821.40	29308.48
821.58	28909.13
821.76	28964.42
821.94	28819.02
822.12	29068.87
822.29	29111.88
822.47	29001.29
822.65	28989.00
822.83	28976.71
823.01	28751.43
823.19	28661.32
823.36	28692.04
823.54	28390.99
823.72	28706.38
823.90	28415.57
824.08	28548.68
824.25	28579.40
824.43	28198.48
824.61	28169.81
824.79	28333.65
824.97	27858.52
825.15	28444.24
825.32	28325.46
825.50	27903.57
825.68	27889.24
825.86	28462.67
826.04	28161.62
826.21	27840.09
826.39	27821.66
826.57	27846.23
826.75	27592.28
826.93	27362.91
827.10	27799.13
827.28	28059.22
827.46	27999.83
827.64	27688.54
827.81	27383.39
827.99	27461.21
828.17	27295.33
828.35	27414.11
828.53	27446.88
828.70	27272.80
828.88	27391.58
829.06	27211.36
829.24	27573.85
829.41	27272.80
829.59	27299.42
829.77	26977.89
829.95	27102.82
830.12	26965.60
830.30	27082.34
830.48	27057.76
830.66	26998.37
830.84	26871.40
831.01	26642.03
831.19	26490.48
831.37	26498.67
831.55	26596.97
831.72	26644.07
831.90	26785.38
832.08	26639.98
832.25	26773.10
832.43	26398.32
832.61	26519.15
832.79	26199.66
832.96	26291.82
833.14	26519.15
833.32	26623.59
833.50	26383.98
833.67	26416.75
833.85	26312.30
834.03	26214.00
834.20	26062.45
834.38	26316.40
834.56	26244.72
834.74	25650.81
834.91	26050.16
835.09	26080.88
835.27	25775.73
835.44	25765.49
835.62	25378.43
835.80	25540.22
835.98	25777.78
836.15	25685.62
836.33	25464.44
836.51	25669.24
836.68	25501.31
836.86	25564.79
837.04	25437.82
837.21	25470.59
837.39	25556.60
837.57	25689.72
837.75	25462.40
837.92	25175.68
838.10	25374.33
838.28	24958.60
838.45	25130.62
838.63	25300.61
838.81	24915.59
838.98	24979.07
839.16	25198.21
839.34	25063.04
839.51	24823.43
839.69	24706.70
839.87	24749.70
840.04	24833.67
840.22	25282.17
840.40	24901.25
840.57	24637.06
840.75	24626.82
840.93	24456.84
841.10	24907.40
841.28	24632.97
841.46	24659.59
841.63	24929.92
841.81	24501.90
841.98	24329.87
842.16	24612.49
842.34	24397.45
842.51	24682.12
842.69	24297.10
842.87	24174.22
843.04	24237.71
843.22	24262.29
843.40	24082.06
843.57	24241.81
843.75	24219.28
843.92	24301.20
844.10	24172.18
844.28	24245.90
844.45	23932.56
844.63	23942.80
844.81	23998.10
844.98	24063.63
845.16	24000.15
845.33	24239.76
845.51	24192.65
845.69	23789.20
845.86	23686.81
846.04	23684.76
846.21	23987.86
846.39	23486.11
846.57	23549.59
846.74	23465.63
846.92	23701.14
847.09	23391.90
847.27	23332.51
847.45	23363.23
847.62	23539.35
847.80	23408.28
847.97	23682.71
848.15	23408.28
848.32	23287.45
848.50	23244.45
848.68	22965.92
848.85	23125.66
849.03	23041.70
849.20	23307.93
849.38	23250.59
849.56	23352.99
849.73	23033.50
849.91	22879.91
850.08	23449.24
850.26	22847.14
850.43	22967.97
850.61	22793.89
850.78	22884.00
850.96	22800.04
851.14	22642.34
851.31	23008.93
851.49	22728.36
851.66	22523.56
851.84	22724.26
852.01	22859.43
852.19	22718.12
852.36	22609.58
852.54	22507.18
852.71	22683.30
852.89	22769.32
853.07	22433.45
853.24	22269.61
853.42	22341.29
853.59	22359.72
853.77	22699.69
853.94	22668.97
854.12	22541.99
854.29	22236.84
854.47	22318.76
854.64	22484.65
854.82	22144.69
854.99	22435.50
855.17	22105.77
855.34	22154.93
855.52	22101.68
855.69	22423.21
855.87	21980.85
856.04	22140.59
856.22	22118.06
856.39	21579.45
856.57	21802.68
856.74	21731.00
856.92	21917.36
857.09	21630.65
857.27	21604.02
857.44	21986.99
857.62	21692.08
857.79	21651.13
857.97	21687.99
858.14	21677.75
858.32	21466.81
858.49	21583.54
858.67	21876.40
858.84	21223.10
859.02	21708.47
859.19	21341.88
859.37	21180.09
859.54	21092.03
859.72	21436.09
859.89	21440.18
860.06	21434.04
860.24	21366.46
860.41	21268.16
860.59	21141.18
860.76	21237.44
860.94	20881.09
861.11	21276.35
861.29	21051.07
861.46	20948.67
861.64	21247.68
861.81	21061.31
861.98	20725.44
862.16	20709.06
862.33	20506.31
862.51	20524.74
862.68	21012.16
862.86	20778.69
863.03	20647.62
863.21	20246.22
863.38	20881.09
863.55	20735.68
863.73	20598.47
863.90	20528.84
864.08	20649.67
864.25	20229.84
864.43	20358.86
864.60	20469.45
864.77	20233.93
864.95	20418.25
865.12	20348.62
865.30	20469.45
865.47	20395.72
865.64	20285.13
865.82	20268.75
865.99	20545.22
866.17	20047.57
866.34	20152.01
866.51	19861.20
866.69	20141.77
866.86	19836.63
867.04	20180.68
867.21	20022.99
867.38	19666.64
867.56	19691.22
867.73	19904.21
867.91	19992.27
868.08	19910.35
868.25	19742.42
868.43	19572.44
868.60	19693.27
868.78	19488.47
868.95	19523.29
869.12	19396.31
869.30	19463.90
869.47	19568.34
869.64	19570.39
869.82	19566.29
869.99	19457.75
870.16	19384.02
870.34	19312.35
870.51	19554.01
870.69	19144.41
870.86	19244.76
871.03	19134.17
871.21	19154.65
871.38	19298.01
871.55	19078.88
871.73	18994.91
871.90	18765.54
872.07	19027.68
872.25	18929.38
872.42	18759.39
872.59	18931.42
872.77	19242.71
872.94	18573.03
873.11	18765.54
873.29	18906.85
873.46	18728.67
873.63	18542.31
873.81	18472.68
873.98	18749.15
874.15	18431.72
874.33	18376.42
874.50	18249.45
874.67	18460.39
874.85	18198.25
875.02	18335.46
875.19	18204.39
875.37	18194.15
875.54	18061.04
875.71	18417.38
875.88	18061.04
876.06	17884.91
876.23	17714.93
876.40	17821.42
876.58	17856.24
876.75	17999.60
876.92	17966.83
877.10	17911.53
877.27	17618.68
877.44	17469.17
877.61	17329.91
877.79	17770.22
877.96	17635.06
878.13	17645.30
878.31	17211.13
878.48	17223.42
878.65	17489.65
878.82	17278.71
879.00	17272.57
879.17	17155.83
879.34	17272.57
879.51	16805.63
879.69	16897.79
879.86	17022.72
880.03	16879.36
880.21	16893.69
880.38	17325.82
880.55	17090.30
880.72	17073.92
880.90	16903.93
881.07	16912.13
881.24	16936.70
881.41	16920.32
881.59	16998.14
881.76	17026.81
881.93	16977.66
882.10	16611.07
882.28	16457.48
882.45	16830.21
882.62	16727.81
882.79	16758.53
882.96	16404.23
883.14	16664.32
883.31	16424.71
883.48	16342.79
883.65	16336.65
883.83	16482.05
884.00	16381.70
884.17	16365.32
884.34	16404.23
884.51	16557.83
884.69	16377.61
884.86	16232.20
885.03	16420.61
885.20	16201.48
885.38	16396.04
885.55	16004.88
885.72	16238.34
885.89	16105.23
886.06	16187.14
886.24	16047.88
886.41	16252.68
886.58	16267.02
886.75	16260.87
886.92	15968.01
887.10	16127.75
887.27	16090.89
887.44	16115.47
887.61	16330.50
887.78	16066.31
887.95	16226.06
888.13	15605.52
888.30	15675.15
888.47	15752.98
888.64	15609.62
888.81	15998.73
888.99	15486.74
889.16	15640.34
889.33	15521.56
889.50	15562.51
889.67	15245.08
889.84	15617.81
890.01	15400.72
890.19	15525.65
890.36	15585.04
890.53	15296.28
890.70	15224.60
890.87	15298.33
891.04	15263.51
891.22	15212.31
891.39	15300.37
891.56	15116.06
891.73	15187.74
891.90	15197.98
892.07	14868.25
892.24	15453.97
892.42	14896.92
892.59	14964.51
892.76	15157.02
892.93	15001.37
893.10	14931.74
893.27	14909.21
893.44	15021.85
893.61	15034.14
893.79	15011.61
893.96	14941.98
894.13	14950.17
894.30	14720.80
894.47	14862.11
894.64	15021.85
894.81	14679.84
894.98	14909.21
895.15	14796.57
895.33	14898.97
895.50	14778.14
895.67	15050.52
895.84	14915.36
896.01	14608.16
896.18	14454.56
896.35	14987.04
896.52	14542.63
896.69	14499.62
896.86	14579.49
897.04	14780.19
897.21	14724.90
897.38	14577.44
897.55	14638.88
897.72	14653.22
897.89	14788.38
898.06	15058.71
898.23	14479.14
898.40	14718.75
898.57	14823.20
898.74	14487.33
898.91	14657.31
899.08	14984.99
899.26	14778.14
899.43	14888.73
899.60	14468.90
899.77	14782.24
899.94	14552.87
900.11	14602.02
900.28	14315.30
900.45	14567.20
900.62	14552.87
900.79	14669.60
900.96	14448.42
901.13	14417.70
901.30	14116.65
901.47	14038.83
901.64	14432.04
901.81	14442.28
901.98	14386.98
902.15	14866.21
902.32	14489.38
902.49	14509.86
902.66	14569.25
902.83	14579.49
903.01	14571.30
903.18	14507.81
903.35	14407.46
903.52	14163.75
903.69	14495.52
903.86	14305.06
904.03	14438.18
904.20	14456.61
904.37	14475.04
904.54	14386.98
904.71	14540.58
904.88	14563.11
905.05	14331.69
905.22	14583.59
905.39	14331.69
905.56	14307.11
905.73	14479.14
905.90	14401.32
906.07	14239.53
906.24	14280.49
906.41	14331.69
906.58	14673.70
906.75	14206.76
906.92	14315.30
907.09	14384.93
907.26	14573.35
907.43	14356.26
907.60	14208.81
907.77	14538.53
907.93	14178.09
908.10	14417.70
908.27	14546.72
908.44	14591.78
908.61	14001.96
908.78	14386.98
908.95	14360.36
909.12	14110.50
909.29	14100.26
909.46	14130.98
909.63	14217.00
909.80	14468.90
909.97	14176.04
910.14	14241.57
910.31	13975.34
910.48	14196.52
910.65	14173.99
910.82	14108.46
910.99	14274.34
911.16	14348.07
911.33	14376.74
911.50	13983.53
911.66	13889.32
911.83	14065.45
912.00	13936.43
912.17	13737.77
912.34	13764.40
912.51	13887.28
912.68	13541.17
912.85	14004.01
913.02	14280.49
913.19	13838.12
913.36	13600.56
913.53	13872.94
913.70	13223.73
913.86	14270.25
914.03	13694.77
914.20	13532.98
914.37	13881.13
914.54	13793.07
914.71	13315.89
914.88	13713.20
915.05	13383.48
915.22	13213.49
915.39	13487.92
915.55	13354.80
915.72	13401.91
915.89	12939.07
916.06	13262.65
916.23	13338.42
916.40	13242.17
916.57	13023.03
916.74	13082.42
916.91	13127.48
917.07	12746.56
917.24	12973.88
917.41	13068.09
917.58	13006.65
917.75	12896.06
917.92	12732.22
918.09	12961.59
918.26	12734.27
918.42	12740.41
918.59	12793.66
918.76	12386.12
918.93	12470.08
919.10	12398.40
919.27	12574.53
919.44	12672.83
919.60	12519.23
919.77	12230.47
919.94	12324.68
920.11	12504.90
920.28	12623.68
920.45	12369.73
920.61	12209.99
920.78	12140.36
920.95	12273.48
921.12	12128.07
921.29	11898.70
921.46	11657.04
921.62	11597.65
921.79	11745.10
921.96	11900.75
922.13	11757.39
922.30	11495.25
922.47	11409.23
922.63	11607.89
922.80	11493.20
922.97	11448.15
923.14	11120.47
923.31	11239.25
923.47	11378.51
923.64	11667.28
923.81	11534.16
923.98	11120.47
924.15	10975.06
924.32	11089.75
924.48	11202.39
924.65	11411.28
924.82	10940.25
924.99	10874.71
925.15	10704.73
925.32	10936.15
925.49	10835.80
925.66	11214.68
925.83	10610.53
925.99	10456.93
926.16	10780.51
926.33	10725.21
926.50	10006.38
926.67	10381.15
926.83	10506.08
927.00	10440.54
927.17	10196.84
927.34	9914.22
927.50	10305.38
927.67	10202.98
927.84	10272.61
928.01	10393.44
928.17	9674.60
928.34	9989.99
928.51	9854.83
928.68	9975.66
928.84	9674.60
929.01	9596.78
929.18	9615.21
929.35	9412.46
929.51	9572.21
929.68	9316.21
929.85	9361.27
930.02	9641.84
930.18	9705.32
930.35	9297.78
930.52	9320.31
930.69	9256.82
930.85	9023.35
931.02	9099.13
931.19	8986.49
931.36	8988.53
931.52	8855.42
931.69	9166.71
931.86	9197.43
932.02	8679.29
932.19	8511.36
932.36	8961.91
932.53	8707.96
932.69	8585.08
932.86	8593.28
933.03	8656.76
933.19	8331.14
933.36	8267.65
933.53	8585.08
933.70	8587.13
933.86	8259.46
934.03	8378.24
934.20	8095.62
934.36	8298.37
934.53	7587.72
934.70	7735.18
934.86	7917.45
935.03	7610.25
935.20	7890.82
935.36	7806.86
935.53	7591.82
935.70	7212.95
935.86	7681.93
936.03	7098.26
936.20	6926.23
936.36	6879.13
936.53	7104.40
936.70	7088.02
936.86	7178.13
937.03	7268.24
937.20	6778.78
937.36	7116.69
937.53	6188.96
937.70	6561.69
937.86	6027.17
938.03	6311.84
938.20	6817.69
938.36	6197.15
938.53	6039.46
938.70	5607.34
938.86	6078.37
939.03	5705.64
939.20	5617.58
939.36	5361.58
939.53	5431.21
939.70	5595.05
939.86	5791.66
940.03	5328.81
940.19	5332.91
940.36	5281.71
940.53	5261.23
940.69	4628.41
940.86	5226.42
941.03	4970.42
941.19	4792.25
941.36	4794.29
941.52	4394.94
941.69	4470.72
941.86	4820.92
942.02	4997.04
942.19	4528.06
942.35	4204.48
942.52	4368.32
942.69	4204.48
942.85	3852.23
943.02	4204.48
943.18	4024.26
943.35	4171.71
943.52	3788.74
943.68	4034.50
943.85	3975.11
944.01	3971.01
944.18	3600.33
944.35	4083.65
944.51	3725.26
944.68	3725.26
944.84	3340.24
945.01	3887.04
945.17	4014.02
945.34	3796.93
945.51	3921.86
945.67	3624.90
945.84	3456.97
946.00	3379.15
946.17	3690.44
946.33	3383.24
946.50	3694.54
946.67	3475.40
946.83	3502.03
947.00	3760.07
947.16	3721.16
947.33	3338.19
947.49	3940.29
947.66	3350.48
947.82	3454.92
947.99	3313.61
948.16	3917.76
948.32	3368.91
948.49	3588.04
948.65	3899.33
948.82	3454.92
948.98	3332.05
949.15	3088.34
949.31	3485.64
949.48	3401.68
949.64	3497.93
949.81	3430.35
949.97	3311.57
950.14	3502.03
950.30	3383.24
950.47	4102.08
950.63	3225.55
950.80	3432.40
950.96	3581.90
951.13	3542.99
951.30	3739.59
951.46	3268.56
951.63	3708.87
951.79	3737.54
951.96	4091.84
952.12	3645.38
952.29	3862.47
952.45	3297.23
952.62	3594.19
952.78	3633.10
952.94	3524.55
953.11	3725.26
953.27	3260.37
953.44	3837.89
953.60	3882.95
953.77	3532.75
953.93	3706.82
954.10	3561.42
954.26	3481.55
954.43	3760.07
954.59	3917.76
954.76	4001.73
954.92	3850.18
955.09	3702.73
955.25	3653.58
955.42	3792.84
955.58	4173.76
955.75	3835.85
955.91	3690.44
956.07	3665.86
956.24	3880.90
956.40	3618.76
956.57	3577.80
956.73	3473.36
956.90	3864.52
957.06	3653.58
957.23	3418.06
957.39	3538.89
957.56	3850.18
957.72	3678.15
957.88	3266.51
958.05	3583.95
958.21	3921.86
958.38	3659.72
958.54	3653.58
958.71	3694.54
958.87	3829.70
959.03	3362.76
959.20	3624.90
959.36	3499.98
959.53	3747.78
959.69	3454.92
959.85	3821.51
960.02	3614.66
960.18	3674.06
960.35	3629.00
960.51	3649.48
960.68	3616.71
960.84	3579.85
961.00	3506.12
961.17	3588.04
961.33	3520.46
961.50	3710.92
961.66	3702.73
961.82	3639.24
961.99	3493.83
962.15	3532.75
962.31	3393.48
962.48	3600.33
962.64	3428.30
962.81	3620.81
962.97	3356.62
963.13	3950.53
963.30	3614.66
963.46	3577.80
963.62	3297.23
963.79	3516.36
963.95	3629.00
964.12	3508.17
964.28	3719.11
964.44	3430.35
964.61	3702.73
964.77	3481.55
964.93	3766.21
965.10	3377.10
965.26	3639.24
965.42	3360.72
965.59	3321.81
965.75	3526.60
965.92	3319.76
966.08	3209.17
966.24	3514.31
966.41	3479.50
966.57	3508.17
966.73	3545.03
966.90	3524.55
967.06	3631.05
967.22	3387.34
967.39	3284.94
967.55	3463.12
967.71	3239.89
967.88	3303.37
968.04	3549.13
968.20	3489.74
968.37	3571.66
968.53	3237.84
968.69	3084.24
968.85	3491.79
969.02	3426.25
969.18	3416.01
969.34	3153.87
969.51	3499.98
969.67	3534.79
969.83	2924.50
970.00	3829.70
970.16	3559.37
970.32	3379.15
970.48	3794.89
970.65	3227.60
970.81	3416.01
970.97	3532.75
971.14	2801.62
971.30	3614.66
971.46	3117.01
971.63	3706.82
971.79	3385.29
971.95	3440.59
972.11	3207.12
972.28	3315.66
972.44	3336.14
972.60	3067.86
972.76	3030.99
972.93	2944.98
973.09	3096.53
973.25	3211.22
973.42	2979.79
973.58	3512.27
973.74	3272.65
973.90	3153.87
974.07	2904.02
974.23	3176.40
974.39	3160.02
974.55	3215.31
974.72	3035.09
974.88	3028.95
975.04	3033.04
975.20	3149.78
975.37	2879.44
975.53	3096.53
975.69	3094.48
975.85	3188.69
976.01	3043.28
976.18	2977.75
976.34	2944.98
976.50	3196.88
976.66	3219.41
976.83	3149.78
976.99	2854.87
977.15	3094.48
977.31	2578.39
977.47	3043.28
977.64	3102.67
977.80	3045.33
977.96	2879.44
978.12	2863.06
978.29	2824.15
978.45	2920.40
978.61	2736.09
978.77	2709.46
978.93	2723.80
979.10	2977.75
979.26	2807.77
979.42	3121.10
979.58	2535.39
979.74	2707.41
979.91	2684.89
980.07	2764.76
980.23	2480.09
980.39	2957.27
980.55	2547.67
980.71	2764.76
980.88	2680.79
981.04	2684.89
981.20	2494.43
981.36	2592.73
981.52	2719.70
981.68	2400.22
981.85	2949.08
982.01	2322.40
982.17	2432.99
982.33	2559.96
982.49	2922.45
982.65	2654.17
982.82	2525.15
982.98	2504.67
983.14	2508.76
983.30	2508.76
983.46	2527.19
983.62	2672.60
983.79	2527.19
983.95	2424.80
984.11	2312.16
984.27	2572.25
984.43	2486.23
984.59	2631.64
984.75	2670.55
984.91	2435.03
985.08	2521.05
985.24	2443.23
985.40	2250.72
985.56	2392.03
985.72	2658.26
985.88	2402.27
986.04	2502.62
986.20	2414.56
986.37	2498.52
986.53	2512.86
986.69	2533.34
986.85	2562.01
987.01	2285.53
987.17	2475.99
987.33	2285.53
987.49	2334.68
987.65	2271.20
987.82	2340.83
987.98	2236.38
988.14	2496.47
988.30	2287.58
988.46	2324.44
988.62	2334.68
988.78	2248.67
988.94	2164.70
989.10	2211.81
989.26	2240.48
989.42	2185.18
989.59	2244.57
989.75	2277.34
989.91	2146.27
990.07	2099.17
990.23	2340.83
990.39	2138.08
990.55	2240.48
990.71	2148.32
990.87	2246.62
991.03	2471.90
991.19	2002.91
991.35	2115.55
991.51	2215.90
991.67	2555.86
991.83	2060.26
992.00	1992.67
992.16	2166.75
992.32	2121.70
992.48	2224.09
992.64	2107.36
992.80	2152.42
992.96	2150.37
993.12	2215.90
993.28	2267.10
993.44	2000.87
993.60	2142.18
993.76	2076.64
993.92	2205.66
994.08	2222.05
994.24	1920.99
994.40	2148.32
994.56	2045.92
994.72	1947.62
994.88	2033.63
995.04	2189.28
995.20	2123.74
995.36	2174.94
995.52	2312.16
995.68	2154.46
995.84	1968.10
996.00	2310.11
996.16	1966.05
996.32	2031.58
996.48	2023.39
996.64	2244.57
996.80	2037.73
996.96	2080.74
997.12	2017.25
997.28	1912.80
997.44	1865.70
997.60	1953.76
997.76	2013.15
997.92	1966.05
998.08	2041.82
998.24	1912.80
998.40	1929.19
998.56	1943.52
998.72	1937.38
998.88	1986.53
999.04	1861.60
999.20	2002.91
999.36	1925.09
999.52	2037.73
999.68	1994.72
999.84	1984.48
1000.00	2002.91
1000.16	2103.26
1000.32	1769.44
1000.48	1953.76
1000.64	1859.56
1000.80	1880.04
1000.95	1759.21
1001.11	2086.88
1001.27	1873.89
1001.43	1943.52
1001.59	1814.50
1001.75	1851.36
1001.91	1914.85
1002.07	1851.36
1002.23	1798.12
1002.39	1892.32
1002.55	1777.64
1002.71	1714.15
1002.87	1968.10
1003.03	1900.52
1003.19	1867.75
1003.34	2115.55
1003.50	1806.31
1003.66	2009.06
1003.82	1904.61
1003.98	1818.60
1004.14	2078.69
1004.30	1830.88
1004.46	1849.32
1004.62	1877.99
1004.78	1845.22
1004.94	1771.49
1005.09	1843.17
1005.25	1843.17
1005.41	1941.47
1005.57	1769.44
1005.73	1781.73
1005.89	1720.29
1006.05	1769.44
1006.21	1839.08
1006.37	1753.06
1006.52	1791.97
1006.68	1722.34
1006.84	1857.51
1007.00	1857.51
1007.16	1869.80
1007.32	1648.61
1007.48	1771.49
1007.64	1775.59
1007.79	1791.97
1007.95	1767.40
1008.11	1880.04
1008.27	1798.12
1008.43	1783.78
1008.59	1810.40
1008.75	1796.07
1008.91	1775.59
1009.06	1798.12
1009.22	1830.88
1009.38	1796.07
1009.54	1828.84
1009.70	1765.35
1009.86	1855.46
1010.01	1812.45
1010.17	1746.92
1010.33	1798.12
1010.49	1746.92
1010.65	1974.24
1010.81	1738.73
1010.96	1828.84
1011.12	1640.42
1011.28	1689.57
1011.44	1935.33
1011.60	1748.97
1011.76	1714.15
1011.91	1806.31
1012.07	1687.53
1012.23	1665.00
1012.39	1632.23
1012.55	1779.68
1012.71	1855.46
1012.86	1705.96
1013.02	1738.73
1013.18	1691.62
1013.34	1652.71
1013.50	1730.53
1013.65	1820.64
1013.81	1820.64
1013.97	1734.63
1014.13	1632.23
1014.29	1763.30
1014.44	1853.41
1014.60	1738.73
1014.76	1691.62
1014.92	1755.11
1015.07	1669.09
1015.23	1753.06
1015.39	1757.16
1015.55	1722.34
1015.71	1712.10
1015.86	1593.32
1016.02	1660.90
1016.18	1611.75
1016.34	1718.25
1016.49	1667.05
1016.65	1765.35
1016.81	1748.97
1016.97	1685.48
1017.12	1722.34
1017.28	1726.44
1017.44	1597.42
1017.60	1728.49
1017.75	1710.05
1017.91	1710.05
1018.07	1755.11
1018.23	1812.45
1018.38	1728.49
1018.54	1716.20
1018.70	1726.44
1018.86	1701.86
1019.01	1675.24
1019.17	1714.15
1019.33	1873.89
1019.49	1613.80
1019.64	1736.68
1019.80	1732.58
1019.96	1701.86
1020.12	1751.01
1020.27	1642.47
1020.43	1714.15
1020.59	1675.24
1020.74	1744.87
1020.90	1714.15
1021.06	1626.09
1021.22	1681.38
1021.37	1669.09
1021.53	1656.81
1021.69	1740.77
1021.84	1572.84
1022.00	1777.64
1022.16	1671.14
1022.31	1599.46
1022.47	1708.01
1022.63	1818.60
1022.79	1546.22
1022.94	1658.85
1023.10	1808.36
1023.26	1673.19
1023.41	1642.47
1023.57	1665.00
1023.73	1685.48
1023.88	1632.23
1024.04	1589.22
1024.20	1589.22
1024.35	1624.04
1024.51	1718.25
1024.67	1626.09
1024.82	1671.14
1024.98	1609.70
1025.14	1695.72
1025.29	1642.47
1025.45	1701.86
1025.61	1646.57
1025.76	1634.28
1025.92	1701.86
1026.08	1751.01
1026.23	1689.57
1026.39	1642.47
1026.55	1630.18
1026.70	1613.80
1026.86	1683.43
1027.02	1675.24
1027.17	1718.25
1027.33	1679.33
1027.48	1628.14
1027.64	1632.23
1027.80	1597.42
1027.95	1667.05
1028.11	1507.30
1028.27	1683.43
1028.42	1712.10
1028.58	1658.85
1028.73	1607.66
1028.89	1626.09
1029.05	1775.59
1029.20	1650.66
>>>>>End Processed Spectral Data<<<<<
