SpectraSuite Data File
++++++++++++++++++++++++++++++++++++
Date: Fri Jun 02 14:57:22 CEST 2017
User: INFO_000
Dark Spectrum Present: No
Reference Spectrum Present: No
Number of Sampled Component Spectra: 1
Spectrometers: USB4H00879
Integration Time (usec): 80000 (USB4H00879)
Spectra Averaged: 1 (USB4H00879)
Boxcar Smoothing: 0 (USB4H00879)
Correct for Electrical Dark: No (USB4H00879)
Strobe/Lamp Enabled: No (USB4H00879)
Correct for Detector Non-linearity: No (USB4H00879)
Correct for Stray Light: No (USB4H00879)
Number of Pixels in Processed Spectrum: 3648
>>>>>Begin Processed Spectral Data<<<<<
345.13	1279.98
345.34	1279.98
345.56	1279.98
345.78	1267.69
345.99	1312.75
346.21	1714.15
346.42	1759.21
346.64	1648.61
346.86	1787.88
347.07	1583.08
347.29	1708.01
347.50	1632.23
347.72	1621.99
347.94	1761.25
348.15	1624.04
348.37	1662.95
348.59	1736.68
348.80	1636.33
349.02	1812.45
349.23	1863.65
349.45	1794.02
349.67	1841.12
349.88	1810.40
350.10	1959.91
350.31	1783.78
350.53	1890.28
350.75	1990.63
350.96	1789.92
351.18	1910.75
351.39	1900.52
351.61	1847.27
351.82	1912.80
352.04	1863.65
352.26	1767.40
352.47	1951.71
352.69	1877.99
352.90	1765.35
353.12	1875.94
353.34	1863.65
353.55	1914.85
353.77	1796.07
353.98	1845.22
354.20	1900.52
354.41	1845.22
354.63	1937.38
354.85	2039.78
355.06	1935.33
355.28	1789.92
355.49	1828.84
355.71	1880.04
355.92	1947.62
356.14	1941.47
356.35	1810.40
356.57	1855.46
356.79	1877.99
357.00	1904.61
357.22	1925.09
357.43	1816.55
357.65	1970.15
357.86	1935.33
358.08	1931.23
358.29	1974.24
358.51	1877.99
358.72	2000.87
358.94	1873.89
359.16	1933.28
359.37	1953.76
359.59	1843.17
359.80	1959.91
360.02	1886.18
360.23	1896.42
360.45	2011.11
360.66	1937.38
360.88	1834.98
361.09	1957.86
361.31	2019.30
361.52	1957.86
361.74	1957.86
361.95	2031.58
362.17	1972.19
362.38	2035.68
362.60	2066.40
362.81	1949.67
363.03	1941.47
363.24	1988.58
363.46	2033.63
363.67	2060.26
363.89	2000.87
364.10	2041.82
364.32	2023.39
364.53	2002.91
364.75	1961.95
364.96	2064.35
365.18	2019.30
365.39	2037.73
365.61	1900.52
365.82	2084.83
366.04	1998.82
366.25	2023.39
366.47	2058.21
366.68	1994.72
366.90	1990.63
367.11	2035.68
367.33	2107.36
367.54	2086.88
367.76	2088.93
367.97	2047.97
368.19	1970.15
368.40	2080.74
368.62	1984.48
368.83	1990.63
369.05	2068.45
369.26	2078.69
369.48	2074.59
369.69	1957.86
369.91	1970.15
370.12	1998.82
370.33	2138.08
370.55	2039.78
370.76	2070.50
370.98	2144.22
371.19	2043.87
371.41	2035.68
371.62	2011.11
371.84	2056.16
372.05	2123.74
372.27	2080.74
372.48	2045.92
372.69	2115.55
372.91	2121.70
373.12	2158.56
373.34	2142.18
373.55	2107.36
373.77	2136.03
373.98	2111.46
374.20	2183.13
374.41	2254.81
374.62	2138.08
374.84	2174.94
375.05	2185.18
375.27	2220.00
375.48	2158.56
375.70	2121.70
375.91	2213.85
376.12	2199.52
376.34	2113.50
376.55	2222.05
376.77	2193.37
376.98	2119.65
377.19	2168.80
377.41	2187.23
377.62	2195.42
377.84	2258.91
378.05	2285.53
378.27	2195.42
378.48	2336.73
378.69	2328.54
378.91	2316.25
379.12	2133.98
379.34	2230.24
379.55	2224.09
379.76	2285.53
379.98	2195.42
380.19	2324.44
380.41	2256.86
380.62	2324.44
380.83	2349.02
381.05	2107.36
381.26	2494.43
381.47	2260.96
381.69	2172.89
381.90	2404.32
382.12	2402.27
382.33	2248.67
382.54	2230.24
382.76	2293.72
382.97	2338.78
383.19	2308.06
383.40	2412.51
383.61	2230.24
383.83	2285.53
384.04	2281.44
384.25	2322.40
384.47	2428.89
384.68	2306.01
384.89	2265.05
385.11	2308.06
385.32	2353.12
385.54	2287.58
385.75	2387.93
385.96	2424.80
386.18	2445.27
386.39	2455.51
386.60	2353.12
386.82	2418.65
387.03	2351.07
387.24	2469.85
387.46	2437.08
387.67	2437.08
387.88	2510.81
388.10	2398.17
388.31	2441.18
388.52	2506.71
388.74	2484.19
388.95	2541.53
389.16	2580.44
389.38	2564.06
389.59	2525.15
389.80	2494.43
390.02	2512.86
390.23	2619.35
390.44	2467.80
390.66	2516.95
390.87	2498.52
391.08	2615.26
391.30	2639.83
391.51	2615.26
391.72	2699.22
391.94	2625.50
392.15	2662.36
392.36	2654.17
392.58	2641.88
392.79	2668.50
393.00	2748.37
393.22	2664.41
393.43	2787.29
393.64	2760.66
393.85	2754.52
394.07	2707.41
394.28	2760.66
394.49	2746.33
394.71	2721.75
394.92	2824.15
395.13	2623.45
395.35	2744.28
395.56	2645.98
395.77	2824.15
395.98	2764.76
396.20	2836.44
396.41	2772.95
396.62	2944.98
396.84	2793.43
397.05	2850.77
397.26	2805.72
397.47	2908.12
397.69	2840.53
397.90	2942.93
398.11	2934.74
398.32	2899.92
398.54	2854.87
398.75	2910.16
398.96	2936.79
399.18	3041.23
399.39	2947.03
399.60	3088.34
399.81	2987.99
400.03	2969.55
400.24	3274.70
400.45	2971.60
400.66	2947.03
400.88	3049.43
401.09	3176.40
401.30	3061.71
401.51	3098.58
401.73	3104.72
401.94	3086.29
402.15	3090.38
402.36	3080.14
402.58	3145.68
402.79	3194.83
403.00	3030.99
403.21	3237.84
403.43	3198.93
403.64	3252.17
403.85	3160.02
404.06	3147.73
404.27	3180.50
404.49	3155.92
404.70	3127.25
404.91	3147.73
405.12	3237.84
405.34	3311.57
405.55	3393.48
405.76	3198.93
405.97	3225.55
406.19	3370.96
406.40	3219.41
406.61	3323.85
406.82	3393.48
407.03	3223.50
407.25	3217.36
407.46	3430.35
407.67	3291.09
407.88	3391.44
408.09	3407.82
408.31	3338.19
408.52	3366.86
408.73	3327.95
408.94	3428.30
409.15	3459.02
409.37	3506.12
409.58	3497.93
409.79	3461.07
410.00	3600.33
410.21	3459.02
410.43	3524.55
410.64	3354.57
410.85	3559.37
411.06	3553.23
411.27	3506.12
411.48	3629.00
411.70	3614.66
411.91	3555.27
412.12	3532.75
412.33	3626.95
412.54	3708.87
412.76	3694.54
412.97	3688.39
413.18	3608.52
413.39	3493.83
413.60	3649.48
413.81	3678.15
414.03	3704.78
414.24	3700.68
414.45	3866.56
414.66	3659.72
414.87	3745.73
415.08	3741.64
415.30	3696.58
415.51	3860.42
415.72	3813.32
415.93	3827.65
416.14	3729.35
416.35	3794.89
416.56	3944.39
416.78	3887.04
416.99	3878.85
417.20	3784.65
417.41	3932.10
417.62	3977.16
417.83	3907.52
418.04	3987.40
418.26	3854.28
418.47	3923.91
418.68	3971.01
418.89	3948.48
419.10	4057.03
419.31	3997.64
419.52	4134.85
419.73	4083.65
419.95	4054.98
420.16	3885.00
420.37	4063.17
420.58	4233.15
420.79	3997.64
421.00	4097.99
421.21	4095.94
421.42	4120.51
421.63	4155.33
421.85	4204.48
422.06	4208.58
422.27	4124.61
422.48	4227.01
422.69	4321.21
422.90	4177.86
423.11	4235.20
423.32	4321.21
423.53	4259.78
423.75	4323.26
423.96	4317.12
424.17	4468.67
424.38	4558.78
424.59	4415.42
424.80	4485.05
425.01	4368.32
425.22	4421.56
425.43	4423.61
425.64	4693.94
425.85	4693.94
426.06	4495.29
426.28	4550.59
426.49	4493.24
426.70	4628.41
426.91	4505.53
427.12	4730.81
427.33	4679.61
427.54	4618.17
427.75	4675.51
427.96	4876.21
428.17	4796.34
428.38	4775.86
428.59	4788.15
428.80	4743.10
429.01	4820.92
429.23	4845.49
429.44	4898.74
429.65	4857.78
429.86	4935.60
430.07	4792.25
430.28	4843.45
430.49	4984.76
430.70	5162.93
430.91	4990.90
431.12	4894.65
431.33	5013.43
431.54	5107.63
431.75	5091.25
431.96	5078.96
432.17	5048.24
432.38	4925.36
432.59	5382.06
432.80	5289.90
433.01	5142.45
433.22	5117.87
433.43	5230.51
433.64	5099.44
433.85	5140.40
434.06	5324.72
434.27	5224.37
434.49	5283.76
434.70	5316.53
434.91	5382.06
435.12	5437.36
435.33	5439.40
435.54	5416.88
435.75	5388.21
435.96	5277.62
436.17	5244.85
436.38	5537.71
436.59	5441.45
436.80	5427.12
437.01	5730.22
437.22	5767.08
437.43	5709.74
437.64	5420.97
437.85	5681.07
438.06	5674.92
438.27	5468.08
438.48	5656.49
438.69	5601.19
438.90	5597.10
439.11	5556.14
439.32	5857.19
439.53	5685.16
439.74	5791.66
439.95	5697.45
440.16	5783.46
440.37	5699.50
440.57	5623.72
440.78	5748.65
440.99	5875.62
441.20	5793.70
441.41	5722.02
441.62	5765.03
441.83	5805.99
442.04	5955.49
442.25	6117.28
442.46	5867.43
442.67	6107.04
442.88	6346.66
443.09	5879.72
443.30	5947.30
443.51	6137.76
443.72	6320.03
443.93	6125.47
444.14	6352.80
444.35	6076.32
444.56	6160.29
444.77	6152.10
444.98	6301.60
445.19	6330.27
445.40	6277.02
445.61	6141.86
445.81	6401.95
446.02	6440.86
446.23	6356.90
446.44	6258.59
446.65	6389.66
446.86	6430.62
447.07	6428.57
447.28	6584.22
447.49	6612.89
447.70	6430.62
447.91	6399.90
448.12	6506.40
448.33	6750.10
448.54	6582.17
448.74	6496.16
448.95	6563.74
449.16	6459.29
449.37	6926.23
449.58	6633.37
449.79	6893.46
450.00	6784.92
450.21	6786.97
450.42	6950.81
450.63	6930.33
450.84	6922.13
451.05	6813.59
451.25	6821.78
451.46	6850.46
451.67	7042.96
451.88	7212.95
452.09	7112.60
452.30	7067.54
452.51	7055.25
452.72	7376.78
452.93	7432.08
453.13	7075.73
453.34	7307.15
453.55	7288.72
453.76	7305.10
453.97	7571.34
454.18	7284.62
454.39	7563.15
454.60	7393.17
454.81	7606.16
455.01	7552.91
455.22	7298.96
455.43	7542.67
455.64	7792.52
455.85	7980.93
456.06	8105.86
456.27	7788.43
456.48	7997.32
456.68	7890.82
456.89	7860.10
457.10	7888.78
457.31	7890.82
457.52	7974.79
457.73	8015.75
457.94	8251.27
458.14	8032.13
458.35	8488.83
458.56	8243.07
458.77	8339.33
458.98	8234.88
459.19	8265.60
459.39	8507.26
459.60	8408.96
459.81	8462.21
460.02	8525.69
460.23	8546.17
460.44	8693.63
460.65	8750.97
460.85	8722.30
461.06	8773.50
461.27	8599.42
461.48	9039.73
461.69	8925.05
461.89	8699.77
462.10	9086.84
462.31	8728.44
462.52	8691.58
462.73	8914.81
462.94	9291.63
463.14	9166.71
463.35	9111.41
463.56	9588.59
463.77	9480.05
463.98	9179.00
464.18	9402.22
464.39	9537.39
464.60	9602.93
464.81	9631.60
465.02	9699.18
465.23	9979.75
465.43	9625.45
465.64	10002.28
465.85	9975.66
466.06	9709.42
466.27	10131.30
466.47	10153.83
466.68	10196.84
466.89	10262.37
467.10	10301.28
467.30	10059.62
467.51	10321.76
467.72	10538.85
467.93	10182.50
468.14	10438.50
468.34	10524.51
468.55	10489.70
468.76	10690.40
468.97	10530.66
469.17	10626.91
469.38	10973.02
469.59	11140.95
469.80	11038.55
470.01	11040.60
470.21	11067.22
470.42	11265.88
470.63	11130.71
470.84	11204.44
471.04	11550.54
471.25	11272.02
471.46	11423.57
471.67	11755.34
471.87	11595.60
472.08	11781.96
472.29	11812.68
472.50	11601.74
472.70	11636.56
472.91	11886.41
473.12	12119.88
473.33	12109.64
473.53	12320.58
473.74	12072.78
473.95	12093.26
474.16	12627.78
474.36	12349.25
474.57	12713.79
474.78	12879.68
474.99	12744.51
475.19	12758.85
475.40	13029.18
475.61	13035.32
475.81	13129.53
476.02	13473.59
476.23	13305.65
476.44	13340.47
476.64	13623.09
476.85	13489.97
477.06	13500.21
477.27	13883.18
477.47	13950.76
477.68	13993.77
477.89	13903.66
478.09	14225.19
478.30	14143.27
478.51	14128.94
478.71	14327.59
478.92	14266.15
479.13	14489.38
479.34	14739.23
479.54	14796.57
479.75	14632.74
479.96	14673.70
480.16	14825.25
480.37	14894.88
480.58	14870.30
480.78	15183.64
480.99	15222.55
481.20	15283.99
481.41	15240.98
481.61	15501.08
481.82	15576.85
482.03	15765.26
482.23	15671.06
482.44	15984.40
482.65	16142.09
482.85	16064.27
483.06	16045.84
483.27	15861.52
483.47	16488.20
483.68	16381.70
483.89	16281.35
484.09	16494.34
484.30	16574.21
484.51	16736.00
484.71	16826.11
484.92	16938.75
485.13	16811.78
485.33	17100.54
485.54	16924.41
485.75	17235.70
485.95	17364.73
486.16	17188.60
486.37	17499.89
486.57	17442.55
486.78	17544.95
486.98	17321.72
487.19	17587.96
487.40	17567.48
487.60	18030.32
487.81	18231.02
488.02	17741.55
488.22	18204.39
488.43	18204.39
488.64	18378.47
488.84	18325.22
489.05	18470.63
489.25	18405.10
489.46	18826.98
489.67	18749.15
489.87	18865.89
490.08	18896.61
490.29	18857.70
490.49	19341.02
490.70	19316.44
490.90	19197.66
491.11	19064.54
491.32	19285.72
491.52	19400.41
491.73	19547.86
491.94	19529.43
492.14	19644.12
492.35	19738.32
492.55	20119.24
492.76	19857.10
492.97	20301.51
493.17	19793.62
493.38	20045.52
493.58	20315.85
493.79	20586.18
494.00	20309.71
494.20	20414.15
494.41	20303.56
494.61	20821.70
494.82	20723.40
495.02	20717.25
495.23	20926.14
495.44	20844.23
495.64	20956.86
495.85	21104.32
496.05	21356.22
496.26	21309.11
496.47	21434.04
496.67	21356.22
496.88	21771.96
497.08	21520.06
497.29	21722.80
497.49	21765.81
497.70	21679.80
497.91	21804.72
498.11	21972.66
498.32	21905.07
498.52	22011.57
498.73	22402.73
498.93	22400.68
499.14	22156.97
499.34	22232.75
499.55	22283.95
499.76	22509.22
499.96	22548.14
500.17	22556.33
500.37	22687.40
500.58	22789.80
500.78	22668.97
500.99	22736.55
501.19	22984.35
501.40	23056.03
501.60	22920.87
501.81	22894.24
502.02	23158.43
502.22	23064.22
502.43	23340.70
502.63	23557.78
502.84	23735.96
503.04	23352.99
503.25	23617.18
503.45	23512.73
503.66	23701.14
503.86	23785.11
504.07	23879.32
504.27	23576.22
504.48	24137.36
504.68	24071.82
504.89	24370.83
505.09	24178.32
505.30	24086.16
505.50	24235.66
505.71	24108.69
505.91	24309.39
506.12	24200.85
506.32	24391.31
506.53	24559.24
506.73	24483.47
506.94	24630.92
507.14	24876.68
507.35	24813.19
507.55	25087.62
507.76	25126.53
507.96	24618.63
508.17	24940.16
508.37	25147.01
508.58	25157.25
508.78	25140.86
508.99	25558.65
509.19	25515.64
509.40	25511.55
509.60	25353.85
509.81	25570.94
510.01	25540.22
510.22	25659.00
510.42	25407.10
510.63	25699.96
510.83	25749.11
511.04	25931.38
511.24	26201.71
511.44	26097.27
511.65	25900.66
511.85	25884.28
512.06	26062.45
512.26	26404.46
512.47	26240.62
512.67	26414.70
512.88	26410.60
513.08	26406.51
513.29	26574.44
513.49	26932.84
513.69	26418.80
513.90	26818.15
514.10	26842.73
514.31	26947.17
514.51	27133.54
514.72	26793.58
514.92	26902.12
515.13	26988.13
515.33	27039.33
515.53	27227.74
515.74	27168.35
515.94	27264.61
516.15	27518.56
516.35	27072.10
516.56	27844.18
516.76	27412.06
516.96	27825.75
517.17	27627.10
517.37	27666.01
517.58	27911.77
517.78	27729.50
517.99	27930.20
518.19	28329.55
518.39	28372.56
518.60	28225.11
518.80	28403.28
519.01	28501.58
519.21	28282.45
519.41	28460.62
519.62	28540.49
519.82	28675.66
520.03	28626.51
520.23	28900.94
520.43	28821.06
520.64	29040.20
520.84	29230.66
521.05	29097.54
521.25	29412.93
521.45	29462.08
521.66	29367.87
521.86	29584.96
522.07	29535.81
522.27	29630.01
522.47	29705.79
522.68	29984.31
522.88	29750.84
523.08	30357.04
523.29	30027.32
523.49	30123.57
523.70	30062.13
523.90	30420.53
524.10	30422.58
524.31	30744.11
524.51	30090.80
524.71	30717.48
524.92	30811.69
525.12	31010.34
525.33	31061.54
525.53	30815.79
525.73	31395.36
525.94	31358.50
526.14	31258.15
526.34	30928.42
526.55	31526.43
526.75	31585.82
526.95	31614.49
527.16	31510.05
527.36	31874.59
527.56	31610.40
527.77	32081.43
527.97	31933.98
528.17	31888.92
528.38	32331.28
528.58	32585.23
528.78	32626.19
528.99	32751.12
529.19	33086.98
529.39	32429.59
529.60	32994.82
529.80	32935.43
530.00	33080.84
530.21	33224.20
530.41	33105.41
530.61	33078.79
530.82	33418.75
531.02	33242.63
531.22	33691.13
531.43	33426.95
531.63	33678.85
531.83	33897.98
532.04	34215.41
532.24	33752.57
532.44	34231.80
532.64	34291.19
532.85	34594.29
533.05	34473.46
533.25	34782.70
533.46	34299.38
533.66	35050.99
533.86	34893.29
534.07	35263.97
534.27	34846.19
534.47	35153.38
534.67	35341.80
534.88	35147.24
535.08	35218.92
535.28	35771.87
535.49	35411.43
535.69	36113.88
535.89	35988.95
536.09	35974.62
536.30	36601.30
536.50	36113.88
536.70	36052.44
536.91	36453.84
537.11	36791.76
537.31	36568.53
537.51	36756.94
537.72	37217.74
537.92	36951.50
538.12	37334.47
538.32	36885.97
538.53	36984.27
538.73	36957.64
538.93	36840.91
539.13	37199.30
539.34	37369.29
539.54	37336.52
539.74	37821.89
539.94	37621.19
540.15	37531.08
540.35	37883.33
540.55	37766.59
540.75	37750.21
540.96	37643.71
541.16	37899.71
541.36	38043.07
541.56	38370.74
541.77	38622.64
541.97	38411.70
542.17	38620.59
542.37	38776.24
542.58	38190.52
542.78	38905.26
542.98	38161.85
543.18	38499.76
543.38	39536.04
543.59	39253.42
543.79	38919.60
543.99	38882.73
544.19	39302.57
544.40	39243.18
544.60	39679.39
544.80	39372.20
545.00	39441.83
545.20	39603.62
545.41	39339.43
545.61	39148.97
545.81	40318.36
546.01	39896.48
546.21	39992.73
546.42	39204.27
546.62	40134.04
546.82	39761.31
547.02	39665.06
547.22	40142.24
547.43	39871.90
547.63	40334.74
547.83	40289.69
548.03	40207.77
548.23	40258.97
548.44	40293.79
548.64	40383.90
548.84	40760.72
549.04	40678.80
549.24	40629.65
549.45	40988.05
549.65	40414.62
549.85	40838.54
550.05	40719.76
550.25	40605.08
550.45	41270.67
550.66	41164.17
550.86	40869.26
551.06	41436.55
551.26	41383.30
551.46	41063.82
551.66	41303.43
551.87	41100.68
552.07	41604.49
552.27	41135.50
552.47	41368.97
552.67	41510.28
552.87	41301.39
553.07	41373.06
553.28	41610.63
553.48	41594.25
553.68	41616.77
553.88	42128.77
554.08	41665.92
554.28	41833.86
554.48	41584.01
554.69	41629.06
554.89	41563.53
555.09	41807.23
555.29	41457.03
555.49	41985.41
555.69	41960.83
555.89	41833.86
556.10	42032.51
556.30	41717.12
556.50	42196.35
556.70	41751.94
556.90	41903.49
557.10	42212.73
557.30	41895.30
557.50	42456.44
557.70	42214.78
557.91	42714.48
558.11	42401.14
558.31	42435.96
558.51	42077.57
558.71	42757.49
558.91	42515.83
559.11	42812.79
559.31	42542.45
559.51	42136.96
559.72	42782.07
559.92	43103.60
560.12	42554.74
560.32	42720.63
560.52	42423.67
560.72	42726.77
560.92	42745.20
561.12	42587.51
561.32	42970.48
561.52	42898.80
561.72	43468.14
561.93	43033.97
562.13	42771.83
562.33	42612.09
562.53	43324.78
562.73	42868.08
562.93	42505.59
563.13	42984.82
563.33	43154.80
563.53	43316.59
563.73	43191.66
563.93	43242.86
564.13	43365.74
564.33	43390.31
564.53	43154.80
564.74	43357.55
564.94	43083.12
565.14	43476.33
565.34	43068.78
565.54	43160.94
565.74	43324.78
565.94	43644.26
566.14	43052.40
566.34	43330.92
566.54	43717.99
566.74	42976.62
566.94	43890.02
567.14	43978.08
567.34	43824.48
567.54	43629.93
567.74	43746.66
567.94	43332.97
568.14	43761.00
568.34	43781.48
568.54	43591.01
568.74	43838.82
568.94	43582.82
569.14	44377.43
569.34	43935.07
569.54	43943.27
569.75	43398.51
569.95	43808.10
570.15	44397.91
570.35	43961.70
570.55	43947.36
570.75	43904.35
570.95	44256.60
571.15	44522.84
571.35	44248.41
571.55	44318.04
571.75	43758.95
571.95	44166.49
572.15	44227.93
572.35	44602.71
572.55	44270.94
572.75	44389.72
572.95	44375.39
573.15	44571.99
573.35	44590.42
573.55	44213.60
573.75	44111.20
573.95	44875.09
574.15	44709.21
574.35	45020.50
574.55	44774.74
574.75	44635.48
574.95	44483.93
575.15	44868.95
575.34	44907.86
575.54	45299.02
575.74	45086.03
575.94	45094.22
576.14	45206.86
576.34	44873.04
576.54	44825.94
576.74	45348.17
576.94	44959.06
577.14	45288.78
577.34	45618.50
577.54	45045.07
577.74	45659.46
577.94	46032.19
578.14	45495.63
578.34	45587.78
578.54	44989.78
578.74	45370.70
578.94	45632.84
579.14	45610.31
579.34	45585.74
579.54	45774.15
579.74	46112.06
579.94	45815.11
580.13	46167.36
580.33	46296.38
580.53	46085.44
580.73	46128.45
580.93	46167.36
581.13	45839.68
581.33	46601.53
581.53	46452.03
581.73	46454.08
581.93	46372.16
582.13	45960.51
582.33	46406.97
582.53	46144.83
582.73	46521.66
582.92	46699.83
583.12	46669.11
583.32	46658.87
583.52	46347.58
583.72	46978.36
583.92	46572.86
584.12	46863.67
584.32	47385.90
584.52	46978.36
584.72	46789.94
584.92	47443.24
585.11	47207.73
585.31	46984.50
585.51	47172.91
585.71	47174.96
585.91	47156.53
586.11	47013.17
586.31	47035.70
586.51	46992.69
586.71	47420.72
586.91	47703.34
587.10	47920.42
587.30	47879.46
587.50	47439.15
587.70	47875.37
587.90	48033.06
588.10	47703.34
588.30	47596.84
588.50	47850.79
588.69	47801.64
588.89	47377.71
589.09	48227.62
589.29	47914.28
589.49	48583.96
589.69	47897.89
589.89	48500.00
590.08	48516.38
590.28	48131.36
590.48	48033.06
590.68	48268.58
590.88	48393.50
591.08	48618.78
591.28	48319.77
591.47	48895.25
591.67	48635.16
591.87	48987.41
592.07	48731.42
592.27	48684.31
592.47	49083.67
592.67	49126.67
592.86	48739.61
593.06	48577.82
593.26	48952.60
593.46	49343.76
593.66	48983.32
593.86	49251.60
594.05	48870.68
594.25	49454.35
594.45	49513.74
594.65	49566.99
594.85	49052.95
595.05	49820.94
595.24	49399.05
595.44	49317.14
595.64	49851.66
595.84	49612.04
596.04	49820.94
596.23	49790.22
596.43	50369.79
596.63	50119.94
596.83	49788.17
597.03	50124.04
597.22	50410.75
597.42	49900.81
597.62	50627.84
597.82	50566.40
598.02	50238.72
598.21	50640.12
598.41	50445.57
598.61	50511.10
598.81	50599.16
599.01	50789.62
599.20	50605.31
599.40	50545.92
599.60	50740.47
599.80	50763.00
600.00	50941.17
600.19	51115.25
600.39	50803.96
600.59	51066.10
600.79	50552.06
600.98	50963.70
601.18	51526.89
601.38	51207.41
601.58	51363.06
601.78	51510.51
601.97	51565.81
602.17	51889.38
602.37	51588.33
602.57	51825.90
602.76	52053.22
602.96	51338.48
603.16	52188.39
603.36	51934.44
603.55	52147.43
603.75	52155.62
603.95	52081.89
604.15	52640.99
604.34	52137.19
604.54	52546.78
604.74	52262.11
604.94	52018.41
605.13	52282.59
605.33	52247.78
605.53	52593.89
605.73	52712.67
605.92	52911.32
606.12	52767.96
606.32	53392.59
606.52	52657.37
606.71	52669.66
606.91	53114.07
607.11	52798.68
607.30	52901.08
607.50	53048.53
607.70	52958.42
607.90	53347.54
608.09	52995.29
608.29	53511.38
608.49	53505.23
608.68	53312.72
608.88	53382.35
609.08	53474.51
609.28	53855.43
609.47	53701.84
609.67	54285.51
609.87	53435.60
610.06	53640.40
610.26	53845.19
610.46	54293.70
610.66	53433.55
610.85	54453.44
611.05	53716.17
611.25	54105.29
611.44	53980.36
611.64	53933.26
611.84	53548.24
612.03	53744.84
612.23	54641.85
612.43	54193.35
612.62	53937.35
612.82	54303.94
613.02	53992.65
613.21	54363.33
613.41	54187.21
613.61	54707.39
613.80	53963.98
614.00	53937.35
614.20	54219.97
614.39	54500.54
614.59	54211.78
614.79	54688.96
614.98	54410.43
615.18	54824.12
615.38	54826.17
615.57	54803.64
615.77	54768.83
615.97	54449.35
616.16	54674.62
616.36	54256.84
616.56	54768.83
616.75	54764.73
616.95	54330.56
617.15	54678.72
617.34	54598.85
617.54	54650.05
617.74	55057.59
617.93	54684.86
618.13	54176.97
618.32	54813.88
618.52	54242.50
618.72	55008.44
618.91	54459.58
619.11	54535.36
619.31	54844.60
619.50	54840.51
619.70	54127.81
619.90	54711.49
620.09	54674.62
620.29	54695.10
620.48	55098.55
620.68	55409.84
620.88	54750.40
621.07	54652.09
621.27	54887.61
621.46	54666.43
621.66	54650.05
621.86	54656.19
622.05	54521.02
622.25	55010.49
622.44	54275.27
622.64	54592.70
622.84	54893.75
623.03	54396.10
623.23	54918.33
623.42	54856.89
623.62	54990.01
623.82	55114.94
624.01	54359.23
624.21	55166.13
624.40	54527.17
624.60	54768.83
624.80	54850.75
624.99	54940.86
625.19	54555.84
625.38	55112.89
625.58	55049.40
625.77	55061.69
625.97	54701.25
626.17	54469.82
626.36	54703.29
626.56	55299.25
626.75	54523.07
626.95	55489.71
627.14	54985.91
627.34	55112.89
627.54	54645.95
627.73	54783.16
627.93	54711.49
628.12	54912.19
628.32	54830.27
628.51	55235.77
628.71	54822.08
628.90	54942.91
629.10	55194.81
629.30	55264.44
629.49	55221.43
629.69	54998.20
629.88	55063.74
630.08	55262.39
630.27	55149.75
630.47	55172.28
630.66	55319.73
630.86	55014.58
631.05	54971.58
631.25	55639.22
631.44	55450.80
631.64	55039.16
631.84	55082.17
632.03	55547.06
632.23	55096.50
632.42	56073.38
632.62	55153.85
632.81	55176.37
633.01	55225.53
633.20	55340.21
633.40	55530.67
633.59	55297.20
633.79	55116.98
633.98	55080.12
634.18	55047.35
634.37	55514.29
634.57	55170.23
634.76	55823.53
634.96	55090.36
635.15	55598.26
635.35	55370.93
635.54	55393.46
635.74	55614.64
635.93	55061.69
636.13	55633.07
636.32	55477.43
636.52	55219.38
636.71	55256.24
636.91	55653.55
637.10	55874.73
637.30	55962.79
637.49	55702.70
637.69	55327.92
637.88	55698.61
638.08	55534.77
638.27	55776.43
638.46	55930.03
638.66	55616.69
638.85	55323.83
639.05	55893.16
639.24	56075.43
639.44	55383.22
639.63	55637.17
639.83	55925.93
640.02	55690.41
640.22	55747.76
640.41	56159.40
640.61	55477.43
640.80	55854.25
640.99	55633.07
641.19	56188.07
641.38	55796.91
641.58	55354.55
641.77	56034.47
641.97	55841.96
642.16	55786.67
642.36	55985.32
642.55	55989.42
642.74	55686.32
642.94	56349.86
643.13	55796.91
643.33	56497.31
643.52	55731.37
643.72	56173.73
643.91	55774.38
644.10	55956.65
644.30	55968.94
644.49	55891.12
644.69	56480.93
644.88	55817.39
645.08	56161.45
645.27	55882.92
645.46	55768.24
645.66	56292.52
645.85	55567.54
646.05	56165.54
646.24	55962.79
646.43	56130.73
646.63	56226.98
646.82	56358.05
647.02	56202.41
647.21	56591.52
647.40	55942.31
647.60	56235.17
647.79	56421.54
647.99	56159.40
648.18	56521.89
648.37	56738.97
648.57	56845.47
648.76	56695.97
648.96	56325.28
649.15	56726.69
649.34	56399.01
649.54	56343.72
649.73	56206.50
649.92	56579.23
650.12	56411.30
650.31	56702.11
650.51	56425.64
650.70	56753.31
650.89	56300.71
651.09	57328.79
651.28	56407.20
651.47	56579.23
651.67	56497.31
651.86	57242.77
652.06	56308.90
652.25	56528.03
652.44	56609.95
652.64	56388.77
652.83	56497.31
653.02	56341.67
653.22	56388.77
653.41	56677.54
653.60	56562.85
653.80	56665.25
653.99	56849.56
654.18	56513.70
654.38	56689.82
654.57	56878.24
654.76	56071.34
654.96	56261.80
655.15	56327.33
655.34	56626.34
655.54	56394.92
655.73	56341.67
655.92	56757.41
656.12	56587.42
656.31	56652.96
656.50	56841.37
656.70	56353.96
656.89	56589.47
657.08	56566.94
657.28	56898.72
657.47	56521.89
657.66	57064.60
657.86	56175.78
658.05	56644.77
658.24	57052.31
658.43	56372.39
658.63	56673.44
658.82	56669.34
659.01	56884.38
659.21	56556.70
659.40	56566.94
659.59	56661.15
659.79	56210.60
659.98	56568.99
660.17	56888.48
660.36	56876.19
660.56	56302.76
660.75	56906.91
660.94	56603.81
661.14	56536.23
661.33	56702.11
661.52	56460.45
661.71	57132.18
661.91	56704.16
662.10	56609.95
662.29	56767.65
662.49	56534.18
662.68	56976.54
662.87	56710.30
663.06	56556.70
663.26	56763.55
663.45	57552.02
663.64	56802.46
663.83	57308.31
664.03	56802.46
664.22	57171.10
664.41	57052.31
664.60	56122.54
664.80	56644.77
664.99	56368.29
665.18	56632.48
665.37	56427.68
665.57	57044.12
665.76	56622.24
665.95	56902.81
666.14	56427.68
666.34	56579.23
666.53	56573.09
666.72	56333.48
666.91	56190.12
667.11	56280.23
667.30	56751.26
667.49	56358.05
667.68	56224.93
667.87	56284.33
668.07	56509.60
668.26	56788.13
668.45	56231.08
668.64	56313.00
668.84	56966.30
669.03	56851.61
669.22	56390.82
669.41	56655.01
669.60	56612.00
669.80	55884.97
669.99	56751.26
670.18	56212.65
670.37	56552.61
670.57	56845.47
670.76	56513.70
670.95	56937.63
671.14	56390.82
671.33	55942.31
671.53	56775.84
671.72	56616.10
671.91	56169.64
672.10	56399.01
672.29	56747.17
672.48	56169.64
672.68	56865.95
672.87	56024.23
673.06	56276.13
673.25	56214.69
673.44	55671.98
673.64	56478.88
673.83	56392.87
674.02	55776.43
674.21	56013.99
674.40	56229.03
674.59	55899.31
674.79	56106.15
674.98	56126.63
675.17	55876.78
675.36	56067.24
675.55	56601.76
675.74	56030.38
675.94	55583.92
676.13	55956.65
676.32	56427.68
676.51	56190.12
676.70	55925.93
676.89	55645.36
677.08	55901.36
677.28	55876.78
677.47	56130.73
677.66	56063.14
677.85	55725.23
678.04	56175.78
678.23	56149.16
678.42	56399.01
678.62	55647.41
678.81	56212.65
679.00	55553.20
679.19	56491.17
679.38	55874.73
679.57	55782.57
679.76	55973.03
679.96	55946.41
680.15	55473.33
680.34	55864.49
680.53	55809.20
680.72	56081.58
680.91	56050.86
681.10	55727.28
681.29	55649.45
681.48	55620.78
681.68	55633.07
681.87	55303.35
682.06	55745.71
682.25	55174.33
682.44	55530.67
682.63	55733.42
682.82	54842.56
683.01	55329.97
683.20	54912.19
683.39	55545.01
683.59	55024.82
683.78	55123.13
683.97	55510.19
684.16	55454.90
684.35	55159.99
684.54	55362.74
684.73	55235.77
684.92	55547.06
685.11	55311.54
685.30	55219.38
685.49	55563.44
685.69	54793.40
685.88	55041.21
686.07	54920.38
686.26	55164.09
686.45	55096.50
686.64	55133.37
686.83	55301.30
687.02	55194.81
687.21	54871.23
687.40	55080.12
687.59	54940.86
687.78	55131.32
687.97	55504.05
688.16	55207.09
688.35	54738.11
688.54	54723.77
688.74	54793.40
688.93	55010.49
689.12	54623.42
689.31	54688.96
689.50	54729.92
689.69	54207.68
689.88	54523.07
690.07	54650.05
690.26	54711.49
690.45	54969.53
690.64	54785.21
690.83	54576.32
691.02	54490.30
691.21	54660.29
691.40	54604.99
691.59	54744.25
691.78	54189.25
691.97	54709.44
692.16	54662.33
692.35	54459.58
692.54	54072.52
692.73	54490.30
692.92	54295.75
693.11	54449.35
693.30	53794.00
693.49	54465.73
693.68	54281.41
693.87	53980.36
694.06	53951.69
694.25	54389.95
694.44	54121.67
694.63	53632.21
694.82	53949.64
695.01	54015.18
695.20	53548.24
695.39	53658.83
695.58	53955.78
695.77	53945.54
695.96	53679.31
696.15	54213.83
696.34	53806.28
696.53	53845.19
696.72	54156.49
696.91	53626.06
697.10	53664.97
697.29	53449.94
697.48	53925.07
697.67	53359.83
697.86	53454.03
698.05	53322.96
698.24	54258.88
698.43	53054.68
698.62	53814.47
698.81	53707.98
699.00	53943.50
699.19	52925.66
699.38	53353.68
699.57	52905.18
699.76	53611.73
699.95	53026.01
700.14	53050.58
700.32	53282.00
700.51	53212.37
700.70	53535.95
700.89	53302.48
701.08	53318.87
701.27	53048.53
701.46	53210.32
701.65	52595.93
701.84	53441.74
702.03	53400.79
702.22	53138.65
702.41	52989.14
702.60	52884.70
702.79	53163.22
702.98	52884.70
703.17	53073.11
703.35	52735.20
703.54	52610.27
703.73	53060.82
703.92	52989.14
704.11	52888.79
704.30	52405.47
704.49	52835.55
704.68	52139.24
704.87	52737.24
705.06	52499.68
705.25	52411.62
705.43	52481.25
705.62	53046.49
705.81	52622.56
706.00	52341.99
706.19	52372.70
706.38	52147.43
706.57	52774.11
706.76	52024.55
706.95	52206.82
707.14	52192.48
707.32	52040.93
707.51	52380.90
707.70	52237.54
707.89	51854.57
708.08	52481.25
708.27	52364.51
708.46	52200.68
708.65	51647.72
708.84	52090.09
709.02	52090.09
709.21	52278.50
709.40	51723.50
709.59	51926.25
709.78	51565.81
709.97	52071.65
710.16	51766.51
710.34	51750.12
710.53	52157.67
710.72	51115.25
710.91	52182.24
711.10	52124.90
711.29	51692.78
711.48	51676.40
711.66	51496.17
711.85	51350.77
712.04	51295.47
712.23	51213.55
712.42	51311.86
712.61	51545.33
712.80	51600.62
712.98	51428.59
713.17	51678.44
713.36	51270.90
713.55	51373.30
713.74	51518.70
713.93	51424.50
714.11	51352.82
714.30	51236.08
714.49	51299.57
714.68	51092.72
714.87	51256.56
715.06	51049.72
715.24	50715.90
715.43	50607.36
715.62	50601.21
715.81	50500.86
716.00	50664.70
716.18	50453.76
716.37	50513.15
716.56	50662.65
716.75	51188.98
716.94	50748.67
717.12	50431.23
717.31	51076.34
717.50	50814.20
717.69	50212.10
717.88	50351.36
718.06	50599.16
718.25	50365.70
718.44	50081.03
718.63	50175.23
718.82	50154.75
719.00	50377.98
719.19	50265.34
719.38	49798.41
719.57	50107.65
719.76	49650.95
719.94	49691.91
720.13	50052.36
720.32	50046.21
720.51	49904.90
720.69	49736.97
720.88	49868.04
721.07	50150.66
721.26	49141.01
721.44	49372.43
721.63	49061.14
721.82	49177.87
722.01	49319.18
722.20	49493.26
722.38	49235.22
722.57	48895.25
722.76	49122.58
722.95	49212.69
723.13	48954.64
723.32	48450.84
723.51	48829.72
723.70	48448.80
723.88	48690.46
724.07	48872.73
724.26	48968.98
724.44	48305.44
724.63	48866.58
724.82	48456.99
725.01	48444.70
725.19	48557.34
725.38	48309.53
725.57	48553.24
725.76	48786.71
725.94	48168.22
726.13	48330.01
726.32	48244.00
726.51	48012.58
726.69	48471.32
726.88	48743.70
727.07	48178.46
727.25	48153.89
727.44	48012.58
727.63	48368.93
727.82	48082.21
728.00	48256.29
728.19	47691.05
728.38	48782.62
728.56	47643.94
728.75	48469.28
728.94	47488.30
729.12	48010.53
729.31	48254.24
729.50	48237.86
729.69	48008.48
729.87	47854.89
730.06	47963.43
730.25	48119.07
730.43	48467.23
730.62	48366.88
730.81	48336.16
730.99	48125.22
731.18	48231.71
731.37	48037.16
731.55	48491.80
731.74	48618.78
731.93	47740.20
732.11	47897.89
732.30	47850.79
732.49	47781.16
732.67	47934.76
732.86	48117.03
733.05	48125.22
733.23	47904.04
733.42	47838.50
733.61	48129.31
733.79	47947.04
733.98	48284.96
734.17	48088.35
734.35	48160.03
734.54	48117.03
734.73	47858.98
734.91	48026.92
735.10	47682.86
735.29	48076.07
735.47	47617.32
735.66	47844.65
735.84	47574.31
736.03	47922.47
736.22	48106.79
736.40	47707.43
736.59	47617.32
736.78	47664.42
736.96	47662.38
737.15	47676.71
737.33	47469.87
737.52	47209.78
737.71	47353.13
737.89	47734.06
738.08	47207.73
738.27	47639.85
738.45	47357.23
738.64	47428.91
738.82	47211.82
739.01	47144.24
739.20	47490.35
739.38	47121.71
739.57	47611.18
739.75	47551.79
739.94	47101.23
740.13	47201.58
740.31	47027.51
740.50	47244.59
740.68	47183.15
740.87	47177.01
741.06	47168.82
741.24	47019.31
741.43	47021.36
741.61	47088.95
741.80	47097.14
741.99	46820.66
742.17	46611.77
742.36	46603.58
742.54	46699.83
742.73	46953.78
742.91	47142.19
743.10	47093.04
743.29	47058.23
743.47	46851.38
743.66	46863.67
743.84	46927.16
744.03	46566.71
744.21	47074.61
744.40	47357.23
744.59	46906.68
744.77	46314.81
744.96	46302.53
745.14	46918.96
745.33	46533.95
745.51	46345.53
745.70	46812.47
745.88	46333.24
746.07	46742.84
746.26	46251.33
746.44	46267.71
746.63	46769.46
746.81	46798.13
747.00	46382.40
747.18	46640.44
747.37	46118.21
747.55	46265.66
747.74	46830.90
747.92	45968.71
748.11	46249.28
748.29	46069.06
748.48	45819.20
748.66	45741.38
748.85	46099.78
749.03	46275.90
749.22	46345.53
749.41	45858.12
749.59	46226.75
749.78	45927.75
749.96	45776.20
750.15	45892.93
750.33	46011.71
750.52	45940.04
750.70	46241.09
750.89	45612.36
751.07	45335.88
751.26	45557.06
751.44	45147.47
751.63	45768.01
751.81	45428.04
752.00	45266.25
752.18	45538.63
752.37	45700.42
752.55	45268.30
752.74	45247.82
752.92	45698.37
753.10	44811.60
753.29	45231.44
753.47	44920.15
753.66	44995.92
753.84	45346.12
754.03	45176.14
754.21	44440.92
754.40	45262.16
754.58	45350.22
754.77	45065.55
754.95	44705.11
755.14	44571.99
755.32	44821.84
755.51	44342.62
755.69	44250.46
755.88	44758.36
756.06	44692.82
756.24	44391.77
756.43	44578.14
756.61	44442.97
756.80	44295.52
756.98	44037.47
757.17	44326.24
757.35	44590.42
757.54	44451.16
757.72	44741.97
757.90	43939.17
758.09	44209.50
758.27	44350.81
758.46	44082.53
758.64	44103.01
758.83	44432.73
759.01	44012.90
759.19	44045.66
759.38	43945.31
759.56	44381.53
759.75	44162.40
759.93	44043.62
760.12	43988.32
760.30	44066.14
760.48	43603.30
760.67	43441.51
760.85	43953.51
761.04	43832.68
761.22	43507.05
761.40	43597.16
761.59	44152.16
761.77	43244.91
761.96	43750.76
762.14	43488.62
762.32	43351.40
762.51	43386.22
762.69	43152.75
762.88	43292.01
763.06	43490.66
763.24	43351.40
763.43	43433.32
763.61	43246.96
763.80	43435.37
763.98	43070.83
764.16	42833.27
764.35	43210.09
764.53	42816.88
764.72	42917.23
764.90	42804.59
765.08	42704.24
765.27	42818.93
765.45	42595.70
765.63	41958.78
765.82	42900.85
766.00	42411.38
766.18	42603.89
766.37	42958.19
766.55	42194.30
766.74	42564.98
766.92	42554.74
767.10	42333.56
767.29	42382.71
767.47	42096.00
767.65	42186.11
767.84	42059.13
768.02	42620.28
768.20	41702.79
768.39	42212.73
768.57	42020.22
768.75	42042.75
768.94	42192.25
769.12	42030.46
769.30	42083.71
769.49	42098.05
769.67	41827.71
769.85	41342.35
770.04	41893.25
770.22	41411.98
770.40	41205.13
770.59	41516.42
770.77	41598.34
770.95	41465.22
771.14	41174.41
771.32	41006.48
771.50	40871.31
771.69	41262.47
771.87	41211.28
772.05	41026.96
772.24	40699.28
772.42	41039.25
772.60	40768.91
772.78	41260.43
772.97	40439.19
773.15	41039.25
773.33	40967.57
773.52	40627.60
773.70	40617.36
773.88	40877.46
774.07	40813.97
774.25	40662.42
774.43	40910.22
774.61	40793.49
774.80	41022.86
774.98	41006.48
775.16	41168.27
775.34	40666.52
775.53	40805.78
775.71	41063.82
775.89	40801.68
776.08	41209.23
776.26	40801.68
776.44	41031.05
776.62	41072.01
776.81	40973.71
776.99	41336.20
777.17	40971.66
777.35	41137.55
777.54	40961.42
777.72	40621.46
777.90	40721.81
778.08	41067.92
778.27	41104.78
778.45	41541.00
778.63	41231.75
778.81	41029.01
779.00	41854.34
779.18	41266.57
779.36	41676.16
779.54	41004.43
779.73	41399.69
779.91	41661.83
780.09	41260.43
780.27	41379.21
780.46	41596.29
780.64	41688.45
780.82	41704.84
781.00	41497.99
781.19	41258.38
781.37	42007.94
781.55	41674.12
781.73	41889.15
781.91	41590.15
782.10	41686.40
782.28	41719.17
782.46	41559.43
782.64	41706.88
782.82	41325.96
783.01	41725.32
783.19	42034.56
783.37	41940.35
783.55	41643.40
783.74	41969.02
783.92	41764.23
784.10	42304.89
784.28	41827.71
784.46	41708.93
784.64	41262.47
784.83	41776.51
785.01	42237.31
785.19	42001.79
785.37	41997.70
785.55	41827.71
785.74	41604.49
785.92	41289.10
786.10	41860.48
786.28	41545.09
786.46	41477.51
786.64	40986.00
786.83	41500.04
787.01	41770.37
787.19	41141.64
787.37	41704.84
787.55	40963.47
787.74	41074.06
787.92	41538.95
788.10	41084.30
788.28	41209.23
788.46	41020.81
788.64	40990.09
788.82	41334.15
789.01	41147.79
789.19	41385.35
789.37	40850.83
789.55	41008.53
789.73	40588.69
789.91	40865.17
790.09	41022.86
790.28	40357.27
790.46	40525.21
790.64	41055.63
790.82	40431.00
791.00	40385.94
791.18	39906.72
791.36	40545.69
791.55	40398.23
791.73	40545.69
791.91	40312.22
792.09	39957.92
792.27	39703.97
792.45	39964.06
792.63	39695.78
792.81	39503.27
793.00	39785.89
793.18	39493.03
793.36	39316.90
793.54	39302.57
793.72	39376.30
793.90	38905.26
794.08	38983.09
794.26	39785.89
794.44	38766.00
794.62	38655.41
794.81	39013.80
794.99	39003.56
795.17	38827.44
795.35	38651.31
795.53	38858.16
795.71	39007.66
795.89	38284.73
796.07	38421.94
796.25	38448.57
796.43	38278.58
796.61	37914.05
796.80	37854.65
796.98	38245.82
797.16	37733.82
797.34	37782.98
797.52	37739.97
797.70	37447.11
797.88	37443.01
798.06	37410.25
798.24	37238.22
798.42	37201.35
798.60	37252.55
798.78	36992.46
798.96	37045.71
799.14	37025.23
799.32	37172.68
799.51	36410.84
799.69	36971.98
799.87	36920.78
800.05	36361.69
800.23	36556.24
800.41	36427.22
800.59	36197.85
800.77	36326.87
800.95	36189.66
801.13	36607.44
801.31	36077.02
801.49	36040.15
801.67	35710.43
801.85	36064.73
802.03	35866.08
802.21	35503.59
802.39	35636.70
802.57	35796.45
802.75	35554.79
802.93	35620.32
803.11	35083.75
803.29	35411.43
803.47	34573.81
803.65	35280.36
803.83	35182.06
804.01	35251.69
804.19	34833.90
804.37	34629.10
804.55	34913.77
804.73	34751.98
804.91	34518.51
805.09	34751.98
805.27	34678.25
805.45	34708.97
805.63	34459.12
805.81	34090.49
805.99	34211.32
806.17	34612.72
806.35	34059.77
806.53	34213.37
806.71	33943.03
806.89	33961.47
807.07	33461.76
807.25	34213.37
807.43	33543.68
807.61	33842.68
807.79	33709.57
807.97	33596.93
808.15	33537.54
808.33	33267.20
808.51	33279.49
808.69	33562.11
808.87	33105.41
809.05	32601.61
809.23	32914.95
809.41	32644.62
809.59	32771.60
809.77	32863.75
809.95	33125.89
810.13	33027.59
810.31	32589.33
810.49	32699.92
810.67	32509.46
810.84	32538.13
811.02	32794.12
811.20	32228.88
811.38	32017.94
811.56	31917.59
811.74	32013.85
811.92	31909.40
812.10	31915.54
812.28	32132.63
812.46	31725.08
812.64	32101.91
812.82	31798.81
813.00	31645.21
813.18	31741.47
813.36	31768.09
813.53	31432.22
813.71	31610.40
813.89	31338.02
814.07	31677.98
814.25	31442.46
814.43	31268.39
814.61	31178.28
814.79	31200.80
814.97	31258.15
815.15	31168.04
815.33	30807.59
815.50	30821.93
815.68	30889.51
815.86	30928.42
816.04	30393.90
816.22	30639.66
816.40	30522.93
816.58	30680.62
816.76	30647.85
816.94	30451.25
817.11	30531.12
817.29	30416.43
817.47	29945.40
817.65	30174.77
817.83	30137.91
818.01	30182.96
818.19	30176.82
818.37	30651.95
818.54	29361.73
818.72	29879.86
818.90	29920.82
819.08	29677.12
819.26	29730.36
819.44	29513.28
819.62	29711.93
819.80	29576.76
819.97	29806.14
820.15	29656.64
820.33	29494.85
820.51	29617.72
820.69	29195.84
820.87	29406.78
821.05	29560.38
821.22	29279.81
821.40	29232.71
821.58	28905.03
821.76	29234.75
821.94	29152.84
822.12	28984.90
822.29	29437.50
822.47	28782.15
822.65	29298.24
822.83	29077.06
823.01	28915.27
823.19	28831.30
823.36	28706.38
823.54	28460.62
823.72	28626.51
823.90	28530.25
824.08	28581.45
824.25	28421.71
824.43	28288.59
824.61	28503.63
824.79	28341.84
824.97	28294.74
825.15	28231.25
825.32	28286.54
825.50	28069.46
825.68	27973.21
825.86	28225.11
826.04	28180.05
826.21	27887.19
826.39	28112.47
826.57	27979.35
826.75	27887.19
826.93	27739.74
827.10	27653.72
827.28	27919.96
827.46	28124.75
827.64	27659.87
827.81	27768.41
827.99	27784.79
828.17	27453.02
828.35	27332.19
828.53	27717.21
828.70	27303.52
828.88	27487.84
829.06	27518.56
829.24	27881.05
829.41	27237.98
829.59	27510.36
829.77	27491.93
829.95	27305.57
830.12	26951.27
830.30	27090.53
830.48	27172.45
830.66	27176.55
830.84	27014.76
831.01	26797.67
831.19	27053.67
831.37	26979.94
831.55	26885.73
831.72	26584.68
831.90	26596.97
832.08	26902.12
832.25	26556.01
832.43	26809.96
832.61	26705.51
832.79	26660.46
832.96	26664.55
833.14	26934.88
833.32	26670.70
833.50	26439.28
833.67	26582.63
833.85	26449.52
834.03	26109.55
834.20	26588.78
834.38	26396.27
834.56	26261.10
834.74	26201.71
834.91	26246.77
835.09	26338.93
835.27	25978.48
835.44	26101.36
835.62	25577.08
835.80	25792.12
835.98	26089.07
836.15	25966.20
836.33	25851.51
836.51	25806.45
836.68	25630.33
836.86	25632.38
837.04	25783.93
837.21	25775.73
837.39	25888.37
837.57	25849.46
837.75	25837.17
837.92	25296.51
838.10	25857.65
838.28	25521.79
838.45	25347.71
838.63	25525.88
838.81	25407.10
838.98	25470.59
839.16	25380.48
839.34	25169.54
839.51	25464.44
839.69	25044.61
839.87	25005.70
840.04	24983.17
840.22	25036.42
840.40	24800.90
840.57	24837.76
840.75	24931.97
840.93	24774.28
841.10	24766.09
841.28	24886.92
841.46	25003.65
841.63	25480.83
841.81	25179.78
841.98	24671.88
842.16	24665.74
842.34	24469.13
842.51	24417.93
842.69	24610.44
842.87	24516.23
843.04	24682.12
843.22	24737.41
843.40	24536.71
843.57	24602.25
843.75	24612.49
843.92	24714.89
844.10	24303.25
844.28	24491.66
844.45	24508.04
844.63	24647.30
844.81	24383.12
844.98	24628.87
845.16	24358.54
845.33	24393.36
845.51	24229.52
845.69	24417.93
845.86	24166.03
846.04	24153.74
846.21	23864.98
846.39	24219.28
846.57	24219.28
846.74	23959.19
846.92	24010.39
847.09	23901.84
847.27	23746.20
847.45	23948.95
847.62	23860.88
847.80	23744.15
847.97	23963.28
848.15	23590.55
848.32	23518.87
848.50	24002.19
848.68	23498.39
848.85	23625.37
849.03	23285.40
849.20	23656.09
849.38	23439.00
849.56	23582.36
849.73	23121.57
849.91	23625.37
850.08	23482.01
850.26	23320.22
850.43	23191.20
850.61	23291.55
850.78	23031.46
850.96	23191.20
851.14	22797.99
851.31	22939.30
851.49	23039.65
851.66	23260.83
851.84	23299.74
852.01	23236.25
852.19	23117.47
852.36	22720.17
852.54	22754.98
852.71	23164.57
852.89	22863.52
853.07	22937.25
853.24	22654.63
853.42	22939.30
853.59	22673.06
853.77	22664.87
853.94	22832.80
854.12	23080.61
854.29	22480.55
854.47	22566.57
854.64	22593.19
854.82	22619.81
854.99	22732.45
855.17	22445.74
855.34	22378.15
855.52	22709.93
855.69	22658.73
855.87	22687.40
856.04	22316.72
856.22	22226.60
856.39	21958.32
856.57	22376.11
856.74	22038.19
856.92	22281.90
857.09	22091.44
857.27	21884.59
857.44	22369.96
857.62	22068.91
857.79	21817.01
857.97	22290.09
858.14	21980.85
858.32	22011.57
858.49	22005.42
858.67	22005.42
858.84	21950.13
859.02	21933.75
859.19	21876.40
859.37	21812.92
859.54	21962.42
859.72	21890.74
859.89	21972.66
860.06	21491.38
860.24	21948.08
860.41	21900.98
860.59	21659.32
860.76	21731.00
860.94	21354.17
861.11	21544.63
861.29	21597.88
861.46	21348.03
861.64	21407.42
861.81	21401.27
861.98	21137.09
862.16	21180.09
862.33	20940.48
862.51	20885.19
862.68	21477.05
862.86	21135.04
863.03	20881.09
863.21	20975.30
863.38	21257.92
863.55	21044.93
863.73	21184.19
863.90	21008.06
864.08	21030.59
864.25	21132.99
864.43	20809.41
864.60	20752.07
864.77	20549.32
864.95	20846.27
865.12	20477.64
865.30	20674.24
865.47	20735.68
865.64	20809.41
865.82	20586.18
865.99	20784.83
866.17	20872.90
866.34	20836.03
866.51	20346.57
866.69	20819.65
866.86	20467.40
867.04	20606.66
867.21	20326.09
867.38	20160.20
867.56	20164.30
867.73	20209.36
867.91	20141.77
868.08	20219.60
868.25	20268.75
868.43	20127.44
868.60	19936.98
868.78	19953.36
868.95	20321.99
869.12	20141.77
869.30	20123.34
869.47	19869.39
869.64	19998.41
869.82	19805.91
869.99	19736.27
870.16	19941.07
870.34	19824.34
870.51	20186.83
870.69	19648.21
870.86	19420.89
871.03	19969.74
871.21	19713.75
871.38	19859.15
871.55	19637.97
871.73	19631.83
871.90	19521.24
872.07	19588.82
872.25	19238.62
872.42	19285.72
872.59	19349.21
872.77	19422.94
872.94	19277.53
873.11	19379.93
873.29	19144.41
873.46	19224.28
873.63	19275.48
873.81	19154.65
873.98	18876.13
874.15	18947.81
874.33	18786.02
874.50	18679.52
874.67	18999.01
874.85	18816.74
875.02	19042.01
875.19	18650.85
875.37	18570.98
875.54	18679.52
875.71	18579.17
875.88	18437.86
876.06	18509.54
876.23	18288.36
876.40	18538.21
876.58	18312.94
876.75	18548.45
876.92	18362.09
877.10	18468.58
877.27	18269.93
877.44	18206.44
877.61	18222.83
877.79	18349.80
877.96	18097.90
878.13	18276.07
878.31	17944.30
878.48	18077.42
878.65	17721.07
878.82	17678.07
879.00	17897.20
879.17	17907.44
879.34	17913.58
879.51	17618.68
879.69	17850.10
879.86	17602.29
880.03	17587.96
880.21	17524.47
880.38	17585.91
880.55	17651.44
880.72	17569.52
880.90	17657.59
881.07	17501.94
881.24	17651.44
881.41	17530.61
881.59	17536.76
881.76	17360.63
881.93	17233.66
882.10	17047.29
882.28	17319.67
882.45	17364.73
882.62	17200.89
882.79	17374.97
882.96	17164.03
883.14	17231.61
883.31	17207.03
883.48	17291.00
883.65	17321.72
883.83	17168.12
884.00	17145.59
884.17	17157.88
884.34	17288.95
884.51	16727.81
884.69	17141.50
884.86	16854.78
885.03	16961.28
885.20	16588.55
885.38	16996.09
885.55	17075.96
885.72	17028.86
885.89	16822.02
886.06	16731.90
886.24	16551.68
886.41	16574.21
886.58	16883.45
886.75	16908.03
886.92	16721.66
887.10	16844.54
887.27	16713.47
887.44	16592.64
887.61	16865.02
887.78	16938.75
887.95	16721.66
888.13	16613.12
888.30	16410.37
888.47	16434.95
888.64	16428.81
888.81	16383.75
888.99	16385.80
889.16	16080.65
889.33	16226.06
889.50	16267.02
889.67	16244.49
889.84	16385.80
890.01	16189.19
890.19	16127.75
890.36	15927.05
890.53	16056.08
890.70	16092.94
890.87	16260.87
891.04	15943.44
891.22	16137.99
891.39	15879.95
891.56	16072.46
891.73	15669.01
891.90	15879.95
892.07	15695.63
892.24	16094.99
892.42	15986.44
892.59	15601.43
892.76	15707.92
892.93	15652.63
893.10	15810.32
893.27	15642.39
893.44	15386.39
893.61	15476.50
893.79	15752.98
893.96	15537.94
894.13	15494.93
894.30	15554.32
894.47	15582.99
894.64	15564.56
894.81	15451.92
894.98	15294.23
895.15	15468.31
895.33	15503.12
895.50	15628.05
895.67	15720.21
895.84	15509.27
896.01	15726.35
896.18	15314.71
896.35	15615.76
896.52	15703.82
896.69	15456.02
896.86	15603.47
897.04	15445.78
897.21	15546.13
897.38	15505.17
897.55	15339.29
897.72	15224.60
897.89	15468.31
898.06	15341.33
898.23	15402.77
898.40	15386.39
898.57	15394.58
898.74	15445.78
898.91	15417.11
899.08	15279.89
899.26	15353.62
899.43	15560.47
899.60	15408.92
899.77	15378.20
899.94	15245.08
900.11	15294.23
900.28	15372.05
900.45	15210.26
900.62	15421.20
900.79	15406.87
900.96	15423.25
901.13	15202.07
901.30	15396.63
901.47	15240.98
901.64	15394.58
901.81	15472.40
901.98	15122.20
902.15	15419.16
902.32	15212.31
902.49	15265.56
902.66	15431.44
902.83	15257.37
903.01	15341.33
903.18	15310.61
903.35	15195.93
903.52	15101.72
903.69	15327.00
903.86	15320.85
904.03	15138.58
904.20	15400.72
904.37	15480.60
904.54	15193.88
904.71	15359.77
904.88	15126.30
905.05	15154.97
905.22	15318.81
905.39	15118.11
905.56	15091.48
905.73	15200.02
905.90	15228.70
906.07	15314.71
906.24	15187.74
906.41	15152.92
906.58	15337.24
906.75	15095.58
906.92	15193.88
907.09	15171.35
907.26	15118.11
907.43	14974.75
907.60	15255.32
907.77	15228.70
907.93	15185.69
908.10	15179.54
908.27	15427.35
908.44	15286.04
908.61	15036.19
908.78	15007.52
908.95	14984.99
909.12	14991.13
909.29	14862.11
909.46	15083.29
909.63	15224.60
909.80	15058.71
909.97	15005.47
910.14	14976.80
910.31	14939.93
910.48	14841.63
910.65	14995.23
910.82	14878.49
910.99	14765.85
911.16	14796.57
911.33	14964.51
911.50	14743.33
911.66	14642.98
911.83	15005.47
912.00	14493.47
912.17	14507.81
912.34	14772.00
912.51	14835.49
912.68	14675.74
912.85	14806.81
913.02	14534.43
913.19	14503.71
913.36	14694.18
913.53	14511.91
913.70	14432.04
913.86	14640.93
914.03	14518.05
914.20	14591.78
914.37	14321.45
914.54	14354.21
914.71	14305.06
914.88	14448.42
915.05	14257.96
915.22	14280.49
915.39	14194.47
915.55	14069.55
915.72	14124.84
915.89	14108.46
916.06	13995.82
916.23	14040.87
916.40	13967.15
916.57	13760.30
916.74	14010.15
916.91	13895.47
917.07	13762.35
917.24	13823.79
917.41	13702.96
917.58	13805.36
917.75	13700.91
917.92	13477.68
918.09	13707.05
918.26	13770.54
918.42	13668.14
918.59	13279.03
918.76	13451.06
918.93	13479.73
919.10	13348.66
919.27	13313.84
919.44	13520.69
919.60	13295.41
919.77	13272.89
919.94	13150.01
920.11	13317.94
920.28	13229.88
920.45	13266.74
920.61	12846.91
920.78	13213.49
920.95	13150.01
921.12	13174.58
921.29	12992.31
921.46	12951.35
921.62	12752.70
921.79	12824.38
921.96	12568.38
922.13	12762.94
922.30	12584.77
922.47	12760.89
922.63	12445.51
922.80	12668.73
922.97	12455.75
923.14	12330.82
923.31	12404.55
923.47	12164.93
923.64	12695.36
923.81	12175.17
923.98	12144.45
924.15	12068.68
924.32	12138.31
924.48	12230.47
924.65	12046.15
924.82	11974.47
924.99	11861.84
925.15	12037.96
925.32	11777.87
925.49	11958.09
925.66	11650.89
925.83	11636.56
925.99	11628.37
926.16	11824.97
926.33	11769.68
926.50	11550.54
926.67	11650.89
926.83	11403.09
927.00	11462.48
927.17	11560.78
927.34	11474.77
927.50	11261.78
927.67	11304.79
927.84	11403.09
928.01	11181.91
928.17	11013.98
928.34	11095.89
928.51	11069.27
928.68	10991.45
928.84	10876.76
929.01	10843.99
929.18	10743.64
929.35	10712.92
929.51	10657.63
929.68	10514.27
929.85	10850.14
930.02	10671.97
930.18	10637.15
930.35	10667.87
930.52	10729.31
930.69	10592.09
930.85	10381.15
931.02	10303.33
931.19	10336.10
931.36	10266.47
931.52	10602.33
931.69	10301.28
931.86	10133.35
932.02	10059.62
932.19	10086.25
932.36	10067.81
932.53	10010.47
932.69	9979.75
932.86	10022.76
933.03	9803.63
933.19	9645.93
933.36	9717.61
933.53	9883.50
933.70	9574.25
933.86	9541.49
934.03	9500.53
934.20	9320.31
934.36	9490.29
934.53	9365.36
934.70	9334.64
934.86	9398.13
935.03	9097.08
935.20	8976.25
935.36	9162.61
935.53	9092.98
935.70	8986.49
935.86	8904.57
936.03	8707.96
936.20	8675.20
936.36	8619.90
936.53	8587.13
936.70	8331.14
936.86	8435.58
937.03	8327.04
937.20	8292.23
937.36	8222.59
937.53	8052.61
937.70	7980.93
937.86	7946.12
938.03	7913.35
938.20	8030.09
938.36	7634.83
938.53	7675.79
938.70	7567.24
938.86	7567.24
939.03	7468.94
939.20	7313.30
939.36	7090.07
939.53	7169.94
939.70	7245.71
939.86	6946.71
940.03	6950.81
940.19	6715.29
940.36	6776.73
940.53	6647.71
940.69	6586.27
940.86	6637.47
941.03	6379.42
941.19	6457.25
941.36	6330.27
941.52	6287.26
941.69	6391.71
941.86	6311.84
942.02	6148.00
942.19	6172.58
942.35	6172.58
942.52	6086.56
942.69	5939.11
942.85	5973.92
943.02	5840.81
943.18	5902.25
943.35	5750.70
943.52	5793.70
943.68	5623.72
943.85	5726.12
944.01	5676.97
944.18	5674.92
944.35	5644.20
944.51	5547.95
944.68	5476.27
944.84	5476.27
945.01	5369.77
945.17	5654.44
945.34	5494.70
945.51	5377.97
945.67	5474.22
945.84	5433.26
946.00	5296.05
946.17	5289.90
946.33	5433.26
946.50	5332.91
946.67	5359.53
946.83	5291.95
947.00	5443.50
947.16	5394.35
947.33	5382.06
947.49	5267.38
947.66	5330.86
947.82	5349.29
947.99	5304.24
948.16	5322.67
948.32	5181.36
948.49	5365.68
948.65	5339.05
948.82	5324.72
948.98	5343.15
949.15	5160.88
949.31	5388.21
949.48	5355.44
949.64	5148.59
949.81	5285.81
949.97	5246.90
950.14	5367.73
950.30	5320.62
950.47	5240.75
950.63	5259.18
950.80	5394.35
950.96	5244.85
951.13	5298.10
951.30	5392.30
951.46	5511.08
951.63	5408.69
951.79	5425.07
951.96	5490.60
952.12	5363.63
952.29	5541.80
952.45	5279.66
952.62	5459.88
952.78	5369.77
952.94	5347.25
953.11	5392.30
953.27	5294.00
953.44	5550.00
953.60	5443.50
953.77	5439.40
953.93	5468.08
954.10	5388.21
954.26	5468.08
954.43	5406.64
954.59	5390.25
954.76	5539.76
954.92	5246.90
955.09	5351.34
955.25	5349.29
955.42	5349.29
955.58	5629.87
955.75	5478.32
955.91	5408.69
956.07	5365.68
956.24	5425.07
956.40	5470.12
956.57	5533.61
956.73	5414.83
956.90	5609.39
957.06	5515.18
957.23	5486.51
957.39	5431.21
957.56	5496.75
957.72	5382.06
957.88	5367.73
958.05	5560.24
958.21	5580.71
958.38	5541.80
958.54	5431.21
958.71	5482.41
958.87	5455.79
959.03	5437.36
959.20	5474.22
959.36	5472.17
959.53	5384.11
959.69	5337.01
959.85	5550.00
960.02	5351.34
960.18	5550.00
960.35	5472.17
960.51	5525.42
960.68	5451.69
960.84	5414.83
961.00	5416.88
961.17	5353.39
961.33	5414.83
961.50	5459.88
961.66	5525.42
961.82	5390.25
961.99	5449.64
962.15	5429.17
962.31	5388.21
962.48	5488.56
962.64	5603.24
962.81	5224.37
962.97	5390.25
963.13	5443.50
963.30	5294.00
963.46	5285.81
963.62	5382.06
963.79	5291.95
963.95	5230.51
964.12	5359.53
964.28	5246.90
964.44	5451.69
964.61	5330.86
964.77	5431.21
964.93	5472.17
965.10	5339.05
965.26	5330.86
965.42	5271.47
965.59	5416.88
965.75	5320.62
965.92	5220.27
966.08	5306.29
966.24	5337.01
966.41	5193.65
966.57	5406.64
966.73	5253.04
966.90	5304.24
967.06	5269.42
967.22	5091.25
967.39	5322.67
967.55	5119.92
967.71	5222.32
967.88	5083.06
968.04	5156.79
968.20	5070.77
968.37	5218.22
968.53	4988.85
968.69	5025.72
968.85	5156.79
969.02	5308.34
969.18	5101.49
969.34	5193.65
969.51	5185.46
969.67	5216.18
969.83	5113.78
970.00	5210.03
970.16	5144.50
970.32	5203.89
970.48	5081.01
970.65	5064.63
970.81	4992.95
970.97	5085.11
971.14	4904.89
971.30	5228.46
971.46	5027.76
971.63	5015.48
971.79	5058.48
971.95	5074.87
972.11	4943.80
972.28	5058.48
972.44	4970.42
972.60	4890.55
972.76	4902.84
972.93	4951.99
973.09	4978.61
973.25	5009.33
973.42	4882.36
973.58	4988.85
973.74	4829.11
973.90	4784.06
974.07	4906.93
974.23	4970.42
974.39	4855.73
974.55	4825.01
974.72	4827.06
974.88	4673.46
975.04	4739.00
975.20	4743.10
975.37	4763.58
975.53	4796.34
975.69	4808.63
975.85	4665.27
976.01	4730.81
976.18	4759.48
976.34	4661.18
976.50	4794.29
976.66	4646.84
976.83	4751.29
976.99	4542.39
977.15	4683.70
977.31	4591.55
977.47	4806.58
977.64	4519.87
977.80	4765.62
977.96	4603.83
978.12	4581.31
978.29	4579.26
978.45	4464.57
978.61	4626.36
978.77	4509.63
978.93	4442.04
979.10	4521.92
979.26	4515.77
979.42	4491.20
979.58	4362.17
979.74	4388.80
979.91	4362.17
980.07	4435.90
980.23	4509.63
980.39	4362.17
980.55	4321.21
980.71	4315.07
980.88	4337.60
981.04	4345.79
981.20	4401.08
981.36	4394.94
981.52	4329.41
981.68	4257.73
981.85	4368.32
982.01	4296.64
982.17	4450.24
982.33	4372.41
982.49	4423.61
982.65	4345.79
982.82	4237.25
982.98	4233.15
983.14	4313.02
983.30	4411.32
983.46	4419.52
983.62	4259.78
983.79	4089.79
983.95	4184.00
984.11	4128.70
984.27	4272.06
984.43	4204.48
984.59	4165.57
984.75	4237.25
984.91	4118.47
985.08	4239.30
985.24	4100.03
985.40	4106.18
985.56	4194.24
985.72	4079.55
985.88	4204.48
986.04	3928.00
986.20	4022.21
986.37	4014.02
986.53	3960.77
986.69	4198.34
986.85	3962.82
987.01	3958.72
987.17	4077.51
987.33	3999.68
987.49	3977.16
987.65	4122.56
987.82	4063.17
987.98	3997.64
988.14	3909.57
988.30	4011.97
988.46	4005.83
988.62	3921.86
988.78	3885.00
988.94	3946.44
989.10	3846.09
989.26	3809.22
989.42	3805.13
989.59	3807.17
989.75	3794.89
989.91	3764.17
990.07	3684.30
990.23	3729.35
990.39	3856.33
990.55	3821.51
990.71	3788.74
990.87	3776.45
991.03	3774.41
991.19	3684.30
991.35	3665.86
991.51	3823.56
991.67	3796.93
991.83	3786.69
992.00	3700.68
992.16	3747.78
992.32	3739.59
992.48	3706.82
992.64	3624.90
992.80	3710.92
992.96	3612.62
993.12	3682.25
993.28	3637.19
993.44	3641.29
993.60	3571.66
993.76	3633.10
993.92	3598.28
994.08	3719.11
994.24	3682.25
994.40	3553.23
994.56	3590.09
994.72	3473.36
994.88	3565.51
995.04	3516.36
995.20	3542.99
995.36	3508.17
995.52	3510.22
995.68	3565.51
995.84	3473.36
996.00	3481.55
996.16	3454.92
996.32	3401.68
996.48	3540.94
996.64	3551.18
996.80	3411.92
996.96	3475.40
997.12	3497.93
997.28	3403.72
997.44	3432.40
997.60	3413.96
997.76	3317.71
997.92	3424.20
998.08	3385.29
998.24	3248.08
998.40	3373.00
998.56	3434.44
998.72	3289.04
998.88	3342.28
999.04	3237.84
999.20	3456.97
999.36	3223.50
999.52	3401.68
999.68	3334.09
999.84	3397.58
1000.00	3270.61
1000.16	3389.39
1000.32	3313.61
1000.48	3309.52
1000.64	3196.88
1000.80	3200.98
1000.95	3088.34
1001.11	3196.88
1001.27	3162.06
1001.43	3188.69
1001.59	3168.21
1001.75	3190.74
1001.91	3203.02
1002.07	3104.72
1002.23	3123.15
1002.39	3221.45
1002.55	3256.27
1002.71	3149.78
1002.87	3121.10
1003.03	3037.14
1003.19	3080.14
1003.34	3164.11
1003.50	3104.72
1003.66	3139.54
1003.82	3200.98
1003.98	3071.95
1004.14	3067.86
1004.30	3033.04
1004.46	2920.40
1004.62	3012.56
1004.78	3170.26
1004.94	3082.19
1005.09	3022.80
1005.25	2977.75
1005.41	2912.21
1005.57	2963.41
1005.73	2940.88
1005.89	2973.65
1006.05	2981.84
1006.21	2973.65
1006.37	2977.75
1006.52	2928.60
1006.68	2893.78
1006.84	2951.12
1007.00	2906.07
1007.16	2977.75
1007.32	2953.17
1007.48	2987.99
1007.64	2920.40
1007.79	2877.40
1007.95	2863.06
1008.11	2893.78
1008.27	2807.77
1008.43	2832.34
1008.59	2834.39
1008.75	3039.19
1008.91	2858.96
1009.06	2844.63
1009.22	2842.58
1009.38	2875.35
1009.54	2828.24
1009.70	2840.53
1009.86	2731.99
1010.01	2820.05
1010.17	2727.89
1010.33	2779.09
1010.49	2731.99
1010.65	2858.96
1010.81	2605.02
1010.96	2787.29
1011.12	2762.71
1011.28	2707.41
1011.44	2820.05
1011.60	2813.91
1011.76	2656.22
1011.91	2715.61
1012.07	2557.91
1012.23	2637.78
1012.39	2678.74
1012.55	2680.79
1012.71	2631.64
1012.86	2557.91
1013.02	2754.52
1013.18	2662.36
1013.34	2557.91
1013.50	2639.83
1013.65	2637.78
1013.81	2570.20
1013.97	2523.10
1014.13	2605.02
1014.29	2609.11
1014.44	2621.40
1014.60	2588.63
1014.76	2592.73
1014.92	2519.00
1015.07	2656.22
1015.23	2580.44
1015.39	2568.15
1015.55	2498.52
1015.71	2494.43
1015.86	2586.58
1016.02	2426.84
1016.18	2432.99
1016.34	2549.72
1016.49	2572.25
1016.65	2574.30
1016.81	2551.77
1016.97	2539.48
1017.12	2555.86
1017.28	2387.93
1017.44	2379.74
1017.60	2516.95
1017.75	2465.75
1017.91	2461.66
1018.07	2486.23
1018.23	2484.19
1018.38	2363.36
1018.54	2451.42
1018.70	2478.04
1018.86	2371.55
1019.01	2289.63
1019.17	2457.56
1019.33	2494.43
1019.49	2416.60
1019.64	2375.64
1019.80	2373.60
1019.96	2494.43
1020.12	2441.18
1020.27	2359.26
1020.43	2373.60
1020.59	2344.92
1020.74	2379.74
1020.90	2502.62
1021.06	2383.84
1021.22	2248.67
1021.37	2392.03
1021.53	2240.48
1021.69	2287.58
1021.84	2271.20
1022.00	2303.96
1022.16	2279.39
1022.31	2238.43
1022.47	2277.34
1022.63	2451.42
1022.79	2279.39
1022.94	2301.92
1023.10	2308.06
1023.26	2244.57
1023.41	2269.15
1023.57	2281.44
1023.73	2285.53
1023.88	2265.05
1024.04	2242.53
1024.20	2277.34
1024.35	2306.01
1024.51	2197.47
1024.67	2287.58
1024.82	2263.01
1024.98	2168.80
1025.14	2238.43
1025.29	2236.38
1025.45	2277.34
1025.61	2127.84
1025.76	2230.24
1025.92	2189.28
1026.08	2172.89
1026.23	2275.29
1026.39	2230.24
1026.55	2129.89
1026.70	2109.41
1026.86	2086.88
1027.02	2228.19
1027.17	2189.28
1027.33	2164.70
1027.48	2191.33
1027.64	2215.90
1027.80	2138.08
1027.95	2203.61
1028.11	2000.87
1028.27	2248.67
1028.42	2166.75
1028.58	2060.26
1028.73	2115.55
1028.89	1990.63
1029.05	2162.66
1029.20	2209.76
>>>>>End Processed Spectral Data<<<<<
