SpectraSuite Data File
++++++++++++++++++++++++++++++++++++
Date: Fri Jun 02 14:57:22 CEST 2017
User: INFO_000
Dark Spectrum Present: No
Reference Spectrum Present: No
Number of Sampled Component Spectra: 1
Spectrometers: USB4H00879
Integration Time (usec): 80000 (USB4H00879)
Spectra Averaged: 1 (USB4H00879)
Boxcar Smoothing: 0 (USB4H00879)
Correct for Electrical Dark: No (USB4H00879)
Strobe/Lamp Enabled: No (USB4H00879)
Correct for Detector Non-linearity: No (USB4H00879)
Correct for Stray Light: No (USB4H00879)
Number of Pixels in Processed Spectrum: 3648
>>>>>Begin Processed Spectral Data<<<<<
345.13	1236.97
345.34	1236.97
345.56	1236.97
345.78	1257.45
345.99	1241.07
346.21	1679.33
346.42	1699.81
346.64	1691.62
346.86	1804.26
347.07	1673.19
347.29	1732.58
347.50	1562.60
347.72	1673.19
347.94	1732.58
348.15	1576.94
348.37	1568.74
348.59	1712.10
348.80	1712.10
349.02	1794.02
349.23	1886.18
349.45	1841.12
349.67	1865.70
349.88	1748.97
350.10	1990.63
350.31	1908.71
350.53	1851.36
350.75	1980.39
350.96	1818.60
351.18	1863.65
351.39	1843.17
351.61	1839.08
351.82	1902.56
352.04	1843.17
352.26	1902.56
352.47	1812.45
352.69	1939.43
352.90	1697.77
353.12	1869.80
353.34	1822.69
353.55	1953.76
353.77	1904.61
353.98	1857.51
354.20	1910.75
354.41	1933.28
354.63	1857.51
354.85	2000.87
355.06	1937.38
355.28	1845.22
355.49	1859.56
355.71	1945.57
355.92	1914.85
356.14	1941.47
356.35	1927.14
356.57	1931.23
356.79	1957.86
357.00	1980.39
357.22	1918.95
357.43	1851.36
357.65	1976.29
357.86	1912.80
358.08	1849.32
358.29	1920.99
358.51	1984.48
358.72	2015.20
358.94	1937.38
359.16	1920.99
359.37	1982.43
359.59	1920.99
359.80	1980.39
360.02	1990.63
360.23	1964.00
360.45	1996.77
360.66	1953.76
360.88	1851.36
361.09	1970.15
361.31	2097.12
361.52	1957.86
361.74	1988.58
361.95	2146.27
362.17	1988.58
362.38	2084.83
362.60	2041.82
362.81	2004.96
363.03	1966.05
363.24	2011.11
363.46	2054.11
363.67	2054.11
363.89	2076.64
364.10	1984.48
364.32	1914.85
364.53	2115.55
364.75	1970.15
364.96	2056.16
365.18	2080.74
365.39	1955.81
365.61	2009.06
365.82	2060.26
366.04	1959.91
366.25	2033.63
366.47	2052.06
366.68	2043.87
366.90	1951.71
367.11	2172.89
367.33	2115.55
367.54	2156.51
367.76	2052.06
367.97	2095.07
368.19	2009.06
368.40	2133.98
368.62	2009.06
368.83	2002.91
369.05	2050.02
369.26	1994.72
369.48	2027.49
369.69	2027.49
369.91	2121.70
370.12	2054.11
370.33	2133.98
370.55	1947.62
370.76	2060.26
370.98	2097.12
371.19	2060.26
371.41	2070.50
371.62	2084.83
371.84	2023.39
372.05	2138.08
372.27	2107.36
372.48	2097.12
372.69	2095.07
372.91	2146.27
373.12	2162.66
373.34	2043.87
373.55	2072.54
373.77	2191.33
373.98	2043.87
374.20	2164.70
374.41	2326.49
374.62	2099.17
374.84	2111.46
375.05	2240.48
375.27	2193.37
375.48	2193.37
375.70	2191.33
375.91	2183.13
376.12	2263.01
376.34	2189.28
376.55	2213.85
376.77	2185.18
376.98	2099.17
377.19	2228.19
377.41	2217.95
377.62	2121.70
377.84	2267.10
378.05	2273.25
378.27	2195.42
378.48	2295.77
378.69	2377.69
378.91	2330.59
379.12	2285.53
379.34	2244.57
379.55	2365.40
379.76	2281.44
379.98	2207.71
380.19	2250.72
380.41	2242.53
380.62	2326.49
380.83	2215.90
381.05	2238.43
381.26	2447.32
381.47	2256.86
381.69	2381.79
381.90	2314.20
382.12	2301.92
382.33	2275.29
382.54	2277.34
382.76	2326.49
382.97	2322.40
383.19	2236.38
383.40	2478.04
383.61	2338.78
383.83	2314.20
384.04	2340.83
384.25	2287.58
384.47	2394.08
384.68	2297.82
384.89	2306.01
385.11	2402.27
385.32	2318.30
385.54	2349.02
385.75	2297.82
385.96	2398.17
386.18	2459.61
386.39	2389.98
386.60	2410.46
386.82	2430.94
387.03	2396.12
387.24	2492.38
387.46	2475.99
387.67	2557.91
387.88	2510.81
388.10	2523.10
388.31	2414.56
388.52	2422.75
388.74	2551.77
388.95	2492.38
389.16	2582.49
389.38	2531.29
389.59	2559.96
389.80	2611.16
390.02	2584.54
390.23	2676.70
390.44	2605.02
390.66	2490.33
390.87	2494.43
391.08	2586.58
391.30	2721.75
391.51	2602.97
391.72	2643.93
391.94	2713.56
392.15	2559.96
392.36	2564.06
392.58	2600.92
392.79	2592.73
393.00	2707.41
393.22	2758.61
393.43	2711.51
393.64	2856.92
393.85	2785.24
394.07	2746.33
394.28	2721.75
394.49	2762.71
394.71	2719.70
394.92	2760.66
395.13	2713.56
395.35	2799.57
395.56	2783.19
395.77	2697.17
395.98	2789.33
396.20	2811.86
396.41	2920.40
396.62	2852.82
396.84	2879.44
397.05	2848.72
397.26	2779.09
397.47	2924.50
397.69	2818.00
397.90	3067.86
398.11	2877.40
398.32	2820.05
398.54	2895.83
398.75	2879.44
398.96	2889.68
399.18	3039.19
399.39	2996.18
399.60	3178.45
399.81	3002.32
400.03	2969.55
400.24	3090.38
400.45	2944.98
400.66	2955.22
400.88	3133.39
401.09	3135.44
401.30	3012.56
401.51	3125.20
401.73	3059.67
401.94	3155.92
402.15	3114.96
402.36	3139.54
402.58	3006.42
402.79	3114.96
403.00	3065.81
403.21	3205.07
403.43	3182.54
403.64	3231.69
403.85	3088.34
404.06	3166.16
404.27	3119.06
404.49	3205.07
404.70	3200.98
404.91	3250.13
405.12	3221.45
405.34	3149.78
405.55	3373.00
405.76	3205.07
405.97	3248.08
406.19	3385.29
406.40	3235.79
406.61	3313.61
406.82	3342.28
407.03	3237.84
407.25	3325.90
407.46	3364.81
407.67	3379.15
407.88	3456.97
408.09	3254.22
408.31	3330.00
408.52	3377.10
408.73	3366.86
408.94	3344.33
409.15	3528.65
409.37	3356.62
409.58	3557.32
409.79	3432.40
410.00	3375.05
410.21	3379.15
410.43	3440.59
410.64	3450.83
410.85	3444.68
411.06	3502.03
411.27	3499.98
411.48	3487.69
411.70	3643.34
411.91	3512.27
412.12	3620.81
412.33	3610.57
412.54	3600.33
412.76	3669.96
412.97	3674.06
413.18	3416.01
413.39	3557.32
413.60	3721.16
413.81	3620.81
414.03	3579.85
414.24	3719.11
414.45	3753.93
414.66	3524.55
414.87	3731.40
415.08	3653.58
415.30	3712.97
415.51	3846.09
415.72	3631.05
415.93	3782.60
416.14	3784.65
416.35	3829.70
416.56	3819.46
416.78	3696.58
416.99	3774.41
417.20	3790.79
417.41	3905.48
417.62	3938.24
417.83	3786.69
418.04	3872.71
418.26	3844.04
418.47	3829.70
418.68	4063.17
418.89	3981.25
419.10	4136.90
419.31	4024.26
419.52	3956.68
419.73	4030.40
419.95	4114.37
420.16	3925.96
420.37	4157.38
420.58	4048.83
420.79	3909.57
421.00	4147.14
421.21	4081.60
421.42	4089.79
421.63	4097.99
421.85	4069.31
422.06	4161.47
422.27	4247.49
422.48	4138.94
422.69	4181.95
422.90	4120.51
423.11	4184.00
423.32	4280.25
423.53	4429.76
423.75	4237.25
423.96	4437.95
424.17	4319.17
424.38	4480.96
424.59	4415.42
424.80	4435.90
425.01	4390.84
425.22	4427.71
425.43	4337.60
425.64	4526.01
425.85	4603.83
426.06	4632.51
426.28	4618.17
426.49	4495.29
426.70	4603.83
426.91	4581.31
427.12	4771.77
427.33	4741.05
427.54	4491.20
427.75	4751.29
427.96	4812.73
428.17	4837.30
428.38	4845.49
428.59	4872.12
428.80	4767.67
429.01	4874.17
429.23	4798.39
429.44	5017.52
429.65	4808.63
429.86	5089.20
430.07	4845.49
430.28	4888.50
430.49	5048.24
430.70	5269.42
430.91	5140.40
431.12	5072.82
431.33	4978.61
431.54	5265.33
431.75	5093.30
431.96	5091.25
432.17	5171.12
432.38	5017.52
432.59	5355.44
432.80	5341.10
433.01	5300.14
433.22	5289.90
433.43	5226.42
433.64	5228.46
433.85	5234.61
434.06	5373.87
434.27	5189.55
434.49	5353.39
434.70	5531.56
434.91	5554.09
435.12	5375.92
435.33	5513.13
435.54	5638.06
435.75	5302.19
435.96	5365.68
436.17	5375.92
436.38	5515.18
436.59	5564.33
436.80	5558.19
437.01	5887.91
437.22	5826.47
437.43	5726.12
437.64	5527.47
437.85	5857.19
438.06	5697.45
438.27	5674.92
438.48	5662.63
438.69	5822.38
438.90	5648.30
439.11	5695.40
439.32	5801.90
439.53	5777.32
439.74	5904.29
439.95	5912.49
440.16	5801.90
440.37	5816.23
440.57	5732.26
440.78	5955.49
440.99	6061.99
441.20	5973.92
441.41	5814.18
441.62	6016.93
441.83	5875.62
442.04	5975.97
442.25	5941.16
442.46	5996.45
442.67	6266.78
442.88	6494.11
443.09	5975.97
443.30	5992.36
443.51	6057.89
443.72	6469.53
443.93	6086.56
444.14	6406.05
444.35	6098.85
444.56	6438.81
444.77	6395.81
444.98	6299.55
445.19	6307.74
445.40	6262.69
445.61	6215.59
445.81	6401.95
446.02	6426.53
446.23	6334.37
446.44	6184.87
446.65	6571.93
446.86	6481.82
447.07	6594.46
447.28	6526.88
447.49	6639.51
447.70	6422.43
447.91	6680.47
448.12	6662.04
448.33	6535.07
448.54	6594.46
448.74	6600.60
448.95	6758.30
449.16	6637.47
449.37	6901.65
449.58	6729.63
449.79	6850.46
450.00	6633.37
450.21	6870.94
450.42	7059.35
450.63	6975.38
450.84	6875.03
451.05	6823.83
451.25	6959.00
451.46	6780.82
451.67	7059.35
451.88	7243.67
452.09	7067.54
452.30	7135.12
452.51	7110.55
452.72	7038.87
452.93	7153.55
453.13	7102.36
453.34	7171.99
453.55	7169.94
453.76	7108.50
453.97	7464.85
454.18	7251.86
454.39	7559.05
454.60	7536.52
454.81	7374.74
455.01	7466.89
455.22	7366.54
455.43	7470.99
455.64	7614.35
455.85	7921.54
456.06	7798.66
456.27	7636.88
456.48	7661.45
456.68	7653.26
456.89	7802.76
457.10	7800.71
457.31	7901.06
457.52	7837.58
457.73	7880.58
457.94	8095.62
458.14	7847.82
458.35	8419.20
458.56	8083.33
458.77	8208.26
458.98	8144.77
459.19	8341.38
459.39	8118.15
459.60	8558.46
459.81	8120.20
460.02	8361.86
460.23	8269.70
460.44	8642.43
460.65	8544.13
460.85	8540.03
461.06	8818.55
461.27	8529.79
461.48	8877.94
461.69	8849.27
461.89	8572.80
462.10	8851.32
462.31	8777.59
462.52	8705.92
462.73	8695.68
462.94	9086.84
463.14	8902.52
463.35	8912.76
463.56	9404.27
463.77	9326.45
463.98	9088.89
464.18	9219.96
464.39	9326.45
464.60	9674.60
464.81	9428.85
465.02	9408.37
465.23	9713.52
465.43	9539.44
465.64	9779.05
465.85	9623.41
466.06	9625.45
466.27	10127.21
466.47	9699.18
466.68	9852.78
466.89	9807.72
467.10	10190.69
467.30	9791.34
467.51	10141.54
467.72	10450.78
467.93	10073.96
468.14	10264.42
468.34	10340.19
468.55	10518.37
468.76	10442.59
468.97	10354.53
469.17	10694.49
469.38	10694.49
469.59	10819.42
469.80	10565.47
470.01	10831.71
470.21	10770.27
470.42	11214.68
470.63	11175.77
470.84	10901.34
471.04	11284.31
471.25	11306.84
471.46	11200.34
471.67	11327.32
471.87	11302.74
472.08	11528.02
472.29	11544.40
472.50	11409.23
472.70	11456.34
472.91	11573.07
473.12	11843.40
473.33	11919.18
473.53	12181.32
473.74	11960.14
473.95	12394.31
474.16	12515.14
474.36	12107.59
474.57	12453.70
474.78	12394.31
474.99	12613.44
475.19	12519.23
475.40	12838.72
475.61	12752.70
475.81	13131.58
476.02	13029.18
476.23	13020.99
476.44	13270.84
476.64	13406.00
476.85	13532.98
477.06	13193.01
477.27	13801.26
477.47	13631.28
477.68	13750.06
477.89	13799.21
478.09	13782.83
478.30	14237.48
478.51	14055.21
478.71	14403.36
478.92	14405.41
479.13	14526.24
479.34	14518.05
479.54	14593.83
479.75	14550.82
479.96	14421.80
480.16	14835.49
480.37	14923.55
480.58	15175.45
480.78	15091.48
480.99	15214.36
481.20	15275.80
481.41	15496.98
481.61	15462.16
481.82	15499.03
482.03	15720.21
482.23	15724.30
482.44	15828.75
482.65	16111.37
482.85	16291.59
483.06	16140.04
483.27	16195.34
483.47	16090.89
483.68	16103.18
483.89	16412.42
484.09	16324.36
484.30	16750.34
484.51	16879.36
484.71	16717.57
484.92	16711.42
485.13	17141.50
485.33	17098.49
485.54	17059.58
485.75	17510.13
485.95	17499.89
486.16	17542.90
486.37	17610.48
486.57	17417.97
486.78	17673.97
486.98	17792.75
487.19	17796.85
487.40	17964.78
487.60	17932.01
487.81	18237.16
488.02	17932.01
488.22	18231.02
488.43	18454.25
488.64	18433.77
488.84	18398.95
489.05	18640.61
489.25	18722.53
489.46	18886.37
489.67	19060.45
489.87	18935.52
490.08	19164.89
490.29	19302.11
490.49	19445.46
490.70	19400.41
490.90	19416.79
491.11	19240.67
491.32	19625.68
491.52	19379.93
491.73	20063.95
491.94	19984.08
492.14	19586.77
492.35	20018.89
492.55	20035.28
492.76	20317.90
492.97	20295.37
493.17	20428.49
493.38	20588.23
493.58	20635.33
493.79	20745.92
494.00	20811.46
494.20	20872.90
494.41	20985.54
494.61	21032.64
494.82	21137.09
495.02	20989.63
495.23	21038.78
495.44	21348.03
495.64	21411.51
495.85	21354.17
496.05	21466.81
496.26	21470.90
496.47	21827.25
496.67	21563.06
496.88	22138.54
497.08	21749.43
497.29	21984.94
497.49	21903.03
497.70	22054.58
497.91	22216.36
498.11	22415.02
498.32	22726.31
498.52	22466.22
498.73	22916.77
498.93	22533.80
499.14	22527.66
499.34	22662.82
499.55	22605.48
499.76	22517.42
499.96	23064.22
500.17	22849.19
500.37	22910.63
500.58	23068.32
500.78	23176.86
500.99	23408.28
501.19	23486.11
501.40	23168.67
501.60	23092.90
501.81	23479.96
502.02	23768.73
502.22	23662.23
502.43	23451.29
502.63	23873.17
502.84	23684.76
503.04	23699.09
503.25	23881.36
503.45	23742.10
503.66	24163.98
503.86	24032.91
504.07	24657.54
504.27	23844.50
504.48	24661.64
504.68	24465.03
504.89	24569.48
505.09	24796.81
505.30	24626.82
505.50	24913.54
505.71	24739.46
505.91	24909.44
506.12	24743.56
506.32	24735.37
506.53	24886.92
506.73	25155.20
506.94	25269.89
507.14	25302.65
507.35	25116.29
507.55	25265.79
507.76	25630.33
507.96	24997.51
508.17	25364.09
508.37	25267.84
508.58	25523.83
508.78	25425.53
508.99	25532.03
509.19	25570.94
509.40	25845.37
509.60	25542.27
509.81	25622.14
510.01	25669.24
510.22	26070.64
510.42	25745.02
510.63	25898.61
510.83	26093.17
511.04	26109.55
511.24	26347.12
511.44	26377.84
511.65	26285.68
511.85	26318.45
512.06	26058.35
512.26	26472.04
512.47	26424.94
512.67	26639.98
512.88	26615.40
513.08	26355.31
513.29	26707.56
513.49	26814.05
513.69	26754.66
513.90	26650.22
514.10	26914.41
514.31	26723.94
514.51	27037.28
514.72	26914.41
514.92	26971.75
515.13	26975.84
515.33	26977.89
515.53	27379.29
515.74	27221.60
515.94	27569.76
516.15	27465.31
516.35	27504.22
516.56	27651.67
516.76	27450.97
516.96	27586.14
517.17	27813.46
517.37	27745.88
517.58	27749.98
517.78	28042.84
517.99	27858.52
518.19	28214.87
518.39	28221.01
518.60	28171.86
518.80	28044.88
519.01	28130.90
519.21	28499.53
519.41	28618.32
519.62	28145.23
519.82	28427.85
520.03	28610.12
520.23	28800.58
520.43	28206.67
520.64	29146.69
520.84	28933.70
521.05	29138.50
521.25	29277.76
521.45	29036.10
521.66	29177.41
521.86	29251.14
522.07	29244.99
522.27	29238.85
522.47	29324.86
522.68	29460.03
522.88	29603.39
523.08	29875.77
523.29	29496.89
523.49	29756.99
523.70	29965.88
523.90	30012.98
524.10	30031.41
524.31	30176.82
524.51	29955.64
524.71	30492.21
524.92	30391.86
525.12	30422.58
525.33	30596.65
525.53	30592.56
525.73	30946.86
525.94	30877.22
526.14	30766.63
526.34	30742.06
526.55	31061.54
526.75	31135.27
526.95	31252.00
527.16	31637.02
527.36	31032.87
527.56	31512.10
527.77	31645.21
527.97	31704.60
528.17	31700.51
528.38	31802.91
528.58	31888.92
528.78	31774.24
528.99	31749.66
529.19	32390.67
529.39	32022.04
529.60	32275.99
529.80	32366.10
530.00	32382.48
530.21	32583.18
530.41	32744.97
530.61	32681.49
530.82	32552.46
531.02	32839.18
531.22	33021.45
531.43	33037.83
531.63	33302.02
531.83	33123.85
532.04	33828.35
532.24	33390.08
532.44	33658.37
532.64	34016.76
532.85	33803.77
533.05	33861.12
533.25	34151.93
533.46	34196.98
533.66	34395.64
533.86	34264.57
534.07	34569.71
534.27	34391.54
534.47	34567.66
534.67	34889.20
534.88	34649.58
535.08	34633.20
535.28	35241.45
535.49	35087.85
535.69	35628.51
535.89	35372.52
536.09	35276.26
536.30	35460.58
536.50	35556.83
536.70	35659.23
536.91	35544.55
537.11	35966.43
537.31	36218.33
537.51	35737.05
537.72	36482.52
537.92	36546.00
538.12	36537.81
538.32	36230.62
538.53	36761.04
538.73	36566.48
538.93	36480.47
539.13	36994.51
539.34	36828.62
539.54	36498.90
539.74	37254.60
539.94	36984.27
540.15	36634.06
540.35	37074.38
540.55	37336.52
540.75	37357.00
540.96	37338.57
541.16	37299.65
541.36	37803.46
541.56	37475.78
541.77	37944.76
541.97	37647.81
542.17	38051.26
542.37	37920.19
542.58	37635.52
542.78	37893.57
542.98	37846.46
543.18	38211.00
543.38	38843.82
543.59	38739.38
543.79	38288.82
543.99	38385.08
544.19	38866.35
544.40	38708.66
544.60	38759.86
544.80	38901.17
545.00	38604.21
545.20	39234.99
545.41	38821.30
545.61	38987.18
545.81	39220.65
546.01	39165.35
546.21	39493.03
546.42	39196.07
546.62	39417.25
546.82	38966.70
547.02	39656.87
547.22	39589.28
547.43	39312.81
547.63	39390.63
547.83	39738.79
548.03	39880.10
548.23	39855.52
548.44	39822.75
548.64	39890.34
548.84	39994.78
549.04	40072.60
549.24	40463.77
549.45	40494.49
549.65	40580.50
549.85	40293.79
550.05	40347.03
550.25	40156.57
550.45	40854.93
550.66	40813.97
550.86	40639.89
551.06	40891.79
551.26	40689.04
551.46	40654.23
551.66	40607.12
551.87	40961.42
552.07	40678.80
552.27	41026.96
552.47	40742.29
552.67	41045.39
552.87	41534.85
553.07	41055.63
553.28	41106.83
553.48	41715.08
553.68	41164.17
553.88	41348.49
554.08	41704.84
554.28	41473.42
554.48	41418.12
554.69	41817.47
554.89	41600.39
555.09	41637.25
555.29	41299.34
555.49	41899.39
555.69	41874.82
555.89	41940.35
556.10	41819.52
556.30	41643.40
556.50	42327.42
556.70	41760.13
556.90	42579.32
557.10	42255.74
557.30	42184.06
557.50	42308.99
557.70	42233.21
557.91	42515.83
558.11	41956.74
558.31	42204.54
558.51	42380.67
558.71	42579.32
558.91	42351.99
559.11	41944.45
559.31	42583.41
559.51	42433.91
559.72	42071.42
559.92	42747.25
560.12	42546.55
560.32	42927.47
560.52	42544.50
560.72	42941.81
560.92	42685.81
561.12	42855.79
561.32	43171.18
561.52	42827.12
561.72	43343.21
561.93	42802.55
562.13	43502.95
562.33	42607.99
562.53	43486.57
562.73	43029.87
562.93	43109.74
563.13	43187.56
563.33	43132.27
563.53	43218.28
563.73	43181.42
563.93	42906.99
564.13	43789.67
564.33	42931.57
564.53	43185.52
564.74	43720.04
564.94	43488.62
565.14	43369.83
565.34	43498.86
565.54	43849.06
565.74	43734.37
565.94	44043.62
566.14	43629.93
566.34	43615.59
566.54	44201.31
566.74	43533.67
566.94	43879.78
567.14	43812.20
567.34	43853.15
567.54	43914.59
567.74	44045.66
567.94	43324.78
568.14	44422.49
568.34	44490.07
568.54	44426.59
568.74	44307.80
568.94	44070.24
569.14	44356.96
569.34	44381.53
569.54	44535.13
569.75	44062.05
569.95	44578.14
570.15	44338.52
570.35	44471.64
570.55	44318.04
570.75	44739.93
570.95	44504.41
571.15	44326.24
571.35	44324.19
571.55	44989.78
571.75	44406.11
571.95	44537.18
572.15	44864.85
572.35	44516.70
572.55	44707.16
572.75	44219.74
572.95	44483.93
573.15	44856.66
573.35	44688.73
573.55	44756.31
573.75	44987.73
573.95	44893.52
574.15	45129.04
574.35	44903.76
574.55	44811.60
574.75	44957.01
574.95	45249.87
575.15	45141.33
575.34	44942.67
575.54	45385.04
575.74	45571.40
575.94	45446.47
576.14	45684.04
576.34	45469.00
576.54	45897.03
576.74	45923.65
576.94	45643.08
577.14	45626.70
577.34	46021.95
577.54	45636.94
577.74	45485.39
577.94	45763.91
578.14	46091.58
578.34	46374.20
578.54	45325.64
578.74	45901.12
578.94	46007.62
579.14	46355.77
579.34	46089.54
579.54	46112.06
579.74	46607.67
579.94	46363.96
580.13	46546.23
580.33	46251.33
580.53	46712.12
580.73	46720.31
580.93	46335.29
581.13	46648.63
581.33	46716.22
581.53	47017.27
581.73	46589.24
581.93	46976.31
582.13	46841.14
582.33	47119.66
582.53	47265.07
582.73	46814.52
582.92	47310.13
583.12	47052.08
583.32	47054.13
583.52	47322.41
583.72	47330.61
583.92	47373.61
584.12	47260.97
584.32	47834.41
584.52	47650.09
584.72	47709.48
584.92	47449.39
585.11	47863.08
585.31	47807.78
585.51	47613.23
585.71	47373.61
585.91	47693.10
586.11	47770.92
586.31	47035.70
586.51	47527.21
586.71	47988.00
586.91	48063.78
587.10	47920.42
587.30	47969.57
587.50	48237.86
587.70	48545.05
587.90	48346.40
588.10	48076.07
588.30	48317.73
588.50	48270.62
588.69	48231.71
588.89	48229.66
589.09	48846.10
589.29	48321.82
589.49	48725.27
589.69	47975.72
589.89	49052.95
590.08	48504.09
590.28	48461.08
590.48	48876.82
590.68	48815.38
590.88	49120.53
591.08	48799.00
591.28	48258.34
591.47	49200.40
591.67	49190.16
591.87	49104.15
592.07	49100.05
592.27	49231.12
592.47	49239.31
592.67	49390.86
592.86	49042.71
593.06	49339.66
593.26	49354.00
593.46	49284.37
593.66	49255.70
593.86	49251.60
594.05	48993.56
594.25	49648.91
594.45	49499.40
594.65	49552.65
594.85	49134.87
595.05	49755.40
595.24	49861.90
595.44	49614.09
595.64	49571.08
595.84	50261.25
596.04	50040.07
596.23	50005.25
596.43	50347.26
596.63	50029.83
596.83	49876.23
597.03	50025.73
597.22	50281.73
597.42	50363.65
597.62	50558.20
597.82	50789.62
598.02	51064.05
598.21	51102.96
598.41	50646.27
598.61	51070.20
598.81	50779.39
599.01	51070.20
599.20	50560.25
599.40	50427.13
599.60	51016.95
599.80	50857.21
600.00	50945.27
600.19	51428.59
600.39	50914.55
600.59	51293.43
600.79	51221.75
600.98	50742.52
601.18	51123.44
601.38	51160.31
601.58	51604.72
601.78	51608.81
601.97	51487.98
602.17	51471.60
602.37	51717.35
602.57	51903.72
602.76	52069.61
602.96	51815.66
603.16	52382.94
603.36	52077.80
603.55	52348.13
603.75	51997.93
603.95	52049.13
604.15	52159.72
604.34	52241.63
604.54	52307.17
604.74	52069.61
604.94	52376.80
605.13	52344.03
605.33	52651.23
605.53	52548.83
605.73	53015.77
605.92	52671.71
606.12	52731.10
606.32	53040.34
606.52	52810.97
606.71	52880.60
606.91	53026.01
607.11	52798.68
607.30	53087.45
607.50	53179.60
607.70	52806.87
607.90	52899.03
608.09	53001.43
608.29	53116.12
608.49	53327.06
608.68	53327.06
608.88	53261.52
609.08	53183.70
609.28	53763.28
609.47	53155.03
609.67	53814.47
609.87	53347.54
610.06	53726.41
610.26	53564.62
610.46	53714.12
610.66	53761.23
610.85	53597.39
611.05	53445.84
611.25	53568.72
611.44	53884.11
611.64	53998.79
611.84	53927.11
612.03	53906.63
612.23	54224.07
612.43	53900.49
612.62	54183.11
612.82	54379.71
613.02	53894.35
613.21	54088.90
613.41	53877.96
613.61	54066.38
613.80	53972.17
614.00	54119.62
614.20	54516.93
614.39	54170.82
614.59	54183.11
614.79	54068.42
614.98	54316.23
615.18	54326.47
615.38	54293.70
615.57	54338.75
615.77	54510.78
615.97	54435.01
616.16	54064.33
616.36	53933.26
616.56	54201.54
616.75	54203.59
616.95	53957.83
617.15	53966.02
617.34	53966.02
617.54	54262.98
617.74	54658.24
617.93	54588.61
618.13	54093.00
618.32	54451.39
618.52	54127.81
618.72	54768.83
618.91	54541.50
619.11	54584.51
619.31	54447.30
619.50	54336.71
619.70	54492.35
619.90	54686.91
620.09	54334.66
620.29	54189.25
620.48	54559.94
620.68	55119.03
620.88	54121.67
621.07	54166.73
621.27	54457.54
621.46	54385.86
621.66	54279.36
621.86	54463.68
622.05	54340.80
622.25	54785.21
622.44	54199.49
622.64	54228.16
622.84	54684.86
623.03	54320.32
623.23	54060.23
623.42	54273.22
623.62	54443.20
623.82	54402.24
624.01	54394.05
624.21	54430.91
624.40	54457.54
624.60	54463.68
624.80	54119.62
624.99	54510.78
625.19	54469.82
625.38	54936.76
625.58	54815.93
625.77	54566.08
625.97	54484.16
626.17	54541.50
626.36	54043.85
626.56	54181.06
626.75	54074.57
626.95	54842.56
627.14	54334.66
627.34	54447.30
627.54	54099.14
627.73	54432.96
627.93	54465.73
628.12	54117.57
628.32	54662.33
628.51	54973.63
628.71	54584.51
628.90	54799.55
629.10	54617.28
629.30	54842.56
629.49	55026.87
629.69	54561.98
629.88	54791.36
630.08	54963.39
630.27	55100.60
630.47	54875.32
630.66	54682.81
630.86	54953.15
631.05	54281.41
631.25	55178.42
631.44	55114.94
631.64	55004.34
631.84	54539.46
632.03	55254.20
632.23	54508.74
632.42	55168.18
632.62	54731.96
632.81	54428.87
633.01	54736.06
633.20	54903.99
633.40	55135.41
633.59	54963.39
633.79	54817.98
633.98	54604.99
634.18	55059.64
634.37	54930.62
634.57	54832.32
634.76	54787.26
634.96	55444.66
635.15	55547.06
635.35	54957.24
635.54	54734.01
635.74	55221.43
635.93	54854.84
636.13	55092.41
636.32	55196.85
636.52	54903.99
636.71	55368.88
636.91	55071.93
637.10	55096.50
637.30	55239.86
637.49	55139.51
637.69	54916.28
637.88	55325.88
638.08	54865.08
638.27	54883.51
638.46	54881.47
638.66	54705.34
638.85	55540.91
639.05	55368.88
639.24	55313.59
639.44	54895.80
639.63	55471.28
639.83	55530.67
640.02	55379.12
640.22	55350.45
640.41	55342.26
640.61	55073.98
640.80	55116.98
640.99	55493.81
641.19	55776.43
641.38	55428.27
641.58	55714.99
641.77	55291.06
641.97	55530.67
642.16	55702.70
642.36	55403.70
642.55	55680.17
642.74	54858.94
642.94	55848.11
643.13	55319.73
643.33	55899.31
643.52	55903.40
643.72	56145.06
643.91	55762.09
644.10	55219.38
644.30	55547.06
644.49	55260.34
644.69	55602.35
644.88	55458.99
645.08	55428.27
645.27	55452.85
645.46	55084.22
645.66	55792.81
645.85	55391.41
646.05	55778.48
646.24	56112.30
646.43	55684.27
646.63	55901.36
646.82	55567.54
647.02	56018.09
647.21	55809.20
647.40	55618.74
647.60	56169.64
647.79	56331.43
647.99	56020.14
648.18	55979.18
648.37	56276.13
648.57	56071.34
648.76	55868.59
648.96	55663.79
649.15	55801.00
649.34	56204.45
649.54	56325.28
649.73	55708.85
649.92	55569.58
650.12	56114.34
650.31	56556.70
650.51	55964.84
650.70	56523.94
650.89	56231.08
651.09	56759.45
651.28	56181.93
651.47	56382.63
651.67	56382.63
651.86	56616.10
652.06	56061.10
652.25	56284.33
652.44	56259.75
652.64	55506.10
652.83	56054.95
653.02	55975.08
653.22	56157.35
653.41	56149.16
653.60	55798.96
653.80	56190.12
653.99	56452.26
654.18	56095.91
654.38	56155.30
654.57	55962.79
654.76	56394.92
654.96	56005.80
655.15	56028.33
655.34	56501.41
655.54	55635.12
655.73	56059.05
655.92	56091.82
656.12	56466.59
656.31	56403.11
656.50	56085.67
656.70	56501.41
656.89	56079.53
657.08	56132.78
657.28	56456.35
657.47	56140.97
657.66	56218.79
657.86	55956.65
658.05	56556.70
658.24	56495.27
658.43	56038.57
658.63	56210.60
658.82	56399.01
659.01	56415.40
659.21	56538.27
659.40	56296.61
659.59	56106.15
659.79	56452.26
659.98	56296.61
660.17	56485.03
660.36	56134.82
660.56	56390.82
660.75	56562.85
660.94	56612.00
661.14	56474.79
661.33	56226.98
661.52	55899.31
661.71	56558.75
661.91	56104.10
662.10	56089.77
662.29	56605.86
662.49	56562.85
662.68	56427.68
662.87	56841.37
663.06	56286.37
663.26	56616.10
663.45	55997.61
663.64	56122.54
663.83	56837.28
664.03	56700.06
664.22	56665.25
664.41	56302.76
664.60	56296.61
664.80	56579.23
664.99	56319.14
665.18	56046.76
665.37	56108.20
665.57	56431.78
665.76	55770.28
665.95	55932.07
666.14	56452.26
666.34	55934.12
666.53	55794.86
666.72	56198.31
666.91	56165.54
667.11	56386.72
667.30	56337.57
667.49	56034.47
667.68	56525.99
667.87	56001.71
668.07	56095.91
668.26	55932.07
668.45	56194.21
668.64	56110.25
668.84	56794.27
669.03	56247.46
669.22	56333.48
669.41	56564.90
669.60	56067.24
669.80	56444.07
669.99	56607.90
670.18	56431.78
670.37	56104.10
670.57	56636.58
670.76	55999.66
670.95	56550.56
671.14	55925.93
671.33	55805.10
671.53	56753.31
671.72	56601.76
671.91	56378.53
672.10	56237.22
672.29	56198.31
672.48	56292.52
672.68	56693.92
672.87	55905.45
673.06	55901.36
673.25	55532.72
673.44	55739.57
673.64	56114.34
673.83	55844.01
674.02	55669.93
674.21	55319.73
674.40	55839.92
674.59	56104.10
674.79	55895.21
674.98	55907.50
675.17	55964.84
675.36	55829.68
675.55	56013.99
675.74	56110.25
675.94	55737.52
676.13	55884.97
676.32	55952.55
676.51	56272.04
676.70	55956.65
676.89	55796.91
677.08	55938.22
677.28	55442.61
677.47	56255.65
677.66	56155.30
677.85	55854.25
678.04	55876.78
678.23	55989.42
678.42	55866.54
678.62	55745.71
678.81	55897.26
679.00	55342.26
679.19	56050.86
679.38	55727.28
679.57	55907.50
679.76	56147.11
679.96	55604.40
680.15	56054.95
680.34	55602.35
680.53	55444.66
680.72	55758.00
680.91	55723.18
681.10	55465.14
681.29	55817.39
681.48	55608.50
681.68	55506.10
681.87	55133.37
682.06	55362.74
682.25	55432.37
682.44	55534.77
682.63	55534.77
682.82	55436.47
683.01	55418.03
683.20	55153.85
683.39	55116.98
683.59	55362.74
683.78	55198.90
683.97	54891.71
684.16	55186.61
684.35	54875.32
684.54	55125.17
684.73	54826.17
684.92	55063.74
685.11	55329.97
685.30	54723.77
685.49	55317.68
685.69	55168.18
685.88	55422.13
686.07	55178.42
686.26	55268.53
686.45	55372.98
686.64	54887.61
686.83	54768.83
687.02	55078.07
687.21	55203.00
687.40	54805.69
687.59	54580.42
687.78	54707.39
687.97	54879.42
688.16	54801.60
688.35	54897.85
688.54	54582.46
688.74	54719.68
688.93	54631.61
689.12	55141.56
689.31	54695.10
689.50	54869.18
689.69	54848.70
689.88	54156.49
690.07	54809.79
690.26	54578.37
690.45	54961.34
690.64	54500.54
690.83	54502.59
691.02	54240.45
691.21	54256.84
691.40	54287.56
691.59	54252.74
691.78	54473.92
691.97	54678.72
692.16	54478.02
692.35	54262.98
692.54	53939.40
692.73	54463.68
692.92	54342.85
693.11	54414.53
693.30	54228.16
693.49	54400.19
693.68	54097.09
693.87	54217.92
694.06	54068.42
694.25	54011.08
694.44	53818.57
694.63	54295.75
694.82	54297.80
695.01	53845.19
695.20	54301.89
695.39	54062.28
695.58	54117.57
695.77	54383.81
695.96	53564.62
696.15	54469.82
696.34	53388.50
696.53	53656.78
696.72	53773.52
696.91	53982.41
697.10	53888.20
697.29	53712.08
697.48	53998.79
697.67	53486.80
697.86	53368.02
698.05	53683.40
698.24	53949.64
698.43	53337.30
698.62	53691.60
698.81	53597.39
699.00	53963.98
699.19	53195.99
699.38	53589.20
699.57	52780.25
699.76	54164.68
699.95	53597.39
700.14	53370.07
700.32	53183.70
700.51	53476.56
700.70	53329.11
700.89	53447.89
701.08	52839.64
701.27	53294.29
701.46	53929.16
701.65	53007.58
701.84	53173.46
702.03	53353.68
702.22	53101.78
702.41	53525.71
702.60	53161.17
702.79	52950.23
702.98	52589.79
703.17	53222.61
703.35	52511.97
703.54	52872.41
703.73	53359.83
703.92	52978.90
704.11	53181.65
704.30	52499.68
704.49	52995.29
704.68	52626.65
704.87	52413.66
705.06	52319.46
705.25	52581.60
705.43	52655.32
705.62	52884.70
705.81	52614.37
706.00	52372.70
706.19	52376.80
706.38	52503.77
706.57	52753.63
706.76	52131.04
706.95	52354.27
707.14	52303.07
707.32	52366.56
707.51	52434.14
707.70	52163.81
707.89	52215.01
708.08	52260.07
708.27	52229.35
708.46	52487.39
708.65	52022.50
708.84	52221.16
709.02	52241.63
709.21	52069.61
709.40	51717.35
709.59	52380.90
709.78	51746.03
709.97	52231.40
710.16	51461.36
710.34	52024.55
710.53	51905.77
710.72	51397.87
710.91	51950.82
711.10	51797.23
711.29	51786.99
711.48	51891.43
711.66	51848.42
711.85	51487.98
712.04	51707.12
712.23	51715.31
712.42	51698.92
712.61	51299.57
712.80	51373.30
712.98	51371.25
713.17	51229.94
713.36	51838.18
713.55	51610.86
713.74	51766.51
713.93	51639.53
714.11	50920.70
714.30	51469.55
714.49	51383.54
714.68	51313.90
714.87	51145.97
715.06	51553.52
715.24	51246.32
715.43	51578.09
715.62	51119.35
715.81	51062.00
716.00	51541.23
716.18	50846.97
716.37	50918.65
716.56	50730.23
716.75	51168.50
716.94	51150.07
717.12	50912.50
717.31	50992.37
717.50	50636.03
717.69	50795.77
717.88	50791.67
718.06	50914.55
718.25	50808.06
718.44	50703.61
718.63	50730.23
718.82	50169.09
719.00	50500.86
719.19	50476.29
719.38	50152.71
719.57	50023.68
719.76	49597.71
719.94	49984.77
720.13	50121.99
720.32	50105.60
720.51	50101.51
720.69	50179.33
720.88	49835.27
721.07	49755.40
721.26	49659.15
721.44	49919.24
721.63	49493.26
721.82	49374.48
722.01	49300.75
722.20	49616.14
722.38	49599.76
722.57	49132.82
722.76	49407.25
722.95	49304.85
723.13	49331.47
723.32	49022.23
723.51	48706.84
723.70	49110.29
723.88	49313.04
724.07	48606.49
724.26	48788.76
724.44	48268.58
724.63	49169.68
724.82	49206.55
725.01	49067.28
725.19	48751.90
725.38	48731.42
725.57	48522.52
725.76	49095.95
725.94	48164.13
726.13	48411.93
726.32	48598.30
726.51	48397.60
726.69	49075.48
726.88	49001.75
727.07	48543.00
727.25	48444.70
727.44	48395.55
727.63	48422.17
727.82	48485.66
728.00	48256.29
728.19	48248.10
728.38	48577.82
728.56	48047.39
728.75	48925.97
728.94	48452.89
729.12	48696.60
729.31	48545.05
729.50	48319.77
729.69	48366.88
729.87	48608.54
730.06	48209.18
730.25	48180.51
730.43	48454.94
730.62	48452.89
730.81	48622.87
730.99	48620.83
731.18	48264.48
731.37	48260.38
731.55	48512.28
731.74	48383.26
731.93	48379.17
732.11	48229.66
732.30	48172.32
732.49	48411.93
732.67	48596.25
732.86	48297.25
733.05	48348.45
733.23	47867.17
733.42	48014.63
733.61	48074.02
733.79	48151.84
733.98	48448.80
734.17	48461.08
734.35	48428.32
734.54	48598.30
734.73	48549.15
734.91	47711.53
735.10	47961.38
735.29	48280.86
735.47	48059.68
735.66	47863.08
735.84	48244.00
736.03	47592.75
736.22	48307.49
736.40	47877.41
736.59	47988.00
736.78	47570.22
736.96	47469.87
737.15	47486.25
737.33	47303.98
737.52	47674.66
737.71	47502.64
737.89	47553.83
738.08	47346.99
738.27	47553.83
738.45	47863.08
738.64	47330.61
738.82	47461.68
739.01	47781.16
739.20	47338.80
739.38	47504.68
739.57	47879.46
739.75	47807.78
739.94	47140.14
740.13	47572.27
740.31	47338.80
740.50	47562.03
740.68	47525.16
740.87	47220.02
741.06	47363.37
741.24	47469.87
741.43	47308.08
741.61	47785.25
741.80	47150.38
741.99	47328.56
742.17	47209.78
742.36	47158.58
742.54	47066.42
742.73	47574.31
742.91	47045.94
743.10	47433.00
743.29	47076.66
743.47	47263.02
743.66	47086.90
743.84	47170.86
744.03	47136.05
744.21	47015.22
744.40	46992.69
744.59	46425.40
744.77	46814.52
744.96	46642.49
745.14	46830.90
745.33	46622.01
745.51	46853.43
745.70	46589.24
745.88	46554.43
746.07	46822.71
746.26	46433.60
746.44	46648.63
746.63	46458.17
746.81	46933.30
747.00	46298.43
747.18	46757.17
747.37	46335.29
747.55	46527.80
747.74	46966.07
747.92	46247.23
748.11	46357.82
748.29	46372.16
748.48	46658.87
748.66	46353.72
748.85	45944.13
749.03	46265.66
749.22	45966.66
749.41	45579.59
749.59	46216.51
749.78	46466.36
749.96	45348.17
750.15	46155.07
750.33	45970.75
750.52	46183.74
750.70	45647.18
750.89	45806.92
751.07	45323.60
751.26	45800.77
751.44	45608.26
751.63	45550.92
751.81	45630.79
752.00	45417.80
752.18	45958.47
752.37	45849.92
752.55	45096.27
752.74	45137.23
752.92	45055.31
753.10	45176.14
753.29	45331.79
753.47	45049.17
753.66	44838.23
753.84	45577.54
754.03	44946.77
754.21	44727.64
754.40	45170.00
754.58	45206.86
754.77	44985.68
754.95	44918.10
755.14	44877.14
755.32	44889.43
755.51	44709.21
755.69	44574.04
755.88	44696.92
756.06	44928.34
756.24	44930.39
756.43	44340.57
756.61	44651.86
756.80	44201.31
756.98	44072.29
757.17	44371.29
757.35	44944.72
757.54	44330.33
757.72	44410.20
757.90	44316.00
758.09	44250.46
758.27	44553.56
758.46	44098.91
758.64	44277.08
758.83	44234.08
759.01	44152.16
759.19	43953.51
759.38	44039.52
759.56	44021.09
759.75	44305.76
759.93	44135.77
760.12	43883.87
760.30	44000.61
760.48	44254.56
760.67	43734.37
760.85	43863.39
761.04	43832.68
761.22	43924.83
761.40	43722.08
761.59	43660.65
761.77	43851.11
761.96	43552.10
762.14	43304.30
762.32	43320.68
762.51	43314.54
762.69	43631.97
762.88	43330.92
763.06	43222.38
763.24	43054.45
763.43	43099.50
763.61	42954.10
763.80	43287.92
763.98	43107.69
764.16	43197.80
764.35	42896.75
764.53	42386.81
764.72	43013.49
764.90	42835.31
765.08	42941.81
765.27	43353.45
765.45	42923.38
765.63	42472.82
765.82	42567.03
766.00	42577.27
766.18	42659.19
766.37	42919.28
766.55	42972.53
766.74	42464.63
766.92	42425.72
767.10	42229.12
767.29	42308.99
767.47	41737.60
767.65	42210.68
767.84	42040.70
768.02	42362.23
768.20	42202.49
768.39	41829.76
768.57	41692.55
768.75	42009.98
768.94	41991.55
769.12	41776.51
769.30	41670.02
769.49	41960.83
769.67	41655.68
769.85	41520.52
770.04	41874.82
770.22	41706.88
770.40	41471.37
770.59	41424.26
770.77	41493.89
770.95	41325.96
771.14	41168.27
771.32	41209.23
771.50	40899.98
771.69	41201.04
771.87	41459.08
772.05	40879.50
772.24	40838.54
772.42	41000.33
772.60	40816.02
772.78	41014.67
772.97	40744.34
773.15	41168.27
773.33	40826.26
773.52	40459.67
773.70	40543.64
773.88	40981.90
774.07	40625.56
774.25	40736.15
774.43	41115.02
774.61	40854.93
774.80	40953.23
774.98	40953.23
775.16	40842.64
775.34	40641.94
775.53	40359.32
775.71	40906.13
775.89	40715.67
776.08	40934.80
776.26	41061.77
776.44	40936.85
776.62	40848.78
776.81	41053.58
776.99	41119.12
777.17	40736.15
777.35	40883.60
777.54	40936.85
777.72	40844.69
777.90	40709.52
778.08	40977.81
778.27	41072.01
778.45	41178.51
778.63	41381.26
778.81	41041.29
779.00	41571.72
779.18	40775.06
779.36	41313.67
779.54	40938.90
779.73	40854.93
779.91	41528.71
780.09	41311.63
780.27	41258.38
780.46	41454.98
780.64	41432.46
780.82	41051.53
781.00	41457.03
781.19	41751.94
781.37	41719.17
781.55	41397.64
781.73	42038.65
781.91	41307.53
782.10	41538.95
782.28	41446.79
782.46	41446.79
782.64	41823.62
782.82	41438.60
783.01	42130.81
783.19	41426.31
783.37	41891.20
783.55	41592.20
783.74	41960.83
783.92	41256.33
784.10	42075.52
784.28	41553.29
784.46	41209.23
784.64	41186.70
784.83	41717.12
785.01	41637.25
785.19	41995.65
785.37	41739.65
785.55	41672.07
785.74	41229.71
785.92	41074.06
786.10	41448.84
786.28	41584.01
786.46	41287.05
786.64	41205.13
786.83	41194.89
787.01	41704.84
787.19	41315.72
787.37	41407.88
787.55	41264.52
787.74	40930.70
787.92	41067.92
788.10	40687.00
788.28	40746.39
788.46	41299.34
788.64	40164.76
788.82	40842.64
789.01	40856.98
789.19	40852.88
789.37	40957.33
789.55	40650.13
789.73	40596.88
789.91	40152.48
790.09	40517.01
790.28	40195.48
790.46	40279.45
790.64	40244.63
790.82	40365.46
791.00	39947.68
791.18	40027.55
791.36	40263.07
791.55	39781.79
791.73	39738.79
791.91	39482.79
792.09	39861.66
792.27	39706.02
792.45	40039.84
792.63	39538.08
792.81	39194.03
793.00	39208.36
793.18	39116.20
793.36	39118.25
793.54	39142.83
793.72	38935.98
793.90	38383.03
794.08	38497.72
794.26	39126.44
794.44	38548.92
794.62	38655.41
794.81	38395.32
794.99	38657.46
795.17	38520.24
795.35	38346.17
795.53	38733.23
795.71	38458.81
795.89	38024.64
796.07	37703.10
796.25	37873.09
796.43	37631.43
796.61	37608.90
796.80	37647.81
796.98	37754.30
797.16	37633.47
797.34	37207.50
797.52	36994.51
797.70	37625.28
797.88	37270.98
798.06	37191.11
798.24	37053.90
798.42	37035.47
798.60	36967.88
798.78	36318.68
798.96	36781.52
799.14	36271.57
799.32	36576.72
799.51	36562.39
799.69	36718.03
799.87	36541.91
800.05	36287.96
800.23	36253.14
800.41	35745.25
800.59	36402.64
800.77	36111.83
800.95	35835.36
801.13	36160.98
801.31	35792.35
801.49	35882.46
801.67	35460.58
801.85	35421.67
802.03	35163.62
802.21	35163.62
802.39	34794.99
802.57	35489.25
802.75	35255.78
802.93	35239.40
803.11	34553.33
803.29	35075.56
803.47	34520.56
803.65	34698.73
803.83	34174.45
804.01	34506.23
804.19	34373.11
804.37	34164.21
804.55	34346.48
804.73	34063.86
804.91	33965.56
805.09	34239.99
805.27	34612.72
805.45	33879.55
805.63	34127.35
805.81	33920.51
805.99	33637.89
806.17	34012.66
806.35	33711.61
806.53	33543.68
806.71	33680.89
806.89	33687.04
807.07	33523.20
807.25	33527.30
807.43	33226.24
807.61	33439.23
807.79	33291.78
807.97	33015.30
808.15	33183.24
808.33	32949.77
808.51	33000.97
808.69	32880.14
808.87	32779.79
809.05	32579.09
809.23	32568.85
809.41	32474.64
809.59	32247.32
809.77	32663.05
809.95	32517.65
810.13	32484.88
810.31	32462.35
810.49	32093.72
810.67	32435.73
810.84	32194.07
811.02	32329.23
811.20	31825.43
811.38	32163.35
811.56	31786.52
811.74	31663.64
811.92	31493.66
812.10	31764.00
812.28	31677.98
812.46	31731.23
812.64	31692.32
812.82	31278.63
813.00	31188.52
813.18	31247.91
813.36	30989.86
813.53	31043.11
813.71	30869.03
813.89	30754.35
814.07	31464.99
814.25	31010.34
814.43	31006.25
814.61	30889.51
814.79	30664.24
814.97	30823.98
815.15	30725.68
815.33	30506.54
815.50	30119.48
815.68	30596.65
815.86	30651.95
816.04	30357.04
816.22	30338.61
816.40	30365.23
816.58	30142.00
816.76	30045.75
816.94	30293.55
817.11	30027.32
817.29	30008.89
817.47	30076.47
817.65	29840.95
817.83	29787.71
818.01	29468.22
818.19	29689.40
818.37	29599.29
818.54	29414.98
818.72	29265.47
818.90	29173.31
819.08	29427.26
819.26	29556.28
819.44	29128.26
819.62	29265.47
819.80	29302.34
819.97	29509.18
820.15	29447.74
820.33	29085.25
820.51	28855.88
820.69	28976.71
820.87	29294.14
821.05	29384.26
821.22	28870.22
821.40	28862.02
821.58	28737.10
821.76	28683.85
821.94	28708.43
822.12	28853.83
822.29	28812.87
822.47	28540.49
822.65	28644.94
822.83	28743.24
823.01	28601.93
823.19	28390.99
823.36	28221.01
823.54	28429.90
823.72	28206.67
823.90	28225.11
824.08	27842.14
824.25	28311.12
824.43	27780.70
824.61	27647.58
824.79	28063.32
824.97	27747.93
825.15	28032.60
825.32	27985.49
825.50	27973.21
825.68	27960.92
825.86	27835.99
826.04	27569.76
826.21	27555.42
826.39	27612.76
826.57	27657.82
826.75	27471.45
826.93	27633.24
827.10	27514.46
827.28	27676.25
827.46	27666.01
827.64	27266.66
827.81	27055.72
827.99	27293.28
828.17	27444.83
828.35	26855.01
828.53	27119.20
828.70	27149.92
828.88	26961.51
829.06	26865.25
829.24	27018.85
829.41	26992.23
829.59	27350.62
829.77	27188.83
829.95	26801.77
830.12	26660.46
830.30	26695.27
830.48	27151.97
830.66	26594.92
830.84	26846.82
831.01	26500.72
831.19	26510.96
831.37	26588.78
831.55	26394.22
831.72	26433.13
831.90	26650.22
832.08	26349.17
832.25	26488.43
832.43	26455.66
832.61	26238.58
832.79	26105.46
832.96	26209.90
833.14	26275.44
833.32	26660.46
833.50	26756.71
833.67	26238.58
833.85	26111.60
834.03	26074.74
834.20	26205.81
834.38	26003.06
834.56	26076.79
834.74	25888.37
834.91	25863.80
835.09	25579.13
835.27	25980.53
835.44	25646.71
835.62	25097.86
835.80	25466.49
835.98	25671.29
836.15	25798.26
836.33	25513.59
836.51	25667.19
836.68	25548.41
836.86	25104.00
837.04	25458.30
837.21	25276.03
837.39	25409.15
837.57	25560.70
837.75	25720.44
837.92	25087.62
838.10	25384.57
838.28	24956.55
838.45	25091.71
838.63	25110.14
838.81	25259.65
838.98	24897.16
839.16	24944.26
839.34	25040.51
839.51	24729.22
839.69	24841.86
839.87	24780.42
840.04	24833.67
840.22	24919.68
840.40	24606.34
840.57	24864.39
840.75	24606.34
840.93	24430.22
841.10	24567.43
841.28	24979.07
841.46	24598.15
841.63	24706.70
841.81	24727.17
841.98	24350.35
842.16	24647.30
842.34	24462.99
842.51	24118.93
842.69	24456.84
842.87	24286.86
843.04	24409.74
843.22	24047.25
843.40	24501.90
843.57	24186.51
843.75	24407.69
843.92	24473.23
844.10	24766.09
844.28	24452.75
844.45	24241.81
844.63	24127.12
844.81	23961.23
844.98	23932.56
845.16	23889.56
845.33	24098.45
845.51	24082.06
845.69	23787.16
845.86	23703.19
846.04	23711.38
846.21	23860.88
846.39	24028.82
846.57	23826.07
846.74	24077.97
846.92	23871.12
847.09	23738.01
847.27	23469.72
847.45	23641.75
847.62	23932.56
847.80	23662.23
847.97	23711.38
848.15	23611.03
848.32	22967.97
848.50	23498.39
848.68	23279.26
848.85	23330.46
849.03	23549.59
849.20	23266.97
849.38	23236.25
849.56	23318.17
849.73	23070.37
849.91	23185.05
850.08	23477.91
850.26	23156.38
850.43	23082.66
850.61	22875.81
850.78	22818.47
850.96	22730.41
851.14	22779.56
851.31	22851.24
851.49	22965.92
851.66	22816.42
851.84	22699.69
852.01	22910.63
852.19	23021.22
852.36	22605.48
852.54	22634.15
852.71	22838.95
852.89	22884.00
853.07	22376.11
853.24	22720.17
853.42	22480.55
853.59	22836.90
853.77	22890.15
853.94	22709.93
854.12	22916.77
854.29	22044.34
854.47	22398.63
854.64	22345.39
854.82	22498.98
854.99	22480.55
855.17	22478.50
855.34	22156.97
855.52	22251.18
855.69	22535.85
855.87	22187.69
856.04	22236.84
856.22	22453.93
856.39	22079.15
856.57	21841.59
856.74	21931.70
856.92	22073.01
857.09	21886.64
857.27	22105.77
857.44	21972.66
857.62	22099.63
857.79	22113.97
857.97	22089.39
858.14	21919.41
858.32	22050.48
858.49	22218.41
858.67	21956.27
858.84	21632.69
859.02	21731.00
859.19	21812.92
859.37	21511.86
859.54	21515.96
859.72	21704.37
859.89	21778.10
860.06	21653.17
860.24	21393.08
860.41	21898.93
860.59	21262.01
860.76	21581.49
860.94	21311.16
861.11	21624.50
861.29	21366.46
861.46	21307.07
861.64	20836.03
861.81	21083.84
861.98	21229.24
862.16	21016.26
862.33	20979.39
862.51	21051.07
862.68	21075.65
862.86	20987.58
863.03	21085.89
863.21	21249.72
863.38	20872.90
863.55	20795.07
863.73	21120.70
863.90	20887.23
864.08	20920.00
864.25	20737.73
864.43	20809.41
864.60	20776.64
864.77	20491.98
864.95	20672.20
865.12	20432.58
865.30	20829.89
865.47	20661.96
865.64	20561.61
865.82	20623.05
865.99	20606.66
866.17	20481.74
866.34	20545.22
866.51	20235.98
866.69	20670.15
866.86	20602.57
867.04	20500.17
867.21	20340.43
867.38	20235.98
867.56	20213.45
867.73	20149.96
867.91	20143.82
868.08	20133.58
868.25	19953.36
868.43	20139.72
868.60	19861.20
868.78	19943.12
868.95	20102.86
869.12	20057.81
869.30	19918.54
869.47	20098.77
869.64	19799.76
869.82	19668.69
869.99	19564.25
870.16	20008.65
870.34	19889.87
870.51	19801.81
870.69	19529.43
870.86	19547.86
871.03	19588.82
871.21	19547.86
871.38	19578.58
871.55	19345.11
871.73	19341.02
871.90	19537.62
872.07	19613.40
872.25	19394.26
872.42	19197.66
872.59	19271.39
872.77	18939.62
872.94	18990.81
873.11	19146.46
873.29	19283.67
873.46	18964.19
873.63	19207.90
873.81	19201.76
873.98	18816.74
874.15	18857.70
874.33	18958.05
874.50	18765.54
874.67	18958.05
874.85	18978.53
875.02	18790.11
875.19	18560.74
875.37	18573.03
875.54	18435.81
875.71	18824.93
875.88	18372.33
876.06	18634.47
876.23	18357.99
876.40	18474.73
876.58	18306.79
876.75	18525.93
876.92	18102.00
877.10	18648.80
877.27	18190.06
877.44	18097.90
877.61	18353.90
877.79	17991.41
877.96	18198.25
878.13	17909.49
878.31	18093.80
878.48	17909.49
878.65	17831.66
878.82	17757.94
879.00	17778.42
879.17	17745.65
879.34	18028.27
879.51	17735.41
879.69	17749.75
879.86	17512.18
880.03	17745.65
880.21	17972.97
880.38	17667.83
880.55	17821.42
880.72	17706.74
880.90	17721.07
881.07	17714.93
881.24	17540.85
881.41	17751.79
881.59	17372.92
881.76	17555.19
881.93	17530.61
882.10	17321.72
882.28	17166.07
882.45	17407.73
882.62	17258.23
882.79	17434.36
882.96	17114.87
883.14	17176.31
883.31	17276.66
883.48	17098.49
883.65	17264.38
883.83	17270.52
884.00	17231.61
884.17	17331.96
884.34	17078.01
884.51	17286.90
884.69	16836.35
884.86	16998.14
885.03	17075.96
885.20	16754.43
885.38	17037.05
885.55	16832.26
885.72	16805.63
885.89	16940.80
886.06	16811.78
886.24	16822.02
886.41	16860.93
886.58	16920.32
886.75	16852.73
886.92	16686.85
887.10	16670.47
887.27	16422.66
887.44	16830.21
887.61	16916.22
887.78	16711.42
887.95	16985.85
888.13	16588.55
888.30	16637.70
888.47	16471.81
888.64	16787.20
888.81	16609.03
888.99	16402.18
889.16	16150.28
889.33	16146.19
889.50	16437.00
889.67	16457.48
889.84	16131.85
890.01	16432.90
890.19	16258.82
890.36	16326.41
890.53	16293.64
890.70	16121.61
890.87	16148.23
891.04	15804.17
891.22	16092.94
891.39	16111.37
891.56	15832.85
891.73	16129.80
891.90	15890.19
892.07	15793.94
892.24	15875.85
892.42	15875.85
892.59	15789.84
892.76	15644.43
892.93	15623.95
893.10	16021.26
893.27	15728.40
893.44	15607.57
893.61	15669.01
893.79	15843.09
893.96	15652.63
894.13	15664.91
894.30	15712.02
894.47	15507.22
894.64	15732.50
894.81	15513.36
894.98	15679.25
895.15	15574.80
895.33	15619.86
895.50	15523.60
895.67	15623.95
895.84	15634.19
896.01	15593.23
896.18	15603.47
896.35	15736.59
896.52	15527.70
896.69	15585.04
896.86	15660.82
897.04	15447.83
897.21	15488.79
897.38	15546.13
897.55	15662.86
897.72	15509.27
897.89	15413.01
898.06	15519.51
898.23	15566.61
898.40	15386.39
898.57	15507.22
898.74	15370.01
898.91	15445.78
899.08	15427.35
899.26	15544.08
899.43	15492.88
899.60	15499.03
899.77	15273.75
899.94	15460.12
900.11	15533.84
900.28	15466.26
900.45	15402.77
900.62	15511.32
900.79	15748.88
900.96	15408.92
901.13	15335.19
901.30	15466.26
901.47	15089.43
901.64	15396.63
901.81	15560.47
901.98	15419.16
902.15	15658.77
902.32	15568.66
902.49	15566.61
902.66	15437.59
902.83	15505.17
903.01	15415.06
903.18	15464.21
903.35	15400.72
903.52	15267.61
903.69	15513.36
903.86	15609.62
904.03	15415.06
904.20	15605.52
904.37	15320.85
904.54	15386.39
904.71	15294.23
904.88	15277.85
905.05	15255.32
905.22	15519.51
905.39	15197.98
905.56	15314.71
905.73	15195.93
905.90	15245.08
906.07	15267.61
906.24	15292.18
906.41	15097.63
906.58	15130.39
906.75	15421.20
906.92	15071.00
907.09	15134.49
907.26	15492.88
907.43	15101.72
907.60	15234.84
907.77	15363.86
907.93	15320.85
908.10	15167.26
908.27	15372.05
908.44	15396.63
908.61	15159.06
908.78	15181.59
908.95	15126.30
909.12	15228.70
909.29	15240.98
909.46	15003.42
909.63	15030.04
909.80	15040.28
909.97	15175.45
910.14	15111.96
910.31	15021.85
910.48	15013.66
910.65	14968.60
910.82	15081.24
910.99	14978.84
911.16	14800.67
911.33	15032.09
911.50	15066.91
911.66	14931.74
911.83	15107.87
912.00	14999.32
912.17	14626.59
912.34	14941.98
912.51	14898.97
912.68	14724.90
912.85	14798.62
913.02	14765.85
913.19	14667.55
913.36	14755.61
913.53	14733.09
913.70	14714.66
913.86	14843.68
914.03	14442.28
914.20	14628.64
914.37	14700.32
914.54	14610.21
914.71	14735.14
914.88	14350.12
915.05	14442.28
915.22	14278.44
915.39	14516.00
915.55	14327.59
915.72	14335.78
915.89	14272.29
916.06	14282.53
916.23	14061.35
916.40	14169.90
916.57	13954.86
916.74	14047.02
916.91	13817.65
917.07	13739.82
917.24	13860.65
917.41	13827.88
917.58	14098.22
917.75	13932.33
917.92	13899.56
918.09	13733.68
918.26	13799.21
918.42	13723.44
918.59	13762.35
918.76	13602.61
918.93	13492.02
919.10	13508.40
919.27	13524.79
919.44	13412.15
919.60	13428.53
919.77	13504.31
919.94	13406.00
920.11	13387.57
920.28	13254.45
920.45	13418.29
920.61	13135.67
920.78	13182.77
920.95	13236.02
921.12	13381.43
921.29	13170.49
921.46	13113.14
921.62	13020.99
921.79	12934.97
921.96	13004.60
922.13	12879.68
922.30	12777.28
922.47	12805.95
922.63	12619.58
922.80	12646.21
922.97	12664.64
923.14	12554.05
923.31	12660.54
923.47	12412.74
923.64	12668.73
923.81	12451.65
923.98	12349.25
924.15	12253.00
924.32	12181.32
924.48	12263.24
924.65	12236.61
924.82	12126.02
924.99	12040.01
925.15	11794.25
925.32	12308.29
925.49	11982.67
925.66	11941.71
925.83	11943.75
925.99	11853.64
926.16	11933.51
926.33	11822.92
926.50	11685.71
926.67	11945.80
926.83	11599.70
927.00	11618.13
927.17	11366.23
927.34	11509.58
927.50	11573.07
927.67	11603.79
927.84	11470.67
928.01	11296.60
928.17	11431.76
928.34	11149.14
928.51	11030.36
928.68	10874.71
928.84	10966.87
929.01	10878.81
929.18	11026.26
929.35	10846.04
929.51	10973.02
929.68	10559.33
929.85	10714.97
930.02	10833.75
930.18	10782.56
930.35	10680.16
930.52	10704.73
930.69	10614.62
930.85	10669.92
931.02	10428.26
931.19	10536.80
931.36	10182.50
931.52	10311.52
931.69	10534.75
931.86	10205.03
932.02	10098.53
932.19	10211.17
932.36	10080.10
932.53	10149.73
932.69	10002.28
932.86	10116.97
933.03	9971.56
933.19	9908.07
933.36	9813.87
933.53	10022.76
933.70	9770.86
933.86	9631.60
934.03	9783.15
934.20	9629.55
934.36	9635.69
934.53	9418.61
934.70	9385.84
934.86	9344.88
935.03	9199.48
935.20	9123.70
935.36	9170.80
935.53	9064.31
935.70	8920.95
935.86	8845.18
936.03	8906.62
936.20	8742.78
936.36	8726.39
936.53	8636.28
936.70	8636.28
936.86	8744.83
937.03	8351.62
937.20	8241.03
937.36	8501.12
937.53	8109.96
937.70	8175.49
937.86	7935.88
938.03	8134.53
938.20	7946.12
938.36	7716.75
938.53	7806.86
938.70	7565.20
938.86	7714.70
939.03	7516.05
939.20	7319.44
939.36	7223.19
939.53	7278.48
939.70	7370.64
939.86	7178.13
940.03	6926.23
940.19	6803.35
940.36	6856.60
940.53	7073.68
940.69	6766.49
940.86	6664.09
941.03	6580.12
941.19	6469.53
941.36	6336.42
941.52	6434.72
941.69	6180.77
941.86	6291.36
942.02	6240.16
942.19	6301.60
942.35	6193.06
942.52	6088.61
942.69	6016.93
942.85	5937.06
943.02	5967.78
943.18	6080.42
943.35	5754.79
943.52	5674.92
943.68	5869.48
943.85	5672.87
944.01	5789.61
944.18	5728.17
944.35	5664.68
944.51	5550.00
944.68	5488.56
944.84	5590.95
945.01	5490.60
945.17	5525.42
945.34	5486.51
945.51	5474.22
945.67	5586.86
945.84	5453.74
946.00	5349.29
946.17	5332.91
946.33	5318.57
946.50	5504.94
946.67	5277.62
946.83	5353.39
947.00	5611.43
947.16	5289.90
947.33	5394.35
947.49	5265.33
947.66	5279.66
947.82	5298.10
947.99	5273.52
948.16	5382.06
948.32	5437.36
948.49	5343.15
948.65	5367.73
948.82	5312.43
948.98	5394.35
949.15	5199.79
949.31	5310.38
949.48	5322.67
949.64	5439.40
949.81	5322.67
949.97	5314.48
950.14	5404.59
950.30	5158.83
950.47	5302.19
950.63	5361.58
950.80	5435.31
950.96	5357.49
951.13	5373.87
951.30	5230.51
951.46	5498.80
951.63	5347.25
951.79	5468.08
951.96	5484.46
952.12	5416.88
952.29	5509.04
952.45	5322.67
952.62	5380.01
952.78	5504.94
952.94	5271.47
953.11	5431.21
953.27	5193.65
953.44	5441.45
953.60	5500.84
953.77	5543.85
953.93	5619.63
954.10	5525.42
954.26	5463.98
954.43	5472.17
954.59	5511.08
954.76	5490.60
954.92	5539.76
955.09	5568.43
955.25	5418.93
955.42	5492.65
955.58	5496.75
955.75	5500.84
955.91	5408.69
956.07	5584.81
956.24	5457.84
956.40	5506.99
956.57	5601.19
956.73	5550.00
956.90	5558.19
957.06	5513.13
957.23	5443.50
957.39	5480.36
957.56	5498.80
957.72	5390.25
957.88	5400.49
958.05	5537.71
958.21	5652.39
958.38	5478.32
958.54	5703.59
958.71	5646.25
958.87	5550.00
959.03	5437.36
959.20	5541.80
959.36	5504.94
959.53	5398.45
959.69	5498.80
959.85	5531.56
960.02	5482.41
960.18	5414.83
960.35	5550.00
960.51	5572.52
960.68	5386.16
960.84	5445.55
961.00	5418.93
961.17	5447.60
961.33	5408.69
961.50	5539.76
961.66	5554.09
961.82	5511.08
961.99	5388.21
962.15	5406.64
962.31	5384.11
962.48	5480.36
962.64	5492.65
962.81	5420.97
962.97	5506.99
963.13	5457.84
963.30	5486.51
963.46	5437.36
963.62	5371.82
963.79	5494.70
963.95	5369.77
964.12	5423.02
964.28	5506.99
964.44	5310.38
964.61	5472.17
964.77	5203.89
964.93	5371.82
965.10	5343.15
965.26	5365.68
965.42	5359.53
965.59	5197.74
965.75	5339.05
965.92	5332.91
966.08	5250.99
966.24	5298.10
966.41	5162.93
966.57	5287.86
966.73	5201.84
966.90	5316.53
967.06	5318.57
967.22	5296.05
967.39	5248.94
967.55	5320.62
967.71	5263.28
967.88	5263.28
968.04	5070.77
968.20	5216.18
968.37	5238.70
968.53	5214.13
968.69	5197.74
968.85	5121.97
969.02	5207.98
969.18	5107.63
969.34	5201.84
969.51	5246.90
969.67	5195.70
969.83	4982.71
970.00	5136.31
970.16	5136.31
970.32	5244.85
970.48	5107.63
970.65	4974.52
970.81	4911.03
970.97	5111.73
971.14	5050.29
971.30	5283.76
971.46	5101.49
971.63	5025.72
971.79	5101.49
971.95	5089.20
972.11	4984.76
972.28	4984.76
972.44	5021.62
972.60	4927.41
972.76	5111.73
972.93	4915.12
973.09	4984.76
973.25	4902.84
973.42	4863.93
973.58	4861.88
973.74	4843.45
973.90	4956.08
974.07	4771.77
974.23	4956.08
974.39	4939.70
974.55	4913.08
974.72	4800.44
974.88	4734.90
975.04	4784.06
975.20	4743.10
975.37	4843.45
975.53	4710.33
975.69	4755.38
975.85	4747.19
976.01	4712.38
976.18	4779.96
976.34	4851.64
976.50	4849.59
976.66	4714.42
976.83	4786.10
976.99	4634.55
977.15	4642.75
977.31	4491.20
977.47	4726.71
977.64	4712.38
977.80	4622.27
977.96	4630.46
978.12	4693.94
978.29	4575.16
978.45	4636.60
978.61	4462.52
978.77	4640.70
978.93	4554.68
979.10	4454.33
979.26	4526.01
979.42	4528.06
979.58	4362.17
979.74	4480.96
979.91	4489.15
980.07	4362.17
980.23	4489.15
980.39	4403.13
980.55	4442.04
980.71	4425.66
980.88	4390.84
981.04	4378.56
981.20	4353.98
981.36	4480.96
981.52	4243.39
981.68	4329.41
981.85	4380.61
982.01	4304.83
982.17	4290.49
982.33	4231.10
982.49	4370.37
982.65	4388.80
982.82	4417.47
982.98	4382.65
983.14	4286.40
983.30	4329.41
983.46	4290.49
983.62	4411.32
983.79	4140.99
983.95	4210.62
984.11	4124.61
984.27	4251.58
984.43	4194.24
984.59	4280.25
984.75	4267.97
984.91	4151.23
985.08	4321.21
985.24	4112.32
985.40	4044.74
985.56	4136.90
985.72	4054.98
985.88	4153.28
986.04	4102.08
986.20	4026.31
986.37	4059.07
986.53	3887.04
986.69	3989.44
986.85	4077.51
987.01	4087.75
987.17	4112.32
987.33	4042.69
987.49	3985.35
987.65	4032.45
987.82	4054.98
987.98	3966.92
988.14	3989.44
988.30	4022.21
988.46	4005.83
988.62	3993.54
988.78	3938.24
988.94	3946.44
989.10	3858.37
989.26	3829.70
989.42	3928.00
989.59	3827.65
989.75	3841.99
989.91	3862.47
990.07	3745.73
990.23	3866.56
990.39	3780.55
990.55	3850.18
990.71	3764.17
990.87	3876.80
991.03	3903.43
991.19	3706.82
991.35	3846.09
991.51	3823.56
991.67	3841.99
991.83	3835.85
992.00	3588.04
992.16	3815.37
992.32	3928.00
992.48	3700.68
992.64	3641.29
992.80	3702.73
992.96	3657.67
993.12	3737.54
993.28	3706.82
993.44	3616.71
993.60	3690.44
993.76	3672.01
993.92	3510.22
994.08	3622.86
994.24	3657.67
994.40	3620.81
994.56	3555.27
994.72	3583.95
994.88	3499.98
995.04	3551.18
995.20	3629.00
995.36	3532.75
995.52	3575.75
995.68	3526.60
995.84	3428.30
996.00	3612.62
996.16	3512.27
996.32	3401.68
996.48	3397.58
996.64	3504.07
996.80	3477.45
996.96	3422.16
997.12	3403.72
997.28	3379.15
997.44	3432.40
997.60	3399.63
997.76	3332.05
997.92	3467.21
998.08	3485.64
998.24	3266.51
998.40	3444.68
998.56	3301.33
998.72	3276.75
998.88	3303.37
999.04	3315.66
999.20	3375.05
999.36	3321.81
999.52	3284.94
999.68	3266.51
999.84	3256.27
1000.00	3360.72
1000.16	3311.57
1000.32	3264.46
1000.48	3262.41
1000.64	3248.08
1000.80	3174.35
1000.95	3096.53
1001.11	3200.98
1001.27	3141.58
1001.43	3207.12
1001.59	3129.30
1001.75	3127.25
1001.91	3256.27
1002.07	3082.19
1002.23	3149.78
1002.39	3217.36
1002.55	3125.20
1002.71	3039.19
1002.87	3104.72
1003.03	3012.56
1003.19	3108.82
1003.34	3092.43
1003.50	3074.00
1003.66	3110.86
1003.82	3100.62
1003.98	3000.27
1004.14	3039.19
1004.30	2973.65
1004.46	3022.80
1004.62	2949.08
1004.78	2985.94
1004.94	2951.12
1005.09	3039.19
1005.25	3076.05
1005.41	3074.00
1005.57	3024.85
1005.73	2975.70
1005.89	2863.06
1006.05	2940.88
1006.21	3010.51
1006.37	2947.03
1006.52	2971.60
1006.68	2891.73
1006.84	3059.67
1007.00	2854.87
1007.16	2981.84
1007.32	3004.37
1007.48	2908.12
1007.64	2883.54
1007.79	2953.17
1007.95	2842.58
1008.11	2971.60
1008.27	2770.90
1008.43	2858.96
1008.59	2842.58
1008.75	2912.21
1008.91	2942.93
1009.06	2756.57
1009.22	2858.96
1009.38	2703.32
1009.54	2691.03
1009.70	2789.33
1009.86	2777.05
1010.01	2791.38
1010.17	2789.33
1010.33	2772.95
1010.49	2779.09
1010.65	2781.14
1010.81	2656.22
1010.96	2766.81
1011.12	2699.22
1011.28	2695.13
1011.44	2781.14
1011.60	2740.18
1011.76	2691.03
1011.91	2791.38
1012.07	2641.88
1012.23	2578.39
1012.39	2639.83
1012.55	2656.22
1012.71	2633.69
1012.86	2705.37
1013.02	2656.22
1013.18	2619.35
1013.34	2607.06
1013.50	2598.87
1013.65	2621.40
1013.81	2641.88
1013.97	2656.22
1014.13	2619.35
1014.29	2617.30
1014.44	2639.83
1014.60	2545.63
1014.76	2555.86
1014.92	2596.82
1015.07	2576.34
1015.23	2576.34
1015.39	2508.76
1015.55	2500.57
1015.71	2559.96
1015.86	2453.47
1016.02	2557.91
1016.18	2463.71
1016.34	2424.80
1016.49	2543.58
1016.65	2512.86
1016.81	2375.64
1016.97	2521.05
1017.12	2535.39
1017.28	2457.56
1017.44	2447.32
1017.60	2398.17
1017.75	2449.37
1017.91	2375.64
1018.07	2402.27
1018.23	2443.23
1018.38	2400.22
1018.54	2424.80
1018.70	2500.57
1018.86	2389.98
1019.01	2277.34
1019.17	2381.79
1019.33	2539.48
1019.49	2420.70
1019.64	2439.13
1019.80	2400.22
1019.96	2340.83
1020.12	2392.03
1020.27	2318.30
1020.43	2363.36
1020.59	2357.21
1020.74	2426.84
1020.90	2404.32
1021.06	2312.16
1021.22	2334.68
1021.37	2342.88
1021.53	2248.67
1021.69	2443.23
1021.84	2318.30
1022.00	2346.97
1022.16	2316.25
1022.31	2383.84
1022.47	2357.21
1022.63	2342.88
1022.79	2277.34
1022.94	2224.09
1023.10	2336.73
1023.26	2232.29
1023.41	2224.09
1023.57	2201.57
1023.73	2385.88
1023.88	2301.92
1024.04	2217.95
1024.20	2215.90
1024.35	2258.91
1024.51	2297.82
1024.67	2283.49
1024.82	2281.44
1024.98	2131.94
1025.14	2293.72
1025.29	2250.72
1025.45	2289.63
1025.61	2191.33
1025.76	2238.43
1025.92	2199.52
1026.08	2215.90
1026.23	2201.57
1026.39	2252.77
1026.55	2164.70
1026.70	2154.46
1026.86	2158.56
1027.02	2224.09
1027.17	2125.79
1027.33	2201.57
1027.48	2189.28
1027.64	2123.74
1027.80	2103.26
1027.95	2224.09
1028.11	2086.88
1028.27	2138.08
1028.42	2168.80
1028.58	2101.22
1028.73	2095.07
1028.89	2054.11
1029.05	2168.80
1029.20	2072.54
>>>>>End Processed Spectral Data<<<<<
