SpectraSuite Data File
++++++++++++++++++++++++++++++++++++
Date: Fri Jun 02 14:57:20 CEST 2017
User: INFO_000
Dark Spectrum Present: No
Reference Spectrum Present: No
Number of Sampled Component Spectra: 1
Spectrometers: USB4H00879
Integration Time (usec): 80000 (USB4H00879)
Spectra Averaged: 1 (USB4H00879)
Boxcar Smoothing: 0 (USB4H00879)
Correct for Electrical Dark: No (USB4H00879)
Strobe/Lamp Enabled: No (USB4H00879)
Correct for Detector Non-linearity: No (USB4H00879)
Correct for Stray Light: No (USB4H00879)
Number of Pixels in Processed Spectrum: 3648
>>>>>Begin Processed Spectral Data<<<<<
345.13	1279.98
345.34	1279.98
345.56	1279.98
345.78	1230.83
345.99	1239.02
346.21	1751.01
346.42	1675.24
346.64	1638.38
346.86	1834.98
347.07	1650.66
347.29	1675.24
347.50	1642.47
347.72	1718.25
347.94	1691.62
348.15	1548.26
348.37	1630.18
348.59	1722.34
348.80	1619.94
349.02	1748.97
349.23	1863.65
349.45	1789.92
349.67	1894.37
349.88	1824.74
350.10	1998.82
350.31	1904.61
350.53	1824.74
350.75	1929.19
350.96	1822.69
351.18	1861.60
351.39	1796.07
351.61	1832.93
351.82	1925.09
352.04	1964.00
352.26	1816.55
352.47	1871.84
352.69	1927.14
352.90	1753.06
353.12	1941.47
353.34	1849.32
353.55	1927.14
353.77	1855.46
353.98	1810.40
354.20	1877.99
354.41	1998.82
354.63	1966.05
354.85	2043.87
355.06	1910.75
355.28	1822.69
355.49	1916.90
355.71	1884.13
355.92	1847.27
356.14	1916.90
356.35	1806.31
356.57	1908.71
356.79	1916.90
357.00	1882.08
357.22	1996.77
357.43	1863.65
357.65	1994.72
357.86	1820.64
358.08	1869.80
358.29	1914.85
358.51	1964.00
358.72	1884.13
358.94	1961.95
359.16	1976.29
359.37	1916.90
359.59	1961.95
359.80	1992.67
360.02	1949.67
360.23	2056.16
360.45	2076.64
360.66	1925.09
360.88	1937.38
361.09	1990.63
361.31	2011.11
361.52	1978.34
361.74	2101.22
361.95	2025.44
362.17	1970.15
362.38	2099.17
362.60	1984.48
362.81	2025.44
363.03	1939.43
363.24	2027.49
363.46	2025.44
363.67	2043.87
363.89	1961.95
364.10	1990.63
364.32	1961.95
364.53	2017.25
364.75	1896.42
364.96	1945.57
365.18	2058.21
365.39	1970.15
365.61	2015.20
365.82	2170.85
366.04	2019.30
366.25	1892.32
366.47	1996.77
366.68	2025.44
366.90	2066.40
367.11	2074.59
367.33	2076.64
367.54	2064.35
367.76	2050.02
367.97	2129.89
368.19	2056.16
368.40	2054.11
368.62	2011.11
368.83	2000.87
369.05	2072.54
369.26	2019.30
369.48	2052.06
369.69	2017.25
369.91	2076.64
370.12	2062.30
370.33	2101.22
370.55	1974.24
370.76	2097.12
370.98	2144.22
371.19	2095.07
371.41	2050.02
371.62	2072.54
371.84	2027.49
372.05	2201.57
372.27	2105.31
372.48	2109.41
372.69	2103.26
372.91	2152.42
373.12	2070.50
373.34	2056.16
373.55	2162.66
373.77	2172.89
373.98	2164.70
374.20	2068.45
374.41	2295.77
374.62	2131.94
374.84	2111.46
375.05	2232.29
375.27	2090.98
375.48	2224.09
375.70	2162.66
375.91	2193.37
376.12	2306.01
376.34	2107.36
376.55	2172.89
376.77	2144.22
376.98	2181.09
377.19	2199.52
377.41	2052.06
377.62	2265.05
377.84	2250.72
378.05	2383.84
378.27	2179.04
378.48	2252.77
378.69	2428.89
378.91	2263.01
379.12	2195.42
379.34	2234.33
379.55	2365.40
379.76	2269.15
379.98	2252.77
380.19	2160.61
380.41	2236.38
380.62	2203.61
380.83	2291.68
381.05	2207.71
381.26	2443.23
381.47	2273.25
381.69	2232.29
381.90	2351.07
382.12	2330.59
382.33	2312.16
382.54	2301.92
382.76	2271.20
382.97	2375.64
383.19	2281.44
383.40	2435.03
383.61	2248.67
383.83	2318.30
384.04	2289.63
384.25	2353.12
384.47	2387.93
384.68	2406.36
384.89	2242.53
385.11	2330.59
385.32	2256.86
385.54	2363.36
385.75	2336.73
385.96	2416.60
386.18	2349.02
386.39	2363.36
386.60	2322.40
386.82	2596.82
387.03	2430.94
387.24	2471.90
387.46	2371.55
387.67	2406.36
387.88	2461.66
388.10	2492.38
388.31	2459.61
388.52	2533.34
388.74	2449.37
388.95	2529.24
389.16	2439.13
389.38	2494.43
389.59	2631.64
389.80	2586.58
390.02	2519.00
390.23	2627.54
390.44	2551.77
390.66	2467.80
390.87	2502.62
391.08	2648.02
391.30	2725.85
391.51	2586.58
391.72	2715.61
391.94	2637.78
392.15	2600.92
392.36	2619.35
392.58	2609.11
392.79	2629.59
393.00	2660.31
393.22	2721.75
393.43	2852.82
393.64	2768.85
393.85	2904.02
394.07	2742.23
394.28	2656.22
394.49	2805.72
394.71	2826.20
394.92	2887.64
395.13	2594.78
395.35	2731.99
395.56	2727.89
395.77	2805.72
395.98	2838.48
396.20	2906.07
396.41	2918.36
396.62	2953.17
396.84	2840.53
397.05	2756.57
397.26	2895.83
397.47	2951.12
397.69	2875.35
397.90	3061.71
398.11	2910.16
398.32	2928.60
398.54	2934.74
398.75	2818.00
398.96	2951.12
399.18	3125.20
399.39	2973.65
399.60	2977.75
399.81	2994.13
400.03	2940.88
400.24	3260.37
400.45	2893.78
400.66	3090.38
400.88	2981.84
401.09	3182.54
401.30	3006.42
401.51	3135.44
401.73	3125.20
401.94	3157.97
402.15	3188.69
402.36	3035.09
402.58	3147.73
402.79	3182.54
403.00	3100.62
403.21	3182.54
403.43	3200.98
403.64	3313.61
403.85	3151.82
404.06	3162.06
404.27	3233.74
404.49	3243.98
404.70	3256.27
404.91	3332.05
405.12	3286.99
405.34	3315.66
405.55	3358.67
405.76	3170.26
405.97	3182.54
406.19	3405.77
406.40	3196.88
406.61	3352.52
406.82	3393.48
407.03	3270.61
407.25	3313.61
407.46	3391.44
407.67	3356.62
407.88	3545.03
408.09	3348.43
408.31	3352.52
408.52	3440.59
408.73	3309.52
408.94	3375.05
409.15	3387.34
409.37	3567.56
409.58	3446.73
409.79	3567.56
410.00	3600.33
410.21	3485.64
410.43	3493.83
410.64	3536.84
410.85	3649.48
411.06	3477.45
411.27	3598.28
411.48	3694.54
411.70	3645.38
411.91	3577.80
412.12	3645.38
412.33	3626.95
412.54	3596.23
412.76	3727.30
412.97	3633.10
413.18	3559.37
413.39	3708.87
413.60	3686.34
413.81	3663.82
414.03	3612.62
414.24	3649.48
414.45	3833.80
414.66	3633.10
414.87	3887.04
415.08	3721.16
415.30	3794.89
415.51	3721.16
415.72	3645.38
415.93	3772.36
416.14	3921.86
416.35	3880.90
416.56	3815.37
416.78	3876.80
416.99	3968.96
417.20	3928.00
417.41	3932.10
417.62	3997.64
417.83	3932.10
418.04	3858.37
418.26	3997.64
418.47	3915.72
418.68	4081.60
418.89	3862.47
419.10	4208.58
419.31	3960.77
419.52	4069.31
419.73	4026.31
419.95	4075.46
420.16	3942.34
420.37	4050.88
420.58	4120.51
420.79	3768.26
421.00	4136.90
421.21	4026.31
421.42	4075.46
421.63	4075.46
421.85	3960.77
422.06	4175.81
422.27	4222.91
422.48	4186.05
422.69	4227.01
422.90	4206.53
423.11	4259.78
423.32	4255.68
423.53	4259.78
423.75	4251.58
423.96	4450.24
424.17	4360.13
424.38	4478.91
424.59	4390.84
424.80	4591.55
425.01	4435.90
425.22	4341.69
425.43	4390.84
425.64	4603.83
425.85	4734.90
426.06	4652.98
426.28	4521.92
426.49	4544.44
426.70	4427.71
426.91	4472.76
427.12	4716.47
427.33	4587.45
427.54	4546.49
427.75	4695.99
427.96	4794.29
428.17	4726.71
428.38	4706.23
428.59	4845.49
428.80	4644.79
429.01	4810.68
429.23	4886.45
429.44	4984.76
429.65	4859.83
429.86	4966.32
430.07	4816.82
430.28	4802.49
430.49	4997.04
430.70	5091.25
430.91	5064.63
431.12	4982.71
431.33	5081.01
431.54	5097.39
431.75	5017.52
431.96	5142.45
432.17	5140.40
432.38	4900.79
432.59	5240.75
432.80	5203.89
433.01	5279.66
433.22	5226.42
433.43	5312.43
433.64	5201.84
433.85	5304.24
434.06	5463.98
434.27	5259.18
434.49	5308.34
434.70	5431.21
434.91	5429.17
435.12	5582.76
435.33	5414.83
435.54	5361.58
435.75	5207.98
435.96	5324.72
436.17	5253.04
436.38	5607.34
436.59	5625.77
436.80	5513.13
437.01	5730.22
437.22	5666.73
437.43	5564.33
437.64	5521.32
437.85	5752.74
438.06	5656.49
438.27	5734.31
438.48	5674.92
438.69	5795.75
438.90	5830.57
439.11	5558.19
439.32	5789.61
439.53	5797.80
439.74	5758.89
439.95	5875.62
440.16	5849.00
440.37	5730.22
440.57	5652.39
440.78	5984.16
440.99	5943.21
441.20	5857.19
441.41	5816.23
441.62	5879.72
441.83	5918.63
442.04	5894.05
442.25	6088.61
442.46	6125.47
442.67	6098.85
442.88	6420.38
443.09	6016.93
443.30	6125.47
443.51	6076.32
443.72	6262.69
443.93	6191.01
444.14	6350.75
444.35	6152.10
444.56	6252.45
444.77	6307.74
444.98	6377.37
445.19	6137.76
445.40	6442.91
445.61	6369.18
445.81	6438.81
446.02	6467.49
446.23	6391.71
446.44	6205.35
446.65	6410.14
446.86	6487.96
447.07	6670.23
447.28	6776.73
447.49	6541.21
447.70	6549.40
447.91	6655.90
448.12	6588.32
448.33	6913.94
448.54	6838.17
448.74	6768.54
448.95	6616.99
449.16	6580.12
449.37	7083.92
449.58	6805.40
449.79	6897.56
450.00	6848.41
450.21	6893.46
450.42	7114.64
450.63	7040.92
450.84	7016.34
451.05	7161.75
451.25	6905.75
451.46	6993.81
451.67	7245.71
451.88	7110.55
452.09	7286.67
452.30	7065.49
452.51	7171.99
452.72	7370.64
452.93	7671.69
453.13	7266.19
453.34	7272.34
453.55	7401.36
453.76	7329.68
453.97	7819.14
454.18	7444.37
454.39	7616.40
454.60	7505.81
454.81	7532.43
455.01	7718.79
455.22	7454.61
455.43	7477.13
455.64	7626.64
455.85	7960.45
456.06	8038.28
456.27	7970.69
456.48	7868.30
456.68	7931.78
456.89	7966.60
457.10	7970.69
457.31	8202.11
457.52	7995.27
457.73	8091.52
457.94	8488.83
458.14	8036.23
458.35	8417.15
458.56	8327.04
458.77	8298.37
458.98	8462.21
459.19	8214.40
459.39	8382.34
459.60	8535.93
459.81	8462.21
460.02	8634.24
460.23	8609.66
460.44	8900.47
460.65	8679.29
460.85	8849.27
461.06	8787.83
461.27	8703.87
461.48	9088.89
461.69	9088.89
461.89	8783.74
462.10	9101.17
462.31	8920.95
462.52	9039.73
462.73	9138.04
462.94	9234.29
463.14	8994.68
463.35	9308.02
463.56	9531.25
463.77	9674.60
463.98	9373.55
464.18	9211.76
464.39	9762.67
464.60	9750.38
464.81	9568.11
465.02	9564.01
465.23	9914.22
465.43	9609.07
465.64	9830.25
465.85	9842.54
466.06	10030.95
466.27	10139.49
466.47	10131.30
466.68	10219.36
466.89	10153.83
467.10	10186.60
467.30	10012.52
467.51	10211.17
467.72	10512.22
467.93	10432.35
468.14	10309.47
468.34	10536.80
468.55	10530.66
468.76	10551.14
468.97	10495.84
469.17	10825.56
469.38	10704.73
469.59	11114.33
469.80	10798.94
470.01	10921.82
470.21	11040.60
470.42	11370.32
470.63	11140.95
470.84	11161.43
471.04	11366.23
471.25	11362.13
471.46	11269.97
471.67	11611.98
471.87	11632.46
472.08	11681.61
472.29	12005.19
472.50	11513.68
472.70	11861.84
472.91	11890.51
473.12	12015.43
473.33	11990.86
473.53	12328.77
473.74	12054.34
473.95	12316.48
474.16	12478.27
474.36	12156.74
474.57	12691.26
474.78	12687.17
474.99	12531.52
475.19	12603.20
475.40	12910.40
475.61	13203.25
475.81	13049.66
476.02	13387.57
476.23	13221.69
476.44	13455.15
476.64	13641.52
476.85	13616.94
477.06	13399.86
477.27	13729.58
477.47	13793.07
477.68	13745.97
477.89	13991.72
478.09	13913.90
478.30	14044.97
478.51	13901.61
478.71	14225.19
478.92	14411.56
479.13	14438.18
479.34	14681.89
479.54	14458.66
479.75	14569.25
479.96	14618.40
480.16	14849.82
480.37	14622.50
480.58	14917.40
480.78	15324.95
480.99	15159.06
481.20	15277.85
481.41	15286.04
481.61	15128.35
481.82	15646.48
482.03	15410.96
482.23	15671.06
482.44	16205.58
482.65	16037.64
482.85	15957.77
483.06	15965.96
483.27	15996.68
483.47	16170.76
483.68	16281.35
483.89	16498.44
484.09	16203.53
484.30	16303.88
484.51	16424.71
484.71	16920.32
484.92	16627.46
485.13	16779.01
485.33	16772.86
485.54	16828.16
485.75	17168.12
485.95	17372.92
486.16	17274.62
486.37	17630.96
486.57	17254.14
486.78	17192.70
486.98	17729.27
487.19	17645.30
487.40	17837.81
487.60	17796.85
487.81	18110.19
488.02	18001.65
488.22	17913.58
488.43	18333.42
488.64	18396.90
488.84	18421.48
489.05	18620.13
489.25	18292.46
489.46	18808.54
489.67	18919.14
489.87	19007.20
490.08	18890.46
490.29	18906.85
490.49	19298.01
490.70	19203.80
490.90	19226.33
491.11	19289.82
491.32	19252.95
491.52	19320.54
491.73	19590.87
491.94	19558.10
492.14	19517.14
492.35	19973.84
492.55	19949.26
492.76	19807.95
492.97	20147.92
493.17	20094.67
493.38	20156.11
493.58	20324.04
493.79	20465.35
494.00	20369.10
494.20	20434.63
494.41	20795.07
494.61	20477.64
494.82	20770.50
495.02	20795.07
495.23	20958.91
495.44	20995.78
495.64	21081.79
495.85	20901.57
496.05	21591.73
496.26	21288.64
496.47	21526.20
496.67	21376.70
496.88	21769.91
497.08	21513.91
497.29	21700.28
497.49	21665.46
497.70	21673.65
497.91	22052.53
498.11	22054.58
498.32	21837.49
498.52	22179.50
498.73	22324.91
498.93	22433.45
499.14	22415.02
499.34	22234.80
499.55	22623.91
499.76	22601.38
499.96	22849.19
500.17	22611.62
500.37	23049.89
500.58	22714.02
500.78	22982.31
500.99	23060.13
501.19	23140.00
501.40	23070.37
501.60	23051.94
501.81	23170.72
502.02	23199.39
502.22	23117.47
502.43	23328.41
502.63	23793.30
502.84	23596.70
503.04	23731.86
503.25	23789.20
503.45	23750.29
503.66	23996.05
503.86	23955.09
504.07	24100.50
504.27	23697.05
504.48	24362.64
504.68	23850.64
504.89	24247.95
505.09	24448.65
505.30	24503.95
505.50	24594.06
505.71	24643.21
505.91	24673.93
506.12	24448.65
506.32	24712.84
506.53	24626.82
506.73	25208.45
506.94	24915.59
507.14	24909.44
507.35	25022.08
507.55	25278.08
507.76	25450.11
507.96	25069.19
508.17	25179.78
508.37	25216.64
508.58	25648.76
508.78	25396.86
508.99	25511.55
509.19	25923.19
509.40	25507.45
509.60	25794.17
509.81	25849.46
510.01	25951.86
510.22	26179.18
510.42	26111.60
510.63	26062.45
510.83	26158.70
511.04	26295.92
511.24	26320.49
511.44	26357.36
511.65	26207.86
511.85	26678.89
512.06	26379.89
512.26	26525.29
512.47	26816.10
512.67	26666.60
512.88	26936.93
513.08	26320.49
513.29	26771.05
513.49	26801.77
513.69	27043.43
513.90	26990.18
514.10	26906.21
514.31	27328.10
514.51	27088.48
514.72	27444.83
514.92	27326.05
515.13	27240.03
515.33	27293.28
515.53	27424.35
515.74	27410.01
515.94	27328.10
516.15	27649.63
516.35	27483.74
516.56	28005.97
516.76	27846.23
516.96	27856.47
517.17	28208.72
517.37	27944.53
517.58	27954.77
517.78	28456.53
517.99	28331.60
518.19	28460.62
518.39	28642.89
518.60	28253.78
518.80	28661.32
519.01	28974.66
519.21	28712.52
519.41	28823.11
519.62	28524.11
519.82	28991.05
520.03	28671.56
520.23	28880.46
520.43	28855.88
520.64	29423.17
520.84	29531.71
521.05	29083.20
521.25	29468.22
521.45	29756.99
521.66	29658.68
521.86	29677.12
522.07	29832.76
522.27	29746.75
522.47	29605.44
522.68	30113.33
522.88	29988.41
523.08	30371.38
523.29	30424.62
523.49	30514.73
523.70	30469.68
523.90	30692.91
524.10	30402.10
524.31	30486.06
524.51	30651.95
524.71	31182.37
524.92	30717.48
525.12	31026.73
525.33	31186.47
525.53	31290.91
525.73	31499.81
525.94	31444.51
526.14	31690.27
526.34	31483.42
526.55	31665.69
526.75	31479.33
526.95	31811.10
527.16	31915.54
527.36	32060.95
527.56	32085.53
527.77	32218.64
527.97	32247.32
528.17	32181.78
528.38	32353.81
528.58	32695.82
528.78	32996.87
528.99	32327.19
529.19	32878.09
529.39	32658.96
529.60	33383.94
529.80	33195.53
530.00	32982.54
530.21	33271.30
530.41	33330.69
530.61	33232.39
530.82	33457.67
531.02	33334.79
531.22	33547.78
531.43	33838.59
531.63	33887.74
531.83	34319.86
532.04	34332.15
532.24	33920.51
532.44	34280.95
532.64	34504.18
532.85	34600.43
533.05	34995.69
533.25	34479.60
533.46	34457.07
533.66	35190.25
533.86	34768.37
534.07	35077.61
534.27	35393.00
534.47	35724.77
534.67	35546.59
534.88	35114.47
535.08	35751.39
535.28	35941.85
535.49	35706.34
535.69	36236.76
535.89	36025.82
536.09	36040.15
536.30	36169.18
536.50	36496.85
536.70	36312.53
536.91	35980.76
537.11	36599.25
537.31	36756.94
537.51	36810.19
537.72	36996.56
537.92	37029.32
538.12	37318.09
538.32	37008.84
538.53	37365.19
538.73	37246.41
538.93	37256.65
539.13	37580.23
539.34	37359.05
539.54	37426.63
539.74	37668.29
539.94	37660.10
540.15	37684.67
540.35	38149.56
540.55	37989.82
540.75	38215.10
540.96	38335.93
541.16	38200.76
541.36	38098.36
541.56	38180.28
541.77	38587.83
541.97	38206.90
542.17	38645.17
542.37	38731.18
542.58	38374.84
542.78	38450.61
542.98	38499.76
543.18	38909.36
543.38	39138.73
543.59	39218.60
543.79	38819.25
543.99	39175.59
544.19	39724.45
544.40	39138.73
544.60	39628.20
544.80	39175.59
545.00	39458.21
545.20	39763.36
545.41	39525.80
545.61	39589.28
545.81	39736.74
546.01	39847.33
546.21	39728.55
546.42	39746.98
546.62	40185.24
546.82	39904.67
547.02	40060.32
547.22	40572.31
547.43	39984.54
547.63	40410.52
547.83	40254.87
548.03	40064.41
548.23	40441.24
548.44	40611.22
548.64	40551.83
548.84	40418.71
549.04	40623.51
549.24	40519.06
549.45	41182.60
549.65	40895.89
549.85	40629.65
550.05	40746.39
550.25	40531.35
550.45	41387.40
550.66	41084.30
550.86	40717.71
551.06	41502.09
551.26	40822.16
551.46	41293.19
551.66	41342.35
551.87	41207.18
552.07	41219.47
552.27	41643.40
552.47	41473.42
552.67	41534.85
552.87	41663.88
553.07	41760.13
553.28	41530.76
553.48	41844.10
553.68	41686.40
553.88	41786.75
554.08	41790.85
554.28	42020.22
554.48	41518.47
554.69	41960.83
554.89	42167.68
555.09	41524.61
555.29	41950.59
555.49	42251.64
555.69	42014.08
555.89	42194.30
556.10	42507.64
556.30	41964.93
556.50	42386.81
556.70	42034.56
556.90	42481.02
557.10	42585.46
557.30	42202.49
557.50	42327.42
557.70	42620.28
557.91	42644.85
558.11	42483.06
558.31	42818.93
558.51	42505.59
558.71	42579.32
558.91	42571.13
559.11	42268.03
559.31	42612.09
559.51	42308.99
559.72	42409.34
559.92	43085.17
560.12	42358.14
560.32	43081.07
560.52	42311.03
560.72	43189.61
560.92	42804.59
561.12	42982.77
561.32	43140.46
561.52	42499.45
561.72	43033.97
561.93	43111.79
562.13	43003.25
562.33	42671.48
562.53	43472.23
562.73	43081.07
562.93	42796.40
563.13	43380.07
563.33	43246.96
563.53	43371.88
563.73	42964.34
563.93	43128.17
564.13	43079.02
564.33	43365.74
564.53	43361.64
564.74	43388.27
564.94	43152.75
565.14	43414.89
565.34	43472.23
565.54	43482.47
565.74	43392.36
565.94	43922.79
566.14	43558.25
566.34	43398.51
566.54	43679.08
566.74	43599.21
566.94	44053.86
567.14	43982.18
567.34	43593.06
567.54	43902.31
567.74	43472.23
567.94	43410.79
568.14	43828.58
568.34	43937.12
568.54	44160.35
568.74	44037.47
568.94	43935.07
569.14	44207.45
569.34	44010.85
569.54	43986.27
569.75	43898.21
569.95	43763.04
570.15	44324.19
570.35	44146.01
570.55	44045.66
570.75	44445.02
570.95	44645.72
571.15	44604.76
571.35	44463.45
571.55	44520.79
571.75	44307.80
571.95	44137.82
572.15	44307.80
572.35	44823.89
572.55	44696.92
572.75	44811.60
572.95	44504.41
573.15	44571.99
573.35	44664.15
573.55	44578.14
573.75	44604.76
573.95	44811.60
574.15	44774.74
574.35	44791.12
574.55	44946.77
574.75	44451.16
574.95	44748.12
575.15	44770.64
575.34	44760.40
575.54	44987.73
575.74	45227.34
575.94	45487.43
576.14	45061.46
576.34	45370.70
576.54	45466.95
576.74	45274.45
576.94	45602.12
577.14	45358.41
577.34	45667.66
577.54	45327.69
577.74	45299.02
577.94	45499.72
578.14	45569.35
578.34	45733.19
578.54	45372.75
578.74	45671.75
578.94	45882.69
579.14	45622.60
579.34	45667.66
579.54	45618.50
579.74	46136.64
579.94	45868.36
580.13	46099.78
580.33	46288.19
580.53	45995.33
580.73	45915.46
580.93	45903.17
581.13	46331.20
581.33	46384.44
581.53	46425.40
581.73	46521.66
581.93	46382.40
582.13	46775.61
582.33	46277.95
582.53	46830.90
582.73	46593.34
582.92	46773.56
583.12	46855.48
583.32	46417.21
583.52	46781.75
583.72	47449.39
583.92	46902.58
584.12	46769.46
584.32	47287.60
584.52	47015.22
584.72	47197.49
584.92	47084.85
585.11	47256.88
585.31	47131.95
585.51	47418.67
585.71	47056.18
585.91	47643.94
586.11	47635.75
586.31	47478.06
586.51	47338.80
586.71	47539.50
586.91	48194.85
587.10	47922.47
587.30	47805.73
587.50	48114.98
587.70	48078.11
587.90	47617.32
588.10	47957.28
588.30	47652.14
588.50	48379.17
588.69	48313.63
588.89	47934.76
589.09	48241.95
589.29	48145.70
589.49	48467.23
589.69	48231.71
589.89	48504.09
590.08	48168.22
590.28	48370.97
590.48	48502.04
590.68	48145.70
590.88	48522.52
591.08	48305.44
591.28	48571.67
591.47	49040.66
591.67	48643.35
591.87	48796.95
592.07	49016.08
592.27	48981.27
592.47	49083.67
592.67	48975.12
592.86	48901.40
593.06	48575.77
593.26	49057.04
593.46	49110.29
593.66	48848.15
593.86	49030.42
594.05	49546.51
594.25	49304.85
594.45	49181.97
594.65	49186.07
594.85	49042.71
595.05	49722.63
595.24	49708.30
595.44	49198.35
595.64	49384.72
595.84	49448.21
596.04	50126.08
596.23	50007.30
596.43	49882.37
596.63	49736.97
596.83	49616.14
597.03	50369.79
597.22	50476.29
597.42	49954.05
597.62	50509.05
597.82	50384.13
598.02	50509.05
598.21	50552.06
598.41	50224.39
598.61	50414.85
598.81	50648.32
599.01	50760.95
599.20	50672.89
599.40	50261.25
599.60	50611.45
599.80	50926.84
600.00	50849.02
600.19	50992.37
600.39	50638.08
600.59	50707.71
600.79	51043.57
600.98	50926.84
601.18	51178.74
601.38	51565.81
601.58	51105.01
601.78	51346.67
601.97	51401.97
602.17	51946.73
602.37	51164.40
602.57	51705.07
602.76	51848.42
602.96	51510.51
603.16	52014.31
603.36	51586.28
603.55	52247.78
603.75	51502.32
603.95	52122.85
604.15	52139.24
604.34	51844.33
604.54	52419.81
604.74	52403.42
604.94	52442.34
605.13	52450.53
605.33	52622.56
605.53	52212.96
605.73	52419.81
605.92	52622.56
606.12	52702.43
606.32	52511.97
606.52	52372.70
606.71	53089.49
606.91	52995.29
607.11	52798.68
607.30	53232.85
607.50	53263.57
607.70	53103.83
607.90	53105.88
608.09	52835.55
608.29	53081.30
608.49	53511.38
608.68	53044.44
608.88	53417.17
609.08	53212.37
609.28	53230.80
609.47	53253.33
609.67	54113.48
609.87	53187.80
610.06	53673.16
610.26	53802.19
610.46	54097.09
610.66	53671.12
610.85	53699.79
611.05	53982.41
611.25	53941.45
611.44	53916.87
611.64	54209.73
611.84	54009.03
612.03	53564.62
612.23	53984.46
612.43	53931.21
612.62	53523.66
612.82	53855.43
613.02	53851.34
613.21	54416.58
613.41	53867.72
613.61	54572.22
613.80	53822.67
614.00	54305.99
614.20	54187.21
614.39	54291.65
614.59	54559.94
614.79	54289.60
614.98	54453.44
615.18	54346.95
615.38	54449.35
615.57	54142.15
615.77	54207.68
615.97	54414.53
616.16	54377.67
616.36	54285.51
616.56	54664.38
616.75	54392.00
616.95	54316.23
617.15	54564.03
617.34	54379.71
617.54	54609.09
617.74	54973.63
617.93	54953.15
618.13	54441.15
618.32	54682.81
618.52	54830.27
618.72	54502.59
618.91	54752.44
619.11	54512.83
619.31	54529.22
619.50	54801.60
619.70	54793.40
619.90	54688.96
620.09	54387.91
620.29	54793.40
620.48	54785.21
620.68	55104.70
620.88	54834.36
621.07	54469.82
621.27	55147.70
621.46	54377.67
621.66	55059.64
621.86	54734.01
622.05	54260.93
622.25	54699.20
622.44	54842.56
622.64	54836.41
622.84	54863.03
623.03	54955.19
623.23	54990.01
623.42	54940.86
623.62	55325.88
623.82	55233.72
624.01	55250.10
624.21	55104.70
624.40	55295.16
624.60	54813.88
624.80	54813.88
624.99	54664.38
625.19	54889.66
625.38	55592.11
625.58	55366.84
625.77	55162.04
625.97	55301.30
626.17	55006.39
626.36	54990.01
626.56	55426.23
626.75	54705.34
626.95	54883.51
627.14	55084.22
627.34	55614.64
627.54	54744.25
627.73	55461.04
627.93	54885.56
628.12	54604.99
628.32	54856.89
628.51	55082.17
628.71	55102.65
628.90	55045.30
629.10	55413.94
629.30	55213.24
629.49	55071.93
629.69	55104.70
629.88	55221.43
630.08	55899.31
630.27	55104.70
630.47	55370.93
630.66	55227.57
630.86	55678.13
631.05	55229.62
631.25	55628.98
631.44	55481.52
631.64	55391.41
631.84	55674.03
632.03	55993.51
632.23	55690.41
632.42	55678.13
632.62	55678.13
632.81	55536.82
633.01	55319.73
633.20	55682.22
633.40	55665.84
633.59	55614.64
633.79	55590.06
633.98	55499.95
634.18	55575.73
634.37	55776.43
634.57	55526.58
634.76	56063.14
634.96	55600.30
635.15	56112.30
635.35	55354.55
635.54	55669.93
635.74	55770.28
635.93	55772.33
636.13	56196.26
636.32	55895.21
636.52	55604.40
636.71	55792.81
636.91	56194.21
637.10	55950.51
637.30	56032.42
637.49	55743.66
637.69	55944.36
637.88	56407.20
638.08	55743.66
638.27	56089.77
638.46	56040.62
638.66	55588.02
638.85	56071.34
639.05	56114.34
639.24	56040.62
639.44	56032.42
639.63	56192.17
639.83	56169.64
640.02	56044.71
640.22	56345.76
640.41	56394.92
640.61	55784.62
640.80	56384.68
640.99	56202.41
641.19	56876.19
641.38	56804.51
641.58	56241.32
641.77	56370.34
641.97	56005.80
642.16	56427.68
642.36	56659.10
642.55	56908.96
642.74	56509.60
642.94	56884.38
643.13	56423.59
643.33	56886.43
643.52	56263.85
643.72	56448.16
643.91	56683.68
644.10	56374.44
644.30	56747.17
644.49	56730.78
644.69	56607.90
644.88	56800.41
645.08	56259.75
645.27	56847.52
645.46	56038.57
645.66	57003.16
645.85	56415.40
646.05	57115.80
646.24	57265.30
646.43	56642.72
646.63	57015.45
646.82	57216.15
647.02	56933.53
647.21	56698.01
647.40	57121.94
647.60	57093.27
647.79	57238.68
647.99	56980.63
648.18	56577.18
648.37	57277.59
648.57	57414.80
648.76	57148.57
648.96	56755.36
649.15	57193.62
649.34	57423.00
649.54	57029.79
649.73	56521.89
649.92	56949.92
650.12	56988.83
650.31	57267.35
650.51	57277.59
650.70	57601.17
650.89	57046.17
651.09	57744.53
651.28	57521.30
651.47	57197.72
651.67	56777.89
651.86	57574.55
652.06	56577.18
652.25	57318.55
652.44	57248.92
652.64	56982.68
652.83	57402.52
653.02	57066.65
653.22	57244.82
653.41	56898.72
653.60	57076.89
653.80	57293.97
653.99	57629.84
654.18	57318.55
654.38	57148.57
654.57	57158.81
654.76	57052.31
654.96	57132.18
655.15	57013.40
655.34	57087.13
655.54	56927.39
655.73	57210.01
655.92	56892.57
656.12	57132.18
656.31	57138.33
656.50	57740.43
656.70	56878.24
656.89	57490.58
657.08	57365.65
657.28	57441.43
657.47	57152.66
657.66	56986.78
657.86	57232.53
658.05	57341.08
658.24	57130.14
658.43	57298.07
658.63	57169.05
658.82	57443.48
659.01	57304.21
659.21	57250.97
659.40	57271.45
659.59	57388.18
659.79	57269.40
659.98	57529.49
660.17	57445.52
660.36	57191.58
660.56	57119.90
660.75	57697.42
660.94	57250.97
661.14	57439.38
661.33	57119.90
661.52	56886.43
661.71	57531.54
661.91	57029.79
662.10	56859.80
662.29	58047.63
662.49	57392.28
662.68	57269.40
662.87	57494.67
663.06	57742.48
663.26	57189.53
663.45	57693.33
663.64	57459.86
663.83	57611.41
664.03	57482.39
664.22	57373.84
664.41	57253.01
664.60	56958.11
664.80	57332.89
664.99	57107.61
665.18	57357.46
665.37	57005.21
665.57	57463.96
665.76	56939.68
665.95	57113.75
666.14	57005.21
666.34	57019.55
666.53	57156.76
666.72	56816.80
666.91	57164.95
667.11	56843.42
667.30	56894.62
667.49	57078.94
667.68	56843.42
667.87	56695.97
668.07	57154.71
668.26	57300.12
668.45	57439.38
668.64	56640.67
668.84	57717.90
669.03	57123.99
669.22	57021.59
669.41	57210.01
669.60	57083.03
669.80	56726.69
669.99	57154.71
670.18	56861.85
670.37	57177.24
670.57	57306.26
670.76	57046.17
670.95	57324.69
671.14	57130.14
671.33	56714.40
671.53	57769.10
671.72	56689.82
671.91	57105.56
672.10	56841.37
672.29	56978.59
672.48	56612.00
672.68	57312.41
672.87	56906.91
673.06	56595.62
673.25	56560.80
673.44	56884.38
673.64	57007.26
673.83	56384.68
674.02	56626.34
674.21	56057.00
674.40	56671.39
674.59	56622.24
674.79	56632.48
674.98	56626.34
675.17	56806.56
675.36	56568.99
675.55	56519.84
675.74	56511.65
675.94	56513.70
676.13	56427.68
676.32	56575.14
676.51	57054.36
676.70	56730.78
676.89	56525.99
677.08	56632.48
677.28	56276.13
677.47	56556.70
677.66	56872.09
677.85	56292.52
678.04	56466.59
678.23	56902.81
678.42	56571.04
678.62	56296.61
678.81	56710.30
679.00	56038.57
679.19	56747.17
679.38	56308.90
679.57	56243.37
679.76	56577.18
679.96	56280.23
680.15	56153.26
680.34	56054.95
680.53	56005.80
680.72	56319.14
680.91	56568.99
681.10	55841.96
681.29	56364.20
681.48	56102.06
681.68	55706.80
681.87	56054.95
682.06	56044.71
682.25	55590.06
682.44	55506.10
682.63	55641.26
682.82	55964.84
683.01	55522.48
683.20	55536.82
683.39	55502.00
683.59	55395.51
683.78	55260.34
683.97	55551.15
684.16	55710.89
684.35	55438.51
684.54	55622.83
684.73	55682.22
684.92	55659.69
685.11	55358.64
685.30	55239.86
685.49	55606.45
685.69	55301.30
685.88	55508.14
686.07	55399.60
686.26	55182.52
686.45	55528.62
686.64	55037.11
686.83	54934.71
687.02	55252.15
687.21	55139.51
687.40	55401.65
687.59	55215.29
687.78	55368.88
687.97	55641.26
688.16	55205.05
688.35	55008.44
688.54	54512.83
688.74	54750.40
688.93	55196.85
689.12	54645.95
689.31	54897.85
689.50	54990.01
689.69	54609.09
689.88	54531.26
690.07	54385.86
690.26	54564.03
690.45	55051.45
690.64	54420.67
690.83	54600.89
691.02	54521.02
691.21	54570.18
691.40	54418.63
691.59	54502.59
691.78	54273.22
691.97	54531.26
692.16	54004.94
692.35	54342.85
692.54	54387.91
692.73	54713.53
692.92	53976.26
693.11	54099.14
693.30	54203.59
693.49	54453.44
693.68	54080.71
693.87	54316.23
694.06	53538.00
694.25	54187.21
694.44	53703.88
694.63	54158.53
694.82	54643.90
695.01	54197.44
695.20	53501.14
695.39	53773.52
695.58	53703.88
695.77	53628.11
695.96	53658.83
696.15	53718.22
696.34	53472.46
696.53	53271.76
696.72	53875.91
696.91	53734.60
697.10	53798.09
697.29	53439.70
697.48	53871.82
697.67	53718.22
697.86	53329.11
698.05	53390.55
698.24	53310.67
698.43	52817.11
698.62	53429.46
698.81	52968.66
699.00	53568.72
699.19	52755.68
699.38	53191.89
699.57	52913.37
699.76	53664.97
699.95	52958.42
700.14	53114.07
700.32	52806.87
700.51	52630.75
700.70	53204.18
700.89	53263.57
701.08	52741.34
701.27	52755.68
701.46	53431.50
701.65	52307.17
701.84	52827.35
702.03	52995.29
702.22	53050.58
702.41	53042.39
702.60	52770.01
702.79	52806.87
702.98	52282.59
703.17	52282.59
703.35	52501.73
703.54	52401.38
703.73	52684.00
703.92	52489.44
704.11	52628.70
704.30	52255.97
704.49	52612.32
704.68	51666.16
704.87	52544.73
705.06	51981.54
705.25	51866.86
705.43	52088.04
705.62	52167.91
705.81	51772.65
706.00	52405.47
706.19	52247.78
706.38	51743.98
706.57	51836.14
706.76	51952.87
706.95	51864.81
707.14	51490.03
707.32	51475.69
707.51	51524.85
707.70	51543.28
707.89	51459.31
708.08	51600.62
708.27	51729.64
708.46	52157.67
708.65	51483.89
708.84	51473.65
709.02	51504.37
709.21	51418.35
709.40	51518.70
709.59	51629.29
709.78	51412.21
709.97	51543.28
710.16	51246.32
710.34	51328.24
710.53	51240.18
710.72	50967.80
710.91	51258.61
711.10	51737.83
711.29	51522.80
711.48	51248.37
711.66	50828.54
711.85	50867.45
712.04	51148.02
712.23	51029.24
712.42	50664.70
712.61	50558.20
712.80	50863.35
712.98	50738.43
713.17	50691.32
713.36	50945.27
713.55	50986.23
713.74	50742.52
713.93	50564.35
714.11	50812.15
714.30	50697.47
714.49	50574.59
714.68	50402.56
714.87	50722.04
715.06	50859.26
715.24	50238.72
715.43	50537.72
715.62	49837.32
715.81	50197.76
716.00	50433.28
716.18	50001.16
716.37	50304.26
716.56	49992.97
716.75	50681.08
716.94	50248.96
717.12	49605.90
717.31	50394.37
717.50	50330.88
717.69	50011.40
717.88	49868.04
718.06	49888.52
718.25	50035.97
718.44	49509.64
718.63	49693.96
718.82	49636.62
719.00	49759.50
719.19	49851.66
719.38	49165.59
719.57	49194.26
719.76	49179.92
719.94	49091.86
720.13	49249.55
720.32	49382.67
720.51	49091.86
720.69	49276.18
720.88	49038.61
721.07	49087.76
721.26	48731.42
721.44	49212.69
721.63	48878.87
721.82	48735.51
722.01	48557.34
722.20	48821.53
722.38	48368.93
722.57	48330.01
722.76	48217.38
722.95	48649.50
723.13	48352.54
723.32	48319.77
723.51	47981.86
723.70	47918.37
723.88	48325.92
724.07	48280.86
724.26	48469.28
724.44	47568.17
724.63	48600.35
724.82	47975.72
725.01	48131.36
725.19	48059.68
725.38	47803.69
725.57	47648.04
725.76	47918.37
725.94	47707.43
726.13	47897.89
726.32	47772.97
726.51	47695.14
726.69	48086.31
726.88	48309.53
727.07	47977.76
727.25	48184.61
727.44	47748.39
727.63	47504.68
727.82	47445.29
728.00	47748.39
728.19	47627.56
728.38	47977.76
728.56	47144.24
728.75	47764.78
728.94	47377.71
729.12	47496.49
729.31	47605.03
729.50	47666.47
729.69	47400.24
729.87	47244.59
730.06	47320.37
730.25	47207.73
730.43	47775.02
730.62	47469.87
730.81	47951.14
730.99	47529.26
731.18	47467.82
731.37	47879.46
731.55	47623.47
731.74	47834.41
731.93	47600.94
732.11	47519.02
732.30	47832.36
732.49	47373.61
732.67	47211.82
732.86	46863.67
733.05	47105.33
733.23	47047.99
733.42	47275.31
733.61	47707.43
733.79	47232.30
733.98	47832.36
734.17	47504.68
734.35	47000.88
734.54	47316.27
734.73	47744.30
734.91	47093.04
735.10	47416.62
735.29	47545.64
735.47	46759.22
735.66	47230.26
735.84	47856.93
736.03	47035.70
736.22	47693.10
736.40	47138.10
736.59	47291.69
736.78	46744.89
736.96	47369.52
737.15	47148.34
737.33	46773.56
737.52	46875.96
737.71	46830.90
737.89	46525.75
738.08	46742.84
738.27	46826.81
738.45	47320.37
738.64	46869.81
738.82	46806.33
739.01	46415.16
739.20	46869.81
739.38	46488.89
739.57	47228.21
739.75	46726.46
739.94	47009.07
740.13	46716.22
740.31	46863.67
740.50	46699.83
740.68	46611.77
740.87	46791.99
741.06	46640.44
741.24	46738.74
741.43	46687.54
741.61	46593.34
741.80	46583.10
741.99	46540.09
742.17	46691.64
742.36	46335.29
742.54	46550.33
742.73	46196.03
742.91	46779.70
743.10	46490.94
743.29	46239.04
743.47	46433.60
743.66	46263.61
743.84	46155.07
744.03	46644.54
744.21	46210.37
744.40	46677.30
744.59	46533.95
744.77	45948.23
744.96	46185.79
745.14	46140.74
745.33	45913.41
745.51	45903.17
745.70	46282.05
745.88	46392.64
746.07	46017.86
746.26	45909.32
746.44	45694.28
746.63	45991.23
746.81	46490.94
747.00	45937.99
747.18	46048.58
747.37	45665.61
747.55	46015.81
747.74	46292.29
747.92	45694.28
748.11	45815.11
748.29	45677.90
748.48	45753.67
748.66	45651.27
748.85	45454.67
749.03	45528.39
749.22	45778.25
749.41	45360.46
749.59	45520.20
749.78	45507.91
749.96	45438.28
750.15	45548.87
750.33	45655.37
750.52	45884.74
750.70	45454.67
750.89	45399.37
751.07	44713.30
751.26	45423.95
751.44	45331.79
751.63	45483.34
751.81	45225.29
752.00	45149.52
752.18	45229.39
752.37	44963.15
752.55	45047.12
752.74	45096.27
752.92	44903.76
753.10	45057.36
753.29	45241.68
753.47	45192.53
753.66	44404.06
753.84	44963.15
754.03	45051.22
754.21	44752.21
754.40	44877.14
754.58	44928.34
754.77	44725.59
754.95	44428.63
755.14	44774.74
755.32	44004.70
755.51	44520.79
755.69	44281.18
755.88	44481.88
756.06	44557.66
756.24	44324.19
756.43	44502.36
756.61	44479.83
756.80	44336.48
756.98	44131.68
757.17	44436.83
757.35	44424.54
757.54	43933.03
757.72	44694.87
757.90	44176.73
758.09	43976.03
758.27	44309.85
758.46	44035.42
758.64	44330.33
758.83	44465.50
759.01	44172.64
759.19	43910.50
759.38	44316.00
759.56	44037.47
759.75	44209.50
759.93	43914.59
760.12	43562.34
760.30	44164.45
760.48	43484.52
760.67	43685.22
760.85	44135.77
761.04	43926.88
761.22	43990.37
761.40	43873.63
761.59	43881.83
761.77	43615.59
761.96	43441.51
762.14	43543.91
762.32	43328.87
762.51	43154.80
762.69	43433.32
762.88	43083.12
763.06	43117.93
763.24	43656.55
763.43	43345.26
763.61	43437.42
763.80	43269.48
763.98	43242.86
764.16	43197.80
764.35	42900.85
764.53	42855.79
764.72	42976.62
764.90	42988.91
765.08	42712.44
765.27	42804.59
765.45	42863.99
765.63	42362.23
765.82	42960.24
766.00	42716.53
766.18	42935.66
766.37	42972.53
766.55	42622.33
766.74	42706.29
766.92	42753.40
767.10	42808.69
767.29	42405.24
767.47	41960.83
767.65	42476.92
767.84	42423.67
768.02	42646.90
768.20	41860.48
768.39	42261.88
768.57	42534.26
768.75	42556.79
768.94	42425.72
769.12	42458.49
769.30	42401.14
769.49	41801.09
769.67	42083.71
769.85	41512.33
770.04	41889.15
770.22	42100.09
770.40	41647.49
770.59	41987.46
770.77	41872.77
770.95	42089.85
771.14	41293.19
771.32	41418.12
771.50	41325.96
771.69	41751.94
771.87	41510.28
772.05	41170.32
772.24	41405.83
772.42	41489.80
772.60	41127.31
772.78	41176.46
772.97	41033.10
773.15	41440.65
773.33	41092.49
773.52	41098.64
773.70	41375.11
773.88	41229.71
774.07	41366.92
774.25	41117.07
774.43	41289.10
774.61	40807.83
774.80	41516.42
774.98	41323.91
775.16	41645.44
775.34	41600.39
775.53	40850.83
775.71	41629.06
775.89	41627.01
776.08	41295.24
776.26	41655.68
776.44	41710.98
776.62	41344.39
776.81	41127.31
776.99	41796.99
777.17	41579.91
777.35	41649.54
777.54	41770.37
777.72	41067.92
777.90	41342.35
778.08	41923.97
778.27	41469.32
778.45	41563.53
778.63	42093.95
778.81	41307.53
779.00	42235.26
779.18	41821.57
779.36	41995.65
779.54	41536.90
779.73	41729.41
779.91	42014.08
780.09	41627.01
780.27	42026.37
780.46	42222.97
780.64	42124.67
780.82	41999.74
781.00	41930.11
781.19	42016.13
781.37	42698.10
781.55	42075.52
781.73	42737.01
781.91	42255.74
782.10	41989.50
782.28	42501.50
782.46	42222.97
782.64	42124.67
782.82	41807.23
783.01	42337.66
783.19	42249.60
783.37	42380.67
783.55	42102.14
783.74	42980.72
783.92	42341.75
784.10	43130.22
784.28	42607.99
784.46	42016.13
784.64	42169.72
784.83	42470.78
785.01	42640.76
785.19	42395.00
785.37	42730.87
785.55	42423.67
785.74	42263.93
785.92	42128.77
786.10	42319.23
786.28	42182.01
786.46	41858.43
786.64	42157.44
786.83	42573.17
787.01	42237.31
787.19	41690.50
787.37	42196.35
787.55	41921.92
787.74	41995.65
787.92	41903.49
788.10	41733.51
788.28	41776.51
788.46	42145.15
788.64	41762.18
788.82	41932.16
789.01	41573.77
789.19	41995.65
789.37	41713.03
789.55	41891.20
789.73	41452.94
789.91	41610.63
790.09	41217.42
790.28	41108.88
790.46	40695.19
790.64	41346.44
790.82	41235.85
791.00	41256.33
791.18	40709.52
791.36	41110.92
791.55	41067.92
791.73	40592.79
791.91	40537.49
792.09	40795.54
792.27	40633.75
792.45	40424.86
792.63	40539.54
792.81	40201.63
793.00	39982.49
793.18	40285.59
793.36	40175.00
793.54	40054.17
793.72	39832.99
793.90	40105.37
794.08	39835.04
794.26	40189.34
794.44	39550.37
794.62	39724.45
794.81	39898.53
794.99	39781.79
795.17	39269.80
795.35	39413.16
795.53	39540.13
795.71	39581.09
795.89	38917.55
796.07	39120.30
796.25	39077.29
796.43	38872.49
796.61	38751.66
796.80	38520.24
796.98	38503.86
797.16	38577.59
797.34	38274.49
797.52	38264.25
797.70	38839.73
797.88	38249.91
798.06	38118.84
798.24	37971.39
798.42	38110.65
798.60	38022.59
798.78	37893.57
798.96	38010.30
799.14	37844.41
799.32	37907.90
799.51	37424.58
799.69	37602.75
799.87	37602.75
800.05	37404.10
800.23	37060.04
800.41	36758.99
800.59	37414.34
800.77	37125.58
800.95	36742.61
801.13	36861.39
801.31	36576.72
801.49	37033.42
801.67	36519.38
801.85	36380.12
802.03	36263.38
802.21	36089.31
802.39	36210.14
802.57	36398.55
802.75	35911.13
802.93	36433.36
803.11	35778.01
803.29	35896.80
803.47	35845.60
803.65	35948.00
803.83	35939.80
804.01	35499.49
804.19	35648.99
804.37	35155.43
804.55	35255.78
804.73	35132.90
804.91	35104.23
805.09	35319.27
805.27	34809.32
805.45	35354.08
805.63	35591.65
805.81	35081.70
805.99	35280.36
806.17	35306.98
806.35	35018.22
806.53	34713.07
806.71	34633.20
806.89	34751.98
807.07	34670.06
807.25	34678.25
807.43	33895.93
807.61	34805.23
807.79	34217.46
807.97	34115.06
808.15	33983.99
808.33	34315.76
808.51	33897.98
808.69	33738.24
808.87	33744.38
809.05	33443.33
809.23	33500.67
809.41	33293.83
809.59	33447.43
809.77	33605.12
809.95	33238.53
810.13	33662.46
810.31	33596.93
810.49	33267.20
810.67	33043.98
810.84	32941.58
811.02	33170.95
811.20	32931.34
811.38	33234.44
811.56	32419.35
811.74	32646.67
811.92	32562.70
812.10	32783.88
812.28	33003.02
812.46	32382.48
812.64	32634.38
812.82	32189.97
813.00	32318.99
813.18	32220.69
813.36	32239.12
813.53	32169.49
813.71	32155.16
813.89	31995.42
814.07	32011.80
814.25	32138.77
814.43	31723.04
814.61	31870.49
814.79	31440.42
814.97	31401.50
815.15	31563.29
815.33	31456.80
815.50	31411.74
815.68	31530.53
815.86	31604.25
816.04	30993.96
816.22	31163.94
816.40	31153.70
816.58	31143.46
816.76	31022.63
816.94	31131.17
817.11	31030.82
817.29	30545.45
817.47	31047.21
817.65	30516.78
817.83	30815.79
818.01	30438.96
818.19	30404.14
818.37	30651.95
818.54	30635.56
818.72	30365.23
818.90	30735.92
819.08	30244.40
819.26	30219.83
819.44	30365.23
819.62	29976.12
819.80	30170.68
819.97	30252.59
820.15	30268.98
820.33	29808.19
820.51	30225.97
820.69	29662.78
820.87	30352.94
821.05	30033.46
821.22	29881.91
821.40	29806.14
821.58	29527.61
821.76	29445.69
821.94	29595.20
822.12	29505.09
822.29	30002.74
822.47	29498.94
822.65	29896.25
822.83	30023.22
823.01	29689.40
823.19	29136.45
823.36	28964.42
823.54	29062.72
823.72	28991.05
823.90	29468.22
824.08	28929.61
824.25	29302.34
824.43	28755.53
824.61	29015.62
824.79	28948.04
824.97	28835.40
825.15	28991.05
825.32	28831.30
825.50	28448.33
825.68	28407.37
825.86	28606.03
826.04	28503.63
826.21	28542.54
826.39	28511.82
826.57	28227.15
826.75	28407.37
826.93	28333.65
827.10	28264.02
827.28	28259.92
827.46	28464.72
827.64	28096.08
827.81	28163.67
827.99	28167.76
828.17	28063.32
828.35	27874.90
828.53	28057.17
828.70	27899.48
828.88	27827.80
829.06	27721.30
829.24	27956.82
829.41	28001.88
829.59	28317.26
829.77	27448.93
829.95	27821.66
830.12	27502.17
830.30	27541.08
830.48	27561.56
830.66	27596.38
830.84	27647.58
831.01	27262.56
831.19	27309.66
831.37	27440.73
831.55	26934.88
831.72	27465.31
831.90	27166.31
832.08	27041.38
832.25	27063.91
832.43	27078.24
832.61	27018.85
832.79	26674.79
832.96	26865.25
833.14	26834.53
833.32	27070.05
833.50	26883.69
833.67	26822.25
833.85	26824.29
834.03	26609.26
834.20	26760.81
834.38	26680.94
834.56	27043.43
834.74	26654.31
834.91	26838.63
835.09	26447.47
835.27	26187.38
835.44	26285.68
835.62	25992.82
835.80	26248.82
835.98	26271.34
836.15	26138.23
836.33	26173.04
836.51	26166.90
836.68	25945.72
836.86	26170.99
837.04	26103.41
837.21	26060.40
837.39	26422.89
837.57	26136.18
837.75	26490.48
837.92	25638.52
838.10	26103.41
838.28	25597.56
838.45	26205.81
838.63	25548.41
838.81	25652.86
838.98	25398.91
839.16	25396.86
839.34	25427.58
839.51	25394.81
839.69	25511.55
839.87	25079.43
840.04	25353.85
840.22	25151.10
840.40	25237.12
840.57	25095.81
840.75	24870.53
840.93	24985.22
841.10	25155.20
841.28	25224.83
841.46	25218.69
841.63	25353.85
841.81	25241.21
841.98	24974.98
842.16	24911.49
842.34	24667.78
842.51	25167.49
842.69	25020.03
842.87	25022.08
843.04	25216.64
843.22	24501.90
843.40	24940.16
843.57	24710.79
843.75	24841.86
843.92	24729.22
844.10	24714.89
844.28	24905.35
844.45	24626.82
844.63	24794.76
844.81	24432.27
844.98	24673.93
845.16	24716.93
845.33	24231.57
845.51	24311.44
845.69	24458.89
845.86	24241.81
846.04	24131.22
846.21	24069.78
846.39	24024.72
846.57	24446.60
846.74	24403.60
846.92	23973.52
847.09	23922.32
847.27	23840.40
847.45	23918.23
847.62	24094.35
847.80	24108.69
847.97	23944.85
848.15	23686.81
848.32	23590.55
848.50	23936.66
848.68	23514.78
848.85	23690.90
849.03	23654.04
849.20	23787.16
849.38	23695.00
849.56	23801.49
849.73	23492.25
849.91	23383.71
850.08	23856.79
850.26	22867.62
850.43	23615.13
850.61	23350.94
850.78	23127.71
850.96	23326.36
851.14	23164.57
851.31	23197.34
851.49	23033.50
851.66	23418.52
851.84	23002.78
852.01	23058.08
852.19	23017.12
852.36	23031.46
852.54	23109.28
852.71	22795.94
852.89	23221.92
853.07	23129.76
853.24	23174.81
853.42	23092.90
853.59	22859.43
853.77	23150.24
853.94	22943.39
854.12	22849.19
854.29	22722.21
854.47	22912.67
854.64	22773.41
854.82	22480.55
854.99	22570.66
855.17	22470.31
855.34	22372.01
855.52	22582.95
855.69	22994.59
855.87	22494.89
856.04	22312.62
856.22	22345.39
856.39	22202.03
856.57	22374.06
856.74	22251.18
856.92	22132.40
857.09	22066.86
857.27	22054.58
857.44	22259.37
857.62	22234.80
857.79	22222.51
857.97	22265.52
858.14	22083.25
858.32	22128.30
858.49	22109.87
858.67	22116.01
858.84	21845.68
859.02	21888.69
859.19	21954.22
859.37	21743.28
859.54	21728.95
859.72	21573.30
859.89	21747.38
860.06	21923.51
860.24	21546.68
860.41	21712.56
860.59	21593.78
860.76	21878.45
860.94	21249.72
861.11	21395.13
861.29	21339.83
861.46	21268.16
861.64	21292.73
861.81	21028.54
861.98	21065.41
862.16	21419.71
862.33	21122.75
862.51	21360.31
862.68	21399.23
862.86	21077.69
863.03	21151.42
863.21	21167.80
863.38	21038.78
863.55	21182.14
863.73	20879.04
863.90	21003.97
864.08	20897.47
864.25	20731.59
864.43	20817.60
864.60	20866.75
864.77	20879.04
864.95	20936.38
865.12	20420.30
865.30	20741.83
865.47	20494.02
865.64	20629.19
865.82	20588.23
865.99	20766.40
866.17	20319.95
866.34	20778.69
866.51	20512.46
866.69	20614.85
866.86	20332.23
867.04	20821.70
867.21	20326.09
867.38	20172.49
867.56	20203.21
867.73	20061.90
867.91	20233.93
868.08	20080.33
868.25	19955.41
868.43	20139.72
868.60	20063.95
868.78	19758.80
868.95	20084.43
869.12	19828.43
869.30	19662.55
869.47	19783.38
869.64	20014.80
869.82	19777.23
869.99	19582.68
870.16	19990.22
870.34	19756.75
870.51	19932.88
870.69	19584.73
870.86	19648.21
871.03	19650.26
871.21	19283.67
871.38	19494.61
871.55	19484.37
871.73	19580.63
871.90	19226.33
872.07	19142.36
872.25	19230.43
872.42	19525.33
872.59	19209.95
872.77	19185.37
872.94	18999.01
873.11	19019.49
873.29	19050.21
873.46	19046.11
873.63	18937.57
873.81	19072.73
873.98	18650.85
874.15	18986.72
874.33	18677.48
874.50	18812.64
874.67	18962.14
874.85	18665.19
875.02	18489.06
875.19	18489.06
875.37	18648.80
875.54	18452.20
875.71	18384.62
875.88	18353.90
876.06	18265.83
876.23	18575.08
876.40	18550.50
876.58	18153.20
876.75	18310.89
876.92	18255.59
877.10	18087.66
877.27	18243.31
877.44	18071.28
877.61	17807.09
877.79	17987.31
877.96	18112.24
878.13	18114.28
878.31	17716.98
878.48	17731.31
878.65	17692.40
878.82	17684.21
879.00	17630.96
879.17	17514.23
879.34	17880.82
879.51	17710.83
879.69	17655.54
879.86	17463.03
880.03	17651.44
880.21	17432.31
880.38	17422.07
880.55	17622.77
880.72	17309.43
880.90	17334.01
881.07	17417.97
881.24	17549.04
881.41	17303.29
881.59	17450.74
881.76	17413.88
881.93	17311.48
882.10	17112.83
882.28	17149.69
882.45	17194.75
882.62	16955.13
882.79	17233.66
882.96	16836.35
883.14	17151.74
883.31	17014.52
883.48	17008.38
883.65	17078.01
883.83	17159.93
884.00	16785.15
884.17	17014.52
884.34	16674.56
884.51	16822.02
884.69	16758.53
884.86	16815.87
885.03	16862.97
885.20	16817.92
885.38	16910.08
885.55	16768.77
885.72	16652.03
885.89	16396.04
886.06	16731.90
886.24	16539.40
886.41	16516.87
886.58	16791.30
886.75	16486.15
886.92	16434.95
887.10	16404.23
887.27	16193.29
887.44	16443.14
887.61	16797.44
887.78	16606.98
887.95	16606.98
888.13	16137.99
888.30	16189.19
888.47	16140.04
888.64	16301.83
888.81	16164.62
888.99	16113.42
889.16	16193.29
889.33	16109.32
889.50	15726.35
889.67	16215.82
889.84	16056.08
890.01	16045.84
890.19	15875.85
890.36	16008.97
890.53	15959.82
890.70	15828.75
890.87	15722.26
891.04	15611.67
891.22	15746.83
891.39	15886.09
891.56	15808.27
891.73	15750.93
891.90	15650.58
892.07	15580.95
892.24	15646.48
892.42	15566.61
892.59	15681.30
892.76	15552.27
892.93	15413.01
893.10	15511.32
893.27	15265.56
893.44	15302.42
893.61	15308.57
893.79	15564.56
893.96	15425.30
894.13	15496.98
894.30	15681.30
894.47	15445.78
894.64	15519.51
894.81	15304.47
894.98	15382.29
895.15	15122.20
895.33	15429.40
895.50	15154.97
895.67	15462.16
895.84	15238.94
896.01	15494.93
896.18	15132.44
896.35	15445.78
896.52	15204.12
896.69	15279.89
896.86	15216.41
897.04	15148.82
897.21	15298.33
897.38	15165.21
897.55	15214.36
897.72	15118.11
897.89	15066.91
898.06	15118.11
898.23	15261.46
898.40	15283.99
898.57	15257.37
898.74	15261.46
898.91	15249.18
899.08	15398.68
899.26	15220.50
899.43	15292.18
899.60	15089.43
899.77	15200.02
899.94	15122.20
900.11	15232.79
900.28	15062.81
900.45	15009.56
900.62	14987.04
900.79	15177.50
900.96	15283.99
901.13	15066.91
901.30	14901.02
901.47	15056.67
901.64	15064.86
901.81	15073.05
901.98	14882.59
902.15	15351.57
902.32	14995.23
902.49	15095.58
902.66	15118.11
902.83	15093.53
903.01	15007.52
903.18	14978.84
903.35	15071.00
903.52	15050.52
903.69	15236.89
903.86	15007.52
904.03	14776.09
904.20	14991.13
904.37	14901.02
904.54	14808.86
904.71	14980.89
904.88	14868.25
905.05	14911.26
905.22	15097.63
905.39	14905.12
905.56	14956.32
905.73	14999.32
905.90	14923.55
906.07	14997.28
906.24	14874.40
906.41	14792.48
906.58	14892.83
906.75	14851.87
906.92	14829.34
907.09	14884.64
907.26	14860.06
907.43	14712.61
907.60	14941.98
907.77	14909.21
907.93	14913.31
908.10	14993.18
908.27	15056.67
908.44	14956.32
908.61	14853.92
908.78	14614.30
908.95	14960.41
909.12	14858.01
909.29	14997.28
909.46	14862.11
909.63	14794.53
909.80	14708.51
909.97	14675.74
910.14	14624.54
910.31	14642.98
910.48	14552.87
910.65	14618.40
910.82	14509.86
910.99	14538.53
911.16	14702.37
911.33	14587.68
911.50	14669.60
911.66	14425.89
911.83	14460.71
912.00	14499.62
912.17	14489.38
912.34	14606.11
912.51	14597.92
912.68	14475.04
912.85	14456.61
913.02	14524.19
913.19	14450.47
913.36	14415.65
913.53	14573.35
913.70	14386.98
913.86	14288.68
914.03	14427.94
914.20	14188.33
914.37	14133.03
914.54	14165.80
914.71	13971.24
914.88	14237.48
915.05	13911.85
915.22	13938.48
915.39	14022.44
915.55	14063.40
915.72	13954.86
915.89	13940.52
916.06	14087.98
916.23	13727.53
916.40	13770.54
916.57	13741.87
916.74	13707.05
916.91	13551.41
917.07	13449.01
917.24	13643.57
917.41	13637.42
917.58	13727.53
917.75	13410.10
917.92	13299.51
918.09	13199.16
918.26	13500.21
918.42	13510.45
918.59	13346.61
918.76	13274.93
918.93	13133.62
919.10	13215.54
919.27	13084.47
919.44	13424.44
919.60	13150.01
919.77	13102.90
919.94	12910.40
920.11	13098.81
920.28	13012.79
920.45	12777.28
920.61	12900.16
920.78	12728.13
920.95	12789.56
921.12	12775.23
921.29	12382.02
921.46	12656.45
921.62	12693.31
921.79	12851.00
921.96	12607.30
922.13	12552.00
922.30	12203.85
922.47	12318.53
922.63	12476.23
922.80	12267.33
922.97	12269.38
923.14	12070.73
923.31	12287.81
923.47	12076.87
923.64	12441.41
923.81	12064.58
923.98	11978.57
924.15	11810.64
924.32	11829.07
924.48	12091.21
924.65	11943.75
924.82	11888.46
924.99	11728.72
925.15	11673.42
925.32	11628.37
925.49	11614.03
925.66	11597.65
925.83	11626.32
925.99	11601.74
926.16	11470.67
926.33	11581.26
926.50	11231.06
926.67	11706.19
926.83	11550.54
927.00	11345.75
927.17	11186.01
927.34	11013.98
927.50	11134.81
927.67	11355.99
927.84	10989.40
928.01	11167.57
928.17	10995.54
928.34	10784.60
928.51	10821.47
928.68	10985.30
928.84	10788.70
929.01	10684.25
929.18	10708.83
929.35	10540.90
929.51	10592.09
929.68	10407.78
929.85	10465.12
930.02	10473.31
930.18	10342.24
930.35	10362.72
930.52	10166.12
930.69	10391.39
930.85	10483.55
931.02	10176.36
931.19	10071.91
931.36	10182.50
931.52	10049.38
931.69	10102.63
931.86	9944.94
932.02	10012.52
932.19	9930.60
932.36	9822.06
932.53	9822.06
932.69	9734.00
932.86	9631.60
933.03	9889.64
933.19	9559.92
933.36	9418.61
933.53	9813.87
933.70	9547.63
933.86	9592.69
934.03	9336.69
934.20	9258.87
934.36	9273.20
934.53	9101.17
934.70	9135.99
934.86	9105.27
935.03	8970.10
935.20	9047.93
935.36	9021.30
935.53	8783.74
935.70	8763.26
935.86	8634.24
936.03	8624.00
936.20	8507.26
936.36	8271.75
936.53	8382.34
936.70	8499.07
936.86	8503.17
937.03	8222.59
937.20	8085.38
937.36	8163.20
937.53	7858.06
937.70	7966.60
937.86	7800.71
938.03	7747.47
938.20	7841.67
938.36	7724.94
938.53	7475.09
938.70	7456.65
938.86	7452.56
939.03	7194.51
939.20	7182.23
939.36	7182.23
939.53	7061.40
939.70	7202.71
939.86	6852.50
940.03	6754.20
940.19	6735.77
940.36	6741.91
940.53	6696.86
940.69	6455.20
940.86	6606.75
941.03	6348.70
941.19	6365.09
941.36	6459.29
941.52	6375.33
941.69	6117.28
941.86	6201.25
942.02	6201.25
942.19	6141.86
942.35	6010.79
942.52	6053.80
942.69	5881.77
942.85	5795.75
943.02	5801.90
943.18	5787.56
943.35	5726.12
943.52	5726.12
943.68	5658.54
943.85	5732.26
944.01	5603.24
944.18	5535.66
944.35	5517.23
944.51	5269.42
944.68	5355.44
944.84	5343.15
945.01	5308.34
945.17	5388.21
945.34	5371.82
945.51	5519.28
945.67	5304.24
945.84	5238.70
946.00	5347.25
946.17	5214.13
946.33	5169.07
946.50	5279.66
946.67	5210.03
946.83	5240.75
947.00	5347.25
947.16	5253.04
947.33	5124.02
947.49	5300.14
947.66	5136.31
947.82	5212.08
947.99	5287.86
948.16	5435.31
948.32	5238.70
948.49	5349.29
948.65	5316.53
948.82	5207.98
948.98	5189.55
949.15	5263.28
949.31	5171.12
949.48	5263.28
949.64	5230.51
949.81	5289.90
949.97	5189.55
950.14	5238.70
950.30	5205.94
950.47	5248.94
950.63	5121.97
950.80	5386.16
950.96	5265.33
951.13	5226.42
951.30	5187.50
951.46	5341.10
951.63	5394.35
951.79	5367.73
951.96	5420.97
952.12	5349.29
952.29	5300.14
952.45	5318.57
952.62	5271.47
952.78	5513.13
952.94	5369.77
953.11	5291.95
953.27	5345.20
953.44	5431.21
953.60	5498.80
953.77	5513.13
953.93	5482.41
954.10	5253.04
954.26	5427.12
954.43	5459.88
954.59	5449.64
954.76	5476.27
954.92	5386.16
955.09	5392.30
955.25	5332.91
955.42	5414.83
955.58	5488.56
955.75	5425.07
955.91	5275.57
956.07	5271.47
956.24	5400.49
956.40	5357.49
956.57	5607.34
956.73	5402.54
956.90	5398.45
957.06	5302.19
957.23	5560.24
957.39	5408.69
957.56	5570.48
957.72	5300.14
957.88	5392.30
958.05	5451.69
958.21	5560.24
958.38	5470.12
958.54	5363.63
958.71	5431.21
958.87	5304.24
959.03	5492.65
959.20	5228.46
959.36	5377.97
959.53	5382.06
959.69	5218.22
959.85	5535.66
960.02	5314.48
960.18	5306.29
960.35	5511.08
960.51	5468.08
960.68	5343.15
960.84	5418.93
961.00	5367.73
961.17	5369.77
961.33	5455.79
961.50	5427.12
961.66	5343.15
961.82	5203.89
961.99	5484.46
962.15	5316.53
962.31	5369.77
962.48	5547.95
962.64	5367.73
962.81	5367.73
962.97	5427.12
963.13	5455.79
963.30	5330.86
963.46	5242.80
963.62	5269.42
963.79	5316.53
963.95	5318.57
964.12	5261.23
964.28	5367.73
964.44	5216.18
964.61	5410.73
964.77	5259.18
964.93	5451.69
965.10	5312.43
965.26	5275.57
965.42	5232.56
965.59	5240.75
965.75	5267.38
965.92	5205.94
966.08	5275.57
966.24	5271.47
966.41	5240.75
966.57	5212.08
966.73	5355.44
966.90	5304.24
967.06	5240.75
967.22	5171.12
967.39	5224.37
967.55	5156.79
967.71	5232.56
967.88	5224.37
968.04	5101.49
968.20	5064.63
968.37	5238.70
968.53	5048.24
968.69	5152.69
968.85	5261.23
969.02	5171.12
969.18	5318.57
969.34	5105.59
969.51	5117.87
969.67	5222.32
969.83	5021.62
970.00	5087.15
970.16	5081.01
970.32	5054.39
970.48	5136.31
970.65	4984.76
970.81	5035.96
970.97	5048.24
971.14	4896.69
971.30	5199.79
971.46	4917.17
971.63	4988.85
971.79	5040.05
971.95	4919.22
972.11	4988.85
972.28	4849.59
972.44	4919.22
972.60	4908.98
972.76	4941.75
972.93	4880.31
973.09	5031.86
973.25	4894.65
973.42	4894.65
973.58	4982.71
973.74	4913.08
973.90	4874.17
974.07	4841.40
974.23	4849.59
974.39	4847.54
974.55	4730.81
974.72	4861.88
974.88	4722.62
975.04	4698.04
975.20	4745.14
975.37	4673.46
975.53	4704.18
975.69	4714.42
975.85	4829.11
976.01	4687.80
976.18	4523.96
976.34	4618.17
976.50	4788.15
976.66	4779.96
976.83	4556.73
976.99	4554.68
977.15	4681.66
977.31	4589.50
977.47	4671.42
977.64	4741.05
977.80	4579.26
977.96	4691.90
978.12	4648.89
978.29	4679.61
978.45	4569.02
978.61	4562.87
978.77	4538.30
978.93	4491.20
979.10	4579.26
979.26	4413.37
979.42	4466.62
979.58	4396.99
979.74	4374.46
979.91	4440.00
980.07	4392.89
980.23	4396.99
980.39	4411.32
980.55	4452.28
980.71	4388.80
980.88	4358.08
981.04	4464.57
981.20	4329.41
981.36	4343.74
981.52	4454.33
981.68	4347.84
981.85	4435.90
982.01	4327.36
982.17	4298.69
982.33	4341.69
982.49	4278.21
982.65	4333.50
982.82	4286.40
982.98	4276.16
983.14	4050.88
983.30	4231.10
983.46	4323.26
983.62	4218.82
983.79	4272.06
983.95	4163.52
984.11	4224.96
984.27	4272.06
984.43	4165.57
984.59	4288.45
984.75	4325.31
984.91	4235.20
985.08	4235.20
985.24	4136.90
985.40	4104.13
985.56	4202.43
985.72	4083.65
985.88	4186.05
986.04	4110.27
986.20	4091.84
986.37	4136.90
986.53	4016.07
986.69	4079.55
986.85	3909.57
987.01	4059.07
987.17	3991.49
987.33	4007.87
987.49	3860.42
987.65	4112.32
987.82	4046.79
987.98	3913.67
988.14	3837.89
988.30	3936.20
988.46	3899.33
988.62	3983.30
988.78	3917.76
988.94	3893.19
989.10	3772.36
989.26	3940.29
989.42	3852.23
989.59	3790.79
989.75	3833.80
989.91	3950.53
990.07	3727.30
990.23	3915.72
990.39	3807.17
990.55	3901.38
990.71	3770.31
990.87	3784.65
991.03	3803.08
991.19	3684.30
991.35	3729.35
991.51	3813.32
991.67	3813.32
991.83	3782.60
992.00	3700.68
992.16	3825.61
992.32	3717.06
992.48	3913.67
992.64	3674.06
992.80	3854.28
992.96	3768.26
993.12	3680.20
993.28	3784.65
993.44	3633.10
993.60	3665.86
993.76	3772.36
993.92	3641.29
994.08	3686.34
994.24	3659.72
994.40	3565.51
994.56	3651.53
994.72	3557.32
994.88	3477.45
995.04	3624.90
995.20	3571.66
995.36	3497.93
995.52	3622.86
995.68	3475.40
995.84	3411.92
996.00	3575.75
996.16	3450.83
996.32	3551.18
996.48	3407.82
996.64	3551.18
996.80	3358.67
996.96	3506.12
997.12	3450.83
997.28	3379.15
997.44	3434.44
997.60	3350.48
997.76	3373.00
997.92	3346.38
998.08	3452.88
998.24	3272.65
998.40	3510.22
998.56	3379.15
998.72	3303.37
998.88	3368.91
999.04	3338.19
999.20	3375.05
999.36	3340.24
999.52	3338.19
999.68	3315.66
999.84	3266.51
1000.00	3344.33
1000.16	3395.53
1000.32	3280.85
1000.48	3446.73
1000.64	3227.60
1000.80	3207.12
1000.95	3166.16
1001.11	3237.84
1001.27	3063.76
1001.43	3215.31
1001.59	3176.40
1001.75	3213.26
1001.91	3180.50
1002.07	3078.10
1002.23	3049.43
1002.39	3153.87
1002.55	3145.68
1002.71	3014.61
1002.87	3149.78
1003.03	3194.83
1003.19	3123.15
1003.34	3125.20
1003.50	3108.82
1003.66	3145.68
1003.82	3094.48
1003.98	2985.94
1004.14	3090.38
1004.30	3139.54
1004.46	3110.86
1004.62	3002.32
1004.78	2971.60
1004.94	3006.42
1005.09	3051.47
1005.25	3012.56
1005.41	2936.79
1005.57	3098.58
1005.73	3012.56
1005.89	2871.25
1006.05	2877.40
1006.21	2957.27
1006.37	2983.89
1006.52	2961.36
1006.68	2793.43
1006.84	2961.36
1007.00	2887.64
1007.16	3037.14
1007.32	2889.68
1007.48	2871.25
1007.64	2858.96
1007.79	2879.44
1007.95	2901.97
1008.11	2885.59
1008.27	2949.08
1008.43	2885.59
1008.59	2848.72
1008.75	2813.91
1008.91	2846.68
1009.06	2803.67
1009.22	2799.57
1009.38	2848.72
1009.54	2889.68
1009.70	2779.09
1009.86	2826.20
1010.01	2830.29
1010.17	2738.13
1010.33	2805.72
1010.49	2740.18
1010.65	2842.58
1010.81	2691.03
1010.96	2824.15
1011.12	2787.29
1011.28	2709.46
1011.44	2838.48
1011.60	2772.95
1011.76	2764.76
1011.91	2766.81
1012.07	2703.32
1012.23	2547.67
1012.39	2715.61
1012.55	2688.98
1012.71	2705.37
1012.86	2547.67
1013.02	2572.25
1013.18	2666.46
1013.34	2695.13
1013.50	2672.60
1013.65	2639.83
1013.81	2535.39
1013.97	2590.68
1014.13	2568.15
1014.29	2592.73
1014.44	2744.28
1014.60	2576.34
1014.76	2562.01
1014.92	2611.16
1015.07	2607.06
1015.23	2580.44
1015.39	2564.06
1015.55	2514.91
1015.71	2537.43
1015.86	2486.23
1016.02	2512.86
1016.18	2408.41
1016.34	2555.86
1016.49	2504.67
1016.65	2555.86
1016.81	2453.47
1016.97	2539.48
1017.12	2562.01
1017.28	2371.55
1017.44	2461.66
1017.60	2449.37
1017.75	2449.37
1017.91	2482.14
1018.07	2435.03
1018.23	2525.15
1018.38	2367.45
1018.54	2426.84
1018.70	2416.60
1018.86	2418.65
1019.01	2396.12
1019.17	2465.75
1019.33	2521.05
1019.49	2412.51
1019.64	2478.04
1019.80	2408.41
1019.96	2461.66
1020.12	2377.69
1020.27	2342.88
1020.43	2379.74
1020.59	2428.89
1020.74	2398.17
1020.90	2435.03
1021.06	2283.49
1021.22	2289.63
1021.37	2383.84
1021.53	2357.21
1021.69	2346.97
1021.84	2263.01
1022.00	2416.60
1022.16	2342.88
1022.31	2328.54
1022.47	2310.11
1022.63	2351.07
1022.79	2271.20
1022.94	2297.82
1023.10	2473.95
1023.26	2301.92
1023.41	2318.30
1023.57	2254.81
1023.73	2363.36
1023.88	2271.20
1024.04	2267.10
1024.20	2267.10
1024.35	2303.96
1024.51	2320.35
1024.67	2232.29
1024.82	2199.52
1024.98	2236.38
1025.14	2279.39
1025.29	2174.94
1025.45	2263.01
1025.61	2230.24
1025.76	2183.13
1025.92	2263.01
1026.08	2263.01
1026.23	2269.15
1026.39	2289.63
1026.55	2273.25
1026.70	2150.37
1026.86	2166.75
1027.02	2250.72
1027.17	2199.52
1027.33	2224.09
1027.48	2179.04
1027.64	2133.98
1027.80	2150.37
1027.95	2306.01
1028.11	2054.11
1028.27	2164.70
1028.42	2263.01
1028.58	2109.41
1028.73	2133.98
1028.89	2066.40
1029.05	2213.85
1029.20	2207.71
>>>>>End Processed Spectral Data<<<<<
