SpectraSuite Data File
++++++++++++++++++++++++++++++++++++
Date: Fri Jun 02 14:41:58 CEST 2017
User: INFO_000
Dark Spectrum Present: No
Reference Spectrum Present: No
Number of Sampled Component Spectra: 1
Spectrometers: USB4H00879
Integration Time (usec): 80000 (USB4H00879)
Spectra Averaged: 1 (USB4H00879)
Boxcar Smoothing: 0 (USB4H00879)
Correct for Electrical Dark: No (USB4H00879)
Strobe/Lamp Enabled: No (USB4H00879)
Correct for Detector Non-linearity: No (USB4H00879)
Correct for Stray Light: No (USB4H00879)
Number of Pixels in Processed Spectrum: 3648
>>>>>Begin Processed Spectral Data<<<<<
345.13	1214.45
345.34	1214.45
345.56	1214.45
345.78	1296.36
345.99	1263.60
346.21	1654.76
346.42	1646.57
346.64	1615.85
346.86	1783.78
347.07	1667.05
347.29	1642.47
347.50	1615.85
347.72	1650.66
347.94	1730.53
348.15	1574.89
348.37	1535.98
348.59	1658.85
348.80	1689.57
349.02	1742.82
349.23	1875.94
349.45	1818.60
349.67	1847.27
349.88	1791.97
350.10	1986.53
350.31	1865.70
350.53	1851.36
350.75	2039.78
350.96	1802.21
351.18	1828.84
351.39	1839.08
351.61	1812.45
351.82	1880.04
352.04	1892.32
352.26	1808.36
352.47	1863.65
352.69	1970.15
352.90	1732.58
353.12	1847.27
353.34	1820.64
353.55	1968.10
353.77	1853.41
353.98	1896.42
354.20	1787.88
354.41	1990.63
354.63	1929.19
354.85	2025.44
355.06	1873.89
355.28	1820.64
355.49	1890.28
355.71	1861.60
355.92	1847.27
356.14	1880.04
356.35	1884.13
356.57	1839.08
356.79	1892.32
357.00	1900.52
357.22	2058.21
357.43	1789.92
357.65	2002.91
357.86	1826.79
358.08	1937.38
358.29	1902.56
358.51	1968.10
358.72	1953.76
358.94	1918.95
359.16	1880.04
359.37	1900.52
359.59	1953.76
359.80	1955.81
360.02	1978.34
360.23	1933.28
360.45	1961.95
360.66	1902.56
360.88	1890.28
361.09	1957.86
361.31	1970.15
361.52	1925.09
361.74	2035.68
361.95	2093.02
362.17	1941.47
362.38	2027.49
362.60	2056.16
362.81	2050.02
363.03	1929.19
363.24	2047.97
363.46	2033.63
363.67	1992.67
363.89	1998.82
364.10	1996.77
364.32	1951.71
364.53	2058.21
364.75	1974.24
364.96	2074.59
365.18	2035.68
365.39	2050.02
365.61	1900.52
365.82	2144.22
366.04	2050.02
366.25	1941.47
366.47	2101.22
366.68	2060.26
366.90	1929.19
367.11	1916.90
367.33	2129.89
367.54	2066.40
367.76	2023.39
367.97	2107.36
368.19	2056.16
368.40	2084.83
368.62	2054.11
368.83	1945.57
369.05	2052.06
369.26	1929.19
369.48	2025.44
369.69	2019.30
369.91	1990.63
370.12	2095.07
370.33	2117.60
370.55	2029.54
370.76	2011.11
370.98	2150.37
371.19	2101.22
371.41	2004.96
371.62	2117.60
371.84	2078.69
372.05	2142.18
372.27	2097.12
372.48	2136.03
372.69	2148.32
372.91	2230.24
373.12	2174.94
373.34	2123.74
373.55	2234.33
373.77	2125.79
373.98	2109.41
374.20	2279.39
374.41	2271.20
374.62	2150.37
374.84	2199.52
375.05	2238.43
375.27	2152.42
375.48	2281.44
375.70	2246.62
375.91	2191.33
376.12	2330.59
376.34	2019.30
376.55	2234.33
376.77	2232.29
376.98	2121.70
377.19	2142.18
377.41	2117.60
377.62	2228.19
377.84	2267.10
378.05	2426.84
378.27	2281.44
378.48	2363.36
378.69	2355.16
378.91	2346.97
379.12	2306.01
379.34	2246.62
379.55	2367.45
379.76	2279.39
379.98	2201.57
380.19	2303.96
380.41	2252.77
380.62	2314.20
380.83	2224.09
381.05	2207.71
381.26	2359.26
381.47	2318.30
381.69	2215.90
381.90	2418.65
382.12	2371.55
382.33	2246.62
382.54	2283.49
382.76	2389.98
382.97	2265.05
383.19	2203.61
383.40	2416.60
383.61	2336.73
383.83	2387.93
384.04	2326.49
384.25	2441.18
384.47	2369.50
384.68	2410.46
384.89	2400.22
385.11	2371.55
385.32	2394.08
385.54	2344.92
385.75	2375.64
385.96	2426.84
386.18	2435.03
386.39	2469.85
386.60	2449.37
386.82	2490.33
387.03	2568.15
387.24	2576.34
387.46	2492.38
387.67	2576.34
387.88	2533.34
388.10	2437.08
388.31	2490.33
388.52	2570.20
388.74	2625.50
388.95	2566.10
389.16	2529.24
389.38	2594.78
389.59	2619.35
389.80	2664.41
390.02	2516.95
390.23	2713.56
390.44	2691.03
390.66	2537.43
390.87	2572.25
391.08	2672.60
391.30	2729.94
391.51	2654.17
391.72	2719.70
391.94	2654.17
392.15	2672.60
392.36	2662.36
392.58	2600.92
392.79	2736.09
393.00	2680.79
393.22	2734.04
393.43	2793.43
393.64	2815.96
393.85	2852.82
394.07	2684.89
394.28	2729.94
394.49	2783.19
394.71	2772.95
394.92	2838.48
395.13	2729.94
395.35	2770.90
395.56	2795.48
395.77	2863.06
395.98	2842.58
396.20	2887.64
396.41	2953.17
396.62	2930.64
396.84	2858.96
397.05	2822.10
397.26	2910.16
397.47	2924.50
397.69	2971.60
397.90	3112.91
398.11	2985.94
398.32	2910.16
398.54	2906.07
398.75	2865.11
398.96	2977.75
399.18	3141.58
399.39	3074.00
399.60	3098.58
399.81	3022.80
400.03	2981.84
400.24	3330.00
400.45	3051.47
400.66	3092.43
400.88	3074.00
401.09	3166.16
401.30	3147.73
401.51	3270.61
401.73	3182.54
401.94	3098.58
402.15	3258.32
402.36	3178.45
402.58	3178.45
402.79	3186.64
403.00	3256.27
403.21	3164.11
403.43	3303.37
403.64	3352.52
403.85	3117.01
404.06	3368.91
404.27	3133.39
404.49	3276.75
404.70	3172.30
404.91	3299.28
405.12	3321.81
405.34	3215.31
405.55	3442.64
405.76	3227.60
405.97	3262.41
406.19	3528.65
406.40	3258.32
406.61	3399.63
406.82	3456.97
407.03	3432.40
407.25	3248.08
407.46	3459.02
407.67	3424.20
407.88	3461.07
408.09	3407.82
408.31	3389.39
408.52	3366.86
408.73	3557.32
408.94	3456.97
409.15	3590.09
409.37	3514.31
409.58	3624.90
409.79	3633.10
410.00	3669.96
410.21	3526.60
410.43	3530.70
410.64	3522.51
410.85	3579.85
411.06	3723.21
411.27	3538.89
411.48	3841.99
411.70	3737.54
411.91	3727.30
412.12	3717.06
412.33	3731.40
412.54	3649.48
412.76	3758.02
412.97	3747.78
413.18	3684.30
413.39	3747.78
413.60	3790.79
413.81	3682.25
414.03	3647.43
414.24	3745.73
414.45	3942.34
414.66	3682.25
414.87	3829.70
415.08	3829.70
415.30	3772.36
415.51	3844.04
415.72	3858.37
415.93	3850.18
416.14	3956.68
416.35	3901.38
416.56	3928.00
416.78	3952.58
416.99	4026.31
417.20	3891.14
417.41	4087.75
417.62	3928.00
417.83	3919.81
418.04	3946.44
418.26	4050.88
418.47	3938.24
418.68	4065.22
418.89	4083.65
419.10	4220.86
419.31	4151.23
419.52	4186.05
419.73	4120.51
419.95	4112.32
420.16	4112.32
420.37	4161.47
420.58	4202.43
420.79	4085.70
421.00	4261.82
421.21	4364.22
421.42	4147.14
421.63	4224.96
421.85	4235.20
422.06	4265.92
422.27	4313.02
422.48	4339.65
422.69	4347.84
422.90	4331.45
423.11	4313.02
423.32	4435.90
423.53	4507.58
423.75	4466.62
423.96	4562.87
424.17	4493.24
424.38	4638.65
424.59	4546.49
424.80	4923.32
425.01	4491.20
425.22	4458.43
425.43	4601.79
425.64	4896.69
425.85	4765.62
426.06	4695.99
426.28	4538.30
426.49	4689.85
426.70	4687.80
426.91	4753.34
427.12	4843.45
427.33	4765.62
427.54	4636.60
427.75	4857.78
427.96	5009.33
428.17	4855.73
428.38	4995.00
428.59	4984.76
428.80	4861.88
429.01	5109.68
429.23	4956.08
429.44	5300.14
429.65	5205.94
429.86	5099.44
430.07	5056.43
430.28	5052.34
430.49	5162.93
430.70	5255.09
430.91	5224.37
431.12	5242.80
431.33	5406.64
431.54	5337.01
431.75	5291.95
431.96	5228.46
432.17	5164.98
432.38	5210.03
432.59	5607.34
432.80	5259.18
433.01	5357.49
433.22	5486.51
433.43	5474.22
433.64	5451.69
433.85	5369.77
434.06	5515.18
434.27	5484.46
434.49	5545.90
434.70	5734.31
434.91	5648.30
435.12	5582.76
435.33	5562.28
435.54	5621.67
435.75	5500.84
435.96	5642.15
436.17	5506.99
436.38	5945.25
436.59	5842.85
436.80	5691.31
437.01	5939.11
437.22	5975.97
437.43	5865.38
437.64	5605.29
437.85	6027.17
438.06	6014.88
438.27	5703.59
438.48	5941.16
438.69	6137.76
438.90	6018.98
439.11	6000.55
439.32	6047.65
439.53	6053.80
439.74	6123.43
439.95	6133.67
440.16	6080.42
440.37	6057.89
440.57	5982.12
440.78	5988.26
440.99	6191.01
441.20	6160.29
441.41	6035.36
441.62	6240.16
441.83	6000.55
442.04	6287.26
442.25	6291.36
442.46	6363.04
442.67	6520.73
442.88	6715.29
443.09	6418.33
443.30	6344.61
443.51	6367.13
443.72	6707.10
443.93	6408.09
444.14	6627.23
444.35	6260.64
444.56	6571.93
444.77	6496.16
444.98	6719.39
445.19	6832.02
445.40	6807.45
445.61	6604.70
445.81	6631.32
446.02	6795.16
446.23	6643.61
446.44	6580.12
446.65	6907.80
446.86	6703.00
447.07	6844.31
447.28	7034.77
447.49	6850.46
447.70	6729.63
447.91	7040.92
448.12	6973.33
448.33	7028.63
448.54	7135.12
448.74	6870.94
448.95	7063.44
449.16	6975.38
449.37	7313.30
449.58	7036.82
449.79	7282.58
450.00	6895.51
450.21	7065.49
450.42	7255.95
450.63	7278.48
450.84	7133.08
451.05	7186.32
451.25	7393.17
451.46	7190.42
451.67	7368.59
451.88	7575.44
452.09	7417.74
452.30	7333.78
452.51	7434.13
452.72	7638.92
452.93	7786.38
453.13	7405.46
453.34	7499.66
453.55	7669.64
453.76	7591.82
453.97	7794.57
454.18	7831.43
454.39	7804.81
454.60	7671.69
454.81	7643.02
455.01	7864.20
455.22	7645.07
455.43	7880.58
455.64	8062.85
455.85	8136.58
456.06	8290.18
456.27	8290.18
456.48	8042.37
456.68	8128.39
456.89	8228.74
457.10	8341.38
457.31	8306.56
457.52	8249.22
457.73	8341.38
457.94	8417.15
458.14	8257.41
458.35	8759.16
458.56	8298.37
458.77	8611.71
458.98	8667.00
459.19	8683.39
459.39	8744.83
459.60	8978.30
459.81	8619.90
460.02	8970.10
460.23	8804.22
460.44	9203.57
460.65	8937.34
460.85	8972.15
461.06	9117.56
461.27	8855.42
461.48	9271.15
461.69	9236.34
461.89	8941.43
462.10	9222.00
462.31	8982.39
462.52	9285.49
462.73	9287.54
462.94	9379.70
463.14	9420.66
463.35	9314.16
463.56	9734.00
463.77	9856.87
463.98	9588.59
464.18	9586.54
464.39	9772.91
464.60	9983.85
464.81	10002.28
465.02	9871.21
465.23	10239.84
465.43	9963.37
465.64	10399.59
465.85	10137.45
466.06	9981.80
466.27	10469.22
466.47	10647.39
466.68	10497.89
466.89	10399.59
467.10	10581.85
467.30	10420.06
467.51	10725.21
467.72	10747.74
467.93	10626.91
468.14	10659.68
468.34	10911.58
468.55	10952.54
468.76	11075.42
468.97	10880.86
469.17	11149.14
469.38	11300.69
469.59	11415.38
469.80	11143.00
470.01	11130.71
470.21	11534.16
470.42	11654.99
470.63	11747.15
470.84	11415.38
471.04	11804.49
471.25	11820.88
471.46	11734.86
471.67	11960.14
471.87	11904.84
472.08	12283.72
472.29	12412.74
472.50	12007.24
472.70	12033.86
472.91	12169.03
473.12	12562.24
473.33	12584.77
473.53	12625.73
473.74	12402.50
473.95	12728.13
474.16	13080.38
474.36	12812.09
474.57	13186.87
474.78	13246.26
474.99	13020.99
475.19	12883.77
475.40	13432.63
475.61	13336.37
475.81	13469.49
476.02	13766.45
476.23	13492.02
476.44	13829.93
476.64	14147.37
476.85	14282.53
477.06	13915.95
477.27	14282.53
477.47	14446.37
477.68	14217.00
477.89	14675.74
478.09	14393.12
478.30	14593.83
478.51	14673.70
478.71	14919.45
478.92	14802.72
479.13	15103.77
479.34	15054.62
479.54	15193.88
479.75	15191.83
479.96	15314.71
480.16	15591.19
480.37	15562.51
480.58	15640.34
480.78	15972.11
480.99	15709.97
481.20	16066.31
481.41	16123.66
481.61	16070.41
481.82	16060.17
482.03	16361.22
482.23	16191.24
482.44	16424.71
482.65	16639.75
482.85	16903.93
483.06	16989.95
483.27	16928.51
483.47	16899.84
483.68	17065.72
483.89	17334.01
484.09	17135.35
484.30	17266.42
484.51	17600.24
484.71	17438.45
484.92	17497.84
485.13	17866.48
485.33	18020.08
485.54	17684.21
485.75	17977.07
485.95	18095.85
486.16	18388.71
486.37	18497.25
486.57	18362.09
486.78	18644.71
486.98	18693.86
487.19	18663.14
487.40	18798.31
487.60	18796.26
487.81	19326.68
488.02	18931.42
488.22	19214.04
488.43	19267.29
488.64	19453.66
488.84	19521.24
489.05	19594.96
489.25	19535.57
489.46	19881.68
489.67	19830.48
489.87	19779.28
490.08	20059.85
490.29	19920.59
490.49	20451.02
490.70	20362.95
490.90	20250.32
491.11	20344.52
491.32	20561.61
491.52	20424.39
491.73	20573.89
491.94	20715.20
492.14	20690.63
492.35	21122.75
492.55	21298.88
492.76	21104.32
492.97	21319.35
493.17	21507.77
493.38	21397.18
493.58	21786.29
493.79	21687.99
494.00	21733.04
494.20	21429.94
494.41	21827.25
494.61	21794.48
494.82	22224.56
495.02	21948.08
495.23	22156.97
495.44	22523.56
495.64	22501.03
495.85	22283.95
496.05	22718.12
496.26	22576.81
496.47	22601.38
496.67	22746.79
496.88	23236.25
497.08	23072.42
497.29	23189.15
497.49	22869.67
497.70	23285.40
497.91	23608.98
498.11	23666.33
498.32	23426.71
498.52	23488.15
498.73	24002.19
498.93	23877.27
499.14	23989.91
499.34	23764.63
499.55	24229.52
499.76	23994.00
499.96	24385.16
500.17	24094.35
500.37	24444.56
500.58	24417.93
500.78	24536.71
500.99	24637.06
501.19	24745.61
501.40	24581.77
501.60	24948.36
501.81	25007.75
502.02	24710.79
502.22	24733.32
502.43	25089.67
502.63	25310.85
502.84	25120.38
503.04	25060.99
503.25	25519.74
503.45	25202.30
503.66	25484.92
503.86	25556.60
504.07	25994.87
504.27	25599.61
504.48	25845.37
504.68	25843.32
504.89	25986.68
505.09	25871.99
505.30	26052.21
505.50	25826.93
505.71	26250.86
505.91	26418.80
506.12	26138.23
506.32	26164.85
506.53	26228.34
506.73	26635.88
506.94	26664.55
507.14	26289.77
507.35	26725.99
507.55	26586.73
507.76	27020.90
507.96	26902.12
508.17	26809.96
508.37	26996.32
508.58	26981.99
508.78	26900.07
508.99	27418.21
509.19	27115.11
509.40	27338.33
509.60	27201.12
509.81	27559.52
510.01	27332.19
510.22	27610.71
510.42	27547.23
510.63	27620.95
510.83	27510.36
511.04	27653.72
511.24	27856.47
511.44	27778.65
511.65	27661.91
511.85	27887.19
512.06	28042.84
512.26	28153.43
512.47	28171.86
512.67	28167.76
512.88	28468.81
513.08	28085.84
513.29	28386.89
513.49	28251.73
513.69	28354.13
513.90	28411.47
514.10	28704.33
514.31	28550.73
514.51	28669.51
514.72	28763.72
514.92	28530.25
515.13	29185.60
515.33	28784.20
515.53	29054.53
515.74	29075.01
515.94	29179.46
516.15	29414.98
516.35	29054.53
516.56	29189.70
516.76	29146.69
516.96	29191.75
517.17	29552.19
517.37	29523.52
517.58	29316.67
517.78	29763.13
517.99	29544.00
518.19	29341.25
518.39	29939.26
518.60	29943.35
518.80	29699.64
519.01	30404.14
519.21	29982.26
519.41	30096.95
519.62	30467.63
519.82	29699.64
520.03	30144.05
520.23	30576.17
520.43	29996.60
520.64	30832.17
520.84	30596.65
521.05	30602.80
521.25	30979.62
521.45	31145.51
521.66	30885.42
521.86	30631.47
522.07	31090.21
522.27	31122.98
522.47	31161.89
522.68	31587.87
522.88	31325.73
523.08	31546.91
523.29	31442.46
523.49	31551.01
523.70	31626.78
523.90	31555.10
524.10	32122.39
524.31	31864.35
524.51	31667.74
524.71	32693.77
524.92	31876.63
525.12	32384.53
525.33	32398.87
525.53	32374.29
525.73	32945.67
525.94	32448.02
526.14	32491.02
526.34	33154.57
526.55	32759.31
526.75	32697.87
526.95	33199.62
527.16	32886.28
527.36	33060.36
527.56	33285.64
527.77	33381.89
527.97	33566.21
528.17	33625.60
528.38	33478.15
528.58	33734.14
528.78	33938.94
528.99	33773.05
529.19	34076.15
529.39	33887.74
529.60	34442.74
529.80	34117.11
530.00	33891.83
530.21	34713.07
530.41	34360.82
530.61	34403.83
530.82	34639.34
531.02	34674.16
531.22	35192.30
531.43	34850.28
531.63	35143.14
531.83	35339.75
532.04	35657.18
532.24	35337.70
532.44	35509.73
532.64	35648.99
532.85	35587.55
533.05	35677.66
533.25	35958.24
533.46	35282.41
533.66	36466.13
533.86	35880.41
534.07	36511.19
534.27	36046.30
534.47	36564.43
534.67	36490.71
534.88	36371.92
535.08	36400.60
535.28	36810.19
535.49	37078.47
535.69	37492.16
535.89	37098.95
536.09	37014.99
536.30	37002.70
536.50	37643.71
536.70	37469.64
536.91	37342.66
537.11	37584.32
537.31	37602.75
537.51	37762.50
537.72	37899.71
537.92	38084.03
538.12	38315.45
538.32	37778.88
538.53	38473.14
538.73	38016.44
538.93	38323.64
539.13	38630.83
539.34	38469.04
539.54	38536.63
539.74	38690.23
539.94	38686.13
540.15	38532.53
540.35	39243.18
540.55	38933.93
540.75	39097.77
540.96	39177.64
541.16	38966.70
541.36	39300.52
541.56	39525.80
541.77	39691.68
541.97	39378.34
542.17	40021.41
542.37	40129.95
542.58	39533.99
542.78	39812.51
542.98	39718.31
543.18	40318.36
543.38	40406.42
543.59	40166.81
543.79	40238.49
543.99	40121.76
544.19	40504.73
544.40	40414.62
544.60	40613.27
544.80	40588.69
545.00	41008.53
545.20	41014.67
545.41	40977.81
545.61	40711.57
545.81	41336.20
546.01	41065.87
546.21	40932.75
546.42	41366.92
546.62	41465.22
546.82	40736.15
547.02	41379.21
547.22	41573.77
547.43	41184.65
547.63	41282.95
547.83	41528.71
548.03	41309.58
548.23	41430.41
548.44	41915.78
548.64	41717.12
548.84	42145.15
549.04	42308.99
549.24	42120.57
549.45	42294.65
549.65	42282.36
549.85	42034.56
550.05	42478.97
550.25	42126.72
550.45	42644.85
550.66	42327.42
550.86	42204.54
551.06	43052.40
551.26	42919.28
551.46	42634.61
551.66	42694.00
551.87	42728.82
552.07	43038.06
552.27	42505.59
552.47	43021.68
552.67	43130.22
552.87	42747.25
553.07	42843.51
553.28	43117.93
553.48	43263.34
553.68	43040.11
553.88	43455.85
554.08	43197.80
554.28	43400.55
554.48	43435.37
554.69	43642.21
554.89	43775.33
555.09	43709.80
555.29	43459.94
555.49	43486.57
555.69	43648.36
555.89	43992.42
556.10	44113.25
556.30	43627.88
556.50	44352.86
556.70	43906.40
556.90	44488.03
557.10	44094.82
557.30	43873.63
557.50	44291.42
557.70	43963.75
557.91	44428.63
558.11	43969.89
558.31	44639.57
558.51	44090.72
558.71	44467.55
558.91	44750.17
559.11	43924.83
559.31	44344.67
559.51	44395.87
559.72	45016.40
559.92	44748.12
560.12	44488.03
560.32	44885.33
560.52	44440.92
560.72	45012.31
560.92	44932.43
561.12	44795.22
561.32	45129.04
561.52	44615.00
561.72	45239.63
561.93	45026.64
562.13	44973.39
562.33	45030.74
562.53	45288.78
562.73	44803.41
562.93	44741.97
563.13	45151.57
563.33	45190.48
563.53	45479.24
563.73	45184.33
563.93	45667.66
564.13	45880.64
564.33	45622.60
564.53	45485.39
564.74	45595.98
564.94	45409.61
565.14	46087.49
565.34	45266.25
565.54	46036.29
565.74	45589.83
565.94	46269.76
566.14	45727.05
566.34	45964.61
566.54	45954.37
566.74	45798.73
566.94	45974.85
567.14	45983.04
567.34	45516.11
567.54	46114.11
567.74	46003.52
567.94	45960.51
568.14	46275.90
568.34	46503.23
568.54	46318.91
568.74	46433.60
568.94	46239.04
569.14	46728.50
569.34	46644.54
569.54	46646.58
569.75	46126.40
569.95	46671.16
570.15	46775.61
570.35	46875.96
570.55	46675.26
570.75	46695.74
570.95	46527.80
571.15	47058.23
571.35	46695.74
571.55	47281.45
571.75	46841.14
571.95	47129.90
572.15	47017.27
572.35	47232.30
572.55	47078.71
572.75	47564.07
572.95	47215.92
573.15	47289.65
573.35	47383.85
573.55	47340.85
573.75	47140.14
573.95	47553.83
574.15	47645.99
574.35	47596.84
574.55	47396.14
574.75	47740.20
574.95	47768.87
575.15	47725.86
575.34	47920.42
575.54	47844.65
575.74	48162.08
575.94	48026.92
576.14	48127.27
576.34	48176.42
576.54	48182.56
576.74	48233.76
576.94	48135.46
577.14	48174.37
577.34	48755.99
577.54	48069.92
577.74	47992.10
577.94	48602.39
578.14	48721.18
578.34	48768.28
578.54	48610.59
578.74	48549.15
578.94	49093.91
579.14	48755.99
579.34	49044.76
579.54	48952.60
579.74	48805.14
579.94	48983.32
580.13	49456.40
580.33	49055.00
580.53	49376.53
580.73	49128.72
580.93	49267.98
581.13	49220.88
581.33	49149.20
581.53	49575.18
581.73	49503.50
581.93	49540.36
582.13	49827.08
582.33	49597.71
582.53	49792.26
582.73	49915.14
582.92	49960.20
583.12	49779.98
583.32	49306.90
583.52	49724.68
583.72	50152.71
583.92	49587.47
584.12	49925.38
584.32	50494.72
584.52	50435.33
584.72	50144.51
584.92	50302.21
585.11	50945.27
585.31	50746.62
585.51	50894.07
585.71	50380.03
585.91	51186.93
586.11	50525.44
586.31	50474.24
586.51	50646.27
586.71	50746.62
586.91	50889.98
587.10	50939.13
587.30	51240.18
587.50	51076.34
587.70	51141.88
587.90	51098.87
588.10	50709.75
588.30	50955.51
588.50	51231.99
588.69	51315.95
588.89	51070.20
589.09	51414.26
589.29	51670.25
589.49	52194.53
589.69	51041.53
589.89	51367.15
590.08	51602.67
590.28	51520.75
590.48	51389.68
590.68	51897.58
590.88	51983.59
591.08	51746.03
591.28	51694.83
591.47	52352.23
591.67	51858.66
591.87	52059.37
592.07	52321.51
592.27	52159.72
592.47	52219.11
592.67	52376.80
592.86	51942.63
593.06	52282.59
593.26	52102.37
593.46	52188.39
593.66	52485.34
593.86	52167.91
594.05	52260.07
594.25	52856.03
594.45	52442.34
594.65	52618.46
594.85	52139.24
595.05	52778.20
595.24	53003.48
595.44	53056.73
595.64	52763.87
595.84	52974.81
596.04	52692.19
596.23	53243.09
596.43	52798.68
596.63	53198.04
596.83	53204.18
597.03	53427.41
597.22	53462.22
597.42	53533.90
597.62	53728.46
597.82	53443.79
598.02	53667.02
598.21	53720.27
598.41	53228.76
598.61	53607.63
598.81	53691.60
599.01	53998.79
599.20	53730.51
599.40	53515.47
599.60	53990.60
599.80	53912.78
600.00	54047.94
600.19	54056.14
600.39	53918.92
600.59	54553.79
600.79	54230.21
600.98	54156.49
601.18	54238.40
601.38	54447.30
601.58	55055.54
601.78	54609.09
601.97	54717.63
602.17	55346.36
602.37	54404.29
602.57	54285.51
602.76	54678.72
602.96	54340.80
603.16	54944.95
603.36	54844.60
603.55	55104.70
603.75	54860.99
603.95	55219.38
604.15	55469.23
604.34	54770.88
604.54	55088.31
604.74	55499.95
604.94	55481.52
605.13	55248.05
605.33	55458.99
605.53	55358.64
605.73	55555.25
605.92	55291.06
606.12	55481.52
606.32	55688.37
606.52	55698.61
606.71	55751.85
606.91	55903.40
607.11	55489.71
607.30	55981.23
607.50	56169.64
607.70	56263.85
607.90	56267.94
608.09	55889.07
608.29	56282.28
608.49	56196.26
608.68	56202.41
608.88	56231.08
609.08	56048.81
609.28	56302.76
609.47	56069.29
609.67	56140.97
609.87	56562.85
610.06	56335.52
610.26	56724.64
610.46	56667.30
610.66	56548.51
610.85	56693.92
611.05	56183.97
611.25	56648.86
611.44	56693.92
611.64	56601.76
611.84	56368.29
612.03	56296.61
612.23	56761.50
612.43	56751.26
612.62	56472.74
612.82	56579.23
613.02	56880.28
613.21	56720.54
613.41	56392.87
613.61	56833.18
613.80	56417.44
614.00	56720.54
614.20	56857.76
614.39	56448.16
614.59	57177.24
614.79	56736.93
614.98	57246.87
615.18	56495.27
615.38	56874.14
615.57	56501.41
615.77	57179.29
615.97	56876.19
616.16	56716.45
616.36	56941.72
616.56	57236.63
616.75	56945.82
616.95	56886.43
617.15	56890.52
617.34	57228.44
617.54	57154.71
617.74	57351.32
617.93	57390.23
618.13	56474.79
618.32	56771.74
618.52	56482.98
618.72	56935.58
618.91	57234.58
619.11	56927.39
619.31	57167.00
619.50	56976.54
619.70	56915.10
619.90	56892.57
620.09	56925.34
620.29	56999.07
620.48	56689.82
620.68	57273.49
620.88	56820.89
621.07	57150.62
621.27	56915.10
621.46	56927.39
621.66	56859.80
621.86	56724.64
622.05	56788.13
622.25	57191.58
622.44	56796.32
622.64	56734.88
622.84	56675.49
623.03	56902.81
623.23	56974.49
623.42	56980.63
623.62	57226.39
623.82	57570.45
624.01	57316.50
624.21	56990.87
624.40	56718.49
624.60	57029.79
624.80	56712.35
624.99	56855.71
625.19	56417.44
625.38	57416.85
625.58	56712.35
625.77	57240.73
625.97	57123.99
626.17	56761.50
626.36	57308.31
626.56	56853.66
626.75	56652.96
626.95	56845.47
627.14	57021.59
627.34	57336.98
627.54	56908.96
627.73	56831.13
627.93	56935.58
628.12	56423.59
628.32	57203.86
628.51	56878.24
628.71	57312.41
628.90	57322.65
629.10	56695.97
629.30	57042.07
629.49	56865.95
629.69	56859.80
629.88	56997.02
630.08	57291.93
630.27	57439.38
630.47	56892.57
630.66	56790.17
630.86	57314.45
631.05	56896.67
631.25	57746.57
631.44	57128.09
631.64	57027.74
631.84	56999.07
632.03	57832.59
632.23	57050.27
632.42	57480.34
632.62	57105.56
632.81	56968.35
633.01	57216.15
633.20	57242.77
633.40	57037.98
633.59	57511.06
633.79	57062.55
633.98	57191.58
634.18	57216.15
634.37	57488.53
634.57	57087.13
634.76	57207.96
634.96	57509.01
635.15	57504.91
635.35	57097.37
635.54	56863.90
635.74	57717.90
635.93	57111.70
636.13	57371.80
636.32	57924.75
636.52	57404.56
636.71	57357.46
636.91	57345.17
637.10	57724.05
637.30	57416.85
637.49	57580.69
637.69	57328.79
637.88	57621.65
638.08	57324.69
638.27	57855.12
638.46	57367.70
638.66	57423.00
638.85	57914.51
639.05	57494.67
639.24	57619.60
639.44	57205.91
639.63	57574.55
639.83	57625.74
640.02	57670.80
640.22	57662.61
640.41	57793.68
640.61	57195.67
640.80	57742.48
640.99	57515.15
641.19	58156.17
641.38	57152.66
641.58	57302.17
641.77	57631.89
641.97	57119.90
642.16	57635.98
642.36	57326.74
642.55	57943.18
642.74	57808.01
642.94	58530.95
643.13	57484.43
643.33	57810.06
643.52	58299.53
643.72	58154.12
643.91	57758.86
644.10	58154.12
644.30	58371.21
644.49	58000.52
644.69	58246.28
644.88	58317.96
645.08	57869.45
645.27	58158.22
645.46	57836.69
645.66	58598.53
645.85	57783.44
646.05	58209.42
646.24	57920.65
646.43	58418.31
646.63	58012.81
646.82	58672.26
647.02	58266.76
647.21	57992.33
647.40	58027.15
647.60	58057.87
647.79	58381.45
647.99	58258.57
648.18	58131.59
648.37	58594.43
648.57	58619.01
648.76	58709.12
648.96	58184.84
649.15	58455.17
649.34	58371.21
649.54	59012.22
649.73	58573.95
649.92	58694.78
650.12	58285.19
650.31	58823.81
650.51	58659.97
650.70	58799.23
650.89	58549.38
651.09	59331.70
651.28	58322.05
651.47	58797.18
651.67	58686.59
651.86	59223.16
652.06	57973.90
652.25	59106.43
652.44	58408.07
652.64	58471.56
652.83	58541.19
653.02	58612.87
653.22	58317.96
653.41	58406.02
653.60	58295.43
653.80	58678.40
653.99	58504.32
654.18	59081.85
654.38	58352.77
654.57	58717.31
654.76	58477.70
654.96	58639.49
655.15	58801.28
655.34	58455.17
655.54	58221.70
655.73	58858.62
655.92	58707.07
656.12	58532.99
656.31	58807.42
656.50	59014.27
656.70	58922.11
656.89	58737.79
657.08	58958.97
657.28	58928.25
657.47	58922.11
657.66	59350.13
657.86	58758.27
658.05	58864.77
658.24	58991.74
658.43	58586.24
658.63	59128.95
658.82	59004.03
659.01	59022.46
659.21	59030.65
659.40	59126.91
659.59	58791.04
659.79	59239.54
659.98	58948.73
660.17	59245.69
660.36	58702.98
660.56	58915.96
660.75	58813.57
660.94	59214.97
661.14	59137.15
661.33	59063.42
661.52	58606.72
661.71	59366.52
661.91	58907.77
662.10	59008.12
662.29	59139.19
662.49	59368.57
662.68	59300.98
662.87	59393.14
663.06	59110.52
663.26	59206.78
663.45	59221.11
663.64	58875.01
663.83	59190.39
664.03	59536.50
664.22	59432.05
664.41	59253.88
664.60	59276.41
664.80	59186.30
664.99	58809.47
665.18	59047.04
665.37	59100.28
665.57	59382.90
665.76	58997.88
665.95	59065.47
666.14	58795.13
666.34	59397.24
666.53	59008.12
666.72	58760.32
666.91	58930.30
667.11	59040.89
667.30	59382.90
667.49	58932.35
667.68	59208.82
667.87	59065.47
668.07	59356.28
668.26	59114.62
668.45	59069.56
668.64	58694.78
668.84	59364.47
669.03	59051.13
669.22	59241.59
669.41	59264.12
669.60	58903.68
669.80	58563.71
669.99	59376.76
670.18	58653.82
670.37	59266.17
670.57	59227.26
670.76	58737.79
670.95	59020.41
671.14	59380.85
671.33	58756.22
671.53	59241.59
671.72	59110.52
671.91	58893.44
672.10	59352.18
672.29	58889.34
672.48	58750.08
672.68	59286.65
672.87	59178.10
673.06	58885.25
673.25	59112.57
673.44	58711.17
673.64	58674.30
673.83	59071.61
674.02	59124.86
674.21	59020.41
674.40	59421.81
674.59	59028.60
674.79	59208.82
674.98	58741.89
675.17	59323.51
675.36	58848.38
675.55	59192.44
675.74	58430.60
675.94	58815.61
676.13	58752.13
676.32	59198.58
676.51	59257.98
676.70	58963.07
676.89	58961.02
677.08	58780.80
677.28	58735.74
677.47	59438.20
677.66	59221.11
677.85	58676.35
678.04	59208.82
678.23	58854.53
678.42	58901.63
678.62	58641.54
678.81	59176.06
679.00	58422.40
679.19	59108.47
679.38	59206.78
679.57	58676.35
679.76	58469.51
679.96	58995.84
680.15	58571.91
680.34	58821.76
680.53	59290.74
680.72	58979.45
680.91	59194.49
681.10	58510.47
681.29	59020.41
681.48	59065.47
681.68	58868.86
681.87	58834.05
682.06	58512.52
682.25	58449.03
682.44	58383.49
682.63	58946.68
682.82	58139.78
683.01	58932.35
683.20	57930.89
683.39	58553.47
683.59	58459.27
683.78	58571.91
683.97	58342.53
684.16	58176.65
684.35	58250.38
684.54	58412.16
684.73	58426.50
684.92	58213.51
685.11	58193.03
685.30	57773.20
685.49	58483.84
685.69	58207.37
685.88	58268.81
686.07	57887.88
686.26	58176.65
686.45	58184.84
686.64	58119.31
686.83	58176.65
687.02	58104.97
687.21	57848.97
687.40	57934.99
687.59	58258.57
687.78	57928.84
687.97	58258.57
688.16	57922.70
688.35	57795.73
688.54	57894.03
688.74	57922.70
688.93	57830.54
689.12	57752.72
689.31	58002.57
689.50	58487.94
689.69	57799.82
689.88	57175.19
690.07	57912.46
690.26	57857.17
690.45	58442.88
690.64	57498.77
690.83	57750.67
691.02	57552.02
691.21	57742.48
691.40	57574.55
691.59	57795.73
691.78	57279.64
691.97	57627.79
692.16	57488.53
692.35	57468.05
692.54	57564.31
692.73	57549.97
692.92	57545.87
693.11	57443.48
693.30	57162.90
693.49	57230.49
693.68	57617.55
693.87	57470.10
694.06	57005.21
694.25	57568.40
694.44	56542.37
694.63	57490.58
694.82	57222.29
695.01	57312.41
695.20	57156.76
695.39	56943.77
695.58	57117.85
695.77	57087.13
695.96	57027.74
696.15	56933.53
696.34	56894.62
696.53	56714.40
696.72	56843.42
696.91	56478.88
697.10	57091.22
697.29	56394.92
697.48	56972.44
697.67	56874.14
697.86	56816.80
698.05	56409.25
698.24	56978.59
698.43	56534.18
698.62	57037.98
698.81	56323.24
699.00	56751.26
699.19	56743.07
699.38	56829.08
699.57	56364.20
699.76	56638.62
699.95	56278.18
700.14	55639.22
700.32	56327.33
700.51	56319.14
700.70	56673.44
700.89	56532.13
701.08	56372.39
701.27	55999.66
701.46	56517.79
701.65	55608.50
701.84	56140.97
702.03	56274.09
702.22	56001.71
702.41	56173.73
702.60	56194.21
702.79	56265.89
702.98	55833.77
703.17	55770.28
703.35	55819.44
703.54	55690.41
703.73	56100.01
703.92	56003.75
704.11	56124.58
704.30	55674.03
704.49	55491.76
704.68	55348.40
704.87	55590.06
705.06	55491.76
705.25	55452.85
705.43	55567.54
705.62	55463.09
705.81	55577.78
706.00	55624.88
706.19	55880.88
706.38	55407.79
706.57	55518.38
706.76	55051.45
706.95	55303.35
707.14	55196.85
707.32	54916.28
707.51	54858.94
707.70	55129.27
707.89	55274.68
708.08	54932.67
708.27	55190.71
708.46	55379.12
708.65	55153.85
708.84	54940.86
709.02	55360.69
709.21	55299.25
709.40	55125.17
709.59	54957.24
709.78	54389.95
709.97	55116.98
710.16	54533.31
710.34	54742.20
710.53	54633.66
710.72	54639.81
710.91	54363.33
711.10	54615.23
711.29	54930.62
711.48	54633.66
711.66	54389.95
711.85	54670.53
712.04	54660.29
712.23	54596.80
712.42	54035.66
712.61	54451.39
712.80	54418.63
712.98	54363.33
713.17	54115.53
713.36	54533.31
713.55	54633.66
713.74	54285.51
713.93	54398.15
714.11	54179.01
714.30	54103.24
714.49	53785.80
714.68	54174.92
714.87	53937.35
715.06	53990.60
715.24	54019.27
715.43	54121.67
715.62	53810.38
715.81	53609.68
716.00	54004.94
716.18	53316.82
716.37	53241.04
716.56	53245.14
716.75	53810.38
716.94	53404.88
717.12	53490.90
717.31	53722.32
717.50	53841.10
717.69	53494.99
717.88	53710.03
718.06	53654.73
718.25	53351.63
718.44	53171.41
718.63	53222.61
718.82	52896.98
719.00	52888.79
719.19	52835.55
719.38	52962.52
719.57	52581.60
719.76	52630.75
719.94	52212.96
720.13	52266.21
720.32	52798.68
720.51	52833.50
720.69	52727.00
720.88	52376.80
721.07	52509.92
721.26	52192.48
721.44	52305.12
721.63	52206.82
721.82	52010.21
722.01	51973.35
722.20	52225.25
722.38	51678.44
722.57	51555.57
722.76	52169.96
722.95	52004.07
723.13	51600.62
723.32	51770.60
723.51	51434.74
723.70	51328.24
723.88	51610.86
724.07	51293.43
724.26	51285.23
724.44	50871.54
724.63	51553.52
724.82	51434.74
725.01	51373.30
725.19	50969.85
725.38	50730.23
725.57	50685.18
725.76	51393.78
725.94	50633.98
726.13	50926.84
726.32	50705.66
726.51	50550.01
726.69	51475.69
726.88	50978.04
727.07	51291.38
727.25	50955.51
727.44	50806.01
727.63	50570.49
727.82	50744.57
728.00	51033.33
728.19	50633.98
728.38	51148.02
728.56	50240.77
728.75	50975.99
728.94	50461.95
729.12	50963.70
729.31	50820.34
729.50	50687.23
729.69	50894.07
729.87	50740.47
730.06	50951.41
730.25	50595.07
730.43	50701.56
730.62	50584.83
730.81	50740.47
730.99	50558.20
731.18	50359.55
731.37	50627.84
731.55	50574.59
731.74	51008.76
731.93	50877.69
732.11	50920.70
732.30	50894.07
732.49	50517.25
732.67	50578.68
732.86	50574.59
733.05	50345.22
733.23	50377.98
733.42	50644.22
733.61	50195.71
733.79	50459.90
733.98	51074.29
734.17	50242.82
734.35	50050.31
734.54	50584.83
734.73	50392.32
734.91	50324.74
735.10	50244.87
735.29	50330.88
735.47	49970.44
735.66	50197.76
735.84	50046.21
736.03	49700.11
736.22	50644.22
736.40	49716.49
736.59	50584.83
736.78	49986.82
736.96	49921.29
737.15	49947.91
737.33	49972.49
737.52	49947.91
737.71	49878.28
737.89	50003.20
738.08	49773.83
738.27	49480.97
738.45	50238.72
738.64	50099.46
738.82	49562.89
739.01	49542.41
739.20	49675.53
739.38	49743.11
739.57	49708.30
739.75	49675.53
739.94	49470.73
740.13	49573.13
740.31	49171.73
740.50	49351.95
740.68	49579.28
740.87	49546.51
741.06	49925.38
741.24	49296.66
741.43	48956.69
741.61	49530.12
741.80	49245.46
741.99	48909.59
742.17	48897.30
742.36	49042.71
742.54	49048.85
742.73	49437.97
742.91	49454.35
743.10	49132.82
743.29	49147.15
743.47	49337.62
743.66	49153.30
743.84	49247.50
744.03	49106.19
744.21	48698.65
744.40	49188.11
744.59	49077.52
744.77	48311.58
744.96	48700.70
745.14	48624.92
745.33	48637.21
745.51	48874.77
745.70	48502.04
745.88	48821.53
746.07	48801.05
746.26	48504.09
746.44	48428.32
746.63	48420.13
746.81	48731.42
747.00	48330.01
747.18	48428.32
747.37	48336.16
747.55	48514.33
747.74	48839.96
747.92	48289.06
748.11	48137.51
748.29	48117.03
748.48	48373.02
748.66	48368.93
748.85	47920.42
749.03	48350.49
749.22	48157.99
749.41	48147.75
749.59	48110.88
749.78	48002.34
749.96	47789.35
750.15	47697.19
750.33	48108.83
750.52	48151.84
750.70	47576.36
750.89	47498.54
751.07	47203.63
751.26	47484.20
751.44	47867.17
751.63	47635.75
751.81	47217.97
752.00	47363.37
752.18	47967.52
752.37	47455.53
752.55	47580.46
752.74	47461.68
752.92	47543.59
753.10	47101.23
753.29	47529.26
753.47	47148.34
753.66	47134.00
753.84	47353.13
754.03	47230.26
754.21	46839.09
754.40	47645.99
754.58	47400.24
754.77	46873.91
754.95	46800.18
755.14	47050.03
755.32	46660.92
755.51	47021.36
755.69	46699.83
755.88	46490.94
756.06	46771.51
756.24	46759.22
756.43	46654.78
756.61	46951.73
756.80	46656.82
756.98	46550.33
757.17	46140.74
757.35	46466.36
757.54	46093.63
757.72	46568.76
757.90	46406.97
758.09	46220.61
758.27	46187.84
758.46	46101.82
758.64	45937.99
758.83	46425.40
759.01	46095.68
759.19	45741.38
759.38	46220.61
759.56	46042.43
759.75	45942.08
759.93	45499.72
760.12	45831.49
760.30	45786.44
760.48	45784.39
760.67	45864.26
760.85	45563.21
761.04	45688.13
761.22	45872.45
761.40	45708.61
761.59	45880.64
761.77	45471.05
761.96	45253.97
762.14	45466.95
762.32	45118.80
762.51	45251.92
762.69	45315.40
762.88	45129.04
763.06	45303.12
763.24	45096.27
763.43	45446.47
763.61	45274.45
763.80	45137.23
763.98	45428.04
764.16	45110.61
764.35	44715.35
764.53	44555.61
764.72	44375.39
764.90	44764.50
765.08	44660.05
765.27	44698.97
765.45	44488.03
765.63	44498.26
765.82	44774.74
766.00	44676.44
766.18	44377.43
766.37	44717.40
766.55	44250.46
766.74	44182.88
766.92	44324.19
767.10	44334.43
767.29	44426.59
767.47	43799.91
767.65	44199.26
767.84	43851.11
768.02	43824.48
768.20	43873.63
768.39	44281.18
768.57	43930.98
768.75	43586.92
768.94	43924.83
769.12	43791.72
769.30	43625.83
769.49	43486.57
769.67	43416.94
769.85	43384.17
770.04	43517.29
770.22	43273.58
770.40	43441.51
770.59	43511.14
770.77	43576.68
770.95	43287.92
771.14	42755.44
771.32	42988.91
771.50	42501.50
771.69	42679.67
771.87	43246.96
772.05	43236.72
772.24	42890.61
772.42	42904.95
772.60	42620.28
772.78	42489.21
772.97	42327.42
773.15	42950.00
773.33	42757.49
773.52	42843.51
773.70	42753.40
773.88	42546.55
774.07	42612.09
774.25	42630.52
774.43	42739.06
774.61	42728.82
774.80	42696.05
774.98	42841.46
775.16	42792.31
775.34	43066.73
775.53	42247.55
775.71	42782.07
775.89	42614.13
776.08	42587.51
776.26	42726.77
776.44	42849.65
776.62	42472.82
776.81	42235.26
776.99	42517.88
777.17	42927.47
777.35	42974.58
777.54	43404.65
777.72	42401.14
777.90	42931.57
778.08	42939.76
778.27	42730.87
778.45	42943.86
778.63	43193.71
778.81	42763.64
779.00	43418.99
779.18	42651.00
779.36	43175.28
779.54	42743.16
779.73	42837.36
779.91	43468.14
780.09	43169.13
780.27	43556.20
780.46	43443.56
780.64	43668.84
780.82	43038.06
781.00	43128.17
781.19	43593.06
781.37	43677.03
781.55	43564.39
781.73	43689.32
781.91	43554.15
782.10	43668.84
782.28	43601.25
782.46	43294.06
782.64	43933.03
782.82	43212.14
783.01	43726.18
783.19	43488.62
783.37	43804.00
783.55	43564.39
783.74	43750.76
783.92	43738.47
784.10	43945.31
784.28	43580.78
784.46	43271.53
784.64	43132.27
784.83	43910.50
785.01	43761.00
785.19	43451.75
785.37	43672.93
785.55	43318.64
785.74	43103.60
785.92	43142.51
786.10	43885.92
786.28	43959.65
786.46	43287.92
786.64	43109.74
786.83	43281.77
787.01	43474.28
787.19	43275.63
787.37	43109.74
787.55	43036.02
787.74	42743.16
787.92	42810.74
788.10	43185.52
788.28	42564.98
788.46	43294.06
788.64	42384.76
788.82	42798.45
789.01	42689.91
789.19	43052.40
789.37	42505.59
789.55	42628.47
789.73	42169.72
789.91	42556.79
790.09	42542.45
790.28	42294.65
790.46	41739.65
790.64	42323.32
790.82	41969.02
791.00	42130.81
791.18	41794.95
791.36	41811.33
791.55	41983.36
791.73	41487.75
791.91	41502.09
792.09	41680.26
792.27	41899.39
792.45	41835.91
792.63	41604.49
792.81	41428.36
793.00	41260.43
793.18	41239.95
793.36	41438.60
793.54	41026.96
793.72	41026.96
793.90	41237.90
794.08	40365.46
794.26	41123.21
794.44	40291.74
794.62	40181.15
794.81	40488.34
794.99	40258.97
795.17	40387.99
795.35	40412.57
795.53	40281.50
795.71	40236.44
795.89	39906.72
796.07	40045.98
796.25	39714.21
796.43	39783.84
796.61	39622.05
796.80	39220.65
796.98	39853.47
797.16	39470.50
797.34	39742.88
797.52	39130.54
797.70	39497.13
797.88	39398.82
798.06	39245.23
798.24	39226.79
798.42	38874.54
798.60	38712.75
798.78	38716.85
798.96	39161.26
799.14	38845.87
799.32	38634.93
799.51	38284.73
799.69	38471.09
799.87	38262.20
800.05	38192.57
800.23	38229.43
800.41	37948.86
800.59	37502.40
800.77	37873.09
800.95	37385.67
801.13	37719.49
801.31	37457.35
801.49	37494.21
801.67	37496.26
801.85	37098.95
802.03	37275.08
802.21	37240.26
802.39	36908.49
802.57	36742.61
802.75	36949.45
802.93	36546.00
803.11	36685.26
803.29	36818.38
803.47	36869.58
803.65	36703.70
803.83	36292.05
804.01	36335.06
804.19	36484.56
804.37	35675.62
804.55	36261.33
804.73	36058.59
804.91	36341.21
805.09	36017.63
805.27	35962.33
805.45	36244.95
805.63	35964.38
805.81	35530.21
805.99	35562.98
806.17	35945.95
806.35	35540.45
806.53	35438.05
806.71	35386.85
806.89	35159.53
807.07	35128.81
807.25	35362.28
807.43	34997.74
807.61	35540.45
807.79	34751.98
807.97	34489.84
808.15	34950.63
808.33	34743.79
808.51	34625.01
808.69	34874.86
808.87	34547.18
809.05	34319.86
809.23	34375.16
809.41	34029.05
809.59	34313.72
809.77	34338.29
809.95	33779.20
810.13	34125.30
810.31	33764.86
810.49	33852.92
810.67	33723.90
810.84	34033.14
811.02	34035.19
811.20	33586.69
811.38	33783.29
811.56	33449.47
811.74	33459.71
811.92	33228.29
812.10	33148.42
812.28	33297.92
812.46	33230.34
812.64	33437.19
812.82	33185.29
813.00	33334.79
813.18	33211.91
813.36	32898.57
813.53	32781.84
813.71	32890.38
813.89	32730.64
814.07	32615.95
814.25	32542.22
814.43	32505.36
814.61	32149.01
814.79	32380.43
814.97	32312.85
815.15	32425.49
815.33	32491.02
815.50	31753.76
815.68	32255.51
815.86	32351.76
816.04	32603.66
816.22	31909.40
816.40	31811.10
816.58	31807.00
816.76	31929.88
816.94	31700.51
817.11	31602.21
817.29	31395.36
817.47	31770.14
817.65	31493.66
817.83	31600.16
818.01	31241.76
818.19	31372.83
818.37	31553.05
818.54	31073.83
818.72	30938.66
818.90	31014.44
819.08	31219.24
819.26	31125.03
819.44	31196.71
819.62	30852.65
819.80	30912.04
819.97	30936.62
820.15	30930.47
820.33	30529.07
820.51	30938.66
820.69	30592.56
820.87	30514.73
821.05	31014.44
821.22	30498.35
821.40	30238.26
821.58	30633.52
821.76	30289.46
821.94	30084.66
822.12	30385.71
822.29	30268.98
822.47	30064.18
822.65	29980.21
822.83	30277.17
823.01	30297.65
823.19	29767.23
823.36	29933.11
823.54	30170.68
823.72	29546.05
823.90	29711.93
824.08	29601.34
824.25	29713.98
824.43	29539.90
824.61	29378.11
824.79	29599.29
824.97	29462.08
825.15	29765.18
825.32	29656.64
825.50	29539.90
825.68	29167.17
825.86	29658.68
826.04	29402.69
826.21	29210.18
826.39	29044.29
826.57	29060.68
826.75	29003.33
826.93	28999.24
827.10	28620.36
827.28	29242.95
827.46	29120.07
827.64	28929.61
827.81	28859.98
827.99	28765.77
828.17	28970.57
828.35	28405.33
828.53	28726.86
828.70	28780.10
828.88	28769.86
829.06	28782.15
829.24	28905.03
829.41	28331.60
829.59	28683.85
829.77	28384.85
829.95	28405.33
830.12	28542.54
830.30	28509.77
830.48	28831.30
830.66	28194.39
830.84	28520.01
831.01	28409.42
831.19	28085.84
831.37	28143.19
831.55	28188.24
831.72	27895.38
831.90	27922.01
832.08	28137.04
832.25	28223.06
832.43	27952.73
832.61	27735.64
832.79	27385.44
832.96	27749.98
833.14	27956.82
833.32	27653.72
833.50	27481.69
833.67	27491.93
833.85	27813.46
834.03	27371.10
834.20	27584.09
834.38	27475.55
834.56	27692.63
834.74	27336.29
834.91	27311.71
835.09	27569.76
835.27	27074.15
835.44	27172.45
835.62	26869.35
835.80	26936.93
835.98	26998.37
836.15	27307.62
836.33	26981.99
836.51	26986.08
836.68	27065.96
836.86	26891.88
837.04	26807.91
837.21	26914.41
837.39	26795.62
837.57	26994.28
837.75	26975.84
837.92	26558.06
838.10	26617.45
838.28	26435.18
838.45	26498.67
838.63	26553.96
838.81	26623.59
838.98	26451.56
839.16	26234.48
839.34	26521.20
839.51	26197.62
839.69	26308.21
839.87	26517.10
840.04	26191.47
840.22	26334.83
840.40	26179.18
840.57	25904.76
840.75	26183.28
840.93	25730.68
841.10	25831.03
841.28	26259.06
841.46	26158.70
841.63	26070.64
841.81	26111.60
841.98	26027.63
842.16	25902.71
842.34	25734.78
842.51	25683.58
842.69	26226.29
842.87	25994.87
843.04	25673.34
843.22	25581.18
843.40	25788.02
843.57	25513.59
843.75	25939.57
843.92	25638.52
844.10	25579.13
844.28	25511.55
844.45	25521.79
844.63	25443.96
844.81	25208.45
844.98	25456.25
845.16	25572.99
845.33	25288.32
845.51	25147.01
845.69	25284.22
845.86	25296.51
846.04	25089.67
846.21	25011.84
846.39	24987.27
846.57	24909.44
846.74	25015.94
846.92	25024.13
847.09	24749.70
847.27	24745.61
847.45	25044.61
847.62	25097.86
847.80	24956.55
847.97	24643.21
848.15	24675.98
848.32	24493.71
848.50	24536.71
848.68	24575.62
848.85	24622.73
849.03	24317.58
849.20	24614.54
849.38	24534.67
849.56	24442.51
849.73	24272.53
849.91	24524.43
850.08	24796.81
850.26	24184.46
850.43	24284.81
850.61	24336.01
850.78	24155.79
850.96	24327.82
851.14	23813.78
851.31	24346.25
851.49	24200.85
851.66	23930.51
851.84	24106.64
852.01	24264.33
852.19	24286.86
852.36	23711.38
852.54	24041.11
852.71	23887.51
852.89	24237.71
853.07	24104.59
853.24	23594.65
853.42	23580.31
853.59	23496.35
853.77	23637.66
853.94	24034.96
854.12	24266.38
854.29	23217.82
854.47	23692.95
854.64	23770.77
854.82	23649.94
854.99	23500.44
855.17	23424.67
855.34	23506.59
855.52	23701.14
855.69	23637.66
855.87	23039.65
856.04	23281.31
856.22	23033.50
856.39	23273.12
856.57	23383.71
856.74	23066.27
856.92	23449.24
857.09	23174.81
857.27	23375.52
857.44	23420.57
857.62	23381.66
857.79	23135.90
857.97	23264.92
858.14	23060.13
858.32	23053.98
858.49	22931.11
858.67	23137.95
858.84	22886.05
859.02	22814.37
859.19	22865.57
859.37	22660.77
859.54	22519.46
859.72	22685.35
859.89	22634.15
860.06	22410.92
860.24	22318.76
860.41	22757.03
860.59	22419.11
860.76	22644.39
860.94	22310.57
861.11	22597.29
861.29	22470.31
861.46	22185.65
861.64	22136.49
861.81	22300.33
861.98	22204.08
862.16	22355.63
862.33	22259.37
862.51	22054.58
862.68	22134.45
862.86	21991.09
863.03	22281.90
863.21	22154.93
863.38	21933.75
863.55	21919.41
863.73	22154.93
863.90	21857.97
864.08	21958.32
864.25	22005.42
864.43	21882.55
864.60	21739.19
864.77	21798.58
864.95	21726.90
865.12	21534.39
865.30	21694.13
865.47	21622.45
865.64	21802.68
865.82	21741.24
865.99	21481.14
866.17	21348.03
866.34	21671.61
866.51	21462.71
866.69	21411.51
866.86	21530.30
867.04	21190.33
867.21	21292.73
867.38	21597.88
867.56	21188.28
867.73	21141.18
867.91	21294.78
868.08	21253.82
868.25	21147.33
868.43	21055.17
868.60	20870.85
868.78	21141.18
868.95	21012.16
869.12	21139.13
869.30	20891.33
869.47	21003.97
869.64	20623.05
869.82	20809.41
869.99	20647.62
870.16	20774.60
870.34	20737.73
870.51	20637.38
870.69	20655.81
870.86	20631.24
871.03	20790.98
871.21	20362.95
871.38	20524.74
871.55	20436.68
871.73	20444.87
871.90	20426.44
872.07	20299.47
872.25	20207.31
872.42	20274.89
872.59	20168.40
872.77	20133.58
872.94	20043.47
873.11	19969.74
873.29	20149.96
873.46	19744.47
873.63	19879.63
873.81	20025.04
873.98	19650.26
874.15	19824.34
874.33	19650.26
874.50	19775.19
874.67	19625.68
874.85	19459.80
875.02	19592.92
875.19	19443.42
875.37	19707.60
875.54	19613.40
875.71	19535.57
875.88	19171.04
876.06	19408.60
876.23	19539.67
876.40	19033.82
876.58	19205.85
876.75	19429.08
876.92	19085.02
877.10	19148.51
877.27	19183.32
877.44	19181.28
877.61	18915.04
877.79	18902.75
877.96	18894.56
878.13	18695.91
878.31	18888.42
878.48	18890.46
878.65	19039.97
878.82	18675.43
879.00	18640.61
879.17	18697.95
879.34	18831.07
879.51	18468.58
879.69	18446.05
879.86	18296.55
880.03	18472.68
880.21	18519.78
880.38	18503.40
880.55	18310.89
880.72	18312.94
880.90	18693.86
881.07	18288.36
881.24	18491.11
881.41	18376.42
881.59	18063.08
881.76	18087.66
881.93	18269.93
882.10	18200.30
882.28	18042.60
882.45	18255.59
882.62	18089.71
882.79	18157.29
882.96	17768.18
883.14	18020.08
883.31	18124.52
883.48	17837.81
883.65	17655.54
883.83	18048.75
884.00	18013.93
884.17	17932.01
884.34	17907.44
884.51	17768.18
884.69	17923.82
884.86	17827.57
885.03	17821.42
885.20	17630.96
885.38	18030.32
885.55	17635.06
885.72	17815.28
885.89	17377.01
886.06	17633.01
886.24	17587.96
886.41	17573.62
886.58	17768.18
886.75	18063.08
886.92	17364.73
887.10	17598.20
887.27	17407.73
887.44	17481.46
887.61	17870.58
887.78	17401.59
887.95	17618.68
888.13	17164.03
888.30	17211.13
888.47	17317.62
888.64	17352.44
888.81	17204.99
888.99	17295.10
889.16	16951.04
889.33	16940.80
889.50	16901.89
889.67	17184.51
889.84	16836.35
890.01	16838.40
890.19	16723.71
890.36	16701.19
890.53	16975.61
890.70	16795.39
890.87	16539.40
891.04	16867.07
891.22	16582.40
891.39	16555.78
891.56	16746.24
891.73	16541.44
891.90	16535.30
892.07	16516.87
892.24	16711.42
892.42	16287.50
892.59	16332.55
892.76	16299.78
892.93	16477.96
893.10	16672.51
893.27	16293.64
893.44	16322.31
893.61	16430.85
893.79	16551.68
893.96	16326.41
894.13	16334.60
894.30	16201.48
894.47	16322.31
894.64	16262.92
894.81	16271.11
894.98	16197.38
895.15	16457.48
895.33	16252.68
895.50	16326.41
895.67	16379.65
895.84	16086.79
896.01	16467.72
896.18	16131.85
896.35	16346.89
896.52	16371.46
896.69	16346.89
896.86	16123.66
897.04	16090.89
897.21	16221.96
897.38	15961.87
897.55	16310.02
897.72	16221.96
897.89	16183.05
898.06	16275.21
898.23	16359.17
898.40	15947.53
898.57	16094.99
898.74	15935.24
898.91	16070.41
899.08	16193.29
899.26	15974.16
899.43	16037.64
899.60	15947.53
899.77	16154.38
899.94	15980.30
900.11	15793.94
900.28	15908.62
900.45	16070.41
900.62	15869.71
900.79	15976.20
900.96	16000.78
901.13	16015.12
901.30	16152.33
901.47	15785.74
901.64	15798.03
901.81	15861.52
901.98	15906.57
902.15	16099.08
902.32	15695.63
902.49	15804.17
902.66	15589.14
902.83	15847.18
903.01	15707.92
903.18	15871.76
903.35	15957.77
903.52	16015.12
903.69	15898.38
903.86	16029.45
904.03	15912.72
904.20	16035.60
904.37	16113.42
904.54	15922.96
904.71	15800.08
904.88	15972.11
905.05	15658.77
905.22	16019.21
905.39	15795.98
905.56	15841.04
905.73	15572.75
905.90	15877.90
906.07	15865.61
906.24	15968.01
906.41	15744.78
906.58	15957.77
906.75	15804.17
906.92	15845.13
907.09	15959.82
907.26	15595.28
907.43	15726.35
907.60	15689.49
907.77	15951.63
907.93	15724.30
908.10	15791.89
908.27	15779.60
908.44	15748.88
908.61	15673.10
908.78	15818.51
908.95	15781.65
909.12	15894.29
909.29	15613.71
909.46	15474.45
909.63	15716.11
909.80	15529.75
909.97	15718.16
910.14	15619.86
910.31	15750.93
910.48	15458.07
910.65	15439.64
910.82	15492.88
910.99	15404.82
911.16	15666.96
911.33	15517.46
911.50	15312.66
911.66	15277.85
911.83	15400.72
912.00	15206.17
912.17	15224.60
912.34	15406.87
912.51	15370.01
912.68	15062.81
912.85	15146.78
913.02	15154.97
913.19	15451.92
913.36	15439.64
913.53	15337.24
913.70	15179.54
913.86	15306.52
914.03	15243.03
914.20	15116.06
914.37	15312.66
914.54	14991.13
914.71	14843.68
914.88	15056.67
915.05	14898.97
915.22	14714.66
915.39	14823.20
915.55	14724.90
915.72	14874.40
915.89	14872.35
916.06	14749.47
916.23	14556.96
916.40	14655.26
916.57	14761.76
916.74	14546.72
916.91	14458.66
917.07	14495.52
917.24	14434.08
917.41	14366.50
917.58	14559.01
917.75	14393.12
917.92	14286.63
918.09	14311.21
918.26	14278.44
918.42	14305.06
918.59	14169.90
918.76	14081.83
918.93	14217.00
919.10	13938.48
919.27	13874.99
919.44	14346.02
919.60	13967.15
919.77	13967.15
919.94	13899.56
920.11	13565.74
920.28	13879.08
920.45	13690.67
920.61	13717.29
920.78	13709.10
920.95	13578.03
921.12	13539.12
921.29	13430.58
921.46	13276.98
921.62	13293.37
921.79	13442.87
921.96	13373.24
922.13	13330.23
922.30	13322.04
922.47	13199.16
922.63	12988.22
922.80	13143.86
922.97	13018.94
923.14	12865.34
923.31	13156.15
923.47	12949.31
923.64	13016.89
923.81	12736.32
923.98	12937.02
924.15	12703.55
924.32	12674.88
924.48	12740.41
924.65	12687.17
924.82	12498.75
924.99	12592.96
925.15	12437.31
925.32	12545.86
925.49	12271.43
925.66	12398.40
925.83	12175.17
925.99	12175.17
926.16	12369.73
926.33	12099.40
926.50	11974.47
926.67	12209.99
926.83	12097.35
927.00	12097.35
927.17	11853.64
927.34	11999.05
927.50	11745.10
927.67	12085.06
927.84	11681.61
928.01	11781.96
928.17	11671.37
928.34	11726.67
928.51	11464.53
928.68	11503.44
928.84	11292.50
929.01	11415.38
929.18	11503.44
929.35	11339.60
929.51	11261.78
929.68	11179.86
929.85	10846.04
930.02	11067.22
930.18	11169.62
930.35	10964.82
930.52	11061.08
930.69	10938.20
930.85	10905.43
931.02	10792.80
931.19	10786.65
931.36	10743.64
931.52	10815.32
931.69	10794.84
931.86	10573.66
932.02	10684.25
932.19	10516.32
932.36	10637.15
932.53	10461.02
932.69	10485.60
932.86	10334.05
933.03	10245.99
933.19	10086.25
933.36	10237.80
933.53	10192.74
933.70	10164.07
933.86	10090.34
934.03	10184.55
934.20	9852.78
934.36	10010.47
934.53	9482.10
934.70	9693.04
934.86	9658.22
935.03	9559.92
935.20	9342.83
935.36	9564.01
935.53	9326.45
935.70	9379.70
935.86	9262.96
936.03	9019.25
936.20	9090.93
936.36	9019.25
936.53	8886.14
936.70	8871.80
936.86	8769.40
937.03	8886.14
937.20	8562.56
937.36	8681.34
937.53	8376.19
937.70	8216.45
937.86	8253.31
938.03	8226.69
938.20	8288.13
938.36	8058.76
938.53	7956.36
938.70	7765.90
938.86	7712.65
939.03	7835.53
939.20	7587.72
939.36	7481.23
939.53	7436.17
939.70	7741.32
939.86	7075.73
940.03	7124.88
940.19	7151.51
940.36	6987.67
940.53	7067.54
940.69	6944.66
940.86	6969.24
941.03	6793.11
941.19	6594.46
941.36	6659.99
941.52	6645.66
941.69	6526.88
941.86	6547.36
942.02	6256.54
942.19	6311.84
942.35	6424.48
942.52	6193.06
942.69	6352.80
942.85	6016.93
943.02	6207.39
943.18	5926.82
943.35	6023.08
943.52	5959.59
943.68	5869.48
943.85	5971.88
944.01	5750.70
944.18	5758.89
944.35	5986.21
944.51	5842.85
944.68	5724.07
944.84	5654.44
945.01	5676.97
945.17	5740.46
945.34	5619.63
945.51	5664.68
945.67	5685.16
945.84	5605.29
946.00	5560.24
946.17	5418.93
946.33	5371.82
946.50	5703.59
946.67	5500.84
946.83	5441.45
947.00	5644.20
947.16	5498.80
947.33	5545.90
947.49	5480.36
947.66	5412.78
947.82	5562.28
947.99	5476.27
948.16	5337.01
948.32	5562.28
948.49	5504.94
948.65	5607.34
948.82	5615.53
948.98	5472.17
949.15	5478.32
949.31	5445.55
949.48	5537.71
949.64	5410.73
949.81	5558.19
949.97	5439.40
950.14	5578.67
950.30	5416.88
950.47	5486.51
950.63	5521.32
950.80	5472.17
950.96	5498.80
951.13	5525.42
951.30	5588.91
951.46	5578.67
951.63	5633.96
951.79	5617.58
951.96	5642.15
952.12	5590.95
952.29	5523.37
952.45	5425.07
952.62	5615.53
952.78	5683.11
952.94	5453.74
953.11	5590.95
953.27	5431.21
953.44	5736.36
953.60	5623.72
953.77	5722.02
953.93	5611.43
954.10	5625.77
954.26	5705.64
954.43	5687.21
954.59	5853.09
954.76	5633.96
954.92	5701.54
955.09	5762.98
955.25	5597.10
955.42	5533.61
955.58	5715.88
955.75	5595.05
955.91	5810.09
956.07	5769.13
956.24	5642.15
956.40	5676.97
956.57	5750.70
956.73	5646.25
956.90	5658.54
957.06	5726.12
957.23	5705.64
957.39	5746.60
957.56	5738.41
957.72	5640.11
957.88	5590.95
958.05	5672.87
958.21	5744.55
958.38	5572.52
958.54	5615.53
958.71	5730.22
958.87	5660.59
959.03	5771.18
959.20	5595.05
959.36	5623.72
959.53	5666.73
959.69	5711.78
959.85	5754.79
960.02	5566.38
960.18	5631.91
960.35	5545.90
960.51	5748.65
960.68	5660.59
960.84	5652.39
961.00	5572.52
961.17	5709.74
961.33	5562.28
961.50	5668.78
961.66	5685.16
961.82	5607.34
961.99	5674.92
962.15	5691.31
962.31	5691.31
962.48	5572.52
962.64	5486.51
962.81	5566.38
962.97	5656.49
963.13	5650.35
963.30	5578.67
963.46	5453.74
963.62	5695.40
963.79	5607.34
963.95	5582.76
964.12	5547.95
964.28	5605.29
964.44	5609.39
964.61	5552.04
964.77	5513.13
964.93	5730.22
965.10	5601.19
965.26	5521.32
965.42	5572.52
965.59	5547.95
965.75	5453.74
965.92	5459.88
966.08	5593.00
966.24	5601.19
966.41	5412.78
966.57	5504.94
966.73	5443.50
966.90	5568.43
967.06	5406.64
967.22	5339.05
967.39	5414.83
967.55	5283.76
967.71	5457.84
967.88	5441.45
968.04	5388.21
968.20	5386.16
968.37	5427.12
968.53	5320.62
968.69	5332.91
968.85	5394.35
969.02	5384.11
969.18	5545.90
969.34	5203.89
969.51	5468.08
969.67	5324.72
969.83	5197.74
970.00	5457.84
970.16	5250.99
970.32	5181.36
970.48	5275.57
970.65	5197.74
970.81	5236.66
970.97	5257.14
971.14	5183.41
971.30	5250.99
971.46	5232.56
971.63	5105.59
971.79	5271.47
971.95	5283.76
972.11	5205.94
972.28	5175.22
972.44	5167.03
972.60	5136.31
972.76	5146.55
972.93	5054.39
973.09	5271.47
973.25	5130.16
973.42	5058.48
973.58	5148.59
973.74	5154.74
973.90	4986.80
974.07	4872.12
974.23	5081.01
974.39	5105.59
974.55	5044.15
974.72	4882.36
974.88	4855.73
975.04	4968.37
975.20	4874.17
975.37	5062.58
975.53	4941.75
975.69	4939.70
975.85	5025.72
976.01	4906.93
976.18	4845.49
976.34	4808.63
976.50	4949.94
976.66	4992.95
976.83	4802.49
976.99	4698.04
977.15	4878.26
977.31	4800.44
977.47	4749.24
977.64	4786.10
977.80	4626.36
977.96	4759.48
978.12	4812.73
978.29	4782.01
978.45	4607.93
978.61	4607.93
978.77	4661.18
978.93	4689.85
979.10	4706.23
979.26	4632.51
979.42	4630.46
979.58	4587.45
979.74	4593.59
979.91	4714.42
980.07	4503.48
980.23	4681.66
980.39	4521.92
980.55	4585.40
980.71	4636.60
980.88	4536.25
981.04	4538.30
981.20	4497.34
981.36	4569.02
981.52	4503.48
981.68	4372.41
981.85	4591.55
982.01	4468.67
982.17	4440.00
982.33	4429.76
982.49	4507.58
982.65	4446.14
982.82	4411.32
982.98	4476.86
983.14	4300.73
983.30	4415.42
983.46	4470.72
983.62	4409.28
983.79	4321.21
983.95	4276.16
984.11	4204.48
984.27	4376.51
984.43	4280.25
984.59	4329.41
984.75	4286.40
984.91	4175.81
985.08	4392.89
985.24	4259.78
985.40	4239.30
985.56	4233.15
985.72	4229.06
985.88	4327.36
986.04	4204.48
986.20	4202.43
986.37	4259.78
986.53	4124.61
986.69	4208.58
986.85	4059.07
987.01	4120.51
987.17	4169.66
987.33	4136.90
987.49	4079.55
987.65	4118.47
987.82	4061.12
987.98	4069.31
988.14	4022.21
988.30	4184.00
988.46	3997.64
988.62	4132.80
988.78	3977.16
988.94	4124.61
989.10	3968.96
989.26	3911.62
989.42	3866.56
989.59	3882.95
989.75	3862.47
989.91	3960.77
990.07	3860.42
990.23	3817.41
990.39	3874.76
990.55	3917.76
990.71	3936.20
990.87	3944.39
991.03	4018.11
991.19	3919.81
991.35	3921.86
991.51	3885.00
991.67	3932.10
991.83	3805.13
992.00	3891.14
992.16	3872.71
992.32	3862.47
992.48	3895.24
992.64	3796.93
992.80	3760.07
992.96	3803.08
993.12	3708.87
993.28	3745.73
993.44	3780.55
993.60	3786.69
993.76	3721.16
993.92	3780.55
994.08	3821.51
994.24	3844.04
994.40	3563.47
994.56	3854.28
994.72	3633.10
994.88	3639.24
995.04	3577.80
995.20	3667.91
995.36	3672.01
995.52	3635.14
995.68	3526.60
995.84	3588.04
996.00	3735.50
996.16	3608.52
996.32	3534.79
996.48	3598.28
996.64	3737.54
996.80	3565.51
996.96	3698.63
997.12	3514.31
997.28	3559.37
997.44	3444.68
997.60	3485.64
997.76	3469.26
997.92	3524.55
998.08	3395.53
998.24	3502.03
998.40	3493.83
998.56	3379.15
998.72	3399.63
998.88	3434.44
999.04	3411.92
999.20	3459.02
999.36	3379.15
999.52	3481.55
999.68	3366.86
999.84	3440.59
1000.00	3401.68
1000.16	3375.05
1000.32	3250.13
1000.48	3370.96
1000.64	3264.46
1000.80	3178.45
1000.95	3194.83
1001.11	3405.77
1001.27	3313.61
1001.43	3385.29
1001.59	3217.36
1001.75	3301.33
1001.91	3272.65
1002.07	3168.21
1002.23	3223.50
1002.39	3129.30
1002.55	3225.55
1002.71	3139.54
1002.87	3084.24
1003.03	3176.40
1003.19	3125.20
1003.34	3190.74
1003.50	3162.06
1003.66	3223.50
1003.82	3248.08
1003.98	3133.39
1004.14	3092.43
1004.30	3160.02
1004.46	3123.15
1004.62	3104.72
1004.78	3076.05
1004.94	3047.38
1005.09	3164.11
1005.25	3055.57
1005.41	3053.52
1005.57	3033.04
1005.73	3051.47
1005.89	2957.27
1006.05	3035.09
1006.21	3014.61
1006.37	3006.42
1006.52	2912.21
1006.68	2871.25
1006.84	3051.47
1007.00	2967.51
1007.16	3035.09
1007.32	2863.06
1007.48	2949.08
1007.64	3041.23
1007.79	2994.13
1007.95	2777.05
1008.11	2985.94
1008.27	2912.21
1008.43	2920.40
1008.59	2883.54
1008.75	2830.29
1008.91	3002.32
1009.06	2869.20
1009.22	2924.50
1009.38	2801.62
1009.54	2863.06
1009.70	2777.05
1009.86	2873.30
1010.01	2848.72
1010.17	2916.31
1010.33	2885.59
1010.49	2813.91
1010.65	2961.36
1010.81	2748.37
1010.96	2756.57
1011.12	2807.77
1011.28	2797.53
1011.44	2818.00
1011.60	2746.33
1011.76	2750.42
1011.91	2775.00
1012.07	2715.61
1012.23	2678.74
1012.39	2688.98
1012.55	2684.89
1012.71	2738.13
1012.86	2631.64
1013.02	2701.27
1013.18	2699.22
1013.34	2568.15
1013.50	2736.09
1013.65	2797.53
1013.81	2492.38
1013.97	2611.16
1014.13	2674.65
1014.29	2674.65
1014.44	2688.98
1014.60	2611.16
1014.76	2592.73
1014.92	2658.26
1015.07	2666.46
1015.23	2705.37
1015.39	2506.71
1015.55	2586.58
1015.71	2625.50
1015.86	2484.19
1016.02	2602.97
1016.18	2471.90
1016.34	2500.57
1016.49	2564.06
1016.65	2650.07
1016.81	2576.34
1016.97	2566.10
1017.12	2596.82
1017.28	2498.52
1017.44	2514.91
1017.60	2564.06
1017.75	2463.71
1017.91	2484.19
1018.07	2508.76
1018.23	2457.56
1018.38	2494.43
1018.54	2426.84
1018.70	2478.04
1018.86	2392.03
1019.01	2416.60
1019.17	2453.47
1019.33	2576.34
1019.49	2422.75
1019.64	2475.99
1019.80	2420.70
1019.96	2443.23
1020.12	2432.99
1020.27	2306.01
1020.43	2527.19
1020.59	2379.74
1020.74	2375.64
1020.90	2437.08
1021.06	2344.92
1021.22	2392.03
1021.37	2396.12
1021.53	2342.88
1021.69	2346.97
1021.84	2365.40
1022.00	2387.93
1022.16	2342.88
1022.31	2383.84
1022.47	2426.84
1022.63	2318.30
1022.79	2263.01
1022.94	2271.20
1023.10	2422.75
1023.26	2346.97
1023.41	2314.20
1023.57	2336.73
1023.73	2273.25
1023.88	2316.25
1024.04	2279.39
1024.20	2260.96
1024.35	2267.10
1024.51	2258.91
1024.67	2310.11
1024.82	2320.35
1024.98	2146.27
1025.14	2273.25
1025.29	2252.77
1025.45	2308.06
1025.61	2131.94
1025.76	2179.04
1025.92	2199.52
1026.08	2271.20
1026.23	2242.53
1026.39	2220.00
1026.55	2174.94
1026.70	2209.76
1026.86	2236.38
1027.02	2265.05
1027.17	2125.79
1027.33	2199.52
1027.48	2172.89
1027.64	2215.90
1027.80	2152.42
1027.95	2103.26
1028.11	2101.22
1028.27	2172.89
1028.42	2256.86
1028.58	2183.13
1028.73	2103.26
1028.89	2054.11
1029.05	2179.04
1029.20	2148.32
>>>>>End Processed Spectral Data<<<<<
