SpectraSuite Data File
++++++++++++++++++++++++++++++++++++
Date: Fri Jun 02 14:41:54 CEST 2017
User: INFO_000
Dark Spectrum Present: No
Reference Spectrum Present: No
Number of Sampled Component Spectra: 1
Spectrometers: USB4H00879
Integration Time (usec): 80000 (USB4H00879)
Spectra Averaged: 1 (USB4H00879)
Boxcar Smoothing: 0 (USB4H00879)
Correct for Electrical Dark: No (USB4H00879)
Strobe/Lamp Enabled: No (USB4H00879)
Correct for Detector Non-linearity: No (USB4H00879)
Correct for Stray Light: No (USB4H00879)
Number of Pixels in Processed Spectrum: 3648
>>>>>Begin Processed Spectral Data<<<<<
345.13	1228.78
345.34	1228.78
345.56	1228.78
345.78	1265.64
345.99	1212.40
346.21	1691.62
346.42	1697.77
346.64	1716.20
346.86	1716.20
347.07	1619.94
347.29	1701.86
347.50	1642.47
347.72	1570.79
347.94	1728.49
348.15	1603.56
348.37	1568.74
348.59	1669.09
348.80	1662.95
349.02	1771.49
349.23	1849.32
349.45	1843.17
349.67	1966.05
349.88	1783.78
350.10	1992.67
350.31	1767.40
350.53	1798.12
350.75	2004.96
350.96	1800.16
351.18	1767.40
351.39	1861.60
351.61	1804.26
351.82	1902.56
352.04	1931.23
352.26	1798.12
352.47	1955.81
352.69	1880.04
352.90	1734.63
353.12	1843.17
353.34	1865.70
353.55	2009.06
353.77	1849.32
353.98	1841.12
354.20	1871.84
354.41	1904.61
354.63	1941.47
354.85	2017.25
355.06	1951.71
355.28	1855.46
355.49	1869.80
355.71	1867.75
355.92	1814.50
356.14	1890.28
356.35	1822.69
356.57	1810.40
356.79	1939.43
357.00	1798.12
357.22	2058.21
357.43	1816.55
357.65	1951.71
357.86	1845.22
358.08	1918.95
358.29	1933.28
358.51	1888.23
358.72	1994.72
358.94	1961.95
359.16	1931.23
359.37	1964.00
359.59	1982.43
359.80	1957.86
360.02	1996.77
360.23	1918.95
360.45	2035.68
360.66	1920.99
360.88	1904.61
361.09	1912.80
361.31	1998.82
361.52	1951.71
361.74	2103.26
361.95	2023.39
362.17	1970.15
362.38	2109.41
362.60	2060.26
362.81	1996.77
363.03	1943.52
363.24	2045.92
363.46	1970.15
363.67	1986.53
363.89	2019.30
364.10	2000.87
364.32	1927.14
364.53	2056.16
364.75	1941.47
364.96	2002.91
365.18	1939.43
365.39	2052.06
365.61	1943.52
365.82	2117.60
366.04	2011.11
366.25	1939.43
366.47	2058.21
366.68	2039.78
366.90	1970.15
367.11	2064.35
367.33	2095.07
367.54	2052.06
367.76	2074.59
367.97	2101.22
368.19	1978.34
368.40	2103.26
368.62	2007.01
368.83	2011.11
369.05	2097.12
369.26	1886.18
369.48	2125.79
369.69	2007.01
369.91	2107.36
370.12	2031.58
370.33	2154.46
370.55	1996.77
370.76	2035.68
370.98	2181.09
371.19	2084.83
371.41	1966.05
371.62	2107.36
371.84	2015.20
372.05	2164.70
372.27	2050.02
372.48	2082.78
372.69	2109.41
372.91	2084.83
373.12	2195.42
373.34	2115.55
373.55	2234.33
373.77	2174.94
373.98	2131.94
374.20	2174.94
374.41	2283.49
374.62	2146.27
374.84	2234.33
375.05	2162.66
375.27	2207.71
375.48	2205.66
375.70	2168.80
375.91	2275.29
376.12	2406.36
376.34	2172.89
376.55	2168.80
376.77	2260.96
376.98	2133.98
377.19	2154.46
377.41	2176.99
377.62	2232.29
377.84	2238.43
378.05	2394.08
378.27	2203.61
378.48	2355.16
378.69	2355.16
378.91	2277.34
379.12	2222.05
379.34	2258.91
379.55	2322.40
379.76	2293.72
379.98	2170.85
380.19	2283.49
380.41	2303.96
380.62	2248.67
380.83	2281.44
381.05	2224.09
381.26	2404.32
381.47	2312.16
381.69	2289.63
381.90	2441.18
382.12	2324.44
382.33	2357.21
382.54	2256.86
382.76	2365.40
382.97	2387.93
383.19	2334.68
383.40	2404.32
383.61	2306.01
383.83	2361.31
384.04	2359.26
384.25	2381.79
384.47	2398.17
384.68	2342.88
384.89	2355.16
385.11	2361.31
385.32	2293.72
385.54	2346.97
385.75	2338.78
385.96	2322.40
386.18	2441.18
386.39	2512.86
386.60	2381.79
386.82	2475.99
387.03	2447.32
387.24	2607.06
387.46	2475.99
387.67	2555.86
387.88	2570.20
388.10	2498.52
388.31	2500.57
388.52	2549.72
388.74	2580.44
388.95	2484.19
389.16	2490.33
389.38	2486.23
389.59	2613.21
389.80	2559.96
390.02	2566.10
390.23	2682.84
390.44	2617.30
390.66	2660.31
390.87	2402.27
391.08	2648.02
391.30	2705.37
391.51	2580.44
391.72	2654.17
391.94	2693.08
392.15	2639.83
392.36	2580.44
392.58	2580.44
392.79	2758.61
393.00	2748.37
393.22	2709.46
393.43	2824.15
393.64	2852.82
393.85	2822.10
394.07	2789.33
394.28	2854.87
394.49	2801.62
394.71	2787.29
394.92	2877.40
395.13	2762.71
395.35	2801.62
395.56	2693.08
395.77	2838.48
395.98	2799.57
396.20	2953.17
396.41	2924.50
396.62	2918.36
396.84	2867.16
397.05	2834.39
397.26	2891.73
397.47	3057.62
397.69	2959.31
397.90	3024.85
398.11	2883.54
398.32	2920.40
398.54	3051.47
398.75	2924.50
398.96	3000.27
399.18	3026.90
399.39	2916.31
399.60	2951.12
399.81	2955.22
400.03	2983.89
400.24	3268.56
400.45	3059.67
400.66	3035.09
400.88	3030.99
401.09	3252.17
401.30	3119.06
401.51	3282.89
401.73	3155.92
401.94	3160.02
402.15	3252.17
402.36	3162.06
402.58	3174.35
402.79	3246.03
403.00	3258.32
403.21	3313.61
403.43	3293.13
403.64	3299.28
403.85	3102.67
404.06	3330.00
404.27	3219.41
404.49	3299.28
404.70	3209.17
404.91	3426.25
405.12	3364.81
405.34	3370.96
405.55	3454.92
405.76	3168.21
405.97	3276.75
406.19	3360.72
406.40	3323.85
406.61	3506.12
406.82	3426.25
407.03	3368.91
407.25	3301.33
407.46	3508.17
407.67	3518.41
407.88	3526.60
408.09	3373.00
408.31	3475.40
408.52	3350.48
408.73	3346.38
408.94	3469.26
409.15	3434.44
409.37	3583.95
409.58	3477.45
409.79	3547.08
410.00	3598.28
410.21	3479.50
410.43	3565.51
410.64	3598.28
410.85	3573.71
411.06	3575.75
411.27	3604.42
411.48	3641.29
411.70	3600.33
411.91	3631.05
412.12	3780.55
412.33	3655.62
412.54	3612.62
412.76	3760.07
412.97	3762.12
413.18	3581.90
413.39	3747.78
413.60	3815.37
413.81	3798.98
414.03	3790.79
414.24	3710.92
414.45	3788.74
414.66	3590.09
414.87	3850.18
415.08	3815.37
415.30	3829.70
415.51	3856.33
415.72	3831.75
415.93	3887.04
416.14	3917.76
416.35	3817.41
416.56	3905.48
416.78	3942.34
416.99	4014.02
417.20	3956.68
417.41	3936.20
417.62	4040.64
417.83	4124.61
418.04	3979.20
418.26	3999.68
418.47	3917.76
418.68	4067.27
418.89	3944.39
419.10	4179.90
419.31	4067.27
419.52	4143.04
419.73	4038.59
419.95	4284.35
420.16	4073.41
420.37	4143.04
420.58	4179.90
420.79	3942.34
421.00	4061.12
421.21	4177.86
421.42	4179.90
421.63	4190.14
421.85	4319.17
422.06	4349.89
422.27	4325.31
422.48	4265.92
422.69	4433.85
422.90	4292.54
423.11	4450.24
423.32	4310.97
423.53	4507.58
423.75	4437.95
423.96	4509.63
424.17	4483.00
424.38	4685.75
424.59	4648.89
424.80	4638.65
425.01	4607.93
425.22	4523.96
425.43	4446.14
425.64	4786.10
425.85	4876.21
426.06	4747.19
426.28	4632.51
426.49	4614.07
426.70	4722.62
426.91	4650.94
427.12	4683.70
427.33	4857.78
427.54	4771.77
427.75	4808.63
427.96	4902.84
428.17	4911.03
428.38	4982.71
428.59	4984.76
428.80	4968.37
429.01	5001.14
429.23	4966.32
429.44	5238.70
429.65	5099.44
429.86	5148.59
430.07	5009.33
430.28	5046.20
430.49	5152.69
430.70	5238.70
430.91	5160.88
431.12	5173.17
431.33	5326.77
431.54	5263.28
431.75	5300.14
431.96	5250.99
432.17	5314.48
432.38	5115.83
432.59	5517.23
432.80	5361.58
433.01	5506.99
433.22	5486.51
433.43	5316.53
433.64	5396.40
433.85	5472.17
434.06	5531.56
434.27	5388.21
434.49	5445.55
434.70	5685.16
434.91	5636.01
435.12	5619.63
435.33	5453.74
435.54	5699.50
435.75	5457.84
435.96	5777.32
436.17	5556.14
436.38	5765.03
436.59	5748.65
436.80	5662.63
437.01	6037.41
437.22	5877.67
437.43	5801.90
437.64	5574.57
437.85	5894.05
438.06	6084.52
438.27	5984.16
438.48	5875.62
438.69	5943.21
438.90	5957.54
439.11	5896.10
439.32	6104.99
439.53	6061.99
439.74	6154.15
439.95	6104.99
440.16	5953.45
440.37	6113.19
440.57	6197.15
440.78	6018.98
440.99	6084.52
441.20	6127.52
441.41	5994.40
441.62	6174.63
441.83	5994.40
442.04	6180.77
442.25	6219.68
442.46	6272.93
442.67	6352.80
442.88	6801.30
443.09	6031.27
443.30	6365.09
443.51	6401.95
443.72	6512.54
443.93	6299.55
444.14	6496.16
444.35	6395.81
444.56	6541.21
444.77	6418.33
444.98	6547.36
445.19	6717.34
445.40	6655.90
445.61	6610.84
445.81	6737.82
446.02	6639.51
446.23	6608.80
446.44	6594.46
446.65	6655.90
446.86	6762.39
447.07	6754.20
447.28	6866.84
447.49	6922.13
447.70	6746.01
447.91	6936.47
448.12	6905.75
448.33	6885.27
448.54	6946.71
448.74	6752.15
448.95	7022.48
449.16	6899.61
449.37	7309.20
449.58	7057.30
449.79	7212.95
450.00	7034.77
450.21	7096.21
450.42	7147.41
450.63	7233.43
450.84	7376.78
451.05	7339.92
451.25	7243.67
451.46	7069.59
451.67	7464.85
451.88	7477.13
452.09	7364.50
452.30	7376.78
452.51	7569.29
452.72	7636.88
452.93	7714.70
453.13	7464.85
453.34	7579.53
453.55	7516.05
453.76	7565.20
453.97	7925.64
454.18	7688.07
454.39	7729.03
454.60	7647.12
454.81	7858.06
455.01	8146.82
455.22	7616.40
455.43	7872.39
455.64	7935.88
455.85	8208.26
456.06	8345.47
456.27	7962.50
456.48	8032.13
456.68	8052.61
456.89	8333.18
457.10	8140.68
457.31	8253.31
457.52	8277.89
457.73	8355.71
457.94	8533.89
458.14	8322.94
458.35	8660.86
458.56	8497.02
458.77	8474.49
458.98	8695.68
459.19	8658.81
459.39	8660.86
459.60	8740.73
459.81	8689.53
460.02	8712.06
460.23	8728.44
460.44	9135.99
460.65	8988.53
460.85	9095.03
461.06	8912.76
461.27	8767.35
461.48	9191.28
461.69	9566.06
461.89	8982.39
462.10	9138.04
462.31	9086.84
462.52	9400.18
462.73	9291.63
462.94	9613.17
463.14	9594.73
463.35	9514.86
463.56	9748.33
463.77	9715.56
463.98	9609.07
464.18	9670.51
464.39	9723.76
464.60	9940.84
464.81	10047.33
465.02	9936.74
465.23	10178.40
465.43	9975.66
465.64	10268.52
465.85	10051.43
466.06	10205.03
466.27	10438.50
466.47	10284.90
466.68	10532.70
466.89	10397.54
467.10	10575.71
467.30	10112.87
467.51	10559.33
467.72	10868.57
467.93	10628.96
468.14	10796.89
468.34	10930.01
468.55	10753.88
468.76	10989.40
468.97	10690.40
469.17	11061.08
469.38	11104.09
469.59	11372.37
469.80	11093.85
470.01	11149.14
470.21	11396.95
470.42	11480.91
470.63	11413.33
470.84	11341.65
471.04	11962.19
471.25	11824.97
471.46	11683.66
471.67	12091.21
471.87	11798.35
472.08	12068.68
472.29	12232.52
472.50	12066.63
472.70	12054.34
472.91	12097.35
473.12	12476.23
473.33	12515.14
473.53	12695.36
473.74	12508.99
473.95	12779.32
474.16	12607.30
474.36	12756.80
474.57	13147.96
474.78	13262.65
474.99	13137.72
475.19	13029.18
475.40	13514.55
475.61	13315.89
475.81	13641.52
476.02	13625.14
476.23	13547.31
476.44	13803.31
476.64	13938.48
476.85	14077.74
477.06	13864.75
477.27	14167.85
477.47	14427.94
477.68	13993.77
477.89	14544.67
478.09	14552.87
478.30	14509.86
478.51	14599.97
478.71	14728.99
478.92	14917.40
479.13	14982.94
479.34	15101.72
479.54	14997.28
479.75	14960.41
479.96	15370.01
480.16	15341.33
480.37	15421.20
480.58	15558.42
480.78	15843.09
480.99	15795.98
481.20	15716.11
481.41	15994.64
481.61	16324.36
481.82	16047.88
482.03	16142.09
482.23	16291.59
482.44	16572.16
482.65	16832.26
482.85	16711.42
483.06	16905.98
483.27	16871.17
483.47	16619.27
483.68	17069.82
483.89	17084.16
484.09	17344.25
484.30	17352.44
484.51	17653.49
484.71	17618.68
484.92	17798.90
485.13	17772.27
485.33	17714.93
485.54	17571.57
485.75	18110.19
485.95	18102.00
486.16	18192.11
486.37	18198.25
486.57	18214.63
486.78	18267.88
486.98	18519.78
487.19	18882.27
487.40	18841.31
487.60	18824.93
487.81	18966.24
488.02	18910.94
488.22	18654.95
488.43	19338.97
488.64	19189.47
488.84	19406.55
489.05	19547.86
489.25	19474.13
489.46	19865.30
489.67	19822.29
489.87	20037.33
490.08	20156.11
490.29	20176.59
490.49	20444.87
490.70	20344.52
490.90	20121.29
491.11	20379.34
491.32	20645.57
491.52	20672.20
491.73	20647.62
491.94	20739.78
492.14	20831.94
492.35	21051.07
492.55	20887.23
492.76	21163.71
492.97	21483.19
493.17	21374.65
493.38	21511.86
493.58	21755.57
493.79	21644.98
494.00	21532.34
494.20	21708.47
494.41	21917.36
494.61	22159.02
494.82	21962.42
495.02	22292.14
495.23	21956.27
495.44	22339.24
495.64	22337.20
495.85	22335.15
496.05	22470.31
496.26	22386.35
496.47	22912.67
496.67	22433.45
496.88	23021.22
497.08	22711.97
497.29	22816.42
497.49	22894.24
497.70	23260.83
497.91	23299.74
498.11	23449.24
498.32	23525.02
498.52	23463.58
498.73	23873.17
498.93	23639.70
499.14	24020.63
499.34	23973.52
499.55	23930.51
499.76	23606.94
499.96	24024.72
500.17	24168.08
500.37	24358.54
500.58	24258.19
500.78	24385.16
500.99	24448.65
501.19	24520.33
501.40	24848.00
501.60	24549.00
501.81	24764.04
502.02	24721.03
502.22	24817.29
502.43	24884.87
502.63	25108.10
502.84	25140.86
503.04	25030.27
503.25	25040.51
503.45	25398.91
503.66	25775.73
503.86	25388.67
504.07	25650.81
504.27	25857.65
504.48	25667.19
504.68	25605.75
504.89	26170.99
505.09	25867.89
505.30	26109.55
505.50	25947.76
505.71	26226.29
505.91	26275.44
506.12	26001.01
506.32	26138.23
506.53	26216.05
506.73	26332.78
506.94	26297.97
507.14	26455.66
507.35	26494.57
507.55	26625.64
507.76	26756.71
507.96	26809.96
508.17	26670.70
508.37	26879.59
508.58	26908.26
508.78	27039.33
508.99	27344.48
509.19	27176.55
509.40	27344.48
509.60	27305.57
509.81	27516.51
510.01	27254.37
510.22	27635.29
510.42	27049.57
510.63	27543.13
510.83	27620.95
511.04	27450.97
511.24	27522.65
511.44	27635.29
511.65	27772.50
511.85	27649.63
512.06	27874.90
512.26	28001.88
512.47	28026.45
512.67	28026.45
512.88	28268.11
513.08	28218.96
513.29	28397.13
513.49	28483.15
513.69	28227.15
513.90	28290.64
514.10	28558.92
514.31	28497.49
514.51	28798.54
514.72	28495.44
514.92	28687.95
515.13	28819.02
515.33	28837.45
515.53	28749.39
515.74	28935.75
515.94	29191.75
516.15	29083.20
516.35	28628.56
516.56	29445.69
516.76	28831.30
516.96	28751.43
517.17	29589.05
517.37	29537.85
517.58	29462.08
517.78	29652.54
517.99	29523.52
518.19	29625.92
518.39	29587.00
518.60	30004.79
518.80	29761.08
519.01	30113.33
519.21	29775.42
519.41	29834.81
519.62	29996.60
519.82	30260.79
520.03	30330.42
520.23	30258.74
520.43	30176.82
520.64	30373.42
520.84	30512.69
521.05	30457.39
521.25	31008.29
521.45	30836.27
521.66	31209.00
521.86	30885.42
522.07	31088.17
522.27	30762.54
522.47	31407.65
522.68	31536.67
522.88	31413.79
523.08	31604.25
523.29	31532.57
523.49	31688.22
523.70	31634.97
523.90	31708.70
524.10	31481.38
524.31	32011.80
524.51	31364.64
524.71	32120.34
524.92	31999.51
525.12	32429.59
525.33	32353.81
525.53	32257.56
525.73	32661.01
525.94	32247.32
526.14	32349.71
526.34	32859.66
526.55	32849.42
526.75	33035.78
526.95	33064.46
527.16	32722.44
527.36	33037.83
527.56	33048.07
527.77	33684.99
527.97	33496.58
528.17	33400.32
528.38	33607.17
528.58	33377.79
528.78	33558.02
528.99	33938.94
529.19	34018.81
529.39	33699.33
529.60	34332.15
529.80	33951.23
530.00	34186.74
530.21	34297.33
530.41	34369.01
530.61	34254.33
530.82	34803.18
531.02	34735.60
531.22	34696.69
531.43	34833.90
531.63	34962.92
531.83	35202.53
532.04	35448.29
532.24	35010.03
532.44	35626.46
532.64	35689.95
532.85	35874.27
533.05	35661.28
533.25	35861.98
533.46	35380.71
533.66	36187.61
533.86	35968.48
534.07	36453.84
534.27	36240.86
534.47	36363.73
534.67	36507.09
534.88	36163.03
535.08	36230.62
535.28	37121.48
535.49	36896.20
535.69	37367.24
535.89	37000.65
536.09	37144.01
536.30	37082.57
536.50	37254.60
536.70	37377.48
536.91	37211.59
537.11	37703.10
537.31	37737.92
537.51	37926.33
537.72	37862.85
537.92	37733.82
538.12	38286.78
538.32	37868.99
538.53	38155.71
538.73	38092.22
538.93	38041.02
539.13	38258.10
539.34	38452.66
539.54	38149.56
539.74	38624.69
539.94	38487.48
540.15	38559.16
540.35	39349.67
540.55	38962.61
540.75	38774.19
540.96	39179.69
541.16	39394.73
541.36	39253.42
541.56	39224.75
541.77	39400.87
541.97	39321.00
542.17	39906.72
542.37	39288.23
542.58	39425.45
542.78	39900.58
542.98	40019.36
543.18	40000.93
543.38	40154.52
543.59	40138.14
543.79	39982.49
543.99	40005.02
544.19	40410.52
544.40	40506.77
544.60	40709.52
544.80	40478.10
545.00	40523.16
545.20	40816.02
545.41	40529.30
545.61	40545.69
545.81	40861.07
546.01	41012.62
546.21	40953.23
546.42	41026.96
546.62	40842.64
546.82	40809.87
547.02	40748.43
547.22	41481.61
547.43	41262.47
547.63	41504.13
547.83	41555.33
548.03	41551.24
548.23	42077.57
548.44	41827.71
548.64	41489.80
548.84	41911.68
549.04	41833.86
549.24	42012.03
549.45	42282.36
549.65	41893.25
549.85	41772.42
550.05	42280.31
550.25	42048.89
550.45	42560.89
550.66	42308.99
550.86	42198.40
551.06	42591.61
551.26	42653.05
551.46	42474.87
551.66	43091.31
551.87	42593.65
552.07	42923.38
552.27	42610.04
552.47	43152.75
552.67	43265.39
552.87	42943.86
553.07	42968.43
553.28	43187.56
553.48	43226.48
553.68	42665.33
553.88	43556.20
554.08	43189.61
554.28	42980.72
554.48	43332.97
554.69	43517.29
554.89	42767.73
555.09	43578.73
555.29	43482.47
555.49	43378.03
555.69	43461.99
555.89	43468.14
556.10	43822.44
556.30	43681.13
556.50	44107.10
556.70	43474.28
556.90	44021.09
557.10	43980.13
557.30	43689.32
557.50	44213.60
557.70	43963.75
557.91	44371.29
558.11	44262.75
558.31	44395.87
558.51	44346.72
558.71	44203.36
558.91	44201.31
559.11	44455.26
559.31	44383.58
559.51	44574.04
559.72	44451.16
559.92	44864.85
560.12	44547.42
560.32	44741.97
560.52	44502.36
560.72	44617.05
560.92	44971.35
561.12	44627.29
561.32	44676.44
561.52	44715.35
561.72	45145.42
561.93	44692.82
562.13	44920.15
562.33	44733.78
562.53	45727.05
562.73	45020.50
562.93	44766.55
563.13	44932.43
563.33	45077.84
563.53	45434.19
563.73	45067.60
563.93	45425.99
564.13	45659.46
564.33	45575.50
564.53	45368.65
564.74	45610.31
564.94	45176.14
565.14	45466.95
565.34	45583.69
565.54	45499.72
565.74	45528.39
565.94	45835.59
566.14	45833.54
566.34	45866.31
566.54	45972.80
566.74	45860.16
566.94	46097.73
567.14	46077.25
567.34	45886.79
567.54	46003.52
567.74	45942.08
567.94	45829.44
568.14	45477.19
568.34	46597.43
568.54	45763.91
568.74	46251.33
568.94	46054.72
569.14	46648.63
569.34	46230.85
569.54	46847.29
569.75	46081.34
569.95	46191.94
570.15	46982.45
570.35	47148.34
570.55	46343.48
570.75	46628.15
570.95	46820.66
571.15	46605.62
571.35	47004.98
571.55	46990.64
571.75	47019.31
571.95	46945.59
572.15	46748.98
572.35	47002.93
572.55	47187.25
572.75	47256.88
572.95	47148.34
573.15	47404.33
573.35	47375.66
573.55	47174.96
573.75	46935.35
573.95	47187.25
574.15	46921.01
574.35	47836.45
574.55	47373.61
574.75	47271.21
574.95	47430.96
575.15	47449.39
575.34	47891.75
575.54	47897.89
575.74	47789.35
575.94	47738.15
576.14	47588.65
576.34	48250.14
576.54	48135.46
576.74	47772.97
576.94	48100.64
577.14	48164.13
577.34	48237.86
577.54	48198.94
577.74	48557.34
577.94	48684.31
578.14	48680.22
578.34	48571.67
578.54	48194.85
578.74	48303.39
578.94	48491.80
579.14	48280.86
579.34	48764.18
579.54	48801.05
579.74	49165.59
579.94	49014.04
580.13	49093.91
580.33	48915.73
580.53	48567.58
580.73	49141.01
580.93	49278.22
581.13	48981.27
581.33	49859.85
581.53	49610.00
581.73	49444.11
581.93	49878.28
582.13	49356.05
582.33	49548.56
582.53	49566.99
582.73	49718.54
582.92	49505.55
583.12	49657.10
583.32	49521.93
583.52	49460.49
583.72	50017.54
583.92	49575.18
584.12	49775.88
584.32	50435.33
584.52	50265.34
584.72	50074.88
584.92	50132.23
585.11	50801.91
585.31	50533.63
585.51	50773.24
585.71	50320.64
585.91	50869.50
586.11	50500.86
586.31	50560.25
586.51	50328.83
586.71	50607.36
586.91	50984.18
587.10	50922.74
587.30	50713.85
587.50	50384.13
587.70	51176.69
587.90	50722.04
588.10	50978.04
588.30	50693.37
588.50	50963.70
588.69	51227.89
588.89	51234.03
589.09	51004.66
589.29	51174.64
589.49	51758.31
589.69	51078.39
589.89	51428.59
590.08	51504.37
590.28	51109.11
590.48	51023.09
590.68	51617.00
590.88	51868.90
591.08	51907.82
591.28	51440.88
591.47	52149.48
591.67	52032.74
591.87	52085.99
592.07	51799.27
592.27	51682.54
592.47	52172.00
592.67	51901.67
592.86	51617.00
593.06	51778.79
593.26	52309.22
593.46	52468.96
593.66	52401.38
593.86	52397.28
594.05	52395.23
594.25	52581.60
594.45	52204.77
594.65	52098.28
594.85	51803.37
595.05	52823.26
595.24	52894.94
595.44	52462.82
595.64	52479.20
595.84	52952.28
596.04	52626.65
596.23	52952.28
596.43	52862.17
596.63	52909.27
596.83	53013.72
597.03	53269.72
597.22	53710.03
597.42	52843.74
597.62	53660.88
597.82	53642.45
598.02	53368.02
598.21	53781.71
598.41	53091.54
598.61	53556.43
598.81	53380.31
599.01	53787.85
599.20	53449.94
599.40	53763.28
599.60	53951.69
599.80	53839.05
600.00	54103.24
600.19	54172.87
600.39	54133.96
600.59	54367.43
600.79	54201.54
600.98	54504.64
601.18	54142.15
601.38	54269.12
601.58	54195.40
601.78	54447.30
601.97	54566.08
602.17	54836.41
602.37	54123.72
602.57	54508.74
602.76	54457.54
602.96	54363.33
603.16	54725.82
603.36	54744.25
603.55	55284.92
603.75	54895.80
603.95	54957.24
604.15	55243.96
604.34	54717.63
604.54	55100.60
604.74	55289.01
604.94	55489.71
605.13	55407.79
605.33	55368.88
605.53	55174.33
605.73	55590.06
605.92	55309.49
606.12	55157.94
606.32	55612.59
606.52	55737.52
606.71	55542.96
606.91	55952.55
607.11	55778.48
607.30	55784.62
607.50	56083.62
607.70	56077.48
607.90	55637.17
608.09	55596.21
608.29	55682.22
608.49	56013.99
608.68	56245.41
608.88	56065.19
609.08	55964.84
609.28	56407.20
609.47	56460.45
609.67	56747.17
609.87	56282.28
610.06	55932.07
610.26	56376.48
610.46	56689.82
610.66	56407.20
610.85	56425.64
611.05	56226.98
611.25	56612.00
611.44	56419.49
611.64	56444.07
611.84	56341.67
612.03	56212.65
612.23	56566.94
612.43	56521.89
612.62	56442.02
612.82	56804.51
613.02	56534.18
613.21	56757.41
613.41	56693.92
613.61	56857.76
613.80	56466.59
614.00	56665.25
614.20	56661.15
614.39	56581.28
614.59	57226.39
614.79	57185.43
614.98	56734.88
615.18	56999.07
615.38	57087.13
615.57	56589.47
615.77	57466.00
615.97	57013.40
616.16	57154.71
616.36	56734.88
616.56	57062.55
616.75	56794.27
616.95	56890.52
617.15	56954.01
617.34	56671.39
617.54	56528.03
617.74	57298.07
617.93	57250.97
618.13	56736.93
618.32	56878.24
618.52	56714.40
618.72	56861.85
618.91	56868.00
619.11	56972.44
619.31	56808.61
619.50	56501.41
619.70	56487.07
619.90	56685.73
620.09	56927.39
620.29	57105.56
620.48	56480.93
620.68	57283.73
620.88	56431.78
621.07	56792.22
621.27	56777.89
621.46	56466.59
621.66	56994.97
621.86	56693.92
622.05	56638.62
622.25	57341.08
622.44	56341.67
622.64	56229.03
622.84	56808.61
623.03	56581.28
623.23	56814.75
623.42	56562.85
623.62	57148.57
623.82	56911.00
624.01	56990.87
624.21	56804.51
624.40	57205.91
624.60	57203.86
624.80	56964.25
624.99	56704.16
625.19	56503.46
625.38	56734.88
625.58	57009.31
625.77	57384.08
625.97	57095.32
626.17	56714.40
626.36	56657.06
626.56	57212.06
626.75	56143.02
626.95	56808.61
627.14	56945.82
627.34	57218.20
627.54	56620.19
627.73	56870.04
627.93	56870.04
628.12	56951.96
628.32	56827.04
628.51	56964.25
628.71	56566.94
628.90	57062.55
629.10	56925.34
629.30	56714.40
629.49	57128.09
629.69	56947.87
629.88	56587.42
630.08	57035.93
630.27	56755.36
630.47	56999.07
630.66	56487.07
630.86	57232.53
631.05	56353.96
631.25	57613.46
631.44	57009.31
631.64	56716.45
631.84	57367.70
632.03	57283.73
632.23	56753.31
632.42	57484.43
632.62	56958.11
632.81	57132.18
633.01	57222.29
633.20	57611.41
633.40	57697.42
633.59	57017.50
633.79	56929.44
633.98	57070.75
634.18	57089.18
634.37	57291.93
634.57	56689.82
634.76	57390.23
634.96	57244.82
635.15	57326.74
635.35	56827.04
635.54	57435.28
635.74	57504.91
635.93	57033.88
636.13	57377.94
636.32	57242.77
636.52	57054.36
636.71	56947.87
636.91	57734.29
637.10	57455.76
637.30	57277.59
637.49	56642.72
637.69	57199.77
637.88	58111.11
638.08	57599.12
638.27	57701.52
638.46	57224.34
638.66	56956.06
638.85	57218.20
639.05	57760.91
639.24	57578.64
639.44	57379.99
639.63	57644.18
639.83	57695.38
640.02	57549.97
640.22	57240.73
640.41	57545.87
640.61	57078.94
640.80	57775.25
640.99	57742.48
641.19	58021.00
641.38	57584.79
641.58	57791.63
641.77	57302.17
641.97	57339.03
642.16	57783.44
642.36	58109.07
642.55	57795.73
642.74	57341.08
642.94	58143.88
643.13	57543.83
643.33	58176.65
643.52	57846.93
643.72	57867.40
643.91	57851.02
644.10	57676.94
644.30	57891.98
644.49	57902.22
644.69	58168.46
644.88	58164.36
645.08	57504.91
645.27	57595.03
645.46	57554.07
645.66	57928.84
645.85	57771.15
646.05	57791.63
646.24	58012.81
646.43	58332.29
646.63	58078.35
646.82	58193.03
647.02	58246.28
647.21	58303.62
647.40	58266.76
647.60	57894.03
647.79	58578.05
647.99	58446.98
648.18	57947.28
648.37	58877.05
648.57	58408.07
648.76	58088.59
648.96	58102.92
649.15	58582.15
649.34	58643.59
649.54	58672.26
649.73	58217.61
649.92	58733.70
650.12	58641.54
650.31	58848.38
650.51	58707.07
650.70	58637.44
650.89	58393.73
651.09	58918.01
651.28	59120.76
651.47	58668.16
651.67	58471.56
651.86	58911.87
652.06	58303.62
652.25	58782.85
652.44	58528.90
652.64	58696.83
652.83	58156.17
653.02	58420.36
653.22	58926.20
653.41	58285.19
653.60	58094.73
653.80	58350.73
653.99	58971.26
654.18	57891.98
654.38	58668.16
654.57	58670.21
654.76	58377.35
654.96	58365.06
655.15	58422.40
655.34	58584.19
655.54	58594.43
655.73	58266.76
655.92	58494.08
656.12	58643.59
656.31	58719.36
656.50	59214.97
656.70	58647.68
656.89	58717.31
657.08	59114.62
657.28	58958.97
657.47	58610.82
657.66	58711.17
657.86	58635.39
658.05	58883.20
658.24	59012.22
658.43	58252.42
658.63	58520.71
658.82	59145.34
659.01	58977.40
659.21	59155.58
659.40	58553.47
659.59	58776.70
659.79	59077.75
659.98	59081.85
660.17	58963.07
660.36	58352.77
660.56	58371.21
660.75	59030.65
660.94	59120.76
661.14	59415.67
661.33	58913.92
661.52	58862.72
661.71	59272.31
661.91	59102.33
662.10	58877.05
662.29	59300.98
662.49	58979.45
662.68	58623.11
662.87	59122.81
663.06	59171.96
663.26	59120.76
663.45	59083.90
663.64	58639.49
663.83	58891.39
664.03	59423.86
664.22	59239.54
664.41	59178.10
664.60	58821.76
664.80	59282.55
664.99	58725.50
665.18	58780.80
665.37	59151.48
665.57	59073.66
665.76	58655.87
665.95	59315.32
666.14	59096.19
666.34	58801.28
666.53	59034.75
666.72	58827.90
666.91	58582.15
667.11	58860.67
667.30	58991.74
667.49	59092.09
667.68	58971.26
667.87	58786.94
668.07	59309.18
668.26	58936.44
668.45	58950.78
668.64	59016.32
668.84	59405.43
669.03	59241.59
669.22	59176.06
669.41	58815.61
669.60	58598.53
669.80	58647.68
669.99	59360.37
670.18	59135.10
670.37	58944.64
670.57	58868.86
670.76	58979.45
670.95	59036.80
671.14	58750.08
671.33	58659.97
671.53	59427.96
671.72	59202.68
671.91	59020.41
672.10	59159.67
672.29	58659.97
672.48	58717.31
672.68	59053.18
672.87	58958.97
673.06	58819.71
673.25	58561.67
673.44	58893.44
673.64	58926.20
673.83	58940.54
674.02	58532.99
674.21	58528.90
674.40	59315.32
674.59	58307.72
674.79	58797.18
674.98	58506.37
675.17	58899.58
675.36	58569.86
675.55	59262.07
675.74	58524.80
675.94	58954.88
676.13	58866.81
676.32	58958.97
676.51	59432.05
676.70	59270.26
676.89	58541.19
677.08	58987.64
677.28	58483.84
677.47	58803.33
677.66	58653.82
677.85	58250.38
678.04	58645.63
678.23	58942.59
678.42	59161.72
678.62	58406.02
678.81	58948.73
679.00	58680.45
679.19	59102.33
679.38	58547.33
679.57	58958.97
679.76	58561.67
679.96	59192.44
680.15	58758.27
680.34	58985.60
680.53	58520.71
680.72	58889.34
680.91	58950.78
681.10	58967.16
681.29	58754.18
681.48	58346.63
681.68	58692.74
681.87	58770.56
682.06	58266.76
682.25	58365.06
682.44	58133.64
682.63	58737.79
682.82	58313.86
683.01	58455.17
683.20	57822.35
683.39	58623.11
683.59	58098.83
683.78	57881.74
683.97	57830.54
684.16	58233.99
684.35	57957.52
684.54	58344.58
684.73	57914.51
684.92	58363.01
685.11	57988.24
685.30	58037.39
685.49	58213.51
685.69	57728.14
685.88	58135.69
686.07	58070.15
686.26	58004.62
686.45	58068.11
686.64	58324.10
686.83	57957.52
687.02	58291.33
687.21	58143.88
687.40	57795.73
687.59	57904.27
687.78	57799.82
687.97	58336.39
688.16	57683.09
688.35	57742.48
688.54	58023.05
688.74	58481.80
688.93	57474.20
689.12	57756.81
689.31	57595.03
689.50	57842.83
689.69	57539.73
689.88	57152.66
690.07	57824.40
690.26	57711.76
690.45	57978.00
690.64	57615.50
690.83	57255.06
691.02	57111.70
691.21	57586.83
691.40	57347.22
691.59	57472.15
691.78	57275.54
691.97	57531.54
692.16	57099.42
692.35	57822.35
692.54	57365.65
692.73	57355.41
692.92	57310.36
693.11	57148.57
693.30	57443.48
693.49	57468.05
693.68	56935.58
693.87	57373.84
694.06	56847.52
694.25	56900.76
694.44	57339.03
694.63	56976.54
694.82	57517.20
695.01	57085.08
695.20	56874.14
695.39	56640.67
695.58	56865.95
695.77	56872.09
695.96	56845.47
696.15	56628.38
696.34	56788.13
696.53	56370.34
696.72	56698.01
696.91	56267.94
697.10	56992.92
697.29	56329.38
697.48	57236.63
697.67	56824.99
697.86	56339.62
698.05	56239.27
698.24	56865.95
698.43	56216.74
698.62	56628.38
698.81	56525.99
699.00	56714.40
699.19	56124.58
699.38	56210.60
699.57	55628.98
699.76	56714.40
699.95	56214.69
700.14	55813.29
700.32	56259.75
700.51	56415.40
700.70	56630.43
700.89	56374.44
701.08	56558.75
701.27	56022.19
701.46	56503.46
701.65	55522.48
701.84	56087.72
702.03	55624.88
702.22	55958.70
702.41	56130.73
702.60	55919.79
702.79	55620.78
702.98	55588.02
703.17	55653.55
703.35	55610.54
703.54	55551.15
703.73	56016.04
703.92	56034.47
704.11	55964.84
704.30	55440.56
704.49	55739.57
704.68	55567.54
704.87	56059.05
705.06	55762.09
705.25	55092.41
705.43	55131.32
705.62	55659.69
705.81	55203.00
706.00	55770.28
706.19	54967.48
706.38	55321.78
706.57	55467.19
706.76	55147.70
706.95	55571.63
707.14	55205.05
707.32	55008.44
707.51	55190.71
707.70	54781.12
707.89	54944.95
708.08	54729.92
708.27	54834.36
708.46	55315.64
708.65	55071.93
708.84	55080.12
709.02	55039.16
709.21	55162.04
709.40	54789.31
709.59	54959.29
709.78	54729.92
709.97	55006.39
710.16	54244.55
710.34	54533.31
710.53	54723.77
710.72	54590.66
710.91	54723.77
711.10	54248.64
711.29	54518.98
711.48	54500.54
711.66	54473.92
711.85	54287.56
712.04	54334.66
712.23	54363.33
712.42	54187.21
712.61	54045.90
712.80	54066.38
712.98	54170.82
713.17	54230.21
713.36	54267.08
713.55	54246.60
713.74	53963.98
713.93	53996.74
714.11	54191.30
714.30	53796.04
714.49	54150.34
714.68	54121.67
714.87	54041.80
715.06	53845.19
715.24	53777.61
715.43	53441.74
715.62	53642.45
715.81	53556.43
716.00	53851.34
716.18	53316.82
716.37	53152.98
716.56	53370.07
716.75	53941.45
716.94	53482.70
717.12	52972.76
717.31	53474.51
717.50	53472.46
717.69	53564.62
717.88	52866.27
718.06	53114.07
718.25	53451.98
718.44	52708.57
718.63	53114.07
718.82	53052.63
719.00	52647.13
719.19	52919.51
719.38	52747.48
719.57	52321.51
719.76	52305.12
719.94	52282.59
720.13	52270.31
720.32	52423.90
720.51	52544.73
720.69	52348.13
720.88	52421.86
721.07	52552.93
721.26	52040.93
721.44	52159.72
721.63	52217.06
721.82	52006.12
722.01	51952.87
722.20	52466.91
722.38	51680.49
722.57	51393.78
722.76	51973.35
722.95	51610.86
723.13	51555.57
723.32	51434.74
723.51	51356.91
723.70	51348.72
723.88	51150.07
724.07	51148.02
724.26	51053.81
724.44	50488.57
724.63	51508.46
724.82	51092.72
725.01	51236.08
725.19	50885.88
725.38	51016.95
725.57	50699.51
725.76	51365.10
725.94	50902.26
726.13	50584.83
726.32	50930.93
726.51	50570.49
726.69	51471.60
726.88	50920.70
727.07	50810.10
727.25	50689.27
727.44	51049.72
727.63	50689.27
727.82	50961.65
728.00	50965.75
728.19	50441.47
728.38	50965.75
728.56	50171.14
728.75	50990.33
728.94	50363.65
729.12	50806.01
729.31	50820.34
729.50	50631.93
729.69	50627.84
729.87	50517.25
730.06	50459.90
730.25	50517.25
730.43	50570.49
730.62	50255.11
730.81	50380.03
730.99	50754.81
731.18	50363.65
731.37	50429.18
731.55	50124.04
731.74	50803.96
731.93	50517.25
732.11	50898.17
732.30	50453.76
732.49	50347.26
732.67	50515.20
732.86	50255.11
733.05	50388.22
733.23	49638.67
733.42	50558.20
733.61	50650.36
733.79	50173.19
733.98	50300.16
734.17	50152.71
734.35	50294.02
734.54	50185.47
734.73	50586.88
734.91	50140.42
735.10	50197.76
735.29	50279.68
735.47	49814.79
735.66	50130.18
735.84	49808.65
736.03	49763.59
736.22	50126.08
736.40	49413.39
736.59	49726.73
736.78	50324.74
736.96	49849.61
737.15	50136.32
737.33	49661.19
737.52	49992.97
737.71	49759.50
737.89	49726.73
738.08	49581.32
738.27	49261.84
738.45	49835.27
738.64	50097.41
738.82	49569.04
739.01	49515.79
739.20	49429.77
739.38	49779.98
739.57	49818.89
739.75	49642.76
739.94	49388.81
740.13	49356.05
740.31	49276.18
740.50	49235.22
740.68	49061.14
740.87	49442.06
741.06	49302.80
741.24	49546.51
741.43	49114.39
741.61	49601.80
741.80	48870.68
741.99	49202.45
742.17	49069.33
742.36	49011.99
742.54	49098.00
742.73	49229.07
742.91	49247.50
743.10	48766.23
743.29	49476.88
743.47	49296.66
743.66	48911.64
743.84	49171.73
744.03	49304.85
744.21	48696.60
744.40	49190.16
744.59	48596.25
744.77	48719.13
744.96	48583.96
745.14	48534.81
745.33	48370.97
745.51	48796.95
745.70	48569.63
745.88	48020.77
746.07	48604.44
746.26	48321.82
746.44	48096.55
746.63	48252.19
746.81	48164.13
747.00	48024.87
747.18	48370.97
747.37	48356.64
747.55	48471.32
747.74	48389.41
747.92	47832.36
748.11	47955.24
748.29	48211.23
748.48	48092.45
748.66	48338.21
748.85	47895.85
749.03	48272.67
749.22	47875.37
749.41	47680.81
749.59	48129.31
749.78	47789.35
749.96	47187.25
750.15	47639.85
750.33	47820.07
750.52	47691.05
750.70	47682.86
750.89	47551.79
751.07	47451.44
751.26	47662.38
751.44	47473.96
751.63	47539.50
751.81	47504.68
752.00	47246.64
752.18	47340.85
752.37	47363.37
752.55	47039.79
752.74	47586.60
752.92	47392.04
753.10	46898.48
753.29	47105.33
753.47	46777.65
753.66	46583.10
753.84	47162.67
754.03	46830.90
754.21	46673.21
754.40	47265.07
754.58	47103.28
754.77	46880.05
754.95	46398.78
755.14	46646.58
755.32	46908.72
755.51	46349.63
755.69	46509.37
755.88	46671.16
756.06	46904.63
756.24	46433.60
756.43	46142.78
756.61	46697.78
756.80	46724.41
756.98	45665.61
757.17	45978.95
757.35	46316.86
757.54	46306.62
757.72	46546.23
757.90	45909.32
758.09	46402.88
758.27	45946.18
758.46	45677.90
758.64	46275.90
758.83	46343.48
759.01	46206.27
759.19	45743.43
759.38	45538.63
759.56	46232.89
759.75	46038.34
759.93	45720.90
760.12	45571.40
760.30	45645.13
760.48	45739.33
760.67	45274.45
760.85	45624.65
761.04	45815.11
761.22	45872.45
761.40	45350.22
761.59	45557.06
761.77	44827.99
761.96	45722.95
762.14	45251.92
762.32	45249.87
762.51	45403.47
762.69	44760.40
762.88	45245.77
763.06	45135.18
763.24	45249.87
763.43	45305.16
763.61	44608.86
763.80	44903.76
763.98	44617.05
764.16	44922.19
764.35	44914.00
764.53	44158.30
764.72	44338.52
764.90	44807.51
765.08	44619.10
765.27	44438.87
765.45	44506.46
765.63	43746.66
765.82	44291.42
766.00	44281.18
766.18	44209.50
766.37	44373.34
766.55	43992.42
766.74	44371.29
766.92	43717.99
767.10	44154.21
767.29	43908.45
767.47	43779.43
767.65	43842.92
767.84	44016.99
768.02	44070.24
768.20	43933.03
768.39	43853.15
768.57	44025.18
768.75	43554.15
768.94	43758.95
769.12	43566.44
769.30	43603.30
769.49	43521.38
769.67	43595.11
769.85	43091.31
770.04	43670.89
770.22	43033.97
770.40	43224.43
770.59	43507.05
770.77	43306.35
770.95	43128.17
771.14	42898.80
771.32	42794.36
771.50	42505.59
771.69	42804.59
771.87	43312.49
772.05	42593.65
772.24	42491.26
772.42	42929.52
772.60	42833.27
772.78	42450.30
772.97	42798.45
773.15	42898.80
773.33	42526.07
773.52	42671.48
773.70	42614.13
773.88	42689.91
774.07	42356.09
774.25	42775.92
774.43	42861.94
774.61	42427.77
774.80	42767.73
774.98	42507.64
775.16	42730.87
775.34	42607.99
775.53	42239.36
775.71	42653.05
775.89	42634.61
776.08	42536.31
776.26	42796.40
776.44	42710.39
776.62	42380.67
776.81	42644.85
776.99	42685.81
777.17	42222.97
777.35	42898.80
777.54	43119.98
777.72	42356.09
777.90	42528.12
778.08	43031.92
778.27	42771.83
778.45	43009.39
778.63	43076.97
778.81	42888.56
779.00	43320.68
779.18	42941.81
779.36	43152.75
779.54	43160.94
779.73	42896.75
779.91	43431.27
780.09	42726.77
780.27	43072.88
780.46	43505.00
780.64	43332.97
780.82	42780.02
781.00	42827.12
781.19	43447.66
781.37	43754.85
781.55	43500.90
781.73	43638.12
781.91	43642.21
782.10	43259.24
782.28	43142.51
782.46	43425.13
782.64	43578.73
782.82	43468.14
783.01	43728.23
783.19	43597.16
783.37	43431.27
783.55	43316.59
783.74	44076.38
783.92	43132.27
784.10	43943.27
784.28	43322.73
784.46	43292.01
784.64	43253.10
784.83	43810.15
785.01	43365.74
785.19	43203.95
785.37	43658.60
785.55	43713.89
785.74	42825.07
785.92	43588.97
786.10	43195.76
786.28	43406.70
786.46	43392.36
786.64	43062.64
786.83	43021.68
787.01	43500.90
787.19	43042.16
787.37	43208.04
787.55	42780.02
787.74	42833.27
787.92	42687.86
788.10	42851.70
788.28	42384.76
788.46	42601.85
788.64	42507.64
788.82	43283.82
789.01	42761.59
789.19	42728.82
789.37	42354.04
789.55	42753.40
789.73	42302.84
789.91	42368.38
790.09	42245.50
790.28	42263.93
790.46	41612.68
790.64	42175.87
790.82	42130.81
791.00	42108.29
791.18	41792.90
791.36	41860.48
791.55	41864.58
791.73	41760.13
791.91	41444.74
792.09	41735.56
792.27	41297.29
792.45	41678.21
792.63	41655.68
792.81	41414.02
793.00	41262.47
793.18	41155.98
793.36	41444.74
793.54	41393.54
793.72	41180.56
793.90	41049.49
794.08	41004.43
794.26	41080.21
794.44	40600.98
794.62	40129.95
794.81	40492.44
794.99	40177.05
795.17	40338.84
795.35	40250.78
795.53	40281.50
795.71	40117.66
795.89	40152.48
796.07	39400.87
796.25	40029.60
796.43	39669.15
796.61	39300.52
796.80	39421.35
796.98	39577.00
797.16	39206.31
797.34	39572.90
797.52	39196.07
797.70	39597.48
797.88	39364.01
798.06	38493.62
798.24	38970.80
798.42	38825.39
798.60	38657.46
798.78	38483.38
798.96	38503.86
799.14	38086.07
799.32	38364.60
799.51	37995.96
799.69	38311.35
799.87	38489.52
800.05	38047.16
800.23	38305.21
800.41	38124.99
800.59	37709.25
800.77	37819.84
800.95	37297.61
801.13	37551.56
801.31	37512.64
801.49	37703.10
801.67	37137.87
801.85	37248.46
802.03	37297.61
802.21	36861.39
802.39	36947.40
802.57	36984.27
802.75	37103.05
802.93	36748.75
803.11	36582.87
803.29	36818.38
803.47	36672.98
803.65	36662.74
803.83	36292.05
804.01	36611.54
804.19	35919.32
804.37	36115.93
804.55	36308.44
804.73	35964.38
804.91	36214.23
805.09	35735.01
805.27	35782.11
805.45	35843.55
805.63	35972.57
805.81	35419.62
805.99	35859.93
806.17	35784.16
806.35	35681.76
806.53	35089.90
806.71	35534.31
806.89	35599.84
807.07	35259.88
807.25	35415.52
807.43	35038.70
807.61	35098.09
807.79	34708.97
807.97	34532.85
808.15	34358.77
808.33	34784.75
808.51	34629.10
808.69	34739.69
808.87	34301.43
809.05	34416.11
809.23	34203.13
809.41	34256.37
809.59	34233.85
809.77	34098.68
809.95	33840.64
810.13	34108.92
810.31	33986.04
810.49	34074.10
810.67	33568.26
810.84	33807.87
811.02	33867.26
811.20	33308.16
811.38	33682.94
811.56	33566.21
811.74	33592.83
811.92	33240.58
812.10	33330.69
812.28	33512.96
812.46	33252.87
812.64	33062.41
812.82	32628.24
813.00	32996.87
813.18	32935.43
813.36	32695.82
813.53	32851.47
813.71	32749.07
813.89	32562.70
814.07	32738.83
814.25	32661.01
814.43	32538.13
814.61	32329.23
814.79	32398.87
814.97	32163.35
815.15	32384.53
815.33	32280.08
815.50	31895.07
815.68	31942.17
815.86	32304.66
816.04	32183.83
816.22	32026.14
816.40	31927.83
816.58	31847.96
816.76	31227.43
816.94	31690.27
817.11	31690.27
817.29	31813.15
817.47	31374.88
817.65	31387.17
817.83	31446.56
818.01	31452.70
818.19	30963.24
818.37	31395.36
818.54	30948.90
818.72	30973.48
818.90	31057.45
819.08	31196.71
819.26	31075.88
819.44	30981.67
819.62	30909.99
819.80	31260.20
819.97	30756.39
820.15	30875.18
820.33	30463.54
820.51	30649.90
820.69	30543.41
820.87	30899.75
821.05	30701.10
821.22	30232.11
821.40	30475.82
821.58	30203.44
821.76	30334.51
821.94	29920.82
822.12	30158.39
822.29	30244.40
822.47	29881.91
822.65	30121.52
822.83	30045.75
823.01	29888.06
823.19	30248.50
823.36	29640.25
823.54	29474.37
823.72	29902.39
823.90	29601.34
824.08	29275.71
824.25	29693.50
824.43	29431.36
824.61	29548.09
824.79	29597.24
824.97	29374.02
825.15	29640.25
825.32	29421.12
825.50	28980.81
825.68	29015.62
825.86	29697.59
826.04	29513.28
826.21	29091.40
826.39	29058.63
826.57	29316.67
826.75	29107.78
826.93	28780.10
827.10	28835.40
827.28	29126.21
827.46	29062.72
827.64	28837.45
827.81	28997.19
827.99	28937.80
828.17	28733.00
828.35	28683.85
828.53	28544.59
828.70	28849.74
828.88	28515.92
829.06	28673.61
829.24	28692.04
829.41	28300.88
829.59	28522.06
829.77	28569.16
829.95	28397.13
830.12	27954.77
830.30	28145.23
830.48	28395.09
830.66	28081.75
830.84	28546.64
831.01	27866.71
831.19	27971.16
831.37	28083.80
831.55	28079.70
831.72	27733.59
831.90	27991.64
832.08	27719.26
832.25	28202.58
832.43	27985.49
832.61	27432.54
832.79	27756.12
832.96	27840.09
833.14	28003.92
833.32	27784.79
833.50	27623.00
833.67	27477.60
833.85	27616.86
834.03	27346.53
834.20	27659.87
834.38	27608.67
834.56	27346.53
834.74	27307.62
834.91	27285.09
835.09	27215.46
835.27	27002.47
835.44	27192.93
835.62	27076.19
835.80	26857.06
835.98	26910.31
836.15	26885.73
836.33	26742.38
836.51	27020.90
836.68	27063.91
836.86	27035.24
837.04	26660.46
837.21	26789.48
837.39	27035.24
837.57	27014.76
837.75	26609.26
837.92	26486.38
838.10	26740.33
838.28	26574.44
838.45	26558.06
838.63	26486.38
838.81	26566.25
838.98	26355.31
839.16	26345.07
839.34	26228.34
839.51	26226.29
839.69	26074.74
839.87	26345.07
840.04	26470.00
840.22	26369.65
840.40	26220.14
840.57	25691.77
840.75	26154.61
840.93	25802.36
841.10	25863.80
841.28	26017.40
841.46	25878.13
841.63	26281.58
841.81	25990.77
841.98	25814.65
842.16	25923.19
842.34	25878.13
842.51	25712.25
842.69	25841.27
842.87	25603.71
843.04	25599.61
843.22	25378.43
843.40	25679.48
843.57	25372.28
843.75	25618.04
843.92	25849.46
844.10	25489.02
844.28	25247.36
844.45	25466.49
844.63	25337.47
844.81	25335.42
844.98	25362.04
845.16	24833.67
845.33	25319.04
845.51	25153.15
845.69	25192.06
845.86	25077.38
846.04	25390.72
846.21	25185.92
846.39	24938.12
846.57	25030.27
846.74	25020.03
846.92	25095.81
847.09	25042.56
847.27	24659.59
847.45	24934.02
847.62	25097.86
847.80	24630.92
847.97	24893.06
848.15	24598.15
848.32	24284.81
848.50	24673.93
848.68	24536.71
848.85	24602.25
849.03	24376.97
849.20	24379.02
849.38	24309.39
849.56	24485.51
849.73	24258.19
849.91	24657.54
850.08	24301.20
850.26	24157.84
850.43	24196.75
850.61	24123.02
850.78	24106.64
850.96	24221.33
851.14	24299.15
851.31	24163.98
851.49	24188.56
851.66	24235.66
851.84	24188.56
852.01	23881.36
852.19	24063.63
852.36	24002.19
852.54	24057.49
852.71	23852.69
852.89	23989.91
853.07	23705.24
853.24	23719.57
853.42	23549.59
853.59	23641.75
853.77	23572.12
853.94	23795.35
854.12	23854.74
854.29	23459.48
854.47	23500.44
854.64	23615.13
854.82	23195.29
854.99	23764.63
855.17	23627.42
855.34	23348.89
855.52	23563.93
855.69	23643.80
855.87	23324.32
856.04	23189.15
856.22	23277.21
856.39	23115.42
856.57	23213.73
856.74	23094.94
856.92	23135.90
857.09	23119.52
857.27	23004.83
857.44	23471.77
857.62	23228.06
857.79	23209.63
857.97	22951.59
858.14	22941.35
858.32	22595.24
858.49	22777.51
858.67	22757.03
858.84	23021.22
859.02	23008.93
859.19	22556.33
859.37	22769.32
859.54	22472.36
859.72	22724.26
859.89	22705.83
860.06	22881.95
860.24	22759.08
860.41	22668.97
860.59	22288.04
860.76	22781.60
860.94	22236.84
861.11	22419.11
861.29	22419.11
861.46	22386.35
861.64	22015.66
861.81	22361.77
861.98	22167.21
862.16	21941.94
862.33	22070.96
862.51	21753.52
862.68	22118.06
862.86	22185.65
863.03	21933.75
863.21	22156.97
863.38	21929.65
863.55	21937.84
863.73	22005.42
863.90	21862.07
864.08	21898.93
864.25	21931.70
864.43	21661.37
864.60	21573.30
864.77	21761.72
864.95	21610.17
865.12	21538.49
865.30	21958.32
865.47	21647.03
865.64	21554.87
865.82	21528.25
865.99	21460.66
866.17	21536.44
866.34	21794.48
866.51	21083.84
866.69	21479.10
866.86	21526.20
867.04	21341.88
867.21	21360.31
867.38	21393.08
867.56	20971.20
867.73	21057.21
867.91	21298.88
868.08	21087.93
868.25	20922.05
868.43	21112.51
868.60	21071.55
868.78	20889.28
868.95	21282.49
869.12	20887.23
869.30	20711.11
869.47	21006.02
869.64	20764.36
869.82	20825.79
869.99	20676.29
870.16	21026.50
870.34	20754.12
870.51	20725.44
870.69	20485.83
870.86	20553.41
871.03	20342.47
871.21	20377.29
871.38	20489.93
871.55	20461.26
871.73	20231.88
871.90	20180.68
872.07	20078.29
872.25	20096.72
872.42	19961.55
872.59	20154.06
872.77	20174.54
872.94	20041.42
873.11	19879.63
873.29	20385.48
873.46	20008.65
873.63	19830.48
873.81	19766.99
873.98	19785.43
874.15	19730.13
874.33	19797.71
874.50	19554.01
874.67	20098.77
874.85	19699.41
875.02	19451.61
875.19	19502.81
875.37	19478.23
875.54	19445.46
875.71	19420.89
875.88	19574.49
876.06	19429.08
876.23	19263.19
876.40	19214.04
876.58	19433.18
876.75	19136.22
876.92	18992.86
877.10	19089.12
877.27	19087.07
877.44	18951.90
877.61	18755.30
877.79	18839.26
877.96	18837.22
878.13	18921.18
878.31	18904.80
878.48	18687.71
878.65	18454.25
878.82	18657.00
879.00	18894.56
879.17	18878.18
879.34	18620.13
879.51	18345.70
879.69	18527.97
879.86	18325.22
880.03	18513.64
880.21	18263.79
880.38	18214.63
880.55	18429.67
880.72	18429.67
880.90	18294.50
881.07	18280.17
881.24	18251.50
881.41	18286.31
881.59	18237.16
881.76	18179.82
881.93	17895.15
882.10	18009.84
882.28	18013.93
882.45	18153.20
882.62	17919.73
882.79	18222.83
882.96	17811.18
883.14	18220.78
883.31	17868.53
883.48	17766.13
883.65	18022.12
883.83	18130.67
884.00	18153.20
884.17	17805.04
884.34	18095.85
884.51	17665.78
884.69	17843.95
884.86	17747.70
885.03	17567.48
885.20	17628.92
885.38	17774.32
885.55	17594.10
885.72	17757.94
885.89	17348.34
886.06	17608.44
886.24	17559.28
886.41	17489.65
886.58	17733.36
886.75	17704.69
886.92	17338.10
887.10	17624.82
887.27	17284.86
887.44	17438.45
887.61	17508.08
887.78	17100.54
887.95	17477.37
888.13	17202.94
888.30	17204.99
888.47	17094.40
888.64	17241.85
888.81	17118.97
888.99	17106.68
889.16	17100.54
889.33	16865.02
889.50	17053.44
889.67	16877.31
889.84	16850.69
890.01	16822.02
890.19	16961.28
890.36	16905.98
890.53	16813.82
890.70	16600.83
890.87	16858.88
891.04	16879.36
891.22	16711.42
891.39	16625.41
891.56	16690.95
891.73	16619.27
891.90	16416.52
892.07	16484.10
892.24	16467.72
892.42	16258.82
892.59	16502.53
892.76	16363.27
892.93	16277.26
893.10	16455.43
893.27	16508.68
893.44	16051.98
893.61	16275.21
893.79	16523.01
893.96	16312.07
894.13	16189.19
894.30	16375.56
894.47	16242.44
894.64	16307.98
894.81	16307.98
894.98	16242.44
895.15	16066.31
895.33	16234.25
895.50	16105.23
895.67	16391.94
895.84	16082.70
896.01	16166.67
896.18	15892.24
896.35	16408.33
896.52	16174.86
896.69	15955.72
896.86	16281.35
897.04	16090.89
897.21	16060.17
897.38	16058.12
897.55	16105.23
897.72	16142.09
897.89	16187.14
898.06	16183.05
898.23	15855.37
898.40	15904.53
898.57	16107.27
898.74	15951.63
898.91	15951.63
899.08	16111.37
899.26	15906.57
899.43	16092.94
899.60	15959.82
899.77	15970.06
899.94	16072.46
900.11	15812.37
900.28	15836.94
900.45	15793.94
900.62	16185.10
900.79	15961.87
900.96	15800.08
901.13	15853.33
901.30	15687.44
901.47	15955.72
901.64	15849.23
901.81	15806.22
901.98	15582.99
902.15	15947.53
902.32	15732.50
902.49	16062.22
902.66	15640.34
902.83	16113.42
903.01	15838.99
903.18	15826.70
903.35	15802.13
903.52	15988.49
903.69	15869.71
903.86	15857.42
904.03	15861.52
904.20	15820.56
904.37	15851.28
904.54	15822.61
904.71	16039.69
904.88	15777.55
905.05	15910.67
905.22	15816.46
905.39	15736.59
905.56	15714.06
905.73	15916.81
905.90	15802.13
906.07	15501.08
906.24	15838.99
906.41	15847.18
906.58	15658.77
906.75	15511.32
906.92	15609.62
907.09	15910.67
907.26	15689.49
907.43	15398.68
907.60	15605.52
907.77	15834.89
907.93	15802.13
908.10	15728.40
908.27	15873.81
908.44	15875.85
908.61	15683.34
908.78	15552.27
908.95	15585.04
909.12	15660.82
909.29	15763.22
909.46	15496.98
909.63	15683.34
909.80	15638.29
909.97	15802.13
910.14	15798.03
910.31	15628.05
910.48	15515.41
910.65	15511.32
910.82	15462.16
910.99	15441.68
911.16	15515.41
911.33	15404.82
911.50	15310.61
911.66	15357.72
911.83	15347.48
912.00	15191.83
912.17	15132.44
912.34	15343.38
912.51	15234.84
912.68	15118.11
912.85	15361.81
913.02	15261.46
913.19	15189.78
913.36	15150.87
913.53	15316.76
913.70	14935.84
913.86	15324.95
914.03	15075.10
914.20	15044.38
914.37	15036.19
914.54	15034.14
914.71	15175.45
914.88	14892.83
915.05	14759.71
915.22	14528.29
915.39	14880.54
915.55	14888.73
915.72	14812.96
915.89	14759.71
916.06	14425.89
916.23	14653.22
916.40	14731.04
916.57	14530.34
916.74	14413.60
916.91	14516.00
917.07	14393.12
917.24	14343.97
917.41	14399.27
917.58	14389.03
917.75	14333.73
917.92	13995.82
918.09	14221.10
918.26	14262.05
918.42	14163.75
918.59	14196.52
918.76	14178.09
918.93	14153.51
919.10	14042.92
919.27	13883.18
919.44	14059.31
919.60	13834.03
919.77	13850.41
919.94	13860.65
920.11	13713.20
920.28	13895.47
920.45	13500.21
920.61	13672.24
920.78	13477.68
920.95	13559.60
921.12	13442.87
921.29	13516.59
921.46	13528.88
921.62	13498.16
921.79	13354.80
921.96	13254.45
922.13	13178.68
922.30	13168.44
922.47	13117.24
922.63	12920.63
922.80	12980.03
922.97	12926.78
923.14	12707.65
923.31	13158.20
923.47	12640.06
923.64	12998.46
923.81	12562.24
923.98	12838.72
924.15	12447.55
924.32	12711.74
924.48	12721.98
924.65	12490.56
924.82	12607.30
924.99	12263.24
925.15	12257.09
925.32	12541.76
925.49	12162.89
925.66	12296.00
925.83	12152.65
925.99	12179.27
926.16	12277.57
926.33	12132.17
926.50	11865.93
926.67	12175.17
926.83	12046.15
927.00	12146.50
927.17	11646.80
927.34	11806.54
927.50	11849.55
927.67	11974.47
927.84	11939.66
928.01	11689.81
928.17	11556.69
928.34	11364.18
928.51	11560.78
928.68	11429.71
928.84	11413.33
929.01	11245.40
929.18	11208.53
929.35	11296.60
929.51	11335.51
929.68	11118.42
929.85	11028.31
930.02	11220.82
930.18	11046.74
930.35	10995.54
930.52	10915.67
930.69	10968.92
930.85	10792.80
931.02	10798.94
931.19	10688.35
931.36	10733.40
931.52	10723.16
931.69	10899.29
931.86	10499.94
932.02	10553.18
932.19	10518.37
932.36	10379.11
932.53	10284.90
932.69	10315.62
932.86	10506.08
933.03	10336.10
933.19	10186.60
933.36	10076.01
933.53	10217.32
933.70	10108.77
933.86	10149.73
934.03	9908.07
934.20	9781.10
934.36	9887.59
934.53	9512.81
934.70	9437.04
934.86	9496.43
935.03	9332.59
935.20	9215.86
935.36	9265.01
935.53	9318.26
935.70	9289.59
935.86	9146.23
936.03	9011.06
936.20	8914.81
936.36	9119.60
936.53	8968.06
936.70	8982.39
936.86	8937.34
937.03	8843.13
937.20	8540.03
937.36	8785.79
937.53	8372.10
937.70	8273.79
937.86	8218.50
938.03	8163.20
938.20	8124.29
938.36	8071.04
938.53	7769.99
938.70	7720.84
938.86	7698.31
939.03	7716.75
939.20	7606.16
939.36	7468.94
939.53	7436.17
939.70	7585.68
939.86	7260.05
940.03	7104.40
940.19	7118.74
940.36	7004.05
940.53	7081.88
940.69	6793.11
940.86	6766.49
941.03	6721.43
941.19	6672.28
941.36	6737.82
941.52	6598.56
941.69	6498.20
941.86	6379.42
942.02	6385.57
942.19	6283.17
942.35	6416.29
942.52	6324.13
942.69	6188.96
942.85	6178.72
943.02	6053.80
943.18	6080.42
943.35	6082.47
943.52	6033.32
943.68	5992.36
943.85	5883.81
944.01	5853.09
944.18	5762.98
944.35	5883.81
944.51	5840.81
944.68	5627.82
944.84	5795.75
945.01	5568.43
945.17	5631.91
945.34	5623.72
945.51	5736.36
945.67	5609.39
945.84	5554.09
946.00	5351.34
946.17	5531.56
946.33	5541.80
946.50	5646.25
946.67	5521.32
946.83	5328.81
947.00	5601.19
947.16	5576.62
947.33	5570.48
947.49	5377.97
947.66	5392.30
947.82	5468.08
947.99	5365.68
948.16	5533.61
948.32	5466.03
948.49	5318.57
948.65	5498.80
948.82	5400.49
948.98	5291.95
949.15	5429.17
949.31	5515.18
949.48	5445.55
949.64	5355.44
949.81	5578.67
949.97	5302.19
950.14	5511.08
950.30	5324.72
950.47	5529.52
950.63	5566.38
950.80	5466.03
950.96	5439.40
951.13	5451.69
951.30	5629.87
951.46	5582.76
951.63	5541.80
951.79	5447.60
951.96	5605.29
952.12	5627.82
952.29	5560.24
952.45	5506.99
952.62	5521.32
952.78	5580.71
952.94	5547.95
953.11	5541.80
953.27	5388.21
953.44	5750.70
953.60	5629.87
953.77	5627.82
953.93	5605.29
954.10	5584.81
954.26	5595.05
954.43	5658.54
954.59	5679.02
954.76	5836.71
954.92	5586.86
955.09	5554.09
955.25	5554.09
955.42	5603.24
955.58	5750.70
955.75	5531.56
955.91	5615.53
956.07	5666.73
956.24	5646.25
956.40	5724.07
956.57	5760.94
956.73	5646.25
956.90	5787.56
957.06	5533.61
957.23	5638.06
957.39	5484.46
957.56	5554.09
957.72	5588.91
957.88	5636.01
958.05	5636.01
958.21	5703.59
958.38	5805.99
958.54	5576.62
958.71	5711.78
958.87	5574.57
959.03	5711.78
959.20	5773.22
959.36	5547.95
959.53	5640.11
959.69	5560.24
959.85	5640.11
960.02	5623.72
960.18	5613.48
960.35	5672.87
960.51	5664.68
960.68	5537.71
960.84	5619.63
961.00	5588.91
961.17	5588.91
961.33	5664.68
961.50	5730.22
961.66	5623.72
961.82	5715.88
961.99	5646.25
962.15	5486.51
962.31	5492.65
962.48	5662.63
962.64	5588.91
962.81	5447.60
962.97	5578.67
963.13	5509.04
963.30	5603.24
963.46	5478.32
963.62	5607.34
963.79	5523.37
963.95	5693.35
964.12	5603.24
964.28	5490.60
964.44	5496.75
964.61	5511.08
964.77	5515.18
964.93	5689.26
965.10	5613.48
965.26	5402.54
965.42	5400.49
965.59	5468.08
965.75	5570.48
965.92	5652.39
966.08	5574.57
966.24	5384.11
966.41	5306.29
966.57	5521.32
966.73	5476.27
966.90	5316.53
967.06	5480.36
967.22	5322.67
967.39	5418.93
967.55	5203.89
967.71	5420.97
967.88	5345.20
968.04	5449.64
968.20	5406.64
968.37	5240.75
968.53	5279.66
968.69	5316.53
968.85	5322.67
969.02	5298.10
969.18	5314.48
969.34	5263.28
969.51	5285.81
969.67	5365.68
969.83	5228.46
970.00	5390.25
970.16	5269.42
970.32	5339.05
970.48	5453.74
970.65	5242.80
970.81	5224.37
970.97	5226.42
971.14	5130.16
971.30	5248.94
971.46	5167.03
971.63	5103.54
971.79	5273.52
971.95	5148.59
972.11	5087.15
972.28	5132.21
972.44	5160.88
972.60	5062.58
972.76	5064.63
972.93	5126.07
973.09	5091.25
973.25	5185.46
973.42	5021.62
973.58	5111.73
973.74	5072.82
973.90	5031.86
974.07	4911.03
974.23	5138.35
974.39	5179.31
974.55	4896.69
974.72	5015.48
974.88	4876.21
975.04	4999.09
975.20	4911.03
975.37	4997.04
975.53	4927.41
975.69	4951.99
975.85	4868.02
976.01	5021.62
976.18	5017.52
976.34	4964.28
976.50	5031.86
976.66	5113.78
976.83	4771.77
976.99	4892.60
977.15	4935.60
977.31	4827.06
977.47	4784.06
977.64	4868.02
977.80	4870.07
977.96	4759.48
978.12	4786.10
978.29	4726.71
978.45	4722.62
978.61	4579.26
978.77	4894.65
978.93	4628.41
979.10	4616.12
979.26	4792.25
979.42	4638.65
979.58	4540.35
979.74	4620.22
979.91	4585.40
980.07	4591.55
980.23	4665.27
980.39	4620.22
980.55	4569.02
980.71	4474.81
980.88	4526.01
981.04	4487.10
981.20	4550.59
981.36	4497.34
981.52	4456.38
981.68	4446.14
981.85	4560.83
982.01	4487.10
982.17	4401.08
982.33	4566.97
982.49	4564.92
982.65	4419.52
982.82	4384.70
982.98	4356.03
983.14	4364.22
983.30	4411.32
983.46	4360.13
983.62	4390.84
983.79	4458.43
983.95	4298.69
984.11	4276.16
984.27	4433.85
984.43	4284.35
984.59	4321.21
984.75	4403.13
984.91	4270.01
985.08	4339.65
985.24	4143.04
985.40	4220.86
985.56	4138.94
985.72	4272.06
985.88	4296.64
986.04	4114.37
986.20	4147.14
986.37	4186.05
986.53	4231.10
986.69	4167.62
986.85	4145.09
987.01	4212.67
987.17	4184.00
987.33	4118.47
987.49	4073.41
987.65	4296.64
987.82	4122.56
987.98	4016.07
988.14	4065.22
988.30	4124.61
988.46	3997.64
988.62	4009.92
988.78	4003.78
988.94	4040.64
989.10	4030.40
989.26	4044.74
989.42	3952.58
989.59	3975.11
989.75	4018.11
989.91	3928.00
990.07	3940.29
990.23	3889.09
990.39	3798.98
990.55	3878.85
990.71	3841.99
990.87	3952.58
991.03	3923.91
991.19	3893.19
991.35	3915.72
991.51	3993.54
991.67	3858.37
991.83	3882.95
992.00	3731.40
992.16	3895.24
992.32	3903.43
992.48	3944.39
992.64	3680.20
992.80	3866.56
992.96	3643.34
993.12	3719.11
993.28	3733.45
993.44	3639.24
993.60	3749.83
993.76	3827.65
993.92	3755.97
994.08	3768.26
994.24	3622.86
994.40	3702.73
994.56	3682.25
994.72	3694.54
994.88	3516.36
995.04	3600.33
995.20	3637.19
995.36	3569.61
995.52	3682.25
995.68	3551.18
995.84	3532.75
996.00	3706.82
996.16	3641.29
996.32	3467.21
996.48	3493.83
996.64	3682.25
996.80	3602.38
996.96	3454.92
997.12	3567.56
997.28	3416.01
997.44	3475.40
997.60	3438.54
997.76	3469.26
997.92	3469.26
998.08	3487.69
998.24	3432.40
998.40	3594.19
998.56	3469.26
998.72	3321.81
998.88	3428.30
999.04	3395.53
999.20	3442.64
999.36	3293.13
999.52	3428.30
999.68	3430.35
999.84	3454.92
1000.00	3254.22
1000.16	3446.73
1000.32	3379.15
1000.48	3420.11
1000.64	3178.45
1000.80	3248.08
1000.95	3174.35
1001.11	3319.76
1001.27	3225.55
1001.43	3254.22
1001.59	3198.93
1001.75	3299.28
1001.91	3252.17
1002.07	3264.46
1002.23	3166.16
1002.39	3223.50
1002.55	3256.27
1002.71	3127.25
1002.87	3223.50
1003.03	3098.58
1003.19	3180.50
1003.34	3229.65
1003.50	3096.53
1003.66	3254.22
1003.82	3114.96
1003.98	3061.71
1004.14	3065.81
1004.30	3104.72
1004.46	3039.19
1004.62	3057.62
1004.78	3131.34
1004.94	3151.82
1005.09	3090.38
1005.25	3215.31
1005.41	2985.94
1005.57	3157.97
1005.73	2998.23
1005.89	3002.32
1006.05	3043.28
1006.21	2957.27
1006.37	2842.58
1006.52	2987.99
1006.68	2973.65
1006.84	3092.43
1007.00	2934.74
1007.16	3043.28
1007.32	2912.21
1007.48	2942.93
1007.64	2953.17
1007.79	2920.40
1007.95	2861.01
1008.11	2992.08
1008.27	2908.12
1008.43	2934.74
1008.59	2885.59
1008.75	2951.12
1008.91	3020.75
1009.06	2832.34
1009.22	2854.87
1009.38	2840.53
1009.54	2873.30
1009.70	2762.71
1009.86	2910.16
1010.01	2893.78
1010.17	2785.24
1010.33	2781.14
1010.49	2770.90
1010.65	2936.79
1010.81	2744.28
1010.96	2770.90
1011.12	2775.00
1011.28	2838.48
1011.44	2799.57
1011.60	2750.42
1011.76	2719.70
1011.91	2691.03
1012.07	2691.03
1012.23	2648.02
1012.39	2656.22
1012.55	2756.57
1012.71	2676.70
1012.86	2674.65
1013.02	2633.69
1013.18	2688.98
1013.34	2701.27
1013.50	2568.15
1013.65	2813.91
1013.81	2631.64
1013.97	2602.97
1014.13	2580.44
1014.29	2609.11
1014.44	2772.95
1014.60	2650.07
1014.76	2576.34
1014.92	2588.63
1015.07	2656.22
1015.23	2633.69
1015.39	2523.10
1015.55	2516.95
1015.71	2543.58
1015.86	2480.09
1016.02	2602.97
1016.18	2490.33
1016.34	2592.73
1016.49	2533.34
1016.65	2535.39
1016.81	2506.71
1016.97	2506.71
1017.12	2557.91
1017.28	2420.70
1017.44	2486.23
1017.60	2437.08
1017.75	2473.95
1017.91	2527.19
1018.07	2537.43
1018.23	2547.67
1018.38	2473.95
1018.54	2541.53
1018.70	2449.37
1018.86	2451.42
1019.01	2422.75
1019.17	2473.95
1019.33	2545.63
1019.49	2426.84
1019.64	2410.46
1019.80	2469.85
1019.96	2455.51
1020.12	2392.03
1020.27	2437.08
1020.43	2467.80
1020.59	2355.16
1020.74	2467.80
1020.90	2445.27
1021.06	2285.53
1021.22	2359.26
1021.37	2336.73
1021.53	2328.54
1021.69	2301.92
1021.84	2265.05
1022.00	2260.96
1022.16	2357.21
1022.31	2322.40
1022.47	2301.92
1022.63	2398.17
1022.79	2240.48
1022.94	2320.35
1023.10	2349.02
1023.26	2322.40
1023.41	2306.01
1023.57	2361.31
1023.73	2301.92
1023.88	2277.34
1024.04	2293.72
1024.20	2269.15
1024.35	2263.01
1024.51	2240.48
1024.67	2254.81
1024.82	2271.20
1024.98	2222.05
1025.14	2297.82
1025.29	2281.44
1025.45	2281.44
1025.61	2125.79
1025.76	2256.86
1025.92	2295.77
1026.08	2222.05
1026.23	2170.85
1026.39	2289.63
1026.55	2185.18
1026.70	2187.23
1026.86	2254.81
1027.02	2265.05
1027.17	2217.95
1027.33	2222.05
1027.48	2170.85
1027.64	2148.32
1027.80	2203.61
1027.95	2152.42
1028.11	2033.63
1028.27	2224.09
1028.42	2168.80
1028.58	2146.27
1028.73	2099.17
1028.89	2066.40
1029.05	2240.48
1029.20	2158.56
>>>>>End Processed Spectral Data<<<<<
