SpectraSuite Data File
++++++++++++++++++++++++++++++++++++
Date: Fri Jun 02 14:41:54 CEST 2017
User: INFO_000
Dark Spectrum Present: No
Reference Spectrum Present: No
Number of Sampled Component Spectra: 1
Spectrometers: USB4H00879
Integration Time (usec): 80000 (USB4H00879)
Spectra Averaged: 1 (USB4H00879)
Boxcar Smoothing: 0 (USB4H00879)
Correct for Electrical Dark: No (USB4H00879)
Strobe/Lamp Enabled: No (USB4H00879)
Correct for Detector Non-linearity: No (USB4H00879)
Correct for Stray Light: No (USB4H00879)
Number of Pixels in Processed Spectrum: 3648
>>>>>Begin Processed Spectral Data<<<<<
345.13	1298.41
345.34	1298.41
345.56	1298.41
345.78	1259.50
345.99	1296.36
346.21	1667.05
346.42	1710.05
346.64	1681.38
346.86	1751.01
347.07	1605.61
347.29	1701.86
347.50	1640.42
347.72	1691.62
347.94	1757.16
348.15	1546.22
348.37	1648.61
348.59	1753.06
348.80	1654.76
349.02	1718.25
349.23	1867.75
349.45	1757.16
349.67	1914.85
349.88	1783.78
350.10	1927.14
350.31	1834.98
350.53	1845.22
350.75	2002.91
350.96	1830.88
351.18	1888.23
351.39	1898.47
351.61	1896.42
351.82	1851.36
352.04	1888.23
352.26	1812.45
352.47	1886.18
352.69	1935.33
352.90	1824.74
353.12	1863.65
353.34	1830.88
353.55	1941.47
353.77	1888.23
353.98	1744.87
354.20	1830.88
354.41	1933.28
354.63	1966.05
354.85	2062.30
355.06	1908.71
355.28	1861.60
355.49	1916.90
355.71	1812.45
355.92	1824.74
356.14	2007.01
356.35	1828.84
356.57	1837.03
356.79	1902.56
357.00	1867.75
357.22	2023.39
357.43	1822.69
357.65	1931.23
357.86	1841.12
358.08	1902.56
358.29	1902.56
358.51	1953.76
358.72	1931.23
358.94	1892.32
359.16	1945.57
359.37	1894.37
359.59	2011.11
359.80	1984.48
360.02	1902.56
360.23	1939.43
360.45	2009.06
360.66	1976.29
360.88	1828.84
361.09	1931.23
361.31	1925.09
361.52	1984.48
361.74	2093.02
361.95	2066.40
362.17	1945.57
362.38	1980.39
362.60	2025.44
362.81	1992.67
363.03	1923.04
363.24	1996.77
363.46	2123.74
363.67	2045.92
363.89	1990.63
364.10	2025.44
364.32	1959.91
364.53	2011.11
364.75	1923.04
364.96	2054.11
365.18	2095.07
365.39	2011.11
365.61	1970.15
365.82	2013.15
366.04	2066.40
366.25	2019.30
366.47	2027.49
366.68	1957.86
366.90	2004.96
367.11	2039.78
367.33	2082.78
367.54	2101.22
367.76	2041.82
367.97	2150.37
368.19	2123.74
368.40	2002.91
368.62	2000.87
368.83	1970.15
369.05	2101.22
369.26	1980.39
369.48	2013.15
369.69	2054.11
369.91	2035.68
370.12	2050.02
370.33	2068.45
370.55	2019.30
370.76	2078.69
370.98	2113.50
371.19	2082.78
371.41	2062.30
371.62	2179.04
371.84	2095.07
372.05	2148.32
372.27	2136.03
372.48	2025.44
372.69	2095.07
372.91	2156.51
373.12	2170.85
373.34	2058.21
373.55	2162.66
373.77	2187.23
373.98	2140.13
374.20	2166.75
374.41	2275.29
374.62	2093.02
374.84	2172.89
375.05	2248.67
375.27	2191.33
375.48	2142.18
375.70	2131.94
375.91	2273.25
376.12	2248.67
376.34	2199.52
376.55	2152.42
376.77	2254.81
376.98	2050.02
377.19	2109.41
377.41	2207.71
377.62	2226.14
377.84	2295.77
378.05	2299.87
378.27	2211.81
378.48	2371.55
378.69	2396.12
378.91	2328.54
379.12	2275.29
379.34	2193.37
379.55	2303.96
379.76	2252.77
379.98	2181.09
380.19	2334.68
380.41	2277.34
380.62	2365.40
380.83	2232.29
381.05	2232.29
381.26	2502.62
381.47	2222.05
381.69	2379.74
381.90	2424.80
382.12	2316.25
382.33	2232.29
382.54	2306.01
382.76	2355.16
382.97	2306.01
383.19	2338.78
383.40	2496.47
383.61	2246.62
383.83	2265.05
384.04	2320.35
384.25	2330.59
384.47	2408.41
384.68	2410.46
384.89	2334.68
385.11	2330.59
385.32	2363.36
385.54	2344.92
385.75	2332.64
385.96	2461.66
386.18	2424.80
386.39	2404.32
386.60	2365.40
386.82	2432.99
387.03	2457.56
387.24	2543.58
387.46	2451.42
387.67	2519.00
387.88	2502.62
388.10	2408.41
388.31	2437.08
388.52	2564.06
388.74	2551.77
388.95	2625.50
389.16	2504.67
389.38	2545.63
389.59	2611.16
389.80	2641.88
390.02	2605.02
390.23	2650.07
390.44	2594.78
390.66	2617.30
390.87	2539.48
391.08	2633.69
391.30	2666.46
391.51	2639.83
391.72	2691.03
391.94	2635.74
392.15	2607.06
392.36	2645.98
392.58	2570.20
392.79	2676.70
393.00	2701.27
393.22	2715.61
393.43	2668.50
393.64	2785.24
393.85	2910.16
394.07	2697.17
394.28	2760.66
394.49	2723.80
394.71	2664.41
394.92	2873.30
395.13	2744.28
395.35	2850.77
395.56	2680.79
395.77	2779.09
395.98	2881.49
396.20	2920.40
396.41	2820.05
396.62	2897.88
396.84	2838.48
397.05	2822.10
397.26	2928.60
397.47	2959.31
397.69	2869.20
397.90	3104.72
398.11	2918.36
398.32	2967.51
398.54	2951.12
398.75	2947.03
398.96	2959.31
399.18	3037.14
399.39	3030.99
399.60	3139.54
399.81	3024.85
400.03	2971.60
400.24	3291.09
400.45	2985.94
400.66	3114.96
400.88	2969.55
401.09	3291.09
401.30	3133.39
401.51	3246.03
401.73	3045.33
401.94	3227.60
402.15	3178.45
402.36	3239.89
402.58	3145.68
402.79	3205.07
403.00	3135.44
403.21	3336.14
403.43	3252.17
403.64	3284.94
403.85	3284.94
404.06	3239.89
404.27	3205.07
404.49	3162.06
404.70	3067.86
404.91	3366.86
405.12	3297.23
405.34	3327.95
405.55	3350.48
405.76	3182.54
405.97	3327.95
406.19	3418.06
406.40	3274.70
406.61	3514.31
406.82	3473.36
407.03	3305.42
407.25	3340.24
407.46	3393.48
407.67	3612.62
407.88	3604.42
408.09	3350.48
408.31	3481.55
408.52	3483.59
408.73	3411.92
408.94	3385.29
409.15	3469.26
409.37	3542.99
409.58	3598.28
409.79	3469.26
410.00	3657.67
410.21	3477.45
410.43	3524.55
410.64	3514.31
410.85	3551.18
411.06	3540.94
411.27	3684.30
411.48	3649.48
411.70	3585.99
411.91	3659.72
412.12	3733.45
412.33	3624.90
412.54	3600.33
412.76	3792.84
412.97	3633.10
413.18	3592.14
413.39	3676.10
413.60	3704.78
413.81	3751.88
414.03	3598.28
414.24	3690.44
414.45	3860.42
414.66	3821.51
414.87	3952.58
415.08	3835.85
415.30	3803.08
415.51	3837.89
415.72	3839.94
415.93	3880.90
416.14	3903.43
416.35	3831.75
416.56	3844.04
416.78	3966.92
416.99	3813.32
417.20	3909.57
417.41	3979.20
417.62	3981.25
417.83	4116.42
418.04	3985.35
418.26	4057.03
418.47	4014.02
418.68	4081.60
418.89	4044.74
419.10	4138.94
419.31	4108.23
419.52	4122.56
419.73	4112.32
419.95	4161.47
420.16	3985.35
420.37	4208.58
420.58	4278.21
420.79	4009.92
421.00	4200.38
421.21	4265.92
421.42	4042.69
421.63	4327.36
421.85	4255.68
422.06	4196.29
422.27	4124.61
422.48	4323.26
422.69	4310.97
422.90	4358.08
423.11	4429.76
423.32	4386.75
423.53	4558.78
423.75	4403.13
423.96	4683.70
424.17	4462.52
424.38	4554.68
424.59	4503.48
424.80	4616.12
425.01	4560.83
425.22	4556.73
425.43	4530.11
425.64	4784.06
425.85	4788.15
426.06	4657.08
426.28	4761.53
426.49	4636.60
426.70	4616.12
426.91	4777.91
427.12	4876.21
427.33	4749.24
427.54	4739.00
427.75	4868.02
427.96	5005.24
428.17	4911.03
428.38	4927.41
428.59	5103.54
428.80	4937.65
429.01	4900.79
429.23	4841.40
429.44	5183.41
429.65	5029.81
429.86	5042.10
430.07	4913.08
430.28	4990.90
430.49	5021.62
430.70	5304.24
430.91	5300.14
431.12	5246.90
431.33	5261.23
431.54	5369.77
431.75	5085.11
431.96	5224.37
432.17	5255.09
432.38	5304.24
432.59	5539.76
432.80	5320.62
433.01	5294.00
433.22	5584.81
433.43	5447.60
433.64	5390.25
433.85	5386.16
434.06	5593.00
434.27	5478.32
434.49	5652.39
434.70	5644.20
434.91	5599.15
435.12	5547.95
435.33	5746.60
435.54	5623.72
435.75	5523.37
435.96	5744.55
436.17	5482.41
436.38	5689.26
436.59	5754.79
436.80	5949.35
437.01	5951.40
437.22	5896.10
437.43	5965.73
437.64	5730.22
437.85	5990.31
438.06	5924.77
438.27	5859.24
438.48	5746.60
438.69	5926.82
438.90	5861.29
439.11	5877.67
439.32	6107.04
439.53	5971.88
439.74	6045.60
439.95	6170.53
440.16	6121.38
440.37	6211.49
440.57	6039.46
440.78	6131.62
440.99	6133.67
441.20	6014.88
441.41	6057.89
441.62	6172.58
441.83	6076.32
442.04	6254.50
442.25	6268.83
442.46	6172.58
442.67	6381.47
442.88	6639.51
443.09	6135.71
443.30	6186.91
443.51	6481.82
443.72	6590.36
443.93	6332.32
444.14	6551.45
444.35	6438.81
444.56	6588.32
444.77	6557.60
444.98	6561.69
445.19	6520.73
445.40	6518.68
445.61	6539.16
445.81	6639.51
446.02	6612.89
446.23	6530.97
446.44	6442.91
446.65	6649.75
446.86	6846.36
447.07	6748.06
447.28	7036.82
447.49	6891.41
447.70	6924.18
447.91	6823.83
448.12	6803.35
448.33	7026.58
448.54	6901.65
448.74	6852.50
448.95	6856.60
449.16	6897.56
449.37	7171.99
449.58	6950.81
449.79	7163.79
450.00	7034.77
450.21	7206.80
450.42	7313.30
450.63	7301.01
450.84	7325.58
451.05	7288.72
451.25	7188.37
451.46	7122.84
451.67	7448.46
451.88	7419.79
452.09	7327.63
452.30	7358.35
452.51	7204.75
452.72	7534.48
452.93	7589.77
453.13	7344.02
453.34	7456.65
453.55	7520.14
453.76	7595.92
453.97	7837.58
454.18	7819.14
454.39	7860.10
454.60	7767.95
454.81	7872.39
455.01	7948.17
455.22	7677.83
455.43	7761.80
455.64	8015.75
455.85	8169.35
456.06	8128.39
456.27	8193.92
456.48	7960.45
456.68	8036.23
456.89	8243.07
457.10	8429.44
457.31	8140.68
457.52	8224.64
457.73	8320.90
457.94	8466.30
458.14	8359.81
458.35	8595.32
458.56	8376.19
458.77	8470.40
458.98	8619.90
459.19	8605.56
459.39	8718.20
459.60	8669.05
459.81	8605.56
460.02	8822.65
460.23	8800.12
460.44	9090.93
460.65	9086.84
460.85	8882.04
461.06	9000.82
461.27	8830.84
461.48	9222.00
461.69	9262.96
461.89	8968.06
462.10	9439.09
462.31	9142.13
462.52	9185.14
462.73	9283.44
462.94	9443.18
463.14	9611.12
463.35	9412.46
463.56	9891.69
463.77	9842.54
463.98	9508.72
464.18	9600.88
464.39	9793.39
464.60	9811.82
464.81	10067.81
465.02	9701.23
465.23	10088.29
465.43	9887.59
465.64	10127.21
465.85	10108.77
466.06	10245.99
466.27	10440.54
466.47	10348.39
466.68	10397.54
466.89	10227.56
467.10	10710.88
467.30	10317.67
467.51	10481.50
467.72	11003.74
467.93	10661.73
468.14	10651.49
468.34	10612.57
468.55	10938.20
468.76	10934.11
468.97	10686.30
469.17	11079.51
469.38	11087.70
469.59	11392.85
469.80	11216.72
470.01	11138.90
470.21	11343.70
470.42	11546.45
470.63	11470.67
470.84	11593.55
471.04	11530.06
471.25	11771.72
471.46	11693.90
471.67	12263.24
471.87	11947.85
472.08	12050.25
472.29	12113.74
472.50	11847.50
472.70	12214.09
472.91	12119.88
473.12	12334.92
473.33	12324.68
473.53	12658.49
473.74	12308.29
473.95	12783.42
474.16	12625.73
474.36	12787.52
474.57	12951.35
474.78	13039.42
474.99	12939.07
475.19	12795.71
475.40	13367.09
475.61	13293.37
475.81	13662.00
476.02	13645.62
476.23	13532.98
476.44	13897.52
476.64	13793.07
476.85	13905.71
477.06	14108.46
477.27	14260.01
477.47	14239.53
477.68	14212.90
477.89	14327.59
478.09	14606.11
478.30	14640.93
478.51	14327.59
478.71	14718.75
478.92	14903.07
479.13	14823.20
479.34	15095.58
479.54	15150.87
479.75	15071.00
479.96	15085.34
480.16	15476.50
480.37	15492.88
480.58	15701.78
480.78	15961.87
480.99	15560.47
481.20	16064.27
481.41	16023.31
481.61	16051.98
481.82	16305.93
482.03	16174.86
482.23	16260.87
482.44	16596.74
482.65	16520.96
482.85	16617.22
483.06	16860.93
483.27	16520.96
483.47	16686.85
483.68	16961.28
483.89	17155.83
484.09	17164.03
484.30	17344.25
484.51	17620.72
484.71	17438.45
484.92	17733.36
485.13	17856.24
485.33	17673.97
485.54	17753.84
485.75	18007.79
485.95	18267.88
486.16	18118.38
486.37	18296.55
486.57	18378.47
486.78	18302.70
486.98	18452.20
487.19	18538.21
487.40	18583.27
487.60	18675.43
487.81	18915.04
488.02	18923.23
488.22	18859.74
488.43	19187.42
488.64	19037.92
488.84	19314.39
489.05	19424.98
489.25	19594.96
489.46	19613.40
489.67	19810.00
489.87	19646.16
490.08	20029.13
490.29	20004.56
490.49	20442.82
490.70	20109.01
490.90	20467.40
491.11	20281.03
491.32	20414.15
491.52	20631.24
491.73	20565.70
491.94	20815.55
492.14	20524.74
492.35	20975.30
492.55	21094.08
492.76	21286.59
492.97	21100.22
493.17	21176.00
493.38	21374.65
493.58	21323.45
493.79	21391.03
494.00	21661.37
494.20	21624.50
494.41	21915.31
494.61	21810.87
494.82	21796.53
495.02	21837.49
495.23	22144.69
495.44	21821.11
495.64	22648.49
495.85	22216.36
496.05	22638.25
496.26	22681.25
496.47	22732.45
496.67	22765.22
496.88	22865.57
497.08	22949.54
497.29	23150.24
497.49	22970.02
497.70	23455.39
497.91	23252.64
498.11	23643.80
498.32	23721.62
498.52	23580.31
498.73	23867.03
498.93	23721.62
499.14	23469.72
499.34	23764.63
499.55	23867.03
499.76	23768.73
499.96	24082.06
500.17	23971.47
500.37	24096.40
500.58	24034.96
500.78	24274.57
500.99	24524.43
501.19	24823.43
501.40	24610.44
501.60	24538.76
501.81	24737.41
502.02	24589.96
502.22	24761.99
502.43	24931.97
502.63	25104.00
502.84	24970.88
503.04	25085.57
503.25	25247.36
503.45	25177.73
503.66	25534.07
503.86	25327.23
504.07	25620.09
504.27	25456.25
504.48	25874.04
504.68	25550.46
504.89	26160.75
505.09	25880.18
505.30	25609.85
505.50	26046.07
505.71	25757.30
505.91	26121.84
506.12	26314.35
506.32	26117.75
506.53	26230.38
506.73	26349.17
506.94	26564.20
507.14	26351.21
507.35	26756.71
507.55	26725.99
507.76	26639.98
507.96	26865.25
508.17	26883.69
508.37	26676.84
508.58	26973.80
508.78	26805.86
508.99	27297.38
509.19	27199.07
509.40	27424.35
509.60	27352.67
509.81	27348.57
510.01	27033.19
510.22	27463.26
510.42	27477.60
510.63	27512.41
510.83	27428.45
511.04	27756.12
511.24	27911.77
511.44	27571.80
511.65	27811.42
511.85	27623.00
512.06	27680.35
512.26	27958.87
512.47	28190.29
512.67	28079.70
512.88	27983.44
513.08	27917.91
513.29	28409.42
513.49	28520.01
513.69	28386.89
513.90	28376.66
514.10	28147.28
514.31	28333.65
514.51	28769.86
514.72	28450.38
514.92	28053.08
515.13	28536.40
515.33	28651.08
515.53	28741.19
515.74	28776.01
515.94	28925.51
516.15	28927.56
516.35	28864.07
516.56	29201.99
516.76	29013.57
516.96	29306.43
517.17	29296.19
517.37	29103.68
517.58	29124.16
517.78	29615.68
517.99	29660.73
518.19	29533.76
518.39	29912.63
518.60	29840.95
518.80	29642.30
519.01	29673.02
519.21	30033.46
519.41	30121.52
519.62	29894.20
519.82	29990.45
520.03	30268.98
520.23	30373.42
520.43	30119.48
520.64	30529.07
520.84	30660.14
521.05	30334.51
521.25	30993.96
521.45	30975.53
521.66	30852.65
521.86	30864.94
522.07	30678.57
522.27	31213.09
522.47	30926.38
522.68	31260.20
522.88	31487.52
523.08	31342.11
523.29	31647.26
523.49	31399.46
523.70	31368.74
523.90	31780.38
524.10	31684.12
524.31	31923.74
524.51	31301.15
524.71	32280.08
524.92	31768.09
525.12	32450.06
525.33	32181.78
525.53	32374.29
525.73	32669.20
525.94	32292.37
526.14	32347.67
526.34	32540.18
526.55	32902.67
526.75	32812.56
526.95	33019.40
527.16	33086.98
527.36	32843.27
527.56	33043.98
527.77	33238.53
527.97	33607.17
528.17	33547.78
528.38	33271.30
528.58	33201.67
528.78	33605.12
528.99	33592.83
529.19	33695.23
529.39	33756.67
529.60	34418.16
529.80	34172.41
530.00	34280.95
530.21	34174.45
530.41	34629.10
530.61	34092.54
530.82	34389.49
531.02	34409.97
531.22	34465.27
531.43	34592.24
531.63	35091.94
531.83	35063.27
532.04	35431.91
532.24	35016.17
532.44	35362.28
532.64	35384.80
532.85	35741.15
533.05	36029.91
533.25	35620.32
533.46	35708.38
533.66	36292.05
533.86	35534.31
534.07	36058.59
534.27	36402.64
534.47	36511.19
534.67	36214.23
534.88	35929.56
535.08	36398.55
535.28	36640.21
535.49	36525.52
535.69	37471.68
535.89	36636.11
536.09	36894.16
536.30	37279.18
536.50	37062.09
536.70	37365.19
536.91	37152.20
537.11	37299.65
537.31	37787.07
537.51	37707.20
537.72	37875.13
537.92	37676.48
538.12	38016.44
538.32	38051.26
538.53	38376.89
538.73	38010.30
538.93	38036.92
539.13	38098.36
539.34	38428.09
539.54	38464.95
539.74	38727.09
539.94	38544.82
540.15	38532.53
540.35	39005.61
540.55	38847.92
540.75	38770.10
540.96	39108.01
541.16	39075.24
541.36	39105.96
541.56	39450.02
541.77	39636.39
541.97	39466.41
542.17	39343.53
542.37	39730.59
542.58	39693.73
542.78	39583.14
542.98	39908.77
543.18	39757.22
543.38	40209.82
543.59	40091.04
543.79	40048.03
543.99	39970.21
544.19	40209.82
544.40	40334.74
544.60	40580.50
544.80	40332.70
545.00	40338.84
545.20	40580.50
545.41	40713.62
545.61	40600.98
545.81	40824.21
546.01	40977.81
546.21	41018.77
546.42	41141.64
546.62	41198.99
546.82	40951.18
547.02	41252.23
547.22	41457.03
547.43	41147.79
547.63	41289.10
547.83	41100.68
548.03	41338.25
548.23	41604.49
548.44	41289.10
548.64	41637.25
548.84	41403.78
549.04	41545.09
549.24	41887.10
549.45	42055.04
549.65	41686.40
549.85	41514.37
550.05	42243.45
550.25	42106.24
550.45	42454.39
550.66	42157.44
550.86	42071.42
551.06	42564.98
551.26	42409.34
551.46	42747.25
551.66	42571.13
551.87	42351.99
552.07	42622.33
552.27	42667.38
552.47	42997.10
552.67	43154.80
552.87	42956.14
553.07	42642.81
553.28	42904.95
553.48	43464.04
553.68	42368.38
553.88	43505.00
554.08	43464.04
554.28	43347.31
554.48	43418.99
554.69	43740.52
554.89	43355.50
555.09	43545.96
555.29	43597.16
555.49	43390.31
555.69	43361.64
555.89	43423.08
556.10	43711.84
556.30	43730.28
556.50	43681.13
556.70	43365.74
556.90	44008.80
557.10	44211.55
557.30	43285.87
557.50	44586.33
557.70	44164.45
557.91	44064.10
558.11	44064.10
558.31	44045.66
558.51	44414.30
558.71	44340.57
558.91	44242.27
559.11	44449.11
559.31	44193.12
559.51	44297.56
559.72	44766.55
559.92	44359.00
560.12	44250.46
560.32	44479.83
560.52	44744.02
560.72	45110.61
560.92	44944.72
561.12	44891.48
561.32	44926.29
561.52	44356.96
561.72	45251.92
561.93	44727.64
562.13	44604.76
562.33	44782.93
562.53	45026.64
562.73	44989.78
562.93	45086.03
563.13	45266.25
563.33	45163.85
563.53	45475.15
563.73	44997.97
563.93	45061.46
564.13	45696.33
564.33	45356.36
564.53	45231.44
564.74	45804.87
564.94	45440.33
565.14	45524.30
565.34	45520.20
565.54	45761.86
565.74	45737.29
565.94	46046.53
566.14	45755.72
566.34	45444.43
566.54	46021.95
566.74	45331.79
566.94	45815.11
567.14	45815.11
567.34	45860.16
567.54	45921.60
567.74	45409.61
567.94	46099.78
568.14	46028.10
568.34	46290.24
568.54	46069.06
568.74	46499.13
568.94	46701.88
569.14	46468.41
569.34	46552.38
569.54	46343.48
569.75	46419.26
569.95	46398.78
570.15	46839.09
570.35	46558.52
570.55	46597.43
570.75	46644.54
570.95	46406.97
571.15	46701.88
571.35	46859.57
571.55	46902.58
571.75	46878.00
571.95	47193.39
572.15	46624.06
572.35	47328.56
572.55	47314.22
572.75	46908.72
572.95	47127.86
573.15	47195.44
573.35	47234.35
573.55	47113.52
573.75	47590.70
573.95	47236.40
574.15	47379.76
574.35	47523.11
574.55	47232.30
574.75	47140.14
574.95	47430.96
575.15	47723.82
575.34	47406.38
575.54	47539.50
575.74	47465.77
575.94	47985.96
576.14	47875.37
576.34	47981.86
576.54	47494.44
576.74	47834.41
576.94	47756.58
577.14	48024.87
577.34	48219.42
577.54	47961.38
577.74	48303.39
577.94	48248.10
578.14	48305.44
578.34	48669.98
578.54	47568.17
578.74	47945.00
578.94	48796.95
579.14	48444.70
579.34	48465.18
579.54	48723.22
579.74	49151.25
579.94	49028.37
580.13	49030.42
580.33	48956.69
580.53	48895.25
580.73	49497.36
580.93	48921.88
581.13	49181.97
581.33	49161.49
581.53	49489.16
581.73	49239.31
581.93	49304.85
582.13	49526.03
582.33	49530.12
582.53	49149.20
582.73	49624.33
582.92	49435.92
583.12	49552.65
583.32	49446.16
583.52	49585.42
583.72	50060.55
583.92	49728.78
584.12	49601.80
584.32	50144.51
584.52	50205.95
584.72	50349.31
584.92	50355.46
585.11	50629.88
585.31	50257.15
585.51	50205.95
585.71	50064.64
585.91	50867.45
586.11	50429.18
586.31	50699.51
586.51	50609.40
586.71	50658.56
586.91	51057.91
587.10	51188.98
587.30	50957.56
587.50	50676.99
587.70	50926.84
587.90	51361.01
588.10	51211.51
588.30	51055.86
588.50	51156.21
588.69	51195.12
588.89	51352.82
589.09	51266.80
589.29	51606.76
589.49	51614.96
589.69	50826.49
589.89	51555.57
590.08	51586.28
590.28	51223.79
590.48	51340.53
590.68	50980.09
590.88	51881.19
591.08	51756.27
591.28	51168.50
591.47	52085.99
591.67	51815.66
591.87	51657.96
592.07	51625.20
592.27	52176.10
592.47	51827.95
592.67	51848.42
592.86	51780.84
593.06	52364.51
593.26	52253.92
593.46	52196.58
593.66	52540.64
593.86	51985.64
594.05	52221.16
594.25	52606.17
594.45	52090.09
594.65	52270.31
594.85	52384.99
595.05	52241.63
595.24	53144.79
595.44	52415.71
595.64	52688.09
595.84	52505.82
596.04	52573.41
596.23	53239.00
596.43	53093.59
596.63	52718.81
596.83	52704.48
597.03	53011.67
597.22	53673.16
597.42	53245.14
597.62	53570.77
597.82	53658.83
598.02	53126.36
598.21	53474.51
598.41	53214.42
598.61	53572.81
598.81	53132.50
599.01	53363.92
599.20	53458.13
599.40	53359.83
599.60	53834.95
599.80	53613.77
600.00	54035.66
600.19	54027.46
600.39	53460.18
600.59	54039.75
600.79	53753.04
600.98	54222.02
601.18	54402.24
601.38	54830.27
601.58	54326.47
601.78	54648.00
601.97	54615.23
602.17	55137.46
602.37	54666.43
602.57	54473.92
602.76	54975.67
602.96	54363.33
603.16	54703.29
603.36	54531.26
603.55	55307.44
603.75	55080.12
603.95	55037.11
604.15	55121.08
604.34	54885.56
604.54	55465.14
604.74	55346.36
604.94	55360.69
605.13	55458.99
605.33	55538.86
605.53	55002.30
605.73	55264.44
605.92	55178.42
606.12	55516.34
606.32	55696.56
606.52	55391.41
606.71	55284.92
606.91	55758.00
607.11	55637.17
607.30	56206.50
607.50	56257.70
607.70	56218.79
607.90	55704.75
608.09	55850.16
608.29	55893.16
608.49	56206.50
608.68	55784.62
608.88	56202.41
609.08	56290.47
609.28	56286.37
609.47	56294.56
609.67	56710.30
609.87	56466.59
610.06	56194.21
610.26	56089.77
610.46	56335.52
610.66	56192.17
610.85	56528.03
611.05	56333.48
611.25	56360.10
611.44	56269.99
611.64	55991.47
611.84	55993.51
612.03	56374.44
612.23	56243.37
612.43	56587.42
612.62	56444.07
612.82	56433.83
613.02	56759.45
613.21	56769.69
613.41	56528.03
613.61	56636.58
613.80	56042.66
614.00	56634.53
614.20	56509.60
614.39	56464.55
614.59	56794.27
614.79	56575.14
614.98	56568.99
615.18	56652.96
615.38	56517.79
615.57	56566.94
615.77	56898.72
615.97	56919.20
616.16	56456.35
616.36	56558.75
616.56	56999.07
616.75	56902.81
616.95	56861.85
617.15	56816.80
617.34	56794.27
617.54	56612.00
617.74	56722.59
617.93	57191.58
618.13	56130.73
618.32	56669.34
618.52	57068.70
618.72	56478.88
618.91	56546.47
619.11	56890.52
619.31	57123.99
619.50	56781.98
619.70	56562.85
619.90	56661.15
620.09	56652.96
620.29	56665.25
620.48	56732.83
620.68	56956.06
620.88	56771.74
621.07	57083.03
621.27	56980.63
621.46	56556.70
621.66	56718.49
621.86	56859.80
622.05	56579.23
622.25	57103.51
622.44	56792.22
622.64	56446.11
622.84	57029.79
623.03	56194.21
623.23	56868.00
623.42	56997.02
623.62	56878.24
623.82	56960.15
624.01	56636.58
624.21	56741.02
624.40	56677.54
624.60	56646.82
624.80	56994.97
624.99	56861.85
625.19	56415.40
625.38	57267.35
625.58	56935.58
625.77	57273.49
625.97	57121.94
626.17	56448.16
626.36	56554.66
626.56	56937.63
626.75	56317.09
626.95	57513.11
627.14	56820.89
627.34	57267.35
627.54	56554.66
627.73	56644.77
627.93	56689.82
628.12	56640.67
628.32	56607.90
628.51	56562.85
628.71	57064.60
628.90	56814.75
629.10	56853.66
629.30	56986.78
629.49	57089.18
629.69	56669.34
629.88	57173.14
630.08	56736.93
630.27	57005.21
630.47	56747.17
630.66	56919.20
630.86	57203.86
631.05	56575.14
631.25	56927.39
631.44	57121.94
631.64	56728.73
631.84	56718.49
632.03	57226.39
632.23	57054.36
632.42	57394.32
632.62	56806.56
632.81	56919.20
633.01	57021.59
633.20	57062.55
633.40	57115.80
633.59	56847.52
633.79	56798.37
633.98	57107.61
634.18	57111.70
634.37	57263.25
634.57	56839.32
634.76	57291.93
634.96	57271.45
635.15	56962.20
635.35	57291.93
635.54	57083.03
635.74	57668.75
635.93	56704.16
636.13	57537.68
636.32	57351.32
636.52	57046.17
636.71	57281.69
636.91	57152.66
637.10	57427.09
637.30	57212.06
637.49	57085.08
637.69	57492.63
637.88	57607.31
638.08	57154.71
638.27	57685.14
638.46	57535.63
638.66	57105.56
638.85	57521.30
639.05	57564.31
639.24	57259.16
639.44	57109.66
639.63	57365.65
639.83	57791.63
640.02	57703.57
640.22	57490.58
640.41	57693.33
640.61	56894.62
640.80	57523.35
640.99	57160.86
641.19	57937.04
641.38	57515.15
641.58	57640.08
641.77	57279.64
641.97	57328.79
642.16	57103.51
642.36	57666.70
642.55	58348.68
642.74	57275.54
642.94	58182.79
643.13	57918.60
643.33	57463.96
643.52	57580.69
643.72	57750.67
643.91	57767.05
644.10	57435.28
644.30	57891.98
644.49	57924.75
644.69	58496.13
644.88	57599.12
645.08	57668.75
645.27	57869.45
645.46	57293.97
645.66	57861.26
645.85	57746.57
646.05	57980.04
646.24	57996.43
646.43	57758.86
646.63	58350.73
646.82	58463.36
647.02	58004.62
647.21	58393.73
647.40	58279.05
647.60	57881.74
647.79	58549.38
647.99	58430.60
648.18	57648.27
648.37	58676.35
648.57	58823.81
648.76	58311.81
648.96	58082.44
649.15	58418.31
649.34	58338.44
649.54	58438.79
649.73	57889.93
649.92	58459.27
650.12	58461.32
650.31	58379.40
650.51	58414.21
650.70	58602.63
650.89	58092.68
651.09	58965.12
651.28	58700.93
651.47	58539.14
651.67	58537.09
651.86	58868.86
652.06	58287.24
652.25	58795.13
652.44	58715.26
652.64	58569.86
652.83	58541.19
653.02	58410.12
653.22	58506.37
653.41	58344.58
653.60	58250.38
653.80	58227.85
653.99	58643.59
654.18	58680.45
654.38	58354.82
654.57	58674.30
654.76	58602.63
654.96	58274.95
655.15	58113.16
655.34	58528.90
655.54	58115.21
655.73	58432.64
655.92	58807.42
656.12	58799.23
656.31	58504.32
656.50	58754.18
656.70	59014.27
656.89	58758.27
657.08	58557.57
657.28	58866.81
657.47	58680.45
657.66	59012.22
657.86	59014.27
658.05	59212.92
658.24	58678.40
658.43	58631.30
658.63	59022.46
658.82	58811.52
659.01	59118.71
659.21	59044.99
659.40	58680.45
659.59	58881.15
659.79	58934.40
659.98	59114.62
660.17	59219.06
660.36	58821.76
660.56	58918.01
660.75	59266.17
660.94	58995.84
661.14	59106.43
661.33	59171.96
661.52	58582.15
661.71	59188.34
661.91	58612.87
662.10	58451.08
662.29	59219.06
662.49	58846.33
662.68	58885.25
662.87	58913.92
663.06	59104.38
663.26	58752.13
663.45	59165.82
663.64	58875.01
663.83	59413.62
664.03	59038.84
664.22	58905.73
664.41	59092.09
664.60	58938.49
664.80	58872.96
664.99	58700.93
665.18	58406.02
665.37	58889.34
665.57	59079.80
665.76	58801.28
665.95	58922.11
666.14	58909.82
666.34	59163.77
666.53	58776.70
666.72	58936.44
666.91	59087.99
667.11	58610.82
667.30	59163.77
667.49	59006.08
667.68	58600.58
667.87	58549.38
668.07	59087.99
668.26	59100.28
668.45	59077.75
668.64	58406.02
668.84	59581.55
669.03	59061.37
669.22	59004.03
669.41	58991.74
669.60	59120.76
669.80	58748.03
669.99	58907.77
670.18	58979.45
670.37	58365.06
670.57	59026.56
670.76	58639.49
670.95	58979.45
671.14	58815.61
671.33	58942.59
671.53	59051.13
671.72	58862.72
671.91	58754.18
672.10	58553.47
672.29	58756.22
672.48	58948.73
672.68	58821.76
672.87	58694.78
673.06	59110.52
673.25	58793.09
673.44	58795.13
673.64	58649.73
673.83	58446.98
674.02	58578.05
674.21	58498.18
674.40	58805.37
674.59	58371.21
674.79	58193.03
674.98	58496.13
675.17	58903.68
675.36	58750.08
675.55	58905.73
675.74	58743.94
675.94	58606.72
676.13	58698.88
676.32	58956.92
676.51	59247.74
676.70	59085.95
676.89	58928.25
677.08	58958.97
677.28	58250.38
677.47	58985.60
677.66	58907.77
677.85	58649.73
678.04	58795.13
678.23	58948.73
678.42	58586.24
678.62	58446.98
678.81	58844.29
679.00	58500.23
679.19	59194.49
679.38	58922.11
679.57	58242.18
679.76	58635.39
679.96	58340.49
680.15	58672.26
680.34	58612.87
680.53	58293.38
680.72	58432.64
680.91	58946.68
681.10	58510.47
681.29	58821.76
681.48	58479.75
681.68	58299.53
681.87	58690.69
682.06	58569.86
682.25	58004.62
682.44	58504.32
682.63	58606.72
682.82	58293.38
683.01	58258.57
683.20	58086.54
683.39	58455.17
683.59	58076.30
683.78	58004.62
683.97	57627.79
684.16	58094.73
684.35	58184.84
684.54	58287.24
684.73	57595.03
684.92	58180.74
685.11	57865.36
685.30	57547.92
685.49	58299.53
685.69	57683.09
685.88	57756.81
686.07	57891.98
686.26	57883.79
686.45	58043.53
686.64	58291.33
686.83	58070.15
687.02	57951.37
687.21	58182.79
687.40	57697.42
687.59	57832.59
687.78	57521.30
687.97	57844.88
688.16	58055.82
688.35	57517.20
688.54	57615.50
688.74	57693.33
688.93	57607.31
689.12	57662.61
689.31	57990.28
689.50	57531.54
689.69	57341.08
689.88	57119.90
690.07	57392.28
690.26	57535.63
690.45	57881.74
690.64	57564.31
690.83	57070.75
691.02	57167.00
691.21	57339.03
691.40	57242.77
691.59	57668.75
691.78	57810.06
691.97	57361.56
692.16	57697.42
692.35	57693.33
692.54	57236.63
692.73	56923.29
692.92	57113.75
693.11	57285.78
693.30	57435.28
693.49	56933.53
693.68	57287.83
693.87	57300.12
694.06	57046.17
694.25	57175.19
694.44	56841.37
694.63	56812.70
694.82	57261.21
695.01	57005.21
695.20	56573.09
695.39	56759.45
695.58	56824.99
695.77	56599.71
695.96	56628.38
696.15	56587.42
696.34	56642.72
696.53	56878.24
696.72	56935.58
696.91	56546.47
697.10	56554.66
697.29	56480.93
697.48	56540.32
697.67	56650.91
697.86	56695.97
698.05	56077.48
698.24	56415.40
698.43	55966.89
698.62	56487.07
698.81	55784.62
699.00	56683.68
699.19	56036.52
699.38	56138.92
699.57	56091.82
699.76	56767.65
699.95	56044.71
700.14	56386.72
700.32	56104.10
700.51	55977.13
700.70	56462.50
700.89	56007.85
701.08	56034.47
701.27	56106.15
701.46	56280.23
701.65	55319.73
701.84	56030.38
702.03	55796.91
702.22	55680.17
702.41	55825.58
702.60	55702.70
702.79	55518.38
702.98	55305.40
703.17	55684.27
703.35	55231.67
703.54	55491.76
703.73	55866.54
703.92	55682.22
704.11	55891.12
704.30	55694.51
704.49	55336.12
704.68	54926.52
704.87	55497.91
705.06	55235.77
705.25	55563.44
705.43	55139.51
705.62	55284.92
705.81	55844.01
706.00	55338.16
706.19	54953.15
706.38	55540.91
706.57	55534.77
706.76	54717.63
706.95	55325.88
707.14	55448.75
707.32	55088.31
707.51	54727.87
707.70	54985.91
707.89	55141.56
708.08	54402.24
708.27	54867.13
708.46	55256.24
708.65	54801.60
708.84	54809.79
709.02	54897.85
709.21	54926.52
709.40	54777.02
709.59	54762.68
709.78	54207.68
709.97	54781.12
710.16	54383.81
710.34	54367.43
710.53	54152.39
710.72	54346.95
710.91	54873.27
711.10	54404.29
711.29	54754.49
711.48	54400.19
711.66	54471.87
711.85	54109.38
712.04	54228.16
712.23	54326.47
712.42	54088.90
712.61	54359.23
712.80	54314.18
712.98	53771.47
713.17	53806.28
713.36	54004.94
713.55	53955.78
713.74	54170.82
713.93	54240.45
714.11	53896.39
714.30	53794.00
714.49	54047.94
714.68	54324.42
714.87	53710.03
715.06	53720.27
715.24	53976.26
715.43	53544.14
715.62	53427.41
715.81	53568.72
716.00	53669.07
716.18	53359.83
716.37	53089.49
716.56	52995.29
716.75	53433.55
716.94	53148.88
717.12	53097.69
717.31	53083.35
717.50	52927.70
717.69	53089.49
717.88	53032.15
718.06	53132.50
718.25	53583.05
718.44	52839.64
718.63	52999.38
718.82	52722.91
719.00	52856.03
719.19	52532.45
719.38	53040.34
719.57	52231.40
719.76	52212.96
719.94	51793.13
720.13	52112.61
720.32	52489.44
720.51	52212.96
720.69	52499.68
720.88	52118.76
721.07	52114.66
721.26	51565.81
721.44	52045.03
721.63	52327.65
721.82	51862.76
722.01	51893.48
722.20	52688.09
722.38	51827.95
722.57	51467.50
722.76	51653.87
722.95	51512.56
723.13	51438.83
723.32	51229.94
723.51	51444.98
723.70	50777.34
723.88	51336.43
724.07	50892.02
724.26	51369.20
724.44	50855.16
724.63	51514.61
724.82	51367.15
725.01	50722.04
725.19	50947.32
725.38	50767.10
725.57	50910.46
725.76	51072.24
725.94	50509.05
726.13	50644.22
726.32	50746.62
726.51	50267.39
726.69	50978.04
726.88	51086.58
727.07	50459.90
727.25	50799.86
727.44	50812.15
727.63	50396.42
727.82	50701.56
728.00	50558.20
728.19	50507.01
728.38	50584.83
728.56	50222.34
728.75	50980.09
728.94	50656.51
729.12	50464.00
729.31	50453.76
729.50	50410.75
729.69	50588.92
729.87	50294.02
730.06	51010.81
730.25	50541.82
730.43	51148.02
730.62	50138.37
730.81	50558.20
730.99	50609.40
731.18	50291.97
731.37	50386.18
731.55	50777.34
731.74	50846.97
731.93	50593.02
732.11	50660.60
732.30	50507.01
732.49	50287.87
732.67	50031.88
732.86	50177.28
733.05	50384.13
733.23	49992.97
733.42	50066.69
733.61	50060.55
733.79	49988.87
733.98	50347.26
734.17	49911.05
734.35	49798.41
734.54	50386.18
734.73	50126.08
734.91	50005.25
735.10	49747.21
735.29	50251.01
735.47	49935.62
735.66	49960.20
735.84	49784.07
736.03	49892.61
736.22	50375.94
736.40	49913.09
736.59	50015.49
736.78	49657.10
736.96	49818.89
737.15	49849.61
737.33	50056.45
737.52	49509.64
737.71	49837.32
737.89	49620.23
738.08	49401.10
738.27	49184.02
738.45	49894.66
738.64	49839.37
738.82	49653.00
739.01	49356.05
739.20	49689.87
739.38	49597.71
739.57	49777.93
739.75	49405.20
739.94	49296.66
740.13	49214.74
740.31	49265.94
740.50	49165.59
740.68	49499.40
740.87	49583.37
741.06	49464.59
741.24	49153.30
741.43	49153.30
741.61	49009.94
741.80	48913.69
741.99	48821.53
742.17	48882.97
742.36	49579.28
742.54	48995.60
742.73	49067.28
742.91	49057.04
743.10	48485.66
743.29	49055.00
743.47	49296.66
743.66	48870.68
743.84	48915.73
744.03	49243.41
744.21	48602.39
744.40	49186.07
744.59	48424.22
744.77	48469.28
744.96	48612.63
745.14	48620.83
745.33	49034.52
745.51	48444.70
745.70	48448.80
745.88	48553.24
746.07	48379.17
746.26	48135.46
746.44	48323.87
746.63	48379.17
746.81	48444.70
747.00	48350.49
747.18	48145.70
747.37	47988.00
747.55	48186.66
747.74	48473.37
747.92	47705.38
748.11	48121.12
748.29	48258.34
748.48	48346.40
748.66	48227.62
748.85	48319.77
749.03	47801.64
749.22	48160.03
749.41	48051.49
749.59	48213.28
749.78	47889.70
749.96	47400.24
750.15	47891.75
750.33	48164.13
750.52	47506.73
750.70	47750.44
750.89	47263.02
751.07	47238.45
751.26	47373.61
751.44	47396.14
751.63	47113.52
751.81	47316.27
752.00	47027.51
752.18	47840.55
752.37	47410.48
752.55	47224.11
752.74	46976.31
752.92	47168.82
753.10	46951.73
753.29	47248.69
753.47	46918.96
753.66	46572.86
753.84	47138.10
754.03	46843.19
754.21	46978.36
754.40	47224.11
754.58	47164.72
754.77	46583.10
754.95	46765.37
755.14	46669.11
755.32	46683.45
755.51	46245.18
755.69	46368.06
755.88	46427.45
756.06	46751.03
756.24	46568.76
756.43	46107.97
756.61	46357.82
756.80	46318.91
756.98	46325.05
757.17	46187.84
757.35	46675.26
757.54	46579.00
757.72	46128.45
757.90	46331.20
758.09	45581.64
758.27	46040.39
758.46	45741.38
758.64	45751.62
758.83	45921.60
759.01	45972.80
759.19	45417.80
759.38	45856.07
759.56	46060.87
759.75	45505.87
759.93	45999.43
760.12	45677.90
760.30	45878.60
760.48	45602.12
760.67	45618.50
760.85	45843.78
761.04	45634.89
761.22	45684.04
761.40	45737.29
761.59	45360.46
761.77	45059.41
761.96	45208.91
762.14	44848.47
762.32	44707.16
762.51	45659.46
762.69	44844.37
762.88	45049.17
763.06	45151.57
763.24	45280.59
763.43	45159.76
763.61	45137.23
763.80	44897.62
763.98	45454.67
764.16	44887.38
764.35	44821.84
764.53	44215.65
764.72	44455.26
764.90	44598.62
765.08	44385.63
765.27	44424.54
765.45	44213.60
765.63	44113.25
765.82	44217.69
766.00	43933.03
766.18	44174.69
766.37	44588.38
766.55	44129.63
766.74	44014.94
766.92	44320.09
767.10	44250.46
767.29	44203.36
767.47	43687.27
767.65	43863.39
767.84	43605.35
768.02	43756.90
768.20	43431.27
768.39	43816.29
768.57	43961.70
768.75	43648.36
768.94	44174.69
769.12	43416.94
769.30	43478.38
769.49	43197.80
769.67	43246.96
769.85	43304.30
770.04	42878.32
770.22	43054.45
770.40	43113.84
770.59	43019.63
770.77	43240.81
770.95	42947.95
771.14	42646.90
771.32	42759.54
771.50	42517.88
771.69	42757.49
771.87	43087.21
772.05	42927.47
772.24	42636.66
772.42	42804.59
772.60	42810.74
772.78	42700.15
772.97	42630.52
773.15	42810.74
773.33	42466.68
773.52	42331.51
773.70	42638.71
773.88	42771.83
774.07	42354.04
774.25	42296.70
774.43	42648.95
774.61	42427.77
774.80	42710.39
774.98	42761.59
775.16	42476.92
775.34	42712.44
775.53	42280.31
775.71	42591.61
775.89	42591.61
776.08	42761.59
776.26	42728.82
776.44	42517.88
776.62	42440.06
776.81	42456.44
776.99	42497.40
777.17	42818.93
777.35	42587.51
777.54	42784.12
777.72	42739.06
777.90	42607.99
778.08	42890.61
778.27	42669.43
778.45	43197.80
778.63	42751.35
778.81	42960.24
779.00	43271.53
779.18	43040.11
779.36	43173.23
779.54	43009.39
779.73	42607.99
779.91	43113.84
780.09	43232.62
780.27	42925.42
780.46	43109.74
780.64	43179.37
780.82	43193.71
781.00	42722.68
781.19	43189.61
781.37	43210.09
781.55	43119.98
781.73	43580.78
781.91	43459.94
782.10	43785.57
782.28	43124.08
782.46	43650.41
782.64	43865.44
782.82	43308.40
783.01	43220.33
783.19	43259.24
783.37	43537.77
783.55	43584.87
783.74	43744.61
783.92	43298.16
784.10	43613.54
784.28	43427.18
784.46	43257.20
784.64	43361.64
784.83	43326.83
785.01	44037.47
785.19	43488.62
785.37	43457.90
785.55	43318.64
785.74	43304.30
785.92	43406.70
786.10	43525.48
786.28	43464.04
786.46	43275.63
786.64	42841.46
786.83	43165.04
787.01	43382.12
787.19	43066.73
787.37	43017.58
787.55	43212.14
787.74	43087.21
787.92	42861.94
788.10	42995.06
788.28	42249.60
788.46	43279.72
788.64	42427.77
788.82	42941.81
789.01	42540.41
789.19	42610.04
789.37	42653.05
789.55	42513.78
789.73	42182.01
789.91	41891.20
790.09	42098.05
790.28	42038.65
790.46	41991.55
790.64	42118.53
790.82	42311.03
791.00	41645.44
791.18	41794.95
791.36	41926.02
791.55	41852.29
791.73	41510.28
791.91	41452.94
792.09	41708.93
792.27	41461.13
792.45	41577.86
792.63	41387.40
792.81	41285.00
793.00	41123.21
793.18	40918.42
793.36	41293.19
793.54	41006.48
793.72	41115.02
793.90	40899.98
794.08	40746.39
794.26	40945.04
794.44	40099.23
794.62	40455.57
794.81	40598.93
794.99	40355.22
795.17	40074.65
795.35	40150.43
795.53	39878.05
795.71	40328.60
795.89	39486.89
796.07	39832.99
796.25	39925.15
796.43	39720.35
796.61	39329.19
796.80	39400.87
796.98	39523.75
797.16	39118.25
797.34	39413.16
797.52	38968.75
797.70	39837.09
797.88	39077.29
798.06	38716.85
798.24	38993.32
798.42	39017.90
798.60	38446.52
798.78	38598.07
798.96	38520.24
799.14	38354.36
799.32	38647.22
799.51	38319.54
799.69	38882.73
799.87	38260.15
800.05	37969.34
800.23	38151.61
800.41	37774.78
800.59	37770.69
800.77	37449.16
800.95	37385.67
801.13	37674.43
801.31	37666.24
801.49	37547.46
801.67	37041.61
801.85	37121.48
802.03	37156.30
802.21	36650.45
802.39	37303.75
802.57	37068.23
802.75	36902.35
802.93	36928.97
803.11	36840.91
803.29	36122.07
803.47	36814.29
803.65	36470.23
803.83	36199.90
804.01	36144.60
804.19	36326.87
804.37	35960.28
804.55	36113.88
804.73	36185.56
804.91	36154.84
805.09	35913.18
805.27	35845.60
805.45	35919.32
805.63	35700.19
805.81	35868.12
805.99	35403.24
806.17	35741.15
806.35	35743.20
806.53	35319.27
806.71	35425.76
806.89	35587.55
807.07	35292.65
807.25	35227.11
807.43	34817.52
807.61	35423.72
807.79	35020.27
807.97	34653.68
808.15	35157.48
808.33	34479.60
808.51	34657.78
808.69	34694.64
808.87	34158.07
809.05	34469.36
809.23	34375.16
809.41	33992.19
809.59	34520.56
809.77	34463.22
809.95	33818.11
810.13	33998.33
810.31	33631.74
810.49	33754.62
810.67	33955.32
810.84	33965.56
811.02	33713.66
811.20	33654.27
811.38	33781.24
811.56	33308.16
811.74	33719.81
811.92	32966.15
812.10	33240.58
812.28	33320.45
812.46	32919.05
812.64	33134.09
812.82	32921.10
813.00	32757.26
813.18	33009.16
813.36	32671.25
813.53	32921.10
813.71	33029.64
813.89	32624.14
814.07	32468.50
814.25	32308.76
814.43	32388.63
814.61	32273.94
814.79	32491.02
814.97	32124.44
815.15	32548.37
815.33	32093.72
815.50	32017.94
815.68	32208.40
815.86	32253.46
816.04	31919.64
816.22	31927.83
816.40	31737.37
816.58	31692.32
816.76	31675.93
816.94	31833.63
817.11	31757.85
817.29	31383.07
817.47	31555.10
817.65	31049.25
817.83	31548.96
818.01	31143.46
818.19	31143.46
818.37	31098.41
818.54	31282.72
818.72	30797.35
818.90	31325.73
819.08	31079.97
819.26	30953.00
819.44	31094.31
819.62	30985.77
819.80	30887.46
819.97	30797.35
820.15	30455.34
820.33	30330.42
820.51	31028.77
820.69	30615.08
820.87	30389.81
821.05	30645.80
821.22	30436.91
821.40	30115.38
821.58	30268.98
821.76	30430.77
821.94	30336.56
822.12	30166.58
822.29	30420.53
822.47	29658.68
822.65	30338.61
822.83	30180.92
823.01	30025.27
823.19	29943.35
823.36	29683.26
823.54	29929.02
823.72	30066.23
823.90	29709.88
824.08	29152.84
824.25	29795.90
824.43	29247.04
824.61	29738.55
824.79	29670.97
824.97	29580.86
825.15	29480.51
825.32	29380.16
825.50	28927.56
825.68	29314.62
825.86	29328.96
826.04	29169.22
826.21	29029.96
826.39	29335.10
826.57	29093.44
826.75	29068.87
826.93	28612.17
827.10	29101.64
827.28	28763.72
827.46	28864.07
827.64	28943.94
827.81	28638.80
827.99	28618.32
828.17	28407.37
828.35	28520.01
828.53	28685.90
828.70	28773.96
828.88	28608.08
829.06	28507.72
829.24	28624.46
829.41	28382.80
829.59	28780.10
829.77	28413.52
829.95	28499.53
830.12	28044.88
830.30	28356.18
830.48	28137.04
830.66	28307.02
830.84	28362.32
831.01	28286.54
831.19	28214.87
831.37	28247.63
831.55	28071.51
831.72	27682.39
831.90	27749.98
832.08	27983.44
832.25	27891.29
832.43	27809.37
832.61	27795.03
832.79	27848.28
832.96	27551.32
833.14	27592.28
833.32	27962.97
833.50	27680.35
833.67	27680.35
833.85	27514.46
834.03	27391.58
834.20	27504.22
834.38	27475.55
834.56	27678.30
834.74	27301.47
834.91	27453.02
835.09	27377.25
835.27	26850.92
835.44	27258.46
835.62	26826.34
835.80	27088.48
835.98	27168.35
836.15	27074.15
836.33	26969.70
836.51	27106.91
836.68	26977.89
836.86	26879.59
837.04	26654.31
837.21	26752.62
837.39	26556.01
837.57	26791.53
837.75	26687.08
837.92	26199.66
838.10	26474.09
838.28	26197.62
838.45	26777.19
838.63	26424.94
838.81	26050.16
838.98	26183.28
839.16	26291.82
839.34	26138.23
839.51	26394.22
839.69	25902.71
839.87	26340.97
840.04	25998.96
840.22	26537.58
840.40	26058.35
840.57	25878.13
840.75	26044.02
840.93	25745.02
841.10	26076.79
841.28	26084.98
841.46	25923.19
841.63	26297.97
841.81	25964.15
841.98	26003.06
842.16	25771.64
842.34	25972.34
842.51	25624.18
842.69	26105.46
842.87	25548.41
843.04	25683.58
843.22	25474.68
843.40	25292.41
843.57	25499.26
843.75	25550.46
843.92	25687.67
844.10	25419.39
844.28	25642.62
844.45	25372.28
844.63	25372.28
844.81	25065.09
844.98	25366.14
845.16	25044.61
845.33	25388.67
845.51	25386.62
845.69	25208.45
845.86	25104.00
846.04	24923.78
846.21	24669.83
846.39	24921.73
846.57	24936.07
846.74	24821.38
846.92	25028.23
847.09	24966.79
847.27	24344.20
847.45	24745.61
847.62	25093.76
847.80	25022.08
847.97	24612.49
848.15	24657.54
848.32	24600.20
848.50	24800.90
848.68	24344.20
848.85	24819.33
849.03	24276.62
849.20	24206.99
849.38	24483.47
849.56	24387.21
849.73	24067.73
849.91	24467.08
850.08	24520.33
850.26	23897.75
850.43	24112.78
850.61	24161.94
850.78	24092.30
850.96	24067.73
851.14	24161.94
851.31	24268.43
851.49	24123.02
851.66	24014.48
851.84	24063.63
852.01	23930.51
852.19	23844.50
852.36	24229.52
852.54	24088.21
852.71	23365.28
852.89	23699.09
853.07	23744.15
853.24	23809.68
853.42	23858.84
853.59	23574.17
853.77	23662.23
853.94	23682.71
854.12	23717.53
854.29	23492.25
854.47	23748.25
854.64	23469.72
854.82	23258.78
854.99	23312.03
855.17	23226.01
855.34	23226.01
855.52	23398.04
855.69	23707.29
855.87	23373.47
856.04	23367.32
856.22	23039.65
856.39	23062.18
856.57	23305.88
856.74	23166.62
856.92	23115.42
857.09	23197.34
857.27	23070.37
857.44	23553.69
857.62	23170.72
857.79	23189.15
857.97	23078.56
858.14	22884.00
858.32	22912.67
858.49	22789.80
858.67	22832.80
858.84	22787.75
859.02	22646.44
859.19	22720.17
859.37	22578.86
859.54	22691.49
859.72	22630.05
859.89	22421.16
860.06	22720.17
860.24	22509.22
860.41	22525.61
860.59	22386.35
860.76	22529.70
860.94	22406.83
861.11	22419.11
861.29	22312.62
861.46	22412.97
861.64	22159.02
861.81	22175.41
861.98	22177.45
862.16	22128.30
862.33	21927.60
862.51	21915.31
862.68	22122.16
862.86	21984.94
863.03	22281.90
863.21	21984.94
863.38	21796.53
863.55	21753.52
863.73	22034.10
863.90	21833.39
864.08	21784.24
864.25	21733.04
864.43	21663.41
864.60	21741.24
864.77	21776.05
864.95	21757.62
865.12	21501.62
865.30	21978.80
865.47	21722.80
865.64	21423.80
865.82	21835.44
865.99	21472.95
866.17	21362.36
866.34	21569.21
866.51	21259.96
866.69	21382.84
866.86	21286.59
867.04	21419.71
867.21	21309.11
867.38	21118.65
867.56	21296.83
867.73	21184.19
867.91	21198.52
868.08	20926.14
868.25	20817.60
868.43	20993.73
868.60	21186.24
868.78	20850.37
868.95	21100.22
869.12	20987.58
869.30	20903.62
869.47	21067.45
869.64	20592.33
869.82	20903.62
869.99	20553.41
870.16	20944.58
870.34	20463.30
870.51	20709.06
870.69	20631.24
870.86	20565.70
871.03	20485.83
871.21	20422.34
871.38	20762.31
871.55	20412.10
871.73	20344.52
871.90	20346.57
872.07	20086.48
872.25	20061.90
872.42	20047.57
872.59	20399.82
872.77	19928.78
872.94	19959.50
873.11	20082.38
873.29	19934.93
873.46	19914.45
873.63	19898.06
873.81	19869.39
873.98	19861.20
874.15	19893.97
874.33	19707.60
874.50	19459.80
874.67	19687.12
874.85	19521.24
875.02	19410.65
875.19	19543.77
875.37	19371.74
875.54	19334.87
875.71	19537.62
875.88	19171.04
876.06	19234.52
876.23	19158.75
876.40	19115.74
876.58	19158.75
876.75	18798.31
876.92	18843.36
877.10	19189.47
877.27	19074.78
877.44	18853.60
877.61	19017.44
877.79	18851.55
877.96	19009.25
878.13	18960.09
878.31	18777.83
878.48	18867.94
878.65	18872.03
878.82	18382.57
879.00	18710.24
879.17	18697.95
879.34	18849.50
879.51	18484.97
879.69	18384.62
879.86	18288.36
880.03	18550.50
880.21	18214.63
880.38	18265.83
880.55	18407.14
880.72	18290.41
880.90	18605.80
881.07	18327.27
881.24	18306.79
881.41	18321.13
881.59	18460.39
881.76	18409.19
881.93	18116.33
882.10	18079.47
882.28	18124.52
882.45	18011.89
882.62	17987.31
882.79	18196.20
882.96	17694.45
883.14	18001.65
883.31	17944.30
883.48	18003.69
883.65	17891.06
883.83	17780.46
884.00	17766.13
884.17	17823.47
884.34	17819.38
884.51	17727.22
884.69	17708.79
884.86	17663.73
885.03	17721.07
885.20	17622.77
885.38	17620.72
885.55	17561.33
885.72	17704.69
885.89	17565.43
886.06	17594.10
886.24	17579.76
886.41	17772.27
886.58	17602.29
886.75	17706.74
886.92	17454.84
887.10	17594.10
887.27	17270.52
887.44	17327.86
887.61	17688.31
887.78	17495.80
887.95	17833.71
888.13	17422.07
888.30	17243.90
888.47	16977.66
888.64	17026.81
888.81	17108.73
888.99	16903.93
889.16	16822.02
889.33	16865.02
889.50	16854.78
889.67	16846.59
889.84	16805.63
890.01	16711.42
890.19	16946.94
890.36	16746.24
890.53	16936.70
890.70	16750.34
890.87	16920.32
891.04	16803.58
891.22	16467.72
891.39	16686.85
891.56	16447.24
891.73	16156.43
891.90	16516.87
892.07	16275.21
892.24	16801.54
892.42	16246.54
892.59	16434.95
892.76	16262.92
892.93	16613.12
893.10	16508.68
893.27	16375.56
893.44	16275.21
893.61	16379.65
893.79	16477.96
893.96	16207.62
894.13	16373.51
894.30	16318.22
894.47	16281.35
894.64	16484.10
894.81	16387.85
894.98	16240.39
895.15	16449.28
895.33	16260.87
895.50	16154.38
895.67	16103.18
895.84	16156.43
896.01	16019.21
896.18	16045.84
896.35	16269.06
896.52	16068.36
896.69	16000.78
896.86	16131.85
897.04	16150.28
897.21	16054.03
897.38	15998.73
897.55	16228.10
897.72	16256.78
897.89	16121.61
898.06	16219.91
898.23	16015.12
898.40	16131.85
898.57	16197.38
898.74	16029.45
898.91	15847.18
899.08	15785.74
899.26	15906.57
899.43	16152.33
899.60	15978.25
899.77	16039.69
899.94	16051.98
900.11	15718.16
900.28	15951.63
900.45	15994.64
900.62	15640.34
900.79	16068.36
900.96	15843.09
901.13	15894.29
901.30	15851.28
901.47	15820.56
901.64	16150.28
901.81	15783.70
901.98	15820.56
902.15	16060.17
902.32	15619.86
902.49	15769.36
902.66	15707.92
902.83	15744.78
903.01	15703.82
903.18	15904.53
903.35	16043.79
903.52	15847.18
903.69	15828.75
903.86	15912.72
904.03	15922.96
904.20	15875.85
904.37	16240.39
904.54	15773.46
904.71	15929.10
904.88	15767.31
905.05	15685.39
905.22	15666.96
905.39	15879.95
905.56	15775.50
905.73	15771.41
905.90	15927.05
906.07	15763.22
906.24	15814.41
906.41	15779.60
906.58	15787.79
906.75	15795.98
906.92	15632.15
907.09	15650.58
907.26	15802.13
907.43	15607.57
907.60	15587.09
907.77	15730.45
907.93	15826.70
908.10	15738.64
908.27	15638.29
908.44	15576.85
908.61	15466.26
908.78	15638.29
908.95	15705.87
909.12	15560.47
909.29	15697.68
909.46	15582.99
909.63	15804.17
909.80	15800.08
909.97	15730.45
910.14	15554.32
910.31	15638.29
910.48	15511.32
910.65	15580.95
910.82	15525.65
910.99	15398.68
911.16	15361.81
911.33	15505.17
911.50	15304.47
911.66	15255.32
911.83	15304.47
912.00	15333.14
912.17	15193.88
912.34	15279.89
912.51	15413.01
912.68	15081.24
912.85	15271.70
913.02	15314.71
913.19	15044.38
913.36	15218.46
913.53	15175.45
913.70	14858.01
913.86	15361.81
914.03	15091.48
914.20	14917.40
914.37	15048.47
914.54	15081.24
914.71	14802.72
914.88	14960.41
915.05	14753.57
915.22	14860.06
915.39	14638.88
915.55	14753.57
915.72	14692.13
915.89	14659.36
916.06	14518.05
916.23	14485.28
916.40	14425.89
916.57	14405.41
916.74	14427.94
916.91	14382.88
917.07	14466.85
917.24	14350.12
917.41	14485.28
917.58	14364.45
917.75	14143.27
917.92	14155.56
918.09	14227.24
918.26	14096.17
918.42	14163.75
918.59	14456.61
918.76	14038.83
918.93	13860.65
919.10	13946.67
919.27	14044.97
919.44	14001.96
919.60	14051.11
919.77	13977.39
919.94	13817.65
920.11	13764.40
920.28	13823.79
920.45	13635.38
920.61	13539.12
920.78	13461.30
920.95	13485.87
921.12	13532.98
921.29	13547.31
921.46	13313.84
921.62	13125.43
921.79	13414.20
921.96	13356.85
922.13	13332.28
922.30	13127.48
922.47	13225.78
922.63	13063.99
922.80	12730.17
922.97	12638.02
923.14	12922.68
923.31	12898.11
923.47	12832.57
923.64	12973.88
923.81	12691.26
923.98	12640.06
924.15	12554.05
924.32	12554.05
924.48	12842.81
924.65	12748.61
924.82	12463.94
924.99	12465.99
925.15	12164.93
925.32	12414.79
925.49	12293.96
925.66	12298.05
925.83	12169.03
925.99	11894.60
926.16	12193.61
926.33	12265.28
926.50	11841.36
926.67	12144.45
926.83	12138.31
927.00	12048.20
927.17	11951.95
927.34	11796.30
927.50	11802.44
927.67	12085.06
927.84	11894.60
928.01	11677.52
928.17	11687.76
928.34	11538.26
928.51	11446.10
928.68	11419.47
928.84	11403.09
929.01	11140.95
929.18	11224.92
929.35	11288.40
929.51	11140.95
929.68	11005.78
929.85	11056.98
930.02	11192.15
930.18	10995.54
930.35	10964.82
930.52	11091.80
930.69	10977.11
930.85	11050.84
931.02	10557.28
931.19	10792.80
931.36	10522.46
931.52	10704.73
931.69	10704.73
931.86	10800.99
932.02	10815.32
932.19	10563.42
932.36	10485.60
932.53	10364.77
932.69	10231.65
932.86	10311.52
933.03	10235.75
933.19	10000.23
933.36	10174.31
933.53	10026.86
933.70	9844.59
933.86	10172.26
934.03	10112.87
934.20	9822.06
934.36	9903.98
934.53	9690.99
934.70	9346.93
934.86	9678.70
935.03	9574.25
935.20	9338.74
935.36	9416.56
935.53	9310.07
935.70	9316.21
935.86	9181.04
936.03	8937.34
936.20	8906.62
936.36	8963.96
936.53	8949.62
936.70	8662.91
936.86	8941.43
937.03	8603.52
937.20	8576.89
937.36	8687.48
937.53	8265.60
937.70	8312.71
937.86	8286.08
938.03	8353.66
938.20	8167.30
938.36	8036.23
938.53	7899.02
938.70	7804.81
938.86	7833.48
939.03	7548.81
939.20	7585.68
939.36	7514.00
939.53	7305.10
939.70	7456.65
939.86	7210.90
940.03	7237.52
940.19	7184.27
940.36	6897.56
940.53	6971.29
940.69	6823.83
940.86	6922.13
941.03	6823.83
941.19	6752.15
941.36	6735.77
941.52	6703.00
941.69	6526.88
941.86	6440.86
942.02	6352.80
942.19	6350.75
942.35	6375.33
942.52	6279.07
942.69	6064.04
942.85	6025.12
943.02	6088.61
943.18	5967.78
943.35	5973.92
943.52	5939.11
943.68	5771.18
943.85	5885.86
944.01	5951.40
944.18	5871.53
944.35	5760.94
944.51	5734.31
944.68	5681.07
944.84	5644.20
945.01	5652.39
945.17	5613.48
945.34	5676.97
945.51	5631.91
945.67	5590.95
945.84	5664.68
946.00	5521.32
946.17	5566.38
946.33	5453.74
946.50	5550.00
946.67	5554.09
946.83	5590.95
947.00	5693.35
947.16	5560.24
947.33	5576.62
947.49	5418.93
947.66	5574.57
947.82	5466.03
947.99	5558.19
948.16	5425.07
948.32	5341.10
948.49	5451.69
948.65	5537.71
948.82	5502.89
948.98	5472.17
949.15	5566.38
949.31	5457.84
949.48	5576.62
949.64	5494.70
949.81	5504.94
949.97	5326.77
950.14	5416.88
950.30	5392.30
950.47	5599.15
950.63	5595.05
950.80	5423.02
950.96	5420.97
951.13	5605.29
951.30	5474.22
951.46	5502.89
951.63	5500.84
951.79	5597.10
951.96	5732.26
952.12	5650.35
952.29	5586.86
952.45	5492.65
952.62	5552.04
952.78	5521.32
952.94	5654.44
953.11	5590.95
953.27	5525.42
953.44	5742.50
953.60	5840.81
953.77	5654.44
953.93	5619.63
954.10	5603.24
954.26	5627.82
954.43	5646.25
954.59	5631.91
954.76	5746.60
954.92	5664.68
955.09	5494.70
955.25	5539.76
955.42	5593.00
955.58	5709.74
955.75	5599.15
955.91	5552.04
956.07	5783.46
956.24	5605.29
956.40	5582.76
956.57	5742.50
956.73	5486.51
956.90	5676.97
957.06	5662.63
957.23	5556.14
957.39	5595.05
957.56	5656.49
957.72	5590.95
957.88	5476.27
958.05	5734.31
958.21	5736.36
958.38	5758.89
958.54	5697.45
958.71	5773.22
958.87	5679.02
959.03	5668.78
959.20	5740.46
959.36	5496.75
959.53	5697.45
959.69	5517.23
959.85	5707.69
960.02	5603.24
960.18	5652.39
960.35	5705.64
960.51	5711.78
960.68	5529.52
960.84	5666.73
961.00	5693.35
961.17	5593.00
961.33	5603.24
961.50	5593.00
961.66	5705.64
961.82	5558.19
961.99	5719.98
962.15	5615.53
962.31	5605.29
962.48	5719.98
962.64	5709.74
962.81	5615.53
962.97	5476.27
963.13	5570.48
963.30	5556.14
963.46	5482.41
963.62	5502.89
963.79	5455.79
963.95	5490.60
964.12	5408.69
964.28	5552.04
964.44	5435.31
964.61	5486.51
964.77	5500.84
964.93	5558.19
965.10	5480.36
965.26	5447.60
965.42	5500.84
965.59	5545.90
965.75	5554.09
965.92	5468.08
966.08	5447.60
966.24	5410.73
966.41	5314.48
966.57	5332.91
966.73	5367.73
966.90	5420.97
967.06	5416.88
967.22	5386.16
967.39	5308.34
967.55	5443.50
967.71	5437.36
967.88	5418.93
968.04	5377.97
968.20	5361.58
968.37	5234.61
968.53	5265.33
968.69	5420.97
968.85	5431.21
969.02	5445.55
969.18	5369.77
969.34	5238.70
969.51	5300.14
969.67	5343.15
969.83	5224.37
970.00	5267.38
970.16	5240.75
970.32	5277.62
970.48	5423.02
970.65	5218.22
970.81	5205.94
970.97	5181.36
971.14	5228.46
971.30	5388.21
971.46	5205.94
971.63	5275.57
971.79	5197.74
971.95	5253.04
972.11	5062.58
972.28	5132.21
972.44	5334.96
972.60	5085.11
972.76	5222.32
972.93	4929.46
973.09	4992.95
973.25	5109.68
973.42	5044.15
973.58	5062.58
973.74	5097.39
973.90	4933.56
974.07	4949.94
974.23	5042.10
974.39	5091.25
974.55	5048.24
974.72	5023.67
974.88	4947.89
975.04	4976.56
975.20	5124.02
975.37	5105.59
975.53	4855.73
975.69	5009.33
975.85	4908.98
976.01	4995.00
976.18	4925.36
976.34	4808.63
976.50	4980.66
976.66	4845.49
976.83	4753.34
976.99	4818.87
977.15	4851.64
977.31	4712.38
977.47	4843.45
977.64	4779.96
977.80	4775.86
977.96	4669.37
978.12	4743.10
978.29	4722.62
978.45	4640.70
978.61	4726.71
978.77	4880.31
978.93	4577.21
979.10	4755.38
979.26	4667.32
979.42	4648.89
979.58	4585.40
979.74	4532.15
979.91	4673.46
980.07	4564.92
980.23	4657.08
980.39	4452.28
980.55	4540.35
980.71	4628.41
980.88	4546.49
981.04	4433.85
981.20	4499.39
981.36	4513.72
981.52	4437.95
981.68	4374.46
981.85	4575.16
982.01	4493.24
982.17	4392.89
982.33	4571.07
982.49	4497.34
982.65	4380.61
982.82	4493.24
982.98	4419.52
983.14	4276.16
983.30	4507.58
983.46	4403.13
983.62	4515.77
983.79	4390.84
983.95	4349.89
984.11	4308.93
984.27	4446.14
984.43	4329.41
984.59	4290.49
984.75	4394.94
984.91	4243.39
985.08	4368.32
985.24	4157.38
985.40	4227.01
985.56	4216.77
985.72	4241.34
985.88	4274.11
986.04	4181.95
986.20	4124.61
986.37	4171.71
986.53	4048.83
986.69	4218.82
986.85	3964.87
987.01	4097.99
987.17	4321.21
987.33	4061.12
987.49	4028.35
987.65	4134.85
987.82	4065.22
987.98	4091.84
988.14	4159.42
988.30	4161.47
988.46	4122.56
988.62	3977.16
988.78	4052.93
988.94	4147.14
989.10	3983.30
989.26	3942.34
989.42	3850.18
989.59	3790.79
989.75	3874.76
989.91	3882.95
990.07	3782.60
990.23	3952.58
990.39	3954.63
990.55	3928.00
990.71	3872.71
990.87	3887.04
991.03	3887.04
991.19	3805.13
991.35	3790.79
991.51	3917.76
991.67	3858.37
991.83	3848.13
992.00	3803.08
992.16	3854.28
992.32	3852.23
992.48	3813.32
992.64	3717.06
992.80	3786.69
992.96	3790.79
993.12	3733.45
993.28	3805.13
993.44	3686.34
993.60	3794.89
993.76	3696.58
993.92	3766.21
994.08	3831.75
994.24	3682.25
994.40	3753.93
994.56	3774.41
994.72	3577.80
994.88	3649.48
995.04	3794.89
995.20	3672.01
995.36	3651.53
995.52	3577.80
995.68	3618.76
995.84	3590.09
996.00	3606.47
996.16	3549.13
996.32	3534.79
996.48	3575.75
996.64	3592.14
996.80	3569.61
996.96	3616.71
997.12	3463.12
997.28	3520.46
997.44	3413.96
997.60	3557.32
997.76	3413.96
997.92	3444.68
998.08	3528.65
998.24	3436.49
998.40	3473.36
998.56	3512.27
998.72	3348.43
998.88	3481.55
999.04	3379.15
999.20	3436.49
999.36	3383.24
999.52	3518.41
999.68	3368.91
999.84	3436.49
1000.00	3401.68
1000.16	3493.83
1000.32	3352.52
1000.48	3502.03
1000.64	3354.57
1000.80	3270.61
1000.95	3262.41
1001.11	3330.00
1001.27	3289.04
1001.43	3262.41
1001.59	3207.12
1001.75	3131.34
1001.91	3170.26
1002.07	3241.93
1002.23	3229.65
1002.39	3215.31
1002.55	3092.43
1002.71	3164.11
1002.87	3198.93
1003.03	3141.58
1003.19	3030.99
1003.34	3121.10
1003.50	3284.94
1003.66	3295.18
1003.82	3180.50
1003.98	3063.76
1004.14	3053.52
1004.30	3022.80
1004.46	3018.71
1004.62	3088.34
1004.78	3010.51
1004.94	3141.58
1005.09	3119.06
1005.25	3020.75
1005.41	2885.59
1005.57	3121.10
1005.73	3063.76
1005.89	2918.36
1006.05	3047.38
1006.21	2996.18
1006.37	2975.70
1006.52	2992.08
1006.68	2969.55
1006.84	3207.12
1007.00	2875.35
1007.16	3010.51
1007.32	3035.09
1007.48	2975.70
1007.64	2944.98
1007.79	3010.51
1007.95	2959.31
1008.11	3080.14
1008.27	2955.22
1008.43	2922.45
1008.59	2854.87
1008.75	2957.27
1008.91	2871.25
1009.06	2871.25
1009.22	2906.07
1009.38	2944.98
1009.54	2893.78
1009.70	2879.44
1009.86	2852.82
1010.01	2926.55
1010.17	2822.10
1010.33	2746.33
1010.49	2834.39
1010.65	2809.81
1010.81	2779.09
1010.96	2772.95
1011.12	2740.18
1011.28	2754.52
1011.44	2981.84
1011.60	2680.79
1011.76	2709.46
1011.91	2848.72
1012.07	2633.69
1012.23	2662.36
1012.39	2680.79
1012.55	2754.52
1012.71	2629.59
1012.86	2633.69
1013.02	2750.42
1013.18	2621.40
1013.34	2527.19
1013.50	2719.70
1013.65	2678.74
1013.81	2617.30
1013.97	2625.50
1014.13	2652.12
1014.29	2674.65
1014.44	2770.90
1014.60	2674.65
1014.76	2613.21
1014.92	2658.26
1015.07	2662.36
1015.23	2658.26
1015.39	2537.43
1015.55	2590.68
1015.71	2613.21
1015.86	2498.52
1016.02	2502.62
1016.18	2459.61
1016.34	2537.43
1016.49	2516.95
1016.65	2629.59
1016.81	2590.68
1016.97	2549.72
1017.12	2674.65
1017.28	2475.99
1017.44	2432.99
1017.60	2480.09
1017.75	2486.23
1017.91	2490.33
1018.07	2510.81
1018.23	2381.79
1018.38	2488.28
1018.54	2480.09
1018.70	2463.71
1018.86	2435.03
1019.01	2447.32
1019.17	2422.75
1019.33	2453.47
1019.49	2428.89
1019.64	2402.27
1019.80	2426.84
1019.96	2480.09
1020.12	2529.24
1020.27	2396.12
1020.43	2379.74
1020.59	2357.21
1020.74	2432.99
1020.90	2396.12
1021.06	2346.97
1021.22	2359.26
1021.37	2410.46
1021.53	2328.54
1021.69	2306.01
1021.84	2355.16
1022.00	2353.12
1022.16	2275.29
1022.31	2336.73
1022.47	2314.20
1022.63	2451.42
1022.79	2222.05
1022.94	2293.72
1023.10	2412.51
1023.26	2256.86
1023.41	2252.77
1023.57	2205.66
1023.73	2357.21
1023.88	2336.73
1024.04	2289.63
1024.20	2224.09
1024.35	2373.60
1024.51	2285.53
1024.67	2314.20
1024.82	2287.58
1024.98	2164.70
1025.14	2271.20
1025.29	2252.77
1025.45	2353.12
1025.61	2176.99
1025.76	2191.33
1025.92	2240.48
1026.08	2256.86
1026.23	2172.89
1026.39	2299.87
1026.55	2154.46
1026.70	2164.70
1026.86	2156.51
1027.02	2199.52
1027.17	2242.53
1027.33	2271.20
1027.48	2133.98
1027.64	2084.83
1027.80	2088.93
1027.95	2185.18
1028.11	2111.46
1028.27	2213.85
1028.42	2150.37
1028.58	2088.93
1028.73	2142.18
1028.89	2056.16
1029.05	2185.18
1029.20	2119.65
>>>>>End Processed Spectral Data<<<<<
