SpectraSuite Data File
++++++++++++++++++++++++++++++++++++
Date: Fri Jun 02 14:41:54 CEST 2017
User: INFO_000
Dark Spectrum Present: No
Reference Spectrum Present: No
Number of Sampled Component Spectra: 1
Spectrometers: USB4H00879
Integration Time (usec): 80000 (USB4H00879)
Spectra Averaged: 1 (USB4H00879)
Boxcar Smoothing: 0 (USB4H00879)
Correct for Electrical Dark: No (USB4H00879)
Strobe/Lamp Enabled: No (USB4H00879)
Correct for Detector Non-linearity: No (USB4H00879)
Correct for Stray Light: No (USB4H00879)
Number of Pixels in Processed Spectrum: 3648
>>>>>Begin Processed Spectral Data<<<<<
345.13	1279.98
345.34	1279.98
345.56	1279.98
345.78	1263.60
345.99	1345.52
346.21	1673.19
346.42	1630.18
346.64	1611.75
346.86	1798.12
347.07	1650.66
347.29	1671.14
347.50	1624.04
347.72	1685.48
347.94	1736.68
348.15	1568.74
348.37	1724.39
348.59	1683.43
348.80	1669.09
349.02	1798.12
349.23	1832.93
349.45	1822.69
349.67	1867.75
349.88	1861.60
350.10	1916.90
350.31	1861.60
350.53	1787.88
350.75	1970.15
350.96	1779.68
351.18	1839.08
351.39	1855.46
351.61	1744.87
351.82	1859.56
352.04	1888.23
352.26	1839.08
352.47	1832.93
352.69	1933.28
352.90	1740.77
353.12	1896.42
353.34	1765.35
353.55	1818.60
353.77	1912.80
353.98	1826.79
354.20	1802.21
354.41	1970.15
354.63	1886.18
354.85	2021.35
355.06	1841.12
355.28	1798.12
355.49	1853.41
355.71	1941.47
355.92	1890.28
356.14	1953.76
356.35	1953.76
356.57	1920.99
356.79	1884.13
357.00	1828.84
357.22	1929.19
357.43	1837.03
357.65	2033.63
357.86	1912.80
358.08	1898.47
358.29	2027.49
358.51	1984.48
358.72	2000.87
358.94	1925.09
359.16	1877.99
359.37	1927.14
359.59	1951.71
359.80	1961.95
360.02	1974.24
360.23	1916.90
360.45	1968.10
360.66	1939.43
360.88	1832.93
361.09	1935.33
361.31	1982.43
361.52	1943.52
361.74	1998.82
361.95	2093.02
362.17	1994.72
362.38	2068.45
362.60	2004.96
362.81	2009.06
363.03	1896.42
363.24	1939.43
363.46	2033.63
363.67	2009.06
363.89	2009.06
364.10	2066.40
364.32	2050.02
364.53	2058.21
364.75	1912.80
364.96	1953.76
365.18	2017.25
365.39	1966.05
365.61	2078.69
365.82	2074.59
366.04	2033.63
366.25	2045.92
366.47	2070.50
366.68	2062.30
366.90	2054.11
367.11	2062.30
367.33	2201.57
367.54	2101.22
367.76	1996.77
367.97	2125.79
368.19	1953.76
368.40	2029.54
368.62	2066.40
368.83	2009.06
369.05	2125.79
369.26	2047.97
369.48	2029.54
369.69	2058.21
369.91	2097.12
370.12	2047.97
370.33	2150.37
370.55	1984.48
370.76	2004.96
370.98	2109.41
371.19	1970.15
371.41	2039.78
371.62	2080.74
371.84	2019.30
372.05	2207.71
372.27	2095.07
372.48	2054.11
372.69	2093.02
372.91	2115.55
373.12	2152.42
373.34	2080.74
373.55	2133.98
373.77	2230.24
373.98	2158.56
374.20	2148.32
374.41	2232.29
374.62	2070.50
374.84	2187.23
375.05	2195.42
375.27	2185.18
375.48	2121.70
375.70	2191.33
375.91	2299.87
376.12	2301.92
376.34	2181.09
376.55	2093.02
376.77	2232.29
376.98	2213.85
377.19	2103.26
377.41	2160.61
377.62	2176.99
377.84	2285.53
378.05	2308.06
378.27	2260.96
378.48	2303.96
378.69	2301.92
378.91	2297.82
379.12	2273.25
379.34	2271.20
379.55	2340.83
379.76	2287.58
379.98	2146.27
380.19	2303.96
380.41	2256.86
380.62	2324.44
380.83	2299.87
381.05	2172.89
381.26	2465.75
381.47	2326.49
381.69	2275.29
381.90	2355.16
382.12	2258.91
382.33	2318.30
382.54	2355.16
382.76	2336.73
382.97	2351.07
383.19	2310.11
383.40	2439.13
383.61	2287.58
383.83	2346.97
384.04	2293.72
384.25	2326.49
384.47	2418.65
384.68	2418.65
384.89	2316.25
385.11	2353.12
385.32	2355.16
385.54	2351.07
385.75	2408.41
385.96	2379.74
386.18	2387.93
386.39	2459.61
386.60	2267.10
386.82	2373.60
387.03	2492.38
387.24	2510.81
387.46	2492.38
387.67	2492.38
387.88	2533.34
388.10	2590.68
388.31	2533.34
388.52	2598.87
388.74	2598.87
388.95	2531.29
389.16	2545.63
389.38	2510.81
389.59	2562.01
389.80	2688.98
390.02	2611.16
390.23	2717.65
390.44	2478.04
390.66	2576.34
390.87	2580.44
391.08	2617.30
391.30	2707.41
391.51	2660.31
391.72	2674.65
391.94	2635.74
392.15	2553.82
392.36	2686.94
392.58	2650.07
392.79	2744.28
393.00	2764.76
393.22	2871.25
393.43	2809.81
393.64	2899.92
393.85	2770.90
394.07	2727.89
394.28	2699.22
394.49	2877.40
394.71	2727.89
394.92	2795.48
395.13	2727.89
395.35	2756.57
395.56	2858.96
395.77	2764.76
395.98	2772.95
396.20	2887.64
396.41	2836.44
396.62	2926.55
396.84	2883.54
397.05	2889.68
397.26	2858.96
397.47	3020.75
397.69	2891.73
397.90	3108.82
398.11	2967.51
398.32	2961.36
398.54	2850.77
398.75	3002.32
398.96	2985.94
399.18	3172.30
399.39	2994.13
399.60	3014.61
399.81	3098.58
400.03	3063.76
400.24	3268.56
400.45	3051.47
400.66	3219.41
400.88	3051.47
401.09	3284.94
401.30	3006.42
401.51	3299.28
401.73	3098.58
401.94	3196.88
402.15	3223.50
402.36	3098.58
402.58	3135.44
402.79	3231.69
403.00	2975.70
403.21	3215.31
403.43	3194.83
403.64	3319.76
403.85	3184.59
404.06	3338.19
404.27	3170.26
404.49	3289.04
404.70	3252.17
404.91	3346.38
405.12	3254.22
405.34	3305.42
405.55	3436.49
405.76	3137.49
405.97	3395.53
406.19	3508.17
406.40	3272.65
406.61	3407.82
406.82	3342.28
407.03	3286.99
407.25	3413.96
407.46	3489.74
407.67	3540.94
407.88	3592.14
408.09	3403.72
408.31	3393.48
408.52	3434.44
408.73	3403.72
408.94	3330.00
409.15	3499.98
409.37	3649.48
409.58	3665.86
409.79	3733.45
410.00	3596.23
410.21	3491.79
410.43	3485.64
410.64	3547.08
410.85	3655.62
411.06	3581.90
411.27	3538.89
411.48	3741.64
411.70	3764.17
411.91	3614.66
412.12	3743.69
412.33	3717.06
412.54	3598.28
412.76	3792.84
412.97	3715.02
413.18	3618.76
413.39	3813.32
413.60	3776.45
413.81	3733.45
414.03	3762.12
414.24	3743.69
414.45	3854.28
414.66	3649.48
414.87	3882.95
415.08	3862.47
415.30	3839.94
415.51	3889.09
415.72	3680.20
415.93	3899.33
416.14	3874.76
416.35	3895.24
416.56	3858.37
416.78	4026.31
416.99	3932.10
417.20	3997.64
417.41	3999.68
417.62	4081.60
417.83	4042.69
418.04	3923.91
418.26	4026.31
418.47	3878.85
418.68	4157.38
418.89	3983.30
419.10	4050.88
419.31	4028.35
419.52	4149.18
419.73	4071.36
419.95	4280.25
420.16	4097.99
420.37	4108.23
420.58	4241.34
420.79	4061.12
421.00	4110.27
421.21	4255.68
421.42	4116.42
421.63	4261.82
421.85	4224.96
422.06	4394.94
422.27	4331.45
422.48	4274.11
422.69	4280.25
422.90	4358.08
423.11	4483.00
423.32	4337.60
423.53	4407.23
423.75	4415.42
423.96	4466.62
424.17	4478.91
424.38	4548.54
424.59	4595.64
424.80	4517.82
425.01	4712.38
425.22	4440.00
425.43	4437.95
425.64	4728.76
425.85	4779.96
426.06	4700.09
426.28	4648.89
426.49	4575.16
426.70	4603.83
426.91	4720.57
427.12	4825.01
427.33	4751.29
427.54	4714.42
427.75	4747.19
427.96	4888.50
428.17	4818.87
428.38	4968.37
428.59	5031.86
428.80	4822.97
429.01	5025.72
429.23	4982.71
429.44	5150.64
429.65	5068.72
429.86	5083.06
430.07	5062.58
430.28	5107.63
430.49	5070.77
430.70	5283.76
430.91	5226.42
431.12	5289.90
431.33	5326.77
431.54	5203.89
431.75	5337.01
431.96	5320.62
432.17	5281.71
432.38	5244.85
432.59	5457.84
432.80	5339.05
433.01	5363.63
433.22	5496.75
433.43	5445.55
433.64	5443.50
433.85	5312.43
434.06	5541.80
434.27	5380.01
434.49	5484.46
434.70	5801.90
434.91	5541.80
435.12	5636.01
435.33	5640.11
435.54	5715.88
435.75	5480.36
435.96	5580.71
436.17	5441.45
436.38	5685.16
436.59	5738.41
436.80	5791.66
437.01	5932.97
437.22	6053.80
437.43	5894.05
437.64	5683.11
437.85	5992.36
438.06	5889.96
438.27	5799.85
438.48	5738.41
438.69	6115.23
438.90	5873.57
439.11	5795.75
439.32	6117.28
439.53	5967.78
439.74	6082.47
439.95	6121.38
440.16	6066.08
440.37	6191.01
440.57	6010.79
440.78	6119.33
440.99	6172.58
441.20	6143.91
441.41	6205.35
441.62	6129.57
441.83	6051.75
442.04	6139.81
442.25	6104.99
442.46	6213.54
442.67	6451.10
442.88	6776.73
443.09	6252.45
443.30	6299.55
443.51	6295.46
443.72	6602.65
443.93	6440.86
444.14	6475.68
444.35	6461.34
444.56	6481.82
444.77	6537.12
444.98	6514.59
445.19	6674.33
445.40	6696.86
445.61	6588.32
445.81	6756.25
446.02	6739.87
446.23	6721.43
446.44	6672.28
446.65	6727.58
446.86	6791.06
447.07	6750.10
447.28	6971.29
447.49	6971.29
447.70	6893.46
447.91	6717.34
448.12	6911.89
448.33	7206.80
448.54	7061.40
448.74	6956.95
448.95	7122.84
449.16	6926.23
449.37	7266.19
449.58	7073.68
449.79	7210.90
450.00	6887.32
450.21	7319.44
450.42	7135.12
450.63	7237.52
450.84	7161.75
451.05	7380.88
451.25	7286.67
451.46	7163.79
451.67	7362.45
451.88	7561.10
452.09	7442.32
452.30	7460.75
452.51	7466.89
452.72	7456.65
452.93	7860.10
453.13	7370.64
453.34	7514.00
453.55	7446.41
453.76	7493.52
453.97	7917.45
454.18	7778.19
454.39	7792.52
454.60	7769.99
454.81	7841.67
455.01	7829.38
455.22	7591.82
455.43	7980.93
455.64	8140.68
455.85	8189.83
456.06	8228.74
456.27	8097.67
456.48	7968.65
456.68	8189.83
456.89	8132.48
457.10	8384.38
457.31	8273.79
457.52	8232.83
457.73	8292.23
457.94	8646.52
458.14	8331.14
458.35	8689.53
458.56	8507.26
458.77	8621.95
458.98	8789.88
459.19	8488.83
459.39	8574.85
459.60	8726.39
459.81	8615.80
460.02	8867.70
460.23	8814.46
460.44	9058.17
460.65	8957.82
460.85	9043.83
461.06	8920.95
461.27	8935.29
461.48	9193.33
461.69	9355.12
461.89	8916.86
462.10	9238.39
462.31	9052.02
462.52	8986.49
462.73	9385.84
462.94	9557.87
463.14	9525.10
463.35	9555.82
463.56	9731.95
463.77	9717.61
463.98	9621.36
464.18	9533.29
464.39	9697.13
464.60	10033.00
464.81	10092.39
465.02	9789.29
465.23	10110.82
465.43	9774.95
465.64	10422.11
465.85	10106.73
466.06	9951.08
466.27	10430.30
466.47	10432.35
466.68	10436.45
466.89	10278.76
467.10	10520.42
467.30	10655.58
467.51	10446.69
467.72	10843.99
467.93	10444.64
468.14	10661.73
468.34	10727.26
468.55	10960.73
468.76	10979.16
468.97	10760.03
469.17	10973.02
469.38	11202.39
469.59	11218.77
469.80	11265.88
470.01	11065.18
470.21	11140.95
470.42	11403.09
470.63	11575.12
470.84	11325.27
471.04	11771.72
471.25	11775.82
471.46	11581.26
471.67	11951.95
471.87	11976.52
472.08	12021.58
472.29	12240.71
472.50	11886.41
472.70	11956.04
472.91	12128.07
473.12	12384.07
473.33	12500.80
473.53	12791.61
473.74	12595.01
473.95	12939.07
474.16	12947.26
474.36	12969.79
474.57	13102.90
474.78	13170.49
474.99	13119.29
475.19	12943.16
475.40	13256.50
475.61	13686.58
475.81	13453.11
476.02	13924.14
476.23	13518.64
476.44	13903.66
476.64	13881.13
476.85	13938.48
477.06	13795.12
477.27	14411.56
477.47	14262.05
477.68	14188.33
477.89	14536.48
478.09	14159.66
478.30	14757.66
478.51	14606.11
478.71	14626.59
478.92	15030.04
479.13	14864.16
479.34	15103.77
479.54	15195.93
479.75	15138.58
479.96	15197.98
480.16	15181.59
480.37	15378.20
480.58	15681.30
480.78	15869.71
480.99	16000.78
481.20	15871.76
481.41	16072.46
481.61	16230.15
481.82	16238.34
482.03	16221.96
482.23	16043.79
482.44	16355.08
482.65	16760.58
482.85	16752.38
483.06	16688.90
483.27	16875.26
483.47	16889.60
483.68	17024.76
483.89	16992.00
484.09	17069.82
484.30	17387.25
484.51	17428.21
484.71	17723.12
484.92	17653.49
485.13	17524.47
485.33	17862.38
485.54	17821.42
485.75	17909.49
485.95	18233.07
486.16	18181.87
486.37	18298.60
486.57	18067.18
486.78	18441.96
486.98	18456.29
487.19	18931.42
487.40	18937.57
487.60	18759.39
487.81	18894.56
488.02	18943.71
488.22	18880.22
488.43	19140.32
488.64	19238.62
488.84	19373.78
489.05	19504.85
489.25	19181.28
489.46	19775.19
489.67	19967.70
489.87	20078.29
490.08	19861.20
490.29	20104.91
490.49	20293.32
490.70	20045.52
490.90	20281.03
491.11	20408.01
491.32	20661.96
491.52	20420.30
491.73	20532.93
491.94	20895.43
492.14	20854.47
492.35	20819.65
492.55	21069.50
492.76	21370.55
492.97	21288.64
493.17	21302.97
493.38	21298.88
493.58	21862.07
493.79	21714.61
494.00	21612.21
494.20	21638.84
494.41	21806.77
494.61	21919.41
494.82	22197.93
495.02	21968.56
495.23	22093.49
495.44	22339.24
495.64	22275.76
495.85	22146.73
496.05	22527.66
496.26	22337.20
496.47	22953.63
496.67	22621.86
496.88	22931.11
497.08	22675.11
497.29	23217.82
497.49	23045.79
497.70	23260.83
497.91	23281.31
498.11	23365.28
498.32	23539.35
498.52	23684.76
498.73	23996.05
498.93	23651.99
499.14	23883.41
499.34	23834.26
499.55	24057.49
499.76	23721.62
499.96	23883.41
500.17	24123.02
500.37	24123.02
500.58	24419.98
500.78	24503.95
500.99	24231.57
501.19	24598.15
501.40	24839.81
501.60	24368.78
501.81	24530.57
502.02	24667.78
502.22	24536.71
502.43	25042.56
502.63	25581.18
502.84	25239.17
503.04	24886.92
503.25	25372.28
503.45	25173.63
503.66	25271.93
503.86	25333.37
504.07	25591.42
504.27	25581.18
504.48	25749.11
504.68	25691.77
504.89	26146.42
505.09	26248.82
505.30	26320.49
505.50	25915.00
505.71	26125.94
505.91	26492.52
506.12	26402.41
506.32	26214.00
506.53	26177.14
506.73	26529.39
506.94	26623.59
507.14	26857.06
507.35	26756.71
507.55	26572.39
507.76	26572.39
507.96	26674.79
508.17	26547.82
508.37	26795.62
508.58	26609.26
508.78	27250.27
508.99	27489.88
509.19	26959.46
509.40	27467.36
509.60	27383.39
509.81	27446.88
510.01	27442.78
510.22	27516.51
510.42	27670.11
510.63	27596.38
510.83	27698.78
511.04	27711.07
511.24	27553.37
511.44	27666.01
511.65	27969.11
511.85	27471.45
512.06	27952.73
512.26	27897.43
512.47	28472.91
512.67	27846.23
512.88	28286.54
513.08	28018.26
513.29	28307.02
513.49	28425.81
513.69	28470.86
513.90	28491.34
514.10	28622.41
514.31	28591.69
514.51	28593.74
514.72	28671.56
514.92	28468.81
515.13	28687.95
515.33	28679.75
515.53	29185.60
515.74	29054.53
515.94	28855.88
516.15	28997.19
516.35	29052.48
516.56	29226.56
516.76	29179.46
516.96	29408.83
517.17	29324.86
517.37	29722.17
517.58	29290.05
517.78	29369.92
517.99	29689.40
518.19	29834.81
518.39	29824.57
518.60	30117.43
518.80	29740.60
519.01	30123.57
519.21	30301.75
519.41	30113.33
519.62	29937.21
519.82	30305.84
520.03	30455.34
520.23	30365.23
520.43	29996.60
520.64	30637.61
520.84	30996.01
521.05	30490.16
521.25	30846.51
521.45	30909.99
521.66	30776.87
521.86	31122.98
522.07	31065.64
522.27	31082.02
522.47	31020.58
522.68	31370.79
522.88	31108.65
523.08	31565.34
523.29	31677.98
523.49	31518.24
523.70	31454.75
523.90	32024.09
524.10	31639.07
524.31	31954.46
524.51	31569.44
524.71	32050.71
524.92	31878.68
525.12	32351.76
525.33	32130.58
525.53	32357.91
525.73	32589.33
525.94	32964.10
526.14	32476.69
526.34	32349.71
526.55	32804.36
526.75	32556.56
526.95	32865.80
527.16	33154.57
527.36	32869.90
527.56	33164.81
527.77	33129.99
527.97	33396.23
528.17	33060.36
528.38	33406.47
528.58	33519.10
528.78	33474.05
528.99	33474.05
529.19	33515.01
529.39	33732.09
529.60	33981.95
529.80	34319.86
530.00	34285.04
530.21	34301.43
530.41	34428.40
530.61	34528.75
530.82	34280.95
531.02	34575.86
531.22	34616.82
531.43	34696.69
531.63	35298.79
531.83	34823.66
532.04	35180.01
532.24	35376.61
532.44	35366.37
532.64	35302.89
532.85	35816.93
533.05	35397.09
533.25	35718.62
533.46	35610.08
533.66	35821.02
533.86	35839.45
534.07	36148.70
534.27	36081.11
534.47	36048.35
534.67	36648.40
534.88	36302.29
535.08	36695.50
535.28	36517.33
535.49	36621.78
535.69	37139.91
535.89	36672.98
536.09	36877.77
536.30	37193.16
536.50	37316.04
536.70	37590.47
536.91	37125.58
537.11	37498.31
537.31	37541.32
537.51	37559.75
537.72	38114.75
537.92	38159.80
538.12	38313.40
538.32	37834.17
538.53	38450.61
538.73	38053.31
538.93	37940.67
539.13	38407.61
539.34	38004.16
539.54	38823.34
539.74	39202.22
539.94	38524.34
540.15	38622.64
540.35	38856.11
540.55	38737.33
540.75	38835.63
540.96	39044.52
541.16	39458.21
541.36	39118.25
541.56	39282.09
541.77	39421.35
541.97	39622.05
542.17	39812.51
542.37	39396.77
542.58	39505.32
542.78	39626.15
542.98	39593.38
543.18	39839.14
543.38	40353.18
543.59	39814.56
543.79	40095.13
543.99	40289.69
544.19	40381.85
544.40	40517.01
544.60	40512.92
544.80	40547.73
545.00	40756.63
545.20	40957.33
545.41	40633.75
545.61	40732.05
545.81	41158.03
546.01	41196.94
546.21	41076.11
546.42	41182.60
546.62	41389.45
546.82	40678.80
547.02	40703.38
547.22	41334.15
547.43	41223.56
547.63	41239.95
547.83	41608.58
548.03	41074.06
548.23	41538.95
548.44	41964.93
548.64	41610.63
548.84	42038.65
549.04	42028.41
549.24	42124.67
549.45	42145.15
549.65	41573.77
549.85	41874.82
550.05	41852.29
550.25	42079.61
550.45	42765.68
550.66	42196.35
550.86	41938.30
551.06	42294.65
551.26	42481.02
551.46	42241.40
551.66	42478.97
551.87	43058.54
552.07	42470.78
552.27	42476.92
552.47	42728.82
552.67	42954.10
552.87	43367.79
553.07	43046.26
553.28	43212.14
553.48	43124.08
553.68	42607.99
553.88	43283.82
554.08	43079.02
554.28	43351.40
554.48	43119.98
554.69	43177.33
554.89	43425.13
555.09	43201.90
555.29	43439.47
555.49	43621.73
555.69	43781.48
555.89	43523.43
556.10	43857.25
556.30	43693.41
556.50	43724.13
556.70	43822.44
556.90	43795.81
557.10	44270.94
557.30	43930.98
557.50	43842.92
557.70	44113.25
557.91	44088.67
558.11	44096.86
558.31	44023.14
558.51	43906.40
558.71	44078.43
558.91	44713.30
559.11	44485.98
559.31	44356.96
559.51	44381.53
559.72	44420.44
559.92	44705.11
560.12	44520.79
560.32	44385.63
560.52	44272.99
560.72	44698.97
560.92	44531.03
561.12	44598.62
561.32	45133.14
561.52	44604.76
561.72	44911.95
561.93	44909.91
562.13	45016.40
562.33	44475.74
562.53	44938.58
562.73	44858.71
562.93	44670.29
563.13	45126.99
563.33	45182.29
563.53	45679.94
563.73	45149.52
563.93	45604.17
564.13	45929.80
564.33	45471.05
564.53	45206.86
564.74	45745.48
564.94	45536.59
565.14	45692.23
565.34	45364.56
565.54	45831.49
565.74	45278.54
565.94	45806.92
566.14	45901.12
566.34	45860.16
566.54	46320.96
566.74	45376.84
566.94	45970.75
567.14	45864.26
567.34	46021.95
567.54	45940.04
567.74	45985.09
567.94	46011.71
568.14	45706.57
568.34	46581.05
568.54	46126.40
568.74	46503.23
568.94	46087.49
569.14	46744.89
569.34	46171.46
569.54	46527.80
569.75	45985.09
569.95	46513.47
570.15	46830.90
570.35	46519.61
570.55	46714.17
570.75	46632.25
570.95	46998.83
571.15	46898.48
571.35	46703.93
571.55	46974.26
571.75	46691.64
571.95	46806.33
572.15	46957.88
572.35	46849.33
572.55	46982.45
572.75	47109.43
572.95	47336.75
573.15	47435.05
573.35	47310.13
573.55	47504.68
573.75	47066.42
573.95	47760.68
574.15	47574.31
574.35	47258.93
574.55	47138.10
574.75	47514.92
574.95	47674.66
575.15	47668.52
575.34	47652.14
575.54	47863.08
575.74	47783.21
575.94	47854.89
576.14	47736.10
576.34	48330.01
576.54	48338.21
576.74	48209.18
576.94	47848.74
577.14	48407.84
577.34	48516.38
577.54	48280.86
577.74	48346.40
577.94	48672.03
578.14	48473.37
578.34	48784.66
578.54	47758.63
578.74	48651.55
578.94	48895.25
579.14	48618.78
579.34	48733.46
579.54	48600.35
579.74	49175.83
579.94	48641.31
580.13	49427.73
580.33	49231.12
580.53	49034.52
580.73	48854.29
580.93	49317.14
581.13	49179.92
581.33	49040.66
581.53	49466.64
581.73	49325.33
581.93	49759.50
582.13	49390.86
582.33	49511.69
582.53	49169.68
582.73	49722.63
582.92	49294.61
583.12	49665.29
583.32	49831.18
583.52	49382.67
583.72	49958.15
583.92	49837.32
584.12	49585.42
584.32	50289.92
584.52	49927.43
584.72	50269.44
584.92	50167.04
585.11	51064.05
585.31	50175.23
585.51	50644.22
585.71	50595.07
585.91	50701.56
586.11	50380.03
586.31	50263.30
586.51	50531.58
586.71	50967.80
586.91	50967.80
587.10	50836.73
587.30	51016.95
587.50	50836.73
587.70	50806.01
587.90	51115.25
588.10	51348.72
588.30	51045.62
588.50	51182.84
588.69	51156.21
588.89	50978.04
589.09	50924.79
589.29	51811.56
589.49	51578.09
589.69	50963.70
589.89	51995.88
590.08	51500.27
590.28	51418.35
590.48	51395.82
590.68	51238.13
590.88	51551.47
591.08	51430.64
591.28	51492.08
591.47	51926.25
591.67	51805.42
591.87	51709.16
592.07	51870.95
592.27	51817.71
592.47	52090.09
592.67	51739.88
592.86	52006.12
593.06	52333.79
593.26	52423.90
593.46	52423.90
593.66	52384.99
593.86	52071.65
594.05	52380.90
594.25	52294.88
594.45	52278.50
594.65	52350.18
594.85	52305.12
595.05	52485.34
595.24	52835.55
595.44	52903.13
595.64	52700.38
595.84	52712.67
596.04	52507.87
596.23	52491.49
596.43	53150.93
596.63	52688.09
596.83	52886.74
597.03	53001.43
597.22	53449.94
597.42	53015.77
597.62	53228.76
597.82	53408.98
598.02	53136.60
598.21	53384.40
598.41	52780.25
598.61	53073.11
598.81	53312.72
599.01	53337.30
599.20	53431.50
599.40	53118.17
599.60	53619.92
599.80	53789.90
600.00	53941.45
600.19	54052.04
600.39	53650.64
600.59	53796.04
600.79	54260.93
600.98	53853.39
601.18	54299.84
601.38	54095.05
601.58	54332.61
601.78	54375.62
601.97	54146.25
602.17	54719.68
602.37	54369.47
602.57	54602.94
602.76	54625.47
602.96	54609.09
603.16	54981.82
603.36	54725.82
603.55	54992.06
603.75	54596.80
603.95	55293.11
604.15	54801.60
604.34	54912.19
604.54	55047.35
604.74	55250.10
604.94	55301.30
605.13	55624.88
605.33	55153.85
605.53	55246.00
605.73	55719.09
605.92	55688.37
606.12	55448.75
606.32	55606.45
606.52	55702.70
606.71	55407.79
606.91	55639.22
607.11	55458.99
607.30	55774.38
607.50	56034.47
607.70	56247.46
607.90	55841.96
608.09	56177.83
608.29	55921.83
608.49	56130.73
608.68	55743.66
608.88	56255.65
609.08	56218.79
609.28	55782.57
609.47	55923.88
609.67	57037.98
609.87	56417.44
610.06	56132.78
610.26	56759.45
610.46	56517.79
610.66	56798.37
610.85	56470.69
611.05	56308.90
611.25	56308.90
611.44	56493.22
611.64	56411.30
611.84	56208.55
612.03	56163.50
612.23	57001.11
612.43	56906.91
612.62	56771.74
612.82	56435.87
613.02	56536.23
613.21	56573.09
613.41	56360.10
613.61	56741.02
613.80	56304.80
614.00	56505.51
614.20	56890.52
614.39	56384.68
614.59	56763.55
614.79	56915.10
614.98	56755.36
615.18	56632.48
615.38	56632.48
615.57	56564.90
615.77	57267.35
615.97	56890.52
616.16	56925.34
616.36	56716.45
616.56	57189.53
616.75	56917.15
616.95	56738.97
617.15	56720.54
617.34	56902.81
617.54	56882.33
617.74	57279.64
617.93	57095.32
618.13	56329.38
618.32	56997.02
618.52	56702.11
618.72	56652.96
618.91	56636.58
619.11	56632.48
619.31	56935.58
619.50	56624.29
619.70	56171.69
619.90	56556.70
620.09	56900.76
620.29	56411.30
620.48	56640.67
620.68	57164.95
620.88	56446.11
621.07	56898.72
621.27	56548.51
621.46	56450.21
621.66	56984.73
621.86	56632.48
622.05	56605.86
622.25	56960.15
622.44	56519.84
622.64	56265.89
622.84	57003.16
623.03	57185.43
623.23	56751.26
623.42	56743.07
623.62	56751.26
623.82	57164.95
624.01	56358.05
624.21	57013.40
624.40	56951.96
624.60	56827.04
624.80	56693.92
624.99	56964.25
625.19	56452.26
625.38	56865.95
625.58	57025.69
625.77	57083.03
625.97	57115.80
626.17	56566.94
626.36	56603.81
626.56	56935.58
626.75	56245.41
626.95	57197.72
627.14	56718.49
627.34	57148.57
627.54	56880.28
627.73	56882.33
627.93	56794.27
628.12	56728.73
628.32	56824.99
628.51	57103.51
628.71	56573.09
628.90	56829.08
629.10	57156.76
629.30	56972.44
629.49	57216.15
629.69	56798.37
629.88	56824.99
630.08	57005.21
630.27	56958.11
630.47	56661.15
630.66	57040.03
630.86	57527.44
631.05	56358.05
631.25	57117.85
631.44	57316.50
631.64	56941.72
631.84	56974.49
632.03	57210.01
632.23	57132.18
632.42	57248.92
632.62	57173.14
632.81	56552.61
633.01	57185.43
633.20	57013.40
633.40	57054.36
633.59	57048.22
633.79	56970.39
633.98	56976.54
634.18	57668.75
634.37	57203.86
634.57	57103.51
634.76	57836.69
634.96	57015.45
635.15	57410.71
635.35	56870.04
635.54	57095.32
635.74	57463.96
635.93	57121.94
636.13	57293.97
636.32	57308.31
636.52	57263.25
636.71	57314.45
636.91	56980.63
637.10	57328.79
637.30	57160.86
637.49	57185.43
637.69	57214.10
637.88	58033.29
638.08	56923.29
638.27	57779.34
638.46	57529.49
638.66	56925.34
638.85	57244.82
639.05	57498.77
639.24	57545.87
639.44	57500.82
639.63	57130.14
639.83	57629.84
640.02	57447.57
640.22	57363.60
640.41	57588.88
640.61	57162.90
640.80	56994.97
640.99	57244.82
641.19	57971.85
641.38	57250.97
641.58	58045.58
641.77	57359.51
641.97	57439.38
642.16	57586.83
642.36	57455.76
642.55	57902.22
642.74	57511.06
642.94	57859.21
643.13	57947.28
643.33	58074.25
643.52	57844.88
643.72	58045.58
643.91	57799.82
644.10	57808.01
644.30	58047.63
644.49	57896.08
644.69	57836.69
644.88	57570.45
645.08	57846.93
645.27	58037.39
645.46	57777.29
645.66	57670.80
645.85	57447.57
646.05	57939.08
646.24	57934.99
646.43	58156.17
646.63	58137.74
646.82	58170.50
647.02	58279.05
647.21	57959.56
647.40	58195.08
647.60	57883.79
647.79	58061.96
647.99	58463.36
648.18	58145.93
648.37	58279.05
648.57	58604.67
648.76	58367.11
648.96	58307.72
649.15	58576.00
649.34	58641.54
649.54	58457.22
649.73	57961.61
649.92	58684.54
650.12	58461.32
650.31	58416.26
650.51	58430.60
650.70	58467.46
650.89	58344.58
651.09	59300.98
651.28	58623.11
651.47	58496.13
651.67	58565.76
651.86	59208.82
652.06	58117.26
652.25	59126.91
652.44	58201.22
652.64	58160.26
652.83	58260.62
653.02	58324.10
653.22	58492.04
653.41	58694.78
653.60	58041.48
653.80	58711.17
653.99	58707.07
654.18	58756.22
654.38	58307.72
654.57	58696.83
654.76	58719.36
654.96	58430.60
655.15	58621.06
655.34	59143.29
655.54	58446.98
655.73	58459.27
655.92	58668.16
656.12	58666.11
656.31	58455.17
656.50	58498.18
656.70	58670.21
656.89	58344.58
657.08	58565.76
657.28	58631.30
657.47	58295.43
657.66	59143.29
657.86	58358.92
658.05	58961.02
658.24	59014.27
658.43	58463.36
658.63	58907.77
658.82	59090.04
659.01	58932.35
659.21	59131.00
659.40	59096.19
659.59	58743.94
659.79	58864.77
659.98	59049.08
660.17	58940.54
660.36	59040.89
660.56	58598.53
660.75	59137.15
660.94	58733.70
661.14	58770.56
661.33	58666.11
661.52	58621.06
661.71	58930.30
661.91	58500.23
662.10	58782.85
662.29	58946.68
662.49	59024.51
662.68	58799.23
662.87	59122.81
663.06	59038.84
663.26	59008.12
663.45	58893.44
663.64	58999.93
663.83	59419.77
664.03	59016.32
664.22	59225.21
664.41	59112.57
664.60	58834.05
664.80	59225.21
664.99	58807.42
665.18	58664.06
665.37	59149.43
665.57	59118.71
665.76	58766.46
665.95	58698.88
666.14	58692.74
666.34	59028.60
666.53	58791.04
666.72	59024.51
666.91	58633.35
667.11	59094.14
667.30	59249.78
667.49	59124.86
667.68	58983.55
667.87	58803.33
668.07	59380.85
668.26	58981.50
668.45	58891.39
668.64	58647.68
668.84	59769.97
669.03	59141.24
669.22	58772.61
669.41	58795.13
669.60	58893.44
669.80	58397.83
669.99	59044.99
670.18	59188.34
670.37	59030.65
670.57	59315.32
670.76	58721.41
670.95	58809.47
671.14	58682.50
671.33	58766.46
671.53	59233.40
671.72	58780.80
671.91	59110.52
672.10	58545.28
672.29	58721.41
672.48	58655.87
672.68	59075.71
672.87	58807.42
673.06	58774.66
673.25	58825.85
673.44	58586.24
673.64	58711.17
673.83	58496.13
674.02	59092.09
674.21	58539.14
674.40	58879.10
674.59	58348.68
674.79	58684.54
674.98	59446.39
675.17	58963.07
675.36	58764.42
675.55	58582.15
675.74	58594.43
675.94	58686.59
676.13	58463.36
676.32	58729.60
676.51	58961.02
676.70	58799.23
676.89	59192.44
677.08	58946.68
677.28	58868.86
677.47	58999.93
677.66	58825.85
677.85	58444.93
678.04	58969.21
678.23	59098.23
678.42	58956.92
678.62	58483.84
678.81	59331.70
679.00	58559.62
679.19	58950.78
679.38	58719.36
679.57	58741.89
679.76	59122.81
679.96	58782.85
680.15	58842.24
680.34	58739.84
680.53	58610.82
680.72	58891.39
680.91	59016.32
681.10	58979.45
681.29	58905.73
681.48	58430.60
681.68	58360.97
681.87	58455.17
682.06	58627.20
682.25	58111.11
682.44	58408.07
682.63	58807.42
682.82	58236.04
683.01	58328.20
683.20	58139.78
683.39	58307.72
683.59	58375.30
683.78	58113.16
683.97	57787.53
684.16	58444.93
684.35	57980.04
684.54	57840.78
684.73	58000.52
684.92	57842.83
685.11	57951.37
685.30	58072.20
685.49	58285.19
685.69	57883.79
685.88	57885.84
686.07	58080.39
686.26	58260.62
686.45	57549.97
686.64	57926.80
686.83	57832.59
687.02	57998.48
687.21	57975.95
687.40	58250.38
687.59	57844.88
687.78	58043.53
687.97	58164.36
688.16	57662.61
688.35	57955.47
688.54	57599.12
688.74	57953.42
688.93	58180.74
689.12	57693.33
689.31	57996.43
689.50	57623.70
689.69	57955.47
689.88	57130.14
690.07	57891.98
690.26	57664.66
690.45	58457.22
690.64	57652.37
690.83	57308.31
691.02	57412.76
691.21	57423.00
691.40	57816.21
691.59	57175.19
691.78	57463.96
691.97	57635.98
692.16	57562.26
692.35	57595.03
692.54	57468.05
692.73	57459.86
692.92	57472.15
693.11	57175.19
693.30	57060.51
693.49	57384.08
693.68	57238.68
693.87	56976.54
694.06	57214.10
694.25	57234.58
694.44	57087.13
694.63	56919.20
694.82	57392.28
695.01	56761.50
695.20	56790.17
695.39	57042.07
695.58	56710.30
695.77	56286.37
695.96	56720.54
696.15	56855.71
696.34	56374.44
696.53	56855.71
696.72	56915.10
696.91	56523.94
697.10	56571.04
697.29	56308.90
697.48	56816.80
697.67	56220.84
697.86	56515.75
698.05	56515.75
698.24	56718.49
698.43	56145.06
698.62	56845.47
698.81	56511.65
699.00	56704.16
699.19	56165.54
699.38	56587.42
699.57	56151.21
699.76	56679.58
699.95	56122.54
700.14	55899.31
700.32	55952.55
700.51	56038.57
700.70	56255.65
700.89	56399.01
701.08	55878.83
701.27	55946.41
701.46	56276.13
701.65	55383.22
701.84	56161.45
702.03	56097.96
702.22	55415.99
702.41	55647.41
702.60	55999.66
702.79	55485.62
702.98	55518.38
703.17	55743.66
703.35	55749.81
703.54	55532.72
703.73	55473.33
703.92	55743.66
704.11	55993.51
704.30	55336.12
704.49	55203.00
704.68	55667.89
704.87	55590.06
705.06	55426.23
705.25	55219.38
705.43	55895.21
705.62	55702.70
705.81	55686.32
706.00	54975.67
706.19	55170.23
706.38	55203.00
706.57	55436.47
706.76	55436.47
706.95	55149.75
707.14	54826.17
707.32	55151.80
707.51	54662.33
707.70	55139.51
707.89	55000.25
708.08	55248.05
708.27	55102.65
708.46	55393.46
708.65	55053.50
708.84	54451.39
709.02	55108.79
709.21	55104.70
709.40	55082.17
709.59	54924.47
709.78	54416.58
709.97	55289.01
710.16	54187.21
710.34	54635.71
710.53	54281.41
710.72	54531.26
710.91	54672.57
711.10	54574.27
711.29	54275.27
711.48	54691.01
711.66	54553.79
711.85	54037.70
712.04	54510.78
712.23	54273.22
712.42	54148.29
712.61	54033.61
712.80	53683.40
712.98	54506.69
713.17	54187.21
713.36	53826.76
713.55	53777.61
713.74	54260.93
713.93	54252.74
714.11	54095.05
714.30	53798.09
714.49	53877.96
714.68	53961.93
714.87	53677.26
715.06	53546.19
715.24	53632.21
715.43	53691.60
715.62	53091.54
715.81	53118.17
716.00	53693.64
716.18	53019.86
716.37	52968.66
716.56	53312.72
716.75	53609.68
716.94	53540.05
717.12	53198.04
717.31	53138.65
717.50	53239.00
717.69	53437.65
717.88	53142.74
718.06	53601.49
718.25	53091.54
718.44	52853.98
718.63	53284.05
718.82	52735.20
719.00	52929.75
719.19	52540.64
719.38	52673.76
719.57	52176.10
719.76	52362.46
719.94	52454.62
720.13	52311.27
720.32	52620.51
720.51	52180.20
720.69	52237.54
720.88	52565.21
721.07	52428.00
721.26	51946.73
721.44	51551.47
721.63	52020.45
721.82	51539.18
722.01	51889.38
722.20	51817.71
722.38	51586.28
722.57	51600.62
722.76	51227.89
722.95	51596.52
723.13	51700.97
723.32	51346.67
723.51	51318.00
723.70	51086.58
723.88	51162.36
724.07	51225.84
724.26	51191.03
724.44	50478.33
724.63	51455.21
724.82	51248.37
725.01	50767.10
725.19	50818.30
725.38	50902.26
725.57	50863.35
725.76	50707.71
725.94	50398.46
726.13	51043.57
726.32	50887.93
726.51	50525.44
726.69	51272.95
726.88	51016.95
727.07	50865.40
727.25	50593.02
727.44	50918.65
727.63	50531.58
727.82	50728.19
728.00	50711.80
728.19	50937.08
728.38	51072.24
728.56	50087.17
728.75	50828.54
728.94	50586.88
729.12	50410.75
729.31	50763.00
729.50	50261.25
729.69	50799.86
729.87	50113.80
730.06	50308.35
730.25	50459.90
730.43	50668.79
730.62	50361.60
730.81	50812.15
730.99	50693.37
731.18	50525.44
731.37	50775.29
731.55	50808.06
731.74	50681.08
731.93	50502.91
732.11	50726.14
732.30	50558.20
732.49	50420.99
732.67	50271.49
732.86	50140.42
733.05	50738.43
733.23	49806.60
733.42	50474.24
733.61	50390.27
733.79	50291.97
733.98	50779.39
734.17	50132.23
734.35	49960.20
734.54	50279.68
734.73	50193.67
734.91	50312.45
735.10	50162.95
735.29	50414.85
735.47	49681.67
735.66	50150.66
735.84	49816.84
736.03	49571.08
736.22	50289.92
736.40	49628.43
736.59	49974.53
736.78	50322.69
736.96	49683.72
737.15	49960.20
737.33	49997.06
737.52	49693.96
737.71	49845.51
737.89	49960.20
738.08	49636.62
738.27	49476.88
738.45	49902.85
738.64	50005.25
738.82	49577.23
739.01	49466.64
739.20	49390.86
739.38	49356.05
739.57	49636.62
739.75	49712.39
739.94	49120.53
740.13	49261.84
740.31	49218.83
740.50	49345.81
740.68	49141.01
740.87	49448.21
741.06	49272.08
741.24	48995.60
741.43	49184.02
741.61	49098.00
741.80	48807.19
741.99	48866.58
742.17	49177.87
742.36	49003.80
742.54	49018.13
742.73	49134.87
742.91	49179.92
743.10	48813.34
743.29	48921.88
743.47	49313.04
743.66	48393.50
743.84	48837.91
744.03	49003.80
744.21	48901.40
744.40	49427.73
744.59	48725.27
744.77	48342.30
744.96	49007.89
745.14	48504.09
745.33	48446.75
745.51	48538.91
745.70	48403.74
745.88	48413.98
746.07	48543.00
746.26	47617.32
746.44	48207.14
746.63	48512.28
746.81	48203.04
747.00	47899.94
747.18	48440.60
747.37	47981.86
747.55	48246.05
747.74	48565.53
747.92	47840.55
748.11	48137.51
748.29	48252.19
748.48	48235.81
748.66	47480.11
748.85	48125.22
749.03	48368.93
749.22	48086.31
749.41	47641.90
749.59	48186.66
749.78	47529.26
749.96	47447.34
750.15	47562.03
750.33	47717.67
750.52	47863.08
750.70	47658.28
750.89	47602.99
751.07	47580.46
751.26	47430.96
751.44	47095.09
751.63	47359.28
751.81	46945.59
752.00	47052.08
752.18	47394.09
752.37	47484.20
752.55	47097.14
752.74	47406.38
752.92	47275.31
753.10	46695.74
753.29	47211.82
753.47	46849.33
753.66	46896.44
753.84	47465.77
754.03	47168.82
754.21	46679.35
754.40	46955.83
754.58	47041.84
754.77	47168.82
754.95	46515.51
755.14	46576.95
755.32	46898.48
755.51	46277.95
755.69	46572.86
755.88	46705.98
756.06	46374.20
756.24	46597.43
756.43	46202.18
756.61	46437.69
756.80	46607.67
756.98	46144.83
757.17	46327.10
757.35	46771.51
757.54	46075.20
757.72	46470.46
757.90	45886.79
758.09	46214.46
758.27	46282.05
758.46	45909.32
758.64	45935.94
758.83	46044.48
759.01	46316.86
759.19	45948.23
759.38	46003.52
759.56	45786.44
759.75	46003.52
759.93	45544.78
760.12	45290.83
760.30	45958.47
760.48	45667.66
760.67	45233.49
760.85	45927.75
761.04	45829.44
761.22	45313.36
761.40	45667.66
761.59	45448.52
761.77	45143.38
761.96	45651.27
762.14	45354.32
762.32	44897.62
762.51	45081.94
762.69	44991.83
762.88	45126.99
763.06	44963.15
763.24	45258.06
763.43	44887.38
763.61	44983.63
763.80	45135.18
763.98	45172.05
764.16	44551.51
764.35	44680.53
764.53	44389.72
764.72	44744.02
764.90	44676.44
765.08	44420.44
765.27	44807.51
765.45	44305.76
765.63	44574.04
765.82	44625.24
766.00	44160.35
766.18	44510.55
766.37	44635.48
766.55	43971.94
766.74	44090.72
766.92	44057.95
767.10	44330.33
767.29	44342.62
767.47	43631.97
767.65	43509.10
767.84	43685.22
768.02	43758.95
768.20	43576.68
768.39	44029.28
768.57	43965.79
768.75	43584.87
768.94	43386.22
769.12	43586.92
769.30	43122.03
769.49	43545.96
769.67	43593.06
769.85	43324.78
770.04	43242.86
770.22	42972.53
770.40	43206.00
770.59	42855.79
770.77	43308.40
770.95	42872.18
771.14	43001.20
771.32	42841.46
771.50	42823.03
771.69	42904.95
771.87	43382.12
772.05	42988.91
772.24	42415.48
772.42	42747.25
772.60	42804.59
772.78	42866.03
772.97	42583.41
773.15	43001.20
773.33	42569.08
773.52	42636.66
773.70	42581.37
773.88	42792.31
774.07	42749.30
774.25	42425.72
774.43	42562.93
774.61	42456.44
774.80	42759.54
774.98	42538.36
775.16	42808.69
775.34	42677.62
775.53	42290.55
775.71	42708.34
775.89	42626.42
776.08	42507.64
776.26	42898.80
776.44	42780.02
776.62	42646.90
776.81	42016.13
776.99	42460.54
777.17	42800.50
777.35	42630.52
777.54	42952.05
777.72	42663.28
777.90	42720.63
778.08	43148.65
778.27	42722.68
778.45	42587.51
778.63	43187.56
778.81	42306.94
779.00	42882.42
779.18	42751.35
779.36	43605.35
779.54	42777.97
779.73	43001.20
779.91	42833.27
780.09	42784.12
780.27	43357.55
780.46	42896.75
780.64	43271.53
780.82	43199.85
781.00	43230.57
781.19	43197.80
781.37	43236.72
781.55	43623.78
781.73	43461.99
781.91	43240.81
782.10	43181.42
782.28	43521.38
782.46	43287.92
782.64	43564.39
782.82	43455.85
783.01	43996.51
783.19	43337.07
783.37	43574.63
783.55	43271.53
783.74	43509.10
783.92	43525.48
784.10	43486.57
784.28	43464.04
784.46	43349.35
784.64	43169.13
784.83	43343.21
785.01	43853.15
785.19	42851.70
785.37	43390.31
785.55	43267.44
785.74	43027.82
785.92	43242.86
786.10	43507.05
786.28	43079.02
786.46	43150.70
786.64	43156.85
786.83	42780.02
787.01	43679.08
787.19	43447.66
787.37	42937.71
787.55	43400.55
787.74	43001.20
787.92	43363.69
788.10	42943.86
788.28	42630.52
788.46	43050.35
788.64	42777.97
788.82	43042.16
789.01	42732.92
789.19	42390.91
789.37	42167.68
789.55	42222.97
789.73	42188.16
789.91	42317.18
790.09	42657.14
790.28	42126.72
790.46	42028.41
790.64	42134.91
790.82	42276.22
791.00	41751.94
791.18	41563.53
791.36	41747.84
791.55	41952.64
791.73	41735.56
791.91	41457.03
792.09	41586.05
792.27	41645.44
792.45	41440.65
792.63	41670.02
792.81	41209.23
793.00	41192.84
793.18	41121.16
793.36	41006.48
793.54	41334.15
793.72	40574.36
793.90	41100.68
794.08	40492.44
794.26	41035.15
794.44	40426.90
794.62	40301.98
794.81	40750.48
794.99	40367.51
795.17	40031.65
795.35	40441.24
795.53	40383.90
795.71	40195.48
795.89	39681.44
796.07	39667.11
796.25	39620.00
796.43	39835.04
796.61	39394.73
796.80	39394.73
796.98	39609.76
797.16	39275.94
797.34	39368.10
797.52	39277.99
797.70	39620.00
797.88	39017.90
798.06	38708.66
798.24	38860.21
798.42	38757.81
798.60	38780.34
798.78	38514.10
798.96	38860.21
799.14	38217.14
799.32	39019.95
799.51	38174.14
799.69	38421.94
799.87	38004.16
800.05	38067.64
800.23	38286.78
800.41	37838.27
800.59	37934.53
800.77	37631.43
800.95	37991.87
801.13	37875.13
801.31	37293.51
801.49	37266.89
801.67	37098.95
801.85	37455.30
802.03	37045.71
802.21	37334.47
802.39	36851.15
802.57	36996.56
802.75	36371.92
802.93	36636.11
803.11	36632.02
803.29	36353.49
803.47	36472.28
803.65	36054.49
803.83	36175.32
804.01	35821.02
804.19	36238.81
804.37	35712.48
804.55	35769.82
804.73	35831.26
804.91	36081.11
805.09	36234.71
805.27	36054.49
805.45	36011.48
805.63	35837.41
805.81	35550.69
805.99	35540.45
806.17	35659.23
806.35	35378.66
806.53	35522.02
806.71	35384.80
806.89	35208.68
807.07	34883.05
807.25	35401.19
807.43	34874.86
807.61	35032.55
807.79	34864.62
807.97	34631.15
808.15	34786.80
808.33	34516.47
808.51	34590.19
808.69	34876.91
808.87	34561.52
809.05	34311.67
809.23	34049.53
809.41	33973.75
809.59	34350.58
809.77	34268.66
809.95	33648.13
810.13	34024.95
810.31	33785.34
810.49	34006.52
810.67	33721.85
810.84	33705.47
811.02	33687.04
811.20	33453.57
811.38	33385.99
811.56	33256.96
811.74	33644.03
811.92	33220.10
812.10	33146.37
812.28	33510.91
812.46	32953.87
812.64	33330.69
812.82	33052.17
813.00	33109.51
813.18	32792.08
813.36	32747.02
813.53	32593.42
813.71	32730.64
813.89	32511.50
814.07	32511.50
814.25	32505.36
814.43	32706.06
814.61	32173.59
814.79	32425.49
814.97	32400.91
815.15	32452.11
815.33	32157.21
815.50	32056.85
815.68	32314.90
815.86	32108.05
816.04	32120.34
816.22	31985.18
816.40	31866.39
816.58	32048.66
816.76	31555.10
816.94	31835.67
817.11	31802.91
817.29	31553.05
817.47	31579.68
817.65	31477.28
817.83	31415.84
818.01	31137.32
818.19	31469.09
818.37	31276.58
818.54	31061.54
818.72	30719.53
818.90	30965.29
819.08	30850.60
819.26	31172.13
819.44	30705.20
819.62	30508.59
819.80	30584.37
819.97	30678.57
820.15	30727.72
820.33	30705.20
820.51	30610.99
820.69	30543.41
820.87	30965.29
821.05	31030.82
821.22	30379.57
821.40	30621.23
821.58	30330.42
821.76	30385.71
821.94	30295.60
822.12	30197.30
822.29	30072.37
822.47	30211.64
822.65	30166.58
822.83	30191.16
823.01	29914.68
823.19	29896.25
823.36	30092.85
823.54	29728.31
823.72	29824.57
823.90	30012.98
824.08	29382.21
824.25	29652.54
824.43	29443.65
824.61	29476.41
824.79	29591.10
824.97	29455.93
825.15	29371.97
825.32	29285.95
825.50	28958.28
825.68	29296.19
825.86	29394.50
826.04	29093.44
826.21	29365.82
826.39	28835.40
826.57	29111.88
826.75	28980.81
826.93	28735.05
827.10	28995.14
827.28	29146.69
827.46	29052.48
827.64	28978.76
827.81	28585.55
827.99	28917.32
828.17	28593.74
828.35	28606.03
828.53	28810.82
828.70	28468.81
828.88	28776.01
829.06	28657.23
829.24	28862.02
829.41	28556.88
829.59	28448.33
829.77	28266.06
829.95	28325.46
830.12	28282.45
830.30	28558.92
830.48	28323.41
830.66	28487.25
830.84	28343.89
831.01	28024.40
831.19	28218.96
831.37	27702.87
831.55	27903.57
831.72	28104.28
831.90	28132.95
832.08	27655.77
832.25	27856.47
832.43	27975.25
832.61	27565.66
832.79	27962.97
832.96	27729.50
833.14	27983.44
833.32	28040.79
833.50	27715.16
833.67	27645.53
833.85	27709.02
834.03	27434.59
834.20	27483.74
834.38	27502.17
834.56	27463.26
834.74	27201.12
834.91	27412.06
835.09	27549.28
835.27	26883.69
835.44	27068.00
835.62	26822.25
835.80	27078.24
835.98	26994.28
836.15	27428.45
836.33	26568.30
836.51	27217.50
836.68	27027.04
836.86	26654.31
837.04	26783.34
837.21	26986.08
837.39	26801.77
837.57	26736.23
837.75	26734.18
837.92	26369.65
838.10	26648.17
838.28	26199.66
838.45	26506.86
838.63	26613.35
838.81	26734.18
838.98	26107.51
839.16	26426.99
839.34	26379.89
839.51	26205.81
839.69	26316.40
839.87	26510.96
840.04	26455.66
840.22	26218.10
840.40	26011.25
840.57	25970.29
840.75	25953.91
840.93	25775.73
841.10	25855.61
841.28	26119.79
841.46	26111.60
841.63	26146.42
841.81	25958.00
841.98	25560.70
842.16	26003.06
842.34	25826.93
842.51	25681.53
842.69	25888.37
842.87	25540.22
843.04	25867.89
843.22	25489.02
843.40	25749.11
843.57	25476.73
843.75	25806.45
843.92	25484.92
844.10	25525.88
844.28	25480.83
844.45	25357.95
844.63	25362.04
844.81	25390.72
844.98	25235.07
845.16	25101.95
845.33	25366.14
845.51	24850.05
845.69	24825.48
845.86	24860.29
846.04	25020.03
846.21	25112.19
846.39	24725.13
846.57	24917.64
846.74	25044.61
846.92	24850.05
847.09	24860.29
847.27	24604.30
847.45	24768.13
847.62	24686.22
847.80	24796.81
847.97	24647.30
848.15	24637.06
848.32	24555.15
848.50	24743.56
848.68	24448.65
848.85	24114.83
849.03	24315.53
849.20	24516.23
849.38	24372.88
849.56	24487.56
849.73	24137.36
849.91	24448.65
850.08	24315.53
850.26	23789.20
850.43	24307.34
850.61	24200.85
850.78	24037.01
850.96	24708.74
851.14	23930.51
851.31	24069.78
851.49	23932.56
851.66	24223.37
851.84	23742.10
852.01	24059.54
852.19	24196.75
852.36	24200.85
852.54	23809.68
852.71	23680.66
852.89	23633.56
853.07	23840.40
853.24	23611.03
853.42	23463.58
853.59	23367.32
853.77	23582.36
853.94	24020.63
854.12	23692.95
854.29	23297.69
854.47	23463.58
854.64	23322.27
854.82	23723.67
854.99	23543.45
855.17	23357.08
855.34	23281.31
855.52	23506.59
855.69	23701.14
855.87	23228.06
856.04	23193.25
856.22	23084.70
856.39	23019.17
856.57	23121.57
856.74	23154.33
856.92	23183.01
857.09	23172.77
857.27	23035.55
857.44	23279.26
857.62	23256.73
857.79	22996.64
857.97	22884.00
858.14	22978.21
858.32	22881.95
858.49	22957.73
858.67	22605.48
858.84	22734.50
859.02	22826.66
859.19	22515.37
859.37	22421.16
859.54	22574.76
859.72	22816.42
859.89	22863.52
860.06	22855.33
860.24	22511.27
860.41	22691.49
860.59	22412.97
860.76	22408.87
860.94	22161.07
861.11	22439.59
861.29	22421.16
861.46	22296.24
861.64	22404.78
861.81	22447.79
861.98	22062.77
862.16	22183.60
862.33	22007.47
862.51	22101.68
862.68	22226.60
862.86	22054.58
863.03	21954.22
863.21	22064.82
863.38	21978.80
863.55	21948.08
863.73	21886.64
863.90	22101.68
864.08	21800.63
864.25	21690.04
864.43	21855.92
864.60	21819.06
864.77	21868.21
864.95	21655.22
865.12	21718.71
865.30	21567.16
865.47	21716.66
865.64	21731.00
865.82	21538.49
865.99	21540.54
866.17	21913.27
866.34	21610.17
866.51	21270.20
866.69	21296.83
866.86	21262.01
867.04	21305.02
867.21	21624.50
867.38	21092.03
867.56	21288.64
867.73	21096.13
867.91	21266.11
868.08	21063.36
868.25	20946.62
868.43	21194.43
868.60	20778.69
868.78	20930.24
868.95	21262.01
869.12	21018.30
869.30	20983.49
869.47	21036.74
869.64	20522.69
869.82	20788.93
869.99	20471.50
870.16	20989.63
870.34	20590.28
870.51	20729.54
870.69	20467.40
870.86	20539.08
871.03	20659.91
871.21	20354.76
871.38	20569.80
871.55	20334.28
871.73	20170.44
871.90	20414.15
872.07	20090.57
872.25	19920.59
872.42	20094.67
872.59	20256.46
872.77	20176.59
872.94	19984.08
873.11	19926.74
873.29	20018.89
873.46	19801.81
873.63	20016.85
873.81	19824.34
873.98	19597.01
874.15	19732.18
874.33	19523.29
874.50	19646.16
874.67	19646.16
874.85	19840.72
875.02	19332.82
875.19	19527.38
875.37	19603.16
875.54	19410.65
875.71	19668.69
875.88	19508.95
876.06	19191.52
876.23	19150.56
876.40	19363.54
876.58	19160.80
876.75	19343.06
876.92	19289.82
877.10	18933.47
877.27	18984.67
877.44	18951.90
877.61	18826.98
877.79	18765.54
877.96	18757.35
878.13	18988.77
878.31	18824.93
878.48	18759.39
878.65	18683.62
878.82	18607.84
879.00	18650.85
879.17	18630.37
879.34	18691.81
879.51	18523.88
879.69	18558.69
879.86	18290.41
880.03	18126.57
880.21	18210.54
880.38	18339.56
880.55	18355.94
880.72	18280.17
880.90	18396.90
881.07	18163.43
881.24	18206.44
881.41	18171.63
881.59	18079.47
881.76	18194.15
881.93	18147.05
882.10	18149.10
882.28	17868.53
882.45	18208.49
882.62	18054.89
882.79	18155.24
882.96	17719.03
883.14	17872.62
883.31	18122.48
883.48	17854.19
883.65	17989.36
883.83	17897.20
884.00	17706.74
884.17	17524.47
884.34	18009.84
884.51	17897.20
884.69	17602.29
884.86	18022.12
885.03	17805.04
885.20	17407.73
885.38	17882.86
885.55	17635.06
885.72	17639.15
885.89	17676.02
886.06	17610.48
886.24	17782.51
886.41	17532.66
886.58	17346.30
886.75	17721.07
886.92	17286.90
887.10	17680.11
887.27	17487.61
887.44	17237.75
887.61	17551.09
887.78	17503.99
887.95	17374.97
888.13	16959.23
888.30	17047.29
888.47	17204.99
888.64	17180.41
888.81	17045.24
888.99	17080.06
889.16	16928.51
889.33	16799.49
889.50	16844.54
889.67	16795.39
889.84	16885.50
890.01	16672.51
890.19	16914.17
890.36	16883.45
890.53	16842.50
890.70	16760.58
890.87	16584.45
891.04	16750.34
891.22	16559.88
891.39	16506.63
891.56	16602.88
891.73	16453.38
891.90	16264.97
892.07	16471.81
892.24	16611.07
892.42	16414.47
892.59	16379.65
892.76	16310.02
892.93	16285.45
893.10	16209.67
893.27	16336.65
893.44	16400.13
893.61	16322.31
893.79	16244.49
893.96	16318.22
894.13	16283.40
894.30	16277.26
894.47	16158.47
894.64	16262.92
894.81	16187.14
894.98	16289.54
895.15	16557.83
895.33	16254.73
895.50	16250.63
895.67	16275.21
895.84	15970.06
896.01	15968.01
896.18	16006.92
896.35	16113.42
896.52	16094.99
896.69	16115.47
896.86	15920.91
897.04	15996.68
897.21	16254.73
897.38	15988.49
897.55	15972.11
897.72	16023.31
897.89	16213.77
898.06	16232.20
898.23	16193.29
898.40	16076.55
898.57	15855.37
898.74	16137.99
898.91	16008.97
899.08	15910.67
899.26	16070.41
899.43	16238.34
899.60	15822.61
899.77	15857.42
899.94	15863.57
900.11	16049.93
900.28	15896.33
900.45	15808.27
900.62	15908.62
900.79	16162.57
900.96	15773.46
901.13	15939.34
901.30	15867.66
901.47	15687.44
901.64	15767.31
901.81	15927.05
901.98	16051.98
902.15	15918.86
902.32	15787.79
902.49	15978.25
902.66	15918.86
902.83	15652.63
903.01	16015.12
903.18	15845.13
903.35	15922.96
903.52	16027.40
903.69	16068.36
903.86	16066.31
904.03	15705.87
904.20	16099.08
904.37	15943.44
904.54	15750.93
904.71	15787.79
904.88	16037.64
905.05	15806.22
905.22	15843.09
905.39	15707.92
905.56	15873.81
905.73	15755.02
905.90	15847.18
906.07	15750.93
906.24	15879.95
906.41	15529.75
906.58	15808.27
906.75	15802.13
906.92	15828.75
907.09	15757.07
907.26	15787.79
907.43	15853.33
907.60	15654.67
907.77	15990.54
907.93	15714.06
908.10	15791.89
908.27	15810.32
908.44	15605.52
908.61	15513.36
908.78	15568.66
908.95	15632.15
909.12	15546.13
909.29	15632.15
909.46	15585.04
909.63	15847.18
909.80	15845.13
909.97	15644.43
910.14	15404.82
910.31	15593.23
910.48	15496.98
910.65	15544.08
910.82	15564.56
910.99	15716.11
911.16	15456.02
911.33	15492.88
911.50	15324.95
911.66	15357.72
911.83	15429.40
912.00	15224.60
912.17	15226.65
912.34	15159.06
912.51	15378.20
912.68	14937.88
912.85	15462.16
913.02	15169.30
913.19	15064.86
913.36	15333.14
913.53	15177.50
913.70	15097.63
913.86	15140.63
914.03	14886.68
914.20	15105.82
914.37	15007.52
914.54	15019.80
914.71	15193.88
914.88	14898.97
915.05	15060.76
915.22	14790.43
915.39	14716.70
915.55	14819.10
915.72	14780.19
915.89	14722.85
916.06	14454.56
916.23	14671.65
916.40	14475.04
916.57	14595.87
916.74	14544.67
916.91	14692.13
917.07	14264.10
917.24	14456.61
917.41	14554.91
917.58	14434.08
917.75	14141.22
917.92	13926.19
918.09	14315.30
918.26	14237.48
918.42	14272.29
918.59	14354.21
918.76	14274.34
918.93	14087.98
919.10	14049.07
919.27	14120.74
919.44	14032.68
919.60	14087.98
919.77	13819.69
919.94	13895.47
920.11	13649.71
920.28	13758.25
920.45	13680.43
920.61	13549.36
920.78	13428.53
920.95	13610.80
921.12	13504.31
921.29	13444.91
921.46	13559.60
921.62	13260.60
921.79	13322.04
921.96	13178.68
922.13	13289.27
922.30	13207.35
922.47	13113.14
922.63	13190.97
922.80	12984.12
922.97	13000.51
923.14	12848.96
923.31	12945.21
923.47	12808.00
923.64	13164.34
923.81	12844.86
923.98	12736.32
924.15	12795.71
924.32	12713.79
924.48	12504.90
924.65	12719.93
924.82	12592.96
924.99	12363.59
925.15	12371.78
925.32	12461.89
925.49	12166.98
925.66	12351.30
925.83	12230.47
925.99	12121.93
926.16	12291.91
926.33	12156.74
926.50	11906.89
926.67	12003.14
926.83	11906.89
927.00	11816.78
927.17	11638.61
927.34	11820.88
927.50	11849.55
927.67	11693.90
927.84	11710.29
928.01	11784.01
928.17	11595.60
928.34	11665.23
928.51	11491.15
928.68	11388.75
928.84	11528.02
929.01	11143.00
929.18	11159.38
929.35	11177.81
929.51	11186.01
929.68	10858.33
929.85	10979.16
930.02	11136.85
930.18	11048.79
930.35	10944.34
930.52	10880.86
930.69	11022.17
930.85	10944.34
931.02	10702.68
931.19	10880.86
931.36	10618.72
931.52	10663.77
931.69	10899.29
931.86	10327.91
932.02	10565.47
932.19	10413.92
932.36	10491.74
932.53	10504.03
932.69	10274.66
932.86	10413.92
933.03	10364.77
933.19	10004.33
933.36	9998.18
933.53	10272.61
933.70	10057.57
933.86	9723.76
934.03	10059.62
934.20	9750.38
934.36	9772.91
934.53	9506.67
934.70	9547.63
934.86	9561.97
935.03	9439.09
935.20	9414.51
935.36	9412.46
935.53	9211.76
935.70	9219.96
935.86	9277.30
936.03	9015.16
936.20	8935.29
936.36	8904.57
936.53	8843.13
936.70	8851.32
936.86	8789.88
937.03	8593.28
937.20	8499.07
937.36	8605.56
937.53	8415.10
937.70	8398.72
937.86	8142.72
938.03	8134.53
938.20	8116.10
938.36	8028.04
938.53	7872.39
938.70	7790.47
938.86	7741.32
939.03	7665.55
939.20	7446.41
939.36	7327.63
939.53	7264.15
939.70	7710.60
939.86	7155.60
940.03	7139.22
940.19	7161.75
940.36	6879.13
940.53	7167.89
940.69	6741.91
940.86	6938.52
941.03	6698.91
941.19	6594.46
941.36	6598.56
941.52	6668.19
941.69	6481.82
941.86	6377.37
942.02	6451.10
942.19	6352.80
942.35	6401.95
942.52	6197.15
942.69	6186.91
942.85	6123.43
943.02	6098.85
943.18	6070.18
943.35	6094.76
943.52	5930.92
943.68	5851.05
943.85	5857.19
944.01	5795.75
944.18	5736.36
944.35	5801.90
944.51	5740.46
944.68	5636.01
944.84	5654.44
945.01	5490.60
945.17	5685.16
945.34	5605.29
945.51	5597.10
945.67	5584.81
945.84	5599.15
946.00	5601.19
946.17	5504.94
946.33	5480.36
946.50	5656.49
946.67	5564.33
946.83	5537.71
947.00	5545.90
947.16	5517.23
947.33	5593.00
947.49	5359.53
947.66	5334.96
947.82	5476.27
947.99	5375.92
948.16	5392.30
948.32	5513.13
948.49	5504.94
948.65	5537.71
948.82	5408.69
948.98	5300.14
949.15	5339.05
949.31	5435.31
949.48	5480.36
949.64	5455.79
949.81	5377.97
949.97	5425.07
950.14	5459.88
950.30	5406.64
950.47	5562.28
950.63	5541.80
950.80	5363.63
950.96	5382.06
951.13	5580.71
951.30	5531.56
951.46	5474.22
951.63	5566.38
951.79	5517.23
951.96	5623.72
952.12	5558.19
952.29	5570.48
952.45	5539.76
952.62	5511.08
952.78	5703.59
952.94	5472.17
953.11	5590.95
953.27	5560.24
953.44	5875.62
953.60	5662.63
953.77	5691.31
953.93	5650.35
954.10	5574.57
954.26	5558.19
954.43	5631.91
954.59	5613.48
954.76	5697.45
954.92	5597.10
955.09	5593.00
955.25	5597.10
955.42	5593.00
955.58	5711.78
955.75	5590.95
955.91	5494.70
956.07	5654.44
956.24	5545.90
956.40	5730.22
956.57	5746.60
956.73	5506.99
956.90	5754.79
957.06	5779.37
957.23	5615.53
957.39	5519.28
957.56	5672.87
957.72	5570.48
957.88	5564.33
958.05	5572.52
958.21	5754.79
958.38	5771.18
958.54	5599.15
958.71	5783.46
958.87	5623.72
959.03	5672.87
959.20	5615.53
959.36	5646.25
959.53	5742.50
959.69	5609.39
959.85	5746.60
960.02	5441.45
960.18	5623.72
960.35	5670.83
960.51	5707.69
960.68	5584.81
960.84	5556.14
961.00	5619.63
961.17	5599.15
961.33	5711.78
961.50	5709.74
961.66	5603.24
961.82	5509.04
961.99	5605.29
962.15	5615.53
962.31	5537.71
962.48	5599.15
962.64	5760.94
962.81	5578.67
962.97	5668.78
963.13	5566.38
963.30	5699.50
963.46	5486.51
963.62	5613.48
963.79	5672.87
963.95	5568.43
964.12	5599.15
964.28	5509.04
964.44	5427.12
964.61	5461.93
964.77	5613.48
964.93	5531.56
965.10	5453.74
965.26	5523.37
965.42	5447.60
965.59	5349.29
965.75	5443.50
965.92	5406.64
966.08	5451.69
966.24	5500.84
966.41	5398.45
966.57	5388.21
966.73	5461.93
966.90	5435.31
967.06	5418.93
967.22	5386.16
967.39	5382.06
967.55	5410.73
967.71	5498.80
967.88	5390.25
968.04	5269.42
968.20	5363.63
968.37	5261.23
968.53	5328.81
968.69	5392.30
968.85	5322.67
969.02	5517.23
969.18	5334.96
969.34	5363.63
969.51	5312.43
969.67	5359.53
969.83	5306.29
970.00	5423.02
970.16	5318.57
970.32	5197.74
970.48	5351.34
970.65	5250.99
970.81	5175.22
970.97	5406.64
971.14	4949.94
971.30	5216.18
971.46	5203.89
971.63	5185.46
971.79	5068.72
971.95	5244.85
972.11	5189.55
972.28	5068.72
972.44	5138.35
972.60	4999.09
972.76	5027.76
972.93	4999.09
973.09	5136.31
973.25	5085.11
973.42	5068.72
973.58	5128.11
973.74	5025.72
973.90	4966.32
974.07	5003.19
974.23	4995.00
974.39	5105.59
974.55	5107.63
974.72	4923.32
974.88	4906.93
975.04	5025.72
975.20	4931.51
975.37	5007.28
975.53	4980.66
975.69	4937.65
975.85	4947.89
976.01	4892.60
976.18	4814.77
976.34	4865.97
976.50	4911.03
976.66	4933.56
976.83	4796.34
976.99	4839.35
977.15	4769.72
977.31	4712.38
977.47	4857.78
977.64	4736.95
977.80	4827.06
977.96	4798.39
978.12	4679.61
978.29	4769.72
978.45	4624.31
978.61	4734.90
978.77	4657.08
978.93	4724.66
979.10	4730.81
979.26	4792.25
979.42	4650.94
979.58	4612.03
979.74	4665.27
979.91	4603.83
980.07	4646.84
980.23	4618.17
980.39	4601.79
980.55	4642.75
980.71	4556.73
980.88	4462.52
981.04	4528.06
981.20	4483.00
981.36	4620.22
981.52	4423.61
981.68	4376.51
981.85	4583.35
982.01	4509.63
982.17	4421.56
982.33	4374.46
982.49	4628.41
982.65	4378.56
982.82	4403.13
982.98	4396.99
983.14	4337.60
983.30	4478.91
983.46	4509.63
983.62	4390.84
983.79	4315.07
983.95	4235.20
984.11	4304.83
984.27	4265.92
984.43	4403.13
984.59	4349.89
984.75	4403.13
984.91	4399.04
985.08	4343.74
985.24	4175.81
985.40	4218.82
985.56	4190.14
985.72	4296.64
985.88	4329.41
986.04	4132.80
986.20	4097.99
986.37	4247.49
986.53	4237.25
986.69	4227.01
986.85	4169.66
987.01	4050.88
987.17	4302.78
987.33	4075.46
987.49	3966.92
987.65	4222.91
987.82	4128.70
987.98	4042.69
988.14	4124.61
988.30	4054.98
988.46	4077.51
988.62	3981.25
988.78	4079.55
988.94	4018.11
989.10	3960.77
989.26	3903.43
989.42	3891.14
989.59	4014.02
989.75	3946.44
989.91	3958.72
990.07	3837.89
990.23	3901.38
990.39	3983.30
990.55	3852.23
990.71	3803.08
990.87	3872.71
991.03	3864.52
991.19	3981.25
991.35	3753.93
991.51	3837.89
991.67	3813.32
991.83	3925.96
992.00	3844.04
992.16	3874.76
992.32	3796.93
992.48	3921.86
992.64	3696.58
992.80	3704.78
992.96	3819.46
993.12	3712.97
993.28	3712.97
993.44	3760.07
993.60	3715.02
993.76	3647.43
993.92	3739.59
994.08	3790.79
994.24	3780.55
994.40	3745.73
994.56	3817.41
994.72	3782.60
994.88	3563.47
995.04	3688.39
995.20	3600.33
995.36	3635.14
995.52	3651.53
995.68	3624.90
995.84	3583.95
996.00	3813.32
996.16	3532.75
996.32	3571.66
996.48	3549.13
996.64	3571.66
996.80	3522.51
996.96	3448.78
997.12	3583.95
997.28	3444.68
997.44	3493.83
997.60	3362.76
997.76	3514.31
997.92	3518.41
998.08	3475.40
998.24	3385.29
998.40	3448.78
998.56	3479.50
998.72	3377.10
998.88	3385.29
999.04	3334.09
999.20	3446.73
999.36	3280.85
999.52	3510.22
999.68	3358.67
999.84	3375.05
1000.00	3321.81
1000.16	3495.88
1000.32	3301.33
1000.48	3399.63
1000.64	3299.28
1000.80	3256.27
1000.95	3190.74
1001.11	3334.09
1001.27	3237.84
1001.43	3237.84
1001.59	3252.17
1001.75	3194.83
1001.91	3358.67
1002.07	3221.45
1002.23	3190.74
1002.39	3133.39
1002.55	3221.45
1002.71	3250.13
1002.87	3194.83
1003.03	3235.79
1003.19	3176.40
1003.34	3270.61
1003.50	3190.74
1003.66	3090.38
1003.82	3227.60
1003.98	3114.96
1004.14	3166.16
1004.30	3139.54
1004.46	3012.56
1004.62	3071.95
1004.78	3006.42
1004.94	3043.28
1005.09	3143.63
1005.25	3162.06
1005.41	3084.24
1005.57	2961.36
1005.73	2994.13
1005.89	2949.08
1006.05	3059.67
1006.21	3067.86
1006.37	2967.51
1006.52	3022.80
1006.68	2916.31
1006.84	3137.49
1007.00	2936.79
1007.16	2934.74
1007.32	2904.02
1007.48	2920.40
1007.64	2944.98
1007.79	3049.43
1007.95	2783.19
1008.11	3071.95
1008.27	2885.59
1008.43	2861.01
1008.59	2906.07
1008.75	3063.76
1008.91	2904.02
1009.06	2906.07
1009.22	2934.74
1009.38	2877.40
1009.54	2838.48
1009.70	2848.72
1009.86	2887.64
1010.01	2873.30
1010.17	2793.43
1010.33	2818.00
1010.49	2775.00
1010.65	2910.16
1010.81	2740.18
1010.96	2768.85
1011.12	2736.09
1011.28	2764.76
1011.44	2854.87
1011.60	2717.65
1011.76	2731.99
1011.91	2781.14
1012.07	2703.32
1012.23	2725.85
1012.39	2727.89
1012.55	2756.57
1012.71	2713.56
1012.86	2598.87
1013.02	2600.92
1013.18	2715.61
1013.34	2674.65
1013.50	2721.75
1013.65	2557.91
1013.81	2568.15
1013.97	2625.50
1014.13	2656.22
1014.29	2549.72
1014.44	2758.61
1014.60	2613.21
1014.76	2582.49
1014.92	2590.68
1015.07	2570.20
1015.23	2588.63
1015.39	2641.88
1015.55	2625.50
1015.71	2600.92
1015.86	2613.21
1016.02	2486.23
1016.18	2527.19
1016.34	2555.86
1016.49	2584.54
1016.65	2611.16
1016.81	2441.18
1016.97	2545.63
1017.12	2512.86
1017.28	2455.51
1017.44	2412.51
1017.60	2478.04
1017.75	2555.86
1017.91	2465.75
1018.07	2531.29
1018.23	2516.95
1018.38	2471.90
1018.54	2459.61
1018.70	2389.98
1018.86	2420.70
1019.01	2471.90
1019.17	2504.67
1019.33	2475.99
1019.49	2504.67
1019.64	2508.76
1019.80	2424.80
1019.96	2418.65
1020.12	2404.32
1020.27	2418.65
1020.43	2400.22
1020.59	2389.98
1020.74	2394.08
1020.90	2543.58
1021.06	2303.96
1021.22	2387.93
1021.37	2400.22
1021.53	2381.79
1021.69	2412.51
1021.84	2281.44
1022.00	2254.81
1022.16	2344.92
1022.31	2303.96
1022.47	2338.78
1022.63	2404.32
1022.79	2281.44
1022.94	2377.69
1023.10	2357.21
1023.26	2263.01
1023.41	2295.77
1023.57	2303.96
1023.73	2361.31
1023.88	2318.30
1024.04	2312.16
1024.20	2252.77
1024.35	2258.91
1024.51	2236.38
1024.67	2377.69
1024.82	2306.01
1024.98	2199.52
1025.14	2328.54
1025.29	2277.34
1025.45	2330.59
1025.61	2211.81
1025.76	2222.05
1025.92	2273.25
1026.08	2267.10
1026.23	2338.78
1026.39	2297.82
1026.55	2222.05
1026.70	2185.18
1026.86	2215.90
1027.02	2248.67
1027.17	2281.44
1027.33	2215.90
1027.48	2183.13
1027.64	2123.74
1027.80	2086.88
1027.95	2232.29
1028.11	2133.98
1028.27	2160.61
1028.42	2113.50
1028.58	2095.07
1028.73	2136.03
1028.89	2086.88
1029.05	2246.62
1029.20	2168.80
>>>>>End Processed Spectral Data<<<<<
