SpectraSuite Data File
++++++++++++++++++++++++++++++++++++
Date: Fri Jun 02 14:49:27 CEST 2017
User: INFO_000
Dark Spectrum Present: No
Reference Spectrum Present: No
Number of Sampled Component Spectra: 1
Spectrometers: USB4H00879
Integration Time (usec): 80000 (USB4H00879)
Spectra Averaged: 1 (USB4H00879)
Boxcar Smoothing: 0 (USB4H00879)
Correct for Electrical Dark: No (USB4H00879)
Strobe/Lamp Enabled: No (USB4H00879)
Correct for Detector Non-linearity: No (USB4H00879)
Correct for Stray Light: No (USB4H00879)
Number of Pixels in Processed Spectrum: 3648
>>>>>Begin Processed Spectral Data<<<<<
345.13	1222.64
345.34	1222.64
345.56	1222.64
345.78	1310.70
345.99	1273.84
346.21	1738.73
346.42	1769.44
346.64	1652.71
346.86	1800.16
347.07	1699.81
347.29	1769.44
347.50	1640.42
347.72	1710.05
347.94	1769.44
348.15	1611.75
348.37	1593.32
348.59	1716.20
348.80	1624.04
349.02	1738.73
349.23	1853.41
349.45	1849.32
349.67	1855.46
349.88	1744.87
350.10	1937.38
350.31	1802.21
350.53	1869.80
350.75	2007.01
350.96	1783.78
351.18	1906.66
351.39	1849.32
351.61	1832.93
351.82	1929.19
352.04	1957.86
352.26	1814.50
352.47	1818.60
352.69	1904.61
352.90	1810.40
353.12	1816.55
353.34	1884.13
353.55	1951.71
353.77	1927.14
353.98	1787.88
354.20	1867.75
354.41	1929.19
354.63	1912.80
354.85	1935.33
355.06	1925.09
355.28	1785.83
355.49	1824.74
355.71	1884.13
355.92	1843.17
356.14	1920.99
356.35	1812.45
356.57	1898.47
356.79	1953.76
357.00	1888.23
357.22	1976.29
357.43	1886.18
357.65	2009.06
357.86	1937.38
358.08	1886.18
358.29	1951.71
358.51	1961.95
358.72	2011.11
358.94	1953.76
359.16	1902.56
359.37	1939.43
359.59	1976.29
359.80	2058.21
360.02	1923.04
360.23	1986.53
360.45	2037.73
360.66	1884.13
360.88	1918.95
361.09	1929.19
361.31	1988.58
361.52	1964.00
361.74	2011.11
361.95	2033.63
362.17	1953.76
362.38	2013.15
362.60	2029.54
362.81	1986.53
363.03	1964.00
363.24	1988.58
363.46	2117.60
363.67	1990.63
363.89	1994.72
364.10	1964.00
364.32	1953.76
364.53	2082.78
364.75	1888.23
364.96	2017.25
365.18	2011.11
365.39	2060.26
365.61	1916.90
365.82	2121.70
366.04	1964.00
366.25	1904.61
366.47	2084.83
366.68	2056.16
366.90	1959.91
367.11	2109.41
367.33	2064.35
367.54	2035.68
367.76	2023.39
367.97	2105.31
368.19	2037.73
368.40	2045.92
368.62	2037.73
368.83	1939.43
369.05	2088.93
369.26	2029.54
369.48	2027.49
369.69	1961.95
369.91	2015.20
370.12	2076.64
370.33	2093.02
370.55	1953.76
370.76	2027.49
370.98	2074.59
371.19	2076.64
371.41	2047.97
371.62	2084.83
371.84	2039.78
372.05	2160.61
372.27	1992.67
372.48	2068.45
372.69	1984.48
372.91	2050.02
373.12	2164.70
373.34	2043.87
373.55	2119.65
373.77	2179.04
373.98	2045.92
374.20	2213.85
374.41	2273.25
374.62	2047.97
374.84	2111.46
375.05	2211.81
375.27	2160.61
375.48	2105.31
375.70	2142.18
375.91	2222.05
376.12	2310.11
376.34	2113.50
376.55	2076.64
376.77	2176.99
376.98	2150.37
377.19	2064.35
377.41	2158.56
377.62	2215.90
377.84	2236.38
378.05	2435.03
378.27	2207.71
378.48	2324.44
378.69	2396.12
378.91	2281.44
379.12	2203.61
379.34	2220.00
379.55	2357.21
379.76	2265.05
379.98	2138.08
380.19	2279.39
380.41	2334.68
380.62	2301.92
380.83	2308.06
381.05	2187.23
381.26	2375.64
381.47	2215.90
381.69	2275.29
381.90	2353.12
382.12	2205.66
382.33	2273.25
382.54	2236.38
382.76	2306.01
382.97	2340.83
383.19	2213.85
383.40	2349.02
383.61	2320.35
383.83	2306.01
384.04	2344.92
384.25	2316.25
384.47	2394.08
384.68	2418.65
384.89	2377.69
385.11	2293.72
385.32	2387.93
385.54	2334.68
385.75	2392.03
385.96	2324.44
386.18	2461.66
386.39	2420.70
386.60	2432.99
386.82	2422.75
387.03	2412.51
387.24	2494.43
387.46	2439.13
387.67	2437.08
387.88	2469.85
388.10	2412.51
388.31	2525.15
388.52	2512.86
388.74	2467.80
388.95	2525.15
389.16	2424.80
389.38	2412.51
389.59	2519.00
389.80	2500.57
390.02	2459.61
390.23	2672.60
390.44	2502.62
390.66	2486.23
390.87	2455.51
391.08	2559.96
391.30	2721.75
391.51	2664.41
391.72	2703.32
391.94	2635.74
392.15	2619.35
392.36	2508.76
392.58	2531.29
392.79	2645.98
393.00	2674.65
393.22	2711.51
393.43	2637.78
393.64	2740.18
393.85	2764.76
394.07	2609.11
394.28	2695.13
394.49	2736.09
394.71	2738.13
394.92	2824.15
395.13	2754.52
395.35	2668.50
395.56	2801.62
395.77	2836.44
395.98	2754.52
396.20	2676.70
396.41	2813.91
396.62	2785.24
396.84	2762.71
397.05	2840.53
397.26	2906.07
397.47	2901.97
397.69	2779.09
397.90	2951.12
398.11	2893.78
398.32	2930.64
398.54	2719.70
398.75	2797.53
398.96	2828.24
399.18	3002.32
399.39	2992.08
399.60	3100.62
399.81	2883.54
400.03	2891.73
400.24	3223.50
400.45	2895.83
400.66	3092.43
400.88	2971.60
401.09	3182.54
401.30	3098.58
401.51	3203.02
401.73	3139.54
401.94	3108.82
402.15	3084.24
402.36	3125.20
402.58	3162.06
402.79	3114.96
403.00	3147.73
403.21	3141.58
403.43	3186.64
403.64	3276.75
403.85	3135.44
404.06	3110.86
404.27	3102.67
404.49	3250.13
404.70	3100.62
404.91	3338.19
405.12	3239.89
405.34	3227.60
405.55	3360.72
405.76	3246.03
405.97	3289.04
406.19	3334.09
406.40	3248.08
406.61	3268.56
406.82	3399.63
407.03	3303.37
407.25	3282.89
407.46	3418.06
407.67	3499.98
407.88	3442.64
408.09	3379.15
408.31	3340.24
408.52	3393.48
408.73	3323.85
408.94	3407.82
409.15	3450.83
409.37	3524.55
409.58	3553.23
409.79	3532.75
410.00	3608.52
410.21	3364.81
410.43	3405.77
410.64	3522.51
410.85	3508.17
411.06	3561.42
411.27	3542.99
411.48	3776.45
411.70	3506.12
411.91	3506.12
412.12	3508.17
412.33	3653.58
412.54	3485.64
412.76	3735.50
412.97	3723.21
413.18	3557.32
413.39	3674.06
413.60	3592.14
413.81	3669.96
414.03	3528.65
414.24	3577.80
414.45	3737.54
414.66	3506.12
414.87	3731.40
415.08	3751.88
415.30	3694.54
415.51	3659.72
415.72	3774.41
415.93	3680.20
416.14	3837.89
416.35	3753.93
416.56	3745.73
416.78	3823.56
416.99	3768.26
417.20	3745.73
417.41	3917.76
417.62	3870.66
417.83	3975.11
418.04	3919.81
418.26	3872.71
418.47	3958.72
418.68	3997.64
418.89	3971.01
419.10	3991.49
419.31	3995.59
419.52	4036.55
419.73	3952.58
419.95	4069.31
420.16	4026.31
420.37	4091.84
420.58	3958.72
420.79	3870.66
421.00	3977.16
421.21	4075.46
421.42	3960.77
421.63	4059.07
421.85	4097.99
422.06	4173.76
422.27	4116.42
422.48	4108.23
422.69	4169.66
422.90	4190.14
423.11	4116.42
423.32	4308.93
423.53	4353.98
423.75	4175.81
423.96	4376.51
424.17	4327.36
424.38	4442.04
424.59	4272.06
424.80	4394.94
425.01	4222.91
425.22	4339.65
425.43	4489.15
425.64	4454.33
425.85	4579.26
426.06	4493.24
426.28	4483.00
426.49	4501.44
426.70	4380.61
426.91	4503.48
427.12	4552.63
427.33	4509.63
427.54	4437.95
427.75	4607.93
427.96	4638.65
428.17	4663.22
428.38	4745.14
428.59	4804.53
428.80	4675.51
429.01	4794.29
429.23	4706.23
429.44	5058.48
429.65	4939.70
429.86	4802.49
430.07	4825.01
430.28	4673.46
430.49	4906.93
430.70	4923.32
430.91	4978.61
431.12	5009.33
431.33	5021.62
431.54	5011.38
431.75	5126.07
431.96	4974.52
432.17	5029.81
432.38	5009.33
432.59	5230.51
432.80	5091.25
433.01	5113.78
433.22	5179.31
433.43	5224.37
433.64	5236.66
433.85	5259.18
434.06	5363.63
434.27	5093.30
434.49	5294.00
434.70	5410.73
434.91	5404.59
435.12	5312.43
435.33	5445.55
435.54	5410.73
435.75	5371.82
435.96	5275.57
436.17	5330.86
436.38	5492.65
436.59	5521.32
436.80	5504.94
437.01	5611.43
437.22	5640.11
437.43	5556.14
437.64	5445.55
437.85	5760.94
438.06	5709.74
438.27	5562.28
438.48	5582.76
438.69	5633.96
438.90	5707.69
439.11	5728.17
439.32	5873.57
439.53	5713.83
439.74	5894.05
439.95	5859.24
440.16	5849.00
440.37	5932.97
440.57	5822.38
440.78	5965.73
440.99	5853.09
441.20	6051.75
441.41	5844.90
441.62	6102.95
441.83	5869.48
442.04	6135.71
442.25	6143.91
442.46	6068.13
442.67	6004.64
442.88	6307.74
443.09	5975.97
443.30	6102.95
443.51	6066.08
443.72	6539.16
443.93	6143.91
444.14	6375.33
444.35	6082.47
444.56	6166.43
444.77	6268.83
444.98	6262.69
445.19	6393.76
445.40	6479.77
445.61	6264.74
445.81	6569.88
446.02	6631.32
446.23	6467.49
446.44	6244.26
446.65	6336.42
446.86	6545.31
447.07	6590.36
447.28	6805.40
447.49	6584.22
447.70	6582.17
447.91	6600.60
448.12	6774.68
448.33	6768.54
448.54	6793.11
448.74	6629.27
448.95	6827.93
449.16	6709.15
449.37	6889.37
449.58	6573.98
449.79	6924.18
450.00	6633.37
450.21	6965.14
450.42	7032.72
450.63	7030.68
450.84	7002.01
451.05	6959.00
451.25	7008.15
451.46	6973.33
451.67	7045.01
451.88	7022.48
452.09	7188.37
452.30	7102.36
452.51	7120.79
452.72	7335.82
452.93	7585.68
453.13	7073.68
453.34	7327.63
453.55	7194.51
453.76	7188.37
453.97	7503.76
454.18	7423.89
454.39	7450.51
454.60	7288.72
454.81	7440.27
455.01	7511.95
455.22	7479.18
455.43	7497.61
455.64	7683.98
455.85	7954.31
456.06	7905.16
456.27	7745.42
456.48	7669.64
456.68	7813.00
456.89	7847.82
457.10	7737.23
457.31	7808.90
457.52	7827.34
457.73	8071.04
457.94	8187.78
458.14	7890.82
458.35	8255.36
458.56	8032.13
458.77	8046.47
458.98	8210.31
459.19	8146.82
459.39	8298.37
459.60	8396.67
459.81	8269.70
460.02	8380.29
460.23	8484.73
460.44	8574.85
460.65	8785.79
460.85	8499.07
461.06	8728.44
461.27	8492.93
461.48	8873.85
461.69	8773.50
461.89	8490.88
462.10	8761.21
462.31	8570.75
462.52	8636.28
462.73	8859.51
462.94	9107.32
463.14	8972.15
463.35	8968.06
463.56	9434.99
463.77	9265.01
463.98	8931.19
464.18	9166.71
464.39	9273.20
464.60	9371.50
464.81	9334.64
465.02	9203.57
465.23	9684.84
465.43	9408.37
465.64	9774.95
465.85	9553.77
466.06	9422.70
466.27	9914.22
466.47	9711.47
466.68	9752.43
466.89	9998.18
467.10	9867.11
467.30	9723.76
467.51	10026.86
467.72	10184.55
467.93	9918.31
468.14	10037.09
468.34	10258.28
468.55	10334.05
468.76	10356.58
468.97	10186.60
469.17	10487.65
469.38	10450.78
469.59	10612.57
469.80	10430.30
470.01	10508.13
470.21	10698.59
470.42	10835.80
470.63	10829.66
470.84	10811.23
471.04	11095.89
471.25	11284.31
471.46	11030.36
471.67	11296.60
471.87	11497.30
472.08	11231.06
472.29	11462.48
472.50	11269.97
472.70	11343.70
472.91	11497.30
473.12	11765.58
473.33	11919.18
473.53	11790.16
473.74	11798.35
473.95	11898.70
474.16	12087.11
474.36	12261.19
474.57	12238.66
474.78	12625.73
474.99	12332.87
475.19	12183.37
475.40	12578.62
475.61	12724.03
475.81	12859.20
476.02	13041.46
476.23	12965.69
476.44	13160.25
476.64	13203.25
476.85	13242.17
477.06	13174.58
477.27	13461.30
477.47	13631.28
477.68	13336.37
477.89	13465.39
478.09	13633.33
478.30	13662.00
478.51	13549.36
478.71	13930.28
478.92	13993.77
479.13	14069.55
479.34	14157.61
479.54	14415.65
479.75	14382.88
479.96	14573.35
480.16	14452.52
480.37	14608.16
480.58	14782.24
480.78	14888.73
480.99	14819.10
481.20	15245.08
481.41	15310.61
481.61	15433.49
481.82	15470.36
482.03	15376.15
482.23	15357.72
482.44	15687.44
482.65	15767.31
482.85	15763.22
483.06	16125.71
483.27	16123.66
483.47	15767.31
483.68	16174.86
483.89	16381.70
484.09	16172.81
484.30	16129.80
484.51	16547.59
484.71	16908.03
484.92	16512.77
485.13	16994.04
485.33	17086.20
485.54	16695.04
485.75	17217.27
485.95	17030.91
486.16	17278.71
486.37	17663.73
486.57	17354.49
486.78	17405.69
486.98	17483.51
487.19	17567.48
487.40	17796.85
487.60	17778.42
487.81	18200.30
488.02	18093.80
488.22	17999.60
488.43	18325.22
488.64	18314.98
488.84	18515.69
489.05	18503.40
489.25	18568.93
489.46	18810.59
489.67	18640.61
489.87	18972.38
490.08	19021.53
490.29	19179.23
490.49	19461.85
490.70	19316.44
490.90	19416.79
491.11	19259.10
491.32	19637.97
491.52	19578.58
491.73	19887.82
491.94	19947.22
492.14	19992.27
492.35	20086.48
492.55	20205.26
492.76	20270.79
492.97	20543.17
493.17	20448.97
493.38	20580.04
493.58	20549.32
493.79	20975.30
494.00	20692.68
494.20	20831.94
494.41	20842.18
494.61	20778.69
494.82	21087.93
495.02	20948.67
495.23	20944.58
495.44	21544.63
495.64	21536.44
495.85	21413.56
496.05	21687.99
496.26	21487.29
496.47	21640.89
496.67	21700.28
496.88	22030.00
497.08	21667.51
497.29	21677.75
497.49	22095.53
497.70	22083.25
497.91	22316.72
498.11	22654.63
498.32	22367.91
498.52	22431.40
498.73	22724.26
498.93	22628.01
499.14	22609.58
499.34	22769.32
499.55	23070.37
499.76	22650.53
499.96	23002.78
500.17	23023.26
500.37	22959.78
500.58	23187.10
500.78	23043.74
500.99	23482.01
501.19	23402.14
501.40	23420.57
501.60	23324.32
501.81	23529.11
502.02	23287.45
502.22	23400.09
502.43	23600.79
502.63	23781.01
502.84	23848.60
503.04	23690.90
503.25	24342.16
503.45	24133.26
503.66	24211.09
503.86	24161.94
504.07	24366.73
504.27	24098.45
504.48	24604.30
504.68	24430.22
504.89	25044.61
505.09	24618.63
505.30	24417.93
505.50	24415.88
505.71	24913.54
505.91	24809.09
506.12	24729.22
506.32	24743.56
506.53	25007.75
506.73	25013.89
506.94	25153.15
507.14	24919.68
507.35	25249.41
507.55	25400.96
507.76	24972.93
507.96	25460.35
508.17	25257.60
508.37	25450.11
508.58	25540.22
508.78	25476.73
508.99	25624.18
509.19	25503.35
509.40	25747.06
509.60	25919.09
509.81	25691.77
510.01	25683.58
510.22	25665.14
510.42	25837.17
510.63	26457.71
510.83	25919.09
511.04	26330.73
511.24	26170.99
511.44	26365.55
511.65	26592.87
511.85	26187.38
512.06	26627.69
512.26	26154.61
512.47	26463.85
512.67	26367.60
512.88	26623.59
513.08	26240.62
513.29	27088.48
513.49	26396.27
513.69	26689.13
513.90	26662.51
514.10	27022.95
514.31	27192.93
514.51	26834.53
514.72	27065.96
514.92	27004.52
515.13	27025.00
515.33	26908.26
515.53	27084.39
515.74	27389.53
515.94	26977.89
516.15	27287.14
516.35	26852.97
516.56	27450.97
516.76	27022.95
516.96	27557.47
517.17	27561.56
517.37	27473.50
517.58	27954.77
517.78	27827.80
517.99	27741.78
518.19	28030.55
518.39	27940.44
518.60	28298.83
518.80	28178.00
519.01	28145.23
519.21	28157.52
519.41	28395.09
519.62	28149.33
519.82	28452.43
520.03	28507.72
520.23	28575.31
520.43	28425.81
520.64	28724.81
520.84	28982.85
521.05	28759.63
521.25	29060.68
521.45	29087.30
521.66	29279.81
521.86	29242.95
522.07	29156.93
522.27	29582.91
522.47	29251.14
522.68	29263.43
522.88	29326.91
523.08	29750.84
523.29	29572.67
523.49	29666.88
523.70	29568.57
523.90	29967.93
524.10	29976.12
524.31	29967.93
524.51	30117.43
524.71	30541.36
524.92	29900.34
525.12	30678.57
525.33	30414.38
525.53	30783.02
525.73	30944.81
525.94	30891.56
526.14	30686.76
526.34	30946.86
526.55	30989.86
526.75	30998.06
526.95	31301.15
527.16	31186.47
527.36	31286.82
527.56	31295.01
527.77	31407.65
527.97	31405.60
528.17	31700.51
528.38	31845.91
528.58	31630.88
528.78	32099.86
528.99	31833.63
529.19	32253.46
529.39	31841.82
529.60	32206.36
529.80	32318.99
530.00	32355.86
530.21	32599.57
530.41	33050.12
530.61	32531.98
530.82	32669.20
531.02	32755.21
531.22	32771.60
531.43	32931.34
531.63	33525.25
531.83	33723.90
532.04	33580.54
532.24	33101.32
532.44	33664.51
532.64	33754.62
532.85	33584.64
533.05	33932.79
533.25	33924.60
533.46	34020.86
533.66	34309.62
533.86	34072.06
534.07	34682.35
534.27	34477.55
534.47	34608.62
534.67	34881.00
534.88	34532.85
535.08	34729.45
535.28	34831.85
535.49	34948.59
535.69	35315.17
535.89	35321.32
536.09	35225.06
536.30	35532.26
536.50	35212.77
536.70	35825.12
536.91	35702.24
537.11	35601.89
537.31	35837.41
537.51	35591.65
537.72	36218.33
537.92	35780.06
538.12	36228.57
538.32	36052.44
538.53	36302.29
538.73	36189.66
538.93	36787.66
539.13	36435.41
539.34	36345.30
539.54	36320.73
539.74	37068.23
539.94	36812.24
540.15	36885.97
540.35	37252.55
540.55	37109.19
540.75	37025.23
540.96	37287.37
541.16	37467.59
541.36	37301.70
541.56	37592.51
541.77	37684.67
541.97	37649.86
542.17	37737.92
542.37	37739.97
542.58	37797.31
542.78	37567.94
542.98	37803.46
543.18	38061.50
543.38	38575.54
543.59	38088.12
543.79	37993.92
543.99	38256.06
544.19	38446.52
544.40	38129.08
544.60	38618.55
544.80	38467.00
545.00	38299.06
545.20	38909.36
545.41	38802.86
545.61	38741.42
545.81	39148.97
546.01	39347.62
546.21	38671.79
546.42	38766.00
546.62	38921.65
546.82	39095.72
547.02	39253.42
547.22	39073.20
547.43	39267.75
547.63	39531.94
547.83	39163.31
548.03	39001.52
548.23	39769.51
548.44	39310.76
548.64	39329.19
548.84	40037.79
549.04	39464.36
549.24	39789.98
549.45	40045.98
549.65	39525.80
549.85	40013.21
550.05	40500.63
550.25	40000.93
550.45	40637.84
550.66	40353.18
550.86	40189.34
551.06	40494.49
551.26	40107.42
551.46	40715.67
551.66	40629.65
551.87	40553.88
552.07	40727.95
552.27	40609.17
552.47	40648.08
552.67	40791.44
552.87	40836.50
553.07	40727.95
553.28	40957.33
553.48	40594.84
553.68	40861.07
553.88	41211.28
554.08	41127.31
554.28	41254.28
554.48	40699.28
554.69	41067.92
554.89	40994.19
555.09	41604.49
555.29	40932.75
555.49	41426.31
555.69	41444.74
555.89	41512.33
556.10	41788.80
556.30	41682.31
556.50	41776.51
556.70	41172.36
556.90	41530.76
557.10	42038.65
557.30	41467.27
557.50	41651.59
557.70	42106.24
557.91	42390.91
558.11	41809.28
558.31	42196.35
558.51	41981.31
558.71	42440.06
558.91	42386.81
559.11	42141.05
559.31	41979.26
559.51	41956.74
559.72	42128.77
559.92	42179.96
560.12	42630.52
560.32	42435.96
560.52	42227.07
560.72	42478.97
560.92	42380.67
561.12	42401.14
561.32	42538.36
561.52	42235.26
561.72	42792.31
561.93	42163.58
562.13	42798.45
562.33	42610.04
562.53	42929.52
562.73	42507.64
562.93	42622.33
563.13	42759.54
563.33	42349.95
563.53	42771.83
563.73	42460.54
563.93	42677.62
564.13	43201.90
564.33	42597.75
564.53	42931.57
564.74	43312.49
564.94	43038.06
565.14	43165.04
565.34	42644.85
565.54	43160.94
565.74	43005.30
565.94	43226.48
566.14	43402.60
566.34	43015.54
566.54	43717.99
566.74	43083.12
566.94	43562.34
567.14	43963.75
567.34	43418.99
567.54	43605.35
567.74	43425.13
567.94	43394.41
568.14	43804.00
568.34	44000.61
568.54	43812.20
568.74	43973.98
568.94	43754.85
569.14	44414.30
569.34	43824.48
569.54	44016.99
569.75	43879.78
569.95	44139.87
570.15	44227.93
570.35	44250.46
570.55	44072.29
570.75	44455.26
570.95	44520.79
571.15	44291.42
571.35	44154.21
571.55	44627.29
571.75	44565.85
571.95	44387.67
572.15	44524.89
572.35	44592.47
572.55	44260.70
572.75	44467.55
572.95	44723.54
573.15	44791.12
573.35	44524.89
573.55	44672.34
573.75	44615.00
573.95	45069.65
574.15	45028.69
574.35	45397.32
574.55	45147.47
574.75	44770.64
574.95	44784.98
575.15	44858.71
575.34	45159.76
575.54	45524.30
575.74	45366.60
575.94	45495.63
576.14	45321.55
576.34	45509.96
576.54	45520.20
576.74	45565.26
576.94	45466.95
577.14	45481.29
577.34	45753.67
577.54	45585.74
577.74	45575.50
577.94	46021.95
578.14	46353.72
578.34	45997.38
578.54	45632.84
578.74	45536.59
578.94	46093.63
579.14	45972.80
579.34	46112.06
579.54	46032.19
579.74	46286.14
579.94	46421.31
580.13	46781.75
580.33	46253.37
580.53	46572.86
580.73	46775.61
580.93	46714.17
581.13	46685.50
581.33	47254.83
581.53	46900.53
581.73	46884.15
581.93	46961.97
582.13	47052.08
582.33	46966.07
582.53	46767.41
582.73	47193.39
582.92	47357.23
583.12	47797.54
583.32	47068.47
583.52	46921.01
583.72	47439.15
583.92	47189.30
584.12	47265.07
584.32	47600.94
584.52	47592.75
584.72	47844.65
584.92	47697.19
585.11	48280.86
585.31	47639.85
585.51	47822.12
585.71	47801.64
585.91	48207.14
586.11	47953.19
586.31	47762.73
586.51	48162.08
586.71	48131.36
586.91	48168.22
587.10	48190.75
587.30	48327.97
587.50	48491.80
587.70	48420.13
587.90	48567.58
588.10	48543.00
588.30	48508.19
588.50	49261.84
588.69	48424.22
588.89	48911.64
589.09	48903.45
589.29	48547.10
589.49	49063.19
589.69	48409.89
589.89	49026.32
590.08	49132.82
590.28	49108.24
590.48	49063.19
590.68	49050.90
590.88	49063.19
591.08	49210.64
591.28	48975.12
591.47	49513.74
591.67	49372.43
591.87	49501.45
592.07	49653.00
592.27	49055.00
592.47	49519.88
592.67	49614.09
592.86	49452.30
593.06	50099.46
593.26	49566.99
593.46	49747.21
593.66	49890.57
593.86	49677.58
594.05	50038.02
594.25	50367.74
594.45	49872.14
594.65	49534.22
594.85	49513.74
595.05	50230.53
595.24	50433.28
595.44	50265.34
595.64	50068.74
595.84	50291.97
596.04	50218.24
596.23	50314.50
596.43	50820.34
596.63	50576.64
596.83	50410.75
597.03	50730.23
597.22	50816.25
597.42	50470.14
597.62	50615.55
597.82	50865.40
598.02	50652.41
598.21	51307.76
598.41	50582.78
598.61	51238.13
598.81	51045.62
599.01	51021.05
599.20	51238.13
599.40	51197.17
599.60	51369.20
599.80	51655.92
600.00	51438.83
600.19	51803.37
600.39	51397.87
600.59	51594.48
600.79	52034.79
600.98	51838.18
601.18	51854.57
601.38	51954.92
601.58	51778.79
601.78	51729.64
601.97	51801.32
602.17	52292.83
602.37	52335.84
602.57	51479.79
602.76	52548.83
602.96	52026.60
603.16	52319.46
603.36	52110.56
603.55	52849.88
603.75	52454.62
603.95	52849.88
604.15	52442.34
604.34	52341.99
604.54	52851.93
604.74	52987.10
604.94	53120.21
605.13	52888.79
605.33	52657.37
605.53	52188.39
605.73	53050.58
605.92	52634.84
606.12	53269.72
606.32	52802.78
606.52	53097.69
606.71	53085.40
606.91	53558.48
607.11	53030.10
607.30	53089.49
607.50	52980.95
607.70	53388.50
607.90	53359.83
608.09	53056.73
608.29	53036.25
608.49	53263.57
608.68	53208.28
608.88	53601.49
609.08	53589.20
609.28	53292.24
609.47	53087.45
609.67	53822.67
609.87	53757.13
610.06	53867.72
610.26	53664.97
610.46	53662.93
610.66	53605.58
610.85	53499.09
611.05	53109.97
611.25	53398.74
611.44	53343.44
611.64	53654.73
611.84	53169.36
612.03	53855.43
612.23	54043.85
612.43	53773.52
612.62	53699.79
612.82	54179.01
613.02	53869.77
613.21	53959.88
613.41	53974.22
613.61	54351.04
613.80	53327.06
614.00	53951.69
614.20	53621.97
614.39	54136.01
614.59	54166.73
614.79	54244.55
614.98	53966.02
615.18	54205.64
615.38	54033.61
615.57	53963.98
615.77	54326.47
615.97	54275.27
616.16	53886.15
616.36	54037.70
616.56	54418.63
616.75	54387.91
616.95	53724.36
617.15	53841.10
617.34	54142.15
617.54	53982.41
617.74	54265.03
617.93	54641.85
618.13	54138.05
618.32	53677.26
618.52	54097.09
618.72	54222.02
618.91	54301.89
619.11	53820.62
619.31	53664.97
619.50	53853.39
619.70	53929.16
619.90	53888.20
620.09	53591.25
620.29	54383.81
620.48	54058.18
620.68	54105.29
620.88	53613.77
621.07	53814.47
621.27	54334.66
621.46	53892.30
621.66	53818.57
621.86	54418.63
622.05	53357.78
622.25	54398.15
622.44	53636.30
622.64	53683.40
622.84	54203.59
623.03	53748.94
623.23	53630.16
623.42	53630.16
623.62	54056.14
623.82	54217.92
624.01	53980.36
624.21	53923.02
624.40	53769.42
624.60	54379.71
624.80	53814.47
624.99	53980.36
625.19	53447.89
625.38	53621.97
625.58	53787.85
625.77	54015.18
625.97	53886.15
626.17	53927.11
626.36	53402.83
626.56	53998.79
626.75	53779.66
626.95	54146.25
627.14	53963.98
627.34	54256.84
627.54	53597.39
627.73	53937.35
627.93	53753.04
628.12	53646.54
628.32	53646.54
628.51	53959.88
628.71	54310.08
628.90	53892.30
629.10	53740.75
629.30	53720.27
629.49	53818.57
629.69	54201.54
629.88	53458.13
630.08	54049.99
630.27	54340.80
630.47	54095.05
630.66	53839.05
630.86	54041.80
631.05	53583.05
631.25	54318.28
631.44	54453.44
631.64	54086.85
631.84	54154.44
632.03	54484.16
632.23	53802.19
632.42	54338.75
632.62	54199.49
632.81	53861.58
633.01	54230.21
633.20	54588.61
633.40	54277.32
633.59	54310.08
633.79	54142.15
633.98	53910.73
634.18	54320.32
634.37	54191.30
634.57	53947.59
634.76	54246.60
634.96	54043.85
635.15	54068.42
635.35	54027.46
635.54	54580.42
635.74	54512.83
635.93	53859.53
636.13	54705.34
636.32	54688.96
636.52	54000.84
636.71	54394.05
636.91	54408.39
637.10	54719.68
637.30	54705.34
637.49	54291.65
637.69	53869.77
637.88	54805.69
638.08	54154.44
638.27	54392.00
638.46	54551.74
638.66	53888.20
638.85	54351.04
639.05	54367.43
639.24	54506.69
639.44	54398.15
639.63	54396.10
639.83	54590.66
640.02	54768.83
640.22	54371.52
640.41	54815.93
640.61	53953.74
640.80	54688.96
640.99	54944.95
641.19	55121.08
641.38	54430.91
641.58	54981.82
641.77	54537.41
641.97	54486.21
642.16	54582.46
642.36	54998.20
642.55	55145.65
642.74	54680.77
642.94	55340.21
643.13	54623.42
643.33	54858.94
643.52	55084.22
643.72	55592.11
643.91	54830.27
644.10	54717.63
644.30	55211.19
644.49	54822.08
644.69	55411.89
644.88	54973.63
645.08	55071.93
645.27	54994.10
645.46	54887.61
645.66	55149.75
645.85	54609.09
646.05	55098.55
646.24	55276.72
646.43	55426.23
646.63	55473.33
646.82	55370.93
647.02	55309.49
647.21	55860.40
647.40	55162.04
647.60	55469.23
647.79	55710.89
647.99	55735.47
648.18	55676.08
648.37	55966.89
648.57	55823.53
648.76	55557.30
648.96	55368.88
649.15	55637.17
649.34	55981.23
649.54	55850.16
649.73	55354.55
649.92	56048.81
650.12	55729.33
650.31	55850.16
650.51	55465.14
650.70	55714.99
650.89	55596.21
651.09	56325.28
651.28	55925.93
651.47	56237.22
651.67	55813.29
651.86	56562.85
652.06	55313.59
652.25	55999.66
652.44	55530.67
652.64	55893.16
652.83	55653.55
653.02	55479.47
653.22	55964.84
653.41	56153.26
653.60	55415.99
653.80	55796.91
653.99	56020.14
654.18	55923.88
654.38	56200.36
654.57	56050.86
654.76	56333.48
654.96	55733.42
655.15	56183.97
655.34	56124.58
655.54	55923.88
655.73	55999.66
655.92	56360.10
656.12	56140.97
656.31	55991.47
656.50	55952.55
656.70	56399.01
656.89	56149.16
657.08	56280.23
657.28	56130.73
657.47	56292.52
657.66	56435.87
657.86	56286.37
658.05	56564.90
658.24	56327.33
658.43	56300.71
658.63	56419.49
658.82	56194.21
659.01	56792.22
659.21	56695.97
659.40	56304.80
659.59	56280.23
659.79	56876.19
659.98	56833.18
660.17	57074.84
660.36	56640.67
660.56	56339.62
660.75	56677.54
660.94	56579.23
661.14	56505.51
661.33	56439.97
661.52	55977.13
661.71	56253.61
661.91	56304.80
662.10	56245.41
662.29	57261.21
662.49	56556.70
662.68	56947.87
662.87	56425.64
663.06	56573.09
663.26	56519.84
663.45	57119.90
663.64	56593.57
663.83	56722.59
664.03	56874.14
664.22	56671.39
664.41	56681.63
664.60	56644.77
664.80	56798.37
664.99	56786.08
665.18	56622.24
665.37	56958.11
665.57	56833.18
665.76	56716.45
665.95	56628.38
666.14	56491.17
666.34	56820.89
666.53	56523.94
666.72	56415.40
666.91	56407.20
667.11	56784.03
667.30	56556.70
667.49	56079.53
667.68	56530.08
667.87	56239.27
668.07	56685.73
668.26	56708.25
668.45	56779.93
668.64	56493.22
668.84	57068.70
669.03	56548.51
669.22	56687.78
669.41	56736.93
669.60	56800.41
669.80	56540.32
669.99	57105.56
670.18	56382.63
670.37	56786.08
670.57	57226.39
670.76	56800.41
670.95	56777.89
671.14	56726.69
671.33	56628.38
671.53	57326.74
671.72	56607.90
671.91	56884.38
672.10	56743.07
672.29	56325.28
672.48	56450.21
672.68	57189.53
672.87	56427.68
673.06	56489.12
673.25	56396.96
673.44	57050.27
673.64	56687.78
673.83	56439.97
674.02	56171.69
674.21	56431.78
674.40	56499.36
674.59	56581.28
674.79	56276.13
674.98	56087.72
675.17	56540.32
675.36	55973.03
675.55	56726.69
675.74	56517.79
675.94	56149.16
676.13	56374.44
676.32	56616.10
676.51	56808.61
676.70	56577.18
676.89	56272.04
677.08	56712.35
677.28	56272.04
677.47	56689.82
677.66	56528.03
677.85	56136.87
678.04	56911.00
678.23	56976.54
678.42	56573.09
678.62	56097.96
678.81	56747.17
679.00	56091.82
679.19	56906.91
679.38	56636.58
679.57	56777.89
679.76	56804.51
679.96	56304.80
680.15	56005.80
680.34	56218.79
680.53	56030.38
680.72	56562.85
680.91	56177.83
681.10	56079.53
681.29	56562.85
681.48	55839.92
681.68	55940.27
681.87	55876.78
682.06	56114.34
682.25	55612.59
682.44	56319.14
682.63	55932.07
682.82	55612.59
683.01	55514.29
683.20	55518.38
683.39	55887.02
683.59	55684.27
683.78	55534.77
683.97	55469.23
684.16	55446.71
684.35	55602.35
684.54	55866.54
684.73	55626.93
684.92	55702.70
685.11	55803.05
685.30	55518.38
685.49	55770.28
685.69	55563.44
685.88	55608.50
686.07	55174.33
686.26	55399.60
686.45	55735.47
686.64	55575.73
686.83	55657.65
687.02	55420.08
687.21	55774.38
687.40	55252.15
687.59	55045.30
687.78	55385.27
687.97	55723.18
688.16	55358.64
688.35	55186.61
688.54	54977.72
688.74	55252.15
688.93	55485.62
689.12	55702.70
689.31	55903.40
689.50	55581.87
689.69	55213.24
689.88	54598.85
690.07	55090.36
690.26	55059.64
690.45	55153.85
690.64	55020.73
690.83	55082.17
691.02	54936.76
691.21	54883.51
691.40	54754.49
691.59	54670.53
691.78	54746.30
691.97	54844.60
692.16	54613.18
692.35	55143.61
692.54	54951.10
692.73	54392.00
692.92	54576.32
693.11	54641.85
693.30	54697.15
693.49	54668.48
693.68	54430.91
693.87	54777.02
694.06	54531.26
694.25	54551.74
694.44	54396.10
694.63	54193.35
694.82	54625.47
695.01	54547.65
695.20	54006.98
695.39	53810.38
695.58	54054.09
695.77	54084.81
695.96	53947.59
696.15	54426.82
696.34	54277.32
696.53	54004.94
696.72	54418.63
696.91	53796.04
697.10	54219.97
697.29	53763.28
697.48	54322.37
697.67	53363.92
697.86	53656.78
698.05	53820.62
698.24	54158.53
698.43	53441.74
698.62	53978.31
698.81	53523.66
699.00	54054.09
699.19	53232.85
699.38	53877.96
699.57	53581.01
699.76	54047.94
699.95	53460.18
700.14	53279.96
700.32	53527.76
700.51	53265.62
700.70	53644.49
700.89	53714.12
701.08	53841.10
701.27	53255.38
701.46	53638.35
701.65	52692.19
701.84	53130.45
702.03	53204.18
702.22	53105.88
702.41	53138.65
702.60	53026.01
702.79	52843.74
702.98	52825.31
703.17	53413.07
703.35	52767.96
703.54	52485.34
703.73	53292.24
703.92	52835.55
704.11	52829.40
704.30	52483.30
704.49	52770.01
704.68	52604.13
704.87	52712.67
705.06	52399.33
705.25	52487.39
705.43	52632.80
705.62	52350.18
705.81	52675.80
706.00	52507.87
706.19	52063.46
706.38	52151.52
706.57	51780.84
706.76	51991.78
706.95	52221.16
707.14	51823.85
707.32	52157.67
707.51	51686.64
707.70	52172.00
707.89	51961.06
708.08	52098.28
708.27	52565.21
708.46	52319.46
708.65	51567.85
708.84	52231.40
709.02	51686.64
709.21	52169.96
709.40	51760.36
709.59	51516.65
709.78	51479.79
709.97	51795.18
710.16	51487.98
710.34	51594.48
710.53	51770.60
710.72	51533.04
710.91	51766.51
711.10	51262.71
711.29	51502.32
711.48	51598.57
711.66	51051.76
711.85	51432.69
712.04	51537.13
712.23	51299.57
712.42	51322.10
712.61	51348.72
712.80	51197.17
712.98	51258.61
713.17	50732.28
713.36	51188.98
713.55	51647.72
713.74	50814.20
713.93	51205.36
714.11	51082.48
714.30	51037.43
714.49	50715.90
714.68	50631.93
714.87	51262.71
715.06	50885.88
715.24	50875.64
715.43	51074.29
715.62	50377.98
715.81	50715.90
716.00	50892.02
716.18	50181.38
716.37	50205.95
716.56	50328.83
716.75	50900.22
716.94	50488.57
717.12	50244.87
717.31	50097.41
717.50	50449.66
717.69	50083.08
717.88	50097.41
718.06	49972.49
718.25	50722.04
718.44	50279.68
718.63	49761.54
718.82	49595.66
719.00	49909.00
719.19	49837.32
719.38	49995.01
719.57	49726.73
719.76	49167.63
719.94	49120.53
720.13	49601.80
720.32	49722.63
720.51	49270.03
720.69	49249.55
720.88	49079.57
721.07	49507.60
721.26	48604.44
721.44	49132.82
721.63	49141.01
721.82	48637.21
722.01	48913.69
722.20	49104.15
722.38	49026.32
722.57	48659.74
722.76	49229.07
722.95	49296.66
723.13	48469.28
723.32	48477.47
723.51	48289.06
723.70	48100.64
723.88	49042.71
724.07	48219.42
724.26	48805.14
724.44	47969.57
724.63	48522.52
724.82	48403.74
725.01	47717.67
725.19	48401.69
725.38	47871.27
725.57	47807.78
725.76	48530.72
725.94	47906.08
726.13	48114.98
726.32	48092.45
726.51	47471.92
726.69	48469.28
726.88	48389.41
727.07	47838.50
727.25	47727.91
727.44	47734.06
727.63	47801.64
727.82	47820.07
728.00	47709.48
728.19	47723.82
728.38	47871.27
728.56	47441.20
728.75	48051.49
728.94	47545.64
729.12	47809.83
729.31	48006.44
729.50	47736.10
729.69	48047.39
729.87	47779.11
730.06	47764.78
730.25	47523.11
730.43	47895.85
730.62	47695.14
730.81	47781.16
730.99	47869.22
731.18	47334.70
731.37	47371.57
731.55	47910.18
731.74	47985.96
731.93	48100.64
732.11	47756.58
732.30	47901.99
732.49	47570.22
732.67	47746.34
732.86	47658.28
733.05	47392.04
733.23	47240.50
733.42	47625.51
733.61	47228.21
733.79	47412.52
733.98	48094.50
734.17	47574.31
734.35	47537.45
734.54	47750.44
734.73	47795.49
734.91	47396.14
735.10	47281.45
735.29	47654.18
735.47	47119.66
735.66	47361.33
735.84	47613.23
736.03	47097.14
736.22	47863.08
736.40	47125.81
736.59	47066.42
736.78	46939.44
736.96	47355.18
737.15	47134.00
737.33	47115.57
737.52	46945.59
737.71	46863.67
737.89	47084.85
738.08	46990.64
738.27	46998.83
738.45	46951.73
738.64	47129.90
738.82	46796.09
739.01	46994.74
739.20	47355.18
739.38	47377.71
739.57	46998.83
739.75	47039.79
739.94	47060.27
740.13	47351.09
740.31	46857.52
740.50	46716.22
740.68	46724.41
740.87	46798.13
741.06	46619.96
741.24	46855.48
741.43	46574.91
741.61	46953.78
741.80	46349.63
741.99	46607.67
742.17	46753.08
742.36	46781.75
742.54	46497.08
742.73	46615.86
742.91	46767.41
743.10	46337.34
743.29	46765.37
743.47	46830.90
743.66	46646.58
743.84	47047.99
744.03	46593.34
744.21	46423.36
744.40	46970.16
744.59	46361.92
744.77	46165.31
744.96	46460.22
745.14	46814.52
745.33	46513.47
745.51	46177.60
745.70	46267.71
745.88	46138.69
746.07	46005.57
746.26	46208.32
746.44	45843.78
746.63	45960.51
746.81	46406.97
747.00	45882.69
747.18	46351.68
747.37	46052.67
747.55	46273.85
747.74	46505.27
747.92	46044.48
748.11	46208.32
748.29	45888.84
748.48	45905.22
748.66	45634.89
748.85	45765.96
749.03	46208.32
749.22	46050.63
749.41	45897.03
749.59	46019.91
749.78	45655.37
749.96	45505.87
750.15	45565.26
750.33	45579.59
750.52	45548.87
750.70	45444.43
750.89	45552.97
751.07	45415.76
751.26	45473.10
751.44	45378.89
751.63	45864.26
751.81	45319.50
752.00	44993.87
752.18	45606.22
752.37	45380.94
752.55	45106.51
752.74	45245.77
752.92	45012.31
753.10	44780.88
753.29	45395.28
753.47	44844.37
753.66	44840.28
753.84	45131.09
754.03	44975.44
754.21	44406.11
754.40	44799.32
754.58	44991.83
754.77	45292.88
754.95	44541.27
755.14	44784.98
755.32	44883.28
755.51	44488.03
755.69	44760.40
755.88	44701.01
756.06	44651.86
756.24	44434.78
756.43	44242.27
756.61	44510.55
756.80	44438.87
756.98	44219.74
757.17	44610.90
757.35	44670.29
757.54	44422.49
757.72	44848.47
757.90	44215.65
758.09	44205.41
758.27	44154.21
758.46	43853.15
758.64	44293.47
758.83	44324.19
759.01	44074.34
759.19	44201.31
759.38	44213.60
759.56	44258.65
759.75	44209.50
759.93	44008.80
760.12	43859.30
760.30	43808.10
760.48	43928.93
760.67	43781.48
760.85	44043.62
761.04	44057.95
761.22	43611.49
761.40	43588.97
761.59	43539.82
761.77	43634.02
761.96	43461.99
762.14	43689.32
762.32	43607.40
762.51	43210.09
762.69	43427.18
762.88	43631.97
763.06	43445.61
763.24	43943.27
763.43	43545.96
763.61	43646.31
763.80	43224.43
763.98	43134.32
764.16	43218.28
764.35	43146.61
764.53	43089.26
764.72	43111.79
764.90	43201.90
765.08	42984.82
765.27	42863.99
765.45	42753.40
765.63	42450.30
765.82	43128.17
766.00	42538.36
766.18	42558.84
766.37	42997.10
766.55	42700.15
766.74	42675.57
766.92	42409.34
767.10	42894.71
767.29	42167.68
767.47	42397.05
767.65	42370.43
767.84	42442.10
768.02	42474.87
768.20	41868.67
768.39	42497.40
768.57	42153.34
768.75	42337.66
768.94	42509.69
769.12	42075.52
769.30	41889.15
769.49	41852.29
769.67	41952.64
769.85	41844.10
770.04	41981.31
770.22	41979.26
770.40	41948.54
770.59	41506.18
770.77	41672.07
770.95	41891.20
771.14	41645.44
771.32	41276.81
771.50	41397.64
771.69	41203.08
771.87	41321.87
772.05	41514.37
772.24	40973.71
772.42	41401.74
772.60	40822.16
772.78	41153.93
772.97	40850.83
773.15	41514.37
773.33	41213.32
773.52	41336.20
773.70	40957.33
773.88	41160.08
774.07	41031.05
774.25	41186.70
774.43	41295.24
774.61	41090.44
774.80	41360.78
774.98	41098.64
775.16	41602.44
775.34	41315.72
775.53	40680.85
775.71	41452.94
775.89	41248.14
776.08	41313.67
776.26	41026.96
776.44	41237.90
776.62	41026.96
776.81	41141.64
776.99	41248.14
777.17	41612.68
777.35	41129.36
777.54	41581.96
777.72	41426.31
777.90	41192.84
778.08	41446.79
778.27	41584.01
778.45	41811.33
778.63	41719.17
778.81	41358.73
779.00	41874.82
779.18	41624.96
779.36	41907.58
779.54	41473.42
779.73	41106.83
779.91	41698.69
780.09	41641.35
780.27	41975.17
780.46	41579.91
780.64	41913.73
780.82	42038.65
781.00	41299.34
781.19	41973.12
781.37	42306.94
781.55	41956.74
781.73	41850.24
781.91	41825.67
782.10	42143.10
782.28	41649.54
782.46	41864.58
782.64	41993.60
782.82	41817.47
783.01	42030.46
783.19	41704.84
783.37	42169.72
783.55	42087.81
783.74	42743.16
783.92	41850.24
784.10	41952.64
784.28	42227.07
784.46	41835.91
784.64	42163.58
784.83	42157.44
785.01	42155.39
785.19	41788.80
785.37	42300.79
785.55	42268.03
785.74	41594.25
785.92	41809.28
786.10	42237.31
786.28	41833.86
786.46	42214.78
786.64	41442.70
786.83	41743.75
787.01	41788.80
787.19	41856.39
787.37	41713.03
787.55	41874.82
787.74	41799.04
787.92	41606.53
788.10	41446.79
788.28	41260.43
788.46	41348.49
788.64	41244.04
788.82	41708.93
789.01	41102.73
789.19	41241.99
789.37	41131.40
789.55	41438.60
789.73	41168.27
789.91	40912.27
790.09	41137.55
790.28	41178.51
790.46	40547.73
790.64	40838.54
790.82	41069.97
791.00	40482.20
791.18	40158.62
791.36	40490.39
791.55	40521.11
791.73	39976.35
791.91	39607.72
792.09	40387.99
792.27	40025.50
792.45	40080.80
792.63	39675.30
792.81	39839.14
793.00	39861.66
793.18	39523.75
793.36	39577.00
793.54	39384.49
793.72	39265.70
793.90	39345.58
794.08	39384.49
794.26	39525.80
794.44	39364.01
794.62	38782.38
794.81	39165.35
794.99	39128.49
795.17	39056.81
795.35	38718.90
795.53	39015.85
795.71	38608.31
795.89	38499.76
796.07	38649.27
796.25	38354.36
796.43	38450.61
796.61	38036.92
796.80	38041.02
796.98	38227.38
797.16	38038.97
797.34	37768.64
797.52	37965.24
797.70	37854.65
797.88	37707.20
798.06	37520.84
798.24	37541.32
798.42	36904.40
798.60	37365.19
798.78	36830.67
798.96	37496.26
799.14	37168.58
799.32	36974.03
799.51	36607.44
799.69	37209.54
799.87	36816.33
800.05	36705.74
800.23	36906.44
800.41	36316.63
800.59	36462.04
800.77	36324.82
800.95	36206.04
801.13	36316.63
801.31	35937.76
801.49	36212.18
801.67	35933.66
801.85	36046.30
802.03	35796.45
802.21	35513.83
802.39	35436.00
802.57	35667.42
802.75	35384.80
802.93	35536.35
803.11	35544.55
803.29	35046.89
803.47	34856.43
803.65	35055.08
803.83	35014.12
804.01	34657.78
804.19	34555.38
804.37	34465.27
804.55	34504.18
804.73	34618.86
804.91	34455.03
805.09	34813.42
805.27	34440.69
805.45	34743.79
805.63	34575.86
805.81	34278.90
805.99	34422.26
806.17	34194.93
806.35	34559.47
806.53	33947.13
806.71	34012.66
806.89	33904.12
807.07	33945.08
807.25	33932.79
807.43	33785.34
807.61	33799.68
807.79	33336.84
807.97	33054.22
808.15	33109.51
808.33	33142.28
808.51	33211.91
808.69	33193.48
808.87	32822.80
809.05	32763.40
809.23	32681.49
809.41	32531.98
809.59	32325.14
809.77	32867.85
809.95	32531.98
810.13	32615.95
810.31	32310.80
810.49	32624.14
810.67	32396.82
810.84	32359.95
811.02	32337.43
811.20	31893.02
811.38	31786.52
811.56	31927.83
811.74	31782.43
811.92	31792.67
812.10	31976.98
812.28	31944.22
812.46	31704.60
812.64	31575.58
812.82	31649.31
813.00	31716.89
813.18	31702.56
813.36	31378.98
813.53	31358.50
813.71	31426.08
813.89	31417.89
814.07	31508.00
814.25	31268.39
814.43	31307.30
814.61	30860.84
814.79	31082.02
814.97	30590.51
815.15	30985.77
815.33	30680.62
815.50	30385.71
815.68	30783.02
815.86	30795.31
816.04	30215.73
816.22	30189.11
816.40	30260.79
816.58	30084.66
816.76	30246.45
816.94	30299.70
817.11	30115.38
817.29	30021.17
817.47	30041.65
817.65	29931.06
817.83	30031.41
818.01	29580.86
818.19	29662.78
818.37	29767.23
818.54	29734.46
818.72	29464.13
818.90	29765.18
819.08	29531.71
819.26	29490.75
819.44	29290.05
819.62	29462.08
819.80	29365.82
819.97	29378.11
820.15	29111.88
820.33	28823.11
820.51	29187.65
820.69	28798.54
820.87	28927.56
821.05	29290.05
821.22	29355.58
821.40	28773.96
821.58	28749.39
821.76	28491.34
821.94	28589.64
822.12	28857.93
822.29	28810.82
822.47	28530.25
822.65	29163.08
822.83	28589.64
823.01	28253.78
823.19	28249.68
823.36	28255.82
823.54	28286.54
823.72	28202.58
823.90	28094.04
824.08	28237.39
824.25	27891.29
824.43	27768.41
824.61	28128.85
824.79	28053.08
824.97	27760.22
825.15	28100.18
825.32	27901.53
825.50	27741.78
825.68	27369.05
825.86	27848.28
826.04	27555.42
826.21	27416.16
826.39	27453.02
826.57	27631.19
826.75	27219.55
826.93	27268.70
827.10	27280.99
827.28	27473.50
827.46	27625.05
827.64	27477.60
827.81	27313.76
827.99	27416.16
828.17	27221.60
828.35	26984.04
828.53	26895.97
828.70	26955.36
828.88	26826.34
829.06	26756.71
829.24	27004.52
829.41	27166.31
829.59	26881.64
829.77	27022.95
829.95	26750.57
830.12	26631.79
830.30	26285.68
830.48	26764.90
830.66	26551.91
830.84	26662.51
831.01	26449.52
831.19	26451.56
831.37	26531.44
831.55	26467.95
831.72	26236.53
831.90	26166.90
832.08	26328.69
832.25	26418.80
832.43	26216.05
832.61	26197.62
832.79	26379.89
832.96	26121.84
833.14	25849.46
833.32	26214.00
833.50	26269.30
833.67	25855.61
833.85	26144.37
834.03	25798.26
834.20	26015.35
834.38	26019.44
834.56	25704.06
834.74	25722.49
834.91	25949.81
835.09	25624.18
835.27	25396.86
835.44	25415.29
835.62	24966.79
835.80	25226.88
835.98	25779.83
836.15	25423.48
836.33	25556.60
836.51	25570.94
836.68	25280.13
836.86	25220.74
837.04	25615.99
837.21	25118.34
837.39	25325.18
837.57	25443.96
837.75	25149.06
837.92	24823.43
838.10	24876.68
838.28	24755.85
838.45	25030.27
838.63	24985.22
838.81	24938.12
838.98	24725.13
839.16	24811.14
839.34	24819.33
839.51	24616.58
839.69	24458.89
839.87	24735.37
840.04	24612.49
840.22	24731.27
840.40	24678.02
840.57	24458.89
840.75	24759.94
840.93	24133.26
841.10	24499.85
841.28	24669.83
841.46	24352.40
841.63	24778.37
841.81	24391.31
841.98	24655.50
842.16	24256.14
842.34	24270.48
842.51	24166.03
842.69	24170.13
842.87	24153.74
843.04	24145.55
843.22	23922.32
843.40	23862.93
843.57	24145.55
843.75	23852.69
843.92	23889.56
844.10	24188.56
844.28	23766.68
844.45	23930.51
844.63	24082.06
844.81	23545.50
844.98	23856.79
845.16	23684.76
845.33	23826.07
845.51	23776.92
845.69	23498.39
845.86	23410.33
846.04	23432.86
846.21	23234.21
846.39	23494.30
846.57	23402.14
846.74	23504.54
846.92	23195.29
847.09	23371.42
847.27	23258.78
847.45	23256.73
847.62	23385.76
847.80	23287.45
847.97	23160.48
848.15	23320.22
848.32	22789.80
848.50	23236.25
848.68	23189.15
848.85	22763.17
849.03	22564.52
849.20	22974.11
849.38	23121.57
849.56	23129.76
849.73	22791.84
849.91	22804.13
850.08	23045.79
850.26	22894.24
850.43	22658.73
850.61	22871.72
850.78	22515.37
850.96	22566.57
851.14	22525.61
851.31	22675.11
851.49	22591.14
851.66	22738.60
851.84	22316.72
852.01	22970.02
852.19	22634.15
852.36	22269.61
852.54	22486.70
852.71	22134.45
852.89	22337.20
853.07	22447.79
853.24	22406.83
853.42	22273.71
853.59	22380.20
853.77	22494.89
853.94	22445.74
854.12	22382.25
854.29	22146.73
854.47	22097.58
854.64	21876.40
854.82	22042.29
854.99	22128.30
855.17	22353.58
855.34	22042.29
855.52	22128.30
855.69	22038.19
855.87	21935.79
856.04	21943.99
856.22	21872.31
856.39	21655.22
856.57	21898.93
856.74	21739.19
856.92	21919.41
857.09	21499.58
857.27	21548.73
857.44	21857.97
857.62	21587.64
857.79	21591.73
857.97	21694.13
858.14	21706.42
858.32	21677.75
858.49	21554.87
858.67	21401.27
858.84	21552.82
859.02	21552.82
859.19	21319.35
859.37	21632.69
859.54	21321.40
859.72	21704.37
859.89	21405.37
860.06	21515.96
860.24	21339.83
860.41	21194.43
860.59	21081.79
860.76	21434.04
860.94	21053.12
861.11	21251.77
861.29	21167.80
861.46	21130.94
861.64	20948.67
861.81	20793.03
861.98	20909.76
862.16	20727.49
862.33	20485.83
862.51	20631.24
862.68	21010.11
862.86	20633.29
863.03	20698.82
863.21	20600.52
863.38	20766.40
863.55	20303.56
863.73	20737.73
863.90	20707.01
864.08	20397.77
864.25	20508.36
864.43	20547.27
864.60	20444.87
864.77	20473.54
864.95	20850.37
865.12	20324.04
865.30	20489.93
865.47	20453.06
865.64	20295.37
865.82	20178.64
865.99	20385.48
866.17	20074.19
866.34	20369.10
866.51	19977.94
866.69	20524.74
866.86	20514.50
867.04	20305.61
867.21	20186.83
867.38	19936.98
867.56	19955.41
867.73	20008.65
867.91	19963.60
868.08	19928.78
868.25	19744.47
868.43	19850.96
868.60	19594.96
868.78	19558.10
868.95	19982.03
869.12	19574.49
869.30	19629.78
869.47	19697.36
869.64	19496.66
869.82	19732.18
869.99	19390.17
870.16	19558.10
870.34	19386.07
870.51	19629.78
870.69	19732.18
870.86	19562.20
871.03	19525.33
871.21	19478.23
871.38	19488.47
871.55	19189.47
871.73	19154.65
871.90	19148.51
872.07	18863.84
872.25	19087.07
872.42	19308.25
872.59	19099.36
872.77	18915.04
872.94	19109.60
873.11	19199.71
873.29	19007.20
873.46	18951.90
873.63	19054.30
873.81	18990.81
873.98	18910.94
874.15	18984.67
874.33	18804.45
874.50	18878.18
874.67	18743.01
874.85	18657.00
875.02	18386.66
875.19	18388.71
875.37	18564.84
875.54	18403.05
875.71	18276.07
875.88	18411.24
876.06	18120.43
876.23	18265.83
876.40	18370.28
876.58	18202.35
876.75	18253.55
876.92	18370.28
877.10	18351.85
877.27	18106.09
877.44	17993.45
877.61	17946.35
877.79	18292.46
877.96	17805.04
878.13	17821.42
878.31	17921.77
878.48	17753.84
878.65	17571.57
878.82	17712.88
879.00	17772.27
879.17	17868.53
879.34	18030.32
879.51	17790.70
879.69	17282.81
879.86	17495.80
880.03	17774.32
880.21	17735.41
880.38	17577.72
880.55	17635.06
880.72	17698.55
880.90	17626.87
881.07	17198.84
881.24	17514.23
881.41	17366.78
881.59	17442.55
881.76	17440.50
881.93	17299.19
882.10	17202.94
882.28	17288.95
882.45	17336.06
882.62	17211.13
882.79	17471.22
882.96	16836.35
883.14	17200.89
883.31	17168.12
883.48	16936.70
883.65	17176.31
883.83	17192.70
884.00	17071.87
884.17	16948.99
884.34	17088.25
884.51	16682.75
884.69	16953.09
884.86	16963.33
885.03	16832.26
885.20	16676.61
885.38	16989.95
885.55	16965.37
885.72	16692.99
885.89	16834.30
886.06	16809.73
886.24	16908.03
886.41	16766.72
886.58	16725.76
886.75	16946.94
886.92	16475.91
887.10	16576.26
887.27	16555.78
887.44	16682.75
887.61	16652.03
887.78	16531.20
887.95	16531.20
888.13	16418.57
888.30	16344.84
888.47	16486.15
888.64	16451.33
888.81	16566.02
888.99	16371.46
889.16	16082.70
889.33	16219.91
889.50	16142.09
889.67	16465.67
889.84	16123.66
890.01	16273.16
890.19	16140.04
890.36	16316.17
890.53	16035.60
890.70	16002.83
890.87	15986.44
891.04	16008.97
891.22	16297.74
891.39	15795.98
891.56	15845.13
891.73	15892.24
891.90	15853.33
892.07	15879.95
892.24	15722.26
892.42	15953.68
892.59	15820.56
892.76	15439.64
892.93	15718.16
893.10	15861.52
893.27	15736.59
893.44	15531.80
893.61	15777.55
893.79	15732.50
893.96	15646.48
894.13	15867.66
894.30	15374.10
894.47	15429.40
894.64	15767.31
894.81	15601.43
894.98	15687.44
895.15	15736.59
895.33	15587.09
895.50	15589.14
895.67	15695.63
895.84	15697.68
896.01	15460.12
896.18	15646.48
896.35	15666.96
896.52	15544.08
896.69	15271.70
896.86	15738.64
897.04	15623.95
897.21	15499.03
897.38	15353.62
897.55	15552.27
897.72	15535.89
897.89	15372.05
898.06	15456.02
898.23	15535.89
898.40	15490.84
898.57	15566.61
898.74	15499.03
898.91	15456.02
899.08	15402.77
899.26	15388.44
899.43	15552.27
899.60	15408.92
899.77	15482.64
899.94	15365.91
900.11	15367.96
900.28	15492.88
900.45	15353.62
900.62	15453.97
900.79	15474.45
900.96	15480.60
901.13	15488.79
901.30	15220.50
901.47	15208.22
901.64	15263.51
901.81	15386.39
901.98	15232.79
902.15	15675.15
902.32	15427.35
902.49	15415.06
902.66	15406.87
902.83	15419.16
903.01	15421.20
903.18	15470.36
903.35	15517.46
903.52	15294.23
903.69	15335.19
903.86	15310.61
904.03	15240.98
904.20	15626.00
904.37	15529.75
904.54	15335.19
904.71	15517.46
904.88	15367.96
905.05	15220.50
905.22	15378.20
905.39	15337.24
905.56	15286.04
905.73	15157.02
905.90	15521.56
906.07	15306.52
906.24	15587.09
906.41	15320.85
906.58	15359.77
906.75	15339.29
906.92	15228.70
907.09	15216.41
907.26	15118.11
907.43	15136.54
907.60	15257.37
907.77	15232.79
907.93	15560.47
908.10	15169.30
908.27	15509.27
908.44	15179.54
908.61	15193.88
908.78	15189.78
908.95	14987.04
909.12	15105.82
909.29	15081.24
909.46	15144.73
909.63	15286.04
909.80	15279.89
909.97	15154.97
910.14	15157.02
910.31	15179.54
910.48	15380.25
910.65	15353.62
910.82	15066.91
910.99	15105.82
911.16	15017.75
911.33	14991.13
911.50	15114.01
911.66	15214.36
911.83	15337.24
912.00	14788.38
912.17	14853.92
912.34	14941.98
912.51	14847.77
912.68	14772.00
912.85	14757.66
913.02	14749.47
913.19	14458.66
913.36	14685.98
913.53	14651.17
913.70	14569.25
913.86	14831.39
914.03	14628.64
914.20	14663.46
914.37	14728.99
914.54	14657.31
914.71	14720.80
914.88	14448.42
915.05	14665.50
915.22	14411.56
915.39	14626.59
915.55	14858.01
915.72	14325.54
915.89	14526.24
916.06	14253.86
916.23	14171.94
916.40	14227.24
916.57	14065.45
916.74	14087.98
916.91	14184.23
917.07	13588.27
917.24	14024.49
917.41	14239.53
917.58	14030.63
917.75	13750.06
917.92	13684.53
918.09	13801.26
918.26	13866.80
918.42	13600.56
918.59	13774.64
918.76	13715.25
918.93	13639.47
919.10	13604.66
919.27	13598.51
919.44	13604.66
919.60	13594.42
919.77	13655.86
919.94	13373.24
920.11	13326.13
920.28	13426.48
920.45	13170.49
920.61	13250.36
920.78	13090.62
920.95	13141.82
921.12	13240.12
921.29	13100.86
921.46	13240.12
921.62	12988.22
921.79	13125.43
921.96	12973.88
922.13	12975.93
922.30	12881.72
922.47	12984.12
922.63	12730.17
922.80	12967.74
922.97	12826.43
923.14	12556.10
923.31	12773.18
923.47	12513.09
923.64	12543.81
923.81	12590.91
923.98	12398.40
924.15	12375.88
924.32	12488.51
924.48	12314.44
924.65	12322.63
924.82	12240.71
924.99	12166.98
925.15	11913.03
925.32	12017.48
925.49	11837.26
925.66	11841.36
925.83	11898.70
925.99	11876.17
926.16	11671.37
926.33	11702.09
926.50	11593.55
926.67	11626.32
926.83	11644.75
927.00	11546.45
927.17	11585.36
927.34	11634.51
927.50	11388.75
927.67	11630.41
927.84	11585.36
928.01	11286.36
928.17	11218.77
928.34	11282.26
928.51	11288.40
928.68	11089.75
928.84	11190.10
929.01	10739.55
929.18	11079.51
929.35	11034.46
929.51	10893.15
929.68	10878.81
929.85	10778.46
930.02	10934.11
930.18	10714.97
930.35	10727.26
930.52	10544.99
930.69	10706.78
930.85	10647.39
931.02	10549.09
931.19	10536.80
931.36	10653.53
931.52	10454.88
931.69	10477.41
931.86	10430.30
932.02	10426.21
932.19	10352.48
932.36	10123.11
932.53	10221.41
932.69	9840.49
932.86	10209.12
933.03	10096.49
933.19	10016.62
933.36	9951.08
933.53	10084.20
933.70	9787.24
933.86	9695.08
934.03	9668.46
934.20	9682.80
934.36	9678.70
934.53	9475.95
934.70	9156.47
934.86	9420.66
935.03	9230.20
935.20	9262.96
935.36	9197.43
935.53	9068.41
935.70	9179.00
935.86	9113.46
936.03	8855.42
936.20	8832.89
936.36	8890.23
936.53	8734.59
936.70	8499.07
936.86	8750.97
937.03	8562.56
937.20	8292.23
937.36	8454.02
937.53	8048.52
937.70	8040.33
937.86	7913.35
938.03	8091.52
938.20	8146.82
938.36	7899.02
938.53	7878.54
938.70	7665.55
938.86	7581.58
939.03	7634.83
939.20	7362.45
939.36	7364.50
939.53	7190.42
939.70	7475.09
939.86	6961.05
940.03	6918.04
940.19	7016.34
940.36	6893.46
940.53	7004.05
940.69	6727.58
940.86	6719.39
941.03	6578.08
941.19	6573.98
941.36	6539.16
941.52	6512.54
941.69	6498.20
941.86	6317.98
942.02	6317.98
942.19	6377.37
942.35	6313.89
942.52	6035.36
942.69	5975.97
942.85	6027.17
943.02	6008.74
943.18	5988.26
943.35	5826.47
943.52	5875.62
943.68	5789.61
943.85	5762.98
944.01	5660.59
944.18	5605.29
944.35	5795.75
944.51	5666.73
944.68	5470.12
944.84	5605.29
945.01	5431.21
945.17	5597.10
945.34	5541.80
945.51	5404.59
945.67	5509.04
945.84	5433.26
946.00	5396.40
946.17	5431.21
946.33	5386.16
946.50	5470.12
946.67	5402.54
946.83	5466.03
947.00	5429.17
947.16	5390.25
947.33	5304.24
947.49	5261.23
947.66	5339.05
947.82	5330.86
947.99	5269.42
948.16	5386.16
948.32	5322.67
948.49	5326.77
948.65	5359.53
948.82	5365.68
948.98	5238.70
949.15	5324.72
949.31	5267.38
949.48	5312.43
949.64	5314.48
949.81	5324.72
949.97	5193.65
950.14	5369.77
950.30	5201.84
950.47	5353.39
950.63	5367.73
950.80	5406.64
950.96	5304.24
951.13	5386.16
951.30	5273.52
951.46	5517.23
951.63	5603.24
951.79	5484.46
951.96	5433.26
952.12	5316.53
952.29	5392.30
952.45	5377.97
952.62	5351.34
952.78	5500.84
952.94	5433.26
953.11	5425.07
953.27	5369.77
953.44	5484.46
953.60	5519.28
953.77	5519.28
953.93	5377.97
954.10	5517.23
954.26	5470.12
954.43	5418.93
954.59	5580.71
954.76	5455.79
954.92	5480.36
955.09	5521.32
955.25	5349.29
955.42	5427.12
955.58	5754.79
955.75	5509.04
955.91	5466.03
956.07	5527.47
956.24	5439.40
956.40	5566.38
956.57	5423.02
956.73	5576.62
956.90	5322.67
957.06	5572.52
957.23	5490.60
957.39	5504.94
957.56	5513.13
957.72	5447.60
957.88	5433.26
958.05	5488.56
958.21	5539.76
958.38	5390.25
958.54	5445.55
958.71	5689.26
958.87	5396.40
959.03	5476.27
959.20	5390.25
959.36	5365.68
959.53	5527.47
959.69	5470.12
959.85	5615.53
960.02	5461.93
960.18	5459.88
960.35	5453.74
960.51	5660.59
960.68	5470.12
960.84	5459.88
961.00	5515.18
961.17	5429.17
961.33	5439.40
961.50	5556.14
961.66	5431.21
961.82	5291.95
961.99	5437.36
962.15	5408.69
962.31	5291.95
962.48	5339.05
962.64	5494.70
962.81	5404.59
962.97	5490.60
963.13	5459.88
963.30	5386.16
963.46	5480.36
963.62	5384.11
963.79	5482.41
963.95	5279.66
964.12	5488.56
964.28	5550.00
964.44	5367.73
964.61	5386.16
964.77	5328.81
964.93	5496.75
965.10	5498.80
965.26	5310.38
965.42	5230.51
965.59	5310.38
965.75	5371.82
965.92	5304.24
966.08	5246.90
966.24	5463.98
966.41	5246.90
966.57	5318.57
966.73	5314.48
966.90	5224.37
967.06	5330.86
967.22	5334.96
967.39	5169.07
967.55	5246.90
967.71	5230.51
967.88	5140.40
968.04	5269.42
968.20	5238.70
968.37	5177.26
968.53	5164.98
968.69	5195.70
968.85	5179.31
969.02	5124.02
969.18	5187.50
969.34	5240.75
969.51	5246.90
969.67	5128.11
969.83	4962.23
970.00	5226.42
970.16	5138.35
970.32	5124.02
970.48	5025.72
970.65	5117.87
970.81	5101.49
970.97	5062.58
971.14	4841.40
971.30	5070.77
971.46	5033.91
971.63	5064.63
971.79	5255.09
971.95	5101.49
972.11	4874.17
972.28	4929.46
972.44	5074.87
972.60	4911.03
972.76	5017.52
972.93	4882.36
973.09	5011.38
973.25	5017.52
973.42	4841.40
973.58	4917.17
973.74	4919.22
973.90	4951.99
974.07	4900.79
974.23	4900.79
974.39	4837.30
974.55	4814.77
974.72	4784.06
974.88	4745.14
975.04	5013.43
975.20	4691.90
975.37	4853.69
975.53	4796.34
975.69	4732.86
975.85	4763.58
976.01	4724.66
976.18	4726.71
976.34	4646.84
976.50	4784.06
976.66	4730.81
976.83	4650.94
976.99	4597.69
977.15	4669.37
977.31	4560.83
977.47	4771.77
977.64	4685.75
977.80	4595.64
977.96	4605.88
978.12	4648.89
978.29	4595.64
978.45	4517.82
978.61	4509.63
978.77	4687.80
978.93	4458.43
979.10	4534.20
979.26	4491.20
979.42	4581.31
979.58	4470.72
979.74	4448.19
979.91	4573.11
980.07	4403.13
980.23	4415.42
980.39	4550.59
980.55	4530.11
980.71	4415.42
980.88	4466.62
981.04	4382.65
981.20	4497.34
981.36	4327.36
981.52	4280.25
981.68	4267.97
981.85	4429.76
982.01	4310.97
982.17	4229.06
982.33	4298.69
982.49	4386.75
982.65	4308.93
982.82	4317.12
982.98	4263.87
983.14	4210.62
983.30	4261.82
983.46	4167.62
983.62	4347.84
983.79	4128.70
983.95	4159.42
984.11	4024.26
984.27	4188.10
984.43	4128.70
984.59	4190.14
984.75	4216.77
984.91	4104.13
985.08	4255.68
985.24	4022.21
985.40	4081.60
985.56	4063.17
985.72	4112.32
985.88	4159.42
986.04	3985.35
986.20	3968.96
986.37	4097.99
986.53	3987.40
986.69	3956.68
986.85	3987.40
987.01	4071.36
987.17	4067.27
987.33	4073.41
987.49	3975.11
987.65	4048.83
987.82	3934.15
987.98	3862.47
988.14	3841.99
988.30	4009.92
988.46	3919.81
988.62	4026.31
988.78	3858.37
988.94	3923.91
989.10	3864.52
989.26	3948.48
989.42	3901.38
989.59	3796.93
989.75	3741.64
989.91	3827.65
990.07	3733.45
990.23	3747.78
990.39	3772.36
990.55	3860.42
990.71	3698.63
990.87	3710.92
991.03	3762.12
991.19	3606.47
991.35	3729.35
991.51	3747.78
991.67	3747.78
991.83	3737.54
992.00	3725.26
992.16	3844.04
992.32	3850.18
992.48	3821.51
992.64	3721.16
992.80	3747.78
992.96	3667.91
993.12	3557.32
993.28	3637.19
993.44	3622.86
993.60	3581.90
993.76	3635.14
993.92	3477.45
994.08	3567.56
994.24	3592.14
994.40	3614.66
994.56	3672.01
994.72	3518.41
994.88	3583.95
995.04	3565.51
995.20	3485.64
995.36	3504.07
995.52	3590.09
995.68	3461.07
995.84	3424.20
996.00	3516.36
996.16	3375.05
996.32	3387.34
996.48	3540.94
996.64	3596.23
996.80	3387.34
996.96	3467.21
997.12	3426.25
997.28	3256.27
997.44	3334.09
997.60	3393.48
997.76	3356.62
997.92	3325.90
998.08	3459.02
998.24	3241.93
998.40	3338.19
998.56	3366.86
998.72	3174.35
998.88	3284.94
999.04	3194.83
999.20	3309.52
999.36	3262.41
999.52	3301.33
999.68	3231.69
999.84	3239.89
1000.00	3315.66
1000.16	3375.05
1000.32	3258.32
1000.48	3360.72
1000.64	3125.20
1000.80	3186.64
1000.95	3076.05
1001.11	3262.41
1001.27	3137.49
1001.43	3133.39
1001.59	3203.02
1001.75	3043.28
1001.91	3166.16
1002.07	3002.32
1002.23	2936.79
1002.39	3098.58
1002.55	3076.05
1002.71	3178.45
1002.87	3076.05
1003.03	3172.30
1003.19	3076.05
1003.34	3139.54
1003.50	3018.71
1003.66	3141.58
1003.82	2994.13
1003.98	2967.51
1004.14	3002.32
1004.30	2983.89
1004.46	3041.23
1004.62	3069.91
1004.78	3024.85
1004.94	3051.47
1005.09	3088.34
1005.25	3010.51
1005.41	3002.32
1005.57	2977.75
1005.73	3024.85
1005.89	2912.21
1006.05	2990.03
1006.21	2975.70
1006.37	2863.06
1006.52	2867.16
1006.68	2836.44
1006.84	3043.28
1007.00	2820.05
1007.16	2961.36
1007.32	2908.12
1007.48	2805.72
1007.64	2838.48
1007.79	2895.83
1007.95	2723.80
1008.11	2910.16
1008.27	2861.01
1008.43	2844.63
1008.59	2754.52
1008.75	2852.82
1008.91	2840.53
1009.06	2785.24
1009.22	2762.71
1009.38	2799.57
1009.54	2787.29
1009.70	2707.41
1009.86	2740.18
1010.01	2789.33
1010.17	2766.81
1010.33	2820.05
1010.49	2766.81
1010.65	2723.80
1010.81	2660.31
1010.96	2805.72
1011.12	2623.45
1011.28	2715.61
1011.44	2783.19
1011.60	2738.13
1011.76	2611.16
1011.91	2756.57
1012.07	2576.34
1012.23	2592.73
1012.39	2625.50
1012.55	2641.88
1012.71	2668.50
1012.86	2576.34
1013.02	2641.88
1013.18	2648.02
1013.34	2521.05
1013.50	2590.68
1013.65	2631.64
1013.81	2543.58
1013.97	2533.34
1014.13	2580.44
1014.29	2531.29
1014.44	2592.73
1014.60	2496.47
1014.76	2574.30
1014.92	2500.57
1015.07	2508.76
1015.23	2619.35
1015.39	2435.03
1015.55	2551.77
1015.71	2504.67
1015.86	2441.18
1016.02	2553.82
1016.18	2383.84
1016.34	2549.72
1016.49	2498.52
1016.65	2486.23
1016.81	2486.23
1016.97	2492.38
1017.12	2488.28
1017.28	2482.14
1017.44	2363.36
1017.60	2453.47
1017.75	2414.56
1017.91	2435.03
1018.07	2432.99
1018.23	2404.32
1018.38	2353.12
1018.54	2410.46
1018.70	2396.12
1018.86	2398.17
1019.01	2279.39
1019.17	2396.12
1019.33	2457.56
1019.49	2308.06
1019.64	2396.12
1019.80	2326.49
1019.96	2406.36
1020.12	2412.51
1020.27	2277.34
1020.43	2346.97
1020.59	2400.22
1020.74	2365.40
1020.90	2475.99
1021.06	2285.53
1021.22	2287.58
1021.37	2256.86
1021.53	2207.71
1021.69	2285.53
1021.84	2232.29
1022.00	2289.63
1022.16	2367.45
1022.31	2332.64
1022.47	2287.58
1022.63	2371.55
1022.79	2222.05
1022.94	2236.38
1023.10	2379.74
1023.26	2281.44
1023.41	2230.24
1023.57	2197.47
1023.73	2320.35
1023.88	2316.25
1024.04	2267.10
1024.20	2240.48
1024.35	2250.72
1024.51	2265.05
1024.67	2271.20
1024.82	2263.01
1024.98	2197.47
1025.14	2291.68
1025.29	2205.66
1025.45	2265.05
1025.61	2209.76
1025.76	2142.18
1025.92	2154.46
1026.08	2189.28
1026.23	2240.48
1026.39	2197.47
1026.55	2246.62
1026.70	2113.50
1026.86	2119.65
1027.02	2168.80
1027.17	2172.89
1027.33	2109.41
1027.48	2082.78
1027.64	2144.22
1027.80	2064.35
1027.95	2193.37
1028.11	2058.21
1028.27	2150.37
1028.42	2107.36
1028.58	2078.69
1028.73	2107.36
1028.89	2072.54
1029.05	2176.99
1029.20	2193.37
>>>>>End Processed Spectral Data<<<<<
