SpectraSuite Data File
++++++++++++++++++++++++++++++++++++
Date: Fri Jun 02 14:49:31 CEST 2017
User: INFO_000
Dark Spectrum Present: No
Reference Spectrum Present: No
Number of Sampled Component Spectra: 1
Spectrometers: USB4H00879
Integration Time (usec): 80000 (USB4H00879)
Spectra Averaged: 1 (USB4H00879)
Boxcar Smoothing: 0 (USB4H00879)
Correct for Electrical Dark: No (USB4H00879)
Strobe/Lamp Enabled: No (USB4H00879)
Correct for Detector Non-linearity: No (USB4H00879)
Correct for Stray Light: No (USB4H00879)
Number of Pixels in Processed Spectrum: 3648
>>>>>Begin Processed Spectral Data<<<<<
345.13	1337.32
345.34	1337.32
345.56	1337.32
345.78	1255.40
345.99	1257.45
346.21	1695.72
346.42	1669.09
346.64	1628.14
346.86	1769.44
347.07	1624.04
347.29	1705.96
347.50	1607.66
347.72	1650.66
347.94	1722.34
348.15	1564.65
348.37	1593.32
348.59	1630.18
348.80	1644.52
349.02	1753.06
349.23	1880.04
349.45	1794.02
349.67	1902.56
349.88	1834.98
350.10	1955.81
350.31	1820.64
350.53	1804.26
350.75	1951.71
350.96	1789.92
351.18	1855.46
351.39	1880.04
351.61	1767.40
351.82	1845.22
352.04	1925.09
352.26	1832.93
352.47	1839.08
352.69	1880.04
352.90	1806.31
353.12	1845.22
353.34	1828.84
353.55	1925.09
353.77	1851.36
353.98	1824.74
354.20	1808.36
354.41	1988.58
354.63	1935.33
354.85	2078.69
355.06	1882.08
355.28	1789.92
355.49	1964.00
355.71	1937.38
355.92	1892.32
356.14	1988.58
356.35	1855.46
356.57	1896.42
356.79	1888.23
357.00	1929.19
357.22	1933.28
357.43	1877.99
357.65	1964.00
357.86	1824.74
358.08	1902.56
358.29	1880.04
358.51	1961.95
358.72	1957.86
358.94	1923.04
359.16	1861.60
359.37	2007.01
359.59	1875.94
359.80	2021.35
360.02	1931.23
360.23	2023.39
360.45	2060.26
360.66	1990.63
360.88	1859.56
361.09	1966.05
361.31	1945.57
361.52	1904.61
361.74	2041.82
361.95	1990.63
362.17	1992.67
362.38	2133.98
362.60	2113.50
362.81	1943.52
363.03	1902.56
363.24	1980.39
363.46	2109.41
363.67	1984.48
363.89	1951.71
364.10	1951.71
364.32	1992.67
364.53	2062.30
364.75	1861.60
364.96	2039.78
365.18	2015.20
365.39	2021.35
365.61	1947.62
365.82	2140.13
366.04	2039.78
366.25	1949.67
366.47	2101.22
366.68	2031.58
366.90	1968.10
367.11	2123.74
367.33	2127.84
367.54	2160.61
367.76	1925.09
367.97	2031.58
368.19	2093.02
368.40	2138.08
368.62	1882.08
368.83	1994.72
369.05	2097.12
369.26	2019.30
369.48	2019.30
369.69	1945.57
369.91	2052.06
370.12	2031.58
370.33	2088.93
370.55	1945.57
370.76	2068.45
370.98	2021.35
371.19	2154.46
371.41	2074.59
371.62	2117.60
371.84	2023.39
372.05	2195.42
372.27	2058.21
372.48	2090.98
372.69	2093.02
372.91	2140.13
373.12	2148.32
373.34	2002.91
373.55	2172.89
373.77	2191.33
373.98	2109.41
374.20	2172.89
374.41	2271.20
374.62	2142.18
374.84	2062.30
375.05	2183.13
375.27	2162.66
375.48	2138.08
375.70	2197.47
375.91	2236.38
376.12	2297.82
376.34	2109.41
376.55	2103.26
376.77	2185.18
376.98	2095.07
377.19	2127.84
377.41	2205.66
377.62	2240.48
377.84	2232.29
378.05	2256.86
378.27	2174.94
378.48	2322.40
378.69	2351.07
378.91	2189.28
379.12	2199.52
379.34	2269.15
379.55	2260.96
379.76	2281.44
379.98	2209.76
380.19	2287.58
380.41	2244.57
380.62	2275.29
380.83	2197.47
381.05	2189.28
381.26	2424.80
381.47	2246.62
381.69	2314.20
381.90	2383.84
382.12	2349.02
382.33	2287.58
382.54	2226.14
382.76	2383.84
382.97	2353.12
383.19	2224.09
383.40	2342.88
383.61	2295.77
383.83	2269.15
384.04	2310.11
384.25	2281.44
384.47	2465.75
384.68	2308.06
384.89	2256.86
385.11	2351.07
385.32	2301.92
385.54	2336.73
385.75	2308.06
385.96	2453.47
386.18	2377.69
386.39	2377.69
386.60	2453.47
386.82	2389.98
387.03	2428.89
387.24	2516.95
387.46	2506.71
387.67	2506.71
387.88	2496.47
388.10	2408.41
388.31	2465.75
388.52	2594.78
388.74	2529.24
388.95	2543.58
389.16	2531.29
389.38	2508.76
389.59	2527.19
389.80	2572.25
390.02	2496.47
390.23	2531.29
390.44	2617.30
390.66	2566.10
390.87	2547.67
391.08	2572.25
391.30	2770.90
391.51	2590.68
391.72	2691.03
391.94	2574.30
392.15	2621.40
392.36	2617.30
392.58	2590.68
392.79	2617.30
393.00	2684.89
393.22	2783.19
393.43	2736.09
393.64	2764.76
393.85	2854.87
394.07	2699.22
394.28	2645.98
394.49	2729.94
394.71	2777.05
394.92	2783.19
395.13	2643.93
395.35	2768.85
395.56	2721.75
395.77	2701.27
395.98	2793.43
396.20	2768.85
396.41	2850.77
396.62	2842.58
396.84	2822.10
397.05	2844.63
397.26	2887.64
397.47	2934.74
397.69	2799.57
397.90	2985.94
398.11	2912.21
398.32	2852.82
398.54	2893.78
398.75	2955.22
398.96	2852.82
399.18	3063.76
399.39	2973.65
399.60	3071.95
399.81	3002.32
400.03	2895.83
400.24	3235.79
400.45	2938.84
400.66	2953.17
400.88	2940.88
401.09	3190.74
401.30	3053.52
401.51	3235.79
401.73	3145.68
401.94	3141.58
402.15	3012.56
402.36	3071.95
402.58	3145.68
402.79	3221.45
403.00	3149.78
403.21	3186.64
403.43	3243.98
403.64	3203.02
403.85	3088.34
404.06	3100.62
404.27	3067.86
404.49	3170.26
404.70	3114.96
404.91	3231.69
405.12	3143.63
405.34	3336.14
405.55	3344.33
405.76	3219.41
405.97	3147.73
406.19	3327.95
406.40	3299.28
406.61	3323.85
406.82	3309.52
407.03	3274.70
407.25	3299.28
407.46	3461.07
407.67	3448.78
407.88	3373.00
408.09	3364.81
408.31	3330.00
408.52	3358.67
408.73	3266.51
408.94	3327.95
409.15	3389.39
409.37	3403.72
409.58	3510.22
409.79	3510.22
410.00	3538.89
410.21	3413.96
410.43	3389.39
410.64	3409.87
410.85	3518.41
411.06	3547.08
411.27	3444.68
411.48	3604.42
411.70	3463.12
411.91	3553.23
412.12	3661.77
412.33	3600.33
412.54	3557.32
412.76	3598.28
412.97	3692.49
413.18	3463.12
413.39	3665.86
413.60	3624.90
413.81	3680.20
414.03	3606.47
414.24	3571.66
414.45	3739.59
414.66	3551.18
414.87	3655.62
415.08	3618.76
415.30	3631.05
415.51	3821.51
415.72	3727.30
415.93	3755.97
416.14	3780.55
416.35	3819.46
416.56	3782.60
416.78	3792.84
416.99	3880.90
417.20	3911.62
417.41	3907.52
417.62	3841.99
417.83	3958.72
418.04	3954.63
418.26	3971.01
418.47	3796.93
418.68	4011.97
418.89	4007.87
419.10	4014.02
419.31	4022.21
419.52	3841.99
419.73	4011.97
419.95	4089.79
420.16	3891.14
420.37	4040.64
420.58	4120.51
420.79	3913.67
421.00	4079.55
421.21	4194.24
421.42	4132.80
421.63	4130.75
421.85	4089.79
422.06	4292.54
422.27	4237.25
422.48	4145.09
422.69	4190.14
422.90	4216.77
423.11	4267.97
423.32	4282.30
423.53	4306.88
423.75	4329.41
423.96	4419.52
424.17	4456.38
424.38	4435.90
424.59	4485.05
424.80	4583.35
425.01	4417.47
425.22	4405.18
425.43	4497.34
425.64	4607.93
425.85	4702.14
426.06	4575.16
426.28	4556.73
426.49	4491.20
426.70	4552.63
426.91	4640.70
427.12	4648.89
427.33	4669.37
427.54	4532.15
427.75	4655.03
427.96	4757.43
428.17	4739.00
428.38	4765.62
428.59	4945.84
428.80	4788.15
429.01	4908.98
429.23	4751.29
429.44	4978.61
429.65	4958.13
429.86	4982.71
430.07	4798.39
430.28	4911.03
430.49	4958.13
430.70	5115.83
430.91	5134.26
431.12	5124.02
431.33	5152.69
431.54	5158.83
431.75	5111.73
431.96	5171.12
432.17	5181.36
432.38	5197.74
432.59	5418.93
432.80	5271.47
433.01	5193.65
433.22	5220.27
433.43	5205.94
433.64	5318.57
433.85	5212.08
434.06	5394.35
434.27	5113.78
434.49	5285.81
434.70	5642.15
434.91	5447.60
435.12	5533.61
435.33	5472.17
435.54	5412.78
435.75	5304.24
435.96	5349.29
436.17	5283.76
436.38	5619.63
436.59	5662.63
436.80	5556.14
437.01	5744.55
437.22	5820.33
437.43	5664.68
437.64	5431.21
437.85	5754.79
438.06	5664.68
438.27	5617.58
438.48	5713.83
438.69	5799.85
438.90	5873.57
439.11	5724.07
439.32	5752.74
439.53	5867.43
439.74	5822.38
439.95	5824.42
440.16	5803.94
440.37	5861.29
440.57	5844.90
440.78	5949.35
440.99	6025.12
441.20	5908.39
441.41	5908.39
441.62	5840.81
441.83	5838.76
442.04	5969.83
442.25	6012.84
442.46	6072.23
442.67	6039.46
442.88	6467.49
443.09	5918.63
443.30	6186.91
443.51	6109.09
443.72	6387.61
443.93	6039.46
444.14	6408.09
444.35	6074.28
444.56	6344.61
444.77	6193.06
444.98	6215.59
445.19	6442.91
445.40	6260.64
445.61	6334.37
445.81	6430.62
446.02	6473.63
446.23	6297.50
446.44	6416.29
446.65	6449.05
446.86	6311.84
447.07	6703.00
447.28	6713.24
447.49	6588.32
447.70	6496.16
447.91	6553.50
448.12	6647.71
448.33	6666.14
448.54	6774.68
448.74	6600.60
448.95	6850.46
449.16	6668.19
449.37	6948.76
449.58	6805.40
449.79	6967.19
450.00	6518.68
450.21	6999.96
450.42	6967.19
450.63	6977.43
450.84	6872.98
451.05	7028.63
451.25	6967.19
451.46	6827.93
451.67	7094.16
451.88	7235.47
452.09	7055.25
452.30	7135.12
452.51	7057.30
452.72	7319.44
452.93	7532.43
453.13	7204.75
453.34	7262.10
453.55	7268.24
453.76	7520.14
453.97	7464.85
454.18	7391.12
454.39	7479.18
454.60	7440.27
454.81	7407.50
455.01	7505.81
455.22	7290.77
455.43	7454.61
455.64	7700.36
455.85	7892.87
456.06	8058.76
456.27	7821.19
456.48	7591.82
456.68	7896.97
456.89	7802.76
457.10	7950.21
457.31	7856.01
457.52	7982.98
457.73	8023.94
457.94	8167.30
458.14	7929.74
458.35	8337.28
458.56	8269.70
458.77	8046.47
458.98	8232.83
459.19	8218.50
459.39	8175.49
459.60	8445.82
459.81	8294.27
460.02	8454.02
460.23	8398.72
460.44	8449.92
460.65	8624.00
460.85	8697.72
461.06	8703.87
461.27	8449.92
461.48	8736.63
461.69	9015.16
461.89	8726.39
462.10	9041.78
462.31	8607.61
462.52	8728.44
462.73	8941.43
462.94	9238.39
463.14	9115.51
463.35	8963.96
463.56	9547.63
463.77	9523.05
463.98	9281.39
464.18	9086.84
464.39	9566.06
464.60	9564.01
464.81	9353.07
465.02	9596.78
465.23	9797.48
465.43	9709.42
465.64	9783.15
465.85	9764.72
466.06	9717.61
466.27	10065.77
466.47	9994.09
466.68	10063.72
466.89	9799.53
467.10	10164.07
467.30	10055.53
467.51	10170.21
467.72	10276.71
467.93	10069.86
468.14	10401.63
468.34	10501.98
468.55	10510.18
468.76	10581.85
468.97	10250.08
469.17	10854.23
469.38	10620.77
469.59	10948.44
469.80	10631.01
470.01	10895.19
470.21	10735.45
470.42	11214.68
470.63	11249.49
470.84	10977.11
471.04	11255.64
471.25	11382.61
471.46	11099.99
471.67	11544.40
471.87	11358.03
472.08	11626.32
472.29	11736.91
472.50	11564.88
472.70	11714.38
472.91	11716.43
473.12	11997.00
473.33	11910.99
473.53	11931.47
473.74	12062.54
473.95	12449.60
474.16	12707.65
474.36	12521.28
474.57	12418.88
474.78	12672.83
474.99	12545.86
475.19	12580.67
475.40	12699.45
475.61	12853.05
475.81	12887.87
476.02	13104.95
476.23	13252.41
476.44	13227.83
476.64	13338.42
476.85	13610.80
477.06	13604.66
477.27	13743.92
477.47	13950.76
477.68	13745.97
477.89	13903.66
478.09	13938.48
478.30	13946.67
478.51	14032.68
478.71	14274.34
478.92	14305.06
479.13	14393.12
479.34	14554.91
479.54	14602.02
479.75	14331.69
479.96	14434.08
480.16	14747.42
480.37	14952.22
480.58	14962.46
480.78	15136.54
480.99	15275.80
481.20	15007.52
481.41	15359.77
481.61	15585.04
481.82	15689.49
482.03	15445.78
482.23	15378.20
482.44	15976.20
482.65	15976.20
482.85	16015.12
483.06	16029.45
483.27	16101.13
483.47	16248.58
483.68	16373.51
483.89	16533.25
484.09	16281.35
484.30	16500.48
484.51	16774.91
484.71	16740.10
484.92	16881.41
485.13	16971.52
485.33	17065.72
485.54	16871.17
485.75	17182.46
485.95	17465.08
486.16	17350.39
486.37	17575.67
486.57	17612.53
486.78	17501.94
486.98	17762.03
487.19	17596.15
487.40	18243.31
487.60	18134.76
487.81	18028.27
488.02	18200.30
488.22	17975.02
488.43	18321.13
488.64	18722.53
488.84	18362.09
489.05	18603.75
489.25	18603.75
489.46	18659.04
489.67	18722.53
489.87	18923.23
490.08	18976.48
490.29	19080.92
490.49	19371.74
490.70	19400.41
490.90	19504.85
491.11	19371.74
491.32	19560.15
491.52	19773.14
491.73	19760.85
491.94	19762.90
492.14	19662.55
492.35	20109.01
492.55	19941.07
492.76	19996.37
492.97	20393.67
493.17	20264.65
493.38	20389.58
493.58	20897.47
493.79	20582.09
494.00	20635.33
494.20	20547.27
494.41	20805.31
494.61	20717.25
494.82	21255.87
495.02	20907.71
495.23	21225.15
495.44	21051.07
495.64	21296.83
495.85	21638.84
496.05	21587.64
496.26	21436.09
496.47	21618.36
496.67	21614.26
496.88	21786.29
497.08	21499.58
497.29	21931.70
497.49	21829.30
497.70	22124.21
497.91	22023.86
498.11	22165.17
498.32	22136.49
498.52	22378.15
498.73	22668.97
498.93	22417.07
499.14	22853.28
499.34	22478.50
499.55	22904.48
499.76	22935.20
499.96	22886.05
500.17	23183.01
500.37	23076.51
500.58	22726.31
500.78	22933.15
500.99	23357.08
501.19	22961.83
501.40	23457.43
501.60	23115.42
501.81	23608.98
502.02	23379.61
502.22	23197.34
502.43	23580.31
502.63	23750.29
502.84	23561.88
503.04	23832.21
503.25	24088.21
503.45	23774.87
503.66	24127.12
503.86	24108.69
504.07	24387.21
504.27	24065.68
504.48	24465.03
504.68	24186.51
504.89	24651.40
505.09	24626.82
505.30	24841.86
505.50	24622.73
505.71	24927.88
505.91	24860.29
506.12	24708.74
506.32	24694.41
506.53	24868.48
506.73	25108.10
506.94	25151.10
507.14	25085.57
507.35	25108.10
507.55	25241.21
507.76	25265.79
507.96	25372.28
508.17	25396.86
508.37	25421.44
508.58	25665.14
508.78	25519.74
508.99	25794.17
509.19	25755.26
509.40	26130.03
509.60	25646.71
509.81	26007.16
510.01	25806.45
510.22	25685.62
510.42	26035.83
510.63	26181.23
510.83	26334.83
511.04	26234.48
511.24	26457.71
511.44	26478.19
511.65	26322.54
511.85	26431.08
512.06	26971.75
512.26	26762.86
512.47	26642.03
512.67	26711.66
512.88	26723.94
513.08	26422.89
513.29	26793.58
513.49	26732.14
513.69	27020.90
513.90	27072.10
514.10	27260.51
514.31	27201.12
514.51	27221.60
514.72	27076.19
514.92	26719.85
515.13	27274.85
515.33	27706.97
515.53	27612.76
515.74	27815.51
515.94	27762.26
516.15	27629.15
516.35	27571.80
516.56	27672.15
516.76	27719.26
516.96	27942.49
517.17	28382.80
517.37	28120.66
517.58	28190.29
517.78	27805.27
517.99	28096.08
518.19	28472.91
518.39	28390.99
518.60	28778.06
518.80	28438.09
519.01	28892.74
519.21	28683.85
519.41	28712.52
519.62	28853.83
519.82	29183.55
520.03	28716.62
520.23	28831.30
520.43	29156.93
520.64	29390.40
520.84	29552.19
521.05	29503.04
521.25	29484.61
521.45	29601.34
521.66	29720.12
521.86	29593.15
522.07	29300.29
522.27	29718.07
522.47	29587.00
522.68	30383.66
522.88	29941.30
523.08	30580.27
523.29	30254.64
523.49	30412.34
523.70	30332.47
523.90	30643.76
524.10	30625.32
524.31	30866.98
524.51	30205.49
524.71	31464.99
524.92	30842.41
525.12	31131.17
525.33	30895.66
525.53	31243.81
525.73	31553.05
525.94	30918.18
526.14	31174.18
526.34	31245.86
526.55	31518.24
526.75	31518.24
526.95	31976.98
527.16	31798.81
527.36	31958.55
527.56	32171.54
527.77	32130.58
527.97	32151.06
528.17	31954.46
528.38	32482.83
528.58	32292.37
528.78	32626.19
528.99	32581.13
529.19	32808.46
529.39	32618.00
529.60	32777.74
529.80	32982.54
530.00	32992.78
530.21	33414.66
530.41	33359.36
530.61	33228.29
530.82	32945.67
531.02	33539.58
531.22	33611.26
531.43	33547.78
531.63	33777.15
531.83	33517.06
532.04	34115.06
532.24	33785.34
532.44	34315.76
532.64	34326.00
532.85	34577.90
533.05	34176.50
533.25	34604.53
533.46	34094.58
533.66	34864.62
533.86	34745.84
534.07	35028.46
534.27	34778.61
534.47	34954.73
534.67	35403.24
534.88	35005.93
535.08	35104.23
535.28	35159.53
535.49	35632.61
535.69	35620.32
535.89	35429.86
536.09	35497.44
536.30	35886.56
536.50	35694.05
536.70	36115.93
536.91	36132.31
537.11	36029.91
537.31	36345.30
537.51	36373.97
537.72	36351.45
537.92	36787.66
538.12	36908.49
538.32	36750.80
538.53	37057.99
538.73	36584.91
538.93	36658.64
539.13	36894.16
539.34	36947.40
539.54	36640.21
539.74	37361.09
539.94	37004.75
540.15	37328.33
540.35	37668.29
540.55	37619.14
540.75	37615.04
540.96	37928.38
541.16	37848.51
541.36	37955.00
541.56	37383.62
541.77	38172.09
541.97	37742.02
542.17	37983.68
542.37	38092.22
542.58	37973.44
542.78	37813.70
542.98	37955.00
543.18	38407.61
543.38	39036.33
543.59	38827.44
543.79	38313.40
543.99	38227.38
544.19	38399.41
544.40	38589.88
544.60	38761.90
544.80	38819.25
545.00	39005.61
545.20	39282.09
545.41	38995.37
545.61	39243.18
545.81	39269.80
546.01	39527.84
546.21	39583.14
546.42	38835.63
546.62	39509.41
546.82	39142.83
547.02	39507.37
547.22	39609.76
547.43	39146.92
547.63	39732.64
547.83	39992.73
548.03	39560.61
548.23	39724.45
548.44	39605.67
548.64	39605.67
548.84	40246.68
549.04	39652.77
549.24	40191.39
549.45	40439.19
549.65	39656.87
549.85	40123.80
550.05	40396.18
550.25	40394.14
550.45	40768.91
550.66	40328.60
550.86	40312.22
551.06	40766.87
551.26	40592.79
551.46	40203.67
551.66	40535.45
551.87	40705.43
552.07	40615.32
552.27	40584.60
552.47	40547.73
552.67	41297.29
552.87	41129.36
553.07	40934.80
553.28	41096.59
553.48	41045.39
553.68	41334.15
553.88	41553.29
554.08	40994.19
554.28	41481.61
554.48	41143.69
554.69	41543.05
554.89	41151.88
555.09	41555.33
555.29	41348.49
555.49	41561.48
555.69	41254.28
555.89	41182.60
556.10	41704.84
556.30	41123.21
556.50	41438.60
556.70	41297.29
556.90	41538.95
557.10	41891.20
557.30	41448.84
557.50	41866.63
557.70	41911.68
557.91	41792.90
558.11	41948.54
558.31	42147.20
558.51	41739.65
558.71	42050.94
558.91	42257.79
559.11	42339.71
559.31	42280.31
559.51	41819.52
559.72	41991.55
559.92	42050.94
560.12	41702.79
560.32	42233.21
560.52	42159.48
560.72	42317.18
560.92	42122.62
561.12	42458.49
561.32	42511.74
561.52	42315.13
561.72	42538.36
561.93	42282.36
562.13	42679.67
562.33	42218.88
562.53	42892.66
562.73	42515.83
562.93	42614.13
563.13	42630.52
563.33	42468.73
563.53	42958.19
563.73	42878.32
563.93	42651.00
564.13	42825.07
564.33	43046.26
564.53	43097.45
564.74	43332.97
564.94	42849.65
565.14	42704.24
565.34	43033.97
565.54	43349.35
565.74	43228.52
565.94	43681.13
566.14	43513.19
566.34	43464.04
566.54	43560.30
566.74	43322.73
566.94	43505.00
567.14	43785.57
567.34	43177.33
567.54	43656.55
567.74	43429.23
567.94	43306.35
568.14	43488.62
568.34	43748.71
568.54	43660.65
568.74	43847.01
568.94	43935.07
569.14	43830.63
569.34	43763.04
569.54	43908.45
569.75	43337.07
569.95	44045.66
570.15	44461.40
570.35	44512.60
570.55	44100.96
570.75	44156.25
570.95	44062.05
571.15	44522.84
571.35	44430.68
571.55	44528.98
571.75	44389.72
571.95	44107.10
572.15	43904.35
572.35	44635.48
572.55	44369.24
572.75	44535.13
572.95	44266.84
573.15	44418.39
573.35	44367.20
573.55	44240.22
573.75	44719.45
573.95	45182.29
574.15	45061.46
574.35	44584.28
574.55	44770.64
574.75	44764.50
574.95	45213.01
575.15	44840.28
575.34	44934.48
575.54	45190.48
575.74	45337.93
575.94	45251.92
576.14	45145.42
576.34	45673.80
576.54	45839.68
576.74	45425.99
576.94	45163.85
577.14	45681.99
577.34	45833.54
577.54	45626.70
577.74	45751.62
577.94	45813.06
578.14	46064.96
578.34	46265.66
578.54	45974.85
578.74	45817.16
578.94	46177.60
579.14	45786.44
579.34	46208.32
579.54	46290.24
579.74	46409.02
579.94	46353.72
580.13	46765.37
580.33	46699.83
580.53	46110.02
580.73	46652.73
580.93	46603.58
581.13	46617.91
581.33	47019.31
581.53	47236.40
581.73	46869.81
581.93	47119.66
582.13	46693.69
582.33	47117.62
582.53	47152.43
582.73	47555.88
582.92	47093.04
583.12	47510.83
583.32	47521.07
583.52	47615.27
583.72	47533.35
583.92	47445.29
584.12	47236.40
584.32	48346.40
584.52	47617.32
584.72	47897.89
584.92	47922.47
585.11	48493.85
585.31	47887.65
585.51	48309.53
585.71	48020.77
585.91	48467.23
586.11	48256.29
586.31	47947.04
586.51	48612.63
586.71	48514.33
586.91	48610.59
587.10	48743.70
587.30	48715.03
587.50	48837.91
587.70	48907.54
587.90	49018.13
588.10	48993.56
588.30	48903.45
588.50	49214.74
588.69	49665.29
588.89	48792.86
589.09	49456.40
589.29	49239.31
589.49	49110.29
589.69	49192.21
589.89	49263.89
590.08	49562.89
590.28	49425.68
590.48	49403.15
590.68	49423.63
590.88	49364.24
591.08	49587.47
591.28	49155.35
591.47	49620.23
591.67	49673.48
591.87	49937.67
592.07	49720.59
592.27	50124.04
592.47	50275.58
592.67	49689.87
592.86	49771.78
593.06	49997.06
593.26	50392.32
593.46	50445.57
593.66	50283.78
593.86	50261.25
594.05	50373.89
594.25	50818.30
594.45	50074.88
594.65	50664.70
594.85	50361.60
595.05	50820.34
595.24	50922.74
595.44	50881.78
595.64	50892.02
595.84	51256.56
596.04	51055.86
596.23	50771.19
596.43	51236.08
596.63	51047.67
596.83	51406.06
597.03	51410.16
597.22	51340.53
597.42	51246.32
597.62	51451.12
597.82	51643.63
598.02	51504.37
598.21	51795.18
598.41	51070.20
598.61	51795.18
598.81	51756.27
599.01	52090.09
599.20	51750.12
599.40	51782.89
599.60	52384.99
599.80	51870.95
600.00	52200.68
600.19	52575.45
600.39	52059.37
600.59	52376.80
600.79	52425.95
600.98	52126.95
601.18	52137.19
601.38	52810.97
601.58	52702.43
601.78	52753.63
601.97	52770.01
602.17	53056.73
602.37	52761.82
602.57	52989.14
602.76	52972.76
602.96	52864.22
603.16	53077.21
603.36	53052.63
603.55	53288.15
603.75	53150.93
603.95	53505.23
604.15	53089.49
604.34	53470.42
604.54	53480.66
604.74	53492.94
604.94	53228.76
605.13	53548.24
605.33	54002.89
605.53	53499.09
605.73	53552.33
605.92	53718.22
606.12	54226.12
606.32	53947.59
606.52	53578.96
606.71	53521.62
606.91	54232.26
607.11	53707.98
607.30	53851.34
607.50	54312.13
607.70	54359.23
607.90	54293.70
608.09	54039.75
608.29	54027.46
608.49	54164.68
608.68	53923.02
608.88	54154.44
609.08	54570.18
609.28	54383.81
609.47	54103.24
609.67	54645.95
609.87	54482.11
610.06	54852.80
610.26	54590.66
610.46	54856.89
610.66	54400.19
610.85	54559.94
611.05	54428.87
611.25	54678.72
611.44	54547.65
611.64	54885.56
611.84	54719.68
612.03	55045.30
612.23	54875.32
612.43	55026.87
612.62	54654.14
612.82	54834.36
613.02	54586.56
613.21	54973.63
613.41	54293.70
613.61	55162.04
613.80	54191.30
614.00	55000.25
614.20	54770.88
614.39	54688.96
614.59	55164.09
614.79	54957.24
614.98	54695.10
615.18	55227.57
615.38	55143.61
615.57	54633.66
615.77	54895.80
615.97	55243.96
616.16	54539.46
616.36	54969.53
616.56	55211.19
616.75	54844.60
616.95	54684.86
617.15	54654.14
617.34	55092.41
617.54	54949.05
617.74	55243.96
617.93	55016.63
618.13	55065.78
618.32	55057.59
618.52	54793.40
618.72	54908.09
618.91	55155.89
619.11	54768.83
619.31	54891.71
619.50	54957.24
619.70	54643.90
619.90	54998.20
620.09	55131.32
620.29	54727.87
620.48	54547.65
620.68	54959.29
620.88	54990.01
621.07	54658.24
621.27	55053.50
621.46	54598.85
621.66	54863.03
621.86	55155.89
622.05	54600.89
622.25	54963.39
622.44	54949.05
622.64	54717.63
622.84	54598.85
623.03	54564.03
623.23	54510.78
623.42	54826.17
623.62	54803.64
623.82	54799.55
624.01	54691.01
624.21	54912.19
624.40	54863.03
624.60	54451.39
624.80	54842.56
624.99	54813.88
625.19	54494.40
625.38	54588.61
625.58	54596.80
625.77	54705.34
625.97	54742.20
626.17	54353.09
626.36	54858.94
626.56	55090.36
626.75	54103.24
626.95	55284.92
627.14	54650.05
627.34	55035.06
627.54	54678.72
627.73	55053.50
627.93	54596.80
628.12	54590.66
628.32	54371.52
628.51	54740.16
628.71	54875.32
628.90	54604.99
629.10	54801.60
629.30	54240.45
629.49	54424.77
629.69	54351.04
629.88	54529.22
630.08	55284.92
630.27	54584.51
630.47	54660.29
630.66	54385.86
630.86	54756.54
631.05	54420.67
631.25	54961.34
631.44	54320.32
631.64	54490.30
631.84	54488.26
632.03	55383.22
632.23	54762.68
632.42	54885.56
632.62	54633.66
632.81	54398.15
633.01	54353.09
633.20	54465.73
633.40	54656.19
633.59	54787.26
633.79	54625.47
633.98	54465.73
634.18	54664.38
634.37	54566.08
634.57	54695.10
634.76	54688.96
634.96	55004.34
635.15	55141.56
635.35	54215.88
635.54	54244.55
635.74	54867.13
635.93	54699.20
636.13	54973.63
636.32	54973.63
636.52	54455.49
636.71	54566.08
636.91	54899.90
637.10	54834.36
637.30	54146.25
637.49	54668.48
637.69	54187.21
637.88	54860.99
638.08	54144.20
638.27	54224.07
638.46	54420.67
638.66	54299.84
638.85	55051.45
639.05	54707.39
639.24	54963.39
639.44	54598.85
639.63	54645.95
639.83	54748.35
640.02	54334.66
640.22	54705.34
640.41	54637.76
640.61	54359.23
640.80	54580.42
640.99	54527.17
641.19	54703.29
641.38	54164.68
641.58	54695.10
641.77	54871.23
641.97	54600.89
642.16	54588.61
642.36	55020.73
642.55	55024.82
642.74	54770.88
642.94	55039.16
643.13	54619.33
643.33	55020.73
643.52	55366.84
643.72	55252.15
643.91	54895.80
644.10	54760.64
644.30	55135.41
644.49	54740.16
644.69	55583.92
644.88	54578.37
645.08	54486.21
645.27	54981.82
645.46	54885.56
645.66	54811.84
645.85	54523.07
646.05	55071.93
646.24	54973.63
646.43	54658.24
646.63	55211.19
646.82	55086.26
647.02	54883.51
647.21	55254.20
647.40	54869.18
647.60	55346.36
647.79	54672.57
647.99	55454.90
648.18	54951.10
648.37	55649.45
648.57	55559.34
648.76	55041.21
648.96	54537.41
649.15	55143.61
649.34	55162.04
649.54	55104.70
649.73	55039.16
649.92	55166.13
650.12	55522.48
650.31	55102.65
650.51	55538.86
650.70	55407.79
650.89	55665.84
651.09	55712.94
651.28	55252.15
651.47	55577.78
651.67	54885.56
651.86	55856.30
652.06	55082.17
652.25	55157.94
652.44	55069.88
652.64	54729.92
652.83	55332.02
653.02	54994.10
653.22	55690.41
653.41	54779.07
653.60	54762.68
653.80	55547.06
653.99	55536.82
654.18	55243.96
654.38	55309.49
654.57	55395.51
654.76	55346.36
654.96	55458.99
655.15	55411.89
655.34	55581.87
655.54	55186.61
655.73	55182.52
655.92	55735.47
656.12	55293.11
656.31	55514.29
656.50	55399.60
656.70	55678.13
656.89	55317.68
657.08	55260.34
657.28	55553.20
657.47	55325.88
657.66	55870.64
657.86	55246.00
658.05	55665.84
658.24	55481.52
658.43	55327.92
658.63	55563.44
658.82	55940.27
659.01	55676.08
659.21	55635.12
659.40	55876.78
659.59	55563.44
659.79	56075.43
659.98	55561.39
660.17	55696.56
660.36	55729.33
660.56	55592.11
660.75	55510.19
660.94	55581.87
661.14	55753.90
661.33	56089.77
661.52	55536.82
661.71	55891.12
661.91	55573.68
662.10	55645.36
662.29	55747.76
662.49	55745.71
662.68	55602.35
662.87	55821.48
663.06	55817.39
663.26	55473.33
663.45	56188.07
663.64	56247.46
663.83	56503.46
664.03	56016.04
664.22	55768.24
664.41	56026.28
664.60	55917.74
664.80	55829.68
664.99	56198.31
665.18	56081.58
665.37	56032.42
665.57	55803.05
665.76	56147.11
665.95	55874.73
666.14	56161.45
666.34	55852.20
666.53	55723.18
666.72	56063.14
666.91	55930.03
667.11	55440.56
667.30	55526.58
667.49	56149.16
667.68	56237.22
667.87	55889.07
668.07	55964.84
668.26	55817.39
668.45	55950.51
668.64	55682.22
668.84	56489.12
669.03	56046.76
669.22	56337.57
669.41	56177.83
669.60	55766.19
669.80	55915.69
669.99	56745.12
670.18	56153.26
670.37	56190.12
670.57	56419.49
670.76	56122.54
670.95	56433.83
671.14	56048.81
671.33	56280.23
671.53	56317.09
671.72	56384.68
671.91	56013.99
672.10	55987.37
672.29	55766.19
672.48	56358.05
672.68	56714.40
672.87	56165.54
673.06	56292.52
673.25	55702.70
673.44	55983.27
673.64	55944.36
673.83	56218.79
674.02	55712.94
674.21	55940.27
674.40	56390.82
674.59	55633.07
674.79	55950.51
674.98	56032.42
675.17	56366.24
675.36	55606.45
675.55	56448.16
675.74	56016.04
675.94	56288.42
676.13	55858.35
676.32	56255.65
676.51	56358.05
676.70	56112.30
676.89	56030.38
677.08	56612.00
677.28	56057.00
677.47	56460.45
677.66	56259.75
677.85	56202.41
678.04	56822.94
678.23	56538.27
678.42	56132.78
678.62	56278.18
678.81	56544.42
679.00	56450.21
679.19	56824.99
679.38	56116.39
679.57	55819.44
679.76	56313.00
679.96	56507.55
680.15	55921.83
680.34	55874.73
680.53	56509.60
680.72	56259.75
680.91	56546.47
681.10	55710.89
681.29	56143.02
681.48	56161.45
681.68	56044.71
681.87	56558.75
682.06	56216.74
682.25	56063.14
682.44	56411.30
682.63	56052.90
682.82	55991.47
683.01	55901.36
683.20	55846.06
683.39	56272.04
683.59	56126.63
683.78	55774.38
683.97	56075.43
684.16	55866.54
684.35	55884.97
684.54	56247.46
684.73	55489.71
684.92	55751.85
685.11	55878.83
685.30	56005.80
685.49	56200.36
685.69	55760.05
685.88	56118.44
686.07	55940.27
686.26	55747.76
686.45	55944.36
686.64	56157.35
686.83	55741.61
687.02	56030.38
687.21	56310.95
687.40	55649.45
687.59	55964.84
687.78	56044.71
687.97	56325.28
688.16	56104.10
688.35	55409.84
688.54	56042.66
688.74	55876.78
688.93	55620.78
689.12	55452.85
689.31	55516.34
689.50	56251.56
689.69	55784.62
689.88	55438.51
690.07	55567.54
690.26	55401.65
690.45	55913.64
690.64	55792.81
690.83	55450.80
691.02	55039.16
691.21	55198.90
691.40	55946.41
691.59	55739.57
691.78	55295.16
691.97	55905.45
692.16	55401.65
692.35	55495.86
692.54	55405.75
692.73	55774.38
692.92	55454.90
693.11	55653.55
693.30	55563.44
693.49	55717.04
693.68	55690.41
693.87	55555.25
694.06	55303.35
694.25	55020.73
694.44	54850.75
694.63	55411.89
694.82	55350.45
695.01	55555.25
695.20	55422.13
695.39	54949.05
695.58	55080.12
695.77	55030.97
695.96	55561.39
696.15	54959.29
696.34	54883.51
696.53	55186.61
696.72	55309.49
696.91	54969.53
697.10	55325.88
697.29	54832.32
697.48	55665.84
697.67	54496.45
697.86	54510.78
698.05	54607.04
698.24	55254.20
698.43	54826.17
698.62	55305.40
698.81	54625.47
699.00	55088.31
699.19	54805.69
699.38	54809.79
699.57	54465.73
699.76	55434.42
699.95	54514.88
700.14	54580.42
700.32	55157.94
700.51	54842.56
700.70	54959.29
700.89	55094.46
701.08	54734.01
701.27	54609.09
701.46	54983.86
701.65	53953.74
701.84	54471.87
702.03	54176.97
702.22	54453.44
702.41	54809.79
702.60	54742.20
702.79	54518.98
702.98	53994.70
703.17	54486.21
703.35	53976.26
703.54	54066.38
703.73	54203.59
703.92	54226.12
704.11	54049.99
704.30	54113.48
704.49	53910.73
704.68	54058.18
704.87	53990.60
705.06	54187.21
705.25	54162.63
705.43	54191.30
705.62	53845.19
705.81	53662.93
706.00	53853.39
706.19	53048.53
706.38	54113.48
706.57	53648.59
706.76	53548.24
706.95	53341.39
707.14	53617.87
707.32	53523.66
707.51	53290.19
707.70	53271.76
707.89	53687.50
708.08	53509.33
708.27	53765.32
708.46	54035.66
708.65	53443.79
708.84	53738.70
709.02	53595.34
709.21	53370.07
709.40	53269.72
709.59	53308.63
709.78	52931.80
709.97	53607.63
710.16	53040.34
710.34	52798.68
710.53	53030.10
710.72	52671.71
710.91	52892.89
711.10	53128.41
711.29	53298.39
711.48	53310.67
711.66	52792.54
711.85	52673.76
712.04	53282.00
712.23	53050.58
712.42	52737.24
712.61	52907.22
712.80	52849.88
712.98	52958.42
713.17	52675.80
713.36	52780.25
713.55	52440.29
713.74	52864.22
713.93	52704.48
714.11	52421.86
714.30	52333.79
714.49	52483.30
714.68	52864.22
714.87	52597.98
715.06	52696.28
715.24	52395.23
715.43	52403.42
715.62	52139.24
715.81	51926.25
716.00	52444.38
716.18	51778.79
716.37	51983.59
716.56	51961.06
716.75	52444.38
716.94	52159.72
717.12	51600.62
717.31	52245.73
717.50	51991.78
717.69	52026.60
717.88	51936.49
718.06	51551.47
718.25	52061.41
718.44	51717.35
718.63	51395.82
718.82	51485.93
719.00	51686.64
719.19	51655.92
719.38	51465.45
719.57	50918.65
719.76	51098.87
719.94	50453.76
720.13	50975.99
720.32	51029.24
720.51	51217.65
720.69	51205.36
720.88	50810.10
721.07	50760.95
721.26	50554.11
721.44	50420.99
721.63	50404.61
721.82	50418.94
722.01	50038.02
722.20	50441.47
722.38	50171.14
722.57	50058.50
722.76	49917.19
722.95	50095.36
723.13	49507.60
723.32	49913.09
723.51	49775.88
723.70	49583.37
723.88	49724.68
724.07	49571.08
724.26	49761.54
724.44	48831.77
724.63	49917.19
724.82	49454.35
725.01	49526.03
725.19	49845.51
725.38	49134.87
725.57	49358.09
725.76	49636.62
725.94	48936.21
726.13	48907.54
726.32	49298.70
726.51	48915.73
726.69	49300.75
726.88	49124.63
727.07	49300.75
727.25	48602.39
727.44	48882.97
727.63	48696.60
727.82	49163.54
728.00	48878.87
728.19	48962.84
728.38	49063.19
728.56	48610.59
728.75	49024.28
728.94	48526.62
729.12	48950.55
729.31	48952.60
729.50	48284.96
729.69	49089.81
729.87	48860.44
730.06	48764.18
730.25	48715.03
730.43	49036.56
730.62	48321.82
730.81	48540.96
730.99	48737.56
731.18	48385.31
731.37	48465.18
731.55	48469.28
731.74	48817.43
731.93	48678.17
732.11	48704.79
732.30	48395.55
732.49	48491.80
732.67	48563.48
732.86	48500.00
733.05	48551.20
733.23	48282.91
733.42	48672.03
733.61	48082.21
733.79	48469.28
733.98	48389.41
734.17	48346.40
734.35	47975.72
734.54	48846.10
734.73	48674.07
734.91	48000.29
735.10	47869.22
735.29	48649.50
735.47	47777.06
735.66	48155.94
735.84	48268.58
736.03	47914.28
736.22	48497.95
736.40	48088.35
736.59	47983.91
736.78	47953.19
736.96	47504.68
737.15	48026.92
737.33	47439.15
737.52	47789.35
737.71	47658.28
737.89	47553.83
738.08	47295.79
738.27	47340.85
738.45	47965.48
738.64	47652.14
738.82	47578.41
739.01	47539.50
739.20	47375.66
739.38	47531.31
739.57	47486.25
739.75	47054.13
739.94	47344.94
740.13	47119.66
740.31	47129.90
740.50	47283.50
740.68	47406.38
740.87	47191.34
741.06	47488.30
741.24	47254.83
741.43	46882.10
741.61	47052.08
741.80	47050.03
741.99	46878.00
742.17	46835.00
742.36	46818.61
742.54	46693.69
742.73	46535.99
742.91	46943.54
743.10	46986.55
743.29	46687.54
743.47	46728.50
743.66	46740.79
743.84	46568.76
744.03	47039.79
744.21	46423.36
744.40	46755.13
744.59	46396.73
744.77	46314.81
744.96	46486.84
745.14	45972.80
745.33	46894.39
745.51	46488.89
745.70	46411.07
745.88	45856.07
746.07	46040.39
746.26	45845.83
746.44	46040.39
746.63	45991.23
746.81	46394.68
747.00	46169.41
747.18	46198.08
747.37	46232.89
747.55	45880.64
747.74	46323.01
747.92	45864.26
748.11	46087.49
748.29	45704.52
748.48	46071.10
748.66	45522.25
748.85	45659.46
749.03	45913.41
749.22	46015.81
749.41	45512.01
749.59	45733.19
749.78	45319.50
749.96	45258.06
750.15	45307.21
750.33	45358.41
750.52	45419.85
750.70	45268.30
750.89	45161.81
751.07	44838.23
751.26	45110.61
751.44	45260.11
751.63	45299.02
751.81	44768.60
752.00	44647.77
752.18	45028.69
752.37	44762.45
752.55	44651.86
752.74	44592.47
752.92	44600.66
753.10	44543.32
753.29	45036.88
753.47	44539.22
753.66	44416.35
753.84	44764.50
754.03	44164.45
754.21	44350.81
754.40	44430.68
754.58	44651.86
754.77	44856.66
754.95	43998.56
755.14	44264.80
755.32	43900.26
755.51	43920.74
755.69	43943.27
755.88	43871.59
756.06	43847.01
756.24	43621.73
756.43	43949.41
756.61	43818.34
756.80	43728.23
756.98	43842.92
757.17	43701.61
757.35	43763.04
757.54	43617.64
757.72	43728.23
757.90	43631.97
758.09	43482.47
758.27	43373.93
758.46	43343.21
758.64	43269.48
758.83	43844.96
759.01	43717.99
759.19	43300.20
759.38	43515.24
759.56	43642.21
759.75	43281.77
759.93	43582.82
760.12	42870.13
760.30	43171.18
760.48	43064.69
760.67	43076.97
760.85	43195.76
761.04	43242.86
761.22	42970.48
761.40	43132.27
761.59	42911.09
761.77	42962.29
761.96	43046.26
762.14	42548.60
762.32	42556.79
762.51	42247.55
762.69	42202.49
762.88	42560.89
763.06	42536.31
763.24	42429.82
763.43	42587.51
763.61	42491.26
763.80	42691.96
763.98	42403.19
764.16	42444.15
764.35	42300.79
764.53	41766.27
764.72	42300.79
764.90	42397.05
765.08	42225.02
765.27	42212.73
765.45	42218.88
765.63	41518.47
765.82	42544.50
766.00	41653.64
766.18	42089.85
766.37	42063.23
766.55	41641.35
766.74	41977.22
766.92	41117.07
767.10	41657.73
767.29	41502.09
767.47	41084.30
767.65	41528.71
767.84	41129.36
768.02	41786.75
768.20	40906.13
768.39	41164.17
768.57	41342.35
768.75	41422.22
768.94	41514.37
769.12	41317.77
769.30	41082.25
769.49	40824.21
769.67	40623.51
769.85	40201.63
770.04	40654.23
770.22	40596.88
770.40	39978.40
770.59	40512.92
770.77	40848.78
770.95	40605.08
771.14	40160.67
771.32	40340.89
771.50	40082.84
771.69	40252.83
771.87	40594.84
772.05	40486.29
772.24	39810.46
772.42	40058.27
772.60	40185.24
772.78	40332.70
772.97	40105.37
773.15	40091.04
773.33	40076.70
773.52	40193.43
773.70	40076.70
773.88	40308.12
774.07	39914.91
774.25	39945.63
774.43	39916.96
774.61	39454.12
774.80	40476.05
774.98	39761.31
775.16	40175.00
775.34	39998.88
775.53	39962.01
775.71	40252.83
775.89	40199.58
776.08	39927.20
776.26	40351.13
776.44	40025.50
776.62	40054.17
776.81	39839.14
776.99	40285.59
777.17	40166.81
777.35	39916.96
777.54	40746.39
777.72	40179.10
777.90	40394.14
778.08	40404.38
778.27	40064.41
778.45	40084.89
778.63	40543.64
778.81	40027.55
779.00	40809.87
779.18	40754.58
779.36	40703.38
779.54	40197.53
779.73	40400.28
779.91	40519.06
780.09	40627.60
780.27	40539.54
780.46	40572.31
780.64	40852.88
780.82	40578.45
781.00	40437.14
781.19	40664.47
781.37	40916.37
781.55	40973.71
781.73	40887.70
781.91	40756.63
782.10	40678.80
782.28	40664.47
782.46	41166.22
782.64	40592.79
782.82	40762.77
783.01	40936.85
783.19	41123.21
783.37	41174.41
783.55	40777.11
783.74	41133.45
783.92	40279.45
784.10	41332.11
784.28	41080.21
784.46	41164.17
784.64	40942.99
784.83	40883.60
785.01	40957.33
785.19	41618.82
785.37	41647.49
785.55	41112.97
785.74	40615.32
785.92	40484.25
786.10	40660.37
786.28	41053.58
786.46	40897.94
786.64	40715.67
786.83	41080.21
787.01	40963.47
787.19	40846.74
787.37	40826.26
787.55	40641.94
787.74	40484.25
787.92	40807.83
788.10	40258.97
788.28	40084.89
788.46	40676.76
788.64	40396.18
788.82	40662.42
789.01	40287.64
789.19	40807.83
789.37	40523.16
789.55	40607.12
789.73	39896.48
789.91	40082.84
790.09	40158.62
790.28	39478.69
790.46	39536.04
790.64	39892.38
790.82	39689.63
791.00	39589.28
791.18	39851.42
791.36	39525.80
791.55	39835.04
791.73	39683.49
791.91	39411.11
792.09	39630.24
792.27	39497.13
792.45	39683.49
792.63	39167.40
792.81	38786.48
793.00	39237.03
793.18	39345.58
793.36	38768.05
793.54	38852.02
793.72	38882.73
793.90	38497.72
794.08	38800.82
794.26	38774.19
794.44	38598.07
794.62	38221.24
794.81	38598.07
794.99	38380.98
795.17	38235.58
795.35	38247.86
795.53	38104.51
795.71	38405.56
795.89	38106.55
796.07	38036.92
796.25	37492.16
796.43	37934.53
796.61	37567.94
796.80	37567.94
796.98	37641.67
797.16	37535.17
797.34	37590.47
797.52	37266.89
797.70	37879.23
797.88	37094.86
798.06	37109.19
798.24	37109.19
798.42	37141.96
798.60	36853.20
798.78	37084.62
798.96	37316.04
799.14	36644.30
799.32	36652.50
799.51	36359.64
799.69	36713.94
799.87	36699.60
800.05	36376.02
800.23	36052.44
800.41	36036.06
800.59	36394.45
800.77	36007.39
800.95	35638.75
801.13	35710.43
801.31	35579.36
801.49	35575.27
801.67	35577.31
801.85	35485.15
802.03	35505.63
802.21	35382.76
802.39	35259.88
802.57	35685.86
802.75	35091.94
802.93	35388.90
803.11	35130.86
803.29	34784.75
803.47	35007.98
803.65	35059.18
803.83	34553.33
804.01	34680.30
804.19	34645.49
804.37	34440.69
804.55	34854.38
804.73	34336.24
804.91	34145.78
805.09	34403.83
805.27	34534.90
805.45	34676.21
805.63	34414.07
805.81	33959.42
805.99	34602.48
806.17	34229.75
806.35	34108.92
806.53	34110.97
806.71	34010.62
806.89	33977.85
807.07	33869.31
807.25	33633.79
807.43	33664.51
807.61	34039.29
807.79	33459.71
807.97	33461.76
808.15	33310.21
808.33	33242.63
808.51	33426.95
808.69	33306.12
808.87	32867.85
809.05	32914.95
809.23	33136.13
809.41	32658.96
809.59	32708.11
809.77	32781.84
809.95	32833.04
810.13	32757.26
810.31	32437.78
810.49	32552.46
810.67	32495.12
810.84	32417.30
811.02	32511.50
811.20	32099.86
811.38	32392.72
811.56	32267.80
811.74	32388.63
811.92	32077.33
812.10	32302.61
812.28	32091.67
812.46	32347.67
812.64	32118.29
812.82	31917.59
813.00	31901.21
813.18	31553.05
813.36	31792.67
813.53	31331.87
813.71	31690.27
813.89	31512.10
814.07	31688.22
814.25	31473.18
814.43	31493.66
814.61	31290.91
814.79	31704.60
814.97	31122.98
815.15	31505.95
815.33	31053.35
815.50	30950.95
815.68	31147.56
815.86	31278.63
816.04	31110.69
816.22	30633.52
816.40	30805.55
816.58	30447.15
816.76	30801.45
816.94	30918.18
817.11	30707.24
817.29	30185.01
817.47	30223.92
817.65	30135.86
817.83	30522.93
818.01	30348.85
818.19	30340.66
818.37	30484.01
818.54	30406.19
818.72	30027.32
818.90	29994.55
819.08	30096.95
819.26	30055.99
819.44	29953.59
819.62	30086.71
819.80	29957.69
819.97	29781.56
820.15	29519.42
820.33	29429.31
820.51	29926.97
820.69	29486.65
820.87	29752.89
821.05	29371.97
821.22	29369.92
821.40	29525.57
821.58	29296.19
821.76	29234.75
821.94	29314.62
822.12	29322.82
822.29	29484.61
822.47	29150.79
822.65	29615.68
822.83	29429.31
823.01	29075.01
823.19	29513.28
823.36	29132.36
823.54	28995.14
823.72	28884.55
823.90	28599.88
824.08	28579.40
824.25	28472.91
824.43	28728.91
824.61	28640.84
824.79	28755.53
824.97	28761.67
825.15	28737.10
825.32	28517.96
825.50	28552.78
825.68	28298.83
825.86	28646.99
826.04	28464.72
826.21	28352.08
826.39	28532.30
826.57	28319.31
826.75	28390.99
826.93	27999.83
827.10	27915.86
827.28	28040.79
827.46	28130.90
827.64	28016.21
827.81	27979.35
827.99	28145.23
828.17	27717.21
828.35	28083.80
828.53	27682.39
828.70	27545.18
828.88	27991.64
829.06	27651.67
829.24	27584.09
829.41	27817.56
829.59	27799.13
829.77	27735.64
829.95	27758.17
830.12	27219.55
830.30	27610.71
830.48	27539.04
830.66	27274.85
830.84	27625.05
831.01	27293.28
831.19	27506.27
831.37	27242.08
831.55	27145.83
831.72	27297.38
831.90	27205.22
832.08	27319.90
832.25	27221.60
832.43	27100.77
832.61	26992.23
832.79	27086.43
832.96	26967.65
833.14	27143.78
833.32	27240.03
833.50	27369.05
833.67	26988.13
833.85	26973.80
834.03	26713.70
834.20	27027.04
834.38	27227.74
834.56	27135.59
834.74	26549.87
834.91	26472.04
835.09	26754.66
835.27	26099.31
835.44	26644.07
835.62	25953.91
835.80	26240.62
835.98	26508.91
836.15	26185.33
836.33	26240.62
836.51	26478.19
836.68	26140.27
836.86	26365.55
837.04	26275.44
837.21	26392.17
837.39	26404.46
837.57	26297.97
837.75	26265.20
837.92	26091.12
838.10	26084.98
838.28	25489.02
838.45	25740.92
838.63	25851.51
838.81	25927.28
838.98	25798.26
839.16	25845.37
839.34	25695.86
839.51	25935.48
839.69	25562.75
839.87	25417.34
840.04	25783.93
840.22	25591.42
840.40	25607.80
840.57	25140.86
840.75	25554.55
840.93	25230.98
841.10	25398.91
841.28	25636.47
841.46	25431.68
841.63	25364.09
841.81	25294.46
841.98	25558.65
842.16	25419.39
842.34	25474.68
842.51	24850.05
842.69	25470.59
842.87	25063.04
843.04	25177.73
843.22	24944.26
843.40	25009.79
843.57	25009.79
843.75	25151.10
843.92	24913.54
844.10	24931.97
844.28	25247.36
844.45	24979.07
844.63	24753.80
844.81	24731.27
844.98	25063.04
845.16	24655.50
845.33	24782.47
845.51	24532.62
845.69	24661.64
845.86	24698.50
846.04	24372.88
846.21	24721.03
846.39	24462.99
846.57	24258.19
846.74	24385.16
846.92	24243.85
847.09	24254.09
847.27	24327.82
847.45	24514.19
847.62	24358.54
847.80	24503.95
847.97	24413.84
848.15	24362.64
848.32	24278.67
848.50	24108.69
848.68	24151.70
848.85	23846.55
849.03	23623.32
849.20	23883.41
849.38	23803.54
849.56	23938.71
849.73	23848.60
849.91	23873.17
850.08	24303.25
850.26	23543.45
850.43	23799.44
850.61	23416.47
850.78	23320.22
850.96	23312.03
851.14	23412.38
851.31	23723.67
851.49	23666.33
851.66	23432.86
851.84	23484.06
852.01	23338.65
852.19	23504.54
852.36	23264.92
852.54	23551.64
852.71	23621.27
852.89	23252.64
853.07	23398.04
853.24	23275.16
853.42	23309.98
853.59	23076.51
853.77	23039.65
853.94	23301.79
854.12	23490.20
854.29	23064.22
854.47	23314.08
854.64	23137.95
854.82	23185.05
854.99	23228.06
855.17	22867.62
855.34	23082.66
855.52	23062.18
855.69	23160.48
855.87	22978.21
856.04	22433.45
856.22	22855.33
856.39	22628.01
856.57	22711.97
856.74	22410.92
856.92	22746.79
857.09	22388.39
857.27	22488.74
857.44	22634.15
857.62	22423.21
857.79	22654.63
857.97	22390.44
858.14	22359.72
858.32	22455.98
858.49	22541.99
858.67	22460.07
858.84	22189.74
859.02	22388.39
859.19	22103.73
859.37	22077.10
859.54	21882.55
859.72	22462.12
859.89	22253.23
860.06	22369.96
860.24	22175.41
860.41	22312.62
860.59	21878.45
860.76	22054.58
860.94	21614.26
861.11	21874.35
861.29	21964.46
861.46	21980.85
861.64	21728.95
861.81	21845.68
861.98	21591.73
862.16	21755.57
862.33	21505.72
862.51	21509.82
862.68	21878.45
862.86	21481.14
863.03	21698.23
863.21	21399.23
863.38	21452.47
863.55	21393.08
863.73	21604.02
863.90	21485.24
864.08	21481.14
864.25	21339.83
864.43	21300.92
864.60	21147.33
864.77	21051.07
864.95	21284.54
865.12	20936.38
865.30	21251.77
865.47	20973.25
865.64	21163.71
865.82	21135.04
865.99	20950.72
866.17	20987.58
866.34	20827.84
866.51	20924.10
866.69	21020.35
866.86	20997.82
867.04	21053.12
867.21	20610.76
867.38	21075.65
867.56	20516.55
867.73	20217.55
867.91	20477.64
868.08	20580.04
868.25	20600.52
868.43	20295.37
868.60	20295.37
868.78	20199.12
868.95	20336.33
869.12	20377.29
869.30	20307.66
869.47	20590.28
869.64	19904.21
869.82	19920.59
869.99	20164.30
870.16	20330.19
870.34	20354.76
870.51	20205.26
870.69	20041.42
870.86	20129.48
871.03	20205.26
871.21	19758.80
871.38	20117.20
871.55	19787.47
871.73	19926.74
871.90	19459.80
872.07	19752.66
872.25	19519.19
872.42	19529.43
872.59	19588.82
872.77	19646.16
872.94	19590.87
873.11	19599.06
873.29	19556.05
873.46	19490.52
873.63	19515.09
873.81	19515.09
873.98	19070.68
874.15	19277.53
874.33	19060.45
874.50	19015.39
874.67	19134.17
874.85	19060.45
875.02	19068.64
875.19	18693.86
875.37	18872.03
875.54	18970.33
875.71	18945.76
875.88	18812.64
876.06	18650.85
876.23	18591.46
876.40	18761.44
876.58	18710.24
876.75	18755.30
876.92	18689.76
877.10	18294.50
877.27	18413.29
877.44	18288.36
877.61	18325.22
877.79	18284.26
877.96	18169.58
878.13	18271.98
878.31	18065.13
878.48	18249.45
878.65	18026.22
878.82	17884.91
879.00	18228.97
879.17	18151.15
879.34	18089.71
879.51	18093.80
879.69	17977.07
879.86	17905.39
880.03	18003.69
880.21	17960.69
880.38	18005.74
880.55	17800.94
880.72	17837.81
880.90	17778.42
881.07	17600.24
881.24	17694.45
881.41	17614.58
881.59	17475.32
881.76	17377.01
881.93	17559.28
882.10	17424.12
882.28	17422.07
882.45	17352.44
882.62	17401.59
882.79	17477.37
882.96	16938.75
883.14	17192.70
883.31	17432.31
883.48	17284.86
883.65	17159.93
883.83	17514.23
884.00	17301.24
884.17	17161.98
884.34	17399.54
884.51	16983.80
884.69	17153.79
884.86	16957.18
885.03	17141.50
885.20	16738.05
885.38	16971.52
885.55	17078.01
885.72	16822.02
885.89	17186.55
886.06	16805.63
886.24	16754.43
886.41	16770.82
886.58	17133.31
886.75	16996.09
886.92	16678.66
887.10	16656.13
887.27	16600.83
887.44	16613.12
887.61	16895.74
887.78	16725.76
887.95	16652.03
888.13	16709.38
888.30	16543.49
888.47	16576.26
888.64	16547.59
888.81	16369.41
888.99	16551.68
889.16	16195.34
889.33	16246.54
889.50	16267.02
889.67	16414.47
889.84	15916.81
890.01	16627.46
890.19	16389.89
890.36	16074.51
890.53	16131.85
890.70	16193.29
890.87	16043.79
891.04	16006.92
891.22	16258.82
891.39	16103.18
891.56	15863.57
891.73	16045.84
891.90	15888.14
892.07	15845.13
892.24	16023.31
892.42	15734.54
892.59	15802.13
892.76	15666.96
892.93	15707.92
893.10	16033.55
893.27	15951.63
893.44	15589.14
893.61	15576.85
893.79	15845.13
893.96	15607.57
894.13	15406.87
894.30	15728.40
894.47	15513.36
894.64	15720.21
894.81	15726.35
894.98	15685.39
895.15	15427.35
895.33	15359.77
895.50	15515.41
895.67	15769.36
895.84	15550.23
896.01	15648.53
896.18	15339.29
896.35	15429.40
896.52	15310.61
896.69	15525.65
896.86	15372.05
897.04	15386.39
897.21	15499.03
897.38	15349.53
897.55	15240.98
897.72	15460.12
897.89	15331.09
898.06	15382.29
898.23	15337.24
898.40	15572.75
898.57	15390.49
898.74	15537.94
898.91	15384.34
899.08	15228.70
899.26	15339.29
899.43	15234.84
899.60	15200.02
899.77	15308.57
899.94	15163.16
900.11	15107.87
900.28	15406.87
900.45	15267.61
900.62	15097.63
900.79	15347.48
900.96	15216.41
901.13	15281.94
901.30	15097.63
901.47	15144.73
901.64	15511.32
901.81	15335.19
901.98	15130.39
902.15	15462.16
902.32	14976.80
902.49	15345.43
902.66	15087.39
902.83	15277.85
903.01	15159.06
903.18	15281.94
903.35	15367.96
903.52	15243.03
903.69	14999.32
903.86	15277.85
904.03	14980.89
904.20	15189.78
904.37	15318.81
904.54	15023.90
904.71	15015.71
904.88	15095.58
905.05	15167.26
905.22	15292.18
905.39	14931.74
905.56	15058.71
905.73	14905.12
905.90	15105.82
906.07	15191.83
906.24	15206.17
906.41	15150.87
906.58	14872.35
906.75	14962.46
906.92	14858.01
907.09	14978.84
907.26	14931.74
907.43	14800.67
907.60	15011.61
907.77	15052.57
907.93	14898.97
908.10	15249.18
908.27	15116.06
908.44	14624.54
908.61	14872.35
908.78	14831.39
908.95	14941.98
909.12	14886.68
909.29	14862.11
909.46	14974.75
909.63	15066.91
909.80	14876.44
909.97	14761.76
910.14	14976.80
910.31	14909.21
910.48	14724.90
910.65	15005.47
910.82	14749.47
910.99	14667.55
911.16	14688.03
911.33	14642.98
911.50	14765.85
911.66	14546.72
911.83	14735.14
912.00	14612.26
912.17	14212.90
912.34	14429.99
912.51	14591.78
912.68	14354.21
912.85	14583.59
913.02	14364.45
913.19	14425.89
913.36	14499.62
913.53	14552.87
913.70	14473.00
913.86	14231.33
914.03	14204.71
914.20	14143.27
914.37	14358.31
914.54	14114.60
914.71	14464.80
914.88	14319.40
915.05	14229.29
915.22	14094.12
915.39	14208.81
915.55	14157.61
915.72	14137.13
915.89	13915.95
916.06	13971.24
916.23	13940.52
916.40	13897.52
916.57	13772.59
916.74	13813.55
916.91	13842.22
917.07	13520.69
917.24	13524.79
917.41	13594.42
917.58	13567.79
917.75	13698.86
917.92	13295.41
918.09	13295.41
918.26	13492.02
918.42	13569.84
918.59	13428.53
918.76	13340.47
918.93	13440.82
919.10	13102.90
919.27	13219.64
919.44	13156.15
919.60	13252.41
919.77	13025.08
919.94	12988.22
920.11	13289.27
920.28	12971.83
920.45	13029.18
920.61	12896.06
920.78	12801.85
920.95	12930.87
921.12	12648.26
921.29	12861.24
921.46	12554.05
921.62	12787.52
921.79	12922.68
921.96	12689.21
922.13	12699.45
922.30	12398.40
922.47	12250.95
922.63	12336.96
922.80	12379.97
922.97	12261.19
923.14	12158.79
923.31	12169.03
923.47	12164.93
923.64	12238.66
923.81	12156.74
923.98	12115.78
924.15	12031.82
924.32	12050.25
924.48	11980.62
924.65	12044.10
924.82	11839.31
924.99	11835.21
925.15	11755.34
925.32	11759.44
925.49	11671.37
925.66	11814.73
925.83	11429.71
925.99	11444.05
926.16	11497.30
926.33	11398.99
926.50	11292.50
926.67	11448.15
926.83	11308.88
927.00	11229.01
927.17	10956.63
927.34	11224.92
927.50	11095.89
927.67	11255.64
927.84	11147.09
928.01	11063.13
928.17	11030.36
928.34	10946.39
928.51	10823.51
928.68	10770.27
928.84	10823.51
929.01	10436.45
929.18	10686.30
929.35	10661.73
929.51	10667.87
929.68	10428.26
929.85	10428.26
930.02	10489.70
930.18	10506.08
930.35	10278.76
930.52	10368.87
930.69	10303.33
930.85	10110.82
931.02	10129.25
931.19	10260.32
931.36	10159.97
931.52	9973.61
931.69	10129.25
931.86	10168.16
932.02	9887.59
932.19	9965.42
932.36	9830.25
932.53	9901.93
932.69	9840.49
932.86	9879.40
933.03	9740.14
933.19	9486.19
933.36	9770.86
933.53	9666.41
933.70	9510.77
933.86	9566.06
934.03	9498.48
934.20	9238.39
934.36	9486.19
934.53	9052.02
934.70	9033.59
934.86	8955.77
935.03	8896.38
935.20	8822.65
935.36	8884.09
935.53	8994.68
935.70	8839.03
935.86	8753.02
936.03	8542.08
936.20	8550.27
936.36	8497.02
936.53	8482.69
936.70	8392.58
936.86	8257.41
937.03	8292.23
937.20	8165.25
937.36	8193.92
937.53	7923.59
937.70	7901.06
937.86	7683.98
938.03	7835.53
938.20	7923.59
938.36	7575.44
938.53	7577.48
938.70	7288.72
938.86	7528.33
939.03	7249.81
939.20	7174.03
939.36	7133.08
939.53	7143.32
939.70	7114.64
939.86	6915.99
940.03	6664.09
940.19	6713.24
940.36	6674.33
940.53	6526.88
940.69	6420.38
940.86	6713.24
941.03	6344.61
941.19	6195.11
941.36	6498.20
941.52	6303.65
941.69	6145.95
941.86	6223.78
942.02	6068.13
942.19	6045.60
942.35	6098.85
942.52	5986.21
942.69	5883.81
942.85	5799.85
943.02	5818.28
943.18	5662.63
943.35	5722.02
943.52	5670.83
943.68	5722.02
943.85	5732.26
944.01	5590.95
944.18	5578.67
944.35	5509.04
944.51	5402.54
944.68	5365.68
944.84	5435.31
945.01	5355.44
945.17	5396.40
945.34	5439.40
945.51	5353.39
945.67	5369.77
945.84	5324.72
946.00	5146.55
946.17	5267.38
946.33	5169.07
946.50	5355.44
946.67	5218.22
946.83	5181.36
947.00	5326.77
947.16	5091.25
947.33	5324.72
947.49	5291.95
947.66	5003.19
947.82	5279.66
947.99	5177.26
948.16	5347.25
948.32	5132.21
948.49	5177.26
948.65	5271.47
948.82	5089.20
948.98	5195.70
949.15	5124.02
949.31	5197.74
949.48	5181.36
949.64	5126.07
949.81	5164.98
949.97	5126.07
950.14	5300.14
950.30	5189.55
950.47	5277.62
950.63	5328.81
950.80	5320.62
950.96	5267.38
951.13	5388.21
951.30	5279.66
951.46	5255.09
951.63	5253.04
951.79	5273.52
951.96	5406.64
952.12	5334.96
952.29	5273.52
952.45	5283.76
952.62	5302.19
952.78	5281.71
952.94	5347.25
953.11	5230.51
953.27	5173.17
953.44	5496.75
953.60	5433.26
953.77	5486.51
953.93	5365.68
954.10	5152.69
954.26	5412.78
954.43	5304.24
954.59	5439.40
954.76	5484.46
954.92	5433.26
955.09	5429.17
955.25	5357.49
955.42	5369.77
955.58	5543.85
955.75	5230.51
955.91	5275.57
956.07	5435.31
956.24	5427.12
956.40	5353.39
956.57	5488.56
956.73	5259.18
956.90	5332.91
957.06	5355.44
957.23	5330.86
957.39	5463.98
957.56	5363.63
957.72	5320.62
957.88	5275.57
958.05	5406.64
958.21	5566.38
958.38	5367.73
958.54	5306.29
958.71	5666.73
958.87	5363.63
959.03	5246.90
959.20	5296.05
959.36	5277.62
959.53	5330.86
959.69	5320.62
959.85	5521.32
960.02	5246.90
960.18	5443.50
960.35	5304.24
960.51	5519.28
960.68	5152.69
960.84	5269.42
961.00	5300.14
961.17	5113.78
961.33	5369.77
961.50	5386.16
961.66	5261.23
961.82	5441.45
961.99	5435.31
962.15	5408.69
962.31	5341.10
962.48	5359.53
962.64	5416.88
962.81	5339.05
962.97	5279.66
963.13	5269.42
963.30	5291.95
963.46	5332.91
963.62	5216.18
963.79	5375.92
963.95	5210.03
964.12	5287.86
964.28	5476.27
964.44	5214.13
964.61	5224.37
964.77	5396.40
964.93	5572.52
965.10	5320.62
965.26	5238.70
965.42	5179.31
965.59	5044.15
965.75	5250.99
965.92	5418.93
966.08	5308.34
966.24	5250.99
966.41	5277.62
966.57	5318.57
966.73	5242.80
966.90	5330.86
967.06	5189.55
967.22	5199.79
967.39	5226.42
967.55	5201.84
967.71	5267.38
967.88	5083.06
968.04	5126.07
968.20	5177.26
968.37	4956.08
968.53	4945.84
968.69	5095.35
968.85	5003.19
969.02	5130.16
969.18	5052.34
969.34	5119.92
969.51	5154.74
969.67	5201.84
969.83	4990.90
970.00	5060.53
970.16	5054.39
970.32	5068.72
970.48	5068.72
970.65	4986.80
970.81	5119.92
970.97	5150.64
971.14	4906.93
971.30	5052.34
971.46	5035.96
971.63	4962.23
971.79	5115.83
971.95	4892.60
972.11	4749.24
972.28	4876.21
972.44	5031.86
972.60	4779.96
972.76	4886.45
972.93	4753.34
973.09	4882.36
973.25	4825.01
973.42	4884.41
973.58	4880.31
973.74	4782.01
973.90	4902.84
974.07	4708.28
974.23	4902.84
974.39	4843.45
974.55	4833.21
974.72	4808.63
974.88	4734.90
975.04	4757.43
975.20	4712.38
975.37	4849.59
975.53	4665.27
975.69	4747.19
975.85	4706.23
976.01	4702.14
976.18	4622.27
976.34	4745.14
976.50	4644.79
976.66	4671.42
976.83	4673.46
976.99	4675.51
977.15	4595.64
977.31	4499.39
977.47	4698.04
977.64	4526.01
977.80	4503.48
977.96	4632.51
978.12	4634.55
978.29	4595.64
978.45	4323.26
978.61	4460.48
978.77	4650.94
978.93	4489.15
979.10	4566.97
979.26	4491.20
979.42	4491.20
979.58	4372.41
979.74	4429.76
979.91	4515.77
980.07	4464.57
980.23	4503.48
980.39	4485.05
980.55	4435.90
980.71	4321.21
980.88	4345.79
981.04	4392.89
981.20	4368.32
981.36	4495.29
981.52	4427.71
981.68	4296.64
981.85	4405.18
982.01	4421.56
982.17	4272.06
982.33	4300.73
982.49	4403.13
982.65	4212.67
982.82	4362.17
982.98	4323.26
983.14	4181.95
983.30	4274.11
983.46	4353.98
983.62	4296.64
983.79	4202.43
983.95	4212.67
984.11	4114.37
984.27	4153.28
984.43	4155.33
984.59	4077.51
984.75	4198.34
984.91	4222.91
985.08	4067.27
985.24	4100.03
985.40	4059.07
985.56	4169.66
985.72	4198.34
985.88	4218.82
986.04	4110.27
986.20	4028.35
986.37	4083.65
986.53	4050.88
986.69	4038.59
986.85	4128.70
987.01	4014.02
987.17	3993.54
987.33	3987.40
987.49	3860.42
987.65	4016.07
987.82	3854.28
987.98	3985.35
988.14	3942.34
988.30	3938.24
988.46	3909.57
988.62	3919.81
988.78	3954.63
988.94	3743.69
989.10	3807.17
989.26	3868.61
989.42	3862.47
989.59	3809.22
989.75	3852.23
989.91	3895.24
990.07	3706.82
990.23	3708.87
990.39	3823.56
990.55	3846.09
990.71	3692.49
990.87	3807.17
991.03	3794.89
991.19	3723.21
991.35	3710.92
991.51	3835.85
991.67	3770.31
991.83	3702.73
992.00	3794.89
992.16	3702.73
992.32	3758.02
992.48	3665.86
992.64	3649.48
992.80	3700.68
992.96	3696.58
993.12	3784.65
993.28	3669.96
993.44	3665.86
993.60	3532.75
993.76	3608.52
993.92	3602.38
994.08	3631.05
994.24	3635.14
994.40	3608.52
994.56	3700.68
994.72	3522.51
994.88	3538.89
995.04	3616.71
995.20	3452.88
995.36	3405.77
995.52	3624.90
995.68	3540.94
995.84	3491.79
996.00	3571.66
996.16	3420.11
996.32	3469.26
996.48	3409.87
996.64	3510.22
996.80	3420.11
996.96	3493.83
997.12	3391.44
997.28	3502.03
997.44	3391.44
997.60	3381.20
997.76	3440.59
997.92	3399.63
998.08	3319.76
998.24	3416.01
998.40	3330.00
998.56	3385.29
998.72	3295.18
998.88	3352.52
999.04	3182.54
999.20	3393.48
999.36	3231.69
999.52	3393.48
999.68	3223.50
999.84	3370.96
1000.00	3377.10
1000.16	3274.70
1000.32	3233.74
1000.48	3391.44
1000.64	3243.98
1000.80	3157.97
1000.95	3108.82
1001.11	3268.56
1001.27	3141.58
1001.43	3207.12
1001.59	3194.83
1001.75	3131.34
1001.91	3028.95
1002.07	3209.17
1002.23	3104.72
1002.39	3090.38
1002.55	3100.62
1002.71	3069.91
1002.87	3094.48
1003.03	3100.62
1003.19	3043.28
1003.34	3174.35
1003.50	3102.67
1003.66	3178.45
1003.82	3121.10
1003.98	3037.14
1004.14	3051.47
1004.30	3026.90
1004.46	2947.03
1004.62	3112.91
1004.78	2987.99
1004.94	3061.71
1005.09	3053.52
1005.25	2969.55
1005.41	2990.03
1005.57	3041.23
1005.73	3035.09
1005.89	2973.65
1006.05	3063.76
1006.21	3012.56
1006.37	2918.36
1006.52	2904.02
1006.68	2926.55
1006.84	3092.43
1007.00	2787.29
1007.16	2994.13
1007.32	2875.35
1007.48	2885.59
1007.64	2934.74
1007.79	2869.20
1007.95	2801.62
1008.11	2961.36
1008.27	2781.14
1008.43	2895.83
1008.59	2877.40
1008.75	2879.44
1008.91	2805.72
1009.06	2795.48
1009.22	2936.79
1009.38	2912.21
1009.54	2842.58
1009.70	2740.18
1009.86	2820.05
1010.01	2863.06
1010.17	2758.61
1010.33	2858.96
1010.49	2813.91
1010.65	2856.92
1010.81	2746.33
1010.96	2744.28
1011.12	2699.22
1011.28	2731.99
1011.44	2705.37
1011.60	2672.60
1011.76	2760.66
1011.91	2772.95
1012.07	2674.65
1012.23	2555.86
1012.39	2592.73
1012.55	2723.80
1012.71	2707.41
1012.86	2607.06
1013.02	2617.30
1013.18	2686.94
1013.34	2654.17
1013.50	2715.61
1013.65	2656.22
1013.81	2709.46
1013.97	2664.41
1014.13	2664.41
1014.29	2617.30
1014.44	2650.07
1014.60	2588.63
1014.76	2527.19
1014.92	2607.06
1015.07	2707.41
1015.23	2588.63
1015.39	2572.25
1015.55	2447.32
1015.71	2580.44
1015.86	2582.49
1016.02	2598.87
1016.18	2389.98
1016.34	2533.34
1016.49	2488.28
1016.65	2574.30
1016.81	2478.04
1016.97	2525.15
1017.12	2541.53
1017.28	2457.56
1017.44	2471.90
1017.60	2416.60
1017.75	2492.38
1017.91	2502.62
1018.07	2424.80
1018.23	2512.86
1018.38	2408.41
1018.54	2420.70
1018.70	2414.56
1018.86	2418.65
1019.01	2381.79
1019.17	2426.84
1019.33	2408.41
1019.49	2459.61
1019.64	2484.19
1019.80	2443.23
1019.96	2467.80
1020.12	2402.27
1020.27	2320.35
1020.43	2340.83
1020.59	2392.03
1020.74	2383.84
1020.90	2475.99
1021.06	2365.40
1021.22	2367.45
1021.37	2449.37
1021.53	2322.40
1021.69	2363.36
1021.84	2248.67
1022.00	2377.69
1022.16	2287.58
1022.31	2318.30
1022.47	2277.34
1022.63	2265.05
1022.79	2215.90
1022.94	2283.49
1023.10	2400.22
1023.26	2248.67
1023.41	2240.48
1023.57	2285.53
1023.73	2277.34
1023.88	2252.77
1024.04	2281.44
1024.20	2355.16
1024.35	2338.78
1024.51	2299.87
1024.67	2224.09
1024.82	2293.72
1024.98	2121.70
1025.14	2254.81
1025.29	2236.38
1025.45	2250.72
1025.61	2105.31
1025.76	2183.13
1025.92	2252.77
1026.08	2281.44
1026.23	2238.43
1026.39	2205.66
1026.55	2224.09
1026.70	2150.37
1026.86	2228.19
1027.02	2263.01
1027.17	2232.29
1027.33	2263.01
1027.48	2211.81
1027.64	2248.67
1027.80	2152.42
1027.95	2125.79
1028.11	2084.83
1028.27	2164.70
1028.42	2160.61
1028.58	2045.92
1028.73	2086.88
1028.89	2007.01
1029.05	2203.61
1029.20	2160.61
>>>>>End Processed Spectral Data<<<<<
