SpectraSuite Data File
++++++++++++++++++++++++++++++++++++
Date: Fri Jun 02 14:49:28 CEST 2017
User: INFO_000
Dark Spectrum Present: No
Reference Spectrum Present: No
Number of Sampled Component Spectra: 1
Spectrometers: USB4H00879
Integration Time (usec): 80000 (USB4H00879)
Spectra Averaged: 1 (USB4H00879)
Boxcar Smoothing: 0 (USB4H00879)
Correct for Electrical Dark: No (USB4H00879)
Strobe/Lamp Enabled: No (USB4H00879)
Correct for Detector Non-linearity: No (USB4H00879)
Correct for Stray Light: No (USB4H00879)
Number of Pixels in Processed Spectrum: 3648
>>>>>Begin Processed Spectral Data<<<<<
345.13	1349.61
345.34	1349.61
345.56	1349.61
345.78	1279.98
345.99	1312.75
346.21	1671.14
346.42	1708.01
346.64	1683.43
346.86	1867.75
347.07	1585.13
347.29	1640.42
347.50	1581.03
347.72	1660.90
347.94	1748.97
348.15	1525.74
348.37	1650.66
348.59	1667.05
348.80	1695.72
349.02	1867.75
349.23	1943.52
349.45	1834.98
349.67	1925.09
349.88	1845.22
350.10	1902.56
350.31	1800.16
350.53	1910.75
350.75	2015.20
350.96	1738.73
351.18	1830.88
351.39	1820.64
351.61	1877.99
351.82	1867.75
352.04	1927.14
352.26	1820.64
352.47	1949.67
352.69	1875.94
352.90	1757.16
353.12	1826.79
353.34	1880.04
353.55	1976.29
353.77	1877.99
353.98	1818.60
354.20	1906.66
354.41	1896.42
354.63	1884.13
354.85	1951.71
355.06	1845.22
355.28	1779.68
355.49	1898.47
355.71	1888.23
355.92	1867.75
356.14	1925.09
356.35	1896.42
356.57	1908.71
356.79	1947.62
357.00	1845.22
357.22	1892.32
357.43	1894.37
357.65	1918.95
357.86	1880.04
358.08	1839.08
358.29	2021.35
358.51	2064.35
358.72	1959.91
358.94	1935.33
359.16	1884.13
359.37	1949.67
359.59	1920.99
359.80	1988.58
360.02	1964.00
360.23	1904.61
360.45	1966.05
360.66	1861.60
360.88	1826.79
361.09	1941.47
361.31	2015.20
361.52	1892.32
361.74	2086.88
361.95	2131.94
362.17	1939.43
362.38	2007.01
362.60	2013.15
362.81	2004.96
363.03	1947.62
363.24	2011.11
363.46	2019.30
363.67	2023.39
363.89	2017.25
364.10	1992.67
364.32	1949.67
364.53	2000.87
364.75	1908.71
364.96	2070.50
365.18	2009.06
365.39	1945.57
365.61	1935.33
365.82	2070.50
366.04	1970.15
366.25	1961.95
366.47	2052.06
366.68	2072.54
366.90	1982.43
367.11	2058.21
367.33	1976.29
367.54	2109.41
367.76	1990.63
367.97	2119.65
368.19	2017.25
368.40	2066.40
368.62	1961.95
368.83	2015.20
369.05	2068.45
369.26	2011.11
369.48	1904.61
369.69	1980.39
369.91	2009.06
370.12	2072.54
370.33	2076.64
370.55	1957.86
370.76	2023.39
370.98	2086.88
371.19	2011.11
371.41	2041.82
371.62	2066.40
371.84	1945.57
372.05	2127.84
372.27	2076.64
372.48	2054.11
372.69	2113.50
372.91	2189.28
373.12	2287.58
373.34	2136.03
373.55	2230.24
373.77	2168.80
373.98	2125.79
374.20	2109.41
374.41	2263.01
374.62	2140.13
374.84	2205.66
375.05	2240.48
375.27	2217.95
375.48	2183.13
375.70	2133.98
375.91	2179.04
376.12	2277.34
376.34	2086.88
376.55	2197.47
376.77	2271.20
376.98	2166.75
377.19	2095.07
377.41	2164.70
377.62	2168.80
377.84	2220.00
378.05	2207.71
378.27	2191.33
378.48	2330.59
378.69	2285.53
378.91	2285.53
379.12	2254.81
379.34	2201.57
379.55	2351.07
379.76	2246.62
379.98	2226.14
380.19	2301.92
380.41	2238.43
380.62	2346.97
380.83	2283.49
381.05	2181.09
381.26	2355.16
381.47	2265.05
381.69	2275.29
381.90	2437.08
382.12	2322.40
382.33	2320.35
382.54	2281.44
382.76	2281.44
382.97	2289.63
383.19	2248.67
383.40	2404.32
383.61	2303.96
383.83	2224.09
384.04	2232.29
384.25	2406.36
384.47	2371.55
384.68	2383.84
384.89	2293.72
385.11	2402.27
385.32	2367.45
385.54	2265.05
385.75	2310.11
385.96	2527.19
386.18	2441.18
386.39	2308.06
386.60	2363.36
386.82	2369.50
387.03	2408.41
387.24	2531.29
387.46	2422.75
387.67	2465.75
387.88	2453.47
388.10	2459.61
388.31	2473.95
388.52	2541.53
388.74	2447.32
388.95	2512.86
389.16	2527.19
389.38	2437.08
389.59	2631.64
389.80	2582.49
390.02	2605.02
390.23	2557.91
390.44	2473.95
390.66	2502.62
390.87	2539.48
391.08	2588.63
391.30	2699.22
391.51	2578.39
391.72	2652.12
391.94	2627.54
392.15	2584.54
392.36	2658.26
392.58	2502.62
392.79	2744.28
393.00	2703.32
393.22	2670.55
393.43	2738.13
393.64	2861.01
393.85	2693.08
394.07	2639.83
394.28	2777.05
394.49	2691.03
394.71	2852.82
394.92	2822.10
395.13	2674.65
395.35	2676.70
395.56	2738.13
395.77	2785.24
395.98	2824.15
396.20	2867.16
396.41	2770.90
396.62	2895.83
396.84	2811.86
397.05	2734.04
397.26	2791.38
397.47	2949.08
397.69	2820.05
397.90	3020.75
398.11	2922.45
398.32	2871.25
398.54	2828.24
398.75	2856.92
398.96	2924.50
399.18	2953.17
399.39	2875.35
399.60	2994.13
399.81	2953.17
400.03	3102.67
400.24	3266.51
400.45	2834.39
400.66	3051.47
400.88	2908.12
401.09	3071.95
401.30	3090.38
401.51	3123.15
401.73	3098.58
401.94	3119.06
402.15	3086.29
402.36	3067.86
402.58	3108.82
402.79	3063.76
403.00	3071.95
403.21	3166.16
403.43	3225.55
403.64	3313.61
403.85	3127.25
404.06	3229.65
404.27	3137.49
404.49	3231.69
404.70	3170.26
404.91	3305.42
405.12	3272.65
405.34	3254.22
405.55	3407.82
405.76	3102.67
405.97	3157.97
406.19	3342.28
406.40	3129.30
406.61	3289.04
406.82	3342.28
407.03	3235.79
407.25	3252.17
407.46	3344.33
407.67	3317.71
407.88	3368.91
408.09	3315.66
408.31	3403.72
408.52	3454.92
408.73	3360.72
408.94	3528.65
409.15	3469.26
409.37	3452.88
409.58	3446.73
409.79	3604.42
410.00	3469.26
410.21	3411.92
410.43	3420.11
410.64	3377.10
410.85	3522.51
411.06	3510.22
411.27	3565.51
411.48	3459.02
411.70	3485.64
411.91	3526.60
412.12	3598.28
412.33	3565.51
412.54	3594.19
412.76	3686.34
412.97	3712.97
413.18	3456.97
413.39	3583.95
413.60	3641.29
413.81	3622.86
414.03	3614.66
414.24	3684.30
414.45	3739.59
414.66	3657.67
414.87	3612.62
415.08	3737.54
415.30	3678.15
415.51	3712.97
415.72	3762.12
415.93	3659.72
416.14	3772.36
416.35	3739.59
416.56	3753.93
416.78	3700.68
416.99	3827.65
417.20	3753.93
417.41	3841.99
417.62	3895.24
417.83	3952.58
418.04	3723.21
418.26	3928.00
418.47	3868.61
418.68	3901.38
418.89	3954.63
419.10	4128.70
419.31	3928.00
419.52	3971.01
419.73	3983.30
419.95	4081.60
420.16	3934.15
420.37	4067.27
420.58	4065.22
420.79	3911.62
421.00	4075.46
421.21	4089.79
421.42	3983.30
421.63	4075.46
421.85	4040.64
422.06	4188.10
422.27	4149.18
422.48	4145.09
422.69	4214.72
422.90	4222.91
423.11	4184.00
423.32	4190.14
423.53	4325.31
423.75	4272.06
423.96	4405.18
424.17	4366.27
424.38	4440.00
424.59	4284.35
424.80	4507.58
425.01	4362.17
425.22	4411.32
425.43	4349.89
425.64	4612.03
425.85	4550.59
426.06	4401.08
426.28	4462.52
426.49	4403.13
426.70	4497.34
426.91	4487.10
427.12	4581.31
427.33	4593.59
427.54	4493.24
427.75	4655.03
427.96	4714.42
428.17	4724.66
428.38	4704.18
428.59	4833.21
428.80	4685.75
429.01	4968.37
429.23	4782.01
429.44	4986.80
429.65	4911.03
429.86	4933.56
430.07	4859.83
430.28	4698.04
430.49	4992.95
430.70	5183.41
430.91	5005.24
431.12	5085.11
431.33	5103.54
431.54	5103.54
431.75	5164.98
431.96	5103.54
432.17	5150.64
432.38	5132.21
432.59	5367.73
432.80	5201.84
433.01	5177.26
433.22	5384.11
433.43	5341.10
433.64	5298.10
433.85	5138.35
434.06	5345.20
434.27	5238.70
434.49	5414.83
434.70	5314.48
434.91	5314.48
435.12	5382.06
435.33	5468.08
435.54	5318.57
435.75	5269.42
435.96	5453.74
436.17	5361.58
436.38	5533.61
436.59	5537.71
436.80	5482.41
437.01	5810.09
437.22	5762.98
437.43	5617.58
437.64	5468.08
437.85	5703.59
438.06	5873.57
438.27	5676.97
438.48	5705.64
438.69	5812.14
438.90	5863.33
439.11	5662.63
439.32	5943.21
439.53	5773.22
439.74	5863.33
439.95	5937.06
440.16	5713.83
440.37	5939.11
440.57	5865.38
440.78	5922.73
440.99	5865.38
441.20	5926.82
441.41	5834.66
441.62	6088.61
441.83	5883.81
442.04	5937.06
442.25	5892.01
442.46	6010.79
442.67	6107.04
442.88	6520.73
443.09	6080.42
443.30	6094.76
443.51	6088.61
443.72	6311.84
443.93	5994.40
444.14	6535.07
444.35	6199.20
444.56	6389.66
444.77	6193.06
444.98	6315.94
445.19	6324.13
445.40	6305.70
445.61	6287.26
445.81	6410.14
446.02	6487.96
446.23	6492.06
446.44	6336.42
446.65	6336.42
446.86	6641.56
447.07	6481.82
447.28	6621.08
447.49	6653.85
447.70	6481.82
447.91	6727.58
448.12	6580.12
448.33	6676.38
448.54	6543.26
448.74	6580.12
448.95	6703.00
449.16	6659.99
449.37	6807.45
449.58	6727.58
449.79	7016.34
450.00	6723.48
450.21	6778.78
450.42	6965.14
450.63	6819.74
450.84	6928.28
451.05	7040.92
451.25	6989.72
451.46	6909.85
451.67	6997.91
451.88	7159.70
452.09	7040.92
452.30	6942.61
452.51	7204.75
452.72	7260.05
452.93	7505.81
453.13	7020.44
453.34	7118.74
453.55	7198.61
453.76	7274.38
453.97	7458.70
454.18	7276.43
454.39	7413.65
454.60	7380.88
454.81	7382.93
455.01	7528.33
455.22	7282.58
455.43	7481.23
455.64	7849.86
455.85	7667.60
456.06	7841.67
456.27	7671.69
456.48	7540.62
456.68	7774.09
456.89	7825.29
457.10	7980.93
457.31	7808.90
457.52	7892.87
457.73	7856.01
457.94	8132.48
458.14	7817.10
458.35	8099.72
458.56	7939.97
458.77	8202.11
458.98	8142.72
459.19	8089.48
459.39	8132.48
459.60	8292.23
459.81	8206.21
460.02	8368.00
460.23	8298.37
460.44	8681.34
460.65	8494.97
460.85	8595.32
461.06	8593.28
461.27	8265.60
461.48	8689.53
461.69	8834.94
461.89	8628.09
462.10	8761.21
462.31	8531.84
462.52	8730.49
462.73	8767.35
462.94	8902.52
463.14	9013.11
463.35	8818.55
463.56	9293.68
463.77	9246.58
463.98	8972.15
464.18	9174.90
464.39	9064.31
464.60	9516.91
464.81	9299.83
465.02	9381.74
465.23	9478.00
465.43	9508.72
465.64	9568.11
465.85	9709.42
466.06	9455.47
466.27	9889.64
466.47	9746.28
466.68	9873.26
466.89	9635.69
467.10	10004.33
467.30	9883.50
467.51	10180.45
467.72	10391.39
467.93	10002.28
468.14	10133.35
468.34	10309.47
468.55	10553.18
468.76	10383.20
468.97	10362.72
469.17	10497.89
469.38	10501.98
469.59	10897.24
469.80	10530.66
470.01	10790.75
470.21	10764.12
470.42	10915.67
470.63	11073.37
470.84	11038.55
471.04	11235.16
471.25	11181.91
471.46	11343.70
471.67	11394.90
471.87	11456.34
472.08	11489.10
472.29	11532.11
472.50	11464.53
472.70	11624.27
472.91	11792.20
473.12	11880.27
473.33	12128.07
473.53	12044.10
473.74	12136.26
473.95	12179.27
474.16	12058.44
474.36	12148.55
474.57	12414.79
474.78	12873.53
474.99	12547.90
475.19	12564.29
475.40	12842.81
475.61	12871.48
475.81	13082.42
476.02	13229.88
476.23	13094.71
476.44	13092.66
476.64	13365.04
476.85	13451.06
477.06	13309.75
477.27	13567.79
477.47	13750.06
477.68	13614.90
477.89	13907.76
478.09	13866.80
478.30	14073.64
478.51	13995.82
478.71	14155.56
478.92	14169.90
479.13	14317.35
479.34	14274.34
479.54	14509.86
479.75	14645.02
479.96	14587.68
480.16	14593.83
480.37	14919.45
480.58	14829.34
480.78	14841.63
480.99	15232.79
481.20	15335.19
481.41	15124.25
481.61	15419.16
481.82	15437.59
482.03	15382.29
482.23	15259.42
482.44	15613.71
482.65	16015.12
482.85	16365.32
483.06	15922.96
483.27	16090.89
483.47	16213.77
483.68	16183.05
483.89	16473.86
484.09	16543.49
484.30	16441.09
484.51	16750.34
484.71	16860.93
484.92	16721.66
485.13	16895.74
485.33	16846.59
485.54	16893.69
485.75	17000.19
485.95	17299.19
486.16	17360.63
486.37	17381.11
486.57	17583.86
486.78	17286.90
486.98	17514.23
487.19	17848.05
487.40	17745.65
487.60	17823.47
487.81	18036.46
488.02	17854.19
488.22	18073.32
488.43	18177.77
488.64	18345.70
488.84	18319.08
489.05	18401.00
489.25	18527.97
489.46	18798.31
489.67	18554.60
489.87	18974.43
490.08	18820.83
490.29	19164.89
490.49	19508.95
490.70	19082.97
490.90	19246.81
491.11	19353.30
491.32	19640.02
491.52	19365.59
491.73	19494.61
491.94	19644.12
492.14	19691.22
492.35	19883.73
492.55	20006.61
492.76	20039.37
492.97	20111.05
493.17	20080.33
493.38	20145.87
493.58	20238.03
493.79	20485.83
494.00	20422.34
494.20	20645.57
494.41	20508.36
494.61	20731.59
494.82	20481.74
495.02	20825.79
495.23	20960.96
495.44	20971.20
495.64	21159.61
495.85	21051.07
496.05	21208.76
496.26	21112.51
496.47	21663.41
496.67	21116.61
496.88	21657.27
497.08	21337.79
497.29	21915.31
497.49	21372.60
497.70	21847.73
497.91	21986.99
498.11	22222.51
498.32	22343.34
498.52	21909.17
498.73	22310.57
498.93	22152.88
499.14	22433.45
499.34	22548.14
499.55	22916.77
499.76	22433.45
499.96	22484.65
500.17	22900.39
500.37	22881.95
500.58	22732.45
500.78	22783.65
500.99	22994.59
501.19	23361.18
501.40	23328.41
501.60	22972.07
501.81	23094.94
502.02	23154.33
502.22	23066.27
502.43	23627.42
502.63	23625.37
502.84	23701.14
503.04	23584.41
503.25	23867.03
503.45	23744.15
503.66	24000.15
503.86	23596.70
504.07	24346.25
504.27	23660.18
504.48	24057.49
504.68	24227.47
504.89	24551.05
505.09	24376.97
505.30	24137.36
505.50	24444.56
505.71	24385.16
505.91	24526.47
506.12	24602.25
506.32	24761.99
506.53	24860.29
506.73	24858.24
506.94	25036.42
507.14	24770.18
507.35	25052.80
507.55	25104.00
507.76	24813.19
507.96	25044.61
508.17	25208.45
508.37	24893.06
508.58	25413.24
508.78	25366.14
508.99	25454.20
509.19	25634.42
509.40	25378.43
509.60	25341.57
509.81	25562.75
510.01	25880.18
510.22	25626.23
510.42	25984.63
510.63	25687.67
510.83	25976.44
511.04	25906.80
511.24	25880.18
511.44	26097.27
511.65	25925.24
511.85	26175.09
512.06	26361.45
512.26	26736.23
512.47	26359.41
512.67	26523.24
512.88	26492.52
513.08	26275.44
513.29	26867.30
513.49	26834.53
513.69	26990.18
513.90	26883.69
514.10	26934.88
514.31	26910.31
514.51	26947.17
514.72	27020.90
514.92	27229.79
515.13	27145.83
515.33	27192.93
515.53	27299.42
515.74	27280.99
515.94	27199.07
516.15	27358.81
516.35	27309.66
516.56	27901.53
516.76	27514.46
516.96	27704.92
517.17	28028.50
517.37	27526.75
517.58	27919.96
517.78	27958.87
517.99	27575.90
518.19	28421.71
518.39	28102.23
518.60	28438.09
518.80	28524.11
519.01	28560.97
519.21	28638.80
519.41	28900.94
519.62	28556.88
519.82	28767.82
520.03	28665.42
520.23	28827.21
520.43	28782.15
520.64	29230.66
520.84	29183.55
521.05	28960.33
521.25	29273.67
521.45	29408.83
521.66	29384.26
521.86	29468.22
522.07	29640.25
522.27	29556.28
522.47	29883.96
522.68	29843.00
522.88	29857.34
523.08	30223.92
523.29	30137.91
523.49	30037.56
523.70	30297.65
523.90	30334.51
524.10	30469.68
524.31	30326.32
524.51	30221.87
524.71	30909.99
524.92	30709.29
525.12	30672.43
525.33	30928.42
525.53	31039.01
525.73	31032.87
525.94	31157.80
526.14	31305.25
526.34	30938.66
526.55	31170.08
526.75	31286.82
526.95	31467.04
527.16	31718.94
527.36	31530.53
527.56	31577.63
527.77	31936.02
527.97	32011.80
528.17	32183.83
528.38	32112.15
528.58	32454.16
528.78	32364.05
528.99	32448.02
529.19	32515.60
529.39	32572.94
529.60	32669.20
529.80	32749.07
530.00	32589.33
530.21	33263.11
530.41	32921.10
530.61	32857.61
530.82	33402.37
531.02	32814.60
531.22	33449.47
531.43	33209.86
531.63	33578.50
531.83	33783.29
532.04	33863.16
532.24	33287.68
532.44	34289.14
532.64	34108.92
532.85	34223.61
533.05	33713.66
533.25	34420.21
533.46	34307.57
533.66	34493.94
533.86	34065.91
534.07	34674.16
534.27	34670.06
534.47	34891.24
534.67	34739.69
534.88	34915.82
535.08	34739.69
535.28	35175.91
535.49	35231.21
535.69	35612.13
535.89	35349.99
536.09	35550.69
536.30	35648.99
536.50	35511.78
536.70	35771.87
536.91	35511.78
537.11	35866.08
537.31	35888.60
537.51	36038.11
537.72	36298.20
537.92	36312.53
538.12	36976.08
538.32	36279.77
538.53	36685.26
538.73	36158.94
538.93	36652.50
539.13	36640.21
539.34	36967.88
539.54	36703.70
539.74	37170.63
539.94	36580.82
540.15	36666.83
540.35	37506.50
540.55	36830.67
540.75	37062.09
540.96	37184.97
541.16	37137.87
541.36	37438.92
541.56	37283.27
541.77	37455.30
541.97	37727.68
542.17	37699.01
542.37	37537.22
542.58	37778.88
542.78	37463.49
542.98	37604.80
543.18	37926.33
543.38	38233.53
543.59	37686.72
543.79	38131.13
543.99	37877.18
544.19	38215.10
544.40	37907.90
544.60	38499.76
544.80	38327.74
545.00	38188.47
545.20	38610.35
545.41	38772.14
545.61	38757.81
545.81	38854.06
546.01	38837.68
546.21	38751.66
546.42	38606.26
546.62	39220.65
546.82	38485.43
547.02	38925.74
547.22	39155.11
547.43	39099.82
547.63	39177.64
547.83	38972.85
548.03	38757.81
548.23	39533.99
548.44	39282.09
548.64	39667.11
548.84	39495.08
549.04	39441.83
549.24	39493.03
549.45	39769.51
549.65	39523.75
549.85	39697.83
550.05	39859.62
550.25	39587.24
550.45	40285.59
550.66	39693.73
550.86	39648.68
551.06	40224.15
551.26	39929.25
551.46	40154.52
551.66	39937.44
551.87	40086.94
552.07	39871.90
552.27	40076.70
552.47	40248.73
552.67	40246.68
552.87	40271.26
553.07	40492.44
553.28	40320.41
553.48	40351.13
553.68	40211.87
553.88	40773.01
554.08	40613.27
554.28	40725.91
554.48	40441.24
554.69	40484.25
554.89	40762.77
555.09	41065.87
555.29	40752.53
555.49	40793.49
555.69	40764.82
555.89	41123.21
556.10	41342.35
556.30	40779.15
556.50	41123.21
556.70	41502.09
556.90	41194.89
557.10	40992.14
557.30	41018.77
557.50	41287.05
557.70	41135.50
557.91	41672.07
558.11	41334.15
558.31	41387.40
558.51	41461.13
558.71	41407.88
558.91	41493.89
559.11	41340.30
559.31	41729.41
559.51	41504.13
559.72	41702.79
559.92	41612.68
560.12	41340.30
560.32	41772.42
560.52	41571.72
560.72	41901.44
560.92	41874.82
561.12	42139.00
561.32	42739.06
561.52	41710.98
561.72	42382.71
561.93	41983.36
562.13	42288.51
562.33	42014.08
562.53	42417.53
562.73	42016.13
562.93	42132.86
563.13	42542.45
563.33	42462.58
563.53	42311.03
563.73	41790.85
563.93	42403.19
564.13	42696.05
564.33	42483.06
564.53	42575.22
564.74	42775.92
564.94	42337.66
565.14	42773.88
565.34	42235.26
565.54	42554.74
565.74	42900.85
565.94	43349.35
566.14	42853.75
566.34	42534.26
566.54	43128.17
566.74	42663.28
566.94	43107.69
567.14	43345.26
567.34	43062.64
567.54	43332.97
567.74	42882.42
567.94	43091.31
568.14	43302.25
568.34	43138.41
568.54	43914.59
568.74	43507.05
568.94	43642.21
569.14	43912.55
569.34	43457.90
569.54	43650.41
569.75	43593.06
569.95	43574.63
570.15	43830.63
570.35	44100.96
570.55	43824.48
570.75	44447.07
570.95	43955.55
571.15	43980.13
571.35	44049.76
571.55	44346.72
571.75	44344.67
571.95	44100.96
572.15	44002.66
572.35	44428.63
572.55	44227.93
572.75	44377.43
572.95	44750.17
573.15	44653.91
573.35	44840.28
573.55	44328.28
573.75	44832.08
573.95	44924.24
574.15	44576.09
574.35	45006.16
574.55	44770.64
574.75	44799.32
574.95	44977.49
575.15	44903.76
575.34	44866.90
575.54	45352.27
575.74	45159.76
575.94	45258.06
576.14	45253.97
576.34	45456.71
576.54	45847.88
576.74	45770.05
576.94	45655.37
577.14	46306.62
577.34	46097.73
577.54	46136.64
577.74	45722.95
577.94	45929.80
578.14	45999.43
578.34	46226.75
578.54	45454.67
578.74	46363.96
578.94	46433.60
579.14	46232.89
579.34	45946.18
579.54	46380.35
579.74	46773.56
579.94	46513.47
580.13	46589.24
580.33	46597.43
580.53	47043.89
580.73	46787.89
580.93	47025.46
581.13	47039.79
581.33	47299.89
581.53	47281.45
581.73	47111.47
581.93	47426.86
582.13	47338.80
582.33	47191.34
582.53	47041.84
582.73	47744.30
582.92	47408.43
583.12	47539.50
583.32	47289.65
583.52	47549.74
583.72	47785.25
583.92	47613.23
584.12	47795.49
584.32	48342.30
584.52	47707.43
584.72	48442.65
584.92	48413.98
585.11	48377.12
585.31	48291.10
585.51	48317.73
585.71	48082.21
585.91	48561.44
586.11	48364.83
586.31	48266.53
586.51	48667.93
586.71	48526.62
586.91	49184.02
587.10	49083.67
587.30	48956.69
587.50	48825.62
587.70	49014.04
587.90	48749.85
588.10	48846.10
588.30	49141.01
588.50	49089.81
588.69	49014.04
588.89	48954.64
589.09	50027.78
589.29	49640.71
589.49	49921.29
589.69	49319.18
589.89	49257.74
590.08	49696.01
590.28	49237.26
590.48	49767.69
590.68	49788.17
590.88	49403.15
591.08	49829.13
591.28	49792.26
591.47	50242.82
591.67	49618.19
591.87	49874.18
592.07	49978.63
592.27	50083.08
592.47	49943.81
592.67	50150.66
592.86	50066.69
593.06	50134.28
593.26	50144.51
593.46	50248.96
593.66	50406.65
593.86	50095.36
594.05	50242.82
594.25	51221.75
594.45	50054.40
594.65	50533.63
594.85	50615.55
595.05	50832.63
595.24	51016.95
595.44	50777.34
595.64	50879.74
595.84	50937.08
596.04	50859.26
596.23	50623.74
596.43	50900.22
596.63	51139.83
596.83	51440.88
597.03	51332.34
597.22	51660.01
597.42	51160.31
597.62	51479.79
597.82	51410.16
598.02	51148.02
598.21	51852.52
598.41	51070.20
598.61	51401.97
598.81	51557.61
599.01	51889.38
599.20	51672.30
599.40	51076.34
599.60	51649.77
599.80	52067.56
600.00	52190.44
600.19	51879.14
600.39	51526.89
600.59	52085.99
600.79	51981.54
600.98	51729.64
601.18	52106.47
601.38	52372.70
601.58	52335.84
601.78	52034.79
601.97	52094.18
602.17	52733.15
602.37	52577.50
602.57	52520.16
602.76	52780.25
602.96	52495.58
603.16	52565.21
603.36	52536.54
603.55	52636.89
603.75	52626.65
603.95	52987.10
604.15	52284.64
604.34	53071.06
604.54	52952.28
604.74	52815.07
604.94	52806.87
605.13	52884.70
605.33	52978.90
605.53	52798.68
605.73	53398.74
605.92	53032.15
606.12	53171.41
606.32	53421.26
606.52	53107.93
606.71	53316.82
606.91	53705.93
607.11	52911.32
607.30	53130.45
607.50	53478.61
607.70	53167.32
607.90	53556.43
608.09	53583.05
608.29	53384.40
608.49	54015.18
608.68	53787.85
608.88	53703.88
609.08	53460.18
609.28	53761.23
609.47	53675.21
609.67	53822.67
609.87	54006.98
610.06	54090.95
610.26	53869.77
610.46	53982.41
610.66	53595.34
610.85	54043.85
611.05	53816.52
611.25	53675.21
611.44	53847.24
611.64	53572.81
611.84	53527.76
612.03	53750.99
612.23	54432.96
612.43	53789.90
612.62	53802.19
612.82	54197.44
613.02	53857.48
613.21	54058.18
613.41	53869.77
613.61	53722.32
613.80	53298.39
614.00	54017.22
614.20	54158.53
614.39	53986.50
614.59	53810.38
614.79	53875.91
614.98	53558.48
615.18	53818.57
615.38	53761.23
615.57	53378.26
615.77	54056.14
615.97	53732.56
616.16	53548.24
616.36	53728.46
616.56	54074.57
616.75	53763.28
616.95	53650.64
617.15	54080.71
617.34	53865.67
617.54	54015.18
617.74	53777.61
617.93	53929.16
618.13	53652.69
618.32	53845.19
618.52	53695.69
618.72	53789.90
618.91	53939.40
619.11	53777.61
619.31	53767.37
619.50	53681.36
619.70	53245.14
619.90	53673.16
620.09	53898.44
620.29	53228.76
620.48	53581.01
620.68	53953.74
620.88	53437.65
621.07	53753.04
621.27	53820.62
621.46	53572.81
621.66	53552.33
621.86	53691.60
622.05	53220.56
622.25	54039.75
622.44	53454.03
622.64	53654.73
622.84	53642.45
623.03	52942.04
623.23	53451.98
623.42	53482.70
623.62	53519.57
623.82	53959.88
624.01	53703.88
624.21	53886.15
624.40	53501.14
624.60	53408.98
624.80	53660.88
624.99	53388.50
625.19	53464.27
625.38	53570.77
625.58	53157.08
625.77	53511.38
625.97	53755.08
626.17	53245.14
626.36	53337.30
626.56	53419.22
626.75	52939.99
626.95	53458.13
627.14	53490.90
627.34	53884.11
627.54	53300.43
627.73	53564.62
627.93	53609.68
628.12	53169.36
628.32	53619.92
628.51	53920.97
628.71	53849.29
628.90	53763.28
629.10	53243.09
629.30	53224.66
629.49	53408.98
629.69	53376.21
629.88	53003.48
630.08	53900.49
630.27	53728.46
630.47	53081.30
630.66	53540.05
630.86	53484.75
631.05	53361.87
631.25	53882.06
631.44	53935.30
631.64	53050.58
631.84	53593.29
632.03	53720.27
632.23	53470.42
632.42	53458.13
632.62	53548.24
632.81	53185.75
633.01	53644.49
633.20	53894.35
633.40	53396.69
633.59	53554.38
633.79	52919.51
633.98	53626.06
634.18	53126.36
634.37	53851.34
634.57	54176.97
634.76	54127.81
634.96	53402.83
635.15	53824.71
635.35	53882.06
635.54	53630.16
635.74	54023.37
635.93	53277.91
636.13	53959.88
636.32	53974.22
636.52	53601.49
636.71	53818.57
636.91	53769.42
637.10	54037.70
637.30	54224.07
637.49	54113.48
637.69	53589.20
637.88	54195.40
638.08	53834.95
638.27	53966.02
638.46	54082.76
638.66	53503.18
638.85	54109.38
639.05	53951.69
639.24	54256.84
639.44	53548.24
639.63	53662.93
639.83	54228.16
640.02	53951.69
640.22	53865.67
640.41	54389.95
640.61	53955.78
640.80	53994.70
640.99	53765.32
641.19	54535.36
641.38	54121.67
641.58	53886.15
641.77	54539.46
641.97	54088.90
642.16	54432.96
642.36	54731.96
642.55	54703.29
642.74	54035.66
642.94	54959.29
643.13	54484.16
643.33	54414.53
643.52	54772.92
643.72	54897.85
643.91	54717.63
644.10	54940.86
644.30	54844.60
644.49	54613.18
644.69	54981.82
644.88	54539.46
645.08	54539.46
645.27	54635.71
645.46	54467.78
645.66	54521.02
645.85	54736.06
646.05	54850.75
646.24	54813.88
646.43	55096.50
646.63	54891.71
646.82	55209.14
647.02	55096.50
647.21	55243.96
647.40	54932.67
647.60	55493.81
647.79	55162.04
647.99	54928.57
648.18	55059.64
648.37	55514.29
648.57	55135.41
648.76	55219.38
648.96	54969.53
649.15	56036.52
649.34	55264.44
649.54	55458.99
649.73	54822.08
649.92	55514.29
650.12	55682.22
650.31	55739.57
650.51	55909.55
650.70	55444.66
650.89	55387.31
651.09	56210.60
651.28	56024.23
651.47	55463.09
651.67	55731.37
651.86	56026.28
652.06	55137.46
652.25	55993.51
652.44	55473.33
652.64	55418.03
652.83	55329.97
653.02	55669.93
653.22	55786.67
653.41	55491.76
653.60	55657.65
653.80	55651.50
653.99	55925.93
654.18	56085.67
654.38	55776.43
654.57	55850.16
654.76	55751.85
654.96	55973.03
655.15	55456.95
655.34	55917.74
655.54	55571.63
655.73	56159.40
655.92	56257.70
656.12	56169.64
656.31	56110.25
656.50	55987.37
656.70	56419.49
656.89	55848.11
657.08	56466.59
657.28	56456.35
657.47	55809.20
657.66	56415.40
657.86	55739.57
658.05	56140.97
658.24	56401.06
658.43	56081.58
658.63	56413.35
658.82	56149.16
659.01	56442.02
659.21	56548.51
659.40	56632.48
659.59	55821.48
659.79	56534.18
659.98	56595.62
660.17	56800.41
660.36	56726.69
660.56	56349.86
660.75	56560.80
660.94	56747.17
661.14	56513.70
661.33	56513.70
661.52	56130.73
661.71	56880.28
661.91	56532.13
662.10	56767.65
662.29	56718.49
662.49	55862.44
662.68	56831.13
662.87	56962.20
663.06	56745.12
663.26	56487.07
663.45	56736.93
663.64	56743.07
663.83	57134.23
664.03	56990.87
664.22	56913.05
664.41	56964.25
664.60	56616.10
664.80	56857.76
664.99	56685.73
665.18	56566.94
665.37	56775.84
665.57	57015.45
665.76	56636.58
665.95	56761.50
666.14	56816.80
666.34	57009.31
666.53	56601.76
666.72	56554.66
666.91	56554.66
667.11	56915.10
667.30	56794.27
667.49	56738.97
667.68	57046.17
667.87	56935.58
668.07	56636.58
668.26	57316.50
668.45	56695.97
668.64	56937.63
668.84	57318.55
669.03	57384.08
669.22	57046.17
669.41	57177.24
669.60	57261.21
669.80	57128.09
669.99	57560.21
670.18	57212.06
670.37	56935.58
670.57	57146.52
670.76	56861.85
670.95	57416.85
671.14	57064.60
671.33	57267.35
671.53	57687.18
671.72	57390.23
671.91	57169.05
672.10	56771.74
672.29	57037.98
672.48	57173.14
672.68	57183.38
672.87	56997.02
673.06	57261.21
673.25	56906.91
673.44	57181.34
673.64	56689.82
673.83	56718.49
674.02	57064.60
674.21	56878.24
674.40	57056.41
674.59	56919.20
674.79	56751.26
674.98	56603.81
675.17	56644.77
675.36	56358.05
675.55	56495.27
675.74	56829.08
675.94	56824.99
676.13	56818.84
676.32	56726.69
676.51	57480.34
676.70	56698.01
676.89	56812.70
677.08	57287.83
677.28	56939.68
677.47	56679.58
677.66	56624.29
677.85	56898.72
678.04	57216.15
678.23	56986.78
678.42	57210.01
678.62	56786.08
678.81	57207.96
679.00	57072.79
679.19	57463.96
679.38	56741.02
679.57	56726.69
679.76	56906.91
679.96	56663.20
680.15	57109.66
680.34	57095.32
680.53	56571.04
680.72	56661.15
680.91	56767.65
681.10	56521.89
681.29	57101.46
681.48	56460.45
681.68	56544.42
681.87	56100.01
682.06	56804.51
682.25	56452.26
682.44	56319.14
682.63	56571.04
682.82	56280.23
683.01	56157.35
683.20	56151.21
683.39	56235.17
683.59	56214.69
683.78	56319.14
683.97	55927.98
684.16	56188.07
684.35	55882.92
684.54	56140.97
684.73	56493.22
684.92	55960.75
685.11	56106.15
685.30	56138.92
685.49	56579.23
685.69	56063.14
685.88	55952.55
686.07	55970.99
686.26	55997.61
686.45	56466.59
686.64	55903.40
686.83	55829.68
687.02	55764.14
687.21	56005.80
687.40	55688.37
687.59	55989.42
687.78	55594.16
687.97	56071.34
688.16	55907.50
688.35	55667.89
688.54	55915.69
688.74	55956.65
688.93	55301.30
689.12	55493.81
689.31	55669.93
689.50	55807.15
689.69	55225.53
689.88	55116.98
690.07	55411.89
690.26	55166.13
690.45	55424.18
690.64	55358.64
690.83	55223.48
691.02	55293.11
691.21	55401.65
691.40	55108.79
691.59	55254.20
691.78	54703.29
691.97	55104.70
692.16	55006.39
692.35	55303.35
692.54	55106.74
692.73	55233.72
692.92	55274.68
693.11	55143.61
693.30	55135.41
693.49	54779.07
693.68	54883.51
693.87	55233.72
694.06	54801.60
694.25	54592.70
694.44	54705.34
694.63	54885.56
694.82	54762.68
695.01	54465.73
695.20	54699.20
695.39	54682.81
695.58	54267.08
695.77	53949.64
695.96	54133.96
696.15	54473.92
696.34	54328.52
696.53	54473.92
696.72	54392.00
696.91	54072.52
697.10	54256.84
697.29	54371.52
697.48	54629.57
697.67	54308.04
697.86	53974.22
698.05	54146.25
698.24	54138.05
698.43	53648.59
698.62	53929.16
698.81	54400.19
699.00	54049.99
699.19	53531.86
699.38	53877.96
699.57	53761.23
699.76	54428.87
699.95	53746.89
700.14	53734.60
700.32	54025.42
700.51	53646.54
700.70	53834.95
700.89	53935.30
701.08	53859.53
701.27	53355.73
701.46	53513.42
701.65	53161.17
701.84	53261.52
702.03	53699.79
702.22	53169.36
702.41	53533.90
702.60	53546.19
702.79	53044.44
702.98	53128.41
703.17	53359.83
703.35	53042.39
703.54	53208.28
703.73	53345.49
703.92	52835.55
704.11	52686.04
704.30	52696.28
704.49	52780.25
704.68	53040.34
704.87	52640.99
705.06	52753.63
705.25	52786.39
705.43	52724.96
705.62	52245.73
705.81	52581.60
706.00	52468.96
706.19	52305.12
706.38	52358.37
706.57	52094.18
706.76	51928.30
706.95	52382.94
707.14	51848.42
707.32	52083.94
707.51	51959.02
707.70	52337.89
707.89	52081.89
708.08	52051.17
708.27	51862.76
708.46	52311.27
708.65	51350.77
708.84	52131.04
709.02	52100.32
709.21	51850.47
709.40	51770.60
709.59	51510.51
709.78	51426.54
709.97	51909.86
710.16	51432.69
710.34	51502.32
710.53	51645.68
710.72	51582.19
710.91	51721.45
711.10	51426.54
711.29	51664.11
711.48	51303.67
711.66	51291.38
711.85	51260.66
712.04	51291.38
712.23	51262.71
712.42	51213.55
712.61	51318.00
712.80	50889.98
712.98	51055.86
713.17	50937.08
713.36	51166.45
713.55	51414.26
713.74	51229.94
713.93	51090.68
714.11	50636.03
714.30	50828.54
714.49	50652.41
714.68	50562.30
714.87	50779.39
715.06	50963.70
715.24	50707.71
715.43	50435.33
715.62	50670.84
715.81	50603.26
716.00	50398.46
716.18	50208.00
716.37	50277.63
716.56	49923.33
716.75	50439.42
716.94	49845.51
717.12	50312.45
717.31	50371.84
717.50	50283.78
717.69	49739.02
717.88	50099.46
718.06	50365.70
718.25	50181.38
718.44	50148.61
718.63	49689.87
718.82	50038.02
719.00	49706.25
719.19	49624.33
719.38	49534.22
719.57	49313.04
719.76	49173.78
719.94	48968.98
720.13	49306.90
720.32	48964.88
720.51	48928.02
720.69	49118.48
720.88	49345.81
721.07	49063.19
721.26	48399.65
721.44	48536.86
721.63	48583.96
721.82	48401.69
722.01	48772.38
722.20	48712.98
722.38	49061.14
722.57	48317.73
722.76	48932.12
722.95	48268.58
723.13	48272.67
723.32	48248.10
723.51	47947.04
723.70	47842.60
723.88	48166.18
724.07	48059.68
724.26	48219.42
724.44	47762.73
724.63	48246.05
724.82	48192.80
725.01	48123.17
725.19	47693.10
725.38	47588.65
725.57	47232.30
725.76	47793.45
725.94	47580.46
726.13	47748.39
726.32	47529.26
726.51	47381.80
726.69	47641.90
726.88	47863.08
727.07	47709.48
727.25	47367.47
727.44	47373.61
727.63	47494.44
727.82	47486.25
728.00	47428.91
728.19	47392.04
728.38	48057.63
728.56	47148.34
728.75	47846.69
728.94	47215.92
729.12	47346.99
729.31	47541.55
729.50	47185.20
729.69	47170.86
729.87	47342.89
730.06	47195.44
730.25	47125.81
730.43	47762.73
730.62	47340.85
730.81	47613.23
730.99	47519.02
731.18	47056.18
731.37	47252.78
731.55	47416.62
731.74	47430.96
731.93	47430.96
732.11	47463.72
732.30	47686.95
732.49	47066.42
732.67	47220.02
732.86	47207.73
733.05	47303.98
733.23	46808.37
733.42	47056.18
733.61	47191.34
733.79	47099.19
733.98	47572.27
734.17	47150.38
734.35	46976.31
734.54	47265.07
734.73	47586.60
734.91	46875.96
735.10	46986.55
735.29	47326.51
735.47	46783.80
735.66	47203.63
735.84	46878.00
736.03	46951.73
736.22	47191.34
736.40	46744.89
736.59	47060.27
736.78	46781.75
736.96	46622.01
737.15	46814.52
737.33	46822.71
737.52	46847.29
737.71	46415.16
737.89	46912.82
738.08	46710.07
738.27	46230.85
738.45	46726.46
738.64	46830.90
738.82	46732.60
739.01	46409.02
739.20	46331.20
739.38	46503.23
739.57	46961.97
739.75	46806.33
739.94	46806.33
740.13	46568.76
740.31	46409.02
740.50	46519.61
740.68	46636.34
740.87	46492.99
741.06	46570.81
741.24	46349.63
741.43	46161.22
741.61	46574.91
741.80	46392.64
741.99	46378.30
742.17	46325.05
742.36	46005.57
742.54	45733.19
742.73	46318.91
742.91	46470.46
743.10	46236.99
743.29	46445.88
743.47	46093.63
743.66	46339.39
743.84	46368.06
744.03	46112.06
744.21	46083.39
744.40	46327.10
744.59	45731.14
744.77	46003.52
744.96	46011.71
745.14	46167.36
745.33	46327.10
745.51	45569.35
745.70	45790.53
745.88	46087.49
746.07	46060.87
746.26	45581.64
746.44	45768.01
746.63	45858.12
746.81	45667.66
747.00	45831.49
747.18	45620.55
747.37	45897.03
747.55	46036.29
747.74	46374.20
747.92	45149.52
748.11	45440.33
748.29	45753.67
748.48	45679.94
748.66	45512.01
748.85	45290.83
749.03	45557.06
749.22	45794.63
749.41	45405.52
749.59	45446.47
749.78	45475.15
749.96	44811.60
750.15	45217.10
750.33	45397.32
750.52	45391.18
750.70	45450.57
750.89	45102.42
751.07	44948.82
751.26	45532.49
751.44	45057.36
751.63	45010.26
751.81	44893.52
752.00	45077.84
752.18	45260.11
752.37	44981.59
752.55	44576.09
752.74	44776.79
752.92	44787.03
753.10	44580.18
753.29	44959.06
753.47	44604.76
753.66	44518.74
753.84	44840.28
754.03	44686.68
754.21	44445.02
754.40	44770.64
754.58	44744.02
754.77	44647.77
754.95	44211.55
755.14	44359.00
755.32	44723.54
755.51	44191.07
755.69	44260.70
755.88	44528.98
756.06	44567.90
756.24	44203.36
756.43	44178.78
756.61	43914.59
756.80	44199.26
756.98	43824.48
757.17	44469.59
757.35	44133.73
757.54	44320.09
757.72	44146.01
757.90	44148.06
758.09	43939.17
758.27	44039.52
758.46	44012.90
758.64	43906.40
758.83	43959.65
759.01	44037.47
759.19	43853.15
759.38	44094.82
759.56	44262.75
759.75	43638.12
759.93	43861.35
760.12	43695.46
760.30	43689.32
760.48	43705.70
760.67	43935.07
760.85	43812.20
761.04	43638.12
761.22	43779.43
761.40	43427.18
761.59	43619.69
761.77	43380.07
761.96	43804.00
762.14	43619.69
762.32	43707.75
762.51	43330.92
762.69	43259.24
762.88	42988.91
763.06	43437.42
763.24	43498.86
763.43	43494.76
763.61	42884.47
763.80	43591.01
763.98	43193.71
764.16	42820.98
764.35	42974.58
764.53	42489.21
764.72	43097.45
764.90	42972.53
765.08	43152.75
765.27	43079.02
765.45	42880.37
765.63	42362.23
765.82	42937.71
766.00	42747.25
766.18	42814.83
766.37	42921.33
766.55	42995.06
766.74	42401.14
766.92	42315.13
767.10	42673.52
767.29	42689.91
767.47	42046.85
767.65	42444.15
767.84	42339.71
768.02	42538.36
768.20	42075.52
768.39	42548.60
768.57	42022.27
768.75	42169.72
768.94	42421.62
769.12	42079.61
769.30	41758.08
769.49	41915.78
769.67	41692.55
769.85	41899.39
770.04	41842.05
770.22	41616.77
770.40	41448.84
770.59	41620.87
770.77	41598.34
770.95	41442.70
771.14	41387.40
771.32	41227.66
771.50	41321.87
771.69	41213.32
771.87	41432.46
772.05	41592.20
772.24	41088.40
772.42	41244.04
772.60	41373.06
772.78	41108.88
772.97	40762.77
773.15	41409.93
773.33	41133.45
773.52	40932.75
773.70	41346.44
773.88	41401.74
774.07	40797.59
774.25	41045.39
774.43	40934.80
774.61	41403.78
774.80	41633.16
774.98	41129.36
775.16	41272.71
775.34	41454.98
775.53	40863.12
775.71	41473.42
775.89	41305.48
776.08	41278.86
776.26	41293.19
776.44	41489.80
776.62	40977.81
776.81	41510.28
776.99	41280.91
777.17	41420.17
777.35	41895.30
777.54	41567.62
777.72	41407.88
777.90	41608.58
778.08	41694.60
778.27	41706.88
778.45	41543.05
778.63	41874.82
778.81	41399.69
779.00	42057.09
779.18	41598.34
779.36	42413.43
779.54	41819.52
779.73	41620.87
779.91	41715.08
780.09	41864.58
780.27	41926.02
780.46	42130.81
780.64	41848.19
780.82	42218.88
781.00	41977.22
781.19	42220.92
781.37	42130.81
781.55	42341.75
781.73	42433.91
781.91	41858.43
782.10	42059.13
782.28	42151.29
782.46	42276.22
782.64	42476.92
782.82	42139.00
783.01	42141.05
783.19	42485.11
783.37	42425.72
783.55	42384.76
783.74	42321.27
783.92	41975.17
784.10	42685.81
784.28	42249.60
784.46	42112.38
784.64	42065.28
784.83	42046.85
785.01	42237.31
785.19	42468.73
785.37	42593.65
785.55	42120.57
785.74	41960.83
785.92	41985.41
786.10	42397.05
786.28	42198.40
786.46	41850.24
786.64	41637.25
786.83	42122.62
787.01	42036.61
787.19	41862.53
787.37	41747.84
787.55	42253.69
787.74	41166.22
787.92	41973.12
788.10	41604.49
788.28	41448.84
788.46	41827.71
788.64	41213.32
788.82	41880.96
789.01	41473.42
789.19	41823.62
789.37	41381.26
789.55	41473.42
789.73	41272.71
789.91	41194.89
790.09	41063.82
790.28	40807.83
790.46	40770.96
790.64	40994.19
790.82	40859.02
791.00	40744.34
791.18	40723.86
791.36	40656.28
791.55	40977.81
791.73	40531.35
791.91	40312.22
792.09	40562.07
792.27	40344.98
792.45	40629.65
792.63	40095.13
792.81	39949.73
793.00	40154.52
793.18	39689.63
793.36	39906.72
793.54	39886.24
793.72	39691.68
793.90	39548.32
794.08	39521.70
794.26	39681.44
794.44	39083.44
794.62	39337.38
794.81	39486.89
794.99	38935.98
795.17	39296.42
795.35	39165.35
795.53	39261.61
795.71	39421.35
795.89	38989.23
796.07	38780.34
796.25	38383.03
796.43	38344.12
796.61	38413.75
796.80	38391.22
796.98	38127.03
797.16	37932.48
797.34	38395.32
797.52	38118.84
797.70	38389.17
797.88	37885.37
798.06	37768.64
798.24	38051.26
798.42	37768.64
798.60	37598.66
798.78	37717.44
798.96	37598.66
799.14	36971.98
799.32	37395.91
799.51	37101.00
799.69	37313.99
799.87	37311.94
800.05	37150.15
800.23	37074.38
800.41	36566.48
800.59	36531.67
800.77	36607.44
800.95	36328.92
801.13	36797.90
801.31	36285.91
801.49	36333.01
801.67	36234.71
801.85	36107.74
802.03	36093.40
802.21	35603.94
802.39	35956.19
802.57	35792.35
802.75	35423.72
802.93	35665.38
803.11	35458.53
803.29	35620.32
803.47	35083.75
803.65	35388.90
803.83	35421.67
804.01	35007.98
804.19	35077.61
804.37	35151.34
804.55	35122.66
804.73	34838.00
804.91	34573.81
805.09	34665.97
805.27	34670.06
805.45	34708.97
805.63	34694.64
805.81	34391.54
805.99	34475.51
806.17	34645.49
806.35	34131.45
806.53	34303.48
806.71	34448.88
806.89	34647.54
807.07	34305.52
807.25	34297.33
807.43	33897.98
807.61	33947.13
807.79	33803.77
807.97	33299.97
808.15	33351.17
808.33	33711.61
808.51	33363.46
808.69	33574.40
808.87	33033.74
809.05	32740.88
809.23	33023.50
809.41	32873.99
809.59	33048.07
809.77	32927.24
809.95	32515.60
810.13	33015.30
810.31	32845.32
810.49	32415.25
810.67	32427.54
810.84	32699.92
811.02	32437.78
811.20	32079.38
811.38	32173.59
811.56	31954.46
811.74	32071.19
811.92	31876.63
812.10	32300.56
812.28	31968.79
812.46	31858.20
812.64	32063.00
812.82	31798.81
813.00	31858.20
813.18	31702.56
813.36	31606.30
813.53	31180.32
813.71	31467.04
813.89	31325.73
814.07	31346.21
814.25	31280.67
814.43	31217.19
814.61	30953.00
814.79	31094.31
814.97	30965.29
815.15	31335.97
815.33	30350.90
815.50	30905.90
815.68	31051.30
815.86	31127.08
816.04	30613.04
816.22	30318.13
816.40	30512.69
816.58	30658.09
816.76	30344.75
816.94	30410.29
817.11	30209.59
817.29	29910.58
817.47	30113.33
817.65	30086.71
817.83	30027.32
818.01	30029.37
818.19	29808.19
818.37	29840.95
818.54	29877.82
818.72	29476.41
818.90	30000.69
819.08	29797.95
819.26	29613.63
819.44	29396.54
819.62	29552.19
819.80	29408.83
819.97	29505.09
820.15	29079.11
820.33	29062.72
820.51	29326.91
820.69	29154.88
820.87	29324.86
821.05	29216.32
821.22	29464.13
821.40	28851.78
821.58	28929.61
821.76	28989.00
821.94	28931.65
822.12	28816.97
822.29	28876.36
822.47	28675.66
822.65	28780.10
822.83	28798.54
823.01	28786.25
823.19	28706.38
823.36	28462.67
823.54	28436.05
823.72	28188.24
823.90	28296.78
824.08	28083.80
824.25	28091.99
824.43	28145.23
824.61	27831.90
824.79	28194.39
824.97	27887.19
825.15	28241.49
825.32	27698.78
825.50	27874.90
825.68	27723.35
825.86	27770.46
826.04	27993.68
826.21	27893.33
826.39	27760.22
826.57	27545.18
826.75	27907.67
826.93	27504.22
827.10	27326.05
827.28	27403.87
827.46	27438.69
827.64	27418.21
827.81	27336.29
827.99	27051.62
828.17	27135.59
828.35	27244.13
828.53	27119.20
828.70	27004.52
828.88	26914.41
829.06	26979.94
829.24	27141.73
829.41	26795.62
829.59	26877.54
829.77	26760.81
829.95	26709.61
830.12	26844.77
830.30	27129.44
830.48	26637.93
830.66	26734.18
830.84	26895.97
831.01	26603.11
831.19	26412.65
831.37	26547.82
831.55	26678.89
831.72	26379.89
831.90	26398.32
832.08	26351.21
832.25	25915.00
832.43	26027.63
832.61	26123.89
832.79	26154.61
832.96	26013.30
833.14	25939.57
833.32	26050.16
833.50	26117.75
833.67	26154.61
833.85	25947.76
834.03	26099.31
834.20	25802.36
834.38	26011.25
834.56	25736.82
834.74	25695.86
834.91	25515.64
835.09	26046.07
835.27	25634.42
835.44	25464.44
835.62	25525.88
835.80	25331.33
835.98	25568.89
836.15	25187.97
836.33	25677.43
836.51	25302.65
836.68	25104.00
836.86	25339.52
837.04	25464.44
837.21	25190.02
837.39	25349.76
837.57	25409.15
837.75	25458.30
837.92	24999.55
838.10	25276.03
838.28	24805.00
838.45	25179.78
838.63	24741.51
838.81	25312.89
838.98	25097.86
839.16	24807.05
839.34	24884.87
839.51	24753.80
839.69	24577.67
839.87	24549.00
840.04	24712.84
840.22	24862.34
840.40	24630.92
840.57	24342.16
840.75	24362.64
840.93	23994.00
841.10	24649.35
841.28	24649.35
841.46	24348.30
841.63	24301.20
841.81	24374.92
841.98	24706.70
842.16	24440.46
842.34	24399.50
842.51	24209.04
842.69	24698.50
842.87	23899.80
843.04	24137.36
843.22	24206.99
843.40	23891.60
843.57	24028.82
843.75	24250.00
843.92	24024.72
844.10	24018.58
844.28	24147.60
844.45	24047.25
844.63	23979.67
844.81	24143.50
844.98	23875.22
845.16	23580.31
845.33	23600.79
845.51	23578.26
845.69	23651.99
845.86	23305.88
846.04	23293.60
846.21	23484.06
846.39	23494.30
846.57	23402.14
846.74	23303.84
846.92	23426.71
847.09	23373.47
847.27	23350.94
847.45	23318.17
847.62	23223.97
847.80	23598.74
847.97	23160.48
848.15	23094.94
848.32	23135.90
848.50	23324.32
848.68	23146.14
848.85	22914.72
849.03	22746.79
849.20	22779.56
849.38	22767.27
849.56	22896.29
849.73	22701.73
849.91	22918.82
850.08	23096.99
850.26	22867.62
850.43	22900.39
850.61	22927.01
850.78	22478.50
850.96	22775.46
851.14	22390.44
851.31	22795.94
851.49	22376.11
851.66	22677.16
851.84	22578.86
852.01	22544.04
852.19	22496.94
852.36	22447.79
852.54	22519.46
852.71	22564.52
852.89	22433.45
853.07	22245.04
853.24	22367.91
853.42	22189.74
853.59	22314.67
853.77	22228.65
853.94	22298.28
854.12	22314.67
854.29	22159.02
854.47	22208.17
854.64	22281.90
854.82	22058.67
854.99	22113.97
855.17	22040.24
855.34	22087.34
855.52	21874.35
855.69	22238.89
855.87	21704.37
856.04	21507.77
856.22	21860.02
856.39	21778.10
856.57	21911.22
856.74	21698.23
856.92	21710.52
857.09	21458.62
857.27	21581.49
857.44	21671.61
857.62	21792.44
857.79	21540.54
857.97	21251.77
858.14	21532.34
858.32	21268.16
858.49	21565.11
858.67	21294.78
858.84	21407.42
859.02	21661.37
859.19	21434.04
859.37	21296.83
859.54	21247.68
859.72	21161.66
859.89	21151.42
860.06	21403.32
860.24	21520.06
860.41	21368.51
860.59	21006.02
860.76	21137.09
860.94	20854.47
861.11	21130.94
861.29	20733.64
861.46	20573.89
861.64	20526.79
861.81	20790.98
861.98	20780.74
862.16	20887.23
862.33	20664.00
862.51	20850.37
862.68	20866.75
862.86	20866.75
863.03	20405.96
863.21	20442.82
863.38	20743.88
863.55	20367.05
863.73	20534.98
863.90	20461.26
864.08	20518.60
864.25	20264.65
864.43	20158.16
864.60	20526.79
864.77	20418.25
864.95	20385.48
865.12	20096.72
865.30	20577.99
865.47	20137.68
865.64	20215.50
865.82	20311.75
865.99	20135.63
866.17	20209.36
866.34	20219.60
866.51	20022.99
866.69	19879.63
866.86	20057.81
867.04	19943.12
867.21	19787.47
867.38	19881.68
867.56	19580.63
867.73	19889.87
867.91	19945.17
868.08	19885.78
868.25	19713.75
868.43	19629.78
868.60	19357.40
868.78	19687.12
868.95	19859.15
869.12	19396.31
869.30	19543.77
869.47	19670.74
869.64	19281.63
869.82	19490.52
869.99	19134.17
870.16	19506.90
870.34	19635.92
870.51	19631.83
870.69	19214.04
870.86	19699.41
871.03	19381.98
871.21	19226.33
871.38	19541.72
871.55	19275.48
871.73	19130.08
871.90	19187.42
872.07	19105.50
872.25	18972.38
872.42	18728.67
872.59	18988.77
872.77	19140.32
872.94	18892.51
873.11	18872.03
873.29	18937.57
873.46	18783.97
873.63	19042.01
873.81	18876.13
873.98	18650.85
874.15	18542.31
874.33	18667.24
874.50	18419.43
874.67	18616.04
874.85	18525.93
875.02	18163.43
875.19	18257.64
875.37	18339.56
875.54	18044.65
875.71	18147.05
875.88	18165.48
876.06	18212.59
876.23	18302.70
876.40	18036.46
876.58	17889.01
876.75	18177.77
876.92	18188.01
877.10	18192.11
877.27	17919.73
877.44	17796.85
877.61	17755.89
877.79	17895.15
877.96	17835.76
878.13	17925.87
878.31	17735.41
878.48	17526.52
878.65	17667.83
878.82	17536.76
879.00	17635.06
879.17	17577.72
879.34	17798.90
879.51	17405.69
879.69	17346.30
879.86	17454.84
880.03	17417.97
880.21	17565.43
880.38	17610.48
880.55	17456.89
880.72	17194.75
880.90	17164.03
881.07	17342.20
881.24	17403.64
881.41	17403.64
881.59	17301.24
881.76	17145.59
881.93	17133.31
882.10	17280.76
882.28	17204.99
882.45	17219.32
882.62	17151.74
882.79	16975.61
882.96	16922.37
883.14	17008.38
883.31	17035.00
883.48	16965.37
883.65	16914.17
883.83	17125.11
884.00	16965.37
884.17	16905.98
884.34	16998.14
884.51	16809.73
884.69	16602.88
884.86	16707.33
885.03	16817.92
885.20	16527.11
885.38	16699.14
885.55	16502.53
885.72	16637.70
885.89	16582.40
886.06	16518.92
886.24	16463.62
886.41	16559.88
886.58	16652.03
886.75	16654.08
886.92	16580.36
887.10	16563.97
887.27	16416.52
887.44	16533.25
887.61	16692.99
887.78	16598.79
887.95	16639.75
888.13	16480.00
888.30	16254.73
888.47	16242.44
888.64	16213.77
888.81	16424.71
888.99	16328.45
889.16	15984.40
889.33	16060.17
889.50	16303.88
889.67	16033.55
889.84	16015.12
890.01	16158.47
890.19	16170.76
890.36	16013.07
890.53	15767.31
890.70	15902.48
890.87	15996.68
891.04	15886.09
891.22	15961.87
891.39	15978.25
891.56	15687.44
891.73	15832.85
891.90	15773.46
892.07	15613.71
892.24	15744.78
892.42	15568.66
892.59	15771.41
892.76	15478.55
892.93	15632.15
893.10	15548.18
893.27	15552.27
893.44	15550.23
893.61	15460.12
893.79	15681.30
893.96	15664.91
894.13	15757.07
894.30	15515.41
894.47	15640.34
894.64	15904.53
894.81	15376.15
894.98	15562.51
895.15	15437.59
895.33	15425.30
895.50	15073.05
895.67	15587.09
895.84	15650.58
896.01	15566.61
896.18	15576.85
896.35	15546.13
896.52	15386.39
896.69	15263.51
896.86	15562.51
897.04	15152.92
897.21	15564.56
897.38	15228.70
897.55	15259.42
897.72	15429.40
897.89	15359.77
898.06	15314.71
898.23	15339.29
898.40	15296.28
898.57	15294.23
898.74	15576.85
898.91	15451.92
899.08	15640.34
899.26	15447.83
899.43	15130.39
899.60	15363.86
899.77	15449.88
899.94	15179.54
900.11	14939.93
900.28	15312.66
900.45	15263.51
900.62	15161.11
900.79	15552.27
900.96	15185.69
901.13	15322.90
901.30	15159.06
901.47	14993.18
901.64	15179.54
901.81	15503.12
901.98	15075.10
902.15	15249.18
902.32	15316.76
902.49	15456.02
902.66	15118.11
902.83	15361.81
903.01	15363.86
903.18	15197.98
903.35	15191.83
903.52	15296.28
903.69	15331.09
903.86	15314.71
904.03	15333.14
904.20	15249.18
904.37	15429.40
904.54	15134.49
904.71	15226.65
904.88	15449.88
905.05	15343.38
905.22	15406.87
905.39	15114.01
905.56	15298.33
905.73	15230.74
905.90	15331.09
906.07	15169.30
906.24	15339.29
906.41	14960.41
906.58	15126.30
906.75	15404.82
906.92	15214.36
907.09	15390.49
907.26	15120.15
907.43	15068.95
907.60	15275.80
907.77	15286.04
907.93	15308.57
908.10	15152.92
908.27	15468.31
908.44	15159.06
908.61	15128.35
908.78	15126.30
908.95	15345.43
909.12	14866.21
909.29	15253.27
909.46	14948.12
909.63	15222.55
909.80	15144.73
909.97	15062.81
910.14	15066.91
910.31	15220.50
910.48	15075.10
910.65	15093.53
910.82	14790.43
910.99	15118.11
911.16	14870.30
911.33	15099.67
911.50	14999.32
911.66	14868.25
911.83	14882.59
912.00	14815.01
912.17	14823.20
912.34	15036.19
912.51	14638.88
912.68	14522.15
912.85	14769.95
913.02	14741.28
913.19	14466.85
913.36	14669.60
913.53	14870.30
913.70	14599.97
913.86	14673.70
914.03	14735.14
914.20	14548.77
914.37	14595.87
914.54	14796.57
914.71	14612.26
914.88	14685.98
915.05	14458.66
915.22	14331.69
915.39	14448.42
915.55	14346.02
915.72	14233.38
915.89	14184.23
916.06	14163.75
916.23	14266.15
916.40	14178.09
916.57	14298.92
916.74	14122.79
916.91	13940.52
917.07	13893.42
917.24	14075.69
917.41	14110.50
917.58	14135.08
917.75	13856.56
917.92	13840.17
918.09	13756.21
918.26	13899.56
918.42	13786.93
918.59	13805.36
918.76	13711.15
918.93	13696.82
919.10	13602.61
919.27	13641.52
919.44	13725.49
919.60	13836.08
919.77	13612.85
919.94	13543.22
920.11	13373.24
920.28	13438.77
920.45	13317.94
920.61	13295.41
920.78	13225.78
920.95	13002.55
921.12	13088.57
921.29	12982.07
921.46	13068.09
921.62	13012.79
921.79	12894.01
921.96	13010.75
922.13	12906.30
922.30	12789.56
922.47	12717.89
922.63	12709.69
922.80	12881.72
922.97	12633.92
923.14	12533.57
923.31	12871.48
923.47	12552.00
923.64	12607.30
923.81	12724.03
923.98	12433.22
924.15	12433.22
924.32	12431.17
924.48	12406.59
924.65	12468.03
924.82	12207.94
924.99	12132.17
925.15	12220.23
925.32	12312.39
925.49	11872.07
925.66	11812.68
925.83	11845.45
925.99	11765.58
926.16	11736.91
926.33	11827.02
926.50	11554.64
926.67	11720.53
926.83	11755.34
927.00	11665.23
927.17	11824.97
927.34	11394.90
927.50	11597.65
927.67	11415.38
927.84	11339.60
928.01	11343.70
928.17	11409.23
928.34	11138.90
928.51	11208.53
928.68	10999.64
928.84	11165.53
929.01	11087.70
929.18	11009.88
929.35	11114.33
929.51	10907.48
929.68	10743.64
929.85	10936.15
930.02	10835.80
930.18	10815.32
930.35	10667.87
930.52	10590.05
930.69	10737.50
930.85	10649.44
931.02	10561.37
931.19	10637.15
931.36	10504.03
931.52	10497.89
931.69	10571.61
931.86	10348.39
932.02	10350.43
932.19	10291.04
932.36	10047.33
932.53	10196.84
932.69	9987.94
932.86	10235.75
933.03	9910.12
933.19	9731.95
933.36	10022.76
933.53	9940.84
933.70	9959.27
933.86	9871.21
934.03	9686.89
934.20	9662.32
934.36	9652.08
934.53	9486.19
934.70	9248.63
934.86	9471.86
935.03	9240.44
935.20	9217.91
935.36	9230.20
935.53	9131.89
935.70	9076.60
935.86	8982.39
936.03	8773.50
936.20	8781.69
936.36	8742.78
936.53	8546.17
936.70	8730.49
936.86	8720.25
937.03	8468.35
937.20	8349.57
937.36	8427.39
937.53	8191.88
937.70	8206.21
937.86	8069.00
938.03	8060.80
938.20	7976.84
938.36	7892.87
938.53	7894.92
938.70	7612.30
938.86	7802.76
939.03	7661.45
939.20	7450.51
939.36	7405.46
939.53	7296.91
939.70	7522.19
939.86	7262.10
940.03	7151.51
940.19	6901.65
940.36	6944.66
940.53	6930.33
940.69	6651.80
940.86	6514.59
941.03	6645.66
941.19	6606.75
941.36	6553.50
941.52	6434.72
941.69	6457.25
941.86	6264.74
942.02	6365.09
942.19	6221.73
942.35	6285.22
942.52	6258.59
942.69	6137.76
942.85	5951.40
943.02	5998.50
943.18	5965.73
943.35	6049.70
943.52	5902.25
943.68	5801.90
943.85	5914.53
944.01	5674.92
944.18	5558.19
944.35	5787.56
944.51	5558.19
944.68	5486.51
944.84	5511.08
945.01	5564.33
945.17	5539.76
945.34	5568.43
945.51	5724.07
945.67	5531.56
945.84	5593.00
946.00	5380.01
946.17	5574.57
946.33	5332.91
946.50	5398.45
946.67	5476.27
946.83	5418.93
947.00	5433.26
947.16	5377.97
947.33	5511.08
947.49	5420.97
947.66	5447.60
947.82	5279.66
947.99	5339.05
948.16	5410.73
948.32	5443.50
948.49	5394.35
948.65	5255.09
948.82	5382.06
948.98	5380.01
949.15	5326.77
949.31	5361.58
949.48	5400.49
949.64	5283.76
949.81	5523.37
949.97	5316.53
950.14	5361.58
950.30	5236.66
950.47	5441.45
950.63	5269.42
950.80	5341.10
950.96	5343.15
951.13	5343.15
951.30	5351.34
951.46	5418.93
951.63	5423.02
951.79	5418.93
951.96	5386.16
952.12	5529.52
952.29	5408.69
952.45	5291.95
952.62	5322.67
952.78	5400.49
952.94	5380.01
953.11	5384.11
953.27	5283.76
953.44	5490.60
953.60	5435.31
953.77	5408.69
953.93	5486.51
954.10	5550.00
954.26	5423.02
954.43	5506.99
954.59	5562.28
954.76	5484.46
954.92	5572.52
955.09	5377.97
955.25	5474.22
955.42	5513.13
955.58	5576.62
955.75	5605.29
955.91	5322.67
956.07	5517.23
956.24	5490.60
956.40	5550.00
956.57	5609.39
956.73	5554.09
956.90	5511.08
957.06	5564.33
957.23	5476.27
957.39	5402.54
957.56	5443.50
957.72	5396.40
957.88	5451.69
958.05	5506.99
958.21	5683.11
958.38	5572.52
958.54	5449.64
958.71	5476.27
958.87	5365.68
959.03	5445.55
959.20	5408.69
959.36	5498.80
959.53	5449.64
959.69	5377.97
959.85	5650.35
960.02	5451.69
960.18	5498.80
960.35	5488.56
960.51	5431.21
960.68	5431.21
960.84	5615.53
961.00	5521.32
961.17	5468.08
961.33	5539.76
961.50	5451.69
961.66	5550.00
961.82	5408.69
961.99	5560.24
962.15	5410.73
962.31	5427.12
962.48	5506.99
962.64	5574.57
962.81	5451.69
962.97	5515.18
963.13	5521.32
963.30	5439.40
963.46	5355.44
963.62	5437.36
963.79	5541.80
963.95	5443.50
964.12	5294.00
964.28	5441.45
964.44	5343.15
964.61	5513.13
964.77	5519.28
964.93	5476.27
965.10	5431.21
965.26	5302.19
965.42	5412.78
965.59	5433.26
965.75	5552.04
965.92	5517.23
966.08	5410.73
966.24	5226.42
966.41	5318.57
966.57	5425.07
966.73	5425.07
966.90	5443.50
967.06	5316.53
967.22	5377.97
967.39	5275.57
967.55	5345.20
967.71	5281.71
967.88	5171.12
968.04	5212.08
968.20	5287.86
968.37	5189.55
968.53	5091.25
968.69	5261.23
968.85	5076.91
969.02	5175.22
969.18	5377.97
969.34	5177.26
969.51	5162.93
969.67	5230.51
969.83	5025.72
970.00	5351.34
970.16	5187.50
970.32	5142.45
970.48	5160.88
970.65	5130.16
970.81	5044.15
970.97	5068.72
971.14	4984.76
971.30	5207.98
971.46	5009.33
971.63	5021.62
971.79	5181.36
971.95	5103.54
972.11	4800.44
972.28	4917.17
972.44	4999.09
972.60	4886.45
972.76	4925.36
972.93	4974.52
973.09	4951.99
973.25	5001.14
973.42	4902.84
973.58	4976.56
973.74	5060.53
973.90	4872.12
974.07	4874.17
974.23	4829.11
974.39	4878.26
974.55	4757.43
974.72	4833.21
974.88	4698.04
975.04	4933.56
975.20	4794.29
975.37	4915.12
975.53	4648.89
975.69	4876.21
975.85	4798.39
976.01	4796.34
976.18	4564.92
976.34	4671.42
976.50	4751.29
976.66	4698.04
976.83	4665.27
976.99	4714.42
977.15	4747.19
977.31	4679.61
977.47	4833.21
977.64	4587.45
977.80	4575.16
977.96	4747.19
978.12	4673.46
978.29	4566.97
978.45	4456.38
978.61	4564.92
978.77	4605.88
978.93	4655.03
979.10	4601.79
979.26	4556.73
979.42	4591.55
979.58	4376.51
979.74	4489.15
979.91	4612.03
980.07	4440.00
980.23	4607.93
980.39	4380.61
980.55	4552.63
980.71	4323.26
980.88	4253.63
981.04	4353.98
981.20	4519.87
981.36	4310.97
981.52	4270.01
981.68	4337.60
981.85	4349.89
982.01	4444.09
982.17	4249.54
982.33	4319.17
982.49	4472.76
982.65	4427.71
982.82	4288.45
982.98	4417.47
983.14	4245.44
983.30	4415.42
983.46	4231.10
983.62	4245.44
983.79	4212.67
983.95	4253.63
984.11	4132.80
984.27	4231.10
984.43	4198.34
984.59	4333.50
984.75	4196.29
984.91	4089.79
985.08	4202.43
985.24	4097.99
985.40	4046.79
985.56	4130.75
985.72	4114.37
985.88	4181.95
986.04	4030.40
986.20	3952.58
986.37	4075.46
986.53	4040.64
986.69	4034.50
986.85	3981.25
987.01	4054.98
987.17	4059.07
987.33	3973.06
987.49	4116.42
987.65	4003.78
987.82	3962.82
987.98	3989.44
988.14	4046.79
988.30	3995.59
988.46	3966.92
988.62	3968.96
988.78	3891.14
988.94	3925.96
989.10	3907.52
989.26	3913.67
989.42	3844.04
989.59	3561.42
989.75	3925.96
989.91	3973.06
990.07	3780.55
990.23	3794.89
990.39	3786.69
990.55	3921.86
990.71	3749.83
990.87	3751.88
991.03	3895.24
991.19	3735.50
991.35	3725.26
991.51	3602.38
991.67	3876.80
991.83	3719.11
992.00	3737.54
992.16	3835.85
992.32	3665.86
992.48	3794.89
992.64	3608.52
992.80	3624.90
992.96	3676.10
993.12	3624.90
993.28	3704.78
993.44	3616.71
993.60	3717.06
993.76	3710.92
993.92	3641.29
994.08	3571.66
994.24	3622.86
994.40	3581.90
994.56	3604.42
994.72	3510.22
994.88	3483.59
995.04	3499.98
995.20	3426.25
995.36	3559.37
995.52	3518.41
995.68	3647.43
995.84	3528.65
996.00	3596.23
996.16	3338.19
996.32	3442.64
996.48	3407.82
996.64	3522.51
996.80	3413.96
996.96	3459.02
997.12	3432.40
997.28	3381.20
997.44	3422.16
997.60	3413.96
997.76	3522.51
997.92	3340.24
998.08	3362.76
998.24	3327.95
998.40	3411.92
998.56	3256.27
998.72	3305.42
998.88	3252.17
999.04	3246.03
999.20	3284.94
999.36	3233.74
999.52	3295.18
999.68	3352.52
999.84	3274.70
1000.00	3295.18
1000.16	3262.41
1000.32	3143.63
1000.48	3330.00
1000.64	3139.54
1000.80	3104.72
1000.95	3082.19
1001.11	3246.03
1001.27	3137.49
1001.43	3170.26
1001.59	3198.93
1001.75	3143.63
1001.91	3215.31
1002.07	3223.50
1002.23	3098.58
1002.39	3033.04
1002.55	3172.30
1002.71	3123.15
1002.87	3219.41
1003.03	2990.03
1003.19	3041.23
1003.34	3112.91
1003.50	3090.38
1003.66	3037.14
1003.82	3203.02
1003.98	3049.43
1004.14	3096.53
1004.30	3020.75
1004.46	3006.42
1004.62	2996.18
1004.78	2940.88
1004.94	3018.71
1005.09	2953.17
1005.25	2994.13
1005.41	2998.23
1005.57	2992.08
1005.73	2938.84
1005.89	2881.49
1006.05	2901.97
1006.21	3000.27
1006.37	2867.16
1006.52	2844.63
1006.68	2856.92
1006.84	3074.00
1007.00	2863.06
1007.16	3010.51
1007.32	2916.31
1007.48	2928.60
1007.64	2877.40
1007.79	2858.96
1007.95	2719.70
1008.11	2910.16
1008.27	2897.88
1008.43	2789.33
1008.59	2768.85
1008.75	2873.30
1008.91	2865.11
1009.06	2836.44
1009.22	2813.91
1009.38	2797.53
1009.54	2811.86
1009.70	2764.76
1009.86	2758.61
1010.01	2787.29
1010.17	2754.52
1010.33	2783.19
1010.49	2785.24
1010.65	2746.33
1010.81	2703.32
1010.96	2666.46
1011.12	2705.37
1011.28	2713.56
1011.44	2760.66
1011.60	2633.69
1011.76	2740.18
1011.91	2707.41
1012.07	2674.65
1012.23	2555.86
1012.39	2613.21
1012.55	2664.41
1012.71	2572.25
1012.86	2598.87
1013.02	2623.45
1013.18	2613.21
1013.34	2557.91
1013.50	2650.07
1013.65	2574.30
1013.81	2559.96
1013.97	2580.44
1014.13	2584.54
1014.29	2637.78
1014.44	2635.74
1014.60	2541.53
1014.76	2502.62
1014.92	2586.58
1015.07	2596.82
1015.23	2596.82
1015.39	2566.10
1015.55	2463.71
1015.71	2514.91
1015.86	2455.51
1016.02	2482.14
1016.18	2441.18
1016.34	2486.23
1016.49	2498.52
1016.65	2504.67
1016.81	2416.60
1016.97	2484.19
1017.12	2602.97
1017.28	2426.84
1017.44	2324.44
1017.60	2494.43
1017.75	2506.71
1017.91	2467.80
1018.07	2387.93
1018.23	2449.37
1018.38	2367.45
1018.54	2377.69
1018.70	2437.08
1018.86	2437.08
1019.01	2377.69
1019.17	2363.36
1019.33	2463.71
1019.49	2447.32
1019.64	2441.18
1019.80	2469.85
1019.96	2445.27
1020.12	2363.36
1020.27	2238.43
1020.43	2371.55
1020.59	2250.72
1020.74	2338.78
1020.90	2359.26
1021.06	2291.68
1021.22	2301.92
1021.37	2308.06
1021.53	2220.00
1021.69	2299.87
1021.84	2236.38
1022.00	2334.68
1022.16	2258.91
1022.31	2185.18
1022.47	2400.22
1022.63	2351.07
1022.79	2215.90
1022.94	2242.53
1023.10	2379.74
1023.26	2314.20
1023.41	2222.05
1023.57	2232.29
1023.73	2322.40
1023.88	2250.72
1024.04	2203.61
1024.20	2199.52
1024.35	2189.28
1024.51	2357.21
1024.67	2205.66
1024.82	2303.96
1024.98	2193.37
1025.14	2224.09
1025.29	2224.09
1025.45	2263.01
1025.61	2129.89
1025.76	2207.71
1025.92	2228.19
1026.08	2232.29
1026.23	2258.91
1026.39	2240.48
1026.55	2138.08
1026.70	2119.65
1026.86	2107.36
1027.02	2230.24
1027.17	2232.29
1027.33	2162.66
1027.48	2115.55
1027.64	2203.61
1027.80	2004.96
1027.95	2138.08
1028.11	2097.12
1028.27	2111.46
1028.42	2187.23
1028.58	2162.66
1028.73	2002.91
1028.89	2043.87
1029.05	2166.75
1029.20	2160.61
>>>>>End Processed Spectral Data<<<<<
