SpectraSuite Data File
++++++++++++++++++++++++++++++++++++
Date: Fri Jun 02 14:49:27 CEST 2017
User: INFO_000
Dark Spectrum Present: No
Reference Spectrum Present: No
Number of Sampled Component Spectra: 1
Spectrometers: USB4H00879
Integration Time (usec): 80000 (USB4H00879)
Spectra Averaged: 1 (USB4H00879)
Boxcar Smoothing: 0 (USB4H00879)
Correct for Electrical Dark: No (USB4H00879)
Strobe/Lamp Enabled: No (USB4H00879)
Correct for Detector Non-linearity: No (USB4H00879)
Correct for Stray Light: No (USB4H00879)
Number of Pixels in Processed Spectrum: 3648
>>>>>Begin Processed Spectral Data<<<<<
345.13	1312.75
345.34	1312.75
345.56	1312.75
345.78	1290.22
345.99	1296.36
346.21	1701.86
346.42	1710.05
346.64	1685.48
346.86	1794.02
347.07	1667.05
347.29	1652.71
347.50	1677.29
347.72	1699.81
347.94	1708.01
348.15	1583.08
348.37	1644.52
348.59	1744.87
348.80	1681.38
349.02	1773.54
349.23	1910.75
349.45	1808.36
349.67	1906.66
349.88	1808.36
350.10	1951.71
350.31	1773.54
350.53	1834.98
350.75	2017.25
350.96	1697.77
351.18	1775.59
351.39	1851.36
351.61	1812.45
351.82	1896.42
352.04	1861.60
352.26	1857.51
352.47	1875.94
352.69	1916.90
352.90	1748.97
353.12	1875.94
353.34	1890.28
353.55	1843.17
353.77	1906.66
353.98	1867.75
354.20	1808.36
354.41	1957.86
354.63	1904.61
354.85	2029.54
355.06	1951.71
355.28	1841.12
355.49	1888.23
355.71	1877.99
355.92	1849.32
356.14	1920.99
356.35	1855.46
356.57	1859.56
356.79	2017.25
357.00	1861.60
357.22	2025.44
357.43	1888.23
357.65	1902.56
357.86	1841.12
358.08	1843.17
358.29	1894.37
358.51	1964.00
358.72	2033.63
358.94	2011.11
359.16	1949.67
359.37	1947.62
359.59	1933.28
359.80	1972.19
360.02	2011.11
360.23	1935.33
360.45	2035.68
360.66	1980.39
360.88	1855.46
361.09	1912.80
361.31	2021.35
361.52	1943.52
361.74	2000.87
361.95	2043.87
362.17	1927.14
362.38	2039.78
362.60	1982.43
362.81	1947.62
363.03	1871.84
363.24	1972.19
363.46	2056.16
363.67	2062.30
363.89	1998.82
364.10	1966.05
364.32	1970.15
364.53	2066.40
364.75	1908.71
364.96	1959.91
365.18	2093.02
365.39	1986.53
365.61	1959.91
365.82	2105.31
366.04	2000.87
366.25	1943.52
366.47	1933.28
366.68	2056.16
366.90	1992.67
367.11	2007.01
367.33	2125.79
367.54	2072.54
367.76	2002.91
367.97	2060.26
368.19	2019.30
368.40	2064.35
368.62	1990.63
368.83	1916.90
369.05	2068.45
369.26	1976.29
369.48	1974.24
369.69	1968.10
369.91	2133.98
370.12	1933.28
370.33	2160.61
370.55	1951.71
370.76	2007.01
370.98	2105.31
371.19	2041.82
371.41	2035.68
371.62	2082.78
371.84	1986.53
372.05	2230.24
372.27	2107.36
372.48	2133.98
372.69	2019.30
372.91	2146.27
373.12	2242.53
373.34	2072.54
373.55	2166.75
373.77	2082.78
373.98	2111.46
374.20	2179.04
374.41	2301.92
374.62	2189.28
374.84	2203.61
375.05	2232.29
375.27	2136.03
375.48	2228.19
375.70	2220.00
375.91	2265.05
376.12	2250.72
376.34	2156.51
376.55	2242.53
376.77	2148.32
376.98	2127.84
377.19	2195.42
377.41	2113.50
377.62	2265.05
377.84	2248.67
378.05	2256.86
378.27	2209.76
378.48	2238.43
378.69	2416.60
378.91	2328.54
379.12	2320.35
379.34	2240.48
379.55	2291.68
379.76	2285.53
379.98	2220.00
380.19	2338.78
380.41	2240.48
380.62	2328.54
380.83	2203.61
381.05	2187.23
381.26	2338.78
381.47	2334.68
381.69	2242.53
381.90	2426.84
382.12	2256.86
382.33	2254.81
382.54	2306.01
382.76	2385.88
382.97	2306.01
383.19	2265.05
383.40	2291.68
383.61	2330.59
383.83	2289.63
384.04	2310.11
384.25	2420.70
384.47	2355.16
384.68	2392.03
384.89	2310.11
385.11	2359.26
385.32	2271.20
385.54	2375.64
385.75	2275.29
385.96	2387.93
386.18	2359.26
386.39	2410.46
386.60	2346.97
386.82	2469.85
387.03	2428.89
387.24	2439.13
387.46	2459.61
387.67	2447.32
387.88	2467.80
388.10	2461.66
388.31	2488.28
388.52	2478.04
388.74	2525.15
388.95	2478.04
389.16	2465.75
389.38	2451.42
389.59	2480.09
389.80	2631.64
390.02	2564.06
390.23	2607.06
390.44	2500.57
390.66	2488.28
390.87	2437.08
391.08	2500.57
391.30	2713.56
391.51	2596.82
391.72	2566.10
391.94	2564.06
392.15	2568.15
392.36	2564.06
392.58	2658.26
392.79	2684.89
393.00	2670.55
393.22	2674.65
393.43	2723.80
393.64	2797.53
393.85	2752.47
394.07	2645.98
394.28	2676.70
394.49	2695.13
394.71	2725.85
394.92	2820.05
395.13	2674.65
395.35	2752.47
395.56	2721.75
395.77	2680.79
395.98	2793.43
396.20	2775.00
396.41	2840.53
396.62	2875.35
396.84	2783.19
397.05	2910.16
397.26	2885.59
397.47	2924.50
397.69	2719.70
397.90	3024.85
398.11	2918.36
398.32	2910.16
398.54	2779.09
398.75	2875.35
398.96	2949.08
399.18	3055.57
399.39	2979.79
399.60	2895.83
399.81	3037.14
400.03	2889.68
400.24	3153.87
400.45	2987.99
400.66	2959.31
400.88	2969.55
401.09	3104.72
401.30	3000.27
401.51	3123.15
401.73	3059.67
401.94	3213.26
402.15	3117.01
402.36	3139.54
402.58	3213.26
402.79	3176.40
403.00	3121.10
403.21	3162.06
403.43	3188.69
403.64	3278.80
403.85	3047.38
404.06	3200.98
404.27	3039.19
404.49	3215.31
404.70	3157.97
404.91	3272.65
405.12	3209.17
405.34	3233.74
405.55	3416.01
405.76	3076.05
405.97	3233.74
406.19	3434.44
406.40	3235.79
406.61	3354.57
406.82	3336.14
407.03	3383.24
407.25	3246.03
407.46	3391.44
407.67	3430.35
407.88	3512.27
408.09	3276.75
408.31	3542.99
408.52	3426.25
408.73	3358.67
408.94	3336.14
409.15	3542.99
409.37	3389.39
409.58	3571.66
409.79	3524.55
410.00	3424.20
410.21	3444.68
410.43	3375.05
410.64	3471.31
410.85	3653.58
411.06	3473.36
411.27	3567.56
411.48	3618.76
411.70	3475.40
411.91	3448.78
412.12	3676.10
412.33	3592.14
412.54	3522.51
412.76	3649.48
412.97	3624.90
413.18	3559.37
413.39	3700.68
413.60	3688.39
413.81	3737.54
414.03	3626.95
414.24	3733.45
414.45	3758.02
414.66	3577.80
414.87	3641.29
415.08	3624.90
415.30	3721.16
415.51	3790.79
415.72	3758.02
415.93	3776.45
416.14	3727.30
416.35	3690.44
416.56	3874.76
416.78	3780.55
416.99	3768.26
417.20	3780.55
417.41	3858.37
417.62	3909.57
417.83	3952.58
418.04	3872.71
418.26	3954.63
418.47	3848.13
418.68	3958.72
418.89	3909.57
419.10	4083.65
419.31	3901.38
419.52	4091.84
419.73	3905.48
419.95	4112.32
420.16	3891.14
420.37	3880.90
420.58	4079.55
420.79	3760.07
421.00	3985.35
421.21	3997.64
421.42	3981.25
421.63	4132.80
421.85	3915.72
422.06	4106.18
422.27	4153.28
422.48	4169.66
422.69	4083.65
422.90	4186.05
423.11	4259.78
423.32	4214.72
423.53	4353.98
423.75	4231.10
423.96	4429.76
424.17	4335.55
424.38	4478.91
424.59	4198.34
424.80	4487.10
425.01	4370.37
425.22	4184.00
425.43	4419.52
425.64	4556.73
425.85	4474.81
426.06	4411.32
426.28	4368.32
426.49	4411.32
426.70	4452.28
426.91	4526.01
427.12	4665.27
427.33	4640.70
427.54	4497.34
427.75	4671.42
427.96	4685.75
428.17	4650.94
428.38	4571.07
428.59	4679.61
428.80	4605.88
429.01	4720.57
429.23	4716.47
429.44	4769.72
429.65	4878.26
429.86	4835.25
430.07	4712.38
430.28	4763.58
430.49	4859.83
430.70	4890.55
430.91	5091.25
431.12	4896.69
431.33	5146.55
431.54	5060.53
431.75	5023.67
431.96	4999.09
432.17	5033.91
432.38	5074.87
432.59	5382.06
432.80	5138.35
433.01	5207.98
433.22	5261.23
433.43	5181.36
433.64	5271.47
433.85	5181.36
434.06	5302.19
434.27	5246.90
434.49	5349.29
434.70	5337.01
434.91	5377.97
435.12	5455.79
435.33	5425.07
435.54	5541.80
435.75	5287.86
435.96	5369.77
436.17	5302.19
436.38	5439.40
436.59	5670.83
436.80	5361.58
437.01	5703.59
437.22	5683.11
437.43	5750.70
437.64	5382.06
437.85	5666.73
438.06	5707.69
438.27	5474.22
438.48	5730.22
438.69	5863.33
438.90	5867.43
439.11	5621.67
439.32	5932.97
439.53	5916.58
439.74	5887.91
439.95	5967.78
440.16	5900.20
440.37	5820.33
440.57	5808.04
440.78	5851.05
440.99	5889.96
441.20	5951.40
441.41	5908.39
441.62	5928.87
441.83	5910.44
442.04	6049.70
442.25	6018.98
442.46	6016.93
442.67	6098.85
442.88	6582.17
443.09	6102.95
443.30	6307.74
443.51	6139.81
443.72	6350.75
443.93	6102.95
444.14	6471.58
444.35	6158.24
444.56	6352.80
444.77	6279.07
444.98	6336.42
445.19	6496.16
445.40	6379.42
445.61	6326.18
445.81	6481.82
446.02	6528.92
446.23	6436.77
446.44	6207.39
446.65	6528.92
446.86	6553.50
447.07	6573.98
447.28	6606.75
447.49	6680.47
447.70	6612.89
447.91	6678.43
448.12	6705.05
448.33	6688.67
448.54	6754.20
448.74	6598.56
448.95	6819.74
449.16	6768.54
449.37	6942.61
449.58	6842.26
449.79	6952.85
450.00	6829.98
450.21	6918.04
450.42	6924.18
450.63	6987.67
450.84	6981.53
451.05	6995.86
451.25	6977.43
451.46	6844.31
451.67	7208.85
451.88	7196.56
452.09	7088.02
452.30	7260.05
452.51	7057.30
452.72	7296.91
452.93	7405.46
453.13	7137.17
453.34	7108.50
453.55	7212.95
453.76	7174.03
453.97	7573.39
454.18	7331.73
454.39	7450.51
454.60	7376.78
454.81	7423.89
455.01	7440.27
455.22	7258.00
455.43	7444.37
455.64	7710.60
455.85	7772.04
456.06	7860.10
456.27	7679.88
456.48	7577.48
456.68	7694.22
456.89	7821.19
457.10	7802.76
457.31	7982.98
457.52	7774.09
457.73	7919.50
457.94	8034.18
458.14	7724.94
458.35	8144.77
458.56	8038.28
458.77	8089.48
458.98	8191.88
459.19	8075.14
459.39	8327.04
459.60	8460.16
459.81	8255.36
460.02	8359.81
460.23	8341.38
460.44	8517.50
460.65	8398.72
460.85	8419.20
461.06	8570.75
461.27	8404.86
461.48	8695.68
461.69	8589.18
461.89	8628.09
462.10	8671.10
462.31	8468.35
462.52	8607.61
462.73	8640.38
462.94	8900.47
463.14	8798.07
463.35	8949.62
463.56	9293.68
463.77	9142.13
463.98	9043.83
464.18	9164.66
464.39	9375.60
464.60	9389.94
464.81	9260.91
465.02	9105.27
465.23	9527.15
465.43	9402.22
465.64	9736.04
465.85	9609.07
466.06	9617.26
466.27	9799.53
466.47	9770.86
466.68	9523.05
466.89	9854.83
467.10	9955.18
467.30	9836.39
467.51	9877.35
467.72	10145.64
467.93	9787.24
468.14	10141.54
468.34	10297.19
468.55	10211.17
468.76	10391.39
468.97	10076.01
469.17	10295.14
469.38	10569.57
469.59	10735.45
469.80	10450.78
470.01	10547.04
470.21	10622.81
470.42	10764.12
470.63	11034.46
470.84	10835.80
471.04	11036.50
471.25	11136.85
471.46	11130.71
471.67	11388.75
471.87	11177.81
472.08	11331.41
472.29	11419.47
472.50	11210.58
472.70	11503.44
472.91	11593.55
473.12	11657.04
473.33	11798.35
473.53	11831.12
473.74	11810.64
473.95	12185.41
474.16	12046.15
474.36	12173.13
474.57	12418.88
474.78	12451.65
474.99	12470.08
475.19	12289.86
475.40	12726.08
475.61	12838.72
475.81	12822.33
476.02	12949.31
476.23	12842.81
476.44	13016.89
476.64	13438.77
476.85	13432.63
477.06	13205.30
477.27	13727.53
477.47	13508.40
477.68	13702.96
477.89	13893.42
478.09	13829.93
478.30	13907.76
478.51	13928.24
478.71	14118.70
478.92	13971.24
479.13	14399.27
479.34	14530.34
479.54	14505.76
479.75	14395.17
479.96	14550.82
480.16	14849.82
480.37	14817.05
480.58	15071.00
480.78	15277.85
480.99	15120.15
481.20	15324.95
481.41	15413.01
481.61	15666.96
481.82	15554.32
482.03	15425.30
482.23	15316.76
482.44	15773.46
482.65	15802.13
482.85	15845.13
483.06	15988.49
483.27	16322.31
483.47	16043.79
483.68	16324.36
483.89	16226.06
484.09	16391.94
484.30	16721.66
484.51	16848.64
484.71	16807.68
484.92	16807.68
485.13	17020.67
485.33	17063.68
485.54	16744.19
485.75	17284.86
485.95	17551.09
486.16	17219.32
486.37	17721.07
486.57	17565.43
486.78	17569.52
486.98	17772.27
487.19	17907.44
487.40	18108.14
487.60	17991.41
487.81	18218.73
488.02	18099.95
488.22	18401.00
488.43	18202.35
488.64	18603.75
488.84	18456.29
489.05	18589.41
489.25	18521.83
489.46	19015.39
489.67	18667.24
489.87	18958.05
490.08	18984.67
490.29	18826.98
490.49	19742.42
490.70	19089.12
490.90	19312.35
491.11	19388.12
491.32	19642.07
491.52	19971.79
491.73	19865.30
491.94	19691.22
492.14	19693.27
492.35	20045.52
492.55	20258.51
492.76	19926.74
492.97	20326.09
493.17	20420.30
493.38	20375.24
493.58	20637.38
493.79	20553.41
494.00	20795.07
494.20	20784.83
494.41	20909.76
494.61	21087.93
494.82	20995.78
495.02	20979.39
495.23	20807.36
495.44	21212.86
495.64	21518.01
495.85	21444.28
496.05	21681.85
496.26	21481.14
496.47	21491.38
496.67	21591.73
496.88	21659.32
497.08	21585.59
497.29	22097.58
497.49	21771.96
497.70	21798.58
497.91	21929.65
498.11	22412.97
498.32	22204.08
498.52	22427.31
498.73	22523.56
498.93	22347.44
499.14	22544.04
499.34	22460.07
499.55	22845.09
499.76	22648.49
499.96	22691.49
500.17	22347.44
500.37	22974.11
500.58	22779.56
500.78	23133.86
500.99	23037.60
501.19	23142.05
501.40	23160.48
501.60	22707.88
501.81	23301.79
502.02	23352.99
502.22	23320.22
502.43	23541.40
502.63	23672.47
502.84	23764.63
503.04	23580.31
503.25	23725.72
503.45	23713.43
503.66	23727.77
503.86	23733.91
504.07	24159.89
504.27	23998.10
504.48	24460.94
504.68	24213.13
504.89	24286.86
505.09	24278.67
505.30	24508.04
505.50	24444.56
505.71	24475.27
505.91	24458.89
506.12	24405.64
506.32	24395.40
506.53	24667.78
506.73	24610.44
506.94	24811.14
507.14	24837.76
507.35	25140.86
507.55	24929.92
507.76	25093.76
507.96	25159.30
508.17	25292.41
508.37	25044.61
508.58	25323.13
508.78	25421.44
508.99	25646.71
509.19	25185.92
509.40	25425.53
509.60	25646.71
509.81	25761.40
510.01	25622.14
510.22	25505.40
510.42	25685.62
510.63	25763.45
510.83	25898.61
511.04	25888.37
511.24	26357.36
511.44	26023.54
511.65	25912.95
511.85	25917.04
512.06	26068.59
512.26	26283.63
512.47	26271.34
512.67	26328.69
512.88	26289.77
513.08	25874.04
513.29	26527.34
513.49	26492.52
513.69	26617.45
513.90	26527.34
514.10	26674.79
514.31	26906.21
514.51	26746.47
514.72	26570.35
514.92	26697.32
515.13	26701.42
515.33	27100.77
515.53	26830.44
515.74	27143.78
515.94	27037.28
516.15	27379.29
516.35	26971.75
516.56	27336.29
516.76	26928.74
516.96	27661.91
517.17	27618.91
517.37	27663.96
517.58	27487.84
517.78	27612.76
517.99	27938.39
518.19	27586.14
518.39	28036.69
518.60	28104.28
518.80	27971.16
519.01	28339.79
519.21	27958.87
519.41	28184.15
519.62	28311.12
519.82	28319.31
520.03	28565.07
520.23	28397.13
520.43	28614.22
520.64	28902.98
520.84	28997.19
521.05	28563.02
521.25	28941.89
521.45	28737.10
521.66	29247.04
521.86	28900.94
522.07	29265.47
522.27	29439.55
522.47	29324.86
522.68	29765.18
522.88	29474.37
523.08	29781.56
523.29	29888.06
523.49	29873.72
523.70	29726.27
523.90	30305.84
524.10	29959.73
524.31	30074.42
524.51	30131.76
524.71	30385.71
524.92	30193.20
525.12	30381.62
525.33	30590.51
525.53	30760.49
525.73	30895.66
525.94	31211.04
526.14	30858.79
526.34	31161.89
526.55	31460.90
526.75	31047.21
526.95	31383.07
527.16	31192.61
527.36	31370.79
527.56	31956.50
527.77	32103.96
527.97	31774.24
528.17	31772.19
528.38	32089.62
528.58	31942.17
528.78	32255.51
528.99	32353.81
529.19	32538.13
529.39	32030.23
529.60	32568.85
529.80	32445.97
530.00	32204.31
530.21	32833.04
530.41	32974.34
530.61	32572.94
530.82	32804.36
531.02	32765.45
531.22	33011.21
531.43	33195.53
531.63	33488.38
531.83	33582.59
532.04	34270.71
532.24	33697.28
532.44	33793.53
532.64	33877.50
532.85	33805.82
533.05	34270.71
533.25	34022.90
533.46	33951.23
533.66	34487.79
533.86	34481.65
534.07	34930.16
534.27	34545.14
534.47	34936.30
534.67	34940.39
534.88	34887.15
535.08	35026.41
535.28	34977.26
535.49	35345.89
535.69	35546.59
535.89	35214.82
536.09	35626.46
536.30	35581.41
536.50	35585.50
536.70	35925.47
536.91	35646.94
537.11	35765.73
537.31	36138.46
537.51	35855.84
537.72	36279.77
537.92	36605.39
538.12	36589.01
538.32	36156.89
538.53	36611.54
538.73	36619.73
538.93	36675.02
539.13	36765.14
539.34	36609.49
539.54	36754.90
539.74	37170.63
539.94	36824.53
540.15	37008.84
540.35	37092.81
540.55	37025.23
540.75	37301.70
540.96	37469.64
541.16	37553.60
541.36	37952.96
541.56	37375.43
541.77	37828.03
541.97	37998.01
542.17	37936.57
542.37	37950.91
542.58	37615.04
542.78	37932.48
542.98	37895.61
543.18	38026.68
543.38	38602.16
543.59	38319.54
543.79	38327.74
543.99	38501.81
544.19	38540.72
544.40	38528.44
544.60	38694.32
544.80	38460.85
545.00	38696.37
545.20	39042.48
545.41	38233.53
545.61	38774.19
545.81	39400.87
546.01	39177.64
546.21	38843.82
546.42	38684.08
546.62	39321.00
546.82	39122.35
547.02	39173.55
547.22	39095.72
547.43	39290.28
547.63	39277.99
547.83	39413.16
548.03	39265.70
548.23	39724.45
548.44	39822.75
548.64	39849.38
548.84	39787.94
549.04	39392.68
549.24	39955.87
549.45	39986.59
549.65	39640.48
549.85	40226.20
550.05	40344.98
550.25	40007.07
550.45	40109.47
550.66	39990.69
550.86	40060.32
551.06	40488.34
551.26	40301.98
551.46	40527.25
551.66	40650.13
551.87	40045.98
552.07	40512.92
552.27	40572.31
552.47	40154.52
552.67	40455.57
552.87	40461.72
553.07	40916.37
553.28	40693.14
553.48	40539.54
553.68	40623.51
553.88	41153.93
554.08	40713.62
554.28	40813.97
554.48	40742.29
554.69	40797.59
554.89	41053.58
555.09	41074.06
555.29	40727.95
555.49	41260.43
555.69	40926.61
555.89	41084.30
556.10	41235.85
556.30	41026.96
556.50	41624.96
556.70	41334.15
556.90	41655.68
557.10	41436.55
557.30	40990.09
557.50	41448.84
557.70	41055.63
557.91	41872.77
558.11	41731.46
558.31	41856.39
558.51	41530.76
558.71	41475.46
558.91	41639.30
559.11	41710.98
559.31	41631.11
559.51	41557.38
559.72	41655.68
559.92	41807.23
560.12	41624.96
560.32	41858.43
560.52	42112.38
560.72	41719.17
560.92	42188.16
561.12	42173.82
561.32	41913.73
561.52	42087.81
561.72	42904.95
561.93	42200.44
562.13	42239.36
562.33	41909.63
562.53	42724.72
562.73	42249.60
562.93	42497.40
563.13	42542.45
563.33	42329.47
563.53	42149.24
563.73	42173.82
563.93	42575.22
564.13	42964.34
564.33	42763.64
564.53	42407.29
564.74	42919.28
564.94	42132.86
565.14	42579.32
565.34	42175.87
565.54	42939.76
565.74	42712.44
565.94	42734.96
566.14	42878.32
566.34	42784.12
566.54	43246.96
566.74	43025.78
566.94	43152.75
567.14	42923.38
567.34	42982.77
567.54	43165.04
567.74	42792.31
567.94	43001.20
568.14	43474.28
568.34	43674.98
568.54	43197.80
568.74	43451.75
568.94	43482.47
569.14	43443.56
569.34	43734.37
569.54	43869.54
569.75	43279.72
569.95	43840.87
570.15	43930.98
570.35	43634.02
570.55	43576.68
570.75	43570.54
570.95	43984.22
571.15	43816.29
571.35	43638.12
571.55	44096.86
571.75	43959.65
571.95	44182.88
572.15	44498.26
572.35	44322.14
572.55	43959.65
572.75	44107.10
572.95	44285.28
573.15	44117.34
573.35	44105.06
573.55	44160.35
573.75	44545.37
573.95	44524.89
574.15	44578.14
574.35	44717.40
574.55	44365.15
574.75	44393.82
574.95	44772.69
575.15	44774.74
575.34	44768.60
575.54	45264.21
575.74	44811.60
575.94	45067.60
576.14	45389.13
576.34	45444.43
576.54	45055.31
576.74	45311.31
576.94	45141.33
577.14	45450.57
577.34	45626.70
577.54	45327.69
577.74	45270.35
577.94	45475.15
578.14	45507.91
578.34	45811.01
578.54	45464.91
578.74	45434.19
578.94	45780.29
579.14	45653.32
579.34	45688.13
579.54	46370.11
579.74	46349.63
579.94	46169.41
580.13	46304.57
580.33	46136.64
580.53	46699.83
580.73	46634.30
580.93	46486.84
581.13	46380.35
581.33	46767.41
581.53	46535.99
581.73	46515.51
581.93	47043.89
582.13	47166.77
582.33	46959.92
582.53	46830.90
582.73	47101.23
582.92	46921.01
583.12	47371.57
583.32	47123.76
583.52	46964.02
583.72	47363.37
583.92	47232.30
584.12	47334.70
584.32	48039.20
584.52	47183.15
584.72	47635.75
584.92	47871.27
585.11	48252.19
585.31	47920.42
585.51	47971.62
585.71	47545.64
585.91	47971.62
586.11	47926.56
586.31	47975.72
586.51	48356.64
586.71	48104.74
586.91	48510.24
587.10	48852.25
587.30	48635.16
587.50	48583.96
587.70	48471.32
587.90	48598.30
588.10	48395.55
588.30	48661.79
588.50	49038.61
588.69	48868.63
588.89	48538.91
589.09	49032.47
589.29	49358.09
589.49	49337.62
589.69	48809.24
589.89	49317.14
590.08	49020.18
590.28	49501.45
590.48	49222.93
590.68	49149.20
590.88	49407.25
591.08	49618.19
591.28	48966.93
591.47	49661.19
591.67	49497.36
591.87	49540.36
592.07	49642.76
592.27	49890.57
592.47	49591.56
592.67	49861.90
592.86	49808.65
593.06	49804.55
593.26	49610.00
593.46	49769.74
593.66	49968.39
593.86	50042.12
594.05	50476.29
594.25	50183.43
594.45	50099.46
594.65	50269.44
594.85	49939.72
595.05	50459.90
595.24	50388.22
595.44	50341.12
595.64	50285.82
595.84	50920.70
596.04	50476.29
596.23	50687.23
596.43	50302.21
596.63	50351.36
596.83	50867.45
597.03	50824.44
597.22	51195.12
597.42	51088.63
597.62	51291.38
597.82	51289.33
598.02	51025.14
598.21	51586.28
598.41	50982.13
598.61	51336.43
598.81	51406.06
599.01	51537.13
599.20	51197.17
599.40	51590.38
599.60	51741.93
599.80	51705.07
600.00	52077.80
600.19	52208.87
600.39	51539.18
600.59	51844.33
600.79	51875.05
600.98	51821.80
601.18	52088.04
601.38	52477.15
601.58	52010.21
601.78	52163.81
601.97	52180.20
602.17	52729.05
602.37	52290.79
602.57	52597.98
602.76	52716.76
602.96	52378.85
603.16	52794.59
603.36	52368.61
603.55	53007.58
603.75	52655.32
603.95	52954.33
604.15	52739.29
604.34	52847.83
604.54	52909.27
604.74	53122.26
604.94	53034.20
605.13	52432.10
605.33	52806.87
605.53	52765.91
605.73	53552.33
605.92	53265.62
606.12	53542.10
606.32	53349.59
606.52	53425.36
606.71	53613.77
606.91	53423.31
607.11	52935.90
607.30	53480.66
607.50	53105.88
607.70	53554.38
607.90	53558.48
608.09	53605.58
608.29	53458.13
608.49	53288.15
608.68	53722.32
608.88	53920.97
609.08	53941.45
609.28	53652.69
609.47	53466.32
609.67	54265.03
609.87	53714.12
610.06	54377.67
610.26	53857.48
610.46	54308.04
610.66	53601.49
610.85	54021.32
611.05	53753.04
611.25	53904.59
611.44	53624.01
611.64	54277.32
611.84	53523.66
612.03	54277.32
612.23	54080.71
612.43	54099.14
612.62	53705.93
612.82	54207.68
613.02	54183.11
613.21	54322.37
613.41	53888.20
613.61	54381.76
613.80	53595.34
614.00	54095.05
614.20	53912.78
614.39	54441.15
614.59	53828.81
614.79	53834.95
614.98	54047.94
615.18	54123.72
615.38	54459.58
615.57	54029.51
615.77	53927.11
615.97	54056.14
616.16	53992.65
616.36	53955.78
616.56	54412.48
616.75	54301.89
616.95	53865.67
617.15	53685.45
617.34	54320.32
617.54	54244.55
617.74	54641.85
617.93	54189.25
618.13	53546.19
618.32	54088.90
618.52	53880.01
618.72	53916.87
618.91	54111.43
619.11	54156.49
619.31	54234.31
619.50	53916.87
619.70	53376.21
619.90	53894.35
620.09	53900.49
620.29	53750.99
620.48	54017.22
620.68	54201.54
620.88	54056.14
621.07	53691.60
621.27	54252.74
621.46	53701.84
621.66	53781.71
621.86	53929.16
622.05	53810.38
622.25	53986.50
622.44	53738.70
622.64	53277.91
622.84	54045.90
623.03	53914.83
623.23	53781.71
623.42	53707.98
623.62	53959.88
623.82	53937.35
624.01	53978.31
624.21	54015.18
624.40	53773.52
624.60	53785.80
624.80	53492.94
624.99	53857.48
625.19	53318.87
625.38	53945.54
625.58	53728.46
625.77	53656.78
625.97	53613.77
626.17	53523.66
626.36	54119.62
626.56	53558.48
626.75	52884.70
626.95	53859.53
627.14	53763.28
627.34	54418.63
627.54	53832.91
627.73	53636.30
627.93	53505.23
628.12	53376.21
628.32	53519.57
628.51	53794.00
628.71	53699.79
628.90	53322.96
629.10	53542.10
629.30	53542.10
629.49	53484.75
629.69	53656.78
629.88	53564.62
630.08	54006.98
630.27	53988.55
630.47	53585.10
630.66	53572.81
630.86	53419.22
631.05	53126.36
631.25	53845.19
631.44	53624.01
631.64	53755.08
631.84	53865.67
632.03	53990.60
632.23	53761.23
632.42	53785.80
632.62	53703.88
632.81	53304.53
633.01	53425.36
633.20	53923.02
633.40	54027.46
633.59	54064.33
633.79	53636.30
633.98	53916.87
634.18	53734.60
634.37	53941.45
634.57	53683.40
634.76	54045.90
634.96	53554.38
635.15	53736.65
635.35	53400.79
635.54	53877.96
635.74	54281.41
635.93	53386.45
636.13	54097.09
636.32	54015.18
636.52	53437.65
636.71	53372.11
636.91	54322.37
637.10	54348.99
637.30	53984.46
637.49	54021.32
637.69	53671.12
637.88	54381.76
638.08	53855.43
638.27	54473.92
638.46	53943.50
638.66	53787.85
638.85	53904.59
639.05	53945.54
639.24	53720.27
639.44	53826.76
639.63	54162.63
639.83	53974.22
640.02	54109.38
640.22	54037.70
640.41	54453.44
640.61	53605.58
640.80	54084.81
640.99	54144.20
641.19	54387.91
641.38	54119.62
641.58	54373.57
641.77	53941.45
641.97	53568.72
642.16	54363.33
642.36	54512.83
642.55	54736.06
642.74	54236.36
642.94	54539.46
643.13	54156.49
643.33	54680.77
643.52	54783.16
643.72	54465.73
643.91	54535.36
644.10	54625.47
644.30	54656.19
644.49	54486.21
644.69	54623.42
644.88	54596.80
645.08	54234.31
645.27	54465.73
645.46	54490.30
645.66	54674.62
645.85	54502.59
646.05	54664.38
646.24	54465.73
646.43	54744.25
646.63	54940.86
646.82	55026.87
647.02	55069.88
647.21	54801.60
647.40	54656.19
647.60	54920.38
647.79	55184.57
647.99	55059.64
648.18	54756.54
648.37	55747.76
648.57	55344.31
648.76	55059.64
648.96	54746.30
649.15	55278.77
649.34	55198.90
649.54	55346.36
649.73	54959.29
649.92	55164.09
650.12	55260.34
650.31	55514.29
650.51	55719.09
650.70	55516.34
650.89	55090.36
651.09	55962.79
651.28	55665.84
651.47	55493.81
651.67	55403.70
651.86	55788.72
652.06	54981.82
652.25	55862.44
652.44	55639.22
652.64	55227.57
652.83	55608.50
653.02	54910.14
653.22	55270.58
653.41	55669.93
653.60	55385.27
653.80	55743.66
653.99	55887.02
654.18	55739.57
654.38	55669.93
654.57	55647.41
654.76	55624.88
654.96	55708.85
655.15	55897.26
655.34	55317.68
655.54	55452.85
655.73	55432.37
655.92	56001.71
656.12	55579.82
656.31	56108.20
656.50	55837.87
656.70	56190.12
656.89	55864.49
657.08	55981.23
657.28	55844.01
657.47	55932.07
657.66	55854.25
657.86	55938.22
658.05	55950.51
658.24	55940.27
658.43	55831.72
658.63	56085.67
658.82	55704.75
659.01	56208.55
659.21	56564.90
659.40	56644.77
659.59	56190.12
659.79	56749.21
659.98	56341.67
660.17	56353.96
660.36	56343.72
660.56	56229.03
660.75	56478.88
660.94	56317.09
661.14	56628.38
661.33	56462.50
661.52	55719.09
661.71	56509.60
661.91	56241.32
662.10	56108.20
662.29	56657.06
662.49	56505.51
662.68	56054.95
662.87	56052.90
663.06	56087.72
663.26	56734.88
663.45	56616.10
663.64	56417.44
663.83	56943.77
664.03	56544.42
664.22	56407.20
664.41	56865.95
664.60	56521.89
664.80	56503.46
664.99	56657.06
665.18	56898.72
665.37	56966.30
665.57	56816.80
665.76	56257.70
665.95	56677.54
666.14	56239.27
666.34	56990.87
666.53	56577.18
666.72	56380.58
666.91	56444.07
667.11	56300.71
667.30	56857.76
667.49	56530.08
667.68	56667.30
667.87	56016.04
668.07	56612.00
668.26	56710.30
668.45	56521.89
668.64	56554.66
668.84	57470.10
669.03	56870.04
669.22	56788.13
669.41	56976.54
669.60	56777.89
669.80	56796.32
669.99	56814.75
670.18	56798.37
670.37	56861.85
670.57	57177.24
670.76	56835.23
670.95	56974.49
671.14	56927.39
671.33	56706.21
671.53	57570.45
671.72	56792.22
671.91	56833.18
672.10	56818.84
672.29	56706.21
672.48	56579.23
672.68	57119.90
672.87	56665.25
673.06	56771.74
673.25	56693.92
673.44	56214.69
673.64	56456.35
673.83	56562.85
674.02	56237.22
674.21	56177.83
674.40	57181.34
674.59	56292.52
674.79	56640.67
674.98	56489.12
675.17	56661.15
675.36	56505.51
675.55	56843.42
675.74	56415.40
675.94	56331.43
676.13	56880.28
676.32	56917.15
676.51	57087.13
676.70	56439.97
676.89	56870.04
677.08	57087.13
677.28	56724.64
677.47	57111.70
677.66	56857.76
677.85	56642.72
678.04	56548.51
678.23	57029.79
678.42	57296.02
678.62	56935.58
678.81	56857.76
679.00	56622.24
679.19	57140.38
679.38	56452.26
679.57	56427.68
679.76	56603.81
679.96	56882.33
680.15	56474.79
680.34	56366.24
680.53	56439.97
680.72	56911.00
680.91	56931.48
681.10	56431.78
681.29	56851.61
681.48	56419.49
681.68	56550.56
681.87	56319.14
682.06	56532.13
682.25	56085.67
682.44	55973.03
682.63	56022.19
682.82	55764.14
683.01	56220.84
683.20	55590.06
683.39	56446.11
683.59	55940.27
683.78	56013.99
683.97	55938.22
684.16	56241.32
684.35	55962.79
684.54	56196.26
684.73	56118.44
684.92	55471.28
685.11	55792.81
685.30	56042.66
685.49	55940.27
685.69	56054.95
685.88	55809.20
686.07	55792.81
686.26	55927.98
686.45	56276.13
686.64	55964.84
686.83	55674.03
687.02	55663.79
687.21	55968.94
687.40	55973.03
687.59	55835.82
687.78	55743.66
687.97	55782.57
688.16	55792.81
688.35	55676.08
688.54	55526.58
688.74	55821.48
688.93	55618.74
689.12	55688.37
689.31	55434.42
689.50	55663.79
689.69	55497.91
689.88	55022.78
690.07	55547.06
690.26	55569.58
690.45	55454.90
690.64	55592.11
690.83	55698.61
691.02	55213.24
691.21	55370.93
691.40	54932.67
691.59	55364.79
691.78	54768.83
691.97	55403.70
692.16	55078.07
692.35	55352.50
692.54	55725.23
692.73	55385.27
692.92	54901.95
693.11	55153.85
693.30	54963.39
693.49	54975.67
693.68	54785.21
693.87	54824.12
694.06	54545.60
694.25	54535.36
694.44	54658.24
694.63	54383.81
694.82	54758.59
695.01	54719.68
695.20	54686.91
695.39	54580.42
695.58	54893.75
695.77	54308.04
695.96	54262.98
696.15	54691.01
696.34	54174.92
696.53	54215.88
696.72	54627.52
696.91	54435.01
697.10	54342.85
697.29	54467.78
697.48	54385.86
697.67	54230.21
697.86	53968.07
698.05	54154.44
698.24	54568.13
698.43	53937.35
698.62	54105.29
698.81	53656.78
699.00	54150.34
699.19	53884.11
699.38	54305.99
699.57	53734.60
699.76	54181.06
699.95	53386.45
700.14	53507.28
700.32	53929.16
700.51	53837.00
700.70	54093.00
700.89	53839.05
701.08	53726.41
701.27	53966.02
701.46	53841.10
701.65	53257.43
701.84	53384.40
702.03	53478.61
702.22	53030.10
702.41	53091.54
702.60	53646.54
702.79	53138.65
702.98	52880.60
703.17	53083.35
703.35	52870.36
703.54	52784.35
703.73	52847.83
703.92	52835.55
704.11	52813.02
704.30	52270.31
704.49	52784.35
704.68	52950.23
704.87	52622.56
705.06	52665.56
705.25	52464.86
705.43	52989.14
705.62	52866.27
705.81	52417.76
706.00	52393.18
706.19	52399.33
706.38	52065.51
706.57	52118.76
706.76	52194.53
706.95	52182.24
707.14	51803.37
707.32	52335.84
707.51	51801.32
707.70	52204.77
707.89	52139.24
708.08	52360.42
708.27	52151.52
708.46	52176.10
708.65	52061.41
708.84	52313.31
709.02	52153.57
709.21	52501.73
709.40	51770.60
709.59	52210.92
709.78	51465.45
709.97	52165.86
710.16	51557.61
710.34	51713.26
710.53	51639.53
710.72	51461.36
710.91	51850.47
711.10	51565.81
711.29	51594.48
711.48	51643.63
711.66	51508.46
711.85	51199.22
712.04	51283.19
712.23	51449.07
712.42	51289.33
712.61	51408.11
712.80	51141.88
712.98	51492.08
713.17	50803.96
713.36	51121.40
713.55	50986.23
713.74	51234.03
713.93	51168.50
714.11	51045.62
714.30	51182.84
714.49	50623.74
714.68	51021.05
714.87	51293.43
715.06	50760.95
715.24	50803.96
715.43	50470.14
715.62	50631.93
715.81	50367.74
716.00	51172.60
716.18	50380.03
716.37	50369.79
716.56	50078.98
716.75	50791.67
716.94	50267.39
717.12	50066.69
717.31	50410.75
717.50	50052.36
717.69	50263.30
717.88	50464.00
718.06	50038.02
718.25	50646.27
718.44	49913.09
718.63	49888.52
718.82	49548.56
719.00	49929.48
719.19	49638.67
719.38	49710.35
719.57	49104.15
719.76	49169.68
719.94	49102.10
720.13	49546.51
720.32	49161.49
720.51	49161.49
720.69	49372.43
720.88	49292.56
721.07	48913.69
721.26	48612.63
721.44	48534.81
721.63	49124.63
721.82	48772.38
722.01	48583.96
722.20	48862.49
722.38	48495.90
722.57	48563.48
722.76	48626.97
722.95	48555.29
723.13	47709.48
723.32	48069.92
723.51	47936.80
723.70	48321.82
723.88	48026.92
724.07	48006.44
724.26	48379.17
724.44	47510.83
724.63	48086.31
724.82	47734.06
725.01	47815.97
725.19	47553.83
725.38	47940.90
725.57	47666.47
725.76	48069.92
725.94	47643.94
726.13	47912.23
726.32	47838.50
726.51	47453.48
726.69	48131.36
726.88	47666.47
727.07	47353.13
727.25	47553.83
727.44	47547.69
727.63	47430.96
727.82	47486.25
728.00	47529.26
728.19	47138.10
728.38	47779.11
728.56	47117.62
728.75	47719.72
728.94	47377.71
729.12	47586.60
729.31	47363.37
729.50	47363.37
729.69	47359.28
729.87	47383.85
730.06	47420.72
730.25	47643.94
730.43	47695.14
730.62	47260.97
730.81	47621.42
730.99	47596.84
731.18	47004.98
731.37	47379.76
731.55	47381.80
731.74	47338.80
731.93	47330.61
732.11	47557.93
732.30	47258.93
732.49	47004.98
732.67	47031.60
732.86	47586.60
733.05	47328.56
733.23	47359.28
733.42	47170.86
733.61	46892.34
733.79	47121.71
733.98	47371.57
734.17	47045.94
734.35	47002.93
734.54	47271.21
734.73	47394.09
734.91	47031.60
735.10	46705.98
735.29	47220.02
735.47	46988.60
735.66	46945.59
735.84	47277.36
736.03	46738.74
736.22	47068.47
736.40	46583.10
736.59	47070.51
736.78	46855.48
736.96	46665.02
737.15	46689.59
737.33	46535.99
737.52	46775.61
737.71	46775.61
737.89	46705.98
738.08	46462.27
738.27	46386.49
738.45	47072.56
738.64	46918.96
738.82	46822.71
739.01	46695.74
739.20	46421.31
739.38	46748.98
739.57	46871.86
739.75	46742.84
739.94	46499.13
740.13	46546.23
740.31	46617.91
740.50	46404.92
740.68	46488.89
740.87	46660.92
741.06	46587.19
741.24	46241.09
741.43	46329.15
741.61	46146.88
741.80	45974.85
741.99	46214.46
742.17	46273.85
742.36	46742.84
742.54	46183.74
742.73	46038.34
742.91	46439.74
743.10	46255.42
743.29	46439.74
743.47	46224.70
743.66	45808.96
743.84	45995.33
744.03	46196.03
744.21	46120.26
744.40	46333.24
744.59	45729.09
744.77	45751.62
744.96	46011.71
745.14	45788.49
745.33	46339.39
745.51	46193.98
745.70	45778.25
745.88	45995.33
746.07	45397.32
746.26	45581.64
746.44	45733.19
746.63	45796.68
746.81	46185.79
747.00	45772.10
747.18	45761.86
747.37	45825.35
747.55	45276.49
747.74	45765.96
747.92	45366.60
748.11	45614.41
748.29	45479.24
748.48	45765.96
748.66	45509.96
748.85	45733.19
749.03	45532.49
749.22	45032.78
749.41	45028.69
749.59	45692.23
749.78	45335.88
749.96	45038.93
750.15	45294.92
750.33	45389.13
750.52	45376.84
750.70	44934.48
750.89	44914.00
751.07	44850.52
751.26	45153.62
751.44	44899.67
751.63	45153.62
751.81	45188.43
752.00	45006.16
752.18	44950.87
752.37	44668.25
752.55	44260.70
752.74	44676.44
752.92	44709.21
753.10	44494.17
753.29	44856.66
753.47	44373.34
753.66	43980.13
753.84	44780.88
754.03	45034.83
754.21	44598.62
754.40	44862.80
754.58	44635.48
754.77	44365.15
754.95	44275.04
755.14	44420.44
755.32	44287.32
755.51	44365.15
755.69	44606.81
755.88	44553.56
756.06	44201.31
756.24	44146.01
756.43	44434.78
756.61	44266.84
756.80	44107.10
756.98	44107.10
757.17	44227.93
757.35	44359.00
757.54	44076.38
757.72	44582.23
757.90	44086.62
758.09	44139.87
758.27	44199.26
758.46	43828.58
758.64	43873.63
758.83	43726.18
759.01	44033.38
759.19	43795.81
759.38	44115.29
759.56	44148.06
759.75	43832.68
759.93	43859.30
760.12	43947.36
760.30	43316.59
760.48	43418.99
760.67	43441.51
760.85	43500.90
761.04	43881.83
761.22	43951.46
761.40	43591.01
761.59	43521.38
761.77	42974.58
761.96	43386.22
762.14	43259.24
762.32	43234.67
762.51	43609.45
762.69	43484.52
762.88	43378.03
763.06	43210.09
763.24	43758.95
763.43	43857.25
763.61	43386.22
763.80	43042.16
763.98	42685.81
764.16	42902.90
764.35	43083.12
764.53	42677.62
764.72	43552.10
764.90	42976.62
765.08	42841.46
765.27	43085.17
765.45	42378.62
765.63	42478.97
765.82	42855.79
766.00	42333.56
766.18	42519.93
766.37	43144.56
766.55	42931.57
766.74	42796.40
766.92	42777.97
767.10	42605.94
767.29	42530.17
767.47	42132.86
767.65	42429.82
767.84	41825.67
768.02	42241.40
768.20	42229.12
768.39	42392.95
768.57	42235.26
768.75	42427.77
768.94	42227.07
769.12	42083.71
769.30	41710.98
769.49	41764.23
769.67	41911.68
769.85	41522.57
770.04	41745.80
770.22	41489.80
770.40	41584.01
770.59	41618.82
770.77	41747.84
770.95	41614.72
771.14	41145.74
771.32	41100.68
771.50	41182.60
771.69	41217.42
771.87	41645.44
772.05	41268.62
772.24	40863.12
772.42	41268.62
772.60	41123.21
772.78	40871.31
772.97	40437.14
773.15	40863.12
773.33	40949.14
773.52	40973.71
773.70	41551.24
773.88	41301.39
774.07	40842.64
774.25	41192.84
774.43	41178.51
774.61	41227.66
774.80	41311.63
774.98	41418.12
775.16	41213.32
775.34	41207.18
775.53	40998.29
775.71	41405.83
775.89	41620.87
776.08	41371.02
776.26	41276.81
776.44	41491.85
776.62	41147.79
776.81	41108.88
776.99	41559.43
777.17	41274.76
777.35	41287.05
777.54	41368.97
777.72	41342.35
777.90	41373.06
778.08	41659.78
778.27	41530.76
778.45	41702.79
778.63	41708.93
778.81	41371.02
779.00	41764.23
779.18	41969.02
779.36	41784.71
779.54	41557.38
779.73	41606.53
779.91	41936.26
780.09	41698.69
780.27	41768.32
780.46	41534.85
780.64	42407.29
780.82	41622.92
781.00	41903.49
781.19	41981.31
781.37	42118.53
781.55	41891.20
781.73	42431.86
781.91	41796.99
782.10	41891.20
782.28	42077.57
782.46	41887.10
782.64	42085.76
782.82	41780.61
783.01	42239.36
783.19	42220.92
783.37	42124.67
783.55	42194.30
783.74	42433.91
783.92	42163.58
784.10	42624.37
784.28	42519.93
784.46	42175.87
784.64	42087.81
784.83	42280.31
785.01	42302.84
785.19	41889.15
785.37	42378.62
785.55	42098.05
785.74	41643.40
785.92	41655.68
786.10	42360.19
786.28	41809.28
786.46	41784.71
786.64	41616.77
786.83	41817.47
787.01	42173.82
787.19	41813.38
787.37	41592.20
787.55	41866.63
787.74	41973.12
787.92	41821.57
788.10	41340.30
788.28	41198.99
788.46	42052.99
788.64	41604.49
788.82	42110.33
789.01	41758.08
789.19	41811.33
789.37	41426.31
789.55	41547.14
789.73	41164.17
789.91	41198.99
790.09	41424.26
790.28	40926.61
790.46	40904.08
790.64	40883.60
790.82	40758.67
791.00	40766.87
791.18	40822.16
791.36	40514.97
791.55	40912.27
791.73	40261.02
791.91	40224.15
792.09	40293.79
792.27	40197.53
792.45	40457.62
792.63	40058.27
792.81	40021.41
793.00	39851.42
793.18	39794.08
793.36	40199.58
793.54	39822.75
793.72	39626.15
793.90	39630.24
794.08	39710.11
794.26	39462.31
794.44	39052.72
794.62	39097.77
794.81	39245.23
794.99	38999.47
795.17	39060.91
795.35	39122.35
795.53	39048.62
795.71	39216.55
795.89	38753.71
796.07	38679.99
796.25	38438.33
796.43	38229.43
796.61	38120.89
796.80	38211.00
796.98	38124.99
797.16	37713.34
797.34	37926.33
797.52	38135.23
797.70	38477.24
797.88	37856.70
798.06	37522.88
798.24	37895.61
798.42	37717.44
798.60	37508.55
798.78	37445.06
798.96	37518.79
799.14	37322.18
799.32	37203.40
799.51	36638.16
799.69	37088.71
799.87	37361.09
800.05	36779.47
800.23	37037.51
800.41	36812.24
800.59	36992.46
800.77	36513.23
800.95	36333.01
801.13	36437.46
801.31	36134.36
801.49	36142.55
801.67	35898.84
801.85	36107.74
802.03	35538.40
802.21	35696.10
802.39	35644.90
802.57	35882.46
802.75	35857.88
802.93	35462.63
803.11	35306.98
803.29	35657.18
803.47	35358.18
803.65	35335.65
803.83	35190.25
804.01	35153.38
804.19	34991.59
804.37	35005.93
804.55	34891.24
804.73	34622.96
804.91	34532.85
805.09	34481.65
805.27	34577.90
805.45	34721.26
805.63	34637.30
805.81	34747.89
805.99	34385.40
806.17	34311.67
806.35	34356.72
806.53	33920.51
806.71	34100.73
806.89	34379.25
807.07	33762.81
807.25	34049.53
807.43	33678.85
807.61	34012.66
807.79	33676.80
807.97	33539.58
808.15	33240.58
808.33	33512.96
808.51	33447.43
808.69	33316.36
808.87	33168.90
809.05	33027.59
809.23	32917.00
809.41	32777.74
809.59	32790.03
809.77	32949.77
809.95	32679.44
810.13	32951.82
810.31	32425.49
810.49	32747.02
810.67	32456.21
810.84	32618.00
811.02	32511.50
811.20	32167.45
811.38	31850.01
811.56	32013.85
811.74	31897.11
811.92	31700.51
812.10	31909.40
812.28	32278.04
812.46	32155.16
812.64	32202.26
812.82	31524.38
813.00	31993.37
813.18	31899.16
813.36	31626.78
813.53	31409.70
813.71	31305.25
813.89	31213.09
814.07	31612.45
814.25	31600.16
814.43	30950.95
814.61	30848.55
814.79	31153.70
814.97	31110.69
815.15	31229.48
815.33	30610.99
815.50	30266.93
815.68	30715.44
815.86	30987.82
816.04	30715.44
816.22	30522.93
816.40	30629.42
816.58	30277.17
816.76	30451.25
816.94	30117.43
817.11	30180.92
817.29	30033.46
817.47	30219.83
817.65	30055.99
817.83	29963.83
818.01	29851.19
818.19	29992.50
818.37	30099.00
818.54	29879.86
818.72	29457.98
818.90	29894.20
819.08	29701.69
819.26	29750.84
819.44	29722.17
819.62	29224.51
819.80	29404.74
819.97	29429.31
820.15	29273.67
820.33	29019.72
820.51	29419.07
820.69	28786.25
820.87	29148.74
821.05	29314.62
821.22	29230.66
821.40	28878.41
821.58	28735.05
821.76	28837.45
821.94	28733.00
822.12	28601.93
822.29	28948.04
822.47	28515.92
822.65	28862.02
822.83	28759.63
823.01	28644.94
823.19	28225.11
823.36	28606.03
823.54	28237.39
823.72	28298.83
823.90	28634.70
824.08	27891.29
824.25	27881.05
824.43	28175.95
824.61	28376.66
824.79	28323.41
824.97	28147.28
825.15	28063.32
825.32	27610.71
825.50	27872.85
825.68	27453.02
825.86	27805.27
826.04	27827.80
826.21	27835.99
826.39	27645.53
826.57	27158.11
826.75	27485.79
826.93	27647.58
827.10	27553.37
827.28	27643.48
827.46	27315.81
827.64	27194.98
827.81	27209.31
827.99	27749.98
828.17	27143.78
828.35	26891.88
828.53	27014.76
828.70	27168.35
828.88	27129.44
829.06	26994.28
829.24	27262.56
829.41	27065.96
829.59	26924.65
829.77	27125.35
829.95	26650.22
830.12	26893.93
830.30	26736.23
830.48	26867.30
830.66	26912.36
830.84	26979.94
831.01	26656.36
831.19	26633.83
831.37	26527.34
831.55	26236.53
831.72	26504.81
831.90	26418.80
832.08	26553.96
832.25	26267.25
832.43	26277.49
832.61	26007.16
832.79	25970.29
832.96	26078.83
833.14	25951.86
833.32	26330.73
833.50	26195.57
833.67	26334.83
833.85	26252.91
834.03	25738.87
834.20	26027.63
834.38	25882.23
834.56	26066.55
834.74	26037.87
834.91	25738.87
835.09	25908.85
835.27	25523.83
835.44	25466.49
835.62	25470.59
835.80	25583.23
835.98	25448.06
836.15	25288.32
836.33	25298.56
836.51	25587.32
836.68	24995.46
836.86	25194.11
837.04	25495.16
837.21	25450.11
837.39	25267.84
837.57	25474.68
837.75	25228.93
837.92	24749.70
838.10	24915.59
838.28	24718.98
838.45	25071.23
838.63	24639.11
838.81	24964.74
838.98	24626.82
839.16	24757.89
839.34	24981.12
839.51	24759.94
839.69	24479.37
839.87	24647.30
840.04	24293.01
840.22	24514.19
840.40	24610.44
840.57	24395.40
840.75	24403.60
840.93	24178.32
841.10	24534.67
841.28	24415.88
841.46	24469.13
841.63	24383.12
841.81	24350.35
841.98	24370.83
842.16	24675.98
842.34	24342.16
842.51	24188.56
842.69	24123.02
842.87	24094.35
843.04	24192.65
843.22	23910.04
843.40	24186.51
843.57	23994.00
843.75	24340.11
843.92	24108.69
844.10	23924.37
844.28	23789.20
844.45	23987.86
844.63	24061.58
844.81	23787.16
844.98	23930.51
845.16	23367.32
845.33	23746.20
845.51	23645.85
845.69	23506.59
845.86	23531.16
846.04	23283.36
846.21	23367.32
846.39	23506.59
846.57	23309.98
846.74	23525.02
846.92	23119.52
847.09	23185.05
847.27	23033.50
847.45	23262.88
847.62	23490.20
847.80	23238.30
847.97	23326.36
848.15	23318.17
848.32	22816.42
848.50	23033.50
848.68	23060.13
848.85	22857.38
849.03	22800.04
849.20	22965.92
849.38	22910.63
849.56	22933.15
849.73	22777.51
849.91	22711.97
850.08	23084.70
850.26	22754.98
850.43	22847.14
850.61	22722.21
850.78	22613.67
850.96	22804.13
851.14	22347.44
851.31	22681.25
851.49	22384.30
851.66	22632.10
851.84	22585.00
852.01	22511.27
852.19	22460.07
852.36	22116.01
852.54	22343.34
852.71	22406.83
852.89	22482.60
853.07	22585.00
853.24	22396.59
853.42	22179.50
853.59	22390.44
853.77	22410.92
853.94	22210.22
854.12	22541.99
854.29	22079.15
854.47	22177.45
854.64	22015.66
854.82	22089.39
854.99	22326.96
855.17	22030.00
855.34	21868.21
855.52	21931.70
855.69	22060.72
855.87	21896.88
856.04	21751.48
856.22	21931.70
856.39	21520.06
856.57	21839.54
856.74	21712.56
856.92	21470.90
857.09	21520.06
857.27	21462.71
857.44	21759.67
857.62	21368.51
857.79	21653.17
857.97	21368.51
858.14	21501.62
858.32	21407.42
858.49	21450.42
858.67	21114.56
858.84	21139.13
859.02	21540.54
859.19	21444.28
859.37	20922.05
859.54	21235.39
859.72	21040.83
859.89	21139.13
860.06	21286.59
860.24	20983.49
860.41	21245.63
860.59	20965.06
860.76	21348.03
860.94	20786.88
861.11	21253.82
861.29	20899.52
861.46	20756.16
861.64	20874.95
861.81	20813.51
861.98	20651.72
862.16	21044.93
862.33	20608.71
862.51	20635.33
862.68	20782.79
862.86	20735.68
863.03	20473.54
863.21	20518.60
863.38	20739.78
863.55	20469.45
863.73	20541.13
863.90	20571.85
864.08	20618.95
864.25	20623.05
864.43	20461.26
864.60	20371.15
864.77	20195.02
864.95	20457.16
865.12	20111.05
865.30	20373.19
865.47	20123.34
865.64	20113.10
865.82	20094.67
865.99	20485.83
866.17	20178.64
866.34	20289.23
866.51	19799.76
866.69	20260.55
866.86	20246.22
867.04	20192.97
867.21	19885.78
867.38	19939.02
867.56	19914.45
867.73	19910.35
867.91	20049.61
868.08	19783.38
868.25	19605.20
868.43	19459.80
868.60	19640.02
868.78	19474.13
868.95	20041.42
869.12	19480.28
869.30	19467.99
869.47	19744.47
869.64	19214.04
869.82	19687.12
869.99	19498.71
870.16	19617.49
870.34	19627.73
870.51	19709.65
870.69	19279.58
870.86	19029.73
871.03	19183.32
871.21	19238.62
871.38	19435.22
871.55	19187.42
871.73	19035.87
871.90	19037.92
872.07	19195.61
872.25	19109.60
872.42	19250.91
872.59	19105.50
872.77	18980.57
872.94	18714.34
873.11	18919.14
873.29	18865.89
873.46	18761.44
873.63	18777.83
873.81	18710.24
873.98	18700.00
874.15	18765.54
874.33	18513.64
874.50	18290.41
874.67	18560.74
874.85	18743.01
875.02	18401.00
875.19	18292.46
875.37	18173.67
875.54	18073.32
875.71	18521.83
875.88	18192.11
876.06	18349.80
876.23	18185.96
876.40	18175.72
876.58	18085.61
876.75	18224.87
876.92	18020.08
877.10	18065.13
877.27	17929.97
877.44	18056.94
877.61	17776.37
877.79	17884.91
877.96	17936.11
878.13	17467.13
878.31	17520.37
878.48	17772.27
878.65	17532.66
878.82	17532.66
879.00	17680.11
879.17	17643.25
879.34	17510.13
879.51	17346.30
879.69	17442.55
879.86	17530.61
880.03	17352.44
880.21	17516.28
880.38	17362.68
880.55	17735.41
880.72	17235.70
880.90	17692.40
881.07	17231.61
881.24	17446.65
881.41	17389.30
881.59	17317.62
881.76	17315.58
881.93	17184.51
882.10	16803.58
882.28	17098.49
882.45	17151.74
882.62	16647.94
882.79	17299.19
882.96	16813.82
883.14	17084.16
883.31	17104.64
883.48	17086.20
883.65	16819.97
883.83	16961.28
884.00	16983.80
884.17	16903.93
884.34	16830.21
884.51	17098.49
884.69	16789.25
884.86	16682.75
885.03	16750.34
885.20	16434.95
885.38	16482.05
885.55	16469.76
885.72	16617.22
885.89	16555.78
886.06	16566.02
886.24	16561.92
886.41	16475.91
886.58	16549.64
886.75	16766.72
886.92	16445.19
887.10	16768.77
887.27	16498.44
887.44	16746.24
887.61	16570.12
887.78	16414.47
887.95	16568.07
888.13	16410.37
888.30	16348.93
888.47	16348.93
888.64	16561.92
888.81	16369.41
888.99	16228.10
889.16	16324.36
889.33	16164.62
889.50	16178.95
889.67	16174.86
889.84	15988.49
890.01	15922.96
890.19	16027.40
890.36	16088.84
890.53	16068.36
890.70	15927.05
890.87	15959.82
891.04	15986.44
891.22	15861.52
891.39	15935.24
891.56	15732.50
891.73	15904.53
891.90	15759.12
892.07	15597.33
892.24	15824.65
892.42	15679.25
892.59	15798.03
892.76	15597.33
892.93	15582.99
893.10	15482.64
893.27	15787.79
893.44	15619.86
893.61	15607.57
893.79	15433.49
893.96	15236.89
894.13	15437.59
894.30	15576.85
894.47	15525.65
894.64	15851.28
894.81	15701.78
894.98	15734.54
895.15	15795.98
895.33	15513.36
895.50	15564.56
895.67	15709.97
895.84	15365.91
896.01	15318.81
896.18	15496.98
896.35	15617.81
896.52	15505.17
896.69	15249.18
896.86	15339.29
897.04	15535.89
897.21	15251.22
897.38	15294.23
897.55	15167.26
897.72	15603.47
897.89	15492.88
898.06	15542.03
898.23	15589.14
898.40	15327.00
898.57	15413.01
898.74	15191.83
898.91	15431.44
899.08	15644.43
899.26	15386.39
899.43	15224.60
899.60	15656.72
899.77	15290.13
899.94	15122.20
900.11	15376.15
900.28	15437.59
900.45	15292.18
900.62	15302.42
900.79	15486.74
900.96	15318.81
901.13	15343.38
901.30	15302.42
901.47	15206.17
901.64	15544.08
901.81	15062.81
901.98	15245.08
902.15	15630.10
902.32	15105.82
902.49	15417.11
902.66	15423.25
902.83	15429.40
903.01	15329.05
903.18	15240.98
903.35	15519.51
903.52	15372.05
903.69	15421.20
903.86	15253.27
904.03	15290.13
904.20	15658.77
904.37	15572.75
904.54	15298.33
904.71	15314.71
904.88	15312.66
905.05	15134.49
905.22	15304.47
905.39	15109.91
905.56	15283.99
905.73	15130.39
905.90	15318.81
906.07	15253.27
906.24	15314.71
906.41	15222.55
906.58	15431.44
906.75	15386.39
906.92	15167.26
907.09	15302.42
907.26	15236.89
907.43	15136.54
907.60	15458.07
907.77	15519.51
907.93	15417.11
908.10	15169.30
908.27	15157.02
908.44	15044.38
908.61	15058.71
908.78	15159.06
908.95	15310.61
909.12	15103.77
909.29	15087.39
909.46	15058.71
909.63	15240.98
909.80	15214.36
909.97	15314.71
910.14	15191.83
910.31	15048.47
910.48	15038.23
910.65	15234.84
910.82	14866.21
910.99	14905.12
911.16	15019.80
911.33	14876.44
911.50	15144.73
911.66	14925.60
911.83	14704.42
912.00	14815.01
912.17	14903.07
912.34	14964.51
912.51	14796.57
912.68	14946.08
912.85	14681.89
913.02	14753.57
913.19	14429.99
913.36	14755.61
913.53	14772.00
913.70	14690.08
913.86	14724.90
914.03	14571.30
914.20	14772.00
914.37	14860.06
914.54	14468.90
914.71	14530.34
914.88	14497.57
915.05	14493.47
915.22	14636.83
915.39	14477.09
915.55	14303.01
915.72	14192.42
915.89	14321.45
916.06	14235.43
916.23	14319.40
916.40	13971.24
916.57	13920.04
916.74	14235.43
916.91	14040.87
917.07	14151.46
917.24	14110.50
917.41	13834.03
917.58	13860.65
917.75	13866.80
917.92	13971.24
918.09	13944.62
918.26	13760.30
918.42	13877.04
918.59	13862.70
918.76	13578.03
918.93	13539.12
919.10	13455.15
919.27	13559.60
919.44	13682.48
919.60	13506.35
919.77	13406.00
919.94	13401.91
920.11	13301.56
920.28	13479.73
920.45	13322.04
920.61	13242.17
920.78	13199.16
920.95	13221.69
921.12	13256.50
921.29	13207.35
921.46	13004.60
921.62	12912.44
921.79	13152.06
921.96	12838.72
922.13	12832.57
922.30	12889.92
922.47	12746.56
922.63	12791.61
922.80	12683.07
922.97	12740.41
923.14	12482.37
923.31	12625.73
923.47	12476.23
923.64	12820.28
923.81	12443.46
923.98	12468.03
924.15	12457.79
924.32	12486.47
924.48	12275.52
924.65	12230.47
924.82	12123.98
924.99	12011.34
925.15	12066.63
925.32	12328.77
925.49	12015.43
925.66	12101.45
925.83	11726.67
925.99	11827.02
926.16	11962.19
926.33	11804.49
926.50	11698.00
926.67	12005.19
926.83	11657.04
927.00	11648.85
927.17	11669.33
927.34	11519.82
927.50	11380.56
927.67	11816.78
927.84	11669.33
928.01	11448.15
928.17	11335.51
928.34	11386.71
928.51	11233.11
928.68	11171.67
928.84	11048.79
929.01	11020.12
929.18	11136.85
929.35	10839.90
929.51	10962.78
929.68	10958.68
929.85	10807.13
930.02	10948.44
930.18	10772.32
930.35	10712.92
930.52	10807.13
930.69	10778.46
930.85	10547.04
931.02	10665.82
931.19	10542.94
931.36	10514.27
931.52	10493.79
931.69	10229.60
931.86	10446.69
932.02	10266.47
932.19	10131.30
932.36	10311.52
932.53	10420.06
932.69	10016.62
932.86	10145.64
933.03	9830.25
933.19	9852.78
933.36	9871.21
933.53	10047.33
933.70	9654.12
933.86	9619.31
934.03	9647.98
934.20	9623.41
934.36	9639.79
934.53	9516.91
934.70	9344.88
934.86	9572.21
935.03	9199.48
935.20	9125.75
935.36	9217.91
935.53	9043.83
935.70	8988.53
935.86	9174.90
936.03	9019.25
936.20	8742.78
936.36	8834.94
936.53	8775.55
936.70	8576.89
936.86	8822.65
937.03	8617.85
937.20	8411.01
937.36	8560.51
937.53	8179.59
937.70	8152.96
937.86	8083.33
938.03	8048.52
938.20	8046.47
938.36	7849.86
938.53	7825.29
938.70	7686.03
938.86	7577.48
939.03	7581.58
939.20	7339.92
939.36	7481.23
939.53	7292.82
939.70	7505.81
939.86	7112.60
940.03	6889.37
940.19	7022.48
940.36	6967.19
940.53	6899.61
940.69	6795.16
940.86	6860.70
941.03	6709.15
941.19	6533.02
941.36	6492.06
941.52	6449.05
941.69	6287.26
941.86	6430.62
942.02	6176.67
942.19	6205.35
942.35	6293.41
942.52	6109.09
942.69	6066.08
942.85	5998.50
943.02	6037.41
943.18	5990.31
943.35	5865.38
943.52	5918.63
943.68	5851.05
943.85	5765.03
944.01	5779.37
944.18	5545.90
944.35	5625.77
944.51	5597.10
944.68	5523.37
944.84	5656.49
945.01	5556.14
945.17	5599.15
945.34	5529.52
945.51	5664.68
945.67	5523.37
945.84	5513.13
946.00	5330.86
946.17	5412.78
946.33	5425.07
946.50	5449.64
946.67	5482.41
946.83	5431.21
947.00	5449.64
947.16	5474.22
947.33	5410.73
947.49	5246.90
947.66	5187.50
947.82	5357.49
947.99	5310.38
948.16	5562.28
948.32	5357.49
948.49	5392.30
948.65	5308.34
948.82	5343.15
948.98	5337.01
949.15	5302.19
949.31	5478.32
949.48	5298.10
949.64	5199.79
949.81	5476.27
949.97	5267.38
950.14	5304.24
950.30	5347.25
950.47	5457.84
950.63	5445.55
950.80	5285.81
950.96	5496.75
951.13	5408.69
951.30	5351.34
951.46	5455.79
951.63	5427.12
951.79	5394.35
951.96	5463.98
952.12	5433.26
952.29	5500.84
952.45	5443.50
952.62	5441.45
952.78	5423.02
952.94	5437.36
953.11	5326.77
953.27	5353.39
953.44	5488.56
953.60	5521.32
953.77	5517.23
953.93	5519.28
954.10	5453.74
954.26	5447.60
954.43	5627.82
954.59	5629.87
954.76	5660.59
954.92	5560.24
955.09	5531.56
955.25	5455.79
955.42	5351.34
955.58	5466.03
955.75	5468.08
955.91	5412.78
956.07	5439.40
956.24	5554.09
956.40	5529.52
956.57	5490.60
956.73	5484.46
956.90	5611.43
957.06	5523.37
957.23	5537.71
957.39	5466.03
957.56	5486.51
957.72	5400.49
957.88	5373.87
958.05	5771.18
958.21	5636.01
958.38	5441.45
958.54	5554.09
958.71	5668.78
958.87	5418.93
959.03	5566.38
959.20	5451.69
959.36	5367.73
959.53	5574.57
959.69	5369.77
959.85	5539.76
960.02	5390.25
960.18	5533.61
960.35	5482.41
960.51	5578.67
960.68	5556.14
960.84	5427.12
961.00	5556.14
961.17	5515.18
961.33	5543.85
961.50	5652.39
961.66	5525.42
961.82	5423.02
961.99	5400.49
962.15	5400.49
962.31	5504.94
962.48	5494.70
962.64	5738.41
962.81	5625.77
962.97	5410.73
963.13	5449.64
963.30	5400.49
963.46	5435.31
963.62	5402.54
963.79	5572.52
963.95	5373.87
964.12	5367.73
964.28	5482.41
964.44	5267.38
964.61	5377.97
964.77	5414.83
964.93	5476.27
965.10	5355.44
965.26	5398.45
965.42	5369.77
965.59	5265.33
965.75	5443.50
965.92	5486.51
966.08	5386.16
966.24	5345.20
966.41	5324.72
966.57	5308.34
966.73	5418.93
966.90	5418.93
967.06	5207.98
967.22	5279.66
967.39	5302.19
967.55	5160.88
967.71	5250.99
967.88	5296.05
968.04	5169.07
968.20	5154.74
968.37	5146.55
968.53	5197.74
968.69	5236.66
968.85	5318.57
969.02	5103.54
969.18	5154.74
969.34	5253.04
969.51	5236.66
969.67	5306.29
969.83	5056.43
970.00	5210.03
970.16	5107.63
970.32	5095.35
970.48	5242.80
970.65	5062.58
970.81	5013.43
970.97	5044.15
971.14	4960.18
971.30	5140.40
971.46	5009.33
971.63	5046.20
971.79	5015.48
971.95	5134.26
972.11	4906.93
972.28	5042.10
972.44	5005.24
972.60	4698.04
972.76	4982.71
972.93	5021.62
973.09	4968.37
973.25	4933.56
973.42	4892.60
973.58	4966.32
973.74	4962.23
973.90	4968.37
974.07	4831.16
974.23	4951.99
974.39	4763.58
974.55	4890.55
974.72	4861.88
974.88	4736.95
975.04	4788.15
975.20	4890.55
975.37	4800.44
975.53	4773.82
975.69	4908.98
975.85	4624.31
976.01	4763.58
976.18	4796.34
976.34	4677.56
976.50	4886.45
976.66	4851.64
976.83	4636.60
976.99	4747.19
977.15	4872.12
977.31	4519.87
977.47	4571.07
977.64	4636.60
977.80	4618.17
977.96	4618.17
978.12	4554.68
978.29	4640.70
978.45	4661.18
978.61	4605.88
978.77	4675.51
978.93	4501.44
979.10	4468.67
979.26	4577.21
979.42	4605.88
979.58	4517.82
979.74	4521.92
979.91	4470.72
980.07	4517.82
980.23	4585.40
980.39	4327.36
980.55	4386.75
980.71	4411.32
980.88	4386.75
981.04	4403.13
981.20	4351.93
981.36	4435.90
981.52	4411.32
981.68	4231.10
981.85	4450.24
982.01	4347.84
982.17	4274.11
982.33	4372.41
982.49	4302.78
982.65	4409.28
982.82	4347.84
982.98	4229.06
983.14	4194.24
983.30	4364.22
983.46	4327.36
983.62	4265.92
983.79	4296.64
983.95	4245.44
984.11	4202.43
984.27	4270.01
984.43	4278.21
984.59	4097.99
984.75	4181.95
984.91	4202.43
985.08	4306.88
985.24	4106.18
985.40	4054.98
985.56	4038.59
985.72	4155.33
985.88	4212.67
986.04	4079.55
986.20	4157.38
986.37	3923.91
986.53	3909.57
986.69	4171.71
986.85	4007.87
987.01	3985.35
987.17	4001.73
987.33	3940.29
987.49	3983.30
987.65	4030.40
987.82	3971.01
987.98	3940.29
988.14	3887.04
988.30	3899.33
988.46	3844.04
988.62	3833.80
988.78	3919.81
988.94	3915.72
989.10	3755.97
989.26	3712.97
989.42	3835.85
989.59	3708.87
989.75	3878.85
989.91	3786.69
990.07	3774.41
990.23	3762.12
990.39	3817.41
990.55	3803.08
990.71	3786.69
990.87	3667.91
991.03	3868.61
991.19	3739.59
991.35	3719.11
991.51	3776.45
991.67	3796.93
991.83	3817.41
992.00	3696.58
992.16	3676.10
992.32	3772.36
992.48	3602.38
992.64	3569.61
992.80	3639.24
992.96	3616.71
993.12	3745.73
993.28	3686.34
993.44	3682.25
993.60	3663.82
993.76	3600.33
993.92	3643.34
994.08	3698.63
994.24	3493.83
994.40	3588.04
994.56	3629.00
994.72	3594.19
994.88	3542.99
995.04	3405.77
995.20	3540.94
995.36	3483.59
995.52	3526.60
995.68	3436.49
995.84	3391.44
996.00	3542.99
996.16	3481.55
996.32	3454.92
996.48	3428.30
996.64	3483.59
996.80	3397.58
996.96	3522.51
997.12	3383.24
997.28	3377.10
997.44	3407.82
997.60	3364.81
997.76	3385.29
997.92	3330.00
998.08	3360.72
998.24	3258.32
998.40	3344.33
998.56	3360.72
998.72	3274.70
998.88	3387.34
999.04	3385.29
999.20	3379.15
999.36	3252.17
999.52	3336.14
999.68	3186.64
999.84	3334.09
1000.00	3313.61
1000.16	3334.09
1000.32	3184.59
1000.48	3403.72
1000.64	3190.74
1000.80	3160.02
1000.95	3114.96
1001.11	3260.37
1001.27	3096.53
1001.43	3235.79
1001.59	3071.95
1001.75	3157.97
1001.91	3135.44
1002.07	3104.72
1002.23	3127.25
1002.39	3090.38
1002.55	3117.01
1002.71	3110.86
1002.87	3110.86
1003.03	2994.13
1003.19	2959.31
1003.34	3100.62
1003.50	2951.12
1003.66	3276.75
1003.82	3125.20
1003.98	3065.81
1004.14	2922.45
1004.30	3026.90
1004.46	3002.32
1004.62	3049.43
1004.78	3014.61
1004.94	2990.03
1005.09	2994.13
1005.25	3024.85
1005.41	2930.64
1005.57	2975.70
1005.73	3016.66
1005.89	2891.73
1006.05	2871.25
1006.21	2844.63
1006.37	2858.96
1006.52	2924.50
1006.68	2940.88
1006.84	2994.13
1007.00	2934.74
1007.16	2858.96
1007.32	2840.53
1007.48	2936.79
1007.64	2897.88
1007.79	2775.00
1007.95	2746.33
1008.11	2813.91
1008.27	2846.68
1008.43	2772.95
1008.59	2770.90
1008.75	2934.74
1008.91	2844.63
1009.06	2711.51
1009.22	2844.63
1009.38	2719.70
1009.54	2815.96
1009.70	2824.15
1009.86	2826.20
1010.01	2787.29
1010.17	2715.61
1010.33	2815.96
1010.49	2695.13
1010.65	2785.24
1010.81	2652.12
1010.96	2840.53
1011.12	2701.27
1011.28	2693.08
1011.44	2758.61
1011.60	2707.41
1011.76	2658.26
1011.91	2703.32
1012.07	2605.02
1012.23	2566.10
1012.39	2437.08
1012.55	2695.13
1012.71	2656.22
1012.86	2645.98
1013.02	2639.83
1013.18	2590.68
1013.34	2562.01
1013.50	2652.12
1013.65	2574.30
1013.81	2576.34
1013.97	2523.10
1014.13	2676.70
1014.29	2527.19
1014.44	2703.32
1014.60	2564.06
1014.76	2584.54
1014.92	2537.43
1015.07	2533.34
1015.23	2654.17
1015.39	2506.71
1015.55	2432.99
1015.71	2471.90
1015.86	2494.43
1016.02	2576.34
1016.18	2408.41
1016.34	2502.62
1016.49	2498.52
1016.65	2451.42
1016.81	2406.36
1016.97	2559.96
1017.12	2480.09
1017.28	2459.61
1017.44	2387.93
1017.60	2443.23
1017.75	2492.38
1017.91	2453.47
1018.07	2410.46
1018.23	2422.75
1018.38	2475.99
1018.54	2432.99
1018.70	2359.26
1018.86	2353.12
1019.01	2308.06
1019.17	2306.01
1019.33	2457.56
1019.49	2412.51
1019.64	2396.12
1019.80	2410.46
1019.96	2351.07
1020.12	2338.78
1020.27	2312.16
1020.43	2322.40
1020.59	2267.10
1020.74	2365.40
1020.90	2377.69
1021.06	2273.25
1021.22	2387.93
1021.37	2336.73
1021.53	2328.54
1021.69	2287.58
1021.84	2330.59
1022.00	2316.25
1022.16	2326.49
1022.31	2306.01
1022.47	2355.16
1022.63	2310.11
1022.79	2199.52
1022.94	2220.00
1023.10	2344.92
1023.26	2207.71
1023.41	2246.62
1023.57	2224.09
1023.73	2297.82
1023.88	2287.58
1024.04	2164.70
1024.20	2220.00
1024.35	2277.34
1024.51	2310.11
1024.67	2195.42
1024.82	2281.44
1024.98	2160.61
1025.14	2277.34
1025.29	2193.37
1025.45	2357.21
1025.61	2060.26
1025.76	2203.61
1025.92	2193.37
1026.08	2252.77
1026.23	2240.48
1026.39	2236.38
1026.55	2236.38
1026.70	2152.42
1026.86	2148.32
1027.02	2279.39
1027.17	2140.13
1027.33	2217.95
1027.48	2162.66
1027.64	2088.93
1027.80	2160.61
1027.95	2215.90
1028.11	2125.79
1028.27	2066.40
1028.42	2142.18
1028.58	2052.06
1028.73	1988.58
1028.89	2019.30
1029.05	2203.61
1029.20	2121.70
>>>>>End Processed Spectral Data<<<<<
