SpectraSuite Data File
++++++++++++++++++++++++++++++++++++
Date: Fri Jun 02 14:49:31 CEST 2017
User: INFO_000
Dark Spectrum Present: No
Reference Spectrum Present: No
Number of Sampled Component Spectra: 1
Spectrometers: USB4H00879
Integration Time (usec): 80000 (USB4H00879)
Spectra Averaged: 1 (USB4H00879)
Boxcar Smoothing: 0 (USB4H00879)
Correct for Electrical Dark: No (USB4H00879)
Strobe/Lamp Enabled: No (USB4H00879)
Correct for Detector Non-linearity: No (USB4H00879)
Correct for Stray Light: No (USB4H00879)
Number of Pixels in Processed Spectrum: 3648
>>>>>Begin Processed Spectral Data<<<<<
345.13	1239.02
345.34	1239.02
345.56	1239.02
345.78	1259.50
345.99	1349.61
346.21	1724.39
346.42	1624.04
346.64	1667.05
346.86	1820.64
347.07	1669.09
347.29	1677.29
347.50	1544.17
347.72	1701.86
347.94	1746.92
348.15	1642.47
348.37	1550.31
348.59	1677.29
348.80	1591.27
349.02	1802.21
349.23	1935.33
349.45	1755.11
349.67	1828.84
349.88	1875.94
350.10	1974.24
350.31	1822.69
350.53	1828.84
350.75	2045.92
350.96	1773.54
351.18	1910.75
351.39	1861.60
351.61	1816.55
351.82	1892.32
352.04	1957.86
352.26	1859.56
352.47	1914.85
352.69	1949.67
352.90	1740.77
353.12	1884.13
353.34	1875.94
353.55	1892.32
353.77	1855.46
353.98	1830.88
354.20	1834.98
354.41	1933.28
354.63	1853.41
354.85	2027.49
355.06	1888.23
355.28	1775.59
355.49	1908.71
355.71	1900.52
355.92	1949.67
356.14	1853.41
356.35	1849.32
356.57	1812.45
356.79	1935.33
357.00	1863.65
357.22	1976.29
357.43	1798.12
357.65	2011.11
357.86	1820.64
358.08	1920.99
358.29	1951.71
358.51	1953.76
358.72	1996.77
358.94	1951.71
359.16	1937.38
359.37	1988.58
359.59	1982.43
359.80	1955.81
360.02	1982.43
360.23	1927.14
360.45	1994.72
360.66	1931.23
360.88	1945.57
361.09	1880.04
361.31	1978.34
361.52	2000.87
361.74	2043.87
361.95	1959.91
362.17	1945.57
362.38	2093.02
362.60	2017.25
362.81	2058.21
363.03	1945.57
363.24	2023.39
363.46	2045.92
363.67	2039.78
363.89	1947.62
364.10	1966.05
364.32	2076.64
364.53	1988.58
364.75	1904.61
364.96	1978.34
365.18	2031.58
365.39	1988.58
365.61	1984.48
365.82	2142.18
366.04	2013.15
366.25	1951.71
366.47	2004.96
366.68	2041.82
366.90	2082.78
367.11	2064.35
367.33	2066.40
367.54	2095.07
367.76	2043.87
367.97	2097.12
368.19	2017.25
368.40	2047.97
368.62	1972.19
368.83	1937.38
369.05	2086.88
369.26	1980.39
369.48	2011.11
369.69	2064.35
369.91	2047.97
370.12	2023.39
370.33	2168.80
370.55	2041.82
370.76	2011.11
370.98	2076.64
371.19	2047.97
371.41	1970.15
371.62	2070.50
371.84	2074.59
372.05	2191.33
372.27	2115.55
372.48	2045.92
372.69	2097.12
372.91	2160.61
373.12	2211.81
373.34	2172.89
373.55	2189.28
373.77	2156.51
373.98	2078.69
374.20	2181.09
374.41	2310.11
374.62	2101.22
374.84	2142.18
375.05	2136.03
375.27	2170.85
375.48	2101.22
375.70	2228.19
375.91	2197.47
376.12	2232.29
376.34	2148.32
376.55	2142.18
376.77	2263.01
376.98	2101.22
377.19	2109.41
377.41	2201.57
377.62	2267.10
377.84	2191.33
378.05	2279.39
378.27	2248.67
378.48	2287.58
378.69	2359.26
378.91	2287.58
379.12	2299.87
379.34	2238.43
379.55	2289.63
379.76	2285.53
379.98	2258.91
380.19	2183.13
380.41	2226.14
380.62	2332.64
380.83	2238.43
381.05	2201.57
381.26	2357.21
381.47	2252.77
381.69	2306.01
381.90	2469.85
382.12	2277.34
382.33	2215.90
382.54	2353.12
382.76	2293.72
382.97	2346.97
383.19	2346.97
383.40	2297.82
383.61	2346.97
383.83	2236.38
384.04	2381.79
384.25	2365.40
384.47	2295.77
384.68	2406.36
384.89	2322.40
385.11	2310.11
385.32	2338.78
385.54	2297.82
385.75	2377.69
385.96	2445.27
386.18	2400.22
386.39	2463.71
386.60	2365.40
386.82	2469.85
387.03	2387.93
387.24	2459.61
387.46	2531.29
387.67	2504.67
387.88	2516.95
388.10	2478.04
388.31	2516.95
388.52	2549.72
388.74	2453.47
388.95	2490.33
389.16	2537.43
389.38	2385.88
389.59	2588.63
389.80	2619.35
390.02	2568.15
390.23	2672.60
390.44	2557.91
390.66	2555.86
390.87	2555.86
391.08	2578.39
391.30	2680.79
391.51	2572.25
391.72	2662.36
391.94	2688.98
392.15	2633.69
392.36	2580.44
392.58	2574.30
392.79	2623.45
393.00	2680.79
393.22	2658.26
393.43	2666.46
393.64	2777.05
393.85	2727.89
394.07	2623.45
394.28	2717.65
394.49	2746.33
394.71	2705.37
394.92	2854.87
395.13	2760.66
395.35	2758.61
395.56	2686.94
395.77	2887.64
395.98	2789.33
396.20	2803.67
396.41	2871.25
396.62	2944.98
396.84	2799.57
397.05	2818.00
397.26	2889.68
397.47	2904.02
397.69	2805.72
397.90	3139.54
398.11	2985.94
398.32	2865.11
398.54	2822.10
398.75	2973.65
398.96	2998.23
399.18	3131.34
399.39	2920.40
399.60	3000.27
399.81	2865.11
400.03	2994.13
400.24	3241.93
400.45	2947.03
400.66	2975.70
400.88	2996.18
401.09	3139.54
401.30	3055.57
401.51	3170.26
401.73	3063.76
401.94	3090.38
402.15	3104.72
402.36	3067.86
402.58	3043.28
402.79	3207.12
403.00	3147.73
403.21	3186.64
403.43	3213.26
403.64	3231.69
403.85	3024.85
404.06	3336.14
404.27	3014.61
404.49	3190.74
404.70	3065.81
404.91	3270.61
405.12	3207.12
405.34	3186.64
405.55	3248.08
405.76	3268.56
405.97	3246.03
406.19	3295.18
406.40	3254.22
406.61	3362.76
406.82	3313.61
407.03	3327.95
407.25	3389.39
407.46	3321.81
407.67	3456.97
407.88	3368.91
408.09	3409.87
408.31	3407.82
408.52	3276.75
408.73	3327.95
408.94	3366.86
409.15	3321.81
409.37	3385.29
409.58	3456.97
409.79	3561.42
410.00	3506.12
410.21	3381.20
410.43	3489.74
410.64	3356.62
410.85	3473.36
411.06	3530.70
411.27	3626.95
411.48	3569.61
411.70	3522.51
411.91	3645.38
412.12	3575.75
412.33	3631.05
412.54	3485.64
412.76	3672.01
412.97	3694.54
413.18	3448.78
413.39	3698.63
413.60	3708.87
413.81	3741.64
414.03	3700.68
414.24	3614.66
414.45	3798.98
414.66	3518.41
414.87	3747.78
415.08	3643.34
415.30	3745.73
415.51	3770.31
415.72	3743.69
415.93	3901.38
416.14	3872.71
416.35	3776.45
416.56	3749.83
416.78	3821.51
416.99	3882.95
417.20	3809.22
417.41	3887.04
417.62	3880.90
417.83	3903.43
418.04	3835.85
418.26	3755.97
418.47	3837.89
418.68	4009.92
418.89	3928.00
419.10	4087.75
419.31	3968.96
419.52	3995.59
419.73	3960.77
419.95	4169.66
420.16	3925.96
420.37	3991.49
420.58	4149.18
420.79	3936.20
421.00	4032.45
421.21	4216.77
421.42	4001.73
421.63	4143.04
421.85	4140.99
422.06	4175.81
422.27	4206.53
422.48	4159.42
422.69	4165.57
422.90	4274.11
423.11	4165.57
423.32	4245.44
423.53	4411.32
423.75	4276.16
423.96	4472.76
424.17	4190.14
424.38	4485.05
424.59	4382.65
424.80	4562.87
425.01	4388.80
425.22	4468.67
425.43	4405.18
425.64	4673.46
425.85	4650.94
426.06	4536.25
426.28	4433.85
426.49	4458.43
426.70	4487.10
426.91	4552.63
427.12	4689.85
427.33	4687.80
427.54	4515.77
427.75	4675.51
427.96	4675.51
428.17	4792.25
428.38	4710.33
428.59	4808.63
428.80	4779.96
429.01	4951.99
429.23	4861.88
429.44	4900.79
429.65	5017.52
429.86	4954.04
430.07	4951.99
430.28	4845.49
430.49	4925.36
430.70	5156.79
430.91	5167.03
431.12	4980.66
431.33	5173.17
431.54	5066.67
431.75	5023.67
431.96	4984.76
432.17	5042.10
432.38	5121.97
432.59	5201.84
432.80	5234.61
433.01	5210.03
433.22	5310.38
433.43	5246.90
433.64	5207.98
433.85	5359.53
434.06	5207.98
434.27	5179.31
434.49	5392.30
434.70	5494.70
434.91	5445.55
435.12	5435.31
435.33	5455.79
435.54	5357.49
435.75	5257.14
435.96	5373.87
436.17	5357.49
436.38	5574.57
436.59	5717.93
436.80	5470.12
437.01	5697.45
437.22	5648.30
437.43	5717.93
437.64	5560.24
437.85	5705.64
438.06	5636.01
438.27	5668.78
438.48	5713.83
438.69	5828.52
438.90	5740.46
439.11	5695.40
439.32	5844.90
439.53	5746.60
439.74	5814.18
439.95	5840.81
440.16	5914.53
440.37	5967.78
440.57	5801.90
440.78	5769.13
440.99	6047.65
441.20	5853.09
441.41	5963.68
441.62	6010.79
441.83	5926.82
442.04	6160.29
442.25	6184.87
442.46	5930.92
442.67	5975.97
442.88	6565.79
443.09	6043.56
443.30	6066.08
443.51	6111.14
443.72	6334.37
443.93	6082.47
444.14	6463.39
444.35	6033.32
444.56	6221.73
444.77	6272.93
444.98	6117.28
445.19	6434.72
445.40	6279.07
445.61	6180.77
445.81	6543.26
446.02	6571.93
446.23	6410.14
446.44	6186.91
446.65	6516.64
446.86	6381.47
447.07	6723.48
447.28	6766.49
447.49	6598.56
447.70	6573.98
447.91	6696.86
448.12	6657.95
448.33	6672.28
448.54	6729.63
448.74	6606.75
448.95	6602.65
449.16	6555.55
449.37	6879.13
449.58	6680.47
449.79	7026.58
450.00	6817.69
450.21	6948.76
450.42	7047.06
450.63	6901.65
450.84	6770.58
451.05	6944.66
451.25	6965.14
451.46	6905.75
451.67	7016.34
451.88	7178.13
452.09	7055.25
452.30	6977.43
452.51	7184.27
452.72	7317.39
452.93	7374.74
453.13	7004.05
453.34	7196.56
453.55	7301.01
453.76	7169.94
453.97	7616.40
454.18	7462.80
454.39	7514.00
454.60	7305.10
454.81	7528.33
455.01	7610.25
455.22	7423.89
455.43	7561.10
455.64	7710.60
455.85	7849.86
456.06	7643.02
456.27	7886.73
456.48	7653.26
456.68	7827.34
456.89	7997.32
457.10	7868.30
457.31	7853.96
457.52	7835.53
457.73	8007.56
457.94	8148.87
458.14	7905.16
458.35	8308.61
458.56	8138.63
458.77	8095.62
458.98	8251.27
459.19	8214.40
459.39	8159.11
459.60	8363.90
459.81	8275.84
460.02	8615.80
460.23	8419.20
460.44	8556.41
460.65	8537.98
460.85	8609.66
461.06	8689.53
461.27	8433.54
461.48	8767.35
461.69	8912.76
461.89	8738.68
462.10	8761.21
462.31	8683.39
462.52	8896.38
462.73	8802.17
462.94	9135.99
463.14	9025.40
463.35	9236.34
463.56	9473.90
463.77	9162.61
463.98	9023.35
464.18	9156.47
464.39	9379.70
464.60	9607.02
464.81	9484.14
465.02	9478.00
465.23	9555.82
465.43	9580.40
465.64	9858.92
465.85	9742.19
466.06	9635.69
466.27	10043.24
466.47	9875.31
466.68	9944.94
466.89	9875.31
467.10	10051.43
467.30	9846.63
467.51	10053.48
467.72	10315.62
467.93	10116.97
468.14	10243.94
468.34	10635.10
468.55	10194.79
468.76	10405.73
468.97	10430.30
469.17	10628.96
469.38	10635.10
469.59	10764.12
469.80	10731.36
470.01	10835.80
470.21	10794.84
470.42	10932.06
470.63	11085.65
470.84	11046.74
471.04	11116.37
471.25	11292.50
471.46	11157.33
471.67	11497.30
471.87	11456.34
472.08	11370.32
472.29	11689.81
472.50	11485.01
472.70	11343.70
472.91	11777.87
473.12	11886.41
473.33	12187.46
473.53	12093.26
473.74	12177.22
473.95	12173.13
474.16	12336.96
474.36	12183.37
474.57	12498.75
474.78	12494.66
474.99	12607.30
475.19	12369.73
475.40	12816.19
475.61	12898.11
475.81	13170.49
476.02	13094.71
476.23	12947.26
476.44	13139.77
476.64	13332.28
476.85	13371.19
477.06	13360.95
477.27	13811.50
477.47	13788.97
477.68	13721.39
477.89	13883.18
478.09	13723.44
478.30	13928.24
478.51	13909.80
478.71	14006.06
478.92	14225.19
479.13	14296.87
479.34	14427.94
479.54	14384.93
479.75	14538.53
479.96	14642.98
480.16	14628.64
480.37	14772.00
480.58	15197.98
480.78	15132.44
480.99	15087.39
481.20	15171.35
481.41	15466.26
481.61	15714.06
481.82	15572.75
482.03	15603.47
482.23	15537.94
482.44	15732.50
482.65	16023.31
482.85	15988.49
483.06	15972.11
483.27	16301.83
483.47	15879.95
483.68	16250.63
483.89	16531.20
484.09	16463.62
484.30	16619.27
484.51	16793.34
484.71	16697.09
484.92	16758.53
485.13	17143.55
485.33	17002.24
485.54	17078.01
485.75	17583.86
485.95	17620.72
486.16	17385.21
486.37	17547.00
486.57	17415.93
486.78	17706.74
486.98	17733.36
487.19	17782.51
487.40	17905.39
487.60	17708.79
487.81	17993.45
488.02	18161.39
488.22	17975.02
488.43	18513.64
488.64	18274.03
488.84	18740.96
489.05	18724.58
489.25	18740.96
489.46	19242.71
489.67	18544.36
489.87	18910.94
490.08	19007.20
490.29	19232.47
490.49	19379.93
490.70	19621.59
490.90	19721.94
491.11	19418.84
491.32	19580.63
491.52	19752.66
491.73	19715.80
491.94	19785.43
492.14	19680.98
492.35	20176.59
492.55	20324.04
492.76	20541.13
492.97	20307.66
493.17	20391.62
493.38	20489.93
493.58	20561.61
493.79	20471.50
494.00	20709.06
494.20	20797.12
494.41	20985.54
494.61	20932.29
494.82	20686.53
495.02	20840.13
495.23	21214.91
495.44	21307.07
495.64	21677.75
495.85	21491.38
496.05	21831.35
496.26	21520.06
496.47	21786.29
496.67	21731.00
496.88	22154.93
497.08	21833.39
497.29	22027.95
497.49	22070.96
497.70	22087.34
497.91	22150.83
498.11	22521.51
498.32	22415.02
498.52	22392.49
498.73	22853.28
498.93	22568.62
499.14	22628.01
499.34	22632.10
499.55	22935.20
499.76	22658.73
499.96	23148.19
500.17	22841.00
500.37	23148.19
500.58	23072.42
500.78	22935.20
500.99	23266.97
501.19	23434.91
501.40	23543.45
501.60	23297.69
501.81	23447.19
502.02	23623.32
502.22	23424.67
502.43	23744.15
502.63	23924.37
502.84	24155.79
503.04	23772.82
503.25	24006.29
503.45	23996.05
503.66	24100.50
503.86	24024.72
504.07	24551.05
504.27	24157.84
504.48	24700.55
504.68	24436.36
504.89	24637.06
505.09	24571.53
505.30	24542.86
505.50	24764.04
505.71	25060.99
505.91	24882.82
506.12	24841.86
506.32	24856.20
506.53	25099.90
506.73	25020.03
506.94	25388.67
507.14	25044.61
507.35	25124.48
507.55	25075.33
507.76	25411.20
507.96	25296.51
508.17	25357.95
508.37	25714.30
508.58	25366.14
508.78	25517.69
508.99	25831.03
509.19	25575.03
509.40	25927.28
509.60	25618.04
509.81	25988.72
510.01	25810.55
510.22	25998.96
510.42	25974.39
510.63	26177.14
510.83	26148.46
511.04	26183.28
511.24	26031.73
511.44	26267.25
511.65	26429.04
511.85	26482.28
512.06	26619.50
512.26	26250.86
512.47	26621.55
512.67	26637.93
512.88	26871.40
513.08	26441.32
513.29	26844.77
513.49	26719.85
513.69	26842.73
513.90	26965.60
514.10	27117.15
514.31	27106.91
514.51	27045.48
514.72	27154.02
514.92	27209.31
515.13	27049.57
515.33	27407.97
515.53	27348.57
515.74	27342.43
515.94	27719.26
516.15	27575.90
516.35	27518.56
516.56	27782.74
516.76	27512.41
516.96	27733.59
517.17	27981.40
517.37	27907.67
517.58	27901.53
517.78	28137.04
517.99	27862.61
518.19	28427.85
518.39	28405.33
518.60	28685.90
518.80	28487.25
519.01	28401.23
519.21	28409.42
519.41	28526.16
519.62	28651.08
519.82	28800.58
520.03	28972.61
520.23	29122.12
520.43	28819.02
520.64	28972.61
520.84	29294.14
521.05	28833.35
521.25	29400.64
521.45	29648.44
521.66	29435.45
521.86	29361.73
522.07	29410.88
522.27	29537.85
522.47	29570.62
522.68	29939.26
522.88	29587.00
523.08	29888.06
523.29	29802.04
523.49	30045.75
523.70	30121.52
523.90	30055.99
524.10	30445.10
524.31	30361.14
524.51	30090.80
524.71	30918.18
524.92	30223.92
525.12	30750.25
525.33	30787.11
525.53	30826.03
525.73	31245.86
525.94	31264.29
526.14	30709.29
526.34	31053.35
526.55	31344.16
526.75	30905.90
526.95	31327.78
527.16	31594.01
527.36	31460.90
527.56	31645.21
527.77	31888.92
527.97	31663.64
528.17	32087.57
528.38	32312.85
528.58	32151.06
528.78	32226.84
528.99	32083.48
529.19	32499.22
529.39	32509.46
529.60	32554.51
529.80	32325.14
530.00	32552.46
530.21	32794.12
530.41	32917.00
530.61	32955.91
530.82	33220.10
531.02	33041.93
531.22	33480.19
531.43	32857.61
531.63	33455.62
531.83	33646.08
532.04	33949.18
532.24	33621.50
532.44	33797.63
532.64	34383.35
532.85	34131.45
533.05	34276.85
533.25	33713.66
533.46	34180.60
533.66	34756.08
533.86	34326.00
534.07	34991.59
534.27	34369.01
534.47	34971.11
534.67	34711.02
534.88	34608.62
535.08	35081.70
535.28	35360.23
535.49	35388.90
535.69	35644.90
535.89	35747.29
536.09	35335.65
536.30	35792.35
536.50	35653.09
536.70	35681.76
536.91	35927.52
537.11	36199.90
537.31	35882.46
537.51	35929.56
537.72	36533.71
537.92	36562.39
538.12	36765.14
538.32	36783.57
538.53	36664.78
538.73	36677.07
538.93	36799.95
539.13	37045.71
539.34	36613.59
539.54	36584.91
539.74	37105.10
539.94	37244.36
540.15	37236.17
540.35	37283.27
540.55	37574.08
540.75	37477.83
540.96	37467.59
541.16	37598.66
541.36	37774.78
541.56	37088.71
541.77	37952.96
541.97	37930.43
542.17	38288.82
542.37	37987.77
542.58	38192.57
542.78	38204.86
542.98	38389.17
543.18	38352.31
543.38	38663.60
543.59	38585.78
543.79	38389.17
543.99	38413.75
544.19	38729.14
544.40	38673.84
544.60	39087.53
544.80	38843.82
545.00	38993.32
545.20	39153.07
545.41	38872.49
545.61	39468.45
545.81	39183.79
546.01	39359.91
546.21	39044.52
546.42	38995.37
546.62	39767.46
546.82	39116.20
547.02	39382.44
547.22	39984.54
547.43	39601.57
547.63	39577.00
547.83	39826.85
548.03	39523.75
548.23	40002.97
548.44	39865.76
548.64	39759.27
548.84	39945.63
549.04	40121.76
549.24	40435.10
549.45	40277.40
549.65	40183.19
549.85	40387.99
550.05	40306.07
550.25	40582.55
550.45	40750.48
550.66	40527.25
550.86	40478.10
551.06	40842.64
551.26	40672.66
551.46	41164.17
551.66	40963.47
551.87	40609.17
552.07	41215.37
552.27	40652.18
552.47	41063.82
552.67	41282.95
552.87	41303.43
553.07	41600.39
553.28	40756.63
553.48	41450.89
553.68	41074.06
553.88	41399.69
554.08	41074.06
554.28	41422.22
554.48	41219.47
554.69	41579.91
554.89	41485.70
555.09	41260.43
555.29	41407.88
555.49	41547.14
555.69	42057.09
555.89	41721.22
556.10	41985.41
556.30	41424.26
556.50	41985.41
556.70	41672.07
556.90	42161.53
557.10	42214.78
557.30	41647.49
557.50	41776.51
557.70	42139.00
557.91	42171.77
558.11	42014.08
558.31	42177.92
558.51	42147.20
558.71	42495.35
558.91	42474.87
559.11	42407.29
559.31	42276.22
559.51	42511.74
559.72	42444.15
559.92	42839.41
560.12	42265.98
560.32	42990.96
560.52	42407.29
560.72	42423.67
560.92	42931.57
561.12	42452.34
561.32	43130.22
561.52	42827.12
561.72	43001.20
561.93	42833.27
562.13	43119.98
562.33	42497.40
562.53	43224.43
562.73	42800.50
562.93	43119.98
563.13	42878.32
563.33	42722.68
563.53	43531.62
563.73	42241.40
563.93	42923.38
564.13	43552.10
564.33	43169.13
564.53	43107.69
564.74	43281.77
564.94	43382.12
565.14	43150.70
565.34	43105.65
565.54	43470.18
565.74	43316.59
565.94	43509.10
566.14	43103.60
566.34	43505.00
566.54	44150.11
566.74	43353.45
566.94	43851.11
567.14	43703.65
567.34	43918.69
567.54	43736.42
567.74	43470.18
567.94	43781.48
568.14	44008.80
568.34	44205.41
568.54	43744.61
568.74	43763.04
568.94	43904.35
569.14	44096.86
569.34	44225.89
569.54	44039.52
569.75	43777.38
569.95	43892.07
570.15	44277.08
570.35	44012.90
570.55	44236.12
570.75	44576.09
570.95	44223.84
571.15	44393.82
571.35	44701.01
571.55	44635.48
571.75	44203.36
571.95	44178.78
572.15	44297.56
572.35	44418.39
572.55	44090.72
572.75	44563.80
572.95	44823.89
573.15	44844.37
573.35	44463.45
573.55	44588.38
573.75	44795.22
573.95	45092.18
574.15	45034.83
574.35	45294.92
574.55	45243.73
574.75	44701.01
574.95	45587.78
575.15	45012.31
575.34	45391.18
575.54	44918.10
575.74	45354.32
575.94	45251.92
576.14	45249.87
576.34	45479.24
576.54	45497.67
576.74	45561.16
576.94	45679.94
577.14	45595.98
577.34	45980.99
577.54	45651.27
577.74	45856.07
577.94	45858.12
578.14	45741.38
578.34	46089.54
578.54	45272.40
578.74	46048.58
578.94	46028.10
579.14	45800.77
579.34	46150.98
579.54	45600.07
579.74	46361.92
579.94	46118.21
580.13	45956.42
580.33	46048.58
580.53	46169.41
580.73	46431.55
580.93	46648.63
581.13	46241.09
581.33	46949.68
581.53	46570.81
581.73	47107.38
581.93	47054.13
582.13	46728.50
582.33	47322.41
582.53	46687.54
582.73	47095.09
582.92	47056.18
583.12	47363.37
583.32	47029.55
583.52	47123.76
583.72	47650.09
583.92	47271.21
584.12	47396.14
584.32	47820.07
584.52	47365.42
584.72	47510.83
584.92	47705.38
585.11	47869.22
585.31	47578.41
585.51	47904.04
585.71	47529.26
585.91	48182.56
586.11	47875.37
586.31	47897.89
586.51	47826.21
586.71	48114.98
586.91	48211.23
587.10	48467.23
587.30	47969.57
587.50	48448.80
587.70	48313.63
587.90	48340.25
588.10	49151.25
588.30	48301.34
588.50	48555.29
588.69	48819.48
588.89	48473.37
589.09	48557.34
589.29	48663.83
589.49	49112.34
589.69	48553.24
589.89	48833.81
590.08	48706.84
590.28	48899.35
590.48	49055.00
590.68	49126.67
590.88	49280.27
591.08	49296.66
591.28	49286.42
591.47	49433.87
591.67	49427.73
591.87	49433.87
592.07	49360.14
592.27	49161.49
592.47	49014.04
592.67	49640.71
592.86	49444.11
593.06	49855.75
593.26	49435.92
593.46	49749.26
593.66	50396.42
593.86	50078.98
594.05	49919.24
594.25	50490.62
594.45	49569.04
594.65	50105.60
594.85	50081.03
595.05	50257.15
595.24	50529.53
595.44	50083.08
595.64	50345.22
595.84	50640.12
596.04	50451.71
596.23	50429.18
596.43	50582.78
596.63	50298.11
596.83	50621.69
597.03	50566.40
597.22	50814.20
597.42	50975.99
597.62	51098.87
597.82	50855.16
598.02	51080.44
598.21	50996.47
598.41	51043.57
598.61	51033.33
598.81	51252.47
599.01	51580.14
599.20	51184.88
599.40	51088.63
599.60	51848.42
599.80	51551.47
600.00	51477.74
600.19	51561.71
600.39	51879.14
600.59	52196.58
600.79	51877.10
600.98	51602.67
601.18	52057.32
601.38	51991.78
601.58	51999.97
601.78	51901.67
601.97	52428.00
602.17	52622.56
602.37	52337.89
602.57	52364.51
602.76	52647.13
602.96	52360.42
603.16	52917.46
603.36	52360.42
603.55	52853.98
603.75	52331.75
603.95	52712.67
604.15	53007.58
604.34	52778.20
604.54	52983.00
604.74	53157.08
604.94	52761.82
605.13	53212.37
605.33	53099.73
605.53	53624.01
605.73	53155.03
605.92	53368.02
606.12	54025.42
606.32	53720.27
606.52	53527.76
606.71	53839.05
606.91	53634.25
607.11	53769.42
607.30	53794.00
607.50	53562.57
607.70	53941.45
607.90	53662.93
608.09	53761.23
608.29	54297.80
608.49	53849.29
608.68	53712.08
608.88	54033.61
609.08	54211.78
609.28	54750.40
609.47	54174.92
609.67	54396.10
609.87	54164.68
610.06	54557.89
610.26	54377.67
610.46	54465.73
610.66	54295.75
610.85	54029.51
611.05	53986.50
611.25	54588.61
611.44	54678.72
611.64	54721.72
611.84	54547.65
612.03	54236.36
612.23	54523.07
612.43	54803.64
612.62	54598.85
612.82	54793.40
613.02	54246.60
613.21	54906.04
613.41	54439.11
613.61	55039.16
613.80	53832.91
614.00	54641.85
614.20	54723.77
614.39	55082.17
614.59	54877.37
614.79	54822.08
614.98	55049.40
615.18	54805.69
615.38	54912.19
615.57	54996.15
615.77	55256.24
615.97	54850.75
616.16	54619.33
616.36	54789.31
616.56	55252.15
616.75	55143.61
616.95	54650.05
617.15	54785.21
617.34	54826.17
617.54	54768.83
617.74	55237.81
617.93	54987.96
618.13	54744.25
618.32	54652.09
618.52	55037.11
618.72	55192.76
618.91	55110.84
619.11	54531.26
619.31	54817.98
619.50	54629.57
619.70	54748.35
619.90	55014.58
620.09	54731.96
620.29	55014.58
620.48	54908.09
620.68	55092.41
620.88	54547.65
621.07	54668.48
621.27	54658.24
621.46	54912.19
621.66	54928.57
621.86	54633.66
622.05	54484.16
622.25	55180.47
622.44	54764.73
622.64	54527.17
622.84	54957.24
623.03	54547.65
623.23	54779.07
623.42	54834.36
623.62	54707.39
623.82	54793.40
624.01	54908.09
624.21	55108.79
624.40	55301.30
624.60	54549.70
624.80	54371.52
624.99	54553.79
625.19	54574.27
625.38	54793.40
625.58	55252.15
625.77	54901.95
625.97	55014.58
626.17	54645.95
626.36	54543.55
626.56	54981.82
626.75	54842.56
626.95	55317.68
627.14	54850.75
627.34	55618.74
627.54	54535.36
627.73	55119.03
627.93	55106.74
628.12	54437.06
628.32	54621.37
628.51	54932.67
628.71	54998.20
628.90	54719.68
629.10	55047.35
629.30	54846.65
629.49	54729.92
629.69	54613.18
629.88	54670.53
630.08	55119.03
630.27	54809.79
630.47	54865.08
630.66	54947.00
630.86	55368.88
631.05	54611.13
631.25	55317.68
631.44	54930.62
631.64	54744.25
631.84	54707.39
632.03	55178.42
632.23	54660.29
632.42	55346.36
632.62	54781.12
632.81	54572.22
633.01	55006.39
633.20	55219.38
633.40	55170.23
633.59	54965.43
633.79	54461.63
633.98	55098.55
634.18	54750.40
634.37	54666.43
634.57	54727.87
634.76	55248.05
634.96	54889.66
635.15	55368.88
635.35	54727.87
635.54	54707.39
635.74	55489.71
635.93	54875.32
636.13	55321.78
636.32	55008.44
636.52	54785.21
636.71	54826.17
636.91	54774.97
637.10	54965.43
637.30	54881.47
637.49	54867.13
637.69	54817.98
637.88	55436.47
638.08	55039.16
638.27	55014.58
638.46	54860.99
638.66	54740.16
638.85	54824.12
639.05	55231.67
639.24	55297.20
639.44	54762.68
639.63	55233.72
639.83	54676.67
640.02	54940.86
640.22	54930.62
640.41	55243.96
640.61	54789.31
640.80	54932.67
640.99	55168.18
641.19	55485.62
641.38	55270.58
641.58	55325.88
641.77	54912.19
641.97	54957.24
642.16	54895.80
642.36	55211.19
642.55	55387.31
642.74	54998.20
642.94	55327.92
643.13	54754.49
643.33	55252.15
643.52	55473.33
643.72	55250.10
643.91	55030.97
644.10	55153.85
644.30	55524.53
644.49	55198.90
644.69	55458.99
644.88	55190.71
645.08	55076.02
645.27	55098.55
645.46	55350.45
645.66	55338.16
645.85	55620.78
646.05	55301.30
646.24	55270.58
646.43	55424.18
646.63	55745.71
646.82	55755.95
647.02	55329.97
647.21	55502.00
647.40	55657.65
647.60	55946.41
647.79	55643.31
647.99	55379.12
648.18	55280.82
648.37	56075.43
648.57	55540.91
648.76	55293.11
648.96	55153.85
649.15	55721.13
649.34	55731.37
649.54	55559.34
649.73	55506.10
649.92	55686.32
650.12	55655.60
650.31	55555.25
650.51	55655.60
650.70	56282.28
650.89	55592.11
651.09	55805.10
651.28	55907.50
651.47	55489.71
651.67	55583.92
651.86	55786.67
652.06	55286.96
652.25	55559.34
652.44	55409.84
652.64	55706.80
652.83	55893.16
653.02	55270.58
653.22	55575.73
653.41	55397.55
653.60	55162.04
653.80	55438.51
653.99	55870.64
654.18	55647.41
654.38	55475.38
654.57	55223.48
654.76	55340.21
654.96	55649.45
655.15	55358.64
655.34	55903.40
655.54	55325.88
655.73	55641.26
655.92	55499.95
656.12	55758.00
656.31	55692.46
656.50	55690.41
656.70	55825.58
656.89	55311.54
657.08	55272.63
657.28	55932.07
657.47	55768.24
657.66	55669.93
657.86	55827.63
658.05	55960.75
658.24	55745.71
658.43	55415.99
658.63	55899.31
658.82	55903.40
659.01	56163.50
659.21	55897.26
659.40	55827.63
659.59	55915.69
659.79	56161.45
659.98	55958.70
660.17	55960.75
660.36	55364.79
660.56	55925.93
660.75	56079.53
660.94	55704.75
661.14	55592.11
661.33	56085.67
661.52	55227.57
661.71	56007.85
661.91	55329.97
662.10	55688.37
662.29	56134.82
662.49	55655.60
662.68	55471.28
662.87	55770.28
663.06	55665.84
663.26	55508.14
663.45	56106.15
663.64	55616.69
663.83	56378.53
664.03	55887.02
664.22	55854.25
664.41	56347.81
664.60	55686.32
664.80	55925.93
664.99	55780.52
665.18	55932.07
665.37	56030.38
665.57	56165.54
665.76	55710.89
665.95	55837.87
666.14	55768.24
666.34	55588.02
666.53	55456.95
666.72	55917.74
666.91	55547.06
667.11	55674.03
667.30	55827.63
667.49	55649.45
667.68	55522.48
667.87	55764.14
668.07	55860.40
668.26	55495.86
668.45	56126.63
668.64	55631.02
668.84	56890.52
669.03	56067.24
669.22	55973.03
669.41	55940.27
669.60	56038.57
669.80	55727.28
669.99	56020.14
670.18	55768.24
670.37	56161.45
670.57	55981.23
670.76	55794.86
670.95	55702.70
671.14	55841.96
671.33	55536.82
671.53	56515.75
671.72	56007.85
671.91	55723.18
672.10	55973.03
672.29	55483.57
672.48	55905.45
672.68	56079.53
672.87	55940.27
673.06	56177.83
673.25	55721.13
673.44	55280.82
673.64	56089.77
673.83	55491.76
674.02	55424.18
674.21	55899.31
674.40	55950.51
674.59	55604.40
674.79	55549.10
674.98	55514.29
675.17	55780.52
675.36	55510.19
675.55	55919.79
675.74	55835.82
675.94	55407.79
676.13	56030.38
676.32	55497.91
676.51	55981.23
676.70	55760.05
676.89	55551.15
677.08	55970.99
677.28	55547.06
677.47	55717.04
677.66	56143.02
677.85	55620.78
678.04	56294.56
678.23	56167.59
678.42	55850.16
678.62	55758.00
678.81	55841.96
679.00	55735.47
679.19	56188.07
679.38	56048.81
679.57	55760.05
679.76	56081.58
679.96	55698.61
680.15	55841.96
680.34	55510.19
680.53	55903.40
680.72	56097.96
680.91	56018.09
681.10	55692.46
681.29	56001.71
681.48	55450.80
681.68	55567.54
681.87	55518.38
682.06	55866.54
682.25	55325.88
682.44	55456.95
682.63	55624.88
682.82	55391.41
683.01	55276.72
683.20	54899.90
683.39	55803.05
683.59	55350.45
683.78	54850.75
683.97	55475.38
684.16	55401.65
684.35	55033.02
684.54	55555.25
684.73	55061.69
684.92	55424.18
685.11	55385.27
685.30	55565.49
685.49	55626.93
685.69	55260.34
685.88	55489.71
686.07	55327.92
686.26	55178.42
686.45	55393.46
686.64	55360.69
686.83	55266.48
687.02	55182.52
687.21	55882.92
687.40	55301.30
687.59	55401.65
687.78	54965.43
687.97	55739.57
688.16	55084.22
688.35	55119.03
688.54	55002.30
688.74	55303.35
688.93	55407.79
689.12	55276.72
689.31	55184.57
689.50	55033.02
689.69	55096.50
689.88	54781.12
690.07	54981.82
690.26	54971.58
690.45	55065.78
690.64	55237.81
690.83	54699.20
691.02	54656.19
691.21	54645.95
691.40	54895.80
691.59	54693.05
691.78	55186.61
691.97	55125.17
692.16	55256.24
692.35	55194.81
692.54	55112.89
692.73	55194.81
692.92	55184.57
693.11	54826.17
693.30	54783.16
693.49	54781.12
693.68	55057.59
693.87	54975.67
694.06	54893.75
694.25	54506.69
694.44	54387.91
694.63	54783.16
694.82	54959.29
695.01	54709.44
695.20	54842.56
695.39	54412.48
695.58	54547.65
695.77	54840.51
695.96	54379.71
696.15	54744.25
696.34	54959.29
696.53	54342.85
696.72	54561.98
696.91	54408.39
697.10	54795.45
697.29	54539.46
697.48	54903.99
697.67	54598.85
697.86	54217.92
698.05	54297.80
698.24	55043.26
698.43	54045.90
698.62	54615.23
698.81	54215.88
699.00	54844.60
699.19	53966.02
699.38	54332.61
699.57	54303.94
699.76	54590.66
699.95	53976.26
700.14	54140.10
700.32	54359.23
700.51	54291.65
700.70	54392.00
700.89	54768.83
701.08	54320.32
701.27	54383.81
701.46	54310.08
701.65	53572.81
701.84	54002.89
702.03	53732.56
702.22	53910.73
702.41	53861.58
702.60	53978.31
702.79	54129.86
702.98	54043.85
703.17	53896.39
703.35	53892.30
703.54	53472.46
703.73	53648.59
703.92	53859.53
704.11	53890.25
704.30	53791.95
704.49	53634.25
704.68	53114.07
704.87	53755.08
705.06	53542.10
705.25	53292.24
705.43	53441.74
705.62	53527.76
705.81	53472.46
706.00	53810.38
706.19	53343.44
706.38	53370.07
706.57	53183.70
706.76	53267.67
706.95	53271.76
707.14	53413.07
707.32	53396.69
707.51	53359.83
707.70	53161.17
707.89	53241.04
708.08	53365.97
708.27	53484.75
708.46	53490.90
708.65	53048.53
708.84	53392.59
709.02	53249.24
709.21	53200.08
709.40	53105.88
709.59	52815.07
709.78	52204.77
709.97	53187.80
710.16	52757.72
710.34	53071.06
710.53	52663.52
710.72	52698.33
710.91	52921.56
711.10	53075.16
711.29	53241.04
711.48	53132.50
711.66	52413.66
711.85	52804.83
712.04	53089.49
712.23	52886.74
712.42	52597.98
712.61	52679.90
712.80	52389.09
712.98	52665.56
713.17	52444.38
713.36	52847.83
713.55	52370.66
713.74	52438.24
713.93	52372.70
714.11	52387.04
714.30	51948.78
714.49	52368.61
714.68	52991.19
714.87	52514.01
715.06	52714.72
715.24	52133.09
715.43	51950.82
715.62	52174.05
715.81	51971.30
716.00	52098.28
716.18	51879.14
716.37	51582.19
716.56	51889.38
716.75	52301.03
716.94	51680.49
717.12	51786.99
717.31	52081.89
717.50	51805.42
717.69	51606.76
717.88	51565.81
718.06	52038.89
718.25	51817.71
718.44	51500.27
718.63	51746.03
718.82	51231.99
719.00	51754.22
719.19	51643.63
719.38	51201.27
719.57	50840.82
719.76	50666.75
719.94	51000.57
720.13	50873.59
720.32	51315.95
720.51	50869.50
720.69	50806.01
720.88	50674.94
721.07	50535.68
721.26	50535.68
721.44	50687.23
721.63	50334.98
721.82	50439.42
722.01	50681.08
722.20	50466.05
722.38	50095.36
722.57	50058.50
722.76	50457.85
722.95	50031.88
723.13	49667.34
723.32	49861.90
723.51	49904.90
723.70	49816.84
723.88	49927.43
724.07	49845.51
724.26	49857.80
724.44	49511.69
724.63	50023.68
724.82	49681.67
725.01	49622.28
725.19	49523.98
725.38	49558.80
725.57	49464.59
725.76	49476.88
725.94	49188.11
726.13	49319.18
726.32	49640.71
726.51	49194.26
726.69	49351.95
726.88	49407.25
727.07	49364.24
727.25	49444.11
727.44	49638.67
727.63	49163.54
727.82	49204.50
728.00	49272.08
728.19	49067.28
728.38	49325.33
728.56	48833.81
728.75	49347.86
728.94	48633.11
729.12	49169.68
729.31	48852.25
729.50	49003.80
729.69	49231.12
729.87	48725.27
730.06	48618.78
730.25	49087.76
730.43	49161.49
730.62	48880.92
730.81	48942.36
730.99	48934.17
731.18	48895.25
731.37	48782.62
731.55	49325.33
731.74	48928.02
731.93	48710.94
732.11	49046.80
732.30	48821.53
732.49	48391.45
732.67	48526.62
732.86	48647.45
733.05	48751.90
733.23	48317.73
733.42	48958.74
733.61	48166.18
733.79	48805.14
733.98	49122.58
734.17	48633.11
734.35	48684.31
734.54	48710.94
734.73	48842.01
734.91	48629.02
735.10	48145.70
735.29	48739.61
735.47	48350.49
735.66	48389.41
735.84	48395.55
736.03	48043.30
736.22	48530.72
736.40	48280.86
736.59	48418.08
736.78	48074.02
736.96	48362.78
737.15	48196.90
737.33	47691.05
737.52	47985.96
737.71	48024.87
737.89	48157.99
738.08	47717.67
738.27	47523.11
738.45	48037.16
738.64	47443.24
738.82	47754.54
739.01	47942.95
739.20	48043.30
739.38	48026.92
739.57	48147.75
739.75	47844.65
739.94	47656.23
740.13	47467.82
740.31	47390.00
740.50	47342.89
740.68	47461.68
740.87	47961.38
741.06	47289.65
741.24	47443.24
741.43	47191.34
741.61	47584.55
741.80	46939.44
741.99	47205.68
742.17	47449.39
742.36	47295.79
742.54	47297.84
742.73	47244.59
742.91	46918.96
743.10	46517.56
743.29	47543.59
743.47	47129.90
743.66	47023.41
743.84	47301.93
744.03	46771.51
744.21	46810.42
744.40	47265.07
744.59	46607.67
744.77	46718.26
744.96	46654.78
745.14	46710.07
745.33	46781.75
745.51	46572.86
745.70	46642.49
745.88	46789.94
746.07	46767.41
746.26	46683.45
746.44	46499.13
746.63	46544.19
746.81	46828.85
747.00	46660.92
747.18	46769.46
747.37	46404.92
747.55	46290.24
747.74	46908.72
747.92	46095.68
748.11	45937.99
748.29	46204.22
748.48	46284.09
748.66	46015.81
748.85	45817.16
749.03	45993.28
749.22	45786.44
749.41	45716.81
749.59	45980.99
749.78	45425.99
749.96	45458.76
750.15	46126.40
750.33	45622.60
750.52	45497.67
750.70	45905.22
750.89	45256.01
751.07	45370.70
751.26	45561.16
751.44	45167.95
751.63	45471.05
751.81	45710.66
752.00	45260.11
752.18	45583.69
752.37	45077.84
752.55	44721.49
752.74	44776.79
752.92	44873.04
753.10	45063.50
753.29	45161.81
753.47	44754.26
753.66	44754.26
753.84	45186.38
754.03	44791.12
754.21	44348.76
754.40	44995.92
754.58	45120.85
754.77	44719.45
754.95	44612.95
755.14	44711.25
755.32	44561.75
755.51	44166.49
755.69	44086.62
755.88	44309.85
756.06	44328.28
756.24	44297.56
756.43	44309.85
756.61	44248.41
756.80	44359.00
756.98	44043.62
757.17	44080.48
757.35	44225.89
757.54	43955.55
757.72	43971.94
757.90	44193.12
758.09	44166.49
758.27	43986.27
758.46	43623.78
758.64	43677.03
758.83	44016.99
759.01	43711.84
759.19	43752.80
759.38	43552.10
759.56	43586.92
759.75	43642.21
759.93	43926.88
760.12	42863.99
760.30	43443.56
760.48	43515.24
760.67	43134.32
760.85	43287.92
761.04	43380.07
761.22	43568.49
761.40	43726.18
761.59	43138.41
761.77	42917.23
761.96	43263.34
762.14	43089.26
762.32	42726.77
762.51	42870.13
762.69	42898.80
762.88	42415.48
763.06	42906.99
763.24	42804.59
763.43	42988.91
763.61	42665.33
763.80	42796.40
763.98	42732.92
764.16	42526.07
764.35	42270.08
764.53	41966.98
764.72	42233.21
764.90	42564.98
765.08	42536.31
765.27	42167.68
765.45	41948.54
765.63	41817.47
765.82	42048.89
766.00	41766.27
766.18	42032.51
766.37	42319.23
766.55	41960.83
766.74	42177.92
766.92	41979.26
767.10	41784.71
767.29	41923.97
767.47	41395.59
767.65	41778.56
767.84	41731.46
768.02	41612.68
768.20	41530.76
768.39	41782.66
768.57	41614.72
768.75	41026.96
768.94	41235.85
769.12	41403.78
769.30	40965.52
769.49	40721.81
769.67	41057.68
769.85	40744.34
770.04	40924.56
770.22	41063.82
770.40	40826.26
770.59	40623.51
770.77	40992.14
770.95	40682.90
771.14	40383.90
771.32	40322.46
771.50	40224.15
771.69	40517.01
771.87	40766.87
772.05	40529.30
772.24	40007.07
772.42	40637.84
772.60	40349.08
772.78	40283.55
772.97	40211.87
773.15	40308.12
773.33	40068.51
773.52	39900.58
773.70	40289.69
773.88	40383.90
774.07	39923.10
774.25	40125.85
774.43	40523.16
774.61	39665.06
774.80	40281.50
774.98	39902.62
775.16	40240.54
775.34	40058.27
775.53	40056.22
775.71	40150.43
775.89	40066.46
776.08	40091.04
776.26	39966.11
776.44	40293.79
776.62	40222.11
776.81	39949.73
776.99	40435.10
777.17	40416.66
777.35	40523.16
777.54	40834.45
777.72	40193.43
777.90	40293.79
778.08	40596.88
778.27	40418.71
778.45	40889.74
778.63	40580.50
778.81	40244.63
779.00	41207.18
779.18	40537.49
779.36	40783.25
779.54	40326.55
779.73	40410.52
779.91	40578.45
780.09	40549.78
780.27	40539.54
780.46	40396.18
780.64	40502.68
780.82	40410.52
781.00	40334.74
781.19	40713.62
781.37	41137.55
781.55	40719.76
781.73	41137.55
781.91	40951.18
782.10	40959.38
782.28	40805.78
782.46	40838.54
782.64	41002.38
782.82	40736.15
783.01	41178.51
783.19	40836.50
783.37	40949.14
783.55	40793.49
783.74	41381.26
783.92	41018.77
784.10	41229.71
784.28	41088.40
784.46	40705.43
784.64	40885.65
784.83	40895.89
785.01	41354.63
785.19	40875.41
785.37	40709.52
785.55	40908.18
785.74	40549.78
785.92	40316.31
786.10	41102.73
786.28	41135.50
786.46	40998.29
786.64	40373.66
786.83	40424.86
787.01	40877.46
787.19	40635.80
787.37	40541.59
787.55	40582.55
787.74	40136.09
787.92	40418.71
788.10	40254.87
788.28	39974.30
788.46	40347.03
788.64	40517.01
788.82	40525.21
789.01	40201.63
789.19	40730.00
789.37	40209.82
789.55	40265.11
789.73	40238.49
789.91	39970.21
790.09	39904.67
790.28	39910.82
790.46	39419.30
790.64	39845.28
790.82	39443.88
791.00	39880.10
791.18	39609.76
791.36	39658.91
791.55	39400.87
791.73	39613.86
791.91	38925.74
792.09	39409.06
792.27	38892.97
792.45	39220.65
792.63	39052.72
792.81	38778.29
793.00	38970.80
793.18	38804.91
793.36	38778.29
793.54	38337.98
793.72	38542.77
793.90	38792.62
794.08	38493.62
794.26	38579.64
794.44	38378.93
794.62	37852.61
794.81	38507.96
794.99	38342.07
795.17	38229.43
795.35	37778.88
795.53	38413.75
795.71	37948.86
795.89	37768.64
796.07	37625.28
796.25	37461.44
796.43	37699.01
796.61	37178.82
796.80	37270.98
796.98	37778.88
797.16	37098.95
797.34	37293.51
797.52	36677.07
797.70	37154.25
797.88	37168.58
798.06	36885.97
798.24	36916.68
798.42	36595.15
798.60	36373.97
798.78	36398.55
798.96	36552.15
799.14	36359.64
799.32	36804.05
799.51	35915.23
799.69	36373.97
799.87	36214.23
800.05	35759.58
800.23	36052.44
800.41	35909.08
800.59	35927.52
800.77	35593.70
800.95	35376.61
801.13	35384.80
801.31	35618.27
801.49	35517.92
801.67	35462.63
801.85	35538.40
802.03	35214.82
802.21	34864.62
802.39	34913.77
802.57	35026.41
802.75	35116.52
802.93	34651.63
803.11	34469.36
803.29	34711.02
803.47	34723.31
803.65	34444.79
803.83	34418.16
804.01	34768.37
804.19	34334.20
804.37	34055.67
804.55	34057.72
804.73	34295.28
804.91	33959.42
805.09	34010.62
805.27	33996.28
805.45	33887.74
805.63	34176.50
805.81	34049.53
805.99	33656.32
806.17	34014.71
806.35	34063.86
806.53	33711.61
806.71	33865.21
806.89	33861.12
807.07	33639.93
807.25	33486.34
807.43	33019.40
807.61	33175.05
807.79	33508.86
807.97	32804.36
808.15	32830.99
808.33	32892.43
808.51	32638.48
808.69	32667.15
808.87	32374.29
809.05	32663.05
809.23	32337.43
809.41	32511.50
809.59	32398.87
809.77	32622.09
809.95	32417.30
810.13	32906.76
810.31	32151.06
810.49	32366.10
810.67	32454.16
810.84	31843.87
811.02	32071.19
811.20	31835.67
811.38	32200.21
811.56	31737.37
811.74	31929.88
811.92	31505.95
812.10	31798.81
812.28	31823.39
812.46	31383.07
812.64	31419.94
812.82	31671.84
813.00	31606.30
813.18	31303.20
813.36	31192.61
813.53	31327.78
813.71	31383.07
813.89	30686.76
814.07	31448.61
814.25	31446.56
814.43	31051.30
814.61	30848.55
814.79	30973.48
814.97	30828.07
815.15	30875.18
815.33	30830.12
815.50	30662.19
815.68	30635.56
815.86	30785.07
816.04	30547.50
816.22	30481.97
816.40	30459.44
816.58	30385.71
816.76	30359.09
816.94	30344.75
817.11	30332.47
817.29	30174.77
817.47	30182.96
817.65	29847.10
817.83	30031.41
818.01	29947.45
818.19	29984.31
818.37	30066.23
818.54	29953.59
818.72	29933.11
818.90	29904.44
819.08	29621.82
819.26	29720.12
819.44	29568.57
819.62	29480.51
819.80	29560.38
819.97	29546.05
820.15	29058.63
820.33	29271.62
820.51	29318.72
820.69	29294.14
820.87	29134.40
821.05	29384.26
821.22	29177.41
821.40	29083.20
821.58	28925.51
821.76	28839.50
821.94	29152.84
822.12	28886.60
822.29	29214.27
822.47	28925.51
822.65	29378.11
822.83	28980.81
823.01	29214.27
823.19	28675.66
823.36	28601.93
823.54	28546.64
823.72	28876.36
823.90	28622.41
824.08	28595.79
824.25	28374.61
824.43	28431.95
824.61	28431.95
824.79	28544.59
824.97	28477.01
825.15	28231.25
825.32	28091.99
825.50	27938.39
825.68	27852.38
825.86	28563.02
826.04	28350.03
826.21	28194.39
826.39	28048.98
826.57	27661.91
826.75	27950.68
826.93	27731.54
827.10	28098.13
827.28	28294.74
827.46	27795.03
827.64	27930.20
827.81	27635.29
827.99	27752.02
828.17	27455.07
828.35	27350.62
828.53	27469.40
828.70	27567.71
828.88	27430.49
829.06	27682.39
829.24	27743.83
829.41	27485.79
829.59	27782.74
829.77	27465.31
829.95	27473.50
830.12	27209.31
830.30	27137.63
830.48	27407.97
830.66	27225.70
830.84	27240.03
831.01	27016.80
831.19	27088.48
831.37	27006.56
831.55	26793.58
831.72	27180.64
831.90	27010.66
832.08	27248.22
832.25	27291.23
832.43	26879.59
832.61	26838.63
832.79	26785.38
832.96	26857.06
833.14	26533.48
833.32	26627.69
833.50	26879.59
833.67	26693.22
833.85	26848.87
834.03	26603.11
834.20	26766.95
834.38	26814.05
834.56	26398.32
834.74	26287.73
834.91	26670.70
835.09	26474.09
835.27	26465.90
835.44	26130.03
835.62	25720.44
835.80	26052.21
835.98	26140.27
836.15	26375.79
836.33	26076.79
836.51	25960.05
836.68	26424.94
836.86	26060.40
837.04	26162.80
837.21	26150.51
837.39	26187.38
837.57	25917.04
837.75	25921.14
837.92	25871.99
838.10	25693.82
838.28	25853.56
838.45	26023.54
838.63	25501.31
838.81	25624.18
838.98	25607.80
839.16	25628.28
839.34	25364.09
839.51	25374.33
839.69	25417.34
839.87	25757.30
840.04	25413.24
840.22	25880.18
840.40	25316.99
840.57	25298.56
840.75	24880.77
840.93	24872.58
841.10	25380.48
841.28	25443.96
841.46	25190.02
841.63	25355.90
841.81	25187.97
841.98	24952.45
842.16	25175.68
842.34	25235.07
842.51	24829.57
842.69	25015.94
842.87	25147.01
843.04	25206.40
843.22	25056.90
843.40	24657.54
843.57	24940.16
843.75	24819.33
843.92	24710.79
844.10	24571.53
844.28	24991.36
844.45	24850.05
844.63	24675.98
844.81	24710.79
844.98	24577.67
845.16	24848.00
845.33	24747.65
845.51	24551.05
845.69	24614.54
845.86	24151.70
846.04	24295.05
846.21	24245.90
846.39	24229.52
846.57	24290.96
846.74	24299.15
846.92	24280.72
847.09	24143.50
847.27	24170.13
847.45	24209.04
847.62	24276.62
847.80	24161.94
847.97	24557.19
848.15	24018.58
848.32	24018.58
848.50	24188.56
848.68	23817.88
848.85	23901.84
849.03	23342.75
849.20	23922.32
849.38	23756.44
849.56	23703.19
849.73	23467.67
849.91	23869.08
850.08	23922.32
850.26	23318.17
850.43	23613.08
850.61	23580.31
850.78	23348.89
850.96	23797.40
851.14	23541.40
851.31	23250.59
851.49	23510.68
851.66	23146.14
851.84	23189.15
852.01	23584.41
852.19	23303.84
852.36	23387.80
852.54	23459.48
852.71	23584.41
852.89	23262.88
853.07	23412.38
853.24	23125.66
853.42	23107.23
853.59	23164.57
853.77	23170.72
853.94	23420.57
854.12	23373.47
854.29	22998.69
854.47	23074.46
854.64	23008.93
854.82	23084.70
854.99	22806.18
855.17	23019.17
855.34	22843.04
855.52	23096.99
855.69	22834.85
855.87	22922.91
856.04	22671.01
856.22	23072.42
856.39	22595.24
856.57	22447.79
856.74	22576.81
856.92	22728.36
857.09	22339.24
857.27	22652.58
857.44	22636.20
857.62	22554.28
857.79	22664.87
857.97	22585.00
858.14	22363.82
858.32	22511.27
858.49	22249.13
858.67	22156.97
858.84	22017.71
859.02	22286.00
859.19	22267.56
859.37	22077.10
859.54	22126.25
859.72	22126.25
859.89	21962.42
860.06	22027.95
860.24	22044.34
860.41	22156.97
860.59	21860.02
860.76	21890.74
860.94	21722.80
861.11	21763.76
861.29	22087.34
861.46	22030.00
861.64	21536.44
861.81	21550.78
861.98	21804.72
862.16	21743.28
862.33	21698.23
862.51	21483.19
862.68	21692.08
862.86	21687.99
863.03	21761.72
863.21	21425.85
863.38	21434.04
863.55	21161.66
863.73	21513.91
863.90	21333.69
864.08	21565.11
864.25	21143.23
864.43	21614.26
864.60	20854.47
864.77	21022.40
864.95	21167.80
865.12	20872.90
865.30	21307.07
865.47	20903.62
865.64	21018.30
865.82	21141.18
865.99	20977.34
866.17	20895.43
866.34	20956.86
866.51	20584.13
866.69	20661.96
866.86	21155.52
867.04	20999.87
867.21	20901.57
867.38	20618.95
867.56	20922.05
867.73	20702.92
867.91	20430.54
868.08	20580.04
868.25	20797.12
868.43	20319.95
868.60	20145.87
868.78	20448.97
868.95	20588.23
869.12	20313.80
869.30	20319.95
869.47	20313.80
869.64	20068.05
869.82	19957.46
869.99	19916.50
870.16	20692.68
870.34	20127.44
870.51	20575.94
870.69	20053.71
870.86	20033.23
871.03	20123.34
871.21	19967.70
871.38	20045.52
871.55	20115.15
871.73	19748.56
871.90	19812.05
872.07	19787.47
872.25	19670.74
872.42	19834.58
872.59	19707.60
872.77	19781.33
872.94	19609.30
873.11	19597.01
873.29	19648.21
873.46	19273.43
873.63	19459.80
873.81	19396.31
873.98	19308.25
874.15	19367.64
874.33	19039.97
874.50	19195.61
874.67	19295.96
874.85	19185.37
875.02	18912.99
875.19	18992.86
875.37	18910.94
875.54	18857.70
875.71	18894.56
875.88	18878.18
876.06	18759.39
876.23	18820.83
876.40	18833.12
876.58	18745.06
876.75	18568.93
876.92	18595.56
877.10	18564.84
877.27	18372.33
877.44	18634.47
877.61	18392.81
877.79	18644.71
877.96	18388.71
878.13	18407.14
878.31	18192.11
878.48	18181.87
878.65	18259.69
878.82	18005.74
879.00	18142.96
879.17	17962.73
879.34	18093.80
879.51	18020.08
879.69	18071.28
879.86	17936.11
880.03	18114.28
880.21	17835.76
880.38	17923.82
880.55	17954.54
880.72	17917.68
880.90	18054.89
881.07	18001.65
881.24	17753.84
881.41	17805.04
881.59	17700.59
881.76	17477.37
881.93	17688.31
882.10	17573.62
882.28	17567.48
882.45	17520.37
882.62	17454.84
882.79	17385.21
882.96	17194.75
883.14	17604.34
883.31	17348.34
883.48	17174.27
883.65	17536.76
883.83	17411.83
884.00	17342.20
884.17	17393.40
884.34	17293.05
884.51	17239.80
884.69	17155.83
884.86	17329.91
885.03	17391.35
885.20	17020.67
885.38	17121.02
885.55	17125.11
885.72	17047.29
885.89	17024.76
886.06	16975.61
886.24	16844.54
886.41	16994.04
886.58	17241.85
886.75	17168.12
886.92	16799.49
887.10	17026.81
887.27	17100.54
887.44	16785.15
887.61	16871.17
887.78	16955.13
887.95	16879.36
888.13	16912.13
888.30	16549.64
888.47	16690.95
888.64	16684.80
888.81	16805.63
888.99	16400.13
889.16	16584.45
889.33	16459.52
889.50	16353.03
889.67	16334.60
889.84	16396.04
890.01	16480.00
890.19	16396.04
890.36	16236.30
890.53	16072.46
890.70	16408.33
890.87	16207.62
891.04	16189.19
891.22	16199.43
891.39	16172.81
891.56	15941.39
891.73	15980.30
891.90	15978.25
892.07	15720.21
892.24	16097.03
892.42	16121.61
892.59	15886.09
892.76	15812.37
892.93	15992.59
893.10	15963.92
893.27	15947.53
893.44	15783.70
893.61	15742.74
893.79	16068.36
893.96	15904.53
894.13	15687.44
894.30	15718.16
894.47	15542.03
894.64	15845.13
894.81	15722.26
894.98	15834.89
895.15	15714.06
895.33	15697.68
895.50	15750.93
895.67	15707.92
895.84	15781.65
896.01	15623.95
896.18	15484.69
896.35	15720.21
896.52	15517.46
896.69	15642.39
896.86	15689.49
897.04	15486.74
897.21	15224.60
897.38	15347.48
897.55	15402.77
897.72	15644.43
897.89	15451.92
898.06	15542.03
898.23	15419.16
898.40	15204.12
898.57	15752.98
898.74	15744.78
898.91	15413.01
899.08	15521.56
899.26	15384.34
899.43	15357.72
899.60	15247.13
899.77	15476.50
899.94	15437.59
900.11	15275.80
900.28	15292.18
900.45	15347.48
900.62	15329.05
900.79	15535.89
900.96	15355.67
901.13	15496.98
901.30	15468.31
901.47	15132.44
901.64	15320.85
901.81	15466.26
901.98	14978.84
902.15	15419.16
902.32	15292.18
902.49	15472.40
902.66	15533.84
902.83	15456.02
903.01	15433.49
903.18	15494.93
903.35	15433.49
903.52	15306.52
903.69	15615.76
903.86	15367.96
904.03	15126.30
904.20	15535.89
904.37	15257.37
904.54	15269.66
904.71	15185.69
904.88	15462.16
905.05	15288.09
905.22	15357.72
905.39	15202.07
905.56	15290.13
905.73	15001.37
905.90	15259.42
906.07	15388.44
906.24	15105.82
906.41	15202.07
906.58	15109.91
906.75	15001.37
906.92	15073.05
907.09	15001.37
907.26	15277.85
907.43	15079.19
907.60	15044.38
907.77	15306.52
907.93	15171.35
908.10	15130.39
908.27	15230.74
908.44	15062.81
908.61	15040.28
908.78	15044.38
908.95	14860.06
909.12	15185.69
909.29	14759.71
909.46	14833.44
909.63	15269.66
909.80	15064.86
909.97	15138.58
910.14	14894.88
910.31	14876.44
910.48	15050.52
910.65	14960.41
910.82	15066.91
910.99	14952.22
911.16	14853.92
911.33	15075.10
911.50	14950.17
911.66	14618.40
911.83	14845.73
912.00	14888.73
912.17	14642.98
912.34	14741.28
912.51	14626.59
912.68	14569.25
912.85	14346.02
913.02	14688.03
913.19	14327.59
913.36	14507.81
913.53	14530.34
913.70	14069.55
913.86	14704.42
914.03	14434.08
914.20	14483.24
914.37	14475.04
914.54	14331.69
914.71	14559.01
914.88	14458.66
915.05	14094.12
915.22	14065.45
915.39	14298.92
915.55	14124.84
915.72	14229.29
915.89	14055.21
916.06	13963.05
916.23	14243.62
916.40	13911.85
916.57	13983.53
916.74	13958.96
916.91	14004.01
917.07	13922.09
917.24	14020.39
917.41	13924.14
917.58	13676.34
917.75	13627.18
917.92	13438.77
918.09	13520.69
918.26	13541.17
918.42	13328.18
918.59	13434.68
918.76	13360.95
918.93	13348.66
919.10	13070.14
919.27	13313.84
919.44	13369.14
919.60	13270.84
919.77	13215.54
919.94	13287.22
920.11	13145.91
920.28	13324.08
920.45	13117.24
920.61	13141.82
920.78	12857.15
920.95	12996.41
921.12	12844.86
921.29	12656.45
921.46	12721.98
921.62	12674.88
921.79	12539.71
921.96	12654.40
922.13	12664.64
922.30	12418.88
922.47	12693.31
922.63	12760.89
922.80	12461.89
922.97	12552.00
923.14	12300.10
923.31	12382.02
923.47	12136.26
923.64	12617.54
923.81	12050.25
923.98	12080.97
924.15	12005.19
924.32	12019.53
924.48	12201.80
924.65	12259.14
924.82	11953.99
924.99	11747.15
925.15	11650.89
925.32	11919.18
925.49	11644.75
925.66	11528.02
925.83	11650.89
925.99	11550.54
926.16	11614.03
926.33	11634.51
926.50	11360.08
926.67	11652.94
926.83	11339.60
927.00	11186.01
927.17	11161.43
927.34	11102.04
927.50	11355.99
927.67	11355.99
927.84	11151.19
928.01	11126.61
928.17	10973.02
928.34	11018.07
928.51	10927.96
928.68	10747.74
928.84	10874.71
929.01	10631.01
929.18	10575.71
929.35	10628.96
929.51	10547.04
929.68	10655.58
929.85	10456.93
930.02	10299.23
930.18	10323.81
930.35	10489.70
930.52	10364.77
930.69	10471.26
930.85	10329.95
931.02	10104.68
931.19	10219.36
931.36	10084.20
931.52	10409.83
931.69	10227.56
931.86	10055.53
932.02	10080.10
932.19	10096.49
932.36	9967.46
932.53	9928.55
932.69	9805.67
932.86	9807.72
933.03	9895.78
933.19	9576.30
933.36	9654.12
933.53	9664.36
933.70	9449.33
933.86	9551.73
934.03	9631.60
934.20	9279.35
934.36	9410.42
934.53	9146.23
934.70	9011.06
934.86	9244.53
935.03	9002.87
935.20	8974.20
935.36	9101.17
935.53	8759.16
935.70	8832.89
935.86	8710.01
936.03	8675.20
936.20	8523.65
936.36	8566.65
936.53	8474.49
936.70	8462.21
936.86	8388.48
937.03	8253.31
937.20	8238.98
937.36	8277.89
937.53	7933.83
937.70	8007.56
937.86	7843.72
938.03	7899.02
938.20	7835.53
938.36	7554.96
938.53	7710.60
938.70	7421.84
938.86	7520.14
939.03	7585.68
939.20	7282.58
939.36	7219.09
939.53	7182.23
939.70	7174.03
939.86	6774.68
940.03	6721.43
940.19	6784.92
940.36	6836.12
940.53	6639.51
940.69	6612.89
940.86	6668.19
941.03	6430.62
941.19	6309.79
941.36	6393.76
941.52	6371.23
941.69	6070.18
941.86	6231.97
942.02	6158.24
942.19	6053.80
942.35	6197.15
942.52	5957.54
942.69	5838.76
942.85	5824.42
943.02	5836.71
943.18	5752.74
943.35	5814.18
943.52	5742.50
943.68	5623.72
943.85	5687.21
944.01	5619.63
944.18	5498.80
944.35	5617.58
944.51	5357.49
944.68	5377.97
944.84	5339.05
945.01	5359.53
945.17	5504.94
945.34	5558.19
945.51	5261.23
945.67	5390.25
945.84	5351.34
946.00	5203.89
946.17	5324.72
946.33	5339.05
946.50	5232.56
946.67	5244.85
946.83	5263.28
947.00	5363.63
947.16	5150.64
947.33	5181.36
947.49	5218.22
947.66	5179.31
947.82	5279.66
947.99	5263.28
948.16	5316.53
948.32	5250.99
948.49	5195.70
948.65	5289.90
948.82	5242.80
948.98	5210.03
949.15	5029.81
949.31	5345.20
949.48	5093.30
949.64	5205.94
949.81	5300.14
949.97	5140.40
950.14	5369.77
950.30	5173.17
950.47	5210.03
950.63	5320.62
950.80	5234.61
950.96	5093.30
951.13	5185.46
951.30	5210.03
951.46	5357.49
951.63	5365.68
951.79	5418.93
951.96	5287.86
952.12	5224.37
952.29	5386.16
952.45	5230.51
952.62	5320.62
952.78	5240.75
952.94	5255.09
953.11	5289.90
953.27	5154.74
953.44	5414.83
953.60	5334.96
953.77	5326.77
953.93	5265.33
954.10	5410.73
954.26	5310.38
954.43	5388.21
954.59	5480.36
954.76	5394.35
954.92	5298.10
955.09	5414.83
955.25	5361.58
955.42	5242.80
955.58	5488.56
955.75	5398.45
955.91	5349.29
956.07	5392.30
956.24	5339.05
956.40	5517.23
956.57	5441.45
956.73	5365.68
956.90	5478.32
957.06	5255.09
957.23	5332.91
957.39	5390.25
957.56	5406.64
957.72	5193.65
957.88	5435.31
958.05	5449.64
958.21	5474.22
958.38	5306.29
958.54	5457.84
958.71	5484.46
958.87	5554.09
959.03	5412.78
959.20	5353.39
959.36	5341.10
959.53	5439.40
959.69	5277.62
959.85	5449.64
960.02	5357.49
960.18	5332.91
960.35	5201.84
960.51	5619.63
960.68	5173.17
960.84	5351.34
961.00	5279.66
961.17	5316.53
961.33	5343.15
961.50	5410.73
961.66	5400.49
961.82	5318.57
961.99	5255.09
962.15	5296.05
962.31	5302.19
962.48	5281.71
962.64	5347.25
962.81	5314.48
962.97	5347.25
963.13	5361.58
963.30	5396.40
963.46	5134.26
963.62	5384.11
963.79	5296.05
963.95	5357.49
964.12	5244.85
964.28	5435.31
964.44	5308.34
964.61	5308.34
964.77	5384.11
964.93	5253.04
965.10	5265.33
965.26	5207.98
965.42	5185.46
965.59	5193.65
965.75	5117.87
965.92	5189.55
966.08	5228.46
966.24	5160.88
966.41	5152.69
966.57	5074.87
966.73	5244.85
966.90	5214.13
967.06	5244.85
967.22	5148.59
967.39	5058.48
967.55	5013.43
967.71	5189.55
967.88	5081.01
968.04	5246.90
968.20	5150.64
968.37	5003.19
968.53	5158.83
968.69	5052.34
968.85	5248.94
969.02	5158.83
969.18	5038.00
969.34	5021.62
969.51	5044.15
969.67	5119.92
969.83	5005.24
970.00	4951.99
970.16	5072.82
970.32	5115.83
970.48	5081.01
970.65	4980.66
970.81	4886.45
970.97	5025.72
971.14	4904.89
971.30	5148.59
971.46	4865.97
971.63	4906.93
971.79	4933.56
971.95	4988.85
972.11	4863.93
972.28	4878.26
972.44	5093.30
972.60	4847.54
972.76	4728.76
972.93	4855.73
973.09	4890.55
973.25	4894.65
973.42	4865.97
973.58	4874.17
973.74	4927.41
973.90	4788.15
974.07	4849.59
974.23	4790.20
974.39	4900.79
974.55	4730.81
974.72	4745.14
974.88	4579.26
975.04	4796.34
975.20	4724.66
975.37	4794.29
975.53	4724.66
975.69	4646.84
975.85	4640.70
976.01	4626.36
976.18	4636.60
976.34	4644.79
976.50	4786.10
976.66	4683.70
976.83	4495.29
976.99	4601.79
977.15	4540.35
977.31	4579.26
977.47	4722.62
977.64	4542.39
977.80	4571.07
977.96	4614.07
978.12	4558.78
978.29	4493.24
978.45	4437.95
978.61	4495.29
978.77	4605.88
978.93	4364.22
979.10	4476.86
979.26	4497.34
979.42	4485.05
979.58	4360.13
979.74	4460.48
979.91	4474.81
980.07	4433.85
980.23	4351.93
980.39	4288.45
980.55	4237.25
980.71	4415.42
980.88	4333.50
981.04	4382.65
981.20	4358.08
981.36	4319.17
981.52	4270.01
981.68	4257.73
981.85	4411.32
982.01	4267.97
982.17	4067.27
982.33	4310.97
982.49	4339.65
982.65	4341.69
982.82	4194.24
982.98	4231.10
983.14	4222.91
983.30	4235.20
983.46	4212.67
983.62	4138.94
983.79	4241.34
983.95	4081.60
984.11	4130.75
984.27	4046.79
984.43	4138.94
984.59	4116.42
984.75	4310.97
984.91	4073.41
985.08	4278.21
985.24	4011.97
985.40	3960.77
985.56	4042.69
985.72	4122.56
985.88	4097.99
986.04	4040.64
986.20	3960.77
986.37	4063.17
986.53	3993.54
986.69	3979.20
986.85	3962.82
987.01	3968.96
987.17	3987.40
987.33	4001.73
987.49	3975.11
987.65	4014.02
987.82	3940.29
987.98	3813.32
988.14	3921.86
988.30	3921.86
988.46	3878.85
988.62	3903.43
988.78	3932.10
988.94	3901.38
989.10	3844.04
989.26	3735.50
989.42	3735.50
989.59	3710.92
989.75	3807.17
989.91	3864.52
990.07	3663.82
990.23	3708.87
990.39	3885.00
990.55	3725.26
990.71	3635.14
990.87	3678.15
991.03	3739.59
991.19	3735.50
991.35	3581.90
991.51	3829.70
991.67	3741.64
991.83	3680.20
992.00	3753.93
992.16	3850.18
992.32	3710.92
992.48	3764.17
992.64	3631.05
992.80	3682.25
992.96	3542.99
993.12	3712.97
993.28	3542.99
993.44	3588.04
993.60	3538.89
993.76	3596.23
993.92	3667.91
994.08	3626.95
994.24	3635.14
994.40	3557.32
994.56	3538.89
994.72	3530.70
994.88	3577.80
995.04	3661.77
995.20	3452.88
995.36	3518.41
995.52	3583.95
995.68	3448.78
995.84	3459.02
996.00	3633.10
996.16	3508.17
996.32	3330.00
996.48	3452.88
996.64	3413.96
996.80	3397.58
996.96	3450.83
997.12	3467.21
997.28	3352.52
997.44	3354.57
997.60	3338.19
997.76	3422.16
997.92	3444.68
998.08	3370.96
998.24	3268.56
998.40	3377.10
998.56	3327.95
998.72	3264.46
998.88	3243.98
999.04	3223.50
999.20	3338.19
999.36	3295.18
999.52	3368.91
999.68	3311.57
999.84	3311.57
1000.00	3289.04
1000.16	3235.79
1000.32	3264.46
1000.48	3401.68
1000.64	3170.26
1000.80	3076.05
1000.95	3172.30
1001.11	3200.98
1001.27	3239.89
1001.43	3194.83
1001.59	3108.82
1001.75	3227.60
1001.91	3221.45
1002.07	3123.15
1002.23	3168.21
1002.39	3057.62
1002.55	3061.71
1002.71	3022.80
1002.87	3129.30
1003.03	3108.82
1003.19	3170.26
1003.34	3190.74
1003.50	3133.39
1003.66	3059.67
1003.82	3069.91
1003.98	3041.23
1004.14	3057.62
1004.30	3008.47
1004.46	2975.70
1004.62	2983.89
1004.78	2981.84
1004.94	3012.56
1005.09	3039.19
1005.25	3063.76
1005.41	3018.71
1005.57	3000.27
1005.73	3014.61
1005.89	2985.94
1006.05	2983.89
1006.21	3006.42
1006.37	2895.83
1006.52	2916.31
1006.68	2766.81
1006.84	2949.08
1007.00	2875.35
1007.16	2920.40
1007.32	2879.44
1007.48	2924.50
1007.64	2822.10
1007.79	2895.83
1007.95	2893.78
1008.11	2904.02
1008.27	2836.44
1008.43	2799.57
1008.59	2877.40
1008.75	2912.21
1008.91	2811.86
1009.06	2834.39
1009.22	2801.62
1009.38	2793.43
1009.54	2818.00
1009.70	2764.76
1009.86	2793.43
1010.01	2842.58
1010.17	2854.87
1010.33	2795.48
1010.49	2723.80
1010.65	2811.86
1010.81	2680.79
1010.96	2680.79
1011.12	2682.84
1011.28	2723.80
1011.44	2791.38
1011.60	2781.14
1011.76	2574.30
1011.91	2824.15
1012.07	2648.02
1012.23	2559.96
1012.39	2582.49
1012.55	2617.30
1012.71	2605.02
1012.86	2627.54
1013.02	2637.78
1013.18	2596.82
1013.34	2682.84
1013.50	2691.03
1013.65	2738.13
1013.81	2607.06
1013.97	2486.23
1014.13	2629.59
1014.29	2633.69
1014.44	2633.69
1014.60	2508.76
1014.76	2613.21
1014.92	2566.10
1015.07	2670.55
1015.23	2576.34
1015.39	2521.05
1015.55	2617.30
1015.71	2570.20
1015.86	2355.16
1016.02	2519.00
1016.18	2441.18
1016.34	2445.27
1016.49	2430.94
1016.65	2498.52
1016.81	2447.32
1016.97	2353.12
1017.12	2443.23
1017.28	2420.70
1017.44	2404.32
1017.60	2387.93
1017.75	2492.38
1017.91	2428.89
1018.07	2443.23
1018.23	2531.29
1018.38	2355.16
1018.54	2396.12
1018.70	2435.03
1018.86	2383.84
1019.01	2322.40
1019.17	2336.73
1019.33	2469.85
1019.49	2471.90
1019.64	2394.08
1019.80	2379.74
1019.96	2383.84
1020.12	2437.08
1020.27	2267.10
1020.43	2422.75
1020.59	2424.80
1020.74	2320.35
1020.90	2410.46
1021.06	2289.63
1021.22	2385.88
1021.37	2301.92
1021.53	2349.02
1021.69	2400.22
1021.84	2213.85
1022.00	2320.35
1022.16	2301.92
1022.31	2312.16
1022.47	2312.16
1022.63	2383.84
1022.79	2254.81
1022.94	2402.27
1023.10	2422.75
1023.26	2328.54
1023.41	2263.01
1023.57	2248.67
1023.73	2234.33
1023.88	2289.63
1024.04	2275.29
1024.20	2232.29
1024.35	2342.88
1024.51	2342.88
1024.67	2283.49
1024.82	2314.20
1024.98	2185.18
1025.14	2217.95
1025.29	2185.18
1025.45	2260.96
1025.61	2185.18
1025.76	2174.94
1025.92	2138.08
1026.08	2162.66
1026.23	2183.13
1026.39	2273.25
1026.55	2150.37
1026.70	2181.09
1026.86	2222.05
1027.02	2291.68
1027.17	2162.66
1027.33	2271.20
1027.48	2142.18
1027.64	2142.18
1027.80	2240.48
1027.95	2160.61
1028.11	2117.60
1028.27	2217.95
1028.42	2148.32
1028.58	2150.37
1028.73	2064.35
1028.89	2052.06
1029.05	2158.56
1029.20	2176.99
>>>>>End Processed Spectral Data<<<<<
