SpectraSuite Data File
++++++++++++++++++++++++++++++++++++
Date: Fri Jun 02 14:49:24 CEST 2017
User: INFO_000
Dark Spectrum Present: No
Reference Spectrum Present: No
Number of Sampled Component Spectra: 1
Spectrometers: USB4H00879
Integration Time (usec): 80000 (USB4H00879)
Spectra Averaged: 1 (USB4H00879)
Boxcar Smoothing: 0 (USB4H00879)
Correct for Electrical Dark: No (USB4H00879)
Strobe/Lamp Enabled: No (USB4H00879)
Correct for Detector Non-linearity: No (USB4H00879)
Correct for Stray Light: No (USB4H00879)
Number of Pixels in Processed Spectrum: 3648
>>>>>Begin Processed Spectral Data<<<<<
345.13	1294.32
345.34	1294.32
345.56	1294.32
345.78	1241.07
345.99	1271.79
346.21	1726.44
346.42	1730.53
346.64	1617.90
346.86	1800.16
347.07	1697.77
347.29	1779.68
347.50	1624.04
347.72	1681.38
347.94	1753.06
348.15	1540.07
348.37	1572.84
348.59	1689.57
348.80	1689.57
349.02	1798.12
349.23	1845.22
349.45	1822.69
349.67	1834.98
349.88	1751.01
350.10	1933.28
350.31	1871.84
350.53	1746.92
350.75	1937.38
350.96	1757.16
351.18	1929.19
351.39	1855.46
351.61	1865.70
351.82	1976.29
352.04	1941.47
352.26	1880.04
352.47	1896.42
352.69	1943.52
352.90	1773.54
353.12	1783.78
353.34	1867.75
353.55	1964.00
353.77	1896.42
353.98	1832.93
354.20	1802.21
354.41	1861.60
354.63	1843.17
354.85	2000.87
355.06	2019.30
355.28	1757.16
355.49	1886.18
355.71	1853.41
355.92	1843.17
356.14	1888.23
356.35	1814.50
356.57	1839.08
356.79	1984.48
357.00	1865.70
357.22	1908.71
357.43	1822.69
357.65	1972.19
357.86	1880.04
358.08	1937.38
358.29	1898.47
358.51	1918.95
358.72	1961.95
358.94	1961.95
359.16	1986.53
359.37	1927.14
359.59	1906.66
359.80	2011.11
360.02	1914.85
360.23	1925.09
360.45	2035.68
360.66	1931.23
360.88	1834.98
361.09	1912.80
361.31	2043.87
361.52	1929.19
361.74	1986.53
361.95	2074.59
362.17	2007.01
362.38	2023.39
362.60	2064.35
362.81	2045.92
363.03	1937.38
363.24	1961.95
363.46	2129.89
363.67	2090.98
363.89	1972.19
364.10	2002.91
364.32	1945.57
364.53	2066.40
364.75	1908.71
364.96	1974.24
365.18	1992.67
365.39	1996.77
365.61	1996.77
365.82	2115.55
366.04	2017.25
366.25	2019.30
366.47	2072.54
366.68	2101.22
366.90	1935.33
367.11	2056.16
367.33	2133.98
367.54	2033.63
367.76	2017.25
367.97	2041.82
368.19	2015.20
368.40	2043.87
368.62	1951.71
368.83	1980.39
369.05	2099.17
369.26	1927.14
369.48	2015.20
369.69	2013.15
369.91	2009.06
370.12	1959.91
370.33	2064.35
370.55	1966.05
370.76	2062.30
370.98	2045.92
371.19	2097.12
371.41	2019.30
371.62	2097.12
371.84	2062.30
372.05	2189.28
372.27	2080.74
372.48	2107.36
372.69	2183.13
372.91	2107.36
373.12	2095.07
373.34	2113.50
373.55	2123.74
373.77	2117.60
373.98	2144.22
374.20	2150.37
374.41	2236.38
374.62	2166.75
374.84	2072.54
375.05	2215.90
375.27	2111.46
375.48	2113.50
375.70	2217.95
375.91	2119.65
376.12	2297.82
376.34	2136.03
376.55	2111.46
376.77	2162.66
376.98	2090.98
377.19	2152.42
377.41	2156.51
377.62	2207.71
377.84	2252.77
378.05	2344.92
378.27	2269.15
378.48	2254.81
378.69	2353.12
378.91	2269.15
379.12	2328.54
379.34	2224.09
379.55	2299.87
379.76	2254.81
379.98	2312.16
380.19	2220.00
380.41	2201.57
380.62	2263.01
380.83	2328.54
381.05	2256.86
381.26	2346.97
381.47	2213.85
381.69	2357.21
381.90	2375.64
382.12	2289.63
382.33	2297.82
382.54	2340.83
382.76	2346.97
382.97	2306.01
383.19	2230.24
383.40	2396.12
383.61	2287.58
383.83	2318.30
384.04	2273.25
384.25	2353.12
384.47	2375.64
384.68	2424.80
384.89	2213.85
385.11	2283.49
385.32	2410.46
385.54	2410.46
385.75	2340.83
385.96	2449.37
386.18	2357.21
386.39	2469.85
386.60	2293.72
386.82	2334.68
387.03	2490.33
387.24	2508.76
387.46	2392.03
387.67	2496.47
387.88	2486.23
388.10	2451.42
388.31	2451.42
388.52	2570.20
388.74	2510.81
388.95	2478.04
389.16	2488.28
389.38	2445.27
389.59	2570.20
389.80	2617.30
390.02	2523.10
390.23	2559.96
390.44	2572.25
390.66	2637.78
390.87	2547.67
391.08	2521.05
391.30	2658.26
391.51	2539.48
391.72	2707.41
391.94	2727.89
392.15	2682.84
392.36	2582.49
392.58	2486.23
392.79	2629.59
393.00	2656.22
393.22	2691.03
393.43	2779.09
393.64	2789.33
393.85	2791.38
394.07	2699.22
394.28	2781.14
394.49	2695.13
394.71	2725.85
394.92	2863.06
395.13	2664.41
395.35	2727.89
395.56	2695.13
395.77	2715.61
395.98	2744.28
396.20	2826.20
396.41	2834.39
396.62	2846.68
396.84	2869.20
397.05	2746.33
397.26	2912.21
397.47	3000.27
397.69	2781.14
397.90	3084.24
398.11	2815.96
398.32	2936.79
398.54	2914.26
398.75	2885.59
398.96	2938.84
399.18	3055.57
399.39	2912.21
399.60	2889.68
399.81	2858.96
400.03	2881.49
400.24	3317.71
400.45	3084.24
400.66	3143.63
400.88	3039.19
401.09	3166.16
401.30	3088.34
401.51	3084.24
401.73	3114.96
401.94	3139.54
402.15	3141.58
402.36	3092.43
402.58	3157.97
402.79	3166.16
403.00	3223.50
403.21	3162.06
403.43	3215.31
403.64	3229.65
403.85	3149.78
404.06	3223.50
404.27	3102.67
404.49	3276.75
404.70	3135.44
404.91	3250.13
405.12	3194.83
405.34	3252.17
405.55	3289.04
405.76	3108.82
405.97	3205.07
406.19	3379.15
406.40	3260.37
406.61	3401.68
406.82	3348.43
407.03	3207.12
407.25	3307.47
407.46	3397.58
407.67	3354.57
407.88	3461.07
408.09	3248.08
408.31	3319.76
408.52	3362.76
408.73	3387.34
408.94	3405.77
409.15	3391.44
409.37	3442.64
409.58	3565.51
409.79	3430.35
410.00	3567.56
410.21	3311.57
410.43	3401.68
410.64	3446.73
410.85	3516.36
411.06	3555.27
411.27	3446.73
411.48	3583.95
411.70	3549.13
411.91	3536.84
412.12	3481.55
412.33	3604.42
412.54	3467.21
412.76	3669.96
412.97	3641.29
413.18	3579.85
413.39	3549.13
413.60	3665.86
413.81	3604.42
414.03	3637.19
414.24	3715.02
414.45	3870.66
414.66	3471.31
414.87	3796.93
415.08	3651.53
415.30	3659.72
415.51	3788.74
415.72	3788.74
415.93	3667.91
416.14	3839.94
416.35	3706.82
416.56	3827.65
416.78	3768.26
416.99	3758.02
417.20	3862.47
417.41	3928.00
417.62	3901.38
417.83	3917.76
418.04	3923.91
418.26	3887.04
418.47	3936.20
418.68	4030.40
418.89	3925.96
419.10	3971.01
419.31	4005.83
419.52	4114.37
419.73	3962.82
419.95	4030.40
420.16	3968.96
420.37	3995.59
420.58	4011.97
420.79	3852.23
421.00	4112.32
421.21	4052.93
421.42	3964.87
421.63	4116.42
421.85	3940.29
422.06	4134.85
422.27	4097.99
422.48	4104.13
422.69	4177.86
422.90	4120.51
423.11	4177.86
423.32	4251.58
423.53	4362.17
423.75	4249.54
423.96	4421.56
424.17	4440.00
424.38	4472.76
424.59	4267.97
424.80	4536.25
425.01	4480.96
425.22	4370.37
425.43	4419.52
425.64	4642.75
425.85	4456.38
426.06	4554.68
426.28	4478.91
426.49	4542.39
426.70	4507.58
426.91	4437.95
427.12	4550.59
427.33	4636.60
427.54	4616.12
427.75	4626.36
427.96	4786.10
428.17	4644.79
428.38	4814.77
428.59	4751.29
428.80	4763.58
429.01	4648.89
429.23	4863.93
429.44	4908.98
429.65	4753.34
429.86	4845.49
430.07	4720.57
430.28	4745.14
430.49	4970.42
430.70	5107.63
430.91	5021.62
431.12	4814.77
431.33	5124.02
431.54	5076.91
431.75	5042.10
431.96	5015.48
432.17	5081.01
432.38	5085.11
432.59	5308.34
432.80	5207.98
433.01	5343.15
433.22	5271.47
433.43	5285.81
433.64	5300.14
433.85	5291.95
434.06	5304.24
434.27	5281.71
434.49	5257.14
434.70	5410.73
434.91	5357.49
435.12	5550.00
435.33	5334.96
435.54	5476.27
435.75	5363.63
435.96	5324.72
436.17	5250.99
436.38	5427.12
436.59	5564.33
436.80	5486.51
437.01	5713.83
437.22	5685.16
437.43	5629.87
437.64	5582.76
437.85	5672.87
438.06	5738.41
438.27	5599.15
438.48	5674.92
438.69	5709.74
438.90	5734.31
439.11	5769.13
439.32	5771.18
439.53	5756.84
439.74	5846.95
439.95	5801.90
440.16	5771.18
440.37	5846.95
440.57	5658.54
440.78	6094.76
440.99	6025.12
441.20	6055.84
441.41	5914.53
441.62	6010.79
441.83	5971.88
442.04	6104.99
442.25	6166.43
442.46	5889.96
442.67	6139.81
442.88	6307.74
443.09	6064.04
443.30	5990.31
443.51	6205.35
443.72	6508.44
443.93	6031.27
444.14	6459.29
444.35	6135.71
444.56	6225.82
444.77	6326.18
444.98	6240.16
445.19	6356.90
445.40	6418.33
445.61	6328.22
445.81	6473.63
446.02	6508.44
446.23	6295.46
446.44	6311.84
446.65	6358.94
446.86	6311.84
447.07	6684.57
447.28	6506.40
447.49	6719.39
447.70	6551.45
447.91	6637.47
448.12	6545.31
448.33	6741.91
448.54	6670.23
448.74	6569.88
448.95	6582.17
449.16	6670.23
449.37	6936.47
449.58	6674.33
449.79	6858.65
450.00	6727.58
450.21	6850.46
450.42	7034.77
450.63	6971.29
450.84	6770.58
451.05	6983.57
451.25	6909.85
451.46	6862.74
451.67	7069.59
451.88	6965.14
452.09	7012.24
452.30	7178.13
452.51	7102.36
452.72	7178.13
452.93	7495.57
453.13	7049.11
453.34	7120.79
453.55	7305.10
453.76	7239.57
453.97	7452.56
454.18	7139.22
454.39	7546.76
454.60	7362.45
454.81	7309.20
455.01	7583.63
455.22	7266.19
455.43	7577.48
455.64	7643.02
455.85	7774.09
456.06	7786.38
456.27	7675.79
456.48	7528.33
456.68	7796.62
456.89	7827.34
457.10	7911.30
457.31	7909.26
457.52	7823.24
457.73	8046.47
457.94	8005.51
458.14	7788.43
458.35	8275.84
458.56	8071.04
458.77	7991.17
458.98	8075.14
459.19	8218.50
459.39	8177.54
459.60	8392.58
459.81	8261.51
460.02	8437.63
460.23	8343.42
460.44	8667.00
460.65	8468.35
460.85	8552.32
461.06	8621.95
461.27	8480.64
461.48	8634.24
461.69	8963.96
461.89	8564.61
462.10	8828.79
462.31	8570.75
462.52	8767.35
462.73	8777.59
462.94	9054.07
463.14	8849.27
463.35	9113.46
463.56	9504.62
463.77	9434.99
463.98	9054.07
464.18	9146.23
464.39	9308.02
464.60	9584.49
464.81	9541.49
465.02	9420.66
465.23	9674.60
465.43	9357.17
465.64	9914.22
465.85	9672.56
466.06	9498.48
466.27	10026.86
466.47	9977.70
466.68	9889.64
466.89	9885.55
467.10	10104.68
467.30	10071.91
467.51	10243.94
467.72	10501.98
467.93	9903.98
468.14	10262.37
468.34	10553.18
468.55	10381.15
468.76	10434.40
468.97	10162.02
469.17	10774.36
469.38	10850.14
469.59	10788.70
469.80	10571.61
470.01	10749.79
470.21	10823.51
470.42	11005.78
470.63	11304.79
470.84	10946.39
471.04	11218.77
471.25	11175.77
471.46	11376.47
471.67	11593.55
471.87	11390.80
472.08	11536.21
472.29	11720.53
472.50	11521.87
472.70	11556.69
472.91	11659.09
473.12	11882.31
473.33	11749.20
473.53	12154.69
473.74	11976.52
473.95	12103.50
474.16	12498.75
474.36	12312.39
474.57	12339.01
474.78	12685.12
474.99	12627.78
475.19	12558.14
475.40	12830.52
475.61	12846.91
475.81	13010.75
476.02	13131.58
476.23	12994.36
476.44	13076.28
476.64	13193.01
476.85	13471.54
477.06	13420.34
477.27	13586.22
477.47	13743.92
477.68	13707.05
477.89	13942.57
478.09	13885.23
478.30	13907.76
478.51	13928.24
478.71	14061.35
478.92	14194.47
479.13	14307.11
479.34	14391.08
479.54	14298.92
479.75	14362.40
479.96	14438.18
480.16	14704.42
480.37	14716.70
480.58	15015.71
480.78	14982.94
480.99	14878.49
481.20	15173.40
481.41	15531.80
481.61	15552.27
481.82	15607.57
482.03	15210.26
482.23	15669.01
482.44	15750.93
482.65	15912.72
482.85	15890.19
483.06	15955.72
483.27	16070.41
483.47	16178.95
483.68	15976.20
483.89	16047.88
484.09	16246.54
484.30	16559.88
484.51	16670.47
484.71	16494.34
484.92	16559.88
485.13	16846.59
485.33	16951.04
485.54	16830.21
485.75	17123.07
485.95	17125.11
486.16	17127.16
486.37	17174.27
486.57	17223.42
486.78	17268.47
486.98	17516.28
487.19	17594.10
487.40	17848.05
487.60	17493.75
487.81	17813.23
488.02	17860.34
488.22	17719.03
488.43	18382.57
488.64	18237.16
488.84	17987.31
489.05	18401.00
489.25	18448.10
489.46	18591.46
489.67	18646.76
489.87	18734.82
490.08	18657.00
490.29	18616.04
490.49	19091.16
490.70	19234.52
490.90	19046.11
491.11	19267.29
491.32	19201.76
491.52	19334.87
491.73	19429.08
491.94	19568.34
492.14	19594.96
492.35	19746.51
492.55	20082.38
492.76	19965.65
492.97	19826.39
493.17	19922.64
493.38	20299.47
493.58	20385.48
493.79	20422.34
494.00	20393.67
494.20	20496.07
494.41	20926.14
494.61	20444.87
494.82	20573.89
495.02	20813.51
495.23	20848.32
495.44	21110.46
495.64	20915.90
495.85	21292.73
496.05	21249.72
496.26	21307.07
496.47	21657.27
496.67	21257.92
496.88	21751.48
497.08	21483.19
497.29	21823.16
497.49	21608.12
497.70	21823.16
497.91	21909.17
498.11	22183.60
498.32	22228.65
498.52	22185.65
498.73	22494.89
498.93	22259.37
499.14	22562.47
499.34	22554.28
499.55	22734.50
499.76	22634.15
499.96	22671.01
500.17	22775.46
500.37	22507.18
500.58	23051.94
500.78	22797.99
500.99	22910.63
501.19	23172.77
501.40	23344.80
501.60	23363.23
501.81	23752.34
502.02	23721.62
502.22	23432.86
502.43	23717.53
502.63	23666.33
502.84	23864.98
503.04	23707.29
503.25	24147.60
503.45	24008.34
503.66	23989.91
503.86	24204.94
504.07	24770.18
504.27	24350.35
504.48	24813.19
504.68	24680.07
504.89	24884.87
505.09	24796.81
505.30	24565.39
505.50	24936.07
505.71	24620.68
505.91	25048.71
506.12	24985.22
506.32	24821.38
506.53	25413.24
506.73	25583.23
506.94	25329.28
507.14	25360.00
507.35	25505.40
507.55	25718.39
507.76	25597.56
507.96	25386.62
508.17	25572.99
508.37	25570.94
508.58	25704.06
508.78	25841.27
508.99	26179.18
509.19	25958.00
509.40	26021.49
509.60	25921.14
509.81	26250.86
510.01	26197.62
510.22	26095.22
510.42	26205.81
510.63	26334.83
510.83	26648.17
511.04	26752.62
511.24	26498.67
511.44	26740.33
511.65	26781.29
511.85	26611.31
512.06	26943.08
512.26	26805.86
512.47	26725.99
512.67	26740.33
512.88	26949.22
513.08	26611.31
513.29	26881.64
513.49	27164.26
513.69	27092.58
513.90	27129.44
514.10	27104.87
514.31	27264.61
514.51	27213.41
514.72	27526.75
514.92	27293.28
515.13	27901.53
515.33	27463.26
515.53	27983.44
515.74	27569.76
515.94	27580.00
516.15	28178.00
516.35	27807.32
516.56	28053.08
516.76	28094.04
516.96	27917.91
517.17	28313.17
517.37	28112.47
517.58	28304.98
517.78	28368.46
517.99	28319.31
518.19	28477.01
518.39	28515.92
518.60	28894.79
518.80	28317.26
519.01	28714.57
519.21	28708.43
519.41	28739.15
519.62	28757.58
519.82	29066.82
520.03	28849.74
520.23	29199.94
520.43	28997.19
520.64	29388.35
520.84	29238.85
521.05	29216.32
521.25	29271.62
521.45	29619.77
521.66	29611.58
521.86	29642.30
522.07	29634.11
522.27	29378.11
522.47	29847.10
522.68	29773.37
522.88	29505.09
523.08	30039.61
523.29	29767.23
523.49	29978.17
523.70	29939.26
523.90	30412.34
524.10	30180.92
524.31	30422.58
524.51	29941.30
524.71	30715.44
524.92	30410.29
525.12	30500.40
525.33	30643.76
525.53	30643.76
525.73	30789.16
525.94	30862.89
526.14	30766.63
526.34	31153.70
526.55	31192.61
526.75	31280.67
526.95	31245.86
527.16	31178.28
527.36	31278.63
527.56	31366.69
527.77	31491.62
527.97	31583.77
528.17	31641.12
528.38	31718.94
528.58	31602.21
528.78	31690.27
528.99	31817.24
529.19	31890.97
529.39	31917.59
529.60	32388.63
529.80	32402.96
530.00	31933.98
530.21	32230.93
530.41	32787.98
530.61	32579.09
530.82	32382.48
531.02	32753.16
531.22	32871.95
531.43	32488.98
531.63	32824.84
531.83	33211.91
532.04	33308.16
532.24	32808.46
532.44	33371.65
532.64	33476.10
532.85	33154.57
533.05	33502.72
533.25	33531.39
533.46	33508.86
533.66	33826.30
533.86	33764.86
534.07	34131.45
534.27	33883.64
534.47	34346.48
534.67	34268.66
534.88	33959.42
535.08	34403.83
535.28	34637.30
535.49	34434.55
535.69	34596.34
535.89	34897.39
536.09	34854.38
536.30	34803.18
536.50	35132.90
536.70	34950.63
536.91	35085.80
537.11	35266.02
537.31	35349.99
537.51	35386.85
537.72	35419.62
537.92	35446.24
538.12	35943.90
538.32	35474.91
538.53	35958.24
538.73	35626.46
538.93	35532.26
539.13	36027.87
539.34	35970.52
539.54	36021.72
539.74	36638.16
539.94	36361.69
540.15	36212.18
540.35	36421.08
540.55	36650.45
540.75	36371.92
540.96	36664.78
541.16	37010.89
541.36	36853.20
541.56	36658.64
541.77	37023.18
541.97	36679.12
542.17	37074.38
542.37	37252.55
542.58	37531.08
542.78	37502.40
542.98	37574.08
543.18	37729.73
543.38	37961.15
543.59	38428.09
543.79	37332.42
543.99	37309.89
544.19	38024.64
544.40	37877.18
544.60	38204.86
544.80	37848.51
545.00	38194.62
545.20	38538.68
545.41	38331.83
545.61	38364.60
545.81	38929.84
546.01	38935.98
546.21	38649.27
546.42	38225.34
546.62	39036.33
546.82	38602.16
547.02	38985.13
547.22	38712.75
547.43	38573.49
547.63	38991.28
547.83	39284.14
548.03	39212.46
548.23	39353.77
548.44	39140.78
548.64	39380.39
548.84	39282.09
549.04	39345.58
549.24	39456.17
549.45	40265.11
549.65	39583.14
549.85	40168.86
550.05	40025.50
550.25	39876.00
550.45	40826.26
550.66	40031.65
550.86	40156.57
551.06	40301.98
551.26	40822.16
551.46	40605.08
551.66	40838.54
551.87	40637.84
552.07	40920.46
552.27	40893.84
552.47	40879.50
552.67	40795.54
552.87	40924.56
553.07	41072.01
553.28	40734.10
553.48	41174.41
553.68	41516.42
553.88	41528.71
554.08	41170.32
554.28	41272.71
554.48	40910.22
554.69	41674.12
554.89	41584.01
555.09	41602.44
555.29	41168.27
555.49	42005.89
555.69	42022.27
555.89	41663.88
556.10	42231.16
556.30	42022.27
556.50	41909.63
556.70	41835.91
556.90	42186.11
557.10	42360.19
557.30	41653.64
557.50	42501.50
557.70	42263.93
557.91	42478.97
558.11	42317.18
558.31	42507.64
558.51	42335.61
558.71	42663.28
558.91	42816.88
559.11	42571.13
559.31	42694.00
559.51	42509.69
559.72	42689.91
559.92	42724.72
560.12	42493.30
560.32	43046.26
560.52	43103.60
560.72	42874.23
560.92	42833.27
561.12	43056.50
561.32	43369.83
561.52	42872.18
561.72	43642.21
561.93	43214.19
562.13	43085.17
562.33	43091.31
562.53	43570.54
562.73	42995.06
562.93	43214.19
563.13	43779.43
563.33	43631.97
563.53	43464.04
563.73	42904.95
563.93	43527.53
564.13	44164.45
564.33	43775.33
564.53	43591.01
564.74	44045.66
564.94	43611.49
565.14	43832.68
565.34	43631.97
565.54	43828.58
565.74	43857.25
565.94	44203.36
566.14	43734.37
566.34	44172.64
566.54	44365.15
566.74	43963.75
566.94	44207.45
567.14	44303.71
567.34	44275.04
567.54	44320.09
567.74	44000.61
567.94	44383.58
568.14	44516.70
568.34	44193.12
568.54	44463.45
568.74	44285.28
568.94	44205.41
569.14	44682.58
569.34	44760.40
569.54	44924.24
569.75	44250.46
569.95	44914.00
570.15	45243.73
570.35	44787.03
570.55	44780.88
570.75	44875.09
570.95	44782.93
571.15	44758.36
571.35	45145.42
571.55	45014.35
571.75	45350.22
571.95	45083.98
572.15	44580.18
572.35	44717.40
572.55	44928.34
572.75	45274.45
572.95	44940.63
573.15	45280.59
573.35	45083.98
573.55	45256.01
573.75	45094.22
573.95	45303.12
574.15	45153.62
574.35	45266.25
574.55	45456.71
574.75	45446.47
574.95	45264.21
575.15	44930.39
575.34	45274.45
575.54	45974.85
575.74	45565.26
575.94	45774.15
576.14	45911.36
576.34	45643.08
576.54	45763.91
576.74	45972.80
576.94	45815.11
577.14	45915.46
577.34	45886.79
577.54	45544.78
577.74	45839.68
577.94	45845.83
578.14	46091.58
578.34	46054.72
578.54	45966.66
578.74	45747.53
578.94	46398.78
579.14	45978.95
579.34	46128.45
579.54	46064.96
579.74	46550.33
579.94	46601.53
580.13	46439.74
580.33	46232.89
580.53	46445.88
580.73	46376.25
580.93	46740.79
581.13	46535.99
581.33	46689.59
581.53	46869.81
581.73	46890.29
581.93	47224.11
582.13	46701.88
582.33	47037.75
582.53	47086.90
582.73	46712.12
582.92	46994.74
583.12	47301.93
583.32	47136.05
583.52	46744.89
583.72	47095.09
583.92	46656.82
584.12	46912.82
584.32	47437.10
584.52	46847.29
584.72	46984.50
584.92	47250.74
585.11	47801.64
585.31	47418.67
585.51	47406.38
585.71	47129.90
585.91	47740.20
586.11	47543.59
586.31	47385.90
586.51	47748.39
586.71	47191.34
586.91	47625.51
587.10	47910.18
587.30	47633.71
587.50	47744.30
587.70	47727.91
587.90	48037.16
588.10	48020.77
588.30	47971.62
588.50	47875.37
588.69	48110.88
588.89	47834.41
589.09	47875.37
589.29	48059.68
589.49	48217.38
589.69	47928.61
589.89	48450.84
590.08	48250.14
590.28	48391.45
590.48	48129.31
590.68	48246.05
590.88	48459.04
591.08	48379.17
591.28	48168.22
591.47	48882.97
591.67	48704.79
591.87	48649.50
592.07	48321.82
592.27	48680.22
592.47	48913.69
592.67	48790.81
592.86	48895.25
593.06	48878.87
593.26	49009.94
593.46	49237.26
593.66	48764.18
593.86	49243.41
594.05	49640.71
594.25	48981.27
594.45	48436.51
594.65	49317.14
594.85	49063.19
595.05	49186.07
595.24	49722.63
595.44	49493.26
595.64	49241.36
595.84	49657.10
596.04	49724.68
596.23	49612.04
596.43	49423.63
596.63	49517.84
596.83	49501.45
597.03	49808.65
597.22	50339.07
597.42	50160.90
597.62	50095.36
597.82	50201.86
598.02	49984.77
598.21	50279.68
598.41	49952.01
598.61	50361.60
598.81	50500.86
599.01	50935.03
599.20	50404.61
599.40	50601.21
599.60	50791.67
599.80	50623.74
600.00	50738.43
600.19	51131.64
600.39	50738.43
600.59	51309.81
600.79	51107.06
600.98	51191.03
601.18	51109.11
601.38	51025.14
601.58	51023.09
601.78	51156.21
601.97	51410.16
602.17	51735.79
602.37	51483.89
602.57	51614.96
602.76	51786.99
602.96	51657.96
603.16	51924.20
603.36	51922.15
603.55	51631.34
603.75	51805.42
603.95	52129.00
604.15	52227.30
604.34	52303.07
604.54	52251.87
604.74	52040.93
604.94	52647.13
605.13	52591.84
605.33	52966.62
605.53	52460.77
605.73	52780.25
605.92	52640.99
606.12	52806.87
606.32	52880.60
606.52	53179.60
606.71	53173.46
606.91	53089.49
607.11	52622.56
607.30	53265.62
607.50	53269.72
607.70	53302.48
607.90	52810.97
608.09	52929.75
608.29	53400.79
608.49	53513.42
608.68	53212.37
608.88	53515.47
609.08	53626.06
609.28	53564.62
609.47	53306.58
609.67	53863.63
609.87	53998.79
610.06	53984.46
610.26	54088.90
610.46	53728.46
610.66	53720.27
610.85	53941.45
611.05	53488.85
611.25	54533.31
611.44	53929.16
611.64	53765.32
611.84	54039.75
612.03	54068.42
612.23	54396.10
612.43	54715.58
612.62	54041.80
612.82	54940.86
613.02	54449.35
613.21	54379.71
613.41	54166.73
613.61	54557.89
613.80	54088.90
614.00	54312.13
614.20	54578.37
614.39	54361.28
614.59	54375.62
614.79	54748.35
614.98	54385.86
615.18	54678.72
615.38	54779.07
615.57	54537.41
615.77	54529.22
615.97	54811.84
616.16	54191.30
616.36	54377.67
616.56	54654.14
616.75	54314.18
616.95	54410.43
617.15	54547.65
617.34	55272.63
617.54	54670.53
617.74	55116.98
617.93	55022.78
618.13	54656.19
618.32	54938.81
618.52	54932.67
618.72	55067.83
618.91	55483.57
619.11	54723.77
619.31	54953.15
619.50	55088.31
619.70	54555.84
619.90	55022.78
620.09	55104.70
620.29	54947.00
620.48	54895.80
620.68	55102.65
620.88	55252.15
621.07	55047.35
621.27	55198.90
621.46	54736.06
621.66	55094.46
621.86	55082.17
622.05	54416.58
622.25	55170.23
622.44	55168.18
622.64	55080.12
622.84	55434.42
623.03	55043.26
623.23	54969.53
623.42	55301.30
623.62	54934.71
623.82	55114.94
624.01	54850.75
624.21	55413.94
624.40	55420.08
624.60	55348.40
624.80	55370.93
624.99	55047.35
625.19	54588.61
625.38	54811.84
625.58	54914.23
625.77	55020.73
625.97	54873.27
626.17	54805.69
626.36	55069.88
626.56	55186.61
626.75	54596.80
626.95	55289.01
627.14	54994.10
627.34	55725.23
627.54	55133.37
627.73	54543.55
627.93	55071.93
628.12	54920.38
628.32	54877.37
628.51	55116.98
628.71	54951.10
628.90	55067.83
629.10	54781.12
629.30	54830.27
629.49	55164.09
629.69	55145.65
629.88	55143.61
630.08	55481.52
630.27	55000.25
630.47	55108.79
630.66	54676.67
630.86	55164.09
631.05	54973.63
631.25	55239.86
631.44	54979.77
631.64	54867.13
631.84	55364.79
632.03	55448.75
632.23	55262.39
632.42	55280.82
632.62	55254.20
632.81	54650.05
633.01	55000.25
633.20	55424.18
633.40	54957.24
633.59	55313.59
633.79	55067.83
633.98	55018.68
634.18	55096.50
634.37	54981.82
634.57	54951.10
634.76	55059.64
634.96	55372.98
635.15	55422.13
635.35	54813.88
635.54	55100.60
635.74	55366.84
635.93	54893.75
636.13	55469.23
636.32	55176.37
636.52	54582.46
636.71	55043.26
636.91	55211.19
637.10	55284.92
637.30	54799.55
637.49	55155.89
637.69	54967.48
637.88	55342.26
638.08	54975.67
638.27	55207.09
638.46	54533.31
638.66	54736.06
638.85	55116.98
639.05	55024.82
639.24	54973.63
639.44	54648.00
639.63	54809.79
639.83	55063.74
640.02	54856.89
640.22	54981.82
640.41	54695.10
640.61	54637.76
640.80	54748.35
640.99	54750.40
641.19	55231.67
641.38	54983.86
641.58	55119.03
641.77	54969.53
641.97	54791.36
642.16	54820.03
642.36	55301.30
642.55	55653.55
642.74	54570.18
642.94	55262.39
643.13	55100.60
643.33	55170.23
643.52	54729.92
643.72	55217.33
643.91	54785.21
644.10	54844.60
644.30	55387.31
644.49	54996.15
644.69	54973.63
644.88	55084.22
645.08	54701.25
645.27	55209.14
645.46	54514.88
645.66	55284.92
645.85	54750.40
646.05	54824.12
646.24	54961.34
646.43	54953.15
646.63	55205.05
646.82	55293.11
647.02	54987.96
647.21	55192.76
647.40	55092.41
647.60	54987.96
647.79	55426.23
647.99	55067.83
648.18	54838.46
648.37	55354.55
648.57	55053.50
648.76	55278.77
648.96	54740.16
649.15	55030.97
649.34	55403.70
649.54	55047.35
649.73	54826.17
649.92	55102.65
650.12	55534.77
650.31	55383.22
650.51	55358.64
650.70	55465.14
650.89	55061.69
651.09	56110.25
651.28	54936.76
651.47	55104.70
651.67	55256.24
651.86	55680.17
652.06	54428.87
652.25	55252.15
652.44	55116.98
652.64	54785.21
652.83	55307.44
653.02	54924.47
653.22	55358.64
653.41	54942.91
653.60	54830.27
653.80	55100.60
653.99	55450.80
654.18	54770.88
654.38	55061.69
654.57	54799.55
654.76	54518.98
654.96	55047.35
655.15	55035.06
655.34	54758.59
655.54	54738.11
655.73	55286.96
655.92	55166.13
656.12	55424.18
656.31	55264.44
656.50	54858.94
656.70	54656.19
656.89	54801.60
657.08	54969.53
657.28	55250.10
657.47	55041.21
657.66	55260.34
657.86	55092.41
658.05	54965.43
658.24	55203.00
658.43	54883.51
658.63	55114.94
658.82	55346.36
659.01	55076.02
659.21	55194.81
659.40	55336.12
659.59	54975.67
659.79	55522.48
659.98	55583.92
660.17	55426.23
660.36	55393.46
660.56	54777.02
660.75	55477.43
660.94	55194.81
661.14	55209.14
661.33	55098.55
661.52	55110.84
661.71	55415.99
661.91	55078.07
662.10	55360.69
662.29	55719.09
662.49	55143.61
662.68	55329.97
662.87	55448.75
663.06	55239.86
663.26	55096.50
663.45	55377.08
663.64	55252.15
663.83	55385.27
664.03	55692.46
664.22	55415.99
664.41	55895.21
664.60	55028.92
664.80	55223.48
664.99	55430.32
665.18	55137.46
665.37	55411.89
665.57	55622.83
665.76	55665.84
665.95	55485.62
666.14	55329.97
666.34	55579.82
666.53	55567.54
666.72	55456.95
666.91	55186.61
667.11	55116.98
667.30	55600.30
667.49	54994.10
667.68	55424.18
667.87	55067.83
668.07	55862.44
668.26	55313.59
668.45	55817.39
668.64	55016.63
668.84	56022.19
669.03	55717.04
669.22	55671.98
669.41	55452.85
669.60	55706.80
669.80	55608.50
669.99	55780.52
670.18	55491.76
670.37	55880.88
670.57	55930.03
670.76	55477.43
670.95	56128.68
671.14	55844.01
671.33	55096.50
671.53	55858.35
671.72	55854.25
671.91	55880.88
672.10	56079.53
672.29	55581.87
672.48	56016.04
672.68	55841.96
672.87	55516.34
673.06	55649.45
673.25	55694.51
673.44	55506.10
673.64	55686.32
673.83	55590.06
674.02	55583.92
674.21	55362.74
674.40	55825.58
674.59	55542.96
674.79	55229.62
674.98	55479.47
675.17	55831.72
675.36	55522.48
675.55	55739.57
675.74	55348.40
675.94	55399.60
676.13	55766.19
676.32	55936.17
676.51	56065.19
676.70	55991.47
676.89	55821.48
677.08	56147.11
677.28	55391.41
677.47	56128.68
677.66	55819.44
677.85	55637.17
678.04	55917.74
678.23	56597.66
678.42	56149.16
678.62	55829.68
678.81	56497.31
679.00	55653.55
679.19	56169.64
679.38	56196.26
679.57	55909.55
679.76	55655.60
679.96	56200.36
680.15	56026.28
680.34	56204.45
680.53	56087.72
680.72	56339.62
680.91	56310.95
681.10	56280.23
681.29	56284.33
681.48	55784.62
681.68	55878.83
681.87	55823.53
682.06	56255.65
682.25	55686.32
682.44	55714.99
682.63	55985.32
682.82	55637.17
683.01	55872.68
683.20	55030.97
683.39	55755.95
683.59	56054.95
683.78	55803.05
683.97	55852.20
684.16	56106.15
684.35	55684.27
684.54	55745.71
684.73	55714.99
684.92	55659.69
685.11	55698.61
685.30	55336.12
685.49	56020.14
685.69	56040.62
685.88	56018.09
686.07	56231.08
686.26	55712.94
686.45	56077.48
686.64	56026.28
686.83	55362.74
687.02	55901.36
687.21	56188.07
687.40	56145.06
687.59	56114.34
687.78	55594.16
687.97	56013.99
688.16	56157.35
688.35	55723.18
688.54	55917.74
688.74	55762.09
688.93	55327.92
689.12	55887.02
689.31	56304.80
689.50	55952.55
689.69	55456.95
689.88	55680.17
690.07	56013.99
690.26	55465.14
690.45	55891.12
690.64	55491.76
690.83	55573.68
691.02	55370.93
691.21	55448.75
691.40	55622.83
691.59	55456.95
691.78	55612.59
691.97	55434.42
692.16	55084.22
692.35	55751.85
692.54	55530.67
692.73	55473.33
692.92	55297.20
693.11	55272.63
693.30	55317.68
693.49	55708.85
693.68	55231.67
693.87	55518.38
694.06	55391.41
694.25	55573.68
694.44	55377.08
694.63	55205.05
694.82	55502.00
695.01	55387.31
695.20	55450.80
695.39	54949.05
695.58	54953.15
695.77	54869.18
695.96	54899.90
696.15	55329.97
696.34	54918.33
696.53	55401.65
696.72	55420.08
696.91	54918.33
697.10	55162.04
697.29	55096.50
697.48	55487.67
697.67	55092.41
697.86	54695.10
698.05	54949.05
698.24	55368.88
698.43	54547.65
698.62	55188.66
698.81	54805.69
699.00	55350.45
699.19	54457.54
699.38	54990.01
699.57	54822.08
699.76	55000.25
699.95	54652.09
700.14	54744.25
700.32	54809.79
700.51	54639.81
700.70	55129.27
700.89	54944.95
701.08	54631.61
701.27	54271.17
701.46	54705.34
701.65	54217.92
701.84	54637.76
702.03	54162.63
702.22	53947.59
702.41	53945.54
702.60	54097.09
702.79	54355.14
702.98	54408.39
703.17	54478.02
703.35	54258.88
703.54	53884.11
703.73	54359.23
703.92	54308.04
704.11	54158.53
704.30	54191.30
704.49	54113.48
704.68	53626.06
704.87	54158.53
705.06	54336.71
705.25	53867.72
705.43	53912.78
705.62	53916.87
705.81	53707.98
706.00	53765.32
706.19	53716.17
706.38	53740.75
706.57	53775.56
706.76	53673.16
706.95	53589.20
707.14	53376.21
707.32	53408.98
707.51	52886.74
707.70	53091.54
707.89	53548.24
708.08	53265.62
708.27	53396.69
708.46	53394.64
708.65	53400.79
708.84	53687.50
709.02	53558.48
709.21	53368.02
709.40	53443.79
709.59	53040.34
709.78	52628.70
709.97	52729.05
710.16	52684.00
710.34	52831.45
710.53	52892.89
710.72	52483.30
710.91	52731.10
711.10	52923.61
711.29	52956.38
711.48	52892.89
711.66	52387.04
711.85	52581.60
712.04	52638.94
712.23	52835.55
712.42	52372.70
712.61	52630.75
712.80	52153.57
712.98	52432.10
713.17	52008.17
713.36	52196.58
713.55	52610.27
713.74	52538.59
713.93	52079.85
714.11	52085.99
714.30	51885.29
714.49	51819.75
714.68	52253.92
714.87	52288.74
715.06	52276.45
715.24	51729.64
715.43	51813.61
715.62	52094.18
715.81	51361.01
716.00	51453.17
716.18	51602.67
716.37	51301.62
716.56	51191.03
716.75	51784.94
716.94	51475.69
717.12	50930.93
717.31	51469.55
717.50	51401.97
717.69	51033.33
717.88	51102.96
718.06	51219.70
718.25	51193.07
718.44	50861.30
718.63	50779.39
718.82	50418.94
719.00	50912.50
719.19	50539.77
719.38	50748.67
719.57	50488.57
719.76	50402.56
719.94	49999.11
720.13	50240.77
720.32	50181.38
720.51	50142.47
720.69	50332.93
720.88	49812.74
721.07	49753.35
721.26	49546.51
721.44	49452.30
721.63	49825.03
721.82	49603.85
722.01	49384.72
722.20	49462.54
722.38	49388.81
722.57	49265.94
722.76	49693.96
722.95	49661.19
723.13	48921.88
723.32	48749.85
723.51	49159.44
723.70	48921.88
723.88	49407.25
724.07	49202.45
724.26	48895.25
724.44	48500.00
724.63	48778.52
724.82	48825.62
725.01	48866.58
725.19	48913.69
725.38	48545.05
725.57	48213.28
725.76	48606.49
725.94	48303.39
726.13	48540.96
726.32	48028.96
726.51	47830.31
726.69	48682.27
726.88	48106.79
727.07	48342.30
727.25	48024.87
727.44	48477.47
727.63	48309.53
727.82	48112.93
728.00	48313.63
728.19	47535.40
728.38	48330.01
728.56	47908.13
728.75	48250.14
728.94	47605.03
729.12	47875.37
729.31	47797.54
729.50	47508.78
729.69	47897.89
729.87	47363.37
730.06	47740.20
730.25	48035.11
730.43	47961.38
730.62	47631.66
730.81	47949.09
730.99	47334.70
731.18	47684.90
731.37	47639.85
731.55	47813.93
731.74	48055.59
731.93	47662.38
732.11	47414.57
732.30	48010.53
732.49	47426.86
732.67	47408.43
732.86	47549.74
733.05	47441.20
733.23	47080.75
733.42	47478.06
733.61	47346.99
733.79	47361.33
733.98	47891.75
734.17	46986.55
734.35	47164.72
734.54	47240.50
734.73	47338.80
734.91	47338.80
735.10	47396.14
735.29	47492.40
735.47	46695.74
735.66	47390.00
735.84	47220.02
736.03	46691.64
736.22	46968.12
736.40	46900.53
736.59	47033.65
736.78	46687.54
736.96	46912.82
737.15	46904.63
737.33	46505.27
737.52	46685.50
737.71	46548.28
737.89	46777.65
738.08	46753.08
738.27	46163.26
738.45	46632.25
738.64	46849.33
738.82	46771.51
739.01	46572.86
739.20	46425.40
739.38	47000.88
739.57	46761.27
739.75	46832.95
739.94	46419.26
740.13	46581.05
740.31	46155.07
740.50	46085.44
740.68	46275.90
740.87	46421.31
741.06	46155.07
741.24	45712.71
741.43	45753.67
741.61	46204.22
741.80	45993.28
741.99	46009.67
742.17	45940.04
742.36	45970.75
742.54	45669.70
742.73	46032.19
742.91	45931.84
743.10	45897.03
743.29	46011.71
743.47	46069.06
743.66	45421.90
743.84	45694.28
744.03	45780.29
744.21	45487.43
744.40	45395.28
744.59	45477.19
744.77	45196.62
744.96	45552.97
745.14	45702.47
745.33	45565.26
745.51	45288.78
745.70	45542.73
745.88	45362.51
746.07	45278.54
746.26	45196.62
746.44	45274.45
746.63	45294.92
746.81	45530.44
747.00	45065.55
747.18	45360.46
747.37	44979.54
747.55	45194.57
747.74	45286.73
747.92	45012.31
748.11	45303.12
748.29	45182.29
748.48	45223.25
748.66	44713.30
748.85	44987.73
749.03	45090.13
749.22	45194.57
749.41	44528.98
749.59	45000.02
749.78	44418.39
749.96	44637.53
750.15	44385.63
750.33	44836.18
750.52	44924.24
750.70	44637.53
750.89	44377.43
751.07	44168.54
751.26	44660.05
751.44	44193.12
751.63	44397.91
751.81	44414.30
752.00	43842.92
752.18	44471.64
752.37	44488.03
752.55	43953.51
752.74	44227.93
752.92	44078.43
753.10	43978.08
753.29	44399.96
753.47	43847.01
753.66	43861.35
753.84	43978.08
754.03	44070.24
754.21	43847.01
754.40	44342.62
754.58	44047.71
754.77	43957.60
754.95	43859.30
755.14	43744.61
755.32	43541.86
755.51	43240.81
755.69	43396.46
755.88	43480.42
756.06	43672.93
756.24	43785.57
756.43	43461.99
756.61	43767.14
756.80	43505.00
756.98	43255.15
757.17	43871.59
757.35	43695.46
757.54	43652.45
757.72	43627.88
757.90	43312.49
758.09	43439.47
758.27	43756.90
758.46	43226.48
758.64	43222.38
758.83	43406.70
759.01	43113.84
759.19	43357.55
759.38	43398.51
759.56	43244.91
759.75	43119.98
759.93	43103.60
760.12	43261.29
760.30	42861.94
760.48	43111.79
760.67	43246.96
760.85	43267.44
761.04	43146.61
761.22	42993.01
761.40	43175.28
761.59	42767.73
761.77	43140.46
761.96	42587.51
762.14	42616.18
762.32	42694.00
762.51	42372.47
762.69	42640.76
762.88	42773.88
763.06	42646.90
763.24	42943.86
763.43	42521.98
763.61	42452.34
763.80	42612.09
763.98	41966.98
764.16	42108.29
764.35	42323.32
764.53	42282.36
764.72	42106.24
764.90	42341.75
765.08	42028.41
765.27	42204.54
765.45	41909.63
765.63	41905.54
765.82	42573.17
766.00	41848.19
766.18	42087.81
766.37	42466.68
766.55	42048.89
766.74	42306.94
766.92	41997.70
767.10	42061.18
767.29	41631.11
767.47	41561.48
767.65	42098.05
767.84	41471.37
768.02	42112.38
768.20	41366.92
768.39	42032.51
768.57	41794.95
768.75	41643.40
768.94	41549.19
769.12	41678.21
769.30	41108.88
769.49	41321.87
769.67	41233.80
769.85	41182.60
770.04	41270.67
770.22	40609.17
770.40	41129.36
770.59	41328.01
770.77	41422.22
770.95	41305.48
771.14	40691.09
771.32	40277.40
771.50	40734.10
771.69	40856.98
771.87	41055.63
772.05	40932.75
772.24	40838.54
772.42	40949.14
772.60	40854.93
772.78	40412.57
772.97	40580.50
773.15	40981.90
773.33	40719.76
773.52	40564.12
773.70	40756.63
773.88	40918.42
774.07	40367.51
774.25	40689.04
774.43	40433.05
774.61	40961.42
774.80	40979.85
774.98	41035.15
775.16	41010.57
775.34	40672.66
775.53	40930.70
775.71	41094.54
775.89	40527.25
776.08	40961.42
776.26	41276.81
776.44	41080.21
776.62	40818.07
776.81	40996.24
776.99	41082.25
777.17	41305.48
777.35	41547.14
777.54	41328.01
777.72	41059.73
777.90	41067.92
778.08	41129.36
778.27	41074.06
778.45	41354.63
778.63	41858.43
778.81	41332.11
779.00	41872.77
779.18	41614.72
779.36	41710.98
779.54	41702.79
779.73	41239.95
779.91	41616.77
780.09	41682.31
780.27	41928.06
780.46	41774.47
780.64	41850.24
780.82	41665.92
781.00	41371.02
781.19	42034.56
781.37	42007.94
781.55	41702.79
781.73	42284.41
781.91	41821.57
782.10	41899.39
782.28	42153.34
782.46	41991.55
782.64	42077.57
782.82	41735.56
783.01	42423.67
783.19	42194.30
783.37	41856.39
783.55	42050.94
783.74	42243.45
783.92	42055.04
784.10	42509.69
784.28	42167.68
784.46	41796.99
784.64	41670.02
784.83	42444.15
785.01	42347.90
785.19	41940.35
785.37	42124.67
785.55	42057.09
785.74	41854.34
785.92	41760.13
786.10	42052.99
786.28	42038.65
786.46	41993.60
786.64	41610.63
786.83	42069.37
787.01	42331.51
787.19	41942.40
787.37	42169.72
787.55	41948.54
787.74	41457.03
787.92	41745.80
788.10	41414.02
788.28	41514.37
788.46	41534.85
788.64	41174.41
788.82	41983.36
789.01	41631.11
789.19	41612.68
789.37	41330.06
789.55	41465.22
789.73	41106.83
789.91	41358.73
790.09	41092.49
790.28	41080.21
790.46	41041.29
790.64	41252.23
790.82	41080.21
791.00	40899.98
791.18	40510.87
791.36	40566.16
791.55	40750.48
791.73	40555.93
791.91	40082.84
792.09	40779.15
792.27	40484.25
792.45	40590.74
792.63	40242.59
792.81	40056.22
793.00	40138.14
793.18	40465.81
793.36	39652.77
793.54	40183.19
793.72	39632.29
793.90	39732.64
794.08	39615.91
794.26	39828.90
794.44	39372.20
794.62	39243.18
794.81	39544.23
794.99	39435.69
795.17	39542.18
795.35	39382.44
795.53	39372.20
795.71	39359.91
795.89	39228.84
796.07	38942.13
796.25	38753.71
796.43	38682.03
796.61	38256.06
796.80	38608.31
796.98	38782.38
797.16	38421.94
797.34	38292.92
797.52	38262.20
797.70	38561.20
797.88	38000.06
798.06	37940.67
798.24	38354.36
798.42	37742.02
798.60	38057.40
798.78	37803.46
798.96	37815.74
799.14	37641.67
799.32	37615.04
799.51	37352.90
799.69	37664.19
799.87	37508.55
800.05	37137.87
800.23	37232.07
800.41	37045.71
800.59	37248.46
800.77	36959.69
800.95	36328.92
801.13	37178.82
801.31	36355.54
801.49	36836.81
801.67	36478.42
801.85	36492.76
802.03	35974.62
802.21	36402.64
802.39	36136.41
802.57	35907.04
802.75	36036.06
802.93	36199.90
803.11	35845.60
803.29	36122.07
803.47	35374.56
803.65	35755.49
803.83	35317.22
804.01	35577.31
804.19	35327.46
804.37	35020.27
804.55	35182.06
804.73	35296.74
804.91	35370.47
805.09	35128.81
805.27	35022.31
805.45	34973.16
805.63	35167.72
805.81	34973.16
805.99	35053.03
806.17	34827.76
806.35	34379.25
806.53	34424.31
806.71	34596.34
806.89	34500.08
807.07	34498.03
807.25	34258.42
807.43	34305.52
807.61	34235.89
807.79	34051.58
807.97	34012.66
808.15	34139.64
808.33	33889.79
808.51	33527.30
808.69	33553.92
808.87	33377.79
809.05	33216.01
809.23	33627.65
809.41	33035.78
809.59	33213.96
809.77	33492.48
809.95	33297.92
810.13	33179.14
810.31	33003.02
810.49	33385.99
810.67	32976.39
810.84	32689.68
811.02	32933.39
811.20	32521.74
811.38	32314.90
811.56	32251.41
811.74	32366.10
811.92	32153.11
812.10	32433.68
812.28	32734.73
812.46	32437.78
812.64	32359.95
812.82	32093.72
813.00	31997.46
813.18	31989.27
813.36	32073.24
813.53	31522.34
813.71	31960.60
813.89	31612.45
814.07	31671.84
814.25	31933.98
814.43	31491.62
814.61	31270.43
814.79	31585.82
814.97	30961.19
815.15	31274.53
815.33	31106.60
815.50	30887.46
815.68	31372.83
815.86	31280.67
816.04	30727.72
816.22	30975.53
816.40	30750.25
816.58	30811.69
816.76	30463.54
816.94	30594.61
817.11	30516.78
817.29	30309.94
817.47	30359.09
817.65	30293.55
817.83	30600.75
818.01	30250.55
818.19	30672.43
818.37	30283.31
818.54	30123.57
818.72	29976.12
818.90	30131.76
819.08	29969.97
819.26	29918.78
819.44	29748.79
819.62	30094.90
819.80	30043.70
819.97	30111.28
820.15	29161.03
820.33	29539.90
820.51	29470.27
820.69	29050.44
820.87	29529.66
821.05	29451.84
821.22	29339.20
821.40	29308.48
821.58	29300.29
821.76	29253.19
821.94	29226.56
822.12	28913.22
822.29	29318.72
822.47	28733.00
822.65	29408.83
822.83	29001.29
823.01	28853.83
823.19	28743.24
823.36	28548.68
823.54	28939.85
823.72	28606.03
823.90	28491.34
824.08	28321.36
824.25	28399.18
824.43	28345.94
824.61	28151.38
824.79	28366.42
824.97	28221.01
825.15	28198.48
825.32	28061.27
825.50	27993.68
825.68	27909.72
825.86	28153.43
826.04	27801.18
826.21	27872.85
826.39	28028.50
826.57	27895.38
826.75	27506.27
826.93	27440.73
827.10	27393.63
827.28	27510.36
827.46	27727.45
827.64	27584.09
827.81	27539.04
827.99	27850.33
828.17	27623.00
828.35	26963.56
828.53	27362.91
828.70	27655.77
828.88	26945.12
829.06	27305.57
829.24	27330.14
829.41	27041.38
829.59	27485.79
829.77	27508.32
829.95	26938.98
830.12	26693.22
830.30	27143.78
830.48	27029.09
830.66	27041.38
830.84	26838.63
831.01	26732.14
831.19	26707.56
831.37	26472.04
831.55	26588.78
831.72	26451.56
831.90	26689.13
832.08	26627.69
832.25	26027.63
832.43	26553.96
832.61	26054.26
832.79	26330.73
832.96	26279.54
833.14	26381.93
833.32	26439.28
833.50	26433.13
833.67	26193.52
833.85	26099.31
834.03	25816.69
834.20	25958.00
834.38	26218.10
834.56	26306.16
834.74	25796.21
834.91	26021.49
835.09	25628.28
835.27	25589.37
835.44	25656.95
835.62	25652.86
835.80	25871.99
835.98	25722.49
836.15	25542.27
836.33	25652.86
836.51	25607.80
836.68	25419.39
836.86	25644.66
837.04	25591.42
837.21	25687.67
837.39	25294.46
837.57	25464.44
837.75	25577.08
837.92	25013.89
838.10	24829.57
838.28	24999.55
838.45	24805.00
838.63	25022.08
838.81	25087.62
838.98	25001.60
839.16	24913.54
839.34	24850.05
839.51	24944.26
839.69	24786.57
839.87	24555.15
840.04	24647.30
840.22	24786.57
840.40	24655.50
840.57	24600.20
840.75	24514.19
840.93	24426.12
841.10	24667.78
841.28	24501.90
841.46	24309.39
841.63	24704.65
841.81	24370.83
841.98	24213.13
842.16	24387.21
842.34	24387.21
842.51	24116.88
842.69	24356.49
842.87	23660.18
843.04	24192.65
843.22	24219.28
843.40	24141.46
843.57	23910.04
843.75	24059.54
843.92	23842.45
844.10	24217.23
844.28	24196.75
844.45	23928.47
844.63	24157.84
844.81	23768.73
844.98	23828.12
845.16	23819.92
845.33	23918.23
845.51	23807.64
845.69	23533.21
845.86	23520.92
846.04	23260.83
846.21	23664.28
846.39	23654.04
846.57	23436.95
846.74	23518.87
846.92	23322.27
847.09	23082.66
847.27	23103.14
847.45	23180.96
847.62	23324.32
847.80	23389.85
847.97	23439.00
848.15	23211.68
848.32	23043.74
848.50	23107.23
848.68	22681.25
848.85	22859.43
849.03	22982.31
849.20	23121.57
849.38	22697.64
849.56	22673.06
849.73	22560.42
849.91	22945.44
850.08	23105.18
850.26	22589.10
850.43	22601.38
850.61	22533.80
850.78	22247.08
850.96	22535.85
851.14	22451.88
851.31	22507.18
851.49	22261.42
851.66	22638.25
851.84	22228.65
852.01	22695.59
852.19	22498.98
852.36	22156.97
852.54	22288.04
852.71	22304.43
852.89	22275.76
853.07	22384.30
853.24	22367.91
853.42	22220.46
853.59	22183.60
853.77	22111.92
853.94	22202.03
854.12	22247.08
854.29	22060.72
854.47	22089.39
854.64	21853.87
854.82	22046.38
854.99	22165.17
855.17	22017.71
855.34	21954.22
855.52	21888.69
855.69	21941.94
855.87	21921.46
856.04	21821.11
856.22	21884.59
856.39	21550.78
856.57	21587.64
856.74	21479.10
856.92	21681.85
857.09	21300.92
857.27	21569.21
857.44	21581.49
857.62	21671.61
857.79	21497.53
857.97	21581.49
858.14	21352.12
858.32	21581.49
858.49	21384.89
858.67	21149.37
858.84	21278.40
859.02	21251.77
859.19	21274.30
859.37	21124.80
859.54	21171.90
859.72	21212.86
859.89	21049.02
860.06	20926.14
860.24	21069.50
860.41	21397.18
860.59	20938.43
860.76	21302.97
860.94	20709.06
861.11	20881.09
861.29	21061.31
861.46	20917.95
861.64	20696.77
861.81	20674.24
861.98	20770.50
862.16	20690.63
862.33	20614.85
862.51	20547.27
862.68	20940.48
862.86	20575.94
863.03	20768.45
863.21	20580.04
863.38	20334.28
863.55	20506.31
863.73	20653.76
863.90	20352.71
864.08	20260.55
864.25	20262.60
864.43	20190.92
864.60	20565.70
864.77	20225.74
864.95	20418.25
865.12	20047.57
865.30	20539.08
865.47	20315.85
865.64	19941.07
865.82	20180.68
865.99	20178.64
866.17	20264.65
866.34	20465.35
866.51	19930.83
866.69	20197.07
866.86	20199.12
867.04	20022.99
867.21	19996.37
867.38	19945.17
867.56	19574.49
867.73	19785.43
867.91	19396.31
868.08	19834.58
868.25	19560.15
868.43	19574.49
868.60	19418.84
868.78	19498.71
868.95	20061.90
869.12	19705.56
869.30	19443.42
869.47	19615.44
869.64	19351.26
869.82	19463.90
869.99	19597.01
870.16	19646.16
870.34	19734.23
870.51	19705.56
870.69	19211.99
870.86	19306.20
871.03	19369.69
871.21	18947.81
871.38	19228.38
871.55	19048.16
871.73	19031.77
871.90	19017.44
872.07	18929.38
872.25	18849.50
872.42	18835.17
872.59	18937.57
872.77	19166.94
872.94	18894.56
873.11	18792.16
873.29	18962.14
873.46	18884.32
873.63	18841.31
873.81	18783.97
873.98	18683.62
874.15	18364.14
874.33	18435.81
874.50	18468.58
874.67	18351.85
874.85	18435.81
875.02	18433.77
875.19	18394.86
875.37	18444.01
875.54	18196.20
875.71	18153.20
875.88	18294.50
876.06	17993.45
876.23	18061.04
876.40	18093.80
876.58	18085.61
876.75	17893.10
876.92	18020.08
877.10	18063.08
877.27	18263.79
877.44	18009.84
877.61	17993.45
877.79	17876.72
877.96	17893.10
878.13	17714.93
878.31	17497.84
878.48	17571.57
878.65	17645.30
878.82	17549.04
879.00	17471.22
879.17	17702.64
879.34	17520.37
879.51	17739.51
879.69	17241.85
879.86	17549.04
880.03	17422.07
880.21	17370.87
880.38	17413.88
880.55	17493.75
880.72	17368.82
880.90	17495.80
881.07	17323.77
881.24	17319.67
881.41	17368.82
881.59	17112.83
881.76	17323.77
881.93	17217.27
882.10	17049.34
882.28	16914.17
882.45	17256.18
882.62	16944.89
882.79	17331.96
882.96	16905.98
883.14	17010.43
883.31	16992.00
883.48	17129.21
883.65	17143.55
883.83	16920.32
884.00	16969.47
884.17	16482.05
884.34	16877.31
884.51	16885.50
884.69	16815.87
884.86	16779.01
885.03	16875.26
885.20	16606.98
885.38	16918.27
885.55	16717.57
885.72	16813.82
885.89	16584.45
886.06	16639.75
886.24	16692.99
886.41	16443.14
886.58	16779.01
886.75	16602.88
886.92	16566.02
887.10	16779.01
887.27	16252.68
887.44	16654.08
887.61	16787.20
887.78	16660.23
887.95	16506.63
888.13	16336.65
888.30	16441.09
888.47	16312.07
888.64	16490.24
888.81	16443.14
888.99	16232.20
889.16	16252.68
889.33	15982.35
889.50	16328.45
889.67	16191.24
889.84	16068.36
890.01	16142.09
890.19	16289.54
890.36	16176.91
890.53	16029.45
890.70	15920.91
890.87	16033.55
891.04	16148.23
891.22	16047.88
891.39	16045.84
891.56	16039.69
891.73	15968.01
891.90	15818.51
892.07	15898.38
892.24	15736.59
892.42	15650.58
892.59	15867.66
892.76	15478.55
892.93	15681.30
893.10	15771.41
893.27	15501.08
893.44	15621.91
893.61	15576.85
893.79	15787.79
893.96	15691.54
894.13	15937.29
894.30	15806.22
894.47	15781.65
894.64	15453.97
894.81	15560.47
894.98	15613.71
895.15	15798.03
895.33	15619.86
895.50	15718.16
895.67	15689.49
895.84	15701.78
896.01	15587.09
896.18	15327.00
896.35	15871.76
896.52	15777.55
896.69	15486.74
896.86	15462.16
897.04	15443.73
897.21	15626.00
897.38	15425.30
897.55	15605.52
897.72	15556.37
897.89	15353.62
898.06	15531.80
898.23	15609.62
898.40	15509.27
898.57	15496.98
898.74	15277.85
898.91	15535.89
899.08	15609.62
899.26	15447.83
899.43	15447.83
899.60	15314.71
899.77	15380.25
899.94	15482.64
900.11	15331.09
900.28	15374.10
900.45	15380.25
900.62	15329.05
900.79	15613.71
900.96	15572.75
901.13	15290.13
901.30	15486.74
901.47	15482.64
901.64	15515.41
901.81	15558.42
901.98	15425.30
902.15	15613.71
902.32	15222.55
902.49	15425.30
902.66	15550.23
902.83	15388.44
903.01	15331.09
903.18	15353.62
903.35	15396.63
903.52	15251.22
903.69	15458.07
903.86	15527.70
904.03	15599.38
904.20	15468.31
904.37	15421.20
904.54	15324.95
904.71	15306.52
904.88	15546.13
905.05	15392.53
905.22	15398.68
905.39	15431.44
905.56	15245.08
905.73	15310.61
905.90	15533.84
906.07	15476.50
906.24	15568.66
906.41	15484.69
906.58	15408.92
906.75	15195.93
906.92	15363.86
907.09	15537.94
907.26	15310.61
907.43	15122.20
907.60	15042.33
907.77	15396.63
907.93	15406.87
908.10	15447.83
908.27	15322.90
908.44	15281.94
908.61	15087.39
908.78	15154.97
908.95	15218.46
909.12	15027.99
909.29	15286.04
909.46	15353.62
909.63	15275.80
909.80	15343.38
909.97	15363.86
910.14	15138.58
910.31	15353.62
910.48	15306.52
910.65	15234.84
910.82	15120.15
910.99	15228.70
911.16	15081.24
911.33	15189.78
911.50	15001.37
911.66	15027.99
911.83	15003.42
912.00	15202.07
912.17	14741.28
912.34	14901.02
912.51	15056.67
912.68	14966.56
912.85	14751.52
913.02	14855.97
913.19	14669.60
913.36	14941.98
913.53	14862.11
913.70	14636.83
913.86	15111.96
914.03	14491.43
914.20	14645.02
914.37	14702.37
914.54	14696.22
914.71	14804.77
914.88	14702.37
915.05	14544.67
915.22	14665.50
915.39	14501.67
915.55	14456.61
915.72	14298.92
915.89	14298.92
916.06	14425.89
916.23	14372.64
916.40	14102.31
916.57	14341.93
916.74	14206.76
916.91	14313.25
917.07	14167.85
917.24	14077.74
917.41	14044.97
917.58	14004.01
917.75	13756.21
917.92	13893.42
918.09	13942.57
918.26	14004.01
918.42	13909.80
918.59	14079.79
918.76	13743.92
918.93	13698.86
919.10	13344.56
919.27	13643.57
919.44	13743.92
919.60	13756.21
919.77	13688.62
919.94	13365.04
920.11	13657.90
920.28	13733.68
920.45	13326.13
920.61	13279.03
920.78	13256.50
920.95	13111.10
921.12	13307.70
921.29	12994.36
921.46	13406.00
921.62	13000.51
921.79	13078.33
921.96	13170.49
922.13	13039.42
922.30	13063.99
922.47	12918.59
922.63	12947.26
922.80	12889.92
922.97	12756.80
923.14	12623.68
923.31	12748.61
923.47	12631.87
923.64	12781.37
923.81	12523.33
923.98	12658.49
924.15	12490.56
924.32	12422.98
924.48	12601.15
924.65	12508.99
924.82	12347.20
924.99	12232.52
925.15	11990.86
925.32	11990.86
925.49	12058.44
925.66	11790.16
925.83	11781.96
925.99	11913.03
926.16	12003.14
926.33	11917.13
926.50	11720.53
926.67	11931.47
926.83	11726.67
927.00	11810.64
927.17	11667.28
927.34	11544.40
927.50	11538.26
927.67	11616.08
927.84	11585.36
928.01	11591.50
928.17	11700.05
928.34	11216.72
928.51	11374.42
928.68	11267.92
928.84	11315.03
929.01	11050.84
929.18	11034.46
929.35	11112.28
929.51	11140.95
929.68	10913.63
929.85	11022.17
930.02	11013.98
930.18	10850.14
930.35	10790.75
930.52	10633.05
930.69	10747.74
930.85	10823.51
931.02	10522.46
931.19	10504.03
931.36	10415.97
931.52	10518.37
931.69	10649.44
931.86	10491.74
932.02	10368.87
932.19	10248.04
932.36	10342.24
932.53	10409.83
932.69	10151.78
932.86	10176.36
933.03	10233.70
933.19	9863.02
933.36	9830.25
933.53	9996.14
933.70	9838.44
933.86	9963.37
934.03	9922.41
934.20	9727.85
934.36	9920.36
934.53	9512.81
934.70	9340.79
934.86	9422.70
935.03	9127.80
935.20	9324.40
935.36	9172.85
935.53	9318.26
935.70	8925.05
935.86	9049.97
936.03	8996.73
936.20	8830.84
936.36	8775.55
936.53	8673.15
936.70	8716.16
936.86	8847.22
937.03	8667.00
937.20	8265.60
937.36	8562.56
937.53	8374.14
937.70	8210.31
937.86	8112.00
938.03	8062.85
938.20	8226.69
938.36	7856.01
938.53	7735.18
938.70	7626.64
938.86	7585.68
939.03	7626.64
939.20	7470.99
939.36	7401.36
939.53	7384.98
939.70	7466.89
939.86	7028.63
940.03	6948.76
940.19	6924.18
940.36	6819.74
940.53	6948.76
940.69	6680.47
940.86	6629.27
941.03	6688.67
941.19	6510.49
941.36	6487.96
941.52	6506.40
941.69	6377.37
941.86	6336.42
942.02	6160.29
942.19	6262.69
942.35	6225.82
942.52	6197.15
942.69	6064.04
942.85	5973.92
943.02	6145.95
943.18	5879.72
943.35	5869.48
943.52	5914.53
943.68	5842.85
943.85	5889.96
944.01	5724.07
944.18	5736.36
944.35	5674.92
944.51	5662.63
944.68	5500.84
944.84	5418.93
945.01	5480.36
945.17	5529.52
945.34	5541.80
945.51	5595.05
945.67	5517.23
945.84	5576.62
946.00	5334.96
946.17	5402.54
946.33	5406.64
946.50	5476.27
946.67	5517.23
946.83	5386.16
947.00	5300.14
947.16	5302.19
947.33	5334.96
947.49	5439.40
947.66	5310.38
947.82	5439.40
947.99	5324.72
948.16	5382.06
948.32	5316.53
948.49	5410.73
948.65	5455.79
948.82	5418.93
948.98	5234.61
949.15	5048.24
949.31	5459.88
949.48	5408.69
949.64	5214.13
949.81	5461.93
949.97	5535.66
950.14	5468.08
950.30	5310.38
950.47	5384.11
950.63	5318.57
950.80	5509.04
950.96	5441.45
951.13	5351.34
951.30	5300.14
951.46	5294.00
951.63	5447.60
951.79	5394.35
951.96	5543.85
952.12	5312.43
952.29	5453.74
952.45	5408.69
952.62	5431.21
952.78	5449.64
952.94	5373.87
953.11	5506.99
953.27	5275.57
953.44	5480.36
953.60	5431.21
953.77	5556.14
953.93	5414.83
954.10	5400.49
954.26	5429.17
954.43	5506.99
954.59	5615.53
954.76	5455.79
954.92	5420.97
955.09	5423.02
955.25	5509.04
955.42	5590.95
955.58	5605.29
955.75	5502.89
955.91	5521.32
956.07	5320.62
956.24	5351.34
956.40	5529.52
956.57	5564.33
956.73	5506.99
956.90	5461.93
957.06	5418.93
957.23	5506.99
957.39	5504.94
957.56	5547.95
957.72	5343.15
957.88	5521.32
958.05	5656.49
958.21	5730.22
958.38	5502.89
958.54	5449.64
958.71	5662.63
958.87	5449.64
959.03	5521.32
959.20	5572.52
959.36	5373.87
959.53	5517.23
959.69	5406.64
959.85	5494.70
960.02	5427.12
960.18	5355.44
960.35	5445.55
960.51	5687.21
960.68	5447.60
960.84	5515.18
961.00	5361.58
961.17	5564.33
961.33	5633.96
961.50	5359.53
961.66	5390.25
961.82	5406.64
961.99	5461.93
962.15	5337.01
962.31	5463.98
962.48	5435.31
962.64	5461.93
962.81	5382.06
962.97	5357.49
963.13	5345.20
963.30	5498.80
963.46	5310.38
963.62	5388.21
963.79	5306.29
963.95	5324.72
964.12	5343.15
964.28	5476.27
964.44	5169.07
964.61	5425.07
964.77	5418.93
964.93	5513.13
965.10	5365.68
965.26	5220.27
965.42	5429.17
965.59	5193.65
965.75	5234.61
965.92	5316.53
966.08	5312.43
966.24	5377.97
966.41	5314.48
966.57	5173.17
966.73	5275.57
966.90	5361.58
967.06	5285.81
967.22	5193.65
967.39	5201.84
967.55	5203.89
967.71	5371.82
967.88	5341.10
968.04	5197.74
968.20	5302.19
968.37	5265.33
968.53	5187.50
968.69	5083.06
968.85	5244.85
969.02	5091.25
969.18	5384.11
969.34	5273.52
969.51	5332.91
969.67	5066.67
969.83	5054.39
970.00	5228.46
970.16	5042.10
970.32	4974.52
970.48	5259.18
970.65	5134.26
970.81	4997.04
970.97	5105.59
971.14	4796.34
971.30	5085.11
971.46	5005.24
971.63	5033.91
971.79	4997.04
971.95	4978.61
972.11	4868.02
972.28	4935.60
972.44	4941.75
972.60	4884.41
972.76	4984.76
972.93	4837.30
973.09	4974.52
973.25	4900.79
973.42	4878.26
973.58	4898.74
973.74	4898.74
973.90	4812.73
974.07	4790.20
974.23	4835.25
974.39	4878.26
974.55	4802.49
974.72	4845.49
974.88	4747.19
975.04	4810.68
975.20	4714.42
975.37	4820.92
975.53	4882.36
975.69	4689.85
975.85	4759.48
976.01	4685.75
976.18	4880.31
976.34	4683.70
976.50	4681.66
976.66	4685.75
976.83	4556.73
976.99	4661.18
977.15	4675.51
977.31	4597.69
977.47	4802.49
977.64	4487.10
977.80	4657.08
977.96	4575.16
978.12	4589.50
978.29	4655.03
978.45	4505.53
978.61	4521.92
978.77	4530.11
978.93	4548.54
979.10	4501.44
979.26	4405.18
979.42	4474.81
979.58	4442.04
979.74	4468.67
979.91	4540.35
980.07	4468.67
980.23	4384.70
980.39	4296.64
980.55	4386.75
980.71	4331.45
980.88	4384.70
981.04	4376.51
981.20	4345.79
981.36	4655.03
981.52	4472.76
981.68	4347.84
981.85	4337.60
982.01	4341.69
982.17	4208.58
982.33	4296.64
982.49	4339.65
982.65	4188.10
982.82	4233.15
982.98	4181.95
983.14	4181.95
983.30	4280.25
983.46	4356.03
983.62	4194.24
983.79	4089.79
983.95	4169.66
984.11	4202.43
984.27	4239.30
984.43	3999.68
984.59	4147.14
984.75	4140.99
984.91	4067.27
985.08	4253.63
985.24	3975.11
985.40	4044.74
985.56	4016.07
985.72	4100.03
985.88	4085.70
986.04	3997.64
986.20	3876.80
986.37	4116.42
986.53	3993.54
986.69	4091.84
986.85	3919.81
987.01	3973.06
987.17	4034.50
987.33	3866.56
987.49	3878.85
987.65	3950.53
987.82	3987.40
987.98	3968.96
988.14	3909.57
988.30	3885.00
988.46	3942.34
988.62	3874.76
988.78	3854.28
988.94	3827.65
989.10	3792.84
989.26	3784.65
989.42	3860.42
989.59	3631.05
989.75	3755.97
989.91	3815.37
990.07	3745.73
990.23	3758.02
990.39	3788.74
990.55	3825.61
990.71	3672.01
990.87	3706.82
991.03	3831.75
991.19	3766.21
991.35	3743.69
991.51	3719.11
991.67	3833.80
991.83	3657.67
992.00	3624.90
992.16	3735.50
992.32	3715.02
992.48	3592.14
992.64	3547.08
992.80	3674.06
992.96	3573.71
993.12	3600.33
993.28	3579.85
993.44	3610.57
993.60	3702.73
993.76	3540.94
993.92	3694.54
994.08	3622.86
994.24	3524.55
994.40	3526.60
994.56	3526.60
994.72	3469.26
994.88	3532.75
995.04	3454.92
995.20	3545.03
995.36	3497.93
995.52	3411.92
995.68	3426.25
995.84	3422.16
996.00	3510.22
996.16	3463.12
996.32	3461.07
996.48	3375.05
996.64	3448.78
996.80	3391.44
996.96	3409.87
997.12	3317.71
997.28	3344.33
997.44	3352.52
997.60	3317.71
997.76	3299.28
997.92	3428.30
998.08	3289.04
998.24	3375.05
998.40	3459.02
998.56	3366.86
998.72	3280.85
998.88	3239.89
999.04	3272.65
999.20	3340.24
999.36	3200.98
999.52	3450.83
999.68	3194.83
999.84	3334.09
1000.00	3270.61
1000.16	3252.17
1000.32	3250.13
1000.48	3239.89
1000.64	3225.55
1000.80	3141.58
1000.95	3135.44
1001.11	3196.88
1001.27	3129.30
1001.43	3104.72
1001.59	3057.62
1001.75	3082.19
1001.91	3117.01
1002.07	3074.00
1002.23	3129.30
1002.39	3131.34
1002.55	3039.19
1002.71	3100.62
1002.87	3084.24
1003.03	3092.43
1003.19	3014.61
1003.34	3022.80
1003.50	3078.10
1003.66	3157.97
1003.82	3114.96
1003.98	3047.38
1004.14	3119.06
1004.30	2994.13
1004.46	2865.11
1004.62	3002.32
1004.78	2959.31
1004.94	3006.42
1005.09	3059.67
1005.25	2961.36
1005.41	2932.69
1005.57	2977.75
1005.73	2975.70
1005.89	2928.60
1006.05	2959.31
1006.21	2895.83
1006.37	2863.06
1006.52	2875.35
1006.68	2836.44
1006.84	2936.79
1007.00	2922.45
1007.16	2916.31
1007.32	2930.64
1007.48	2904.02
1007.64	2863.06
1007.79	2822.10
1007.95	2781.14
1008.11	2850.77
1008.27	2822.10
1008.43	2772.95
1008.59	2727.89
1008.75	2830.29
1008.91	2785.24
1009.06	2736.09
1009.22	2815.96
1009.38	2807.77
1009.54	2781.14
1009.70	2832.34
1009.86	2793.43
1010.01	2758.61
1010.17	2688.98
1010.33	2785.24
1010.49	2717.65
1010.65	2740.18
1010.81	2670.55
1010.96	2731.99
1011.12	2723.80
1011.28	2688.98
1011.44	2650.07
1011.60	2711.51
1011.76	2656.22
1011.91	2742.23
1012.07	2656.22
1012.23	2607.06
1012.39	2695.13
1012.55	2688.98
1012.71	2654.17
1012.86	2676.70
1013.02	2576.34
1013.18	2609.11
1013.34	2602.97
1013.50	2729.94
1013.65	2686.94
1013.81	2514.91
1013.97	2441.18
1014.13	2627.54
1014.29	2471.90
1014.44	2580.44
1014.60	2596.82
1014.76	2564.06
1014.92	2543.58
1015.07	2559.96
1015.23	2527.19
1015.39	2453.47
1015.55	2523.10
1015.71	2473.95
1015.86	2461.66
1016.02	2408.41
1016.18	2486.23
1016.34	2521.05
1016.49	2537.43
1016.65	2611.16
1016.81	2445.27
1016.97	2523.10
1017.12	2502.62
1017.28	2473.95
1017.44	2285.53
1017.60	2445.27
1017.75	2494.43
1017.91	2467.80
1018.07	2543.58
1018.23	2420.70
1018.38	2365.40
1018.54	2478.04
1018.70	2521.05
1018.86	2363.36
1019.01	2340.83
1019.17	2396.12
1019.33	2416.60
1019.49	2418.65
1019.64	2361.31
1019.80	2457.56
1019.96	2430.94
1020.12	2478.04
1020.27	2281.44
1020.43	2375.64
1020.59	2336.73
1020.74	2398.17
1020.90	2453.47
1021.06	2246.62
1021.22	2361.31
1021.37	2248.67
1021.53	2324.44
1021.69	2287.58
1021.84	2197.47
1022.00	2383.84
1022.16	2260.96
1022.31	2316.25
1022.47	2277.34
1022.63	2344.92
1022.79	2230.24
1022.94	2246.62
1023.10	2340.83
1023.26	2279.39
1023.41	2263.01
1023.57	2244.57
1023.73	2273.25
1023.88	2256.86
1024.04	2119.65
1024.20	2228.19
1024.35	2260.96
1024.51	2226.14
1024.67	2279.39
1024.82	2297.82
1024.98	2127.84
1025.14	2244.57
1025.29	2199.52
1025.45	2332.64
1025.61	2166.75
1025.76	2170.85
1025.92	2222.05
1026.08	2275.29
1026.23	2148.32
1026.39	2187.23
1026.55	2211.81
1026.70	2123.74
1026.86	2140.13
1027.02	2369.50
1027.17	2115.55
1027.33	2195.42
1027.48	2133.98
1027.64	2205.66
1027.80	2127.84
1027.95	2162.66
1028.11	2052.06
1028.27	2117.60
1028.42	2084.83
1028.58	1990.63
1028.73	2076.64
1028.89	2082.78
1029.05	2207.71
1029.20	2170.85
>>>>>End Processed Spectral Data<<<<<
