SpectraSuite Data File
++++++++++++++++++++++++++++++++++++
Date: Fri Jun 02 14:49:29 CEST 2017
User: INFO_000
Dark Spectrum Present: No
Reference Spectrum Present: No
Number of Sampled Component Spectra: 1
Spectrometers: USB4H00879
Integration Time (usec): 80000 (USB4H00879)
Spectra Averaged: 1 (USB4H00879)
Boxcar Smoothing: 0 (USB4H00879)
Correct for Electrical Dark: No (USB4H00879)
Strobe/Lamp Enabled: No (USB4H00879)
Correct for Detector Non-linearity: No (USB4H00879)
Correct for Stray Light: No (USB4H00879)
Number of Pixels in Processed Spectrum: 3648
>>>>>Begin Processed Spectral Data<<<<<
345.13	1243.12
345.34	1243.12
345.56	1243.12
345.78	1292.27
345.99	1300.46
346.21	1691.62
346.42	1665.00
346.64	1665.00
346.86	1783.78
347.07	1560.55
347.29	1683.43
347.50	1699.81
347.72	1683.43
347.94	1755.11
348.15	1513.45
348.37	1617.90
348.59	1642.47
348.80	1697.77
349.02	1763.30
349.23	1892.32
349.45	1837.03
349.67	1886.18
349.88	1851.36
350.10	1939.43
350.31	1882.08
350.53	1839.08
350.75	1994.72
350.96	1779.68
351.18	1863.65
351.39	1794.02
351.61	1794.02
351.82	1888.23
352.04	1972.19
352.26	1826.79
352.47	1896.42
352.69	1882.08
352.90	1748.97
353.12	1816.55
353.34	1853.41
353.55	1912.80
353.77	1849.32
353.98	1814.50
354.20	1751.01
354.41	1900.52
354.63	1908.71
354.85	2035.68
355.06	1976.29
355.28	1779.68
355.49	1951.71
355.71	1910.75
355.92	1970.15
356.14	1927.14
356.35	1888.23
356.57	1871.84
356.79	1920.99
357.00	1804.26
357.22	1974.24
357.43	1861.60
357.65	1941.47
357.86	1794.02
358.08	1843.17
358.29	1914.85
358.51	1953.76
358.72	2041.82
358.94	1918.95
359.16	1871.84
359.37	1920.99
359.59	1984.48
359.80	2004.96
360.02	1906.66
360.23	1863.65
360.45	2037.73
360.66	1933.28
360.88	1843.17
361.09	1970.15
361.31	1978.34
361.52	2002.91
361.74	2019.30
361.95	2127.84
362.17	1910.75
362.38	2017.25
362.60	2013.15
362.81	1949.67
363.03	1904.61
363.24	2037.73
363.46	2047.97
363.67	1974.24
363.89	2013.15
364.10	2015.20
364.32	1986.53
364.53	2058.21
364.75	1894.37
364.96	1968.10
365.18	2013.15
365.39	2078.69
365.61	1937.38
365.82	2074.59
366.04	2009.06
366.25	1978.34
366.47	2060.26
366.68	2029.54
366.90	1990.63
367.11	2041.82
367.33	2082.78
367.54	1927.14
367.76	1964.00
367.97	2115.55
368.19	1998.82
368.40	2023.39
368.62	1961.95
368.83	2033.63
369.05	2121.70
369.26	1945.57
369.48	1972.19
369.69	1925.09
369.91	2002.91
370.12	2000.87
370.33	2086.88
370.55	1912.80
370.76	2066.40
370.98	2105.31
371.19	1994.72
371.41	2084.83
371.62	2078.69
371.84	1980.39
372.05	2164.70
372.27	2074.59
372.48	2156.51
372.69	2082.78
372.91	2133.98
373.12	2215.90
373.34	1976.29
373.55	2123.74
373.77	2170.85
373.98	2052.06
374.20	2217.95
374.41	2256.86
374.62	2123.74
374.84	2146.27
375.05	2166.75
375.27	2129.89
375.48	2080.74
375.70	2209.76
375.91	2189.28
376.12	2332.64
376.34	2158.56
376.55	2181.09
376.77	2256.86
376.98	2144.22
377.19	2093.02
377.41	2103.26
377.62	2281.44
377.84	2224.09
378.05	2330.59
378.27	2203.61
378.48	2222.05
378.69	2383.84
378.91	2258.91
379.12	2191.33
379.34	2232.29
379.55	2265.05
379.76	2215.90
379.98	2295.77
380.19	2314.20
380.41	2156.51
380.62	2299.87
380.83	2213.85
381.05	2148.32
381.26	2383.84
381.47	2222.05
381.69	2295.77
381.90	2340.83
382.12	2240.48
382.33	2185.18
382.54	2289.63
382.76	2271.20
382.97	2318.30
383.19	2228.19
383.40	2346.97
383.61	2299.87
383.83	2326.49
384.04	2314.20
384.25	2316.25
384.47	2414.56
384.68	2344.92
384.89	2353.12
385.11	2351.07
385.32	2299.87
385.54	2365.40
385.75	2277.34
385.96	2359.26
386.18	2475.99
386.39	2365.40
386.60	2346.97
386.82	2344.92
387.03	2498.52
387.24	2406.36
387.46	2516.95
387.67	2424.80
387.88	2416.60
388.10	2379.74
388.31	2492.38
388.52	2523.10
388.74	2529.24
388.95	2480.09
389.16	2555.86
389.38	2437.08
389.59	2527.19
389.80	2643.93
390.02	2547.67
390.23	2619.35
390.44	2521.05
390.66	2590.68
390.87	2473.95
391.08	2596.82
391.30	2629.59
391.51	2586.58
391.72	2598.87
391.94	2566.10
392.15	2637.78
392.36	2611.16
392.58	2519.00
392.79	2510.81
393.00	2590.68
393.22	2648.02
393.43	2885.59
393.64	2752.47
393.85	2727.89
394.07	2701.27
394.28	2721.75
394.49	2736.09
394.71	2709.46
394.92	2830.29
395.13	2727.89
395.35	2633.69
395.56	2818.00
395.77	2820.05
395.98	2772.95
396.20	2805.72
396.41	2803.67
396.62	2899.92
396.84	2820.05
397.05	2885.59
397.26	2957.27
397.47	2885.59
397.69	2805.72
397.90	2924.50
398.11	2932.69
398.32	2947.03
398.54	2840.53
398.75	2895.83
398.96	2828.24
399.18	2985.94
399.39	2965.46
399.60	3043.28
399.81	2973.65
400.03	2877.40
400.24	3176.40
400.45	2944.98
400.66	3028.95
400.88	3014.61
401.09	3125.20
401.30	3057.62
401.51	3102.67
401.73	3108.82
401.94	3108.82
402.15	3135.44
402.36	3123.15
402.58	3211.22
402.79	3172.30
403.00	3151.82
403.21	3213.26
403.43	3211.22
403.64	3151.82
403.85	3133.39
404.06	3190.74
404.27	3180.50
404.49	3178.45
404.70	3155.92
404.91	3229.65
405.12	3182.54
405.34	3262.41
405.55	3411.92
405.76	3096.53
405.97	3160.02
406.19	3385.29
406.40	3082.19
406.61	3340.24
406.82	3319.76
407.03	3241.93
407.25	3284.94
407.46	3461.07
407.67	3381.20
407.88	3366.86
408.09	3325.90
408.31	3284.94
408.52	3409.87
408.73	3286.99
408.94	3364.81
409.15	3401.68
409.37	3438.54
409.58	3409.87
409.79	3393.48
410.00	3506.12
410.21	3348.43
410.43	3504.07
410.64	3346.38
410.85	3551.18
411.06	3479.50
411.27	3594.19
411.48	3633.10
411.70	3516.36
411.91	3473.36
412.12	3573.71
412.33	3510.22
412.54	3473.36
412.76	3676.10
412.97	3696.58
413.18	3588.04
413.39	3592.14
413.60	3686.34
413.81	3686.34
414.03	3592.14
414.24	3504.07
414.45	3708.87
414.66	3655.62
414.87	3626.95
415.08	3684.30
415.30	3723.21
415.51	3696.58
415.72	3774.41
415.93	3715.02
416.14	3815.37
416.35	3745.73
416.56	3786.69
416.78	3725.26
416.99	3762.12
417.20	3768.26
417.41	3796.93
417.62	3772.36
417.83	3905.48
418.04	3784.65
418.26	3889.09
418.47	3770.31
418.68	3928.00
418.89	3928.00
419.10	4110.27
419.31	3973.06
419.52	3987.40
419.73	3968.96
419.95	4030.40
420.16	3858.37
420.37	3923.91
420.58	4085.70
420.79	3928.00
421.00	4190.14
421.21	4108.23
421.42	3960.77
421.63	3975.11
421.85	4014.02
422.06	4120.51
422.27	3968.96
422.48	4179.90
422.69	4333.50
422.90	4204.48
423.11	4173.76
423.32	4204.48
423.53	4245.44
423.75	4276.16
423.96	4460.48
424.17	4257.73
424.38	4411.32
424.59	4337.60
424.80	4566.97
425.01	4399.04
425.22	4368.32
425.43	4300.73
425.64	4495.29
425.85	4589.50
426.06	4501.44
426.28	4552.63
426.49	4366.27
426.70	4562.87
426.91	4548.54
427.12	4624.31
427.33	4585.40
427.54	4618.17
427.75	4689.85
427.96	4839.35
428.17	4730.81
428.38	4878.26
428.59	4900.79
428.80	4806.58
429.01	4992.95
429.23	4798.39
429.44	5007.28
429.65	4960.18
429.86	4882.36
430.07	4843.45
430.28	4956.08
430.49	4927.41
430.70	5132.21
430.91	5093.30
431.12	4919.22
431.33	5011.38
431.54	5109.68
431.75	5072.82
431.96	5087.15
432.17	4964.28
432.38	5179.31
432.59	5277.62
432.80	5304.24
433.01	5164.98
433.22	5253.04
433.43	5212.08
433.64	5216.18
433.85	5119.92
434.06	5369.77
434.27	5261.23
434.49	5490.60
434.70	5423.02
434.91	5367.73
435.12	5343.15
435.33	5359.53
435.54	5412.78
435.75	5246.90
435.96	5531.56
436.17	5511.08
436.38	5640.11
436.59	5586.86
436.80	5498.80
437.01	5779.37
437.22	5705.64
437.43	5539.76
437.64	5392.30
437.85	5734.31
438.06	5869.48
438.27	5533.61
438.48	5711.78
438.69	5734.31
438.90	5701.54
439.11	5742.50
439.32	5830.57
439.53	5865.38
439.74	5767.08
439.95	5791.66
440.16	5803.94
440.37	5861.29
440.57	5793.70
440.78	5945.25
440.99	5783.46
441.20	5967.78
441.41	5898.15
441.62	6068.13
441.83	5853.09
442.04	6094.76
442.25	6025.12
442.46	5918.63
442.67	5988.26
442.88	6563.74
443.09	5791.66
443.30	6010.79
443.51	6135.71
443.72	6391.71
443.93	6121.38
444.14	6342.56
444.35	6123.43
444.56	6283.17
444.77	6229.92
444.98	6320.03
445.19	6430.62
445.40	6315.94
445.61	6315.94
445.81	6324.13
446.02	6311.84
446.23	6234.02
446.44	6270.88
446.65	6522.78
446.86	6379.42
447.07	6356.90
447.28	6573.98
447.49	6682.52
447.70	6395.81
447.91	6459.29
448.12	6680.47
448.33	6631.32
448.54	6707.10
448.74	6545.31
448.95	6731.67
449.16	6596.51
449.37	6924.18
449.58	6801.30
449.79	7122.84
450.00	6686.62
450.21	6987.67
450.42	6930.33
450.63	6877.08
450.84	6825.88
451.05	6956.95
451.25	6973.33
451.46	6858.65
451.67	7141.27
451.88	7171.99
452.09	7169.94
452.30	7057.30
452.51	7081.88
452.72	7231.38
452.93	7434.13
453.13	6975.38
453.34	7073.68
453.55	7083.92
453.76	7204.75
453.97	7616.40
454.18	7360.40
454.39	7546.76
454.60	7393.17
454.81	7399.31
455.01	7559.05
455.22	7190.42
455.43	7436.17
455.64	7647.12
455.85	7849.86
456.06	7843.72
456.27	7802.76
456.48	7712.65
456.68	7767.95
456.89	7724.94
457.10	7763.85
457.31	7901.06
457.52	7849.86
457.73	7948.17
457.94	8163.20
458.14	7837.58
458.35	8372.10
458.56	8071.04
458.77	8124.29
458.98	8036.23
459.19	8253.31
459.39	8507.26
459.60	8572.80
459.81	8155.01
460.02	8501.12
460.23	8273.79
460.44	8542.08
460.65	8542.08
460.85	8490.88
461.06	8548.22
461.27	8322.94
461.48	8712.06
461.69	8947.58
461.89	8611.71
462.10	8961.91
462.31	8773.50
462.52	8619.90
462.73	8779.64
462.94	9088.89
463.14	9226.10
463.35	9078.65
463.56	9224.05
463.77	9289.59
463.98	9138.04
464.18	9394.03
464.39	9242.48
464.60	9430.90
464.81	9428.85
465.02	9580.40
465.23	9652.08
465.43	9510.77
465.64	9793.39
465.85	9611.12
466.06	9789.29
466.27	9949.03
466.47	9873.26
466.68	9895.78
466.89	10030.95
467.10	10188.64
467.30	9809.77
467.51	10063.72
467.72	10325.86
467.93	9971.56
468.14	10276.71
468.34	10473.31
468.55	10368.87
468.76	10458.98
468.97	10377.06
469.17	10700.64
469.38	10766.17
469.59	10936.15
469.80	10686.30
470.01	10669.92
470.21	10645.34
470.42	11022.17
470.63	11046.74
470.84	10880.86
471.04	11177.81
471.25	11145.05
471.46	11216.72
471.67	11521.87
471.87	11200.34
472.08	11597.65
472.29	11646.80
472.50	11388.75
472.70	11568.98
472.91	11757.39
473.12	11614.03
473.33	11976.52
473.53	12205.89
473.74	12011.34
473.95	12173.13
474.16	12054.34
474.36	12189.51
474.57	12508.99
474.78	12820.28
474.99	12347.20
475.19	12390.21
475.40	12908.35
475.61	12793.66
475.81	12871.48
476.02	13041.46
476.23	12877.63
476.44	13076.28
476.64	13434.68
476.85	13475.63
477.06	13207.35
477.27	13551.41
477.47	13885.23
477.68	13672.24
477.89	13643.57
478.09	13920.04
478.30	13993.77
478.51	13829.93
478.71	14249.77
478.92	14202.66
479.13	14198.57
479.34	14122.79
479.54	14460.71
479.75	14407.46
479.96	14343.97
480.16	14503.71
480.37	14571.30
480.58	14909.21
480.78	15228.70
480.99	14919.45
481.20	15218.46
481.41	15111.96
481.61	15406.87
481.82	15478.55
482.03	15355.67
482.23	15392.53
482.44	15724.30
482.65	15908.62
482.85	16019.21
483.06	15925.00
483.27	16029.45
483.47	16076.55
483.68	16060.17
483.89	16369.41
484.09	16287.50
484.30	16445.19
484.51	16553.73
484.71	16615.17
484.92	16736.00
485.13	16905.98
485.33	16529.16
485.54	16830.21
485.75	17260.28
485.95	17483.51
486.16	17237.75
486.37	17350.39
486.57	17170.17
486.78	17247.99
486.98	17518.32
487.19	17665.78
487.40	17800.94
487.60	17544.95
487.81	18222.83
488.02	17766.13
488.22	17798.90
488.43	18226.92
488.64	18200.30
488.84	18427.62
489.05	18530.02
489.25	18454.25
489.46	18730.72
489.67	18579.17
489.87	18923.23
490.08	19025.63
490.29	18962.14
490.49	19351.26
490.70	19279.58
490.90	19597.01
491.11	19216.09
491.32	19465.94
491.52	19388.12
491.73	19511.00
491.94	19543.77
492.14	19361.50
492.35	19699.41
492.55	19861.20
492.76	19957.46
492.97	20184.78
493.17	20180.68
493.38	20070.09
493.58	20217.55
493.79	20223.69
494.00	20516.55
494.20	20475.59
494.41	20848.32
494.61	20917.95
494.82	20739.78
495.02	20913.86
495.23	20922.05
495.44	21026.50
495.64	21214.91
495.85	21251.77
496.05	21272.25
496.26	21110.46
496.47	21571.25
496.67	21501.62
496.88	21675.70
497.08	21550.78
497.29	21831.35
497.49	21679.80
497.70	21976.75
497.91	22070.96
498.11	22007.47
498.32	22474.41
498.52	22335.15
498.73	22714.02
498.93	22177.45
499.14	22554.28
499.34	22552.23
499.55	22671.01
499.76	22603.43
499.96	22818.47
500.17	22609.58
500.37	23049.89
500.58	23066.27
500.78	23234.21
500.99	23223.97
501.19	23432.86
501.40	23103.14
501.60	23301.79
501.81	23615.13
502.02	23359.13
502.22	23281.31
502.43	23735.96
502.63	24006.29
502.84	23967.38
503.04	23932.56
503.25	23887.51
503.45	23834.26
503.66	24110.74
503.86	24024.72
504.07	24501.90
504.27	23860.88
504.48	24653.45
504.68	24442.51
504.89	24749.70
505.09	24782.47
505.30	24780.42
505.50	24600.20
505.71	24757.89
505.91	24817.29
506.12	24608.39
506.32	24680.07
506.53	25118.34
506.73	24901.25
506.94	25224.83
507.14	25149.06
507.35	25443.96
507.55	25122.43
507.76	25718.39
507.96	25294.46
508.17	25392.76
508.37	25532.03
508.58	25568.89
508.78	25775.73
508.99	25763.45
509.19	25583.23
509.40	25671.29
509.60	25822.84
509.81	26093.17
510.01	25867.89
510.22	25910.90
510.42	25937.52
510.63	26267.25
510.83	26113.65
511.04	26185.33
511.24	26304.11
511.44	26285.68
511.65	26402.41
511.85	26322.54
512.06	26666.60
512.26	26404.46
512.47	26736.23
512.67	27061.86
512.88	26816.10
513.08	26453.61
513.29	26973.80
513.49	26924.65
513.69	27006.56
513.90	26934.88
514.10	27170.40
514.31	27280.99
514.51	27162.21
514.72	27041.38
514.92	27237.98
515.13	27223.65
515.33	27600.47
515.53	27536.99
515.74	27373.15
515.94	27485.79
516.15	27895.38
516.35	27448.93
516.56	27786.84
516.76	28081.75
516.96	27692.63
517.17	27944.53
517.37	28026.45
517.58	28022.36
517.78	28022.36
517.99	27979.35
518.19	28493.39
518.39	28180.05
518.60	28579.40
518.80	28579.40
519.01	28763.72
519.21	28477.01
519.41	28706.38
519.62	28503.63
519.82	28890.70
520.03	28724.81
520.23	29181.51
520.43	28593.74
520.64	29341.25
520.84	29189.70
521.05	28993.09
521.25	29408.83
521.45	29562.43
521.66	29177.41
521.86	29361.73
522.07	29752.89
522.27	29673.02
522.47	29466.17
522.68	29630.01
522.88	29769.27
523.08	29941.30
523.29	29863.48
523.49	29953.59
523.70	30418.48
523.90	30393.90
524.10	30180.92
524.31	30451.25
524.51	30131.76
524.71	30813.74
524.92	30492.21
525.12	30639.66
525.33	30590.51
525.53	30885.42
525.73	31262.24
525.94	30735.92
526.14	30950.95
526.34	31122.98
526.55	31219.24
526.75	31419.94
526.95	31270.43
527.16	31049.25
527.36	31598.11
527.56	31387.17
527.77	31741.47
527.97	31645.21
528.17	31856.15
528.38	32149.01
528.58	31835.67
528.78	32050.71
528.99	31929.88
529.19	32402.96
529.39	32007.70
529.60	32556.56
529.80	32355.86
530.00	32386.58
530.21	32802.32
530.41	32448.02
530.61	32730.64
530.82	32960.01
531.02	32783.88
531.22	32980.49
531.43	32957.96
531.63	32910.86
531.83	33627.65
532.04	33527.30
532.24	33216.01
532.44	33842.68
532.64	33979.90
532.85	34106.87
533.05	33822.20
533.25	33570.30
533.46	34242.04
533.66	34342.39
533.86	34006.52
534.07	34553.33
534.27	34184.69
534.47	34516.47
534.67	34500.08
534.88	34233.85
535.08	34395.64
535.28	34717.17
535.49	34577.90
535.69	35204.58
535.89	35010.03
536.09	35397.09
536.30	35362.28
536.50	35194.34
536.70	35376.61
536.91	35483.11
537.11	35497.44
537.31	35778.01
537.51	35372.52
537.72	36029.91
537.92	35870.17
538.12	36230.62
538.32	35821.02
538.53	36521.43
538.73	35999.19
538.93	36138.46
539.13	36062.68
539.34	36359.64
539.54	36347.35
539.74	36763.09
539.94	36699.60
540.15	36478.42
540.35	36494.80
540.55	37293.51
540.75	36509.14
540.96	37193.16
541.16	36980.17
541.36	36871.63
541.56	36998.60
541.77	37363.14
541.97	37191.11
542.17	37785.02
542.37	37289.42
542.58	37711.30
542.78	37406.15
542.98	37440.96
543.18	37836.22
543.38	38155.71
543.59	37926.33
543.79	37430.72
543.99	37561.79
544.19	38024.64
544.40	37942.72
544.60	38540.72
544.80	38712.75
545.00	38507.96
545.20	38454.71
545.41	38256.06
545.61	38241.72
545.81	39325.10
546.01	38714.80
546.21	38694.32
546.42	38759.86
546.62	38841.78
546.82	38931.89
547.02	39105.96
547.22	39222.70
547.43	39017.90
547.63	38772.14
547.83	39482.79
548.03	38774.19
548.23	39194.03
548.44	39380.39
548.64	39290.28
548.84	39517.60
549.04	39298.47
549.24	39548.32
549.45	40045.98
549.65	39462.31
549.85	39478.69
550.05	40011.17
550.25	40025.50
550.45	39974.30
550.66	39667.11
550.86	39843.23
551.06	40220.06
551.26	40197.53
551.46	40254.87
551.66	40277.40
551.87	40185.24
552.07	40543.64
552.27	40183.19
552.47	40639.89
552.67	40727.95
552.87	40877.46
553.07	40674.71
553.28	40879.50
553.48	40854.93
553.68	40779.15
553.88	41414.02
554.08	40687.00
554.28	41069.97
554.48	40758.67
554.69	41080.21
554.89	41387.40
555.09	41332.11
555.29	40838.54
555.49	41407.88
555.69	41008.53
555.89	41241.99
556.10	41602.44
556.30	41264.52
556.50	41674.12
556.70	41446.79
556.90	41592.20
557.10	41870.72
557.30	41993.60
557.50	41477.51
557.70	41690.50
557.91	42157.44
558.11	42026.37
558.31	42222.97
558.51	41883.01
558.71	41973.12
558.91	41885.06
559.11	41805.19
559.31	42194.30
559.51	42063.23
559.72	42046.85
559.92	42001.79
560.12	42245.50
560.32	42458.49
560.52	42206.59
560.72	42282.36
560.92	42513.78
561.12	42364.28
561.32	42814.83
561.52	42597.75
561.72	43165.04
561.93	42640.76
562.13	42777.97
562.33	42358.14
562.53	43244.91
562.73	42589.56
562.93	42702.20
563.13	43154.80
563.33	43033.97
563.53	43206.00
563.73	42743.16
563.93	43062.64
564.13	43498.86
564.33	42823.03
564.53	43371.88
564.74	43359.59
564.94	43435.37
565.14	43306.35
565.34	43519.34
565.54	43406.70
565.74	43683.17
565.94	43842.92
566.14	43238.76
566.34	43418.99
566.54	43885.92
566.74	43322.73
566.94	43627.88
567.14	44125.53
567.34	43505.00
567.54	43955.55
567.74	43726.18
567.94	43937.12
568.14	44154.21
568.34	44232.03
568.54	43912.55
568.74	44426.59
568.94	44334.43
569.14	44612.95
569.34	44291.42
569.54	44455.26
569.75	44100.96
569.95	44492.12
570.15	45024.59
570.35	44498.26
570.55	44488.03
570.75	44373.34
570.95	44795.22
571.15	44729.69
571.35	44653.91
571.55	44660.05
571.75	44524.89
571.95	44846.42
572.15	44514.65
572.35	44901.71
572.55	44815.70
572.75	45040.98
572.95	45053.26
573.15	44846.42
573.35	45225.29
573.55	44492.12
573.75	44840.28
573.95	45491.53
574.15	45270.35
574.35	45292.88
574.55	45360.46
574.75	45057.36
574.95	45241.68
575.15	45325.64
575.34	45157.71
575.54	45825.35
575.74	45569.35
575.94	45776.20
576.14	45524.30
576.34	45768.01
576.54	46261.57
576.74	46196.03
576.94	45790.53
577.14	46163.26
577.34	46372.16
577.54	46036.29
577.74	46204.22
577.94	46310.72
578.14	46038.34
578.34	46507.32
578.54	46118.21
578.74	45950.27
578.94	46376.25
579.14	46419.26
579.34	46417.21
579.54	46763.32
579.74	46941.49
579.94	46890.29
580.13	46789.94
580.33	46759.22
580.53	46779.70
580.73	46855.48
580.93	46652.73
581.13	47205.68
581.33	47422.76
581.53	47430.96
581.73	47093.04
581.93	47244.59
582.13	47359.28
582.33	47682.86
582.53	47158.58
582.73	47617.32
582.92	47306.03
583.12	47308.08
583.32	47357.23
583.52	47557.93
583.72	47715.62
583.92	47283.50
584.12	47856.93
584.32	48315.68
584.52	47322.41
584.72	48309.53
584.92	48002.34
585.11	48422.17
585.31	48031.01
585.51	48110.88
585.71	48080.16
585.91	48506.14
586.11	47910.18
586.31	47977.76
586.51	48084.26
586.71	48145.70
586.91	48211.23
587.10	48882.97
587.30	48477.47
587.50	48387.36
587.70	48639.26
587.90	48786.71
588.10	48780.57
588.30	48631.07
588.50	48727.32
588.69	49196.31
588.89	49016.08
589.09	48975.12
589.29	48731.42
589.49	49640.71
589.69	48919.83
589.89	49222.93
590.08	49200.40
590.28	48872.73
590.48	49026.32
590.68	48706.84
590.88	48919.83
591.08	49190.16
591.28	49112.34
591.47	49493.26
591.67	49722.63
591.87	49374.48
592.07	49087.76
592.27	49325.33
592.47	49196.31
592.67	49714.44
592.86	49276.18
593.06	49431.82
593.26	49673.48
593.46	49534.22
593.66	49634.57
593.86	49890.57
594.05	49683.72
594.25	50081.03
594.45	49810.70
594.65	50068.74
594.85	49454.35
595.05	50160.90
595.24	49788.17
595.44	50035.97
595.64	49757.45
595.84	50300.16
596.04	50187.52
596.23	50418.94
596.43	50500.86
596.63	50140.42
596.83	50189.57
597.03	50685.18
597.22	50875.64
597.42	50459.90
597.62	51039.48
597.82	50787.58
598.02	50593.02
598.21	50879.74
598.41	50490.62
598.61	50558.20
598.81	50920.70
599.01	51025.14
599.20	50631.93
599.40	50806.01
599.60	50955.51
599.80	50844.92
600.00	51123.44
600.19	51608.81
600.39	50556.16
600.59	51469.55
600.79	51475.69
600.98	51053.81
601.18	51049.72
601.38	51746.03
601.58	51834.09
601.78	51651.82
601.97	51991.78
602.17	52077.80
602.37	52020.45
602.57	51739.88
602.76	52032.74
602.96	51836.14
603.16	51907.82
603.36	51883.24
603.55	52010.21
603.75	52356.32
603.95	52212.96
604.15	51848.42
604.34	52262.11
604.54	52720.86
604.74	52083.94
604.94	52192.48
605.13	52335.84
605.33	52436.19
605.53	52172.00
605.73	52438.24
605.92	52673.76
606.12	52718.81
606.32	52700.38
606.52	52331.75
606.71	52448.48
606.91	53062.87
607.11	52401.38
607.30	52542.69
607.50	52681.95
607.70	52665.56
607.90	52692.19
608.09	52864.22
608.29	53116.12
608.49	53030.10
608.68	52901.08
608.88	53232.85
609.08	53073.11
609.28	53228.76
609.47	52876.51
609.67	53480.66
609.87	53052.63
610.06	53501.14
610.26	53042.39
610.46	53101.78
610.66	53095.64
610.85	53259.48
611.05	53417.17
611.25	53243.09
611.44	53003.48
611.64	53847.24
611.84	52712.67
612.03	53296.34
612.23	53525.71
612.43	53808.33
612.62	53327.06
612.82	53130.45
613.02	53884.11
613.21	53767.37
613.41	53396.69
613.61	53681.36
613.80	53613.77
614.00	53691.60
614.20	53826.76
614.39	53841.10
614.59	53994.70
614.79	53970.12
614.98	53707.98
615.18	53834.95
615.38	53521.62
615.57	53380.31
615.77	54072.52
615.97	53769.42
616.16	53355.73
616.36	53974.22
616.56	54035.66
616.75	54117.57
616.95	53601.49
617.15	53736.65
617.34	53863.63
617.54	53855.43
617.74	54207.68
617.93	53771.47
618.13	53826.76
618.32	53773.52
618.52	54404.29
618.72	53646.54
618.91	54000.84
619.11	53916.87
619.31	53851.34
619.50	53744.84
619.70	53664.97
619.90	54035.66
620.09	53734.60
620.29	54047.94
620.48	54076.61
620.68	54568.13
620.88	53445.84
621.07	53834.95
621.27	53863.63
621.46	53261.52
621.66	54326.47
621.86	54250.69
622.05	53378.26
622.25	54379.71
622.44	54162.63
622.64	53740.75
622.84	54142.15
623.03	53884.11
623.23	54019.27
623.42	53912.78
623.62	54060.23
623.82	54187.21
624.01	53996.74
624.21	54291.65
624.40	53748.94
624.60	53931.21
624.80	53937.35
624.99	53986.50
625.19	53978.31
625.38	54265.03
625.58	54021.32
625.77	54095.05
625.97	54166.73
626.17	53443.79
626.36	53945.54
626.56	54136.01
626.75	53583.05
626.95	54582.46
627.14	54215.88
627.34	55006.39
627.54	54246.60
627.73	54555.84
627.93	54475.97
628.12	53927.11
628.32	54500.54
628.51	54170.82
628.71	53961.93
628.90	54441.15
629.10	53757.13
629.30	54156.49
629.49	54621.37
629.69	54293.70
629.88	54508.74
630.08	54344.90
630.27	54525.12
630.47	54279.36
630.66	54398.15
630.86	54025.42
631.05	53961.93
631.25	54357.19
631.44	54721.72
631.64	54133.96
631.84	54609.09
632.03	54928.57
632.23	54971.58
632.42	54881.47
632.62	54572.22
632.81	54273.22
633.01	54934.71
633.20	54604.99
633.40	54805.69
633.59	54568.13
633.79	54031.56
633.98	54752.44
634.18	55057.59
634.37	54748.35
634.57	54768.83
634.76	55018.68
634.96	54850.75
635.15	55127.22
635.35	54408.39
635.54	54459.58
635.74	55268.53
635.93	54471.87
636.13	55108.79
636.32	54844.60
636.52	54836.41
636.71	54609.09
636.91	54893.75
637.10	55319.73
637.30	55061.69
637.49	55006.39
637.69	54930.62
637.88	55049.40
638.08	55041.21
638.27	55045.30
638.46	54770.88
638.66	54670.53
638.85	54965.43
639.05	54916.28
639.24	54858.94
639.44	54582.46
639.63	55205.05
639.83	55153.85
640.02	55282.87
640.22	55401.65
640.41	55524.53
640.61	54738.11
640.80	55207.09
640.99	54875.32
641.19	55639.22
641.38	55053.50
641.58	55358.64
641.77	54985.91
641.97	55094.46
642.16	55284.92
642.36	55833.77
642.55	55659.69
642.74	54920.38
642.94	55880.88
643.13	55637.17
643.33	55590.06
643.52	55575.73
643.72	56153.26
643.91	55420.08
644.10	55700.65
644.30	55714.99
644.49	55342.26
644.69	55702.70
644.88	55751.85
645.08	55407.79
645.27	55469.23
645.46	55370.93
645.66	55514.29
645.85	55485.62
646.05	55641.26
646.24	55731.37
646.43	55825.58
646.63	56263.85
646.82	56190.12
647.02	55655.60
647.21	56231.08
647.40	55696.56
647.60	56030.38
647.79	55993.51
647.99	56378.53
648.18	55925.93
648.37	56194.21
648.57	56366.24
648.76	55530.67
648.96	55590.06
649.15	55919.79
649.34	56112.30
649.54	56417.44
649.73	55516.34
649.92	56128.68
650.12	56298.66
650.31	56579.23
650.51	56505.51
650.70	56464.55
650.89	55956.65
651.09	57017.50
651.28	56308.90
651.47	56323.24
651.67	55997.61
651.86	56972.44
652.06	55850.16
652.25	56669.34
652.44	56349.86
652.64	55852.20
652.83	56224.93
653.02	56196.26
653.22	55995.56
653.41	55962.79
653.60	55891.12
653.80	56259.75
653.99	56165.54
654.18	56282.28
654.38	56294.56
654.57	56341.67
654.76	56239.27
654.96	56208.55
655.15	56003.75
655.34	56145.06
655.54	56026.28
655.73	56243.37
655.92	56003.75
656.12	56444.07
656.31	56415.40
656.50	56456.35
656.70	56179.88
656.89	55956.65
657.08	56480.93
657.28	56276.13
657.47	56700.06
657.66	56179.88
657.86	56286.37
658.05	56317.09
658.24	56509.60
658.43	56288.42
658.63	56562.85
658.82	56616.10
659.01	56710.30
659.21	56046.76
659.40	56319.14
659.59	56181.93
659.79	56786.08
659.98	56710.30
660.17	56827.04
660.36	56429.73
660.56	56779.93
660.75	56296.61
660.94	56341.67
661.14	56618.14
661.33	56374.44
661.52	55780.52
661.71	56392.87
661.91	56249.51
662.10	55891.12
662.29	56403.11
662.49	56605.86
662.68	56444.07
662.87	56286.37
663.06	56706.21
663.26	56296.61
663.45	56878.24
663.64	56249.51
663.83	56562.85
664.03	56769.69
664.22	57001.11
664.41	56196.26
664.60	56222.89
664.80	56679.58
664.99	56513.70
665.18	56515.75
665.37	56442.02
665.57	56564.90
665.76	56476.83
665.95	56616.10
666.14	56399.01
666.34	56136.87
666.53	56589.47
666.72	55950.51
666.91	56288.42
667.11	56325.28
667.30	56319.14
667.49	55874.73
667.68	56263.85
667.87	55831.72
668.07	56210.60
668.26	56706.21
668.45	56661.15
668.64	56218.79
668.84	56677.54
669.03	56618.14
669.22	56345.76
669.41	56167.59
669.60	56325.28
669.80	56063.14
669.99	56341.67
670.18	56157.35
670.37	56157.35
670.57	56691.87
670.76	56542.37
670.95	56407.20
671.14	56251.56
671.33	56018.09
671.53	56546.47
671.72	56413.35
671.91	56222.89
672.10	56147.11
672.29	55960.75
672.48	55991.47
672.68	56427.68
672.87	56122.54
673.06	56194.21
673.25	56140.97
673.44	55577.78
673.64	56456.35
673.83	55766.19
674.02	56173.73
674.21	55633.07
674.40	55768.24
674.59	55856.30
674.79	55880.88
674.98	55794.86
675.17	55827.63
675.36	55162.04
675.55	55962.79
675.74	55329.97
675.94	55542.96
676.13	55585.97
676.32	55821.48
676.51	55706.80
676.70	55420.08
676.89	55749.81
677.08	55698.61
677.28	55424.18
677.47	56136.87
677.66	56011.95
677.85	55739.57
678.04	56059.05
678.23	55950.51
678.42	55676.08
678.62	55727.28
678.81	56120.49
679.00	55563.44
679.19	56302.76
679.38	55305.40
679.57	55968.94
679.76	55424.18
679.96	55950.51
680.15	55485.62
680.34	55575.73
680.53	55618.74
680.72	55669.93
680.91	55596.21
681.10	54836.41
681.29	55299.25
681.48	55280.82
681.68	55102.65
681.87	55354.55
682.06	55293.11
682.25	55295.16
682.44	55307.44
682.63	55284.92
682.82	55067.83
683.01	55022.78
683.20	54854.84
683.39	55094.46
683.59	54840.51
683.78	54985.91
683.97	54879.42
684.16	55323.83
684.35	54865.08
684.54	54629.57
684.73	54719.68
684.92	54754.49
685.11	54983.86
685.30	54576.32
685.49	55110.84
685.69	54789.31
685.88	55196.85
686.07	54629.57
686.26	54719.68
686.45	54932.67
686.64	55172.28
686.83	54838.46
687.02	54779.07
687.21	54928.57
687.40	55186.61
687.59	54822.08
687.78	54860.99
687.97	54660.29
688.16	54959.29
688.35	54400.19
688.54	54314.18
688.74	54695.10
688.93	54518.98
689.12	54426.82
689.31	54394.05
689.50	54637.76
689.69	54351.04
689.88	54006.98
690.07	54795.45
690.26	54127.81
690.45	54619.33
690.64	54414.53
690.83	54547.65
691.02	54424.77
691.21	53888.20
691.40	54588.61
691.59	54668.48
691.78	53900.49
691.97	54561.98
692.16	54621.37
692.35	54695.10
692.54	54166.73
692.73	54197.44
692.92	53789.90
693.11	53847.24
693.30	54170.82
693.49	54551.74
693.68	54222.02
693.87	53947.59
694.06	53779.66
694.25	53664.97
694.44	53691.60
694.63	53578.96
694.82	54058.18
695.01	53681.36
695.20	53650.64
695.39	53943.50
695.58	53910.73
695.77	53589.20
695.96	53236.95
696.15	53322.96
696.34	53679.31
696.53	53646.54
696.72	54006.98
696.91	53435.60
697.10	53730.51
697.29	53587.15
697.48	53621.97
697.67	53474.51
697.86	53343.44
698.05	53466.32
698.24	53724.36
698.43	52860.12
698.62	53476.56
698.81	52729.05
699.00	53714.12
699.19	53056.73
699.38	53331.15
699.57	52937.94
699.76	53499.09
699.95	53257.43
700.14	53167.32
700.32	53449.94
700.51	53083.35
700.70	53568.72
700.89	53583.05
701.08	53333.20
701.27	52823.26
701.46	53286.10
701.65	52671.71
701.84	53109.97
702.03	53103.83
702.22	52835.55
702.41	53220.56
702.60	53212.37
702.79	53081.30
702.98	52939.99
703.17	52999.38
703.35	52442.34
703.54	52657.37
703.73	53036.25
703.92	52475.10
704.11	52540.64
704.30	52638.94
704.49	52399.33
704.68	52860.12
704.87	52651.23
705.06	52303.07
705.25	52550.88
705.43	52450.53
705.62	52755.68
705.81	52645.08
706.00	52636.89
706.19	52188.39
706.38	52274.40
706.57	52210.92
706.76	52245.73
706.95	52092.13
707.14	52159.72
707.32	52876.51
707.51	52303.07
707.70	51893.48
707.89	52280.55
708.08	52360.42
708.27	52419.81
708.46	52876.51
708.65	52102.37
708.84	52653.28
709.02	51954.92
709.21	52067.56
709.40	51877.10
709.59	52131.04
709.78	52190.44
709.97	52292.83
710.16	52012.26
710.34	52380.90
710.53	52428.00
710.72	52112.61
710.91	52233.44
711.10	52034.79
711.29	52090.09
711.48	51995.88
711.66	51504.37
711.85	52028.65
712.04	52106.47
712.23	51692.78
712.42	51873.00
712.61	51963.11
712.80	51524.85
712.98	52104.42
713.17	51569.90
713.36	51336.43
713.55	51739.88
713.74	51459.31
713.93	51508.46
714.11	51619.05
714.30	51580.14
714.49	51299.57
714.68	51574.00
714.87	51606.76
715.06	51657.96
715.24	51588.33
715.43	51303.67
715.62	50900.22
715.81	51315.95
716.00	51346.67
716.18	51041.53
716.37	50771.19
716.56	51039.48
716.75	51270.90
716.94	50998.52
717.12	50951.41
717.31	51404.02
717.50	51188.98
717.69	50947.32
717.88	50695.42
718.06	51102.96
718.25	51254.51
718.44	50898.17
718.63	51006.71
718.82	50705.66
719.00	50887.93
719.19	50935.03
719.38	50765.05
719.57	50226.43
719.76	50418.94
719.94	50201.86
720.13	50218.24
720.32	50793.72
720.51	50070.79
720.69	50246.91
720.88	50173.19
721.07	50107.65
721.26	49325.33
721.44	49906.95
721.63	50003.20
721.82	49349.90
722.01	49650.95
722.20	49671.43
722.38	49999.11
722.57	49403.15
722.76	49806.60
722.95	49599.76
723.13	49603.85
723.32	49175.83
723.51	49016.08
723.70	49675.53
723.88	49599.76
724.07	48837.91
724.26	49333.52
724.44	49169.68
724.63	49386.77
724.82	49202.45
725.01	49235.22
725.19	48819.48
725.38	49165.59
725.57	48882.97
725.76	48846.10
725.94	49124.63
726.13	48788.76
726.32	48954.64
726.51	48862.49
726.69	49104.15
726.88	49321.23
727.07	48614.68
727.25	48448.80
727.44	48944.41
727.63	48747.80
727.82	48559.39
728.00	48667.93
728.19	48741.66
728.38	48948.50
728.56	48178.46
728.75	48768.28
728.94	48516.38
729.12	48643.35
729.31	48889.11
729.50	48643.35
729.69	48583.96
729.87	48755.99
730.06	48690.46
730.25	48291.10
730.43	49030.42
730.62	48393.50
730.81	48760.09
730.99	48657.69
731.18	48565.53
731.37	48721.18
731.55	48690.46
731.74	48979.22
731.93	48524.57
732.11	48575.77
732.30	48479.52
732.49	48330.01
732.67	48348.45
732.86	48422.17
733.05	48540.96
733.23	48418.08
733.42	48553.24
733.61	48020.77
733.79	48418.08
733.98	48551.20
734.17	48291.10
734.35	48231.71
734.54	48614.68
734.73	48545.05
734.91	48571.67
735.10	48104.74
735.29	48684.31
735.47	47809.83
735.66	48440.60
735.84	48176.42
736.03	47940.90
736.22	48784.66
736.40	47895.85
736.59	48248.10
736.78	48164.13
736.96	48665.88
737.15	48082.21
737.33	47715.62
737.52	47901.99
737.71	47684.90
737.89	47830.31
738.08	47781.16
738.27	47658.28
738.45	48016.68
738.64	48117.03
738.82	47809.83
739.01	48133.41
739.20	47904.04
739.38	47615.27
739.57	47568.17
739.75	47807.78
739.94	47346.99
740.13	47609.13
740.31	47897.89
740.50	47568.17
740.68	47820.07
740.87	47529.26
741.06	47680.81
741.24	47154.48
741.43	47674.66
741.61	47768.87
741.80	47357.23
741.99	47150.38
742.17	47064.37
742.36	47629.61
742.54	47293.74
742.73	47367.47
742.91	47525.16
743.10	47512.88
743.29	47289.65
743.47	47375.66
743.66	47166.77
743.84	47256.88
744.03	47142.19
744.21	46744.89
744.40	47443.24
744.59	46978.36
744.77	47105.33
744.96	47275.31
745.14	46660.92
745.33	47183.15
745.51	47045.94
745.70	46990.64
745.88	46912.82
746.07	46849.33
746.26	46648.63
746.44	46497.08
746.63	46839.09
746.81	46425.40
747.00	46910.77
747.18	46738.74
747.37	46519.61
747.55	47043.89
747.74	47199.54
747.92	46202.18
748.11	46456.12
748.29	45925.70
748.48	46437.69
748.66	46118.21
748.85	46415.16
749.03	46187.84
749.22	46400.83
749.41	46120.26
749.59	46185.79
749.78	46058.82
749.96	45847.88
750.15	45964.61
750.33	46243.13
750.52	46572.86
750.70	45647.18
750.89	45350.22
751.07	45544.78
751.26	45821.25
751.44	45491.53
751.63	45886.79
751.81	45331.79
752.00	45487.43
752.18	45755.72
752.37	45055.31
752.55	45038.93
752.74	45610.31
752.92	44954.96
753.10	44838.23
753.29	45536.59
753.47	45122.90
753.66	44643.67
753.84	45141.33
754.03	45106.51
754.21	44793.17
754.40	44969.30
754.58	44895.57
754.77	45040.98
754.95	44471.64
755.14	44690.77
755.32	44905.81
755.51	44778.84
755.69	44576.09
755.88	44979.54
756.06	45012.31
756.24	44754.26
756.43	44830.04
756.61	44563.80
756.80	44092.77
756.98	44299.61
757.17	44254.56
757.35	44379.48
757.54	44203.36
757.72	44223.84
757.90	44301.66
758.09	44215.65
758.27	44240.22
758.46	43711.84
758.64	44107.10
758.83	44203.36
759.01	44127.58
759.19	44064.10
759.38	43832.68
759.56	44201.31
759.75	43928.93
759.93	43842.92
760.12	43703.65
760.30	43773.28
760.48	43906.40
760.67	43681.13
760.85	43826.53
761.04	43953.51
761.22	43466.09
761.40	43617.64
761.59	43337.07
761.77	43382.12
761.96	43349.35
762.14	43572.58
762.32	43072.88
762.51	43036.02
762.69	43390.31
762.88	43146.61
763.06	43083.12
763.24	43122.03
763.43	43218.28
763.61	43103.60
763.80	43070.83
763.98	42638.71
764.16	42405.24
764.35	42700.15
764.53	42511.74
764.72	42782.07
764.90	42677.62
765.08	42843.51
765.27	42728.82
765.45	42601.85
765.63	42145.15
765.82	42481.02
766.00	42091.90
766.18	42235.26
766.37	42466.68
766.55	42405.24
766.74	41989.50
766.92	42194.30
767.10	42227.07
767.29	42032.51
767.47	41645.44
767.65	42048.89
767.84	41643.40
768.02	41930.11
768.20	41622.92
768.39	41573.77
768.57	41387.40
768.75	41842.05
768.94	41469.32
769.12	41637.25
769.30	41532.81
769.49	41407.88
769.67	41375.11
769.85	40732.05
770.04	41348.49
770.22	41366.92
770.40	40736.15
770.59	40871.31
770.77	41121.16
770.95	40834.45
771.14	40961.42
771.32	40689.04
771.50	40334.74
771.69	40660.37
771.87	41006.48
772.05	40691.09
772.24	40474.01
772.42	40560.02
772.60	40535.45
772.78	40326.55
772.97	40304.02
773.15	40654.23
773.33	40246.68
773.52	39927.20
773.70	40746.39
773.88	40355.22
774.07	40297.88
774.25	40187.29
774.43	40170.91
774.61	40232.35
774.80	40291.74
774.98	40203.67
775.16	40899.98
775.34	40639.89
775.53	40381.85
775.71	40424.86
775.89	40117.66
776.08	40072.60
776.26	40189.34
776.44	40334.74
776.62	40510.87
776.81	40426.90
776.99	40494.49
777.17	40322.46
777.35	40373.66
777.54	40945.04
777.72	40062.36
777.90	40699.28
778.08	41061.77
778.27	40607.12
778.45	40629.65
778.63	40785.30
778.81	40320.41
779.00	40826.26
779.18	40576.40
779.36	40975.76
779.54	40506.77
779.73	40373.66
779.91	40750.48
780.09	40740.24
780.27	41039.25
780.46	40670.61
780.64	41090.44
780.82	40787.35
781.00	40875.41
781.19	41102.73
781.37	40883.60
781.55	41041.29
781.73	41463.18
781.91	40945.04
782.10	40906.13
782.28	40787.35
782.46	41006.48
782.64	41411.98
782.82	40979.85
783.01	41061.77
783.19	41268.62
783.37	41131.40
783.55	40648.08
783.74	40979.85
783.92	41022.86
784.10	41817.47
784.28	41274.76
784.46	40983.95
784.64	40820.11
784.83	41309.58
785.01	41287.05
785.19	40502.68
785.37	41301.39
785.55	40756.63
785.74	40682.90
785.92	40465.81
786.10	40856.98
786.28	40902.03
786.46	40580.50
786.64	40406.42
786.83	40523.16
787.01	40787.35
787.19	40689.04
787.37	40623.51
787.55	40646.04
787.74	40428.95
787.92	40775.06
788.10	40435.10
788.28	40045.98
788.46	40496.53
788.64	39953.82
788.82	40662.42
789.01	40453.53
789.19	40502.68
789.37	40142.24
789.55	39990.69
789.73	39648.68
789.91	39892.38
790.09	39890.34
790.28	39949.73
790.46	39906.72
790.64	39945.63
790.82	39554.47
791.00	39869.86
791.18	39243.18
791.36	39515.56
791.55	39744.93
791.73	39073.20
791.91	38796.72
792.09	39325.10
792.27	38929.84
792.45	39286.18
792.63	39187.88
792.81	38722.99
793.00	39038.38
793.18	38596.02
793.36	38835.63
793.54	38649.27
793.72	38247.86
793.90	38649.27
794.08	38794.67
794.26	38196.67
794.44	38221.24
794.62	37799.36
794.81	37975.48
794.99	37991.87
795.17	37701.06
795.35	38016.44
795.53	37969.34
795.71	37707.20
795.89	37785.02
796.07	37486.02
796.25	37086.67
796.43	37230.02
796.61	37117.39
796.80	37492.16
796.98	37438.92
797.16	37221.83
797.34	36994.51
797.52	36744.66
797.70	37107.15
797.88	36767.18
798.06	36750.80
798.24	36982.22
798.42	36601.30
798.60	36470.23
798.78	36818.38
798.96	36333.01
799.14	35919.32
799.32	36150.74
799.51	35743.20
799.69	36578.77
799.87	36062.68
800.05	35796.45
800.23	36034.01
800.41	35728.86
800.59	35556.83
800.77	35765.73
800.95	35067.37
801.13	35849.69
801.31	35487.20
801.49	35200.49
801.67	34932.20
801.85	35243.49
802.03	35210.73
802.21	34672.11
802.39	34932.20
802.57	34936.30
802.75	34895.34
802.93	34618.86
803.11	34754.03
803.29	34577.90
803.47	34287.09
803.65	34557.42
803.83	34256.37
804.01	34383.35
804.19	33996.28
804.37	33840.64
804.55	34088.44
804.73	34196.98
804.91	34149.88
805.09	33955.32
805.27	34063.86
805.45	33928.70
805.63	33891.83
805.81	33652.22
805.99	33586.69
806.17	33750.52
806.35	33672.70
806.53	33271.30
806.71	33574.40
806.89	33224.20
807.07	33250.82
807.25	33025.54
807.43	33099.27
807.61	33289.73
807.79	33078.79
807.97	32830.99
808.15	32921.10
808.33	32591.37
808.51	32665.10
808.69	32626.19
808.87	32327.19
809.05	32357.91
809.23	32362.00
809.41	32128.53
809.59	32046.62
809.77	32419.35
809.95	32067.09
810.13	32286.23
810.31	32237.08
810.49	31798.81
810.67	31958.55
810.84	32019.99
811.02	31854.11
811.20	31784.48
811.38	31729.18
811.56	31573.53
811.74	31641.12
811.92	31475.23
812.10	31655.45
812.28	32036.38
812.46	31608.35
812.64	31626.78
812.82	31127.08
813.00	31100.45
813.18	30955.05
813.36	31000.10
813.53	31024.68
813.71	30875.18
813.89	30670.38
814.07	31368.74
814.25	31039.01
814.43	30791.21
814.61	31069.73
814.79	30600.75
814.97	30297.65
815.15	30692.91
815.33	30135.86
815.50	30209.59
815.68	30365.23
815.86	30598.70
816.04	30172.72
816.22	30625.32
816.40	30307.89
816.58	30301.75
816.76	29673.02
816.94	30062.13
817.11	29988.41
817.29	29789.75
817.47	30078.52
817.65	29859.38
817.83	29494.85
818.01	29845.05
818.19	29748.79
818.37	29957.69
818.54	29605.44
818.72	29701.69
818.90	29441.60
819.08	29371.97
819.26	29564.48
819.44	29533.76
819.62	29277.76
819.80	29474.37
819.97	29468.22
820.15	29185.60
820.33	28960.33
820.51	29025.86
820.69	28974.66
820.87	29453.89
821.05	29410.88
821.22	28864.07
821.40	28739.15
821.58	28913.22
821.76	28952.13
821.94	28528.20
822.12	28831.30
822.29	29167.17
822.47	28655.18
822.65	28841.54
822.83	28661.32
823.01	28567.12
823.19	28718.67
823.36	28458.57
823.54	28243.54
823.72	28464.72
823.90	28270.16
824.08	28057.17
824.25	28223.06
824.43	28061.27
824.61	28296.78
824.79	28577.36
824.97	27932.25
825.15	28180.05
825.32	28444.24
825.50	27999.83
825.68	27969.11
825.86	28380.75
826.04	28085.84
826.21	27938.39
826.39	27885.14
826.57	27778.65
826.75	27686.49
826.93	27756.12
827.10	27487.84
827.28	27614.81
827.46	27694.68
827.64	27387.49
827.81	27590.24
827.99	27326.05
828.17	27070.05
828.35	27260.51
828.53	27438.69
828.70	27070.05
828.88	27260.51
829.06	27186.79
829.24	27317.86
829.41	27190.88
829.59	27489.88
829.77	26846.82
829.95	27125.35
830.12	27266.66
830.30	27233.89
830.48	26928.74
830.66	27264.61
830.84	27133.54
831.01	26859.11
831.19	26699.37
831.37	27004.52
831.55	26588.78
831.72	26422.89
831.90	26998.37
832.08	27061.86
832.25	26916.45
832.43	26697.32
832.61	26267.25
832.79	26556.01
832.96	26545.77
833.14	26529.39
833.32	26533.48
833.50	26631.79
833.67	26547.82
833.85	26295.92
834.03	26060.40
834.20	26353.26
834.38	26574.44
834.56	26277.49
834.74	26261.10
834.91	26359.41
835.09	26121.84
835.27	25915.00
835.44	26293.87
835.62	25710.20
835.80	25896.56
835.98	25996.92
836.15	26170.99
836.33	25933.43
836.51	26404.46
836.68	26132.08
836.86	25974.39
837.04	25835.13
837.21	25734.78
837.39	25790.07
837.57	26111.60
837.75	25955.96
837.92	25849.46
838.10	25904.76
838.28	25450.11
838.45	25656.95
838.63	25292.41
838.81	25386.62
838.98	25394.81
839.16	25407.10
839.34	25126.53
839.51	25276.03
839.69	24989.31
839.87	25218.69
840.04	25144.96
840.22	25542.27
840.40	25208.45
840.57	25087.62
840.75	25386.62
840.93	24491.66
841.10	25351.81
841.28	25288.32
841.46	25101.95
841.63	25257.60
841.81	24827.53
841.98	25032.32
842.16	24948.36
842.34	24936.07
842.51	24606.34
842.69	24862.34
842.87	24542.86
843.04	24794.76
843.22	24702.60
843.40	24725.13
843.57	24745.61
843.75	24688.26
843.92	24759.94
844.10	24360.59
844.28	24727.17
844.45	24882.82
844.63	24901.25
844.81	24505.99
844.98	24589.96
845.16	24612.49
845.33	24487.56
845.51	24549.00
845.69	24393.36
845.86	24116.88
846.04	24280.72
846.21	24270.48
846.39	24356.49
846.57	24180.37
846.74	24006.29
846.92	24366.73
847.09	24133.26
847.27	24127.12
847.45	24133.26
847.62	24266.38
847.80	24118.93
847.97	24000.15
848.15	23864.98
848.32	23625.37
848.50	23983.76
848.68	23750.29
848.85	23660.18
849.03	23527.06
849.20	23760.53
849.38	23324.32
849.56	23887.51
849.73	23586.46
849.91	23572.12
850.08	23541.40
850.26	23490.20
850.43	23578.26
850.61	23406.23
850.78	23234.21
850.96	23498.39
851.14	23191.20
851.31	23660.18
851.49	23195.29
851.66	23441.05
851.84	23455.39
852.01	23439.00
852.19	23092.90
852.36	22935.20
852.54	23160.48
852.71	22929.06
852.89	23066.27
853.07	23348.89
853.24	23365.28
853.42	23228.06
853.59	23275.16
853.77	23162.53
853.94	23056.03
854.12	23178.91
854.29	22744.74
854.47	22804.13
854.64	22621.86
854.82	22914.72
854.99	22802.08
855.17	22959.78
855.34	22767.27
855.52	22785.70
855.69	23015.07
855.87	22605.48
856.04	22607.53
856.22	22599.34
856.39	22496.94
856.57	22443.69
856.74	22298.28
856.92	22572.71
857.09	22363.82
857.27	22480.55
857.44	22722.21
857.62	22451.88
857.79	22406.83
857.97	22404.78
858.14	22519.46
858.32	22216.36
858.49	22386.35
858.67	22382.25
858.84	22427.31
859.02	22173.36
859.19	22105.77
859.37	21948.08
859.54	21960.37
859.72	22044.34
859.89	22015.66
860.06	22011.57
860.24	21976.75
860.41	22111.92
860.59	22066.86
860.76	21943.99
860.94	21694.13
861.11	21728.95
861.29	22095.53
861.46	21677.75
861.64	21653.17
861.81	21835.44
861.98	21733.04
862.16	21233.34
862.33	21159.61
862.51	21219.00
862.68	21565.11
862.86	21350.07
863.03	21593.78
863.21	21499.58
863.38	21438.14
863.55	21034.69
863.73	21259.96
863.90	21431.99
864.08	21008.06
864.25	21274.30
864.43	21239.48
864.60	21141.18
864.77	21051.07
864.95	21438.14
865.12	20987.58
865.30	21452.47
865.47	21024.45
865.64	20934.34
865.82	21147.33
865.99	21032.64
866.17	20920.00
866.34	20862.66
866.51	20569.80
866.69	20797.12
866.86	21053.12
867.04	20637.38
867.21	20682.44
867.38	20264.65
867.56	20608.71
867.73	20522.69
867.91	20301.51
868.08	20405.96
868.25	20389.58
868.43	20352.71
868.60	20215.50
868.78	20291.27
868.95	20453.06
869.12	20252.36
869.30	20131.53
869.47	20186.83
869.64	19918.54
869.82	20063.95
869.99	19982.03
870.16	20072.14
870.34	20143.82
870.51	19859.15
870.69	20000.46
870.86	19877.58
871.03	19785.43
871.21	19795.67
871.38	19912.40
871.55	19693.27
871.73	19750.61
871.90	19642.07
872.07	19597.01
872.25	19560.15
872.42	19527.38
872.59	19519.19
872.77	19508.95
872.94	19543.77
873.11	19549.91
873.29	19668.69
873.46	19269.34
873.63	19381.98
873.81	19306.20
873.98	19334.87
874.15	18970.33
874.33	19046.11
874.50	18980.57
874.67	19392.22
874.85	18743.01
875.02	18900.70
875.19	18687.71
875.37	18757.35
875.54	18777.83
875.71	18984.67
875.88	18706.15
876.06	18837.22
876.23	18804.45
876.40	18810.59
876.58	18769.63
876.75	18640.61
876.92	18372.33
877.10	18507.49
877.27	18484.97
877.44	18685.67
877.61	18319.08
877.79	18353.90
877.96	18392.81
878.13	18437.86
878.31	18175.72
878.48	18265.83
878.65	18110.19
878.82	17772.27
879.00	18151.15
879.17	18132.72
879.34	18157.29
879.51	18018.03
879.69	17792.75
879.86	17698.55
880.03	17872.62
880.21	17626.87
880.38	17790.70
880.55	17985.26
880.72	17608.44
880.90	17948.40
881.07	17540.85
881.24	17802.99
881.41	17665.78
881.59	17481.46
881.76	17676.02
881.93	17495.80
882.10	17383.16
882.28	17358.58
882.45	17569.52
882.62	17393.40
882.79	17538.80
882.96	16897.79
883.14	17223.42
883.31	17510.13
883.48	17037.05
883.65	17110.78
883.83	17084.16
884.00	17145.59
884.17	17270.52
884.34	17217.27
884.51	17176.31
884.69	16938.75
884.86	16742.14
885.03	16955.13
885.20	16992.00
885.38	17082.11
885.55	17049.34
885.72	16813.82
885.89	16854.78
886.06	16729.86
886.24	16858.88
886.41	16854.78
886.58	16729.86
886.75	16969.47
886.92	16781.06
887.10	16946.94
887.27	16590.59
887.44	16842.50
887.61	16965.37
887.78	16891.65
887.95	16645.89
888.13	16531.20
888.30	16508.68
888.47	16631.55
888.64	16553.73
888.81	16508.68
888.99	16570.12
889.16	16346.89
889.33	16277.26
889.50	16248.58
889.67	16570.12
889.84	16320.26
890.01	16373.51
890.19	16400.13
890.36	16064.27
890.53	16246.54
890.70	15949.58
890.87	16035.60
891.04	16158.47
891.22	16107.27
891.39	16129.80
891.56	15955.72
891.73	15845.13
891.90	15869.71
892.07	15859.47
892.24	15554.32
892.42	15767.31
892.59	15843.09
892.76	15732.50
892.93	15916.81
893.10	15781.65
893.27	15640.34
893.44	15626.00
893.61	15474.45
893.79	15769.36
893.96	15419.16
894.13	15533.84
894.30	15486.74
894.47	15746.83
894.64	15566.61
894.81	15626.00
894.98	15644.43
895.15	15822.61
895.33	15511.32
895.50	15697.68
895.67	15683.34
895.84	15666.96
896.01	15365.91
896.18	15492.88
896.35	15589.14
896.52	15490.84
896.69	15218.46
896.86	15345.43
897.04	15429.40
897.21	15335.19
897.38	15208.22
897.55	15148.82
897.72	15417.11
897.89	15568.66
898.06	15478.55
898.23	15425.30
898.40	15308.57
898.57	15576.85
898.74	15324.95
898.91	15193.88
899.08	15480.60
899.26	15456.02
899.43	15245.08
899.60	15187.74
899.77	15415.06
899.94	15245.08
900.11	15200.02
900.28	15142.68
900.45	15163.16
900.62	15060.76
900.79	15505.17
900.96	15226.65
901.13	15552.27
901.30	15015.71
901.47	15060.76
901.64	15290.13
901.81	15120.15
901.98	15107.87
902.15	15253.27
902.32	15111.96
902.49	14997.28
902.66	15329.05
902.83	15099.67
903.01	15091.48
903.18	15058.71
903.35	15222.55
903.52	15017.75
903.69	15271.70
903.86	15195.93
904.03	15337.24
904.20	15337.24
904.37	15204.12
904.54	15019.80
904.71	14911.26
904.88	15091.48
905.05	14970.65
905.22	15191.83
905.39	15003.42
905.56	14970.65
905.73	14944.03
905.90	15288.09
906.07	15114.01
906.24	15261.46
906.41	15095.58
906.58	15169.30
906.75	15234.84
906.92	14907.16
907.09	15130.39
907.26	14903.07
907.43	14812.96
907.60	14993.18
907.77	14950.17
907.93	15023.90
908.10	14817.05
908.27	15040.28
908.44	14802.72
908.61	14974.75
908.78	14950.17
908.95	14980.89
909.12	14911.26
909.29	14765.85
909.46	14855.97
909.63	14952.22
909.80	14989.08
909.97	15032.09
910.14	14806.81
910.31	14956.32
910.48	14649.12
910.65	14903.07
910.82	14626.59
910.99	14843.68
911.16	14614.30
911.33	14593.83
911.50	14874.40
911.66	14767.90
911.83	14812.96
912.00	14630.69
912.17	14311.21
912.34	14704.42
912.51	14479.14
912.68	14507.81
912.85	14606.11
913.02	14384.93
913.19	14429.99
913.36	14473.00
913.53	14446.37
913.70	14450.47
913.86	14544.67
914.03	14210.86
914.20	14333.73
914.37	14241.57
914.54	14335.78
914.71	14196.52
914.88	14165.80
915.05	14298.92
915.22	14032.68
915.39	14176.04
915.55	14087.98
915.72	14270.25
915.89	13772.59
916.06	13983.53
916.23	13942.57
916.40	13852.46
916.57	13604.66
916.74	14012.20
916.91	13737.77
917.07	13438.77
917.24	13637.42
917.41	13612.85
917.58	13670.19
917.75	13520.69
917.92	13219.64
918.09	13496.11
918.26	13528.88
918.42	13604.66
918.59	13426.48
918.76	13399.86
918.93	13424.44
919.10	13107.00
919.27	13090.62
919.44	13363.00
919.60	13168.44
919.77	13281.08
919.94	13160.25
920.11	13096.76
920.28	13088.57
920.45	13154.10
920.61	12904.25
920.78	12803.90
920.95	12797.76
921.12	12967.74
921.29	12783.42
921.46	12785.47
921.62	12517.18
921.79	12545.86
921.96	12730.17
922.13	12465.99
922.30	12506.95
922.47	12293.96
922.63	12494.66
922.80	12302.15
922.97	12500.80
923.14	12113.74
923.31	12427.07
923.47	12037.96
923.64	12461.89
923.81	11951.95
923.98	12060.49
924.15	11953.99
924.32	12017.48
924.48	12066.63
924.65	12085.06
924.82	11800.40
924.99	11900.75
925.15	11652.94
925.32	11759.44
925.49	11595.60
925.66	11556.69
925.83	11476.82
925.99	11468.62
926.16	11657.04
926.33	11470.67
926.50	11388.75
926.67	11497.30
926.83	11159.38
927.00	11349.84
927.17	11206.48
927.34	10903.39
927.50	10948.44
927.67	11347.79
927.84	11046.74
928.01	11026.26
928.17	10891.10
928.34	10944.34
928.51	10962.78
928.68	10809.18
928.84	10823.51
929.01	10817.37
929.18	10506.08
929.35	10768.22
929.51	10620.77
929.68	10553.18
929.85	10346.34
930.02	10450.78
930.18	10299.23
930.35	10219.36
930.52	10448.74
930.69	10295.14
930.85	10248.04
931.02	10112.87
931.19	10227.56
931.36	10104.68
931.52	10092.39
931.69	9936.74
931.86	9940.84
932.02	9924.46
932.19	9873.26
932.36	9895.78
932.53	9756.52
932.69	9736.04
932.86	9822.06
933.03	9549.68
933.19	9473.90
933.36	9461.62
933.53	9639.79
933.70	9400.18
933.86	9443.18
934.03	9400.18
934.20	9551.73
934.36	9363.31
934.53	9099.13
934.70	9078.65
934.86	8996.73
935.03	8937.34
935.20	9037.69
935.36	8966.01
935.53	8863.61
935.70	8636.28
935.86	8626.04
936.03	8677.24
936.20	8578.94
936.36	8515.45
936.53	8470.40
936.70	8198.02
936.86	8445.82
937.03	8308.61
937.20	7978.89
937.36	8167.30
937.53	7712.65
937.70	7903.11
937.86	7657.36
938.03	7765.90
938.20	7804.81
938.36	7563.15
938.53	7507.85
938.70	7350.16
938.86	7280.53
939.03	7323.54
939.20	7176.08
939.36	7190.42
939.53	7081.88
939.70	7368.59
939.86	6887.32
940.03	6750.10
940.19	6664.09
940.36	6670.23
940.53	6756.25
940.69	6530.97
940.86	6451.10
941.03	6365.09
941.19	6311.84
941.36	6485.92
941.52	6299.55
941.69	6070.18
941.86	6049.70
942.02	5992.36
942.19	6094.76
942.35	6117.28
942.52	5957.54
942.69	5883.81
942.85	5797.80
943.02	5820.33
943.18	5873.57
943.35	5744.55
943.52	5668.78
943.68	5351.34
943.85	5588.91
944.01	5486.51
944.18	5597.10
944.35	5619.63
944.51	5445.55
944.68	5398.45
944.84	5382.06
945.01	5384.11
945.17	5250.99
945.34	5451.69
945.51	5554.09
945.67	5341.10
945.84	5328.81
946.00	5320.62
946.17	5285.81
946.33	5302.19
946.50	5400.49
946.67	5308.34
946.83	5240.75
947.00	5384.11
947.16	5308.34
947.33	5173.17
947.49	5205.94
947.66	5222.32
947.82	5310.38
947.99	5304.24
948.16	5320.62
948.32	5117.87
948.49	5302.19
948.65	5314.48
948.82	5236.66
948.98	5089.20
949.15	5091.25
949.31	5281.71
949.48	5246.90
949.64	5287.86
949.81	5148.59
949.97	5164.98
950.14	5175.22
950.30	5144.50
950.47	5218.22
950.63	5279.66
950.80	5132.21
950.96	5146.55
951.13	5230.51
951.30	5207.98
951.46	5310.38
951.63	5253.04
951.79	5250.99
951.96	5474.22
952.12	5132.21
952.29	5279.66
952.45	5189.55
952.62	5169.07
952.78	5357.49
952.94	5265.33
953.11	5187.50
953.27	5308.34
953.44	5294.00
953.60	5472.17
953.77	5482.41
953.93	5402.54
954.10	5390.25
954.26	5353.39
954.43	5318.57
954.59	5388.21
954.76	5480.36
954.92	5400.49
955.09	5461.93
955.25	5408.69
955.42	5398.45
955.58	5304.24
955.75	5418.93
955.91	5306.29
956.07	5384.11
956.24	5294.00
956.40	5427.12
956.57	5408.69
956.73	5509.04
956.90	5314.48
957.06	5351.34
957.23	5402.54
957.39	5484.46
957.56	5484.46
957.72	5275.57
957.88	5435.31
958.05	5511.08
958.21	5406.64
958.38	5392.30
958.54	5443.50
958.71	5597.10
958.87	5373.87
959.03	5427.12
959.20	5343.15
959.36	5343.15
959.53	5294.00
959.69	5201.84
959.85	5441.45
960.02	5355.44
960.18	5416.88
960.35	5179.31
960.51	5365.68
960.68	5275.57
960.84	5431.21
961.00	5392.30
961.17	5377.97
961.33	5337.01
961.50	5423.02
961.66	5457.84
961.82	5402.54
961.99	5318.57
962.15	5330.86
962.31	5388.21
962.48	5296.05
962.64	5320.62
962.81	5443.50
962.97	5287.86
963.13	5423.02
963.30	5359.53
963.46	5132.21
963.62	5265.33
963.79	5150.64
963.95	5283.76
964.12	5361.58
964.28	5427.12
964.44	5318.57
964.61	5478.32
964.77	5177.26
964.93	5349.29
965.10	5220.27
965.26	5212.08
965.42	5289.90
965.59	5218.22
965.75	5267.38
965.92	5218.22
966.08	5205.94
966.24	5197.74
966.41	5093.30
966.57	5257.14
966.73	5203.89
966.90	5308.34
967.06	5285.81
967.22	5185.46
967.39	5193.65
967.55	5236.66
967.71	5216.18
967.88	5175.22
968.04	5220.27
968.20	5095.35
968.37	5083.06
968.53	5158.83
968.69	5126.07
968.85	5154.74
969.02	5062.58
969.18	5121.97
969.34	5099.44
969.51	5074.87
969.67	5142.45
969.83	4964.28
970.00	5146.55
970.16	4951.99
970.32	5134.26
970.48	5253.04
970.65	5097.39
970.81	4984.76
970.97	4911.03
971.14	4829.11
971.30	4976.56
971.46	4966.32
971.63	5031.86
971.79	5074.87
971.95	4943.80
972.11	4894.65
972.28	4929.46
972.44	4839.35
972.60	4997.04
972.76	5005.24
972.93	4874.17
973.09	4984.76
973.25	4896.69
973.42	4706.23
973.58	4896.69
973.74	4902.84
973.90	4911.03
974.07	4794.29
974.23	4767.67
974.39	4806.58
974.55	4878.26
974.72	4835.25
974.88	4741.05
975.04	4919.22
975.20	4726.71
975.37	4775.86
975.53	4800.44
975.69	4698.04
975.85	4616.12
976.01	4755.38
976.18	4736.95
976.34	4786.10
976.50	4722.62
976.66	4771.77
976.83	4630.46
976.99	4579.26
977.15	4730.81
977.31	4491.20
977.47	4665.27
977.64	4599.74
977.80	4485.05
977.96	4622.27
978.12	4448.19
978.29	4544.44
978.45	4542.39
978.61	4493.24
978.77	4618.17
978.93	4550.59
979.10	4517.82
979.26	4476.86
979.42	4542.39
979.58	4390.84
979.74	4583.35
979.91	4503.48
980.07	4542.39
980.23	4501.44
980.39	4458.43
980.55	4466.62
980.71	4411.32
980.88	4317.12
981.04	4360.13
981.20	4401.08
981.36	4427.71
981.52	4403.13
981.68	4263.87
981.85	4476.86
982.01	4304.83
982.17	4296.64
982.33	4276.16
982.49	4411.32
982.65	4321.21
982.82	4296.64
982.98	4259.78
983.14	4323.26
983.30	4487.10
983.46	4358.08
983.62	4313.02
983.79	4095.94
983.95	4091.84
984.11	4159.42
984.27	4163.52
984.43	4294.59
984.59	4192.19
984.75	4186.05
984.91	4165.57
985.08	4257.73
985.24	4003.78
985.40	4083.65
985.56	4138.94
985.72	4059.07
985.88	4124.61
986.04	4089.79
986.20	4159.42
986.37	4087.75
986.53	4100.03
986.69	4009.92
986.85	3952.58
987.01	3964.87
987.17	4114.37
987.33	3977.16
987.49	4011.97
987.65	3944.39
987.82	3944.39
987.98	4034.50
988.14	3942.34
988.30	3958.72
988.46	4063.17
988.62	3833.80
988.78	3821.51
988.94	3942.34
989.10	3809.22
989.26	3833.80
989.42	3753.93
989.59	3835.85
989.75	3760.07
989.91	3823.56
990.07	3815.37
990.23	3690.44
990.39	3887.04
990.55	3850.18
990.71	3665.86
990.87	3827.65
991.03	3811.27
991.19	3706.82
991.35	3704.78
991.51	3809.22
991.67	3749.83
991.83	3850.18
992.00	3772.36
992.16	3784.65
992.32	3749.83
992.48	3682.25
992.64	3573.71
992.80	3631.05
992.96	3629.00
993.12	3680.20
993.28	3747.78
993.44	3606.47
993.60	3723.21
993.76	3622.86
993.92	3737.54
994.08	3672.01
994.24	3581.90
994.40	3682.25
994.56	3698.63
994.72	3540.94
994.88	3581.90
995.04	3641.29
995.20	3618.76
995.36	3596.23
995.52	3555.27
995.68	3545.03
995.84	3432.40
996.00	3649.48
996.16	3432.40
996.32	3454.92
996.48	3448.78
996.64	3534.79
996.80	3477.45
996.96	3565.51
997.12	3540.94
997.28	3502.03
997.44	3315.66
997.60	3442.64
997.76	3479.50
997.92	3383.24
998.08	3444.68
998.24	3397.58
998.40	3383.24
998.56	3387.34
998.72	3319.76
998.88	3301.33
999.04	3260.37
999.20	3409.87
999.36	3420.11
999.52	3377.10
999.68	3221.45
999.84	3252.17
1000.00	3284.94
1000.16	3319.76
1000.32	3190.74
1000.48	3379.15
1000.64	3252.17
1000.80	3223.50
1000.95	3225.55
1001.11	3241.93
1001.27	3067.86
1001.43	3260.37
1001.59	3141.58
1001.75	3149.78
1001.91	3256.27
1002.07	3190.74
1002.23	3172.30
1002.39	3119.06
1002.55	3256.27
1002.71	3180.50
1002.87	3100.62
1003.03	3200.98
1003.19	3114.96
1003.34	3209.17
1003.50	3059.67
1003.66	3106.77
1003.82	3121.10
1003.98	3076.05
1004.14	3051.47
1004.30	2953.17
1004.46	3006.42
1004.62	3106.77
1004.78	2959.31
1004.94	3037.14
1005.09	3039.19
1005.25	2912.21
1005.41	2973.65
1005.57	2938.84
1005.73	3035.09
1005.89	2912.21
1006.05	3047.38
1006.21	2965.46
1006.37	2871.25
1006.52	2955.22
1006.68	2971.60
1006.84	2983.89
1007.00	2912.21
1007.16	3076.05
1007.32	2942.93
1007.48	2918.36
1007.64	3020.75
1007.79	2928.60
1007.95	2955.22
1008.11	2934.74
1008.27	2809.81
1008.43	2770.90
1008.59	2854.87
1008.75	2897.88
1008.91	2990.03
1009.06	2856.92
1009.22	2820.05
1009.38	2758.61
1009.54	2873.30
1009.70	2826.20
1009.86	2805.72
1010.01	2742.23
1010.17	2797.53
1010.33	2879.44
1010.49	2758.61
1010.65	2867.16
1010.81	2799.57
1010.96	2723.80
1011.12	2758.61
1011.28	2625.50
1011.44	2772.95
1011.60	2789.33
1011.76	2770.90
1011.91	2746.33
1012.07	2662.36
1012.23	2600.92
1012.39	2629.59
1012.55	2648.02
1012.71	2519.00
1012.86	2607.06
1013.02	2635.74
1013.18	2654.17
1013.34	2643.93
1013.50	2576.34
1013.65	2627.54
1013.81	2551.77
1013.97	2674.65
1014.13	2641.88
1014.29	2586.58
1014.44	2645.98
1014.60	2512.86
1014.76	2672.60
1014.92	2545.63
1015.07	2615.26
1015.23	2611.16
1015.39	2531.29
1015.55	2570.20
1015.71	2572.25
1015.86	2582.49
1016.02	2498.52
1016.18	2451.42
1016.34	2531.29
1016.49	2529.24
1016.65	2574.30
1016.81	2551.77
1016.97	2508.76
1017.12	2492.38
1017.28	2465.75
1017.44	2408.41
1017.60	2451.42
1017.75	2488.28
1017.91	2467.80
1018.07	2514.91
1018.23	2437.08
1018.38	2494.43
1018.54	2439.13
1018.70	2363.36
1018.86	2361.31
1019.01	2387.93
1019.17	2361.31
1019.33	2424.80
1019.49	2512.86
1019.64	2439.13
1019.80	2394.08
1019.96	2396.12
1020.12	2457.56
1020.27	2322.40
1020.43	2295.77
1020.59	2418.65
1020.74	2445.27
1020.90	2369.50
1021.06	2308.06
1021.22	2330.59
1021.37	2414.56
1021.53	2381.79
1021.69	2338.78
1021.84	2222.05
1022.00	2379.74
1022.16	2349.02
1022.31	2334.68
1022.47	2289.63
1022.63	2387.93
1022.79	2242.53
1022.94	2310.11
1023.10	2353.12
1023.26	2265.05
1023.41	2314.20
1023.57	2240.48
1023.73	2363.36
1023.88	2191.33
1024.04	2303.96
1024.20	2215.90
1024.35	2353.12
1024.51	2295.77
1024.67	2213.85
1024.82	2265.05
1024.98	2152.42
1025.14	2265.05
1025.29	2248.67
1025.45	2240.48
1025.61	2209.76
1025.76	2195.42
1025.92	2205.66
1026.08	2275.29
1026.23	2312.16
1026.39	2303.96
1026.55	2224.09
1026.70	2226.14
1026.86	2170.85
1027.02	2138.08
1027.17	2168.80
1027.33	2176.99
1027.48	2162.66
1027.64	2109.41
1027.80	2138.08
1027.95	2187.23
1028.11	2017.25
1028.27	2109.41
1028.42	2205.66
1028.58	2031.58
1028.73	2093.02
1028.89	1996.77
1029.05	2146.27
1029.20	2207.71
>>>>>End Processed Spectral Data<<<<<
