SpectraSuite Data File
++++++++++++++++++++++++++++++++++++
Date: Fri Jun 02 14:49:27 CEST 2017
User: INFO_000
Dark Spectrum Present: No
Reference Spectrum Present: No
Number of Sampled Component Spectra: 1
Spectrometers: USB4H00879
Integration Time (usec): 80000 (USB4H00879)
Spectra Averaged: 1 (USB4H00879)
Boxcar Smoothing: 0 (USB4H00879)
Correct for Electrical Dark: No (USB4H00879)
Strobe/Lamp Enabled: No (USB4H00879)
Correct for Detector Non-linearity: No (USB4H00879)
Correct for Stray Light: No (USB4H00879)
Number of Pixels in Processed Spectrum: 3648
>>>>>Begin Processed Spectral Data<<<<<
345.13	1343.47
345.34	1343.47
345.56	1343.47
345.78	1232.88
345.99	1316.84
346.21	1683.43
346.42	1652.71
346.64	1619.94
346.86	1806.31
347.07	1699.81
347.29	1734.63
347.50	1630.18
347.72	1665.00
347.94	1761.25
348.15	1533.93
348.37	1574.89
348.59	1679.33
348.80	1656.81
349.02	1824.74
349.23	1785.83
349.45	1884.13
349.67	1880.04
349.88	1755.11
350.10	1976.29
350.31	1869.80
350.53	1818.60
350.75	1959.91
350.96	1775.59
351.18	1820.64
351.39	1853.41
351.61	1775.59
351.82	1910.75
352.04	1918.95
352.26	1775.59
352.47	1943.52
352.69	1912.80
352.90	1681.38
353.12	1888.23
353.34	1830.88
353.55	1959.91
353.77	1916.90
353.98	1826.79
354.20	1830.88
354.41	1918.95
354.63	1929.19
354.85	1957.86
355.06	1910.75
355.28	1777.64
355.49	1822.69
355.71	1882.08
355.92	1941.47
356.14	1896.42
356.35	1851.36
356.57	1910.75
356.79	1947.62
357.00	1941.47
357.22	1964.00
357.43	1853.41
357.65	2002.91
357.86	1845.22
358.08	1941.47
358.29	2009.06
358.51	1996.77
358.72	1964.00
358.94	2013.15
359.16	2007.01
359.37	1920.99
359.59	1968.10
359.80	1982.43
360.02	1849.32
360.23	1910.75
360.45	1953.76
360.66	1923.04
360.88	1828.84
361.09	1914.85
361.31	1900.52
361.52	1929.19
361.74	2084.83
361.95	1986.53
362.17	1964.00
362.38	2058.21
362.60	2017.25
362.81	1945.57
363.03	1908.71
363.24	1986.53
363.46	2017.25
363.67	2017.25
363.89	1957.86
364.10	2039.78
364.32	1886.18
364.53	2082.78
364.75	1886.18
364.96	2039.78
365.18	2054.11
365.39	1974.24
365.61	1992.67
365.82	2142.18
366.04	2011.11
366.25	1982.43
366.47	2023.39
366.68	1957.86
366.90	1929.19
367.11	2133.98
367.33	2142.18
367.54	2023.39
367.76	1959.91
367.97	2064.35
368.19	2025.44
368.40	2117.60
368.62	2035.68
368.83	1939.43
369.05	2060.26
369.26	2050.02
369.48	1929.19
369.69	1910.75
369.91	2013.15
370.12	2082.78
370.33	2041.82
370.55	1988.58
370.76	2060.26
370.98	2107.36
371.19	1955.81
371.41	2064.35
371.62	2052.06
371.84	2017.25
372.05	2176.99
372.27	2101.22
372.48	2123.74
372.69	2133.98
372.91	2127.84
373.12	2131.94
373.34	2002.91
373.55	2119.65
373.77	2138.08
373.98	2160.61
374.20	2152.42
374.41	2187.23
374.62	2066.40
374.84	2064.35
375.05	2123.74
375.27	2191.33
375.48	2160.61
375.70	2133.98
375.91	2172.89
376.12	2265.05
376.34	2123.74
376.55	2179.04
376.77	2205.66
376.98	2023.39
377.19	2162.66
377.41	2174.94
377.62	2187.23
377.84	2183.13
378.05	2326.49
378.27	2197.47
378.48	2437.08
378.69	2420.70
378.91	2281.44
379.12	2297.82
379.34	2215.90
379.55	2303.96
379.76	2244.57
379.98	2263.01
380.19	2267.10
380.41	2258.91
380.62	2246.62
380.83	2256.86
381.05	2205.66
381.26	2404.32
381.47	2246.62
381.69	2267.10
381.90	2373.60
382.12	2238.43
382.33	2265.05
382.54	2338.78
382.76	2293.72
382.97	2383.84
383.19	2263.01
383.40	2432.99
383.61	2361.31
383.83	2316.25
384.04	2291.68
384.25	2312.16
384.47	2301.92
384.68	2293.72
384.89	2244.57
385.11	2318.30
385.32	2326.49
385.54	2379.74
385.75	2213.85
385.96	2406.36
386.18	2371.55
386.39	2447.32
386.60	2340.83
386.82	2435.03
387.03	2455.51
387.24	2506.71
387.46	2453.47
387.67	2494.43
387.88	2531.29
388.10	2494.43
388.31	2455.51
388.52	2521.05
388.74	2525.15
388.95	2469.85
389.16	2471.90
389.38	2484.19
389.59	2549.72
389.80	2674.65
390.02	2580.44
390.23	2547.67
390.44	2531.29
390.66	2471.90
390.87	2504.67
391.08	2566.10
391.30	2672.60
391.51	2596.82
391.72	2682.84
391.94	2613.21
392.15	2592.73
392.36	2611.16
392.58	2596.82
392.79	2627.54
393.00	2656.22
393.22	2668.50
393.43	2754.52
393.64	2721.75
393.85	2834.39
394.07	2629.59
394.28	2662.36
394.49	2764.76
394.71	2680.79
394.92	2840.53
395.13	2725.85
395.35	2731.99
395.56	2623.45
395.77	2707.41
395.98	2775.00
396.20	2811.86
396.41	2895.83
396.62	2895.83
396.84	2822.10
397.05	2867.16
397.26	2809.81
397.47	2865.11
397.69	2781.14
397.90	3057.62
398.11	2834.39
398.32	2895.83
398.54	2736.09
398.75	2856.92
398.96	2918.36
399.18	3065.81
399.39	2992.08
399.60	2975.70
399.81	2897.88
400.03	2908.12
400.24	3327.95
400.45	2885.59
400.66	3051.47
400.88	3121.10
401.09	3133.39
401.30	3002.32
401.51	3127.25
401.73	3131.34
401.94	3063.76
402.15	3112.91
402.36	3090.38
402.58	3071.95
402.79	3108.82
403.00	3155.92
403.21	3176.40
403.43	3233.74
403.64	3260.37
403.85	3100.62
404.06	3127.25
404.27	3131.34
404.49	3233.74
404.70	3108.82
404.91	3237.84
405.12	3178.45
405.34	3213.26
405.55	3325.90
405.76	3119.06
405.97	3301.33
406.19	3375.05
406.40	3178.45
406.61	3297.23
406.82	3348.43
407.03	3274.70
407.25	3190.74
407.46	3352.52
407.67	3397.58
407.88	3420.11
408.09	3321.81
408.31	3356.62
408.52	3315.66
408.73	3289.04
408.94	3348.43
409.15	3377.10
409.37	3491.79
409.58	3465.16
409.79	3491.79
410.00	3512.27
410.21	3434.44
410.43	3426.25
410.64	3366.86
410.85	3506.12
411.06	3497.93
411.27	3633.10
411.48	3540.94
411.70	3528.65
411.91	3616.71
412.12	3561.42
412.33	3567.56
412.54	3641.29
412.76	3745.73
412.97	3487.69
413.18	3553.23
413.39	3672.01
413.60	3651.53
413.81	3657.67
414.03	3641.29
414.24	3665.86
414.45	3706.82
414.66	3497.93
414.87	3563.47
415.08	3735.50
415.30	3583.95
415.51	3735.50
415.72	3801.03
415.93	3774.41
416.14	3798.98
416.35	3747.78
416.56	3684.30
416.78	3856.33
416.99	3821.51
417.20	3801.03
417.41	3919.81
417.62	3837.89
417.83	3907.52
418.04	3778.50
418.26	3852.23
418.47	3907.52
418.68	4005.83
418.89	3940.29
419.10	4143.04
419.31	3915.72
419.52	4089.79
419.73	3925.96
419.95	4030.40
420.16	3928.00
420.37	4030.40
420.58	3993.54
420.79	3811.27
421.00	3932.10
421.21	4097.99
421.42	3993.54
421.63	4050.88
421.85	4067.27
422.06	4147.14
422.27	4157.38
422.48	4257.73
422.69	4220.86
422.90	4157.38
423.11	4204.48
423.32	4222.91
423.53	4390.84
423.75	4440.00
423.96	4415.42
424.17	4296.64
424.38	4505.53
424.59	4300.73
424.80	4571.07
425.01	4411.32
425.22	4319.17
425.43	4427.71
425.64	4597.69
425.85	4636.60
426.06	4458.43
426.28	4405.18
426.49	4493.24
426.70	4442.04
426.91	4538.30
427.12	4583.35
427.33	4646.84
427.54	4585.40
427.75	4700.09
427.96	4775.86
428.17	4816.82
428.38	4745.14
428.59	4816.82
428.80	4767.67
429.01	4712.38
429.23	4632.51
429.44	4882.36
429.65	4806.58
429.86	4812.73
430.07	4896.69
430.28	4884.41
430.49	4968.37
430.70	4945.84
430.91	5081.01
431.12	4958.13
431.33	5113.78
431.54	5019.57
431.75	5017.52
431.96	5130.16
432.17	5031.86
432.38	5130.16
432.59	5246.90
432.80	5216.18
433.01	5062.58
433.22	5193.65
433.43	5214.13
433.64	5144.50
433.85	5234.61
434.06	5228.46
434.27	5146.55
434.49	5259.18
434.70	5560.24
434.91	5367.73
435.12	5453.74
435.33	5353.39
435.54	5396.40
435.75	5250.99
435.96	5334.96
436.17	5375.92
436.38	5566.38
436.59	5492.65
436.80	5394.35
437.01	5605.29
437.22	5726.12
437.43	5621.67
437.64	5392.30
437.85	5601.19
438.06	5842.85
438.27	5654.44
438.48	5574.57
438.69	5816.23
438.90	5803.94
439.11	5726.12
439.32	5887.91
439.53	5801.90
439.74	5711.78
439.95	5810.09
440.16	5722.02
440.37	5892.01
440.57	5791.66
440.78	5881.77
440.99	5937.06
441.20	5920.68
441.41	5871.53
441.62	5980.07
441.83	5703.59
442.04	5932.97
442.25	6031.27
442.46	5935.01
442.67	6018.98
442.88	6528.92
443.09	5998.50
443.30	6152.10
443.51	6174.63
443.72	6344.61
443.93	6064.04
444.14	6358.94
444.35	6084.52
444.56	6301.60
444.77	6332.32
444.98	6350.75
445.19	6268.83
445.40	6254.50
445.61	6320.03
445.81	6481.82
446.02	6383.52
446.23	6330.27
446.44	6240.16
446.65	6496.16
446.86	6418.33
447.07	6440.86
447.28	6643.61
447.49	6459.29
447.70	6535.07
447.91	6649.75
448.12	6573.98
448.33	6686.62
448.54	6688.67
448.74	6705.05
448.95	6653.85
449.16	6582.17
449.37	7016.34
449.58	6612.89
449.79	7008.15
450.00	6803.35
450.21	6987.67
450.42	6969.24
450.63	6899.61
450.84	6928.28
451.05	6999.96
451.25	7038.87
451.46	6905.75
451.67	7204.75
451.88	7180.18
452.09	7124.88
452.30	7045.01
452.51	7065.49
452.72	7258.00
452.93	7561.10
453.13	6987.67
453.34	7176.08
453.55	7153.55
453.76	7364.50
453.97	7554.96
454.18	7370.64
454.39	7479.18
454.60	7430.03
454.81	7434.13
455.01	7626.64
455.22	7255.95
455.43	7663.50
455.64	7714.70
455.85	7925.64
456.06	7964.55
456.27	7778.19
456.48	7843.72
456.68	7829.38
456.89	7909.26
457.10	8042.37
457.31	7974.79
457.52	7894.92
457.73	7946.12
457.94	8281.99
458.14	7913.35
458.35	8318.85
458.56	8040.33
458.77	7931.78
458.98	8216.45
459.19	8322.94
459.39	8306.56
459.60	8462.21
459.81	8470.40
460.02	8382.34
460.23	8417.15
460.44	8685.44
460.65	8642.43
460.85	8685.44
461.06	8654.72
461.27	8492.93
461.48	8691.58
461.69	8871.80
461.89	8611.71
462.10	8697.72
462.31	8710.01
462.52	8820.60
462.73	8855.42
462.94	9084.79
463.14	8951.67
463.35	8841.08
463.56	9179.00
463.77	9430.90
463.98	9058.17
464.18	9140.08
464.39	9267.06
464.60	9480.05
464.81	9314.16
465.02	9514.86
465.23	9650.03
465.43	9471.86
465.64	9488.24
465.85	9650.03
466.06	9584.49
466.27	9830.25
466.47	9647.98
466.68	9803.63
466.89	9895.78
467.10	9967.46
467.30	9879.40
467.51	10178.40
467.72	10243.94
467.93	9879.40
468.14	10061.67
468.34	10446.69
468.55	10413.92
468.76	10465.12
468.97	10274.66
469.17	10571.61
469.38	10655.58
469.59	10864.47
469.80	10487.65
470.01	10604.38
470.21	10766.17
470.42	10788.70
470.63	11026.26
470.84	10774.36
471.04	11097.94
471.25	11145.05
471.46	11315.03
471.67	11458.39
471.87	11351.89
472.08	11323.22
472.29	11521.87
472.50	11173.72
472.70	11493.20
472.91	11362.13
473.12	11587.41
473.33	11693.90
473.53	12130.12
473.74	11808.59
473.95	12177.22
474.16	12072.78
474.36	11966.28
474.57	12353.35
474.78	12541.76
474.99	12271.43
475.19	12207.94
475.40	12699.45
475.61	12640.06
475.81	12910.40
476.02	13082.42
476.23	12922.68
476.44	13037.37
476.64	13354.80
476.85	13240.12
477.06	13406.00
477.27	13453.11
477.47	13549.36
477.68	13686.58
477.89	13846.32
478.09	13879.08
478.30	13786.93
478.51	13621.04
478.71	13987.63
478.92	14071.59
479.13	14458.66
479.34	14253.86
479.54	14298.92
479.75	14313.25
479.96	14432.04
480.16	14688.03
480.37	14599.97
480.58	14991.13
480.78	15085.34
480.99	14896.92
481.20	15109.91
481.41	15251.22
481.61	15308.57
481.82	15302.42
482.03	15320.85
482.23	15456.02
482.44	15687.44
482.65	15822.61
482.85	15843.09
483.06	15920.91
483.27	16103.18
483.47	16178.95
483.68	15914.77
483.89	16316.17
484.09	16357.13
484.30	16514.82
484.51	16795.39
484.71	16658.18
484.92	16621.31
485.13	16994.04
485.33	16836.35
485.54	16928.51
485.75	17053.44
485.95	17266.42
486.16	17307.38
486.37	17430.26
486.57	17264.38
486.78	17440.50
486.98	17757.94
487.19	17755.89
487.40	17860.34
487.60	17948.40
487.81	18102.00
488.02	17884.91
488.22	18147.05
488.43	18327.27
488.64	18216.68
488.84	18542.31
489.05	18505.45
489.25	18542.31
489.46	18779.87
489.67	18757.35
489.87	19021.53
490.08	19353.30
490.29	19060.45
490.49	19529.43
490.70	19295.96
490.90	19513.05
491.11	19357.40
491.32	19834.58
491.52	19644.12
491.73	19664.60
491.94	19597.01
492.14	19807.95
492.35	19916.50
492.55	20092.62
492.76	20238.03
492.97	20444.87
493.17	20084.43
493.38	20383.43
493.58	20850.37
493.79	20727.49
494.00	20715.20
494.20	20661.96
494.41	21073.60
494.61	21223.10
494.82	21092.03
495.02	21212.86
495.23	21118.65
495.44	21210.81
495.64	21702.32
495.85	21546.68
496.05	21774.00
496.26	21288.64
496.47	21741.24
496.67	21735.09
496.88	21948.08
497.08	21751.48
497.29	22329.00
497.49	21855.92
497.70	22073.01
497.91	22116.01
498.11	22300.33
498.32	22597.29
498.52	22488.74
498.73	22447.79
498.93	22746.79
499.14	22791.84
499.34	22646.44
499.55	22787.75
499.76	22640.29
499.96	23053.98
500.17	22787.75
500.37	23273.12
500.58	23164.57
500.78	23164.57
500.99	23094.94
501.19	23719.57
501.40	23254.69
501.60	23285.40
501.81	23465.63
502.02	23570.07
502.22	23248.54
502.43	23746.20
502.63	23789.20
502.84	24032.91
503.04	23643.80
503.25	23979.67
503.45	23881.36
503.66	24067.73
503.86	24200.85
504.07	24594.06
504.27	24106.64
504.48	24356.49
504.68	24317.58
504.89	24739.46
505.09	24505.99
505.30	24874.63
505.50	24745.61
505.71	25020.03
505.91	24860.29
506.12	24743.56
506.32	24733.32
506.53	24905.35
506.73	25124.48
506.94	25112.19
507.14	25415.29
507.35	25058.95
507.55	25196.16
507.76	25386.62
507.96	25460.35
508.17	25597.56
508.37	25710.20
508.58	25400.96
508.78	25634.42
508.99	25769.59
509.19	25620.09
509.40	25556.60
509.60	25618.04
509.81	25732.73
510.01	25917.04
510.22	25884.28
510.42	26068.59
510.63	26054.26
510.83	25794.17
511.04	26252.91
511.24	26359.41
511.44	26267.25
511.65	26443.37
511.85	26353.26
512.06	26506.86
512.26	26820.20
512.47	26607.21
512.67	26787.43
512.88	26601.07
513.08	26306.16
513.29	26898.02
513.49	26635.88
513.69	26609.26
513.90	26742.38
514.10	26842.73
514.31	26719.85
514.51	27182.69
514.72	27000.42
514.92	27178.59
515.13	26973.80
515.33	27258.46
515.53	27274.85
515.74	27037.28
515.94	27360.86
516.15	27577.95
516.35	27096.67
516.56	27643.48
516.76	27121.25
516.96	27737.69
517.17	27741.78
517.37	27475.55
517.58	27727.45
517.78	27784.79
517.99	27926.10
518.19	28008.02
518.39	28206.67
518.60	28401.23
518.80	27813.46
519.01	28460.62
519.21	28190.29
519.41	28403.28
519.62	27995.73
519.82	28507.72
520.03	28462.67
520.23	28560.97
520.43	28448.33
520.64	28866.12
520.84	28567.12
521.05	29099.59
521.25	28816.97
521.45	28831.30
521.66	29230.66
521.86	28935.75
522.07	29042.24
522.27	29087.30
522.47	29417.02
522.68	29449.79
522.88	29523.52
523.08	29660.73
523.29	29484.61
523.49	29503.04
523.70	29767.23
523.90	30033.46
524.10	30045.75
524.31	30271.03
524.51	29824.57
524.71	30230.07
524.92	29980.21
525.12	30649.90
525.33	30488.11
525.53	30334.51
525.73	31122.98
525.94	30662.19
526.14	30934.57
526.34	30838.31
526.55	30742.06
526.75	31192.61
526.95	31264.29
527.16	31411.74
527.36	31043.11
527.56	31368.74
527.77	31628.83
527.97	31596.06
528.17	31651.36
528.38	31970.84
528.58	31481.38
528.78	32015.90
528.99	31475.23
529.19	32108.05
529.39	31983.13
529.60	32501.26
529.80	32200.21
530.00	31956.50
530.21	32591.37
530.41	32544.27
530.61	32458.26
530.82	32685.58
531.02	32478.74
531.22	32945.67
531.43	32990.73
531.63	32957.96
531.83	33396.23
532.04	33414.66
532.24	33347.08
532.44	33580.54
532.64	33525.25
532.85	34033.14
533.05	33566.21
533.25	33760.76
533.46	34102.78
533.66	34309.62
533.86	33940.99
534.07	34674.16
534.27	34307.57
534.47	34524.66
534.67	34577.90
534.88	34833.90
535.08	34774.51
535.28	35065.32
535.49	35122.66
535.69	35440.10
535.89	35278.31
536.09	35139.05
536.30	35544.55
536.50	35548.64
536.70	35757.53
536.91	35792.35
537.11	35829.21
537.31	36021.72
537.51	35741.15
537.72	36150.74
537.92	36222.42
538.12	36457.94
538.32	35909.08
538.53	36910.54
538.73	36072.92
538.93	36531.67
539.13	36210.14
539.34	36552.15
539.54	36525.52
539.74	36980.17
539.94	36742.61
540.15	37326.28
540.35	37223.88
540.55	36902.35
540.75	37064.14
540.96	37471.68
541.16	37240.26
541.36	37483.97
541.56	37522.88
541.77	37889.47
541.97	37434.82
542.17	37995.96
542.37	37803.46
542.58	38114.75
542.78	37533.12
542.98	37971.39
543.18	37985.72
543.38	38628.79
543.59	38407.61
543.79	38200.76
543.99	38442.42
544.19	38620.59
544.40	38679.99
544.60	38800.82
544.80	38944.17
545.00	39198.12
545.20	38839.73
545.41	38432.18
545.61	39054.76
545.81	39013.80
546.01	39011.76
546.21	39052.72
546.42	39581.09
546.62	39509.41
546.82	39497.13
547.02	39105.96
547.22	39624.10
547.43	39583.14
547.63	39423.40
547.83	40027.55
548.03	39486.89
548.23	40183.19
548.44	40113.56
548.64	40015.26
548.84	40084.89
549.04	40054.17
549.24	40244.63
549.45	40719.76
549.65	39810.46
549.85	40355.22
550.05	40476.05
550.25	40820.11
550.45	40752.53
550.66	40463.77
550.86	40146.33
551.06	40613.27
551.26	40666.52
551.46	41041.29
551.66	41137.55
551.87	40652.18
552.07	40920.46
552.27	41004.43
552.47	40992.14
552.67	41082.25
552.87	40891.79
553.07	41399.69
553.28	41342.35
553.48	41440.65
553.68	40897.94
553.88	41737.60
554.08	41407.88
554.28	41420.17
554.48	41301.39
554.69	41256.33
554.89	41497.99
555.09	41264.52
555.29	41153.93
555.49	41409.93
555.69	41737.60
555.89	41645.44
556.10	41903.49
556.30	41702.79
556.50	41985.41
556.70	41571.72
556.90	42272.12
557.10	41971.07
557.30	41813.38
557.50	42243.45
557.70	41993.60
557.91	42050.94
558.11	42186.11
558.31	42591.61
558.51	42222.97
558.71	41878.91
558.91	42386.81
559.11	42116.48
559.31	42268.03
559.51	42327.42
559.72	42206.59
559.92	42351.99
560.12	42186.11
560.32	42685.81
560.52	42446.20
560.72	42603.89
560.92	42694.00
561.12	42601.85
561.32	42919.28
561.52	42663.28
561.72	43146.61
561.93	42950.00
562.13	42972.53
562.33	42552.69
562.53	43099.50
562.73	42911.09
562.93	42640.76
563.13	43255.15
563.33	43038.06
563.53	43230.57
563.73	42597.75
563.93	42833.27
564.13	43181.42
564.33	43064.69
564.53	42773.88
564.74	42964.34
564.94	43126.13
565.14	43263.34
565.34	43154.80
565.54	43402.60
565.74	43294.06
565.94	43445.61
566.14	43562.34
566.34	43193.71
566.54	43521.38
566.74	43367.79
566.94	43666.79
567.14	43756.90
567.34	43261.29
567.54	43558.25
567.74	43165.04
567.94	43140.46
568.14	43992.42
568.34	43984.22
568.54	43591.01
568.74	43812.20
568.94	43717.99
569.14	44143.97
569.34	43631.97
569.54	44066.14
569.75	43677.03
569.95	43447.66
570.15	44430.68
570.35	44406.11
570.55	43930.98
570.75	43830.63
570.95	44152.16
571.15	44496.22
571.35	44012.90
571.55	44084.58
571.75	44068.19
571.95	44250.46
572.15	43967.84
572.35	44438.87
572.55	44000.61
572.75	44301.66
572.95	44258.65
573.15	44234.08
573.35	44660.05
573.55	44055.90
573.75	44109.15
573.95	44459.35
574.15	44438.87
574.35	44725.59
574.55	44375.39
574.75	44670.29
574.95	44895.57
575.15	44465.50
575.34	45096.27
575.54	44807.51
575.74	44911.95
575.94	45161.81
576.14	44807.51
576.34	45299.02
576.54	45370.70
576.74	45555.02
576.94	44903.76
577.14	45256.01
577.34	45387.08
577.54	45262.16
577.74	45405.52
577.94	45686.09
578.14	45673.80
578.34	45698.37
578.54	45061.46
578.74	45266.25
578.94	45860.16
579.14	45880.64
579.34	45399.37
579.54	45692.23
579.74	46054.72
579.94	45792.58
580.13	46308.67
580.33	46138.69
580.53	46638.39
580.73	46101.82
580.93	46122.30
581.13	45976.90
581.33	46765.37
581.53	46519.61
581.73	46257.47
581.93	46851.38
582.13	46298.43
582.33	46544.19
582.53	46890.29
582.73	46513.47
582.92	46316.86
583.12	46941.49
583.32	46970.16
583.52	46775.61
583.72	47189.30
583.92	46908.72
584.12	46906.68
584.32	47357.23
584.52	47193.39
584.72	47277.36
584.92	47338.80
585.11	47783.21
585.31	47037.75
585.51	47346.99
585.71	47426.86
585.91	47891.75
586.11	47236.40
586.31	47895.85
586.51	47248.69
586.71	47713.58
586.91	48092.45
587.10	48043.30
587.30	47977.76
587.50	48307.49
587.70	48106.79
587.90	48250.14
588.10	48313.63
588.30	48088.35
588.50	48338.21
588.69	48168.22
588.89	48332.06
589.09	48440.60
589.29	48399.65
589.49	48760.09
589.69	48192.80
589.89	48762.14
590.08	49001.75
590.28	48362.78
590.48	48862.49
590.68	48469.28
590.88	48569.63
591.08	48561.44
591.28	48862.49
591.47	48817.43
591.67	49124.63
591.87	48940.31
592.07	48983.32
592.27	49016.08
592.47	49009.94
592.67	49126.67
592.86	48936.21
593.06	49526.03
593.26	49231.12
593.46	49984.77
593.66	49810.70
593.86	50087.17
594.05	49808.65
594.25	50015.49
594.45	49716.49
594.65	49593.61
594.85	49585.42
595.05	50273.54
595.24	50435.33
595.44	50408.70
595.64	50150.66
595.84	50101.51
596.04	50156.80
596.23	50273.54
596.43	50414.85
596.63	50208.00
596.83	50664.70
597.03	50781.43
597.22	50863.35
597.42	50765.05
597.62	50709.75
597.82	50832.63
598.02	50724.09
598.21	51019.00
598.41	51014.90
598.61	51160.31
598.81	50914.55
599.01	51248.37
599.20	51320.05
599.40	51109.11
599.60	51410.16
599.80	51449.07
600.00	51655.92
600.19	51786.99
600.39	51535.09
600.59	52069.61
600.79	51578.09
600.98	51752.17
601.18	51813.61
601.38	52204.77
601.58	52073.70
601.78	52161.76
601.97	51936.49
602.17	52399.33
602.37	52366.56
602.57	52253.92
602.76	52352.23
602.96	52018.41
603.16	52413.66
603.36	52446.43
603.55	53026.01
603.75	52522.21
603.95	53081.30
604.15	52747.48
604.34	52524.25
604.54	53306.58
604.74	52700.38
604.94	52712.67
605.13	52669.66
605.33	53099.73
605.53	53169.36
605.73	53304.53
605.92	52901.08
606.12	53456.08
606.32	53572.81
606.52	53179.60
606.71	53703.88
606.91	53316.82
607.11	53216.47
607.30	53859.53
607.50	53466.32
607.70	53384.40
607.90	53363.92
608.09	53716.17
608.29	53794.00
608.49	53925.07
608.68	53826.76
608.88	53867.72
609.08	54205.64
609.28	54076.61
609.47	53884.11
609.67	54195.40
609.87	54179.01
610.06	54613.18
610.26	54078.66
610.46	54207.68
610.66	53789.90
610.85	54074.57
611.05	53867.72
611.25	54238.40
611.44	54125.77
611.64	54508.74
611.84	54199.49
612.03	54058.18
612.23	54561.98
612.43	54627.52
612.62	54525.12
612.82	54656.19
613.02	54518.98
613.21	54084.81
613.41	54424.77
613.61	54674.62
613.80	53929.16
614.00	54310.08
614.20	54643.90
614.39	54529.22
614.59	54674.62
614.79	54977.72
614.98	54768.83
615.18	54580.42
615.38	55121.08
615.57	54344.90
615.77	54899.90
615.97	54795.45
616.16	54301.89
616.36	54791.36
616.56	54539.46
616.75	54740.16
616.95	54412.48
617.15	54760.64
617.34	54600.89
617.54	54408.39
617.74	55104.70
617.93	54674.62
618.13	54613.18
618.32	54500.54
618.52	54516.93
618.72	54731.96
618.91	54705.34
619.11	54553.79
619.31	55035.06
619.50	54461.63
619.70	54299.84
619.90	54779.07
620.09	54572.22
620.29	54564.03
620.48	54680.77
620.68	54811.84
620.88	54549.70
621.07	54598.85
621.27	54748.35
621.46	54205.64
621.66	54633.66
621.86	54846.65
622.05	54322.37
622.25	55004.34
622.44	54770.88
622.64	54592.70
622.84	54922.43
623.03	54418.63
623.23	54850.75
623.42	54049.99
623.62	54549.70
623.82	54680.77
624.01	54420.67
624.21	54318.28
624.40	54723.77
624.60	54860.99
624.80	54721.72
624.99	54226.12
625.19	54009.03
625.38	54803.64
625.58	54400.19
625.77	54672.57
625.97	54334.66
626.17	54367.43
626.36	54369.47
626.56	54637.76
626.75	53875.91
626.95	54729.92
627.14	54715.58
627.34	54887.61
627.54	54181.06
627.73	54402.24
627.93	54482.11
628.12	54441.15
628.32	54510.78
628.51	54373.57
628.71	54351.04
628.90	54394.05
629.10	54457.54
629.30	54443.20
629.49	54652.09
629.69	54383.81
629.88	54379.71
630.08	55069.88
630.27	54385.86
630.47	54609.09
630.66	54281.41
630.86	54576.32
631.05	54232.26
631.25	54639.81
631.44	54248.64
631.64	54041.80
631.84	54336.71
632.03	54822.08
632.23	54392.00
632.42	54768.83
632.62	54336.71
632.81	53916.87
633.01	54590.66
633.20	54723.77
633.40	54719.68
633.59	54715.58
633.79	54228.16
633.98	54240.45
634.18	54559.94
634.37	54473.92
634.57	54062.28
634.76	54598.85
634.96	54398.15
635.15	54582.46
635.35	54369.47
635.54	54420.67
635.74	54711.49
635.93	54131.91
636.13	54695.10
636.32	54498.50
636.52	54328.52
636.71	54543.55
636.91	54383.81
637.10	54289.60
637.30	54404.29
637.49	54424.77
637.69	54326.47
637.88	54586.56
638.08	54435.01
638.27	54353.09
638.46	54320.32
638.66	54351.04
638.85	54713.53
639.05	54023.37
639.24	54750.40
639.44	54162.63
639.63	54723.77
639.83	54699.20
640.02	54482.11
640.22	54156.49
640.41	54588.61
640.61	54385.86
640.80	54449.35
640.99	54277.32
641.19	54756.54
641.38	54111.43
641.58	54664.38
641.77	54586.56
641.97	54527.17
642.16	54207.68
642.36	54729.92
642.55	55022.78
642.74	54224.07
642.94	54697.15
643.13	54340.80
643.33	54750.40
643.52	54869.18
643.72	54559.94
643.91	54674.62
644.10	54445.25
644.30	55002.30
644.49	54623.42
644.69	54879.42
644.88	54512.83
645.08	54514.88
645.27	54734.01
645.46	54416.58
645.66	54863.03
645.85	54650.05
646.05	54910.14
646.24	54801.60
646.43	54817.98
646.63	54979.77
646.82	55407.79
647.02	54766.78
647.21	55198.90
647.40	54670.53
647.60	55108.79
647.79	55096.50
647.99	54981.82
648.18	54639.81
648.37	55856.30
648.57	55022.78
648.76	54867.13
648.96	54893.75
649.15	55076.02
649.34	55086.26
649.54	54908.09
649.73	54949.05
649.92	54729.92
650.12	55145.65
650.31	55235.77
650.51	54826.17
650.70	55182.52
650.89	54965.43
651.09	55565.49
651.28	55237.81
651.47	55176.37
651.67	55651.50
651.86	55280.82
652.06	54797.50
652.25	55407.79
652.44	54981.82
652.64	54973.63
652.83	54926.52
653.02	55065.78
653.22	54957.24
653.41	55190.71
653.60	54617.28
653.80	55213.24
653.99	55516.34
654.18	55200.95
654.38	55258.29
654.57	55323.83
654.76	55383.22
654.96	54756.54
655.15	55301.30
655.34	55149.75
655.54	55014.58
655.73	55452.85
655.92	55538.86
656.12	55131.32
656.31	55588.02
656.50	55411.89
656.70	55166.13
656.89	55211.19
657.08	55495.86
657.28	55604.40
657.47	55542.96
657.66	55504.05
657.86	55166.13
658.05	55219.38
658.24	55520.43
658.43	55219.38
658.63	55762.09
658.82	55542.96
659.01	55852.20
659.21	55317.68
659.40	55452.85
659.59	55170.23
659.79	55600.30
659.98	55540.91
660.17	55846.06
660.36	55989.42
660.56	55870.64
660.75	55325.88
660.94	55033.02
661.14	55540.91
661.33	55717.04
661.52	55123.13
661.71	55850.16
661.91	55631.02
662.10	54858.94
662.29	55846.06
662.49	55739.57
662.68	55532.72
662.87	55508.14
663.06	56169.64
663.26	55403.70
663.45	56030.38
663.64	55450.80
663.83	56114.34
664.03	55669.93
664.22	55751.85
664.41	55979.18
664.60	55766.19
664.80	55289.01
664.99	55948.46
665.18	55657.65
665.37	56177.83
665.57	56202.41
665.76	55819.44
665.95	55788.72
666.14	55940.27
666.34	55889.07
666.53	55411.89
666.72	55768.24
666.91	55684.27
667.11	55559.34
667.30	55475.38
667.49	55809.20
667.68	55571.63
667.87	55719.09
668.07	56024.23
668.26	55891.12
668.45	55700.65
668.64	55123.13
668.84	56548.51
669.03	55821.48
669.22	55717.04
669.41	56386.72
669.60	56308.90
669.80	55608.50
669.99	56183.97
670.18	55735.47
670.37	55473.33
670.57	56296.61
670.76	55952.55
670.95	56282.28
671.14	55968.94
671.33	55702.70
671.53	56454.31
671.72	56067.24
671.91	56349.86
672.10	55579.82
672.29	56052.90
672.48	55536.82
672.68	56100.01
672.87	55682.22
673.06	56198.31
673.25	55993.51
673.44	56151.21
673.64	55647.41
673.83	55751.85
674.02	55790.76
674.21	55518.38
674.40	55893.16
674.59	55975.08
674.79	55835.82
674.98	55575.73
675.17	56200.36
675.36	55717.04
675.55	56175.78
675.74	56171.69
675.94	55776.43
676.13	56075.43
676.32	56280.23
676.51	56552.61
676.70	56175.78
676.89	56167.59
677.08	56095.91
677.28	55735.47
677.47	56306.85
677.66	56622.24
677.85	56079.53
678.04	56573.09
678.23	56505.51
678.42	56427.68
678.62	55905.45
678.81	56382.63
679.00	55936.17
679.19	56726.69
679.38	56222.89
679.57	56071.34
679.76	56011.95
679.96	56169.64
680.15	56093.86
680.34	56206.50
680.53	56079.53
680.72	56124.58
680.91	56194.21
681.10	55856.30
681.29	56020.14
681.48	56224.93
681.68	55981.23
681.87	55897.26
682.06	55731.37
682.25	55710.89
682.44	55956.65
682.63	56243.37
682.82	55690.41
683.01	55547.06
683.20	55606.45
683.39	56532.13
683.59	55923.88
683.78	55862.44
683.97	55645.36
684.16	56057.00
684.35	55309.49
684.54	56054.95
684.73	56149.16
684.92	55755.95
685.11	55628.98
685.30	55925.93
685.49	56177.83
685.69	56196.26
685.88	55899.31
686.07	55289.01
686.26	55811.24
686.45	55727.28
686.64	55948.46
686.83	55688.37
687.02	55905.45
687.21	56351.91
687.40	55844.01
687.59	55788.72
687.78	55694.51
687.97	56030.38
688.16	55770.28
688.35	55528.62
688.54	55153.85
688.74	55809.20
688.93	55755.95
689.12	55784.62
689.31	56159.40
689.50	55815.34
689.69	55551.15
689.88	55053.50
690.07	55612.59
690.26	55076.02
690.45	56073.38
690.64	55153.85
690.83	55567.54
691.02	55223.48
691.21	55297.20
691.40	55149.75
691.59	55526.58
691.78	55309.49
691.97	55368.88
692.16	55278.77
692.35	55583.92
692.54	55907.50
692.73	55727.28
692.92	55196.85
693.11	55553.20
693.30	55088.31
693.49	55573.68
693.68	55119.03
693.87	55522.48
694.06	55157.94
694.25	55082.17
694.44	54932.67
694.63	54805.69
694.82	55385.27
695.01	54703.29
695.20	55024.82
695.39	54639.81
695.58	55166.13
695.77	55016.63
695.96	54875.32
696.15	54879.42
696.34	54402.24
696.53	54574.27
696.72	55391.41
696.91	54703.29
697.10	54805.69
697.29	54586.56
697.48	55235.77
697.67	54799.55
697.86	54248.64
698.05	54836.41
698.24	55018.68
698.43	54265.03
698.62	54596.80
698.81	54467.78
699.00	54377.67
699.19	53843.15
699.38	54695.10
699.57	54523.07
699.76	55385.27
699.95	53961.93
700.14	54777.02
700.32	54400.19
700.51	54260.93
700.70	54824.12
700.89	54314.18
701.08	54611.13
701.27	54219.97
701.46	54580.42
701.65	53830.86
701.84	54375.62
702.03	54817.98
702.22	53994.70
702.41	54056.14
702.60	54578.37
702.79	53875.91
702.98	54215.88
703.17	54099.14
703.35	54105.29
703.54	53908.68
703.73	54310.08
703.92	53318.87
704.11	53556.43
704.30	53593.29
704.49	53822.67
704.68	53550.29
704.87	53732.56
705.06	53245.14
705.25	53738.70
705.43	53845.19
705.62	54146.25
705.81	53458.13
706.00	53327.06
706.19	52950.23
706.38	53198.04
706.57	53177.56
706.76	52647.13
706.95	52835.55
707.14	53198.04
707.32	52892.89
707.51	52794.59
707.70	53021.91
707.89	52681.95
708.08	53179.60
708.27	52651.23
708.46	53892.30
708.65	53288.15
708.84	53277.91
709.02	52849.88
709.21	53265.62
709.40	52909.27
709.59	53079.25
709.78	52473.06
709.97	52927.70
710.16	52393.18
710.34	52448.48
710.53	52847.83
710.72	52415.71
710.91	52831.45
711.10	52563.17
711.29	52557.02
711.48	52329.70
711.66	52229.35
711.85	52524.25
712.04	52331.75
712.23	52305.12
712.42	52382.94
712.61	52643.04
712.80	52081.89
712.98	52585.69
713.17	51936.49
713.36	52176.10
713.55	52159.72
713.74	52145.38
713.93	52018.41
714.11	51829.99
714.30	52008.17
714.49	51674.35
714.68	52073.70
714.87	52397.28
715.06	52153.57
715.24	51770.60
715.43	51361.01
715.62	51205.36
715.81	51297.52
716.00	52036.84
716.18	51514.61
716.37	51158.26
716.56	50912.50
716.75	51657.96
716.94	51641.58
717.12	50937.08
717.31	51330.29
717.50	51320.05
717.69	51076.34
717.88	51082.48
718.06	50853.11
718.25	51086.58
718.44	50982.13
718.63	50699.51
718.82	50564.35
719.00	50535.68
719.19	50738.43
719.38	50855.16
719.57	50373.89
719.76	50033.92
719.94	49829.13
720.13	50142.47
720.32	50195.71
720.51	50189.57
720.69	49839.37
720.88	49939.72
721.07	49820.94
721.26	49911.05
721.44	49653.00
721.63	50052.36
721.82	49503.50
722.01	49542.41
722.20	49681.67
722.38	49124.63
722.57	49413.39
722.76	49681.67
722.95	49333.52
723.13	49022.23
723.32	48985.36
723.51	48835.86
723.70	49184.02
723.88	49214.74
724.07	48604.44
724.26	49138.96
724.44	48438.56
724.63	48870.68
724.82	48878.87
725.01	48921.88
725.19	49247.50
725.38	48289.06
725.57	48878.87
725.76	48747.80
725.94	48274.72
726.13	48633.11
726.32	48858.39
726.51	48055.59
726.69	48676.12
726.88	48553.24
727.07	48540.96
727.25	48231.71
727.44	47977.76
727.63	48553.24
727.82	48360.73
728.00	48444.70
728.19	48010.53
728.38	48272.67
728.56	48008.48
728.75	48225.57
728.94	47996.20
729.12	48170.27
729.31	48092.45
729.50	48117.03
729.69	48139.55
729.87	47922.47
730.06	47707.43
730.25	47969.57
730.43	48241.95
730.62	48106.79
730.81	47834.41
730.99	47928.61
731.18	47807.78
731.37	48035.11
731.55	48065.83
731.74	47998.24
731.93	47815.97
732.11	47889.70
732.30	47924.52
732.49	47406.38
732.67	47725.86
732.86	47416.62
733.05	47322.41
733.23	47514.92
733.42	48168.22
733.61	47471.92
733.79	47645.99
733.98	47674.66
734.17	47869.22
734.35	47224.11
734.54	47627.56
734.73	47725.86
734.91	47439.15
735.10	47009.07
735.29	47533.35
735.47	46949.68
735.66	48102.69
735.84	47033.65
736.03	46961.97
736.22	47600.94
736.40	47070.51
736.59	47179.06
736.78	47297.84
736.96	46953.78
737.15	46945.59
737.33	47265.07
737.52	46814.52
737.71	47066.42
737.89	46462.27
738.08	46624.06
738.27	46738.74
738.45	47066.42
738.64	46964.02
738.82	46658.87
739.01	46726.46
739.20	46624.06
739.38	46974.26
739.57	47146.29
739.75	46921.01
739.94	46744.89
740.13	46753.08
740.31	46542.14
740.50	46736.69
740.68	46769.46
740.87	46841.14
741.06	46476.60
741.24	45905.22
741.43	46196.03
741.61	46456.12
741.80	46091.58
741.99	46191.94
742.17	46060.87
742.36	46302.53
742.54	45966.66
742.73	46245.18
742.91	46191.94
743.10	46067.01
743.29	46024.00
743.47	46206.27
743.66	46128.45
743.84	45792.58
744.03	46026.05
744.21	45833.54
744.40	46142.78
744.59	45456.71
744.77	45960.51
744.96	45722.95
745.14	45616.46
745.33	46019.91
745.51	45716.81
745.70	45915.46
745.88	45331.79
746.07	45520.20
746.26	45202.77
746.44	45362.51
746.63	45792.58
746.81	45753.67
747.00	45315.40
747.18	45714.76
747.37	45436.23
747.55	45247.82
747.74	45653.32
747.92	45077.84
748.11	45172.05
748.29	45522.25
748.48	45380.94
748.66	45100.37
748.85	44752.21
749.03	44741.97
749.22	45122.90
749.41	44596.57
749.59	44688.73
749.78	44979.54
749.96	44465.50
750.15	44641.62
750.33	44803.41
750.52	44809.56
750.70	44606.81
750.89	44287.32
751.07	44275.04
751.26	44932.43
751.44	44330.33
751.63	44303.71
751.81	44490.07
752.00	44885.33
752.18	44914.00
752.37	44213.60
752.55	44189.02
752.74	44238.17
752.92	44096.86
753.10	43902.31
753.29	44287.32
753.47	43955.55
753.66	43668.84
753.84	44160.35
754.03	44154.21
754.21	43715.94
754.40	44430.68
754.58	43806.05
754.77	44025.18
754.95	43971.94
755.14	43812.20
755.32	43842.92
755.51	43605.35
755.69	43801.96
755.88	43365.74
756.06	43900.26
756.24	43062.64
756.43	43269.48
756.61	44004.70
756.80	43801.96
756.98	43445.61
757.17	43728.23
757.35	43713.89
757.54	43435.37
757.72	43611.49
757.90	43015.54
758.09	43154.80
758.27	43568.49
758.46	43048.30
758.64	43101.55
758.83	43308.40
759.01	43146.61
759.19	43206.00
759.38	43224.43
759.56	43425.13
759.75	43447.66
759.93	43113.84
760.12	42825.07
760.30	43036.02
760.48	42626.42
760.67	43171.18
760.85	43183.47
761.04	43093.36
761.22	43040.11
761.40	42761.59
761.59	42878.32
761.77	42771.83
761.96	42863.99
762.14	43185.52
762.32	42300.79
762.51	42694.00
762.69	42259.84
762.88	42575.22
763.06	42302.84
763.24	42300.79
763.43	42435.96
763.61	42206.59
763.80	42145.15
763.98	42573.17
764.16	42165.63
764.35	42239.36
764.53	41440.65
764.72	42200.44
764.90	42282.36
765.08	42184.06
765.27	42257.79
765.45	41811.33
765.63	41174.41
765.82	41981.31
766.00	41467.27
766.18	41485.70
766.37	42147.20
766.55	41772.42
766.74	41770.37
766.92	41796.99
767.10	41606.53
767.29	41563.53
767.47	41024.91
767.65	42026.37
767.84	41233.80
768.02	41749.89
768.20	41033.10
768.39	41653.64
768.57	41588.10
768.75	41391.50
768.94	41305.48
769.12	41080.21
769.30	40953.23
769.49	41080.21
769.67	41188.75
769.85	41004.43
770.04	41178.51
770.22	40654.23
770.40	40684.95
770.59	40537.49
770.77	40709.52
770.95	40736.15
771.14	40406.42
771.32	40539.54
771.50	40547.73
771.69	40406.42
771.87	40643.99
772.05	40629.65
772.24	40627.60
772.42	40490.39
772.60	40600.98
772.78	40187.29
772.97	40252.83
773.15	40564.12
773.33	39986.59
773.52	40156.57
773.70	40465.81
773.88	40377.75
774.07	40639.89
774.25	40375.70
774.43	40279.45
774.61	40582.55
774.80	40373.66
774.98	40457.62
775.16	40254.87
775.34	40506.77
775.53	40078.75
775.71	40693.14
775.89	40555.93
776.08	40258.97
776.26	40441.24
776.44	40580.50
776.62	39984.54
776.81	40254.87
776.99	40738.19
777.17	40523.16
777.35	40390.04
777.54	41051.53
777.72	40476.05
777.90	40598.93
778.08	40709.52
778.27	40899.98
778.45	40697.24
778.63	41160.08
778.81	40586.64
779.00	41209.23
779.18	40945.04
779.36	40998.29
779.54	40893.84
779.73	41268.62
779.91	41178.51
780.09	41209.23
780.27	40850.83
780.46	40818.07
780.64	41117.07
780.82	41270.67
781.00	40940.94
781.19	41350.54
781.37	41489.80
781.55	41248.14
781.73	41491.85
781.91	41528.71
782.10	41516.42
782.28	41463.18
782.46	41362.82
782.64	41760.13
782.82	41428.36
783.01	41903.49
783.19	41905.54
783.37	41833.86
783.55	42108.29
783.74	41876.86
783.92	41285.00
784.10	41760.13
784.28	41903.49
784.46	41061.77
784.64	41489.80
784.83	41688.45
785.01	42014.08
785.19	41952.64
785.37	42161.53
785.55	41610.63
785.74	41176.46
785.92	41446.79
786.10	41536.90
786.28	41620.87
786.46	41469.32
786.64	41446.79
786.83	41160.08
787.01	41301.39
787.19	41690.50
787.37	41174.41
787.55	41383.30
787.74	40994.19
787.92	41481.61
788.10	41133.45
788.28	41026.96
788.46	41272.71
788.64	41082.25
788.82	41618.82
789.01	41094.54
789.19	40998.29
789.37	41129.36
789.55	41051.53
789.73	40693.14
789.91	40613.27
790.09	40871.31
790.28	40494.49
790.46	40730.00
790.64	41112.97
790.82	40357.27
791.00	40365.46
791.18	40562.07
791.36	40531.35
791.55	40664.47
791.73	40140.19
791.91	39703.97
792.09	39931.29
792.27	40220.06
792.45	40277.40
792.63	39980.45
792.81	39746.98
793.00	39830.94
793.18	39370.15
793.36	39390.63
793.54	39341.48
793.72	39529.89
793.90	39435.69
794.08	39445.93
794.26	39511.46
794.44	38905.26
794.62	39095.72
794.81	39177.64
794.99	39208.36
795.17	39105.96
795.35	39065.00
795.53	39065.00
795.71	39226.79
795.89	38870.45
796.07	38565.30
796.25	38264.25
796.43	38467.00
796.61	38208.95
796.80	38145.47
796.98	38186.43
797.16	38106.55
797.34	37524.93
797.52	38247.86
797.70	38188.47
797.88	37868.99
798.06	37789.12
798.24	37821.89
798.42	37510.60
798.60	37481.92
798.78	37606.85
798.96	37578.18
799.14	36779.47
799.32	37289.42
799.51	36873.68
799.69	37225.93
799.87	37270.98
800.05	36931.02
800.23	36939.21
800.41	36623.83
800.59	36767.18
800.77	36824.53
800.95	36171.22
801.13	36597.20
801.31	36294.10
801.49	36484.56
801.67	36224.47
801.85	35917.28
802.03	36128.22
802.21	36042.20
802.39	35886.56
802.57	35737.05
802.75	35923.42
802.93	35888.60
803.11	35902.94
803.29	35780.06
803.47	35433.96
803.65	35655.14
803.83	34950.63
804.01	35284.45
804.19	35059.18
804.37	34983.40
804.55	34876.91
804.73	34960.87
804.91	35243.49
805.09	34780.65
805.27	35030.51
805.45	35034.60
805.63	35003.88
805.81	34751.98
805.99	34678.25
806.17	35108.33
806.35	34625.01
806.53	34450.93
806.71	34233.85
806.89	34119.16
807.07	34149.88
807.25	34375.16
807.43	34192.89
807.61	34506.23
807.79	33975.80
807.97	33768.96
808.15	33713.66
808.33	33748.48
808.51	33541.63
808.69	33381.89
808.87	33173.00
809.05	33443.33
809.23	33246.72
809.41	32931.34
809.59	33482.24
809.77	33295.88
809.95	32900.62
810.13	33256.96
810.31	32634.38
810.49	32945.67
810.67	33033.74
810.84	33199.62
811.02	32646.67
811.20	32122.39
811.38	32742.92
811.56	32452.11
811.74	32546.32
811.92	32488.98
812.10	32368.15
812.28	32316.95
812.46	32527.89
812.64	32415.25
812.82	32085.53
813.00	32255.51
813.18	32110.10
813.36	31931.93
813.53	31962.65
813.71	31448.61
813.89	31626.78
814.07	31923.74
814.25	32114.20
814.43	31798.81
814.61	31551.01
814.79	31360.55
814.97	31368.74
815.15	31548.96
815.33	31075.88
815.50	30975.53
815.68	31419.94
815.86	31571.49
816.04	31026.73
816.22	30758.44
816.40	31278.63
816.58	31043.11
816.76	30662.19
816.94	30821.93
817.11	30930.47
817.29	30819.88
817.47	30750.25
817.65	30324.27
817.83	30563.89
818.01	30465.58
818.19	30346.80
818.37	30699.05
818.54	30334.51
818.72	30094.90
818.90	30441.01
819.08	29994.55
819.26	30051.89
819.44	30074.42
819.62	30178.87
819.80	30010.93
819.97	29933.11
820.15	29904.44
820.33	29664.83
820.51	29943.35
820.69	29462.08
820.87	29830.71
821.05	30232.11
821.22	29597.24
821.40	29822.52
821.58	29525.57
821.76	29656.64
821.94	29097.54
822.12	29464.13
822.29	29582.91
822.47	29486.65
822.65	29539.90
822.83	29232.71
823.01	29316.67
823.19	29210.18
823.36	28866.12
823.54	28864.07
823.72	28724.81
823.90	29113.92
824.08	28583.50
824.25	29052.48
824.43	28556.88
824.61	28755.53
824.79	28847.69
824.97	28456.53
825.15	28429.90
825.32	28481.10
825.50	28167.76
825.68	28425.81
825.86	28464.72
826.04	28399.18
826.21	28477.01
826.39	28128.85
826.57	28255.82
826.75	28094.04
826.93	28030.55
827.10	27733.59
827.28	28300.88
827.46	28034.64
827.64	28038.74
827.81	28030.55
827.99	28089.94
828.17	27608.67
828.35	27528.80
828.53	27944.53
828.70	27907.67
828.88	27608.67
829.06	27764.31
829.24	27772.50
829.41	27336.29
829.59	27709.02
829.77	27471.45
829.95	27510.36
830.12	27317.86
830.30	27225.70
830.48	27350.62
830.66	27330.14
830.84	27235.94
831.01	27434.59
831.19	27287.14
831.37	26840.68
831.55	26867.30
831.72	26650.22
831.90	27154.02
832.08	26914.41
832.25	27006.56
832.43	26945.12
832.61	26742.38
832.79	26738.28
832.96	26472.04
833.14	26431.08
833.32	26965.60
833.50	26709.61
833.67	26801.77
833.85	26513.00
834.03	26304.11
834.20	26607.21
834.38	26621.55
834.56	26273.39
834.74	26154.61
834.91	26420.84
835.09	26130.03
835.27	25886.32
835.44	26162.80
835.62	25806.45
835.80	26074.74
835.98	26252.91
836.15	26048.11
836.33	26181.23
836.51	26306.16
836.68	26089.07
836.86	25710.20
837.04	26066.55
837.21	25749.11
837.39	25771.64
837.57	25943.67
837.75	25646.71
837.92	25491.07
838.10	25491.07
838.28	25513.59
838.45	25742.97
838.63	25634.42
838.81	25562.75
838.98	25337.47
839.16	25077.38
839.34	25380.48
839.51	25048.71
839.69	25044.61
839.87	25308.80
840.04	25110.14
840.22	25112.19
840.40	24940.16
840.57	24893.06
840.75	24954.50
840.93	24757.89
841.10	25110.14
841.28	25179.78
841.46	24772.23
841.63	25020.03
841.81	24837.76
841.98	24628.87
842.16	24893.06
842.34	24837.76
842.51	24516.23
842.69	24884.87
842.87	24462.99
843.04	24608.39
843.22	24440.46
843.40	24516.23
843.57	24514.19
843.75	24362.64
843.92	24718.98
844.10	24233.61
844.28	24422.03
844.45	24213.13
844.63	24708.74
844.81	24260.24
844.98	24219.28
845.16	24180.37
845.33	24071.82
845.51	24000.15
845.69	24407.69
845.86	23967.38
846.04	24229.52
846.21	23864.98
846.39	23928.47
846.57	23901.84
846.74	23948.95
846.92	23598.74
847.09	23568.02
847.27	23594.65
847.45	23840.40
847.62	23606.94
847.80	23846.55
847.97	23768.73
848.15	23699.09
848.32	23426.71
848.50	23572.12
848.68	23312.03
848.85	23592.60
849.03	23316.12
849.20	23447.19
849.38	23238.30
849.56	23314.08
849.73	22890.15
849.91	23211.68
850.08	23477.91
850.26	22859.43
850.43	22927.01
850.61	23035.55
850.78	22902.43
850.96	22947.49
851.14	22863.52
851.31	22906.53
851.49	22523.56
851.66	23068.32
851.84	22828.71
852.01	22959.78
852.19	23004.83
852.36	22816.42
852.54	22808.23
852.71	22580.90
852.89	22814.37
853.07	22531.75
853.24	22767.27
853.42	22677.16
853.59	22558.38
853.77	22541.99
853.94	22550.18
854.12	22738.60
854.29	22384.30
854.47	22709.93
854.64	22548.14
854.82	22433.45
854.99	22304.43
855.17	22480.55
855.34	22242.99
855.52	22363.82
855.69	22312.62
855.87	22228.65
856.04	22210.22
856.22	22222.51
856.39	21837.49
856.57	22070.96
856.74	21784.24
856.92	22150.83
857.09	21849.78
857.27	21950.13
857.44	22302.38
857.62	21968.56
857.79	21845.68
857.97	21804.72
858.14	21671.61
858.32	21669.56
858.49	21698.23
858.67	21542.58
858.84	21294.78
859.02	21581.49
859.19	21518.01
859.37	21321.40
859.54	21413.56
859.72	21487.29
859.89	21376.70
860.06	21425.85
860.24	21388.99
860.41	21462.71
860.59	21333.69
860.76	21671.61
860.94	20967.10
861.11	21452.47
861.29	20999.87
861.46	21206.72
861.64	20934.34
861.81	20993.73
861.98	21124.80
862.16	21016.26
862.33	20733.64
862.51	20991.68
862.68	21040.83
862.86	20727.49
863.03	20989.63
863.21	20856.51
863.38	20932.29
863.55	20586.18
863.73	20801.22
863.90	20553.41
864.08	20719.30
864.25	20504.26
864.43	20661.96
864.60	20668.10
864.77	20461.26
864.95	20522.69
865.12	20414.15
865.30	20448.97
865.47	20428.49
865.64	20436.68
865.82	20479.69
865.99	20321.99
866.17	20283.08
866.34	20424.39
866.51	19982.03
866.69	20246.22
866.86	20285.13
867.04	20414.15
867.21	20315.85
867.38	19910.35
867.56	19592.92
867.73	19875.54
867.91	19791.57
868.08	20076.24
868.25	19928.78
868.43	19814.10
868.60	19463.90
868.78	19556.05
868.95	19707.60
869.12	19810.00
869.30	19461.85
869.47	19810.00
869.64	19277.53
869.82	19605.20
869.99	19433.18
870.16	19660.50
870.34	19334.87
870.51	19541.72
870.69	19269.34
870.86	19459.80
871.03	19431.13
871.21	19230.43
871.38	19465.94
871.55	19099.36
871.73	19189.47
871.90	19295.96
872.07	19119.84
872.25	19031.77
872.42	18831.07
872.59	19044.06
872.77	19005.15
872.94	18892.51
873.11	18882.27
873.29	19031.77
873.46	18910.94
873.63	18822.88
873.81	18869.98
873.98	18603.75
874.15	18622.18
874.33	18390.76
874.50	18427.62
874.67	18401.00
874.85	18464.49
875.02	18468.58
875.19	18276.07
875.37	17987.31
875.54	18226.92
875.71	18337.51
875.88	18239.21
876.06	17932.01
876.23	18314.98
876.40	17940.21
876.58	18024.17
876.75	17991.41
876.92	17813.23
877.10	17940.21
877.27	18044.65
877.44	18042.60
877.61	17516.28
877.79	18077.42
877.96	17649.39
878.13	17473.27
878.31	17657.59
878.48	17571.57
878.65	17438.45
878.82	17383.16
879.00	17657.59
879.17	17641.20
879.34	17598.20
879.51	17497.84
879.69	17141.50
879.86	17245.94
880.03	17567.48
880.21	17377.01
880.38	17254.14
880.55	17424.12
880.72	17135.35
880.90	17188.60
881.07	17266.42
881.24	17133.31
881.41	17174.27
881.59	17192.70
881.76	17026.81
881.93	16969.47
882.10	16905.98
882.28	17037.05
882.45	17045.24
882.62	16787.20
882.79	17129.21
882.96	16828.16
883.14	16979.71
883.31	16748.29
883.48	16707.33
883.65	16895.74
883.83	16885.50
884.00	16809.73
884.17	16813.82
884.34	16625.41
884.51	16686.85
884.69	16692.99
884.86	16580.36
885.03	16803.58
885.20	16271.11
885.38	16754.43
885.55	16480.00
885.72	16559.88
885.89	16307.98
886.06	16183.05
886.24	16217.86
886.41	16338.69
886.58	16271.11
886.75	16492.29
886.92	16363.27
887.10	16381.70
887.27	16195.34
887.44	16172.81
887.61	16271.11
887.78	16375.56
887.95	16234.25
888.13	16199.43
888.30	16232.20
888.47	15965.96
888.64	16260.87
888.81	16008.97
888.99	16105.23
889.16	16006.92
889.33	15830.80
889.50	15873.81
889.67	15980.30
889.84	15867.66
890.01	15882.00
890.19	15808.27
890.36	15914.77
890.53	15931.15
890.70	15732.50
890.87	15611.67
891.04	15417.11
891.22	15755.02
891.39	15718.16
891.56	15605.52
891.73	15451.92
891.90	15224.60
892.07	15529.75
892.24	15808.27
892.42	15429.40
892.59	15675.15
892.76	15329.05
892.93	15478.55
893.10	15462.16
893.27	15560.47
893.44	15306.52
893.61	15331.09
893.79	15597.33
893.96	15214.36
894.13	15267.61
894.30	15431.44
894.47	15476.50
894.64	15601.43
894.81	15275.80
894.98	15265.56
895.15	15374.10
895.33	15232.79
895.50	15185.69
895.67	15472.40
895.84	15320.85
896.01	15253.27
896.18	15066.91
896.35	15142.68
896.52	15068.95
896.69	15081.24
896.86	15134.49
897.04	15060.76
897.21	15253.27
897.38	14944.03
897.55	15025.95
897.72	15296.28
897.89	15091.48
898.06	15085.34
898.23	15148.82
898.40	15095.58
898.57	15085.34
898.74	14884.64
898.91	15175.45
899.08	14995.23
899.26	15064.86
899.43	15154.97
899.60	15052.57
899.77	15105.82
899.94	14790.43
900.11	15087.39
900.28	15073.05
900.45	15099.67
900.62	14733.09
900.79	15187.74
900.96	14927.64
901.13	15003.42
901.30	14935.84
901.47	15011.61
901.64	15120.15
901.81	14993.18
901.98	14749.47
902.15	15171.35
902.32	15019.80
902.49	14933.79
902.66	15294.23
902.83	15109.91
903.01	15114.01
903.18	15103.77
903.35	15226.65
903.52	15230.74
903.69	15163.16
903.86	15142.68
904.03	14999.32
904.20	15034.14
904.37	15019.80
904.54	15083.29
904.71	14896.92
904.88	15079.19
905.05	15044.38
905.22	14984.99
905.39	15064.86
905.56	15101.72
905.73	14769.95
905.90	14999.32
906.07	14751.52
906.24	14888.73
906.41	15044.38
906.58	15144.73
906.75	15140.63
906.92	14962.46
907.09	15042.33
907.26	14894.88
907.43	14880.54
907.60	14911.26
907.77	15046.43
907.93	14984.99
908.10	14913.31
908.27	14892.83
908.44	14921.50
908.61	14810.91
908.78	14874.40
908.95	15025.95
909.12	14677.79
909.29	14876.44
909.46	14987.04
909.63	14880.54
909.80	15087.39
909.97	14888.73
910.14	14790.43
910.31	14774.05
910.48	14671.65
910.65	14616.35
910.82	14675.74
910.99	14769.95
911.16	14894.88
911.33	14806.81
911.50	14573.35
911.66	14534.43
911.83	14722.85
912.00	14776.09
912.17	14358.31
912.34	14743.33
912.51	14595.87
912.68	14165.80
912.85	14608.16
913.02	14352.16
913.19	14415.65
913.36	14444.32
913.53	14225.19
913.70	14303.01
913.86	14495.52
914.03	14384.93
914.20	14245.67
914.37	14266.15
914.54	14321.45
914.71	14159.66
914.88	14225.19
915.05	14055.21
915.22	14063.40
915.39	14350.12
915.55	14006.06
915.72	13950.76
915.89	14012.20
916.06	13946.67
916.23	14069.55
916.40	13895.47
916.57	13606.70
916.74	13819.69
916.91	13705.01
917.07	13926.19
917.24	13666.10
917.41	13633.33
917.58	13793.07
917.75	13750.06
917.92	13606.70
918.09	13567.79
918.26	13500.21
918.42	13547.31
918.59	13721.39
918.76	13524.79
918.93	13162.30
919.10	13430.58
919.27	13143.86
919.44	13225.78
919.60	13295.41
919.77	13160.25
919.94	13170.49
920.11	13047.61
920.28	13090.62
920.45	13072.18
920.61	13102.90
920.78	12853.05
920.95	12836.67
921.12	12957.50
921.29	12746.56
921.46	12851.00
921.62	12898.11
921.79	12732.22
921.96	12920.63
922.13	12584.77
922.30	12525.38
922.47	12754.75
922.63	12547.90
922.80	12629.82
922.97	12111.69
923.14	12293.96
923.31	12625.73
923.47	12486.47
923.64	12351.30
923.81	12181.32
923.98	12324.68
924.15	12162.89
924.32	12160.84
924.48	12126.02
924.65	12300.10
924.82	12054.34
924.99	11929.42
925.15	11792.20
925.32	12025.67
925.49	11722.57
925.66	11724.62
925.83	11915.08
925.99	11679.57
926.16	11704.14
926.33	11845.45
926.50	11417.43
926.67	11624.27
926.83	11323.22
927.00	11431.76
927.17	11425.62
927.34	11284.31
927.50	11364.18
927.67	11382.61
927.84	11095.89
928.01	11288.40
928.17	11175.77
928.34	11190.10
928.51	11104.09
928.68	11026.26
928.84	11020.12
929.01	10942.30
929.18	10643.29
929.35	10753.88
929.51	10948.44
929.68	10755.93
929.85	10583.90
930.02	10721.12
930.18	10559.33
930.35	10489.70
930.52	10463.07
930.69	10643.29
930.85	10563.42
931.02	10362.72
931.19	10448.74
931.36	10245.99
931.52	10428.26
931.69	10307.43
931.86	10276.71
932.02	10045.29
932.19	9918.31
932.36	10149.73
932.53	10057.57
932.69	9701.23
932.86	9961.32
933.03	9826.15
933.19	9899.88
933.36	9893.74
933.53	9690.99
933.70	9678.70
933.86	9736.04
934.03	9760.62
934.20	9516.91
934.36	9553.77
934.53	9461.62
934.70	9256.82
934.86	9129.84
935.03	9082.74
935.20	9019.25
935.36	9011.06
935.53	8900.47
935.70	8855.42
935.86	8882.04
936.03	8859.51
936.20	8488.83
936.36	8664.96
936.53	8640.38
936.70	8677.24
936.86	8707.96
937.03	8568.70
937.20	8261.51
937.36	8359.81
937.53	8216.45
937.70	7956.36
937.86	7872.39
938.03	7868.30
938.20	8112.00
938.36	7714.70
938.53	7776.14
938.70	7565.20
938.86	7681.93
939.03	7487.37
939.20	7333.78
939.36	7219.09
939.53	7358.35
939.70	7458.70
939.86	6920.09
940.03	6987.67
940.19	6703.00
940.36	6913.94
940.53	6838.17
940.69	6664.09
940.86	6674.33
941.03	6621.08
941.19	6535.07
941.36	6432.67
941.52	6602.65
941.69	6377.37
941.86	6246.30
942.02	6174.63
942.19	6092.71
942.35	5967.78
942.52	6039.46
942.69	6121.38
942.85	5896.10
943.02	5863.33
943.18	6012.84
943.35	5826.47
943.52	5691.31
943.68	5822.38
943.85	5838.76
944.01	5572.52
944.18	5515.18
944.35	5668.78
944.51	5547.95
944.68	5451.69
944.84	5498.80
945.01	5304.24
945.17	5566.38
945.34	5627.82
945.51	5527.47
945.67	5451.69
945.84	5380.01
946.00	5339.05
946.17	5404.59
946.33	5300.14
946.50	5494.70
946.67	5306.29
946.83	5250.99
947.00	5459.88
947.16	5398.45
947.33	5169.07
947.49	5304.24
947.66	5121.97
947.82	5556.14
947.99	5398.45
948.16	5355.44
948.32	5361.58
948.49	5423.02
948.65	5457.84
948.82	5242.80
948.98	5363.63
949.15	5332.91
949.31	5324.72
949.48	5328.81
949.64	5380.01
949.81	5263.28
949.97	5314.48
950.14	5257.14
950.30	5171.12
950.47	5461.93
950.63	5273.52
950.80	5545.90
950.96	5418.93
951.13	5459.88
951.30	5332.91
951.46	5468.08
951.63	5384.11
951.79	5361.58
951.96	5400.49
952.12	5222.32
952.29	5521.32
952.45	5304.24
952.62	5472.17
952.78	5525.42
952.94	5351.34
953.11	5492.65
953.27	5271.47
953.44	5423.02
953.60	5470.12
953.77	5496.75
953.93	5568.43
954.10	5525.42
954.26	5441.45
954.43	5457.84
954.59	5572.52
954.76	5664.68
954.92	5572.52
955.09	5578.67
955.25	5435.31
955.42	5629.87
955.58	5558.19
955.75	5521.32
955.91	5449.64
956.07	5539.76
956.24	5552.04
956.40	5664.68
956.57	5652.39
956.73	5476.27
956.90	5599.15
957.06	5468.08
957.23	5509.04
957.39	5396.40
957.56	5711.78
957.72	5345.20
957.88	5554.09
958.05	5580.71
958.21	5568.43
958.38	5627.82
958.54	5504.94
958.71	5631.91
958.87	5459.88
959.03	5633.96
959.20	5636.01
959.36	5654.44
959.53	5539.76
959.69	5605.29
959.85	5521.32
960.02	5412.78
960.18	5459.88
960.35	5414.83
960.51	5566.38
960.68	5509.04
960.84	5420.97
961.00	5533.61
961.17	5482.41
961.33	5644.20
961.50	5656.49
961.66	5525.42
961.82	5470.12
961.99	5423.02
962.15	5394.35
962.31	5398.45
962.48	5621.67
962.64	5506.99
962.81	5400.49
962.97	5590.95
963.13	5545.90
963.30	5568.43
963.46	5443.50
963.62	5345.20
963.79	5435.31
963.95	5498.80
964.12	5478.32
964.28	5504.94
964.44	5380.01
964.61	5398.45
964.77	5470.12
964.93	5480.36
965.10	5490.60
965.26	5214.13
965.42	5400.49
965.59	5418.93
965.75	5425.07
965.92	5259.18
966.08	5339.05
966.24	5537.71
966.41	5386.16
966.57	5496.75
966.73	5380.01
966.90	5427.12
967.06	5441.45
967.22	5160.88
967.39	5232.56
967.55	5302.19
967.71	5164.98
967.88	5169.07
968.04	5197.74
968.20	5302.19
968.37	5164.98
968.53	5334.96
968.69	5185.46
968.85	5314.48
969.02	5146.55
969.18	5308.34
969.34	5283.76
969.51	5218.22
969.67	5152.69
969.83	5222.32
970.00	5220.27
970.16	5164.98
970.32	5087.15
970.48	5162.93
970.65	5109.68
970.81	5214.13
970.97	5124.02
971.14	5007.28
971.30	5189.55
971.46	5144.50
971.63	5103.54
971.79	5261.23
971.95	5007.28
972.11	4933.56
972.28	4958.13
972.44	5072.82
972.60	5093.30
972.76	5038.00
972.93	4892.60
973.09	4874.17
973.25	5074.87
973.42	5044.15
973.58	5095.35
973.74	4943.80
973.90	5009.33
974.07	4861.88
974.23	4880.31
974.39	4943.80
974.55	4851.64
974.72	4874.17
974.88	4667.32
975.04	4878.26
975.20	4865.97
975.37	4714.42
975.53	4739.00
975.69	4810.68
975.85	4771.77
976.01	4771.77
976.18	4900.79
976.34	4734.90
976.50	4870.07
976.66	4796.34
976.83	4669.37
976.99	4829.11
977.15	4712.38
977.31	4648.89
977.47	4728.76
977.64	4558.78
977.80	4706.23
977.96	4532.15
978.12	4734.90
978.29	4636.60
978.45	4519.87
978.61	4630.46
978.77	4710.33
978.93	4513.72
979.10	4497.34
979.26	4534.20
979.42	4569.02
979.58	4480.96
979.74	4566.97
979.91	4616.12
980.07	4542.39
980.23	4530.11
980.39	4304.83
980.55	4497.34
980.71	4552.63
980.88	4460.48
981.04	4515.77
981.20	4530.11
981.36	4513.72
981.52	4419.52
981.68	4282.30
981.85	4485.05
982.01	4401.08
982.17	4384.70
982.33	4278.21
982.49	4462.52
982.65	4321.21
982.82	4431.80
982.98	4394.94
983.14	4382.65
983.30	4399.04
983.46	4425.66
983.62	4388.80
983.79	4059.07
983.95	4296.64
984.11	4104.13
984.27	4282.30
984.43	4286.40
984.59	4194.24
984.75	4317.12
984.91	4220.86
985.08	4247.49
985.24	4110.27
985.40	4206.53
985.56	4159.42
985.72	4237.25
985.88	4255.68
986.04	4169.66
986.20	4110.27
986.37	4179.90
986.53	3997.64
986.69	4073.41
986.85	4059.07
987.01	4050.88
987.17	4235.20
987.33	3979.20
987.49	4005.83
987.65	4067.27
987.82	4022.21
987.98	3907.52
988.14	3962.82
988.30	3971.01
988.46	4057.03
988.62	4005.83
988.78	3999.68
988.94	3950.53
989.10	3764.17
989.26	3874.76
989.42	3956.68
989.59	3780.55
989.75	3825.61
989.91	3919.81
990.07	3712.97
990.23	3825.61
990.39	3835.85
990.55	3893.19
990.71	3676.10
990.87	3766.21
991.03	3831.75
991.19	3688.39
991.35	3794.89
991.51	3782.60
991.67	3794.89
991.83	3774.41
992.00	3803.08
992.16	3819.46
992.32	3715.02
992.48	3729.35
992.64	3774.41
992.80	3712.97
992.96	3712.97
993.12	3702.73
993.28	3678.15
993.44	3723.21
993.60	3723.21
993.76	3659.72
993.92	3643.34
994.08	3755.97
994.24	3680.20
994.40	3686.34
994.56	3575.75
994.72	3661.77
994.88	3573.71
995.04	3493.83
995.20	3487.69
995.36	3510.22
995.52	3504.07
995.68	3452.88
995.84	3526.60
996.00	3606.47
996.16	3538.89
996.32	3461.07
996.48	3518.41
996.64	3522.51
996.80	3495.88
996.96	3456.97
997.12	3450.83
997.28	3370.96
997.44	3456.97
997.60	3426.25
997.76	3368.91
997.92	3403.72
998.08	3532.75
998.24	3297.23
998.40	3379.15
998.56	3409.87
998.72	3381.20
998.88	3420.11
999.04	3391.44
999.20	3354.57
999.36	3342.28
999.52	3485.64
999.68	3418.06
999.84	3352.52
1000.00	3291.09
1000.16	3397.58
1000.32	3157.97
1000.48	3375.05
1000.64	3213.26
1000.80	3149.78
1000.95	3170.26
1001.11	3321.81
1001.27	3127.25
1001.43	3301.33
1001.59	3102.67
1001.75	3157.97
1001.91	3172.30
1002.07	3157.97
1002.23	3186.64
1002.39	3188.69
1002.55	3139.54
1002.71	3147.73
1002.87	3125.20
1003.03	3135.44
1003.19	3080.14
1003.34	3186.64
1003.50	3133.39
1003.66	3213.26
1003.82	3174.35
1003.98	3092.43
1004.14	3092.43
1004.30	3004.37
1004.46	3098.58
1004.62	2959.31
1004.78	2953.17
1004.94	3035.09
1005.09	3065.81
1005.25	3129.30
1005.41	3006.42
1005.57	2977.75
1005.73	3014.61
1005.89	2867.16
1006.05	3035.09
1006.21	3024.85
1006.37	3008.47
1006.52	2951.12
1006.68	2877.40
1006.84	2985.94
1007.00	2901.97
1007.16	2953.17
1007.32	2848.72
1007.48	2836.44
1007.64	2936.79
1007.79	2764.76
1007.95	2818.00
1008.11	2879.44
1008.27	2813.91
1008.43	2811.86
1008.59	2908.12
1008.75	2840.53
1008.91	2875.35
1009.06	2934.74
1009.22	2869.20
1009.38	2783.19
1009.54	2789.33
1009.70	2768.85
1009.86	2858.96
1010.01	2795.48
1010.17	2738.13
1010.33	2820.05
1010.49	2701.27
1010.65	2772.95
1010.81	2688.98
1010.96	2754.52
1011.12	2627.54
1011.28	2756.57
1011.44	2820.05
1011.60	2725.85
1011.76	2777.05
1011.91	2770.90
1012.07	2656.22
1012.23	2486.23
1012.39	2666.46
1012.55	2658.26
1012.71	2609.11
1012.86	2557.91
1013.02	2766.81
1013.18	2588.63
1013.34	2629.59
1013.50	2588.63
1013.65	2611.16
1013.81	2541.53
1013.97	2543.58
1014.13	2643.93
1014.29	2607.06
1014.44	2611.16
1014.60	2645.98
1014.76	2592.73
1014.92	2502.62
1015.07	2625.50
1015.23	2607.06
1015.39	2519.00
1015.55	2543.58
1015.71	2541.53
1015.86	2467.80
1016.02	2428.89
1016.18	2408.41
1016.34	2617.30
1016.49	2576.34
1016.65	2549.72
1016.81	2490.33
1016.97	2510.81
1017.12	2473.95
1017.28	2377.69
1017.44	2340.83
1017.60	2465.75
1017.75	2387.93
1017.91	2412.51
1018.07	2369.50
1018.23	2465.75
1018.38	2416.60
1018.54	2449.37
1018.70	2500.57
1018.86	2428.89
1019.01	2344.92
1019.17	2459.61
1019.33	2525.15
1019.49	2367.45
1019.64	2541.53
1019.80	2461.66
1019.96	2557.91
1020.12	2377.69
1020.27	2306.01
1020.43	2318.30
1020.59	2400.22
1020.74	2512.86
1020.90	2408.41
1021.06	2293.72
1021.22	2387.93
1021.37	2353.12
1021.53	2334.68
1021.69	2306.01
1021.84	2234.33
1022.00	2336.73
1022.16	2240.48
1022.31	2365.40
1022.47	2322.40
1022.63	2267.10
1022.79	2209.76
1022.94	2291.68
1023.10	2381.79
1023.26	2263.01
1023.41	2263.01
1023.57	2179.04
1023.73	2365.40
1023.88	2420.70
1024.04	2191.33
1024.20	2291.68
1024.35	2250.72
1024.51	2250.72
1024.67	2228.19
1024.82	2330.59
1024.98	2203.61
1025.14	2197.47
1025.29	2166.75
1025.45	2271.20
1025.61	2072.54
1025.76	2228.19
1025.92	2113.50
1026.08	2176.99
1026.23	2254.81
1026.39	2154.46
1026.55	2181.09
1026.70	2152.42
1026.86	2158.56
1027.02	2260.96
1027.17	2248.67
1027.33	2248.67
1027.48	2160.61
1027.64	2164.70
1027.80	2174.94
1027.95	2209.76
1028.11	2072.54
1028.27	2138.08
1028.42	2172.89
1028.58	2101.22
1028.73	2066.40
1028.89	2009.06
1029.05	2248.67
1029.20	2127.84
>>>>>End Processed Spectral Data<<<<<
