SpectraSuite Data File
++++++++++++++++++++++++++++++++++++
Date: Fri Jun 02 14:49:24 CEST 2017
User: INFO_000
Dark Spectrum Present: No
Reference Spectrum Present: No
Number of Sampled Component Spectra: 1
Spectrometers: USB4H00879
Integration Time (usec): 80000 (USB4H00879)
Spectra Averaged: 1 (USB4H00879)
Boxcar Smoothing: 0 (USB4H00879)
Correct for Electrical Dark: No (USB4H00879)
Strobe/Lamp Enabled: No (USB4H00879)
Correct for Detector Non-linearity: No (USB4H00879)
Correct for Stray Light: No (USB4H00879)
Number of Pixels in Processed Spectrum: 3648
>>>>>Begin Processed Spectral Data<<<<<
345.13	1273.84
345.34	1273.84
345.56	1273.84
345.78	1325.04
345.99	1277.93
346.21	1675.24
346.42	1736.68
346.64	1642.47
346.86	1781.73
347.07	1626.09
347.29	1667.05
347.50	1650.66
347.72	1685.48
347.94	1746.92
348.15	1544.17
348.37	1656.81
348.59	1701.86
348.80	1646.57
349.02	1789.92
349.23	1873.89
349.45	1761.25
349.67	1830.88
349.88	1824.74
350.10	1892.32
350.31	1798.12
350.53	1763.30
350.75	1888.23
350.96	1779.68
351.18	1818.60
351.39	1832.93
351.61	1845.22
351.82	1804.26
352.04	1812.45
352.26	1832.93
352.47	1798.12
352.69	1875.94
352.90	1738.73
353.12	1742.82
353.34	1843.17
353.55	1892.32
353.77	1759.21
353.98	1855.46
354.20	1708.01
354.41	1880.04
354.63	1851.36
354.85	1916.90
355.06	1875.94
355.28	1673.19
355.49	1761.25
355.71	1808.36
355.92	1869.80
356.14	1857.51
356.35	1796.07
356.57	1820.64
356.79	1753.06
357.00	1814.50
357.22	1853.41
357.43	1757.16
357.65	1861.60
357.86	1779.68
358.08	1822.69
358.29	1916.90
358.51	1920.99
358.72	1908.71
358.94	1906.66
359.16	1820.64
359.37	1841.12
359.59	1892.32
359.80	1970.15
360.02	1945.57
360.23	1896.42
360.45	1980.39
360.66	1886.18
360.88	1796.07
361.09	1871.84
361.31	1929.19
361.52	1929.19
361.74	2023.39
361.95	1974.24
362.17	1937.38
362.38	1968.10
362.60	2007.01
362.81	2029.54
363.03	1896.42
363.24	2000.87
363.46	1970.15
363.67	1957.86
363.89	1908.71
364.10	1943.52
364.32	1974.24
364.53	2035.68
364.75	1873.89
364.96	1916.90
365.18	1996.77
365.39	1982.43
365.61	1918.95
365.82	2004.96
366.04	1927.14
366.25	1859.56
366.47	1996.77
366.68	2004.96
366.90	1853.41
367.11	2054.11
367.33	2023.39
367.54	2002.91
367.76	2111.46
367.97	2086.88
368.19	2025.44
368.40	2088.93
368.62	1937.38
368.83	1896.42
369.05	1945.57
369.26	1923.04
369.48	1968.10
369.69	2002.91
369.91	1978.34
370.12	2015.20
370.33	2060.26
370.55	1820.64
370.76	1996.77
370.98	2062.30
371.19	1982.43
371.41	1990.63
371.62	2031.58
371.84	1976.29
372.05	2115.55
372.27	2002.91
372.48	2039.78
372.69	2021.35
372.91	2109.41
373.12	2107.36
373.34	1992.67
373.55	2035.68
373.77	2064.35
373.98	2041.82
374.20	2158.56
374.41	2256.86
374.62	2125.79
374.84	2148.32
375.05	2179.04
375.27	2179.04
375.48	2097.12
375.70	2115.55
375.91	2060.26
376.12	2205.66
376.34	2224.09
376.55	2148.32
376.77	2205.66
376.98	2109.41
377.19	2129.89
377.41	2138.08
377.62	2191.33
377.84	2199.52
378.05	2303.96
378.27	2113.50
378.48	2246.62
378.69	2289.63
378.91	2236.38
379.12	2232.29
379.34	2250.72
379.55	2258.91
379.76	2312.16
379.98	2127.84
380.19	2303.96
380.41	2269.15
380.62	2344.92
380.83	2201.57
381.05	2279.39
381.26	2351.07
381.47	2129.89
381.69	2228.19
381.90	2330.59
382.12	2275.29
382.33	2265.05
382.54	2234.33
382.76	2289.63
382.97	2363.36
383.19	2269.15
383.40	2516.95
383.61	2330.59
383.83	2185.18
384.04	2293.72
384.25	2377.69
384.47	2367.45
384.68	2355.16
384.89	2355.16
385.11	2369.50
385.32	2373.60
385.54	2369.50
385.75	2359.26
385.96	2432.99
386.18	2342.88
386.39	2451.42
386.60	2226.14
386.82	2439.13
387.03	2428.89
387.24	2420.70
387.46	2432.99
387.67	2508.76
387.88	2578.39
388.10	2510.81
388.31	2510.81
388.52	2488.28
388.74	2455.51
388.95	2453.47
389.16	2541.53
389.38	2615.26
389.59	2555.86
389.80	2633.69
390.02	2557.91
390.23	2586.58
390.44	2600.92
390.66	2598.87
390.87	2570.20
391.08	2645.98
391.30	2676.70
391.51	2617.30
391.72	2676.70
391.94	2559.96
392.15	2625.50
392.36	2564.06
392.58	2551.77
392.79	2662.36
393.00	2660.31
393.22	2740.18
393.43	2824.15
393.64	2668.50
393.85	2746.33
394.07	2629.59
394.28	2754.52
394.49	2744.28
394.71	2822.10
394.92	2828.24
395.13	2752.47
395.35	2746.33
395.56	2656.22
395.77	2748.37
395.98	2893.78
396.20	2836.44
396.41	2834.39
396.62	2879.44
396.84	2807.77
397.05	2811.86
397.26	2822.10
397.47	2944.98
397.69	2844.63
397.90	3069.91
398.11	2969.55
398.32	2846.68
398.54	2877.40
398.75	2795.48
398.96	2975.70
399.18	3133.39
399.39	2850.77
399.60	3133.39
399.81	2977.75
400.03	2848.72
400.24	3223.50
400.45	2930.64
400.66	2951.12
400.88	2985.94
401.09	3125.20
401.30	3028.95
401.51	3145.68
401.73	3205.07
401.94	3090.38
402.15	3086.29
402.36	3112.91
402.58	3106.77
402.79	3141.58
403.00	3149.78
403.21	3321.81
403.43	3168.21
403.64	3262.41
403.85	3129.30
404.06	3254.22
404.27	3033.04
404.49	3198.93
404.70	3100.62
404.91	3213.26
405.12	3252.17
405.34	3243.98
405.55	3395.53
405.76	3198.93
405.97	3323.85
406.19	3338.19
406.40	3190.74
406.61	3334.09
406.82	3364.81
407.03	3258.32
407.25	3276.75
407.46	3297.23
407.67	3436.49
407.88	3381.20
408.09	3379.15
408.31	3405.77
408.52	3471.31
408.73	3350.48
408.94	3198.93
409.15	3315.66
409.37	3387.34
409.58	3438.54
409.79	3407.82
410.00	3579.85
410.21	3323.85
410.43	3364.81
410.64	3436.49
410.85	3426.25
411.06	3436.49
411.27	3508.17
411.48	3643.34
411.70	3524.55
411.91	3629.00
412.12	3649.48
412.33	3567.56
412.54	3592.14
412.76	3592.14
412.97	3680.20
413.18	3538.89
413.39	3688.39
413.60	3647.43
413.81	3669.96
414.03	3657.67
414.24	3635.14
414.45	3755.97
414.66	3518.41
414.87	3710.92
415.08	3682.25
415.30	3622.86
415.51	3850.18
415.72	3645.38
415.93	3792.84
416.14	3729.35
416.35	3815.37
416.56	3758.02
416.78	3786.69
416.99	3911.62
417.20	3782.60
417.41	3954.63
417.62	3893.19
417.83	3977.16
418.04	3919.81
418.26	3829.70
418.47	3813.32
418.68	3934.15
418.89	3915.72
419.10	4085.70
419.31	4079.55
419.52	4071.36
419.73	3903.43
419.95	4028.35
420.16	3968.96
420.37	3964.87
420.58	4036.55
420.79	3878.85
421.00	3993.54
421.21	4030.40
421.42	4151.23
421.63	4120.51
421.85	4048.83
422.06	4059.07
422.27	4165.57
422.48	4186.05
422.69	4067.27
422.90	4143.04
423.11	4321.21
423.32	4325.31
423.53	4368.32
423.75	4216.77
423.96	4464.57
424.17	4382.65
424.38	4431.80
424.59	4433.85
424.80	4528.06
425.01	4440.00
425.22	4304.83
425.43	4349.89
425.64	4536.25
425.85	4646.84
426.06	4519.87
426.28	4515.77
426.49	4546.49
426.70	4480.96
426.91	4509.63
427.12	4667.32
427.33	4593.59
427.54	4509.63
427.75	4722.62
427.96	4812.73
428.17	4695.99
428.38	4716.47
428.59	4845.49
428.80	4708.28
429.01	4837.30
429.23	4730.81
429.44	4931.51
429.65	4898.74
429.86	5033.91
430.07	4847.54
430.28	4788.15
430.49	4970.42
430.70	5150.64
430.91	5126.07
431.12	4939.70
431.33	5089.20
431.54	5156.79
431.75	5056.43
431.96	5152.69
432.17	5119.92
432.38	5136.31
432.59	5269.42
432.80	5128.11
433.01	5187.50
433.22	5373.87
433.43	5308.34
433.64	5277.62
433.85	5232.56
434.06	5341.10
434.27	5281.71
434.49	5318.57
434.70	5406.64
434.91	5369.77
435.12	5482.41
435.33	5388.21
435.54	5484.46
435.75	5357.49
435.96	5367.73
436.17	5402.54
436.38	5590.95
436.59	5758.89
436.80	5484.46
437.01	5656.49
437.22	5754.79
437.43	5466.03
437.64	5470.12
437.85	5670.83
438.06	5762.98
438.27	5633.96
438.48	5615.53
438.69	5824.42
438.90	5746.60
439.11	5597.10
439.32	5814.18
439.53	5808.04
439.74	5767.08
439.95	5941.16
440.16	5867.43
440.37	5744.55
440.57	5746.60
440.78	5941.16
440.99	5906.34
441.20	5894.05
441.41	5734.31
441.62	5920.68
441.83	5859.24
442.04	5980.07
442.25	6096.80
442.46	6031.27
442.67	6088.61
442.88	6496.16
443.09	5971.88
443.30	6119.33
443.51	6285.22
443.72	6377.37
443.93	6008.74
444.14	6315.94
444.35	6119.33
444.56	6219.68
444.77	6289.31
444.98	6363.04
445.19	6422.43
445.40	6246.30
445.61	6299.55
445.81	6473.63
446.02	6420.38
446.23	6416.29
446.44	6240.16
446.65	6352.80
446.86	6467.49
447.07	6377.37
447.28	6705.05
447.49	6729.63
447.70	6451.10
447.91	6520.73
448.12	6676.38
448.33	6825.88
448.54	6621.08
448.74	6606.75
448.95	6760.34
449.16	6651.80
449.37	6926.23
449.58	6692.76
449.79	6963.09
450.00	6780.82
450.21	6875.03
450.42	6909.85
450.63	6973.33
450.84	6895.51
451.05	6840.22
451.25	7049.11
451.46	6829.98
451.67	7077.78
451.88	7120.79
452.09	7188.37
452.30	6967.19
452.51	7104.40
452.72	7139.22
452.93	7434.13
453.13	7047.06
453.34	7143.32
453.55	7206.80
453.76	7262.10
453.97	7669.64
454.18	7403.41
454.39	7475.09
454.60	7516.05
454.81	7421.84
455.01	7577.48
455.22	7354.26
455.43	7559.05
455.64	7651.21
455.85	7630.73
456.06	7866.25
456.27	7800.71
456.48	7667.60
456.68	7982.98
456.89	7823.24
457.10	7868.30
457.31	7749.51
457.52	7882.63
457.73	7845.77
457.94	8310.66
458.14	7810.95
458.35	8247.17
458.56	8107.91
458.77	8079.24
458.98	8286.08
459.19	8198.02
459.39	8351.62
459.60	8540.03
459.81	8210.31
460.02	8286.08
460.23	8386.43
460.44	8488.83
460.65	8484.73
460.85	8646.52
461.06	8664.96
461.27	8464.25
461.48	8744.83
461.69	8804.22
461.89	8523.65
462.10	8966.01
462.31	8701.82
462.52	8724.35
462.73	8816.51
462.94	9205.62
463.14	8904.57
463.35	8918.90
463.56	9449.33
463.77	9326.45
463.98	9207.67
464.18	9092.98
464.39	9330.55
464.60	9574.25
464.81	9453.42
465.02	9410.42
465.23	9545.58
465.43	9373.55
465.64	9891.69
465.85	9611.12
466.06	9717.61
466.27	10049.38
466.47	9881.45
466.68	9908.07
466.89	9797.48
467.10	10198.88
467.30	10041.19
467.51	10219.36
467.72	10305.38
467.93	10102.63
468.14	10184.55
468.34	10362.72
468.55	10295.14
468.76	10487.65
468.97	10243.94
469.17	10649.44
469.38	10655.58
469.59	10710.88
469.80	10420.06
470.01	10624.86
470.21	10807.13
470.42	11050.84
470.63	10934.11
470.84	11005.78
471.04	11265.88
471.25	11200.34
471.46	11175.77
471.67	11319.12
471.87	11497.30
472.08	11599.70
472.29	11605.84
472.50	11382.61
472.70	11573.07
472.91	11677.52
473.12	11865.93
473.33	11843.40
473.53	12054.34
473.74	11833.16
473.95	12209.99
474.16	12328.77
474.36	12502.85
474.57	12506.95
474.78	12519.23
474.99	12332.87
475.19	12576.58
475.40	12691.26
475.61	12941.11
475.81	12937.02
476.02	13100.86
476.23	12973.88
476.44	13186.87
476.64	13287.22
476.85	13496.11
477.06	13272.89
477.27	13709.10
477.47	13813.55
477.68	13750.06
477.89	13750.06
478.09	13633.33
478.30	13961.00
478.51	13813.55
478.71	14227.24
478.92	14366.50
479.13	14212.90
479.34	14333.73
479.54	14491.43
479.75	14405.41
479.96	14685.98
480.16	14694.18
480.37	14669.60
480.58	14970.65
480.78	15066.91
480.99	14962.46
481.20	15191.83
481.41	15095.58
481.61	15519.51
481.82	15642.39
482.03	15468.31
482.23	15652.63
482.44	15724.30
482.65	15732.50
482.85	15974.16
483.06	15824.65
483.27	16056.08
483.47	16172.81
483.68	16135.95
483.89	16353.03
484.09	16408.33
484.30	16320.26
484.51	16797.44
484.71	16359.17
484.92	16676.61
485.13	16877.31
485.33	16692.99
485.54	16969.47
485.75	17164.03
485.95	17172.22
486.16	17307.38
486.37	17399.54
486.57	17323.77
486.78	17579.76
486.98	17510.13
487.19	17719.03
487.40	17848.05
487.60	17749.75
487.81	18042.60
488.02	17811.18
488.22	17903.34
488.43	18194.15
488.64	18290.41
488.84	18439.91
489.05	18495.21
489.25	18050.80
489.46	18890.46
489.67	18853.60
489.87	18984.67
490.08	18927.33
490.29	19066.59
490.49	19371.74
490.70	19234.52
490.90	19338.97
491.11	19623.64
491.32	19412.70
491.52	19513.05
491.73	19633.88
491.94	19533.53
492.14	19705.56
492.35	19871.44
492.55	19912.40
492.76	19853.01
492.97	20147.92
493.17	20365.00
493.38	20358.86
493.58	20631.24
493.79	20504.26
494.00	20590.28
494.20	20805.31
494.41	20805.31
494.61	20766.40
494.82	20790.98
495.02	20747.97
495.23	21120.70
495.44	20946.62
495.64	21286.59
495.85	21327.55
496.05	21614.26
496.26	21778.10
496.47	21747.38
496.67	21487.29
496.88	21780.15
497.08	21669.56
497.29	22261.42
497.49	21882.55
497.70	22165.17
497.91	22159.02
498.11	22136.49
498.32	22412.97
498.52	22435.50
498.73	22777.51
498.93	22630.05
499.14	22406.83
499.34	22576.81
499.55	22933.15
499.76	22699.69
499.96	22849.19
500.17	22830.76
500.37	23176.86
500.58	23041.70
500.78	23029.41
500.99	22838.95
501.19	23234.21
501.40	23287.45
501.60	23158.43
501.81	23531.16
502.02	23430.81
502.22	23471.77
502.43	23637.66
502.63	24098.45
502.84	24000.15
503.04	24030.87
503.25	24041.11
503.45	24080.02
503.66	24305.29
503.86	24456.84
504.07	24557.19
504.27	24247.95
504.48	24780.42
504.68	24540.81
504.89	24870.53
505.09	24843.91
505.30	24694.41
505.50	24727.17
505.71	24829.57
505.91	24819.33
506.12	24819.33
506.32	24942.21
506.53	25040.51
506.73	25134.72
506.94	25411.20
507.14	25380.48
507.35	25302.65
507.55	25605.75
507.76	25478.78
507.96	25376.38
508.17	25646.71
508.37	25450.11
508.58	25529.98
508.78	25896.56
508.99	26029.68
509.19	25949.81
509.40	26011.25
509.60	26152.56
509.81	25859.70
510.01	26203.76
510.22	25917.04
510.42	26078.83
510.63	26349.17
510.83	26207.86
511.04	26369.65
511.24	26465.90
511.44	26463.85
511.65	26644.07
511.85	26408.56
512.06	26508.91
512.26	26609.26
512.47	27057.76
512.67	27029.09
512.88	26936.93
513.08	26431.08
513.29	26766.95
513.49	27180.64
513.69	26777.19
513.90	26963.56
514.10	27137.63
514.31	27139.68
514.51	27367.01
514.72	27027.04
514.92	27113.06
515.13	27250.27
515.33	27274.85
515.53	27414.11
515.74	27606.62
515.94	27403.87
516.15	27565.66
516.35	27295.33
516.56	27942.49
516.76	27512.41
516.96	27565.66
517.17	28098.13
517.37	27897.43
517.58	28139.09
517.78	28329.55
517.99	28188.24
518.19	28307.02
518.39	28315.22
518.60	28040.79
518.80	28358.22
519.01	28399.18
519.21	28481.10
519.41	28755.53
519.62	28479.05
519.82	28681.80
520.03	28888.65
520.23	28587.60
520.43	28689.99
520.64	29115.97
520.84	29214.27
521.05	29142.60
521.25	29343.30
521.45	29085.25
521.66	29443.65
521.86	29390.40
522.07	29029.96
522.27	29365.82
522.47	29396.54
522.68	29789.75
522.88	29419.07
523.08	30338.61
523.29	29642.30
523.49	29826.62
523.70	30043.70
523.90	30197.30
524.10	30191.16
524.31	30342.70
524.51	30129.72
524.71	30400.05
524.92	30424.62
525.12	30629.42
525.33	30715.44
525.53	30674.48
525.73	30811.69
525.94	30674.48
526.14	30789.16
526.34	31092.26
526.55	31010.34
526.75	30932.52
526.95	31438.37
527.16	31178.28
527.36	31249.96
527.56	31669.79
527.77	31714.84
527.97	31882.78
528.17	31821.34
528.38	31467.04
528.58	31784.48
528.78	31888.92
528.99	31940.12
529.19	32445.97
529.39	32292.37
529.60	32118.29
529.80	32052.76
530.00	32386.58
530.21	32775.69
530.41	32597.52
530.61	32531.98
530.82	32929.29
531.02	32755.21
531.22	33140.23
531.43	33109.51
531.63	32960.01
531.83	33377.79
532.04	33572.35
532.24	33142.28
532.44	33689.09
532.64	33748.48
532.85	33861.12
533.05	33754.62
533.25	33580.54
533.46	33975.80
533.66	34037.24
533.86	34285.04
534.07	34385.40
534.27	34330.10
534.47	34364.92
534.67	34543.09
534.88	34375.16
535.08	34526.71
535.28	34919.92
535.49	34905.58
535.69	35423.72
535.89	35309.03
536.09	35198.44
536.30	35587.55
536.50	35259.88
536.70	35784.16
536.91	35515.87
537.11	35479.01
537.31	35679.71
537.51	35501.54
537.72	36222.42
537.92	36335.06
538.12	36488.66
538.32	35849.69
538.53	36296.15
538.73	36191.70
538.93	36459.99
539.13	36201.94
539.34	36316.63
539.54	36693.46
539.74	36935.12
539.94	36867.53
540.15	36771.28
540.35	37172.68
540.55	36990.41
540.75	36840.91
540.96	37053.90
541.16	36939.21
541.36	37377.48
541.56	37105.10
541.77	37750.21
541.97	37375.43
542.17	37758.40
542.37	37680.58
542.58	37950.91
542.78	37852.61
542.98	37866.94
543.18	37920.19
543.38	38538.68
543.59	38241.72
543.79	37563.84
543.99	38454.71
544.19	38653.36
544.40	38360.50
544.60	38907.31
544.80	38481.33
545.00	38524.34
545.20	39024.04
545.41	38722.99
545.61	38741.42
545.81	39368.10
546.01	39194.03
546.21	39048.62
546.42	39062.96
546.62	39085.48
546.82	38921.65
547.02	39429.54
547.22	39515.56
547.43	39124.40
547.63	39497.13
547.83	39765.41
548.03	39101.87
548.23	39783.84
548.44	39746.98
548.64	39771.55
548.84	39781.79
549.04	39771.55
549.24	39982.49
549.45	40441.24
549.65	40048.03
549.85	40250.78
550.05	40385.94
550.25	40574.36
550.45	40424.86
550.66	40543.64
550.86	39998.88
551.06	40586.64
551.26	40527.25
551.46	40662.42
551.66	40744.34
551.87	40596.88
552.07	40648.08
552.27	40816.02
552.47	41080.21
552.67	41182.60
552.87	40818.07
553.07	41059.73
553.28	40721.81
553.48	41317.77
553.68	41090.44
553.88	41411.98
554.08	41194.89
554.28	41356.68
554.48	41352.58
554.69	41225.61
554.89	41323.91
555.09	41432.46
555.29	41235.85
555.49	41688.45
555.69	41588.10
555.89	41620.87
556.10	41532.81
556.30	41510.28
556.50	41801.09
556.70	41973.12
556.90	41981.31
557.10	42018.17
557.30	41653.64
557.50	42036.61
557.70	41876.86
557.91	42063.23
558.11	41864.58
558.31	42509.69
558.51	41811.33
558.71	42249.60
558.91	41930.11
559.11	42184.06
559.31	42454.39
559.51	42134.91
559.72	42128.77
559.92	42476.92
560.12	42050.94
560.32	42104.19
560.52	42071.42
560.72	42321.27
560.92	42562.93
561.12	42308.99
561.32	43134.32
561.52	42294.65
561.72	43275.63
561.93	42603.89
562.13	42708.34
562.33	43025.78
562.53	43183.47
562.73	42317.18
562.93	42433.91
563.13	42876.27
563.33	42978.67
563.53	43138.41
563.73	42782.07
563.93	43126.13
564.13	43578.73
564.33	43103.60
564.53	42933.62
564.74	43601.25
564.94	42784.12
565.14	42976.62
565.34	42874.23
565.54	43224.43
565.74	43236.72
565.94	43726.18
566.14	43474.28
566.34	43390.31
566.54	43642.21
566.74	43355.50
566.94	43582.82
567.14	43904.35
567.34	43658.60
567.54	43720.04
567.74	43689.32
567.94	43423.08
568.14	43869.54
568.34	43717.99
568.54	43631.97
568.74	43701.61
568.94	43797.86
569.14	44234.08
569.34	43918.69
569.54	43912.55
569.75	43953.51
569.95	43894.11
570.15	44215.65
570.35	44019.04
570.55	44217.69
570.75	44250.46
570.95	44336.48
571.15	44531.03
571.35	44270.94
571.55	44598.62
571.75	44094.82
571.95	44864.85
572.15	44420.44
572.35	44221.79
572.55	44533.08
572.75	44379.48
572.95	44539.22
573.15	45057.36
573.35	44629.34
573.55	44602.71
573.75	44760.40
573.95	44893.52
574.15	44442.97
574.35	44983.63
574.55	44989.78
574.75	44754.26
574.95	44873.04
575.15	45364.56
575.34	44918.10
575.54	45591.88
575.74	45317.45
575.94	45358.41
576.14	45245.77
576.34	45731.14
576.54	45868.36
576.74	45856.07
576.94	45466.95
577.14	45759.81
577.34	45925.70
577.54	45839.68
577.74	45530.44
577.94	45950.27
578.14	45974.85
578.34	45968.71
578.54	45483.34
578.74	46273.85
578.94	46138.69
579.14	46118.21
579.34	46306.62
579.54	46179.65
579.74	46687.54
579.94	46667.06
580.13	46587.19
580.33	46343.48
580.53	46470.46
580.73	46923.06
580.93	46789.94
581.13	46454.08
581.33	46955.83
581.53	46951.73
581.73	46957.88
581.93	47193.39
582.13	46609.72
582.33	47291.69
582.53	46873.91
582.73	47334.70
582.92	47574.31
583.12	47404.33
583.32	47473.96
583.52	47019.31
583.72	47521.07
583.92	47512.88
584.12	47473.96
584.32	48071.97
584.52	47412.52
584.72	47578.41
584.92	48035.11
585.11	48321.82
585.31	47822.12
585.51	48020.77
585.71	48004.39
585.91	48760.09
586.11	48057.63
586.31	47938.85
586.51	48014.63
586.71	48321.82
586.91	48500.00
587.10	48387.36
587.30	48354.59
587.50	48874.77
587.70	49057.04
587.90	48700.70
588.10	48934.17
588.30	48874.77
588.50	48663.83
588.69	48876.82
588.89	48696.60
589.09	48807.19
589.29	48715.03
589.49	49427.73
589.69	49098.00
589.89	49042.71
590.08	49261.84
590.28	49005.84
590.48	49759.50
590.68	49425.68
590.88	49329.42
591.08	49108.24
591.28	49155.35
591.47	49569.04
591.67	49554.70
591.87	49949.96
592.07	49583.37
592.27	49517.84
592.47	49792.26
592.67	49982.73
592.86	49759.50
593.06	50271.49
593.26	49831.18
593.46	49915.14
593.66	50203.91
593.86	49716.49
594.05	50132.23
594.25	50306.30
594.45	50177.28
594.65	49986.82
594.85	50183.43
595.05	50554.11
595.24	50513.15
595.44	50537.72
595.64	50255.11
595.84	50470.14
596.04	50808.06
596.23	50484.48
596.43	50795.77
596.63	50437.37
596.83	50412.80
597.03	51072.24
597.22	51066.10
597.42	50828.54
597.62	50967.80
597.82	51072.24
598.02	51092.72
598.21	51508.46
598.41	51148.02
598.61	51567.85
598.81	51000.57
599.01	51297.52
599.20	51272.95
599.40	51590.38
599.60	51637.48
599.80	51354.86
600.00	51905.77
600.19	51752.17
600.39	51502.32
600.59	51909.86
600.79	51827.95
600.98	51844.33
601.18	51504.37
601.38	51975.40
601.58	51981.54
601.78	52057.32
601.97	51614.96
602.17	52675.80
602.37	52284.64
602.57	52354.27
602.76	52444.38
602.96	51660.01
603.16	52739.29
603.36	52413.66
603.55	52593.89
603.75	52260.07
603.95	52475.10
604.15	52391.14
604.34	52401.38
604.54	53359.83
604.74	52790.49
604.94	52933.85
605.13	53089.49
605.33	53159.12
605.53	52460.77
605.73	52933.85
605.92	52389.09
606.12	53419.22
606.32	53249.24
606.52	53030.10
606.71	52995.29
606.91	53179.60
607.11	53058.77
607.30	53402.83
607.50	52962.52
607.70	53400.79
607.90	53462.22
608.09	53122.26
608.29	53302.48
608.49	53748.94
608.68	53261.52
608.88	53449.94
609.08	53564.62
609.28	53419.22
609.47	53572.81
609.67	54064.33
609.87	53144.79
610.06	53601.49
610.26	53550.29
610.46	53742.80
610.66	53544.14
610.85	54047.94
611.05	53501.14
611.25	53916.87
611.44	53724.36
611.64	53699.79
611.84	53677.26
612.03	54043.85
612.23	53951.69
612.43	53951.69
612.62	53664.97
612.82	54029.51
613.02	54099.14
613.21	54359.23
613.41	53900.49
613.61	54109.38
613.80	53847.24
614.00	53748.94
614.20	53851.34
614.39	54348.99
614.59	54187.21
614.79	53990.60
614.98	53867.72
615.18	54080.71
615.38	53877.96
615.57	53638.35
615.77	54330.56
615.97	54240.45
616.16	54049.99
616.36	53931.21
616.56	53978.31
616.75	53832.91
616.95	54097.09
617.15	54168.77
617.34	53781.71
617.54	54052.04
617.74	54318.28
617.93	54291.65
618.13	53728.46
618.32	54428.87
618.52	54009.03
618.72	54121.67
618.91	54297.80
619.11	54019.27
619.31	54148.29
619.50	53826.76
619.70	53552.33
619.90	53943.50
620.09	53808.33
620.29	54244.55
620.48	53783.76
620.68	54303.94
620.88	53673.16
621.07	54078.66
621.27	54027.46
621.46	53867.72
621.66	54144.20
621.86	54029.51
622.05	53834.95
622.25	54189.25
622.44	53892.30
622.64	54045.90
622.84	54093.00
623.03	53867.72
623.23	53929.16
623.42	53937.35
623.62	53839.05
623.82	54107.33
624.01	54113.48
624.21	54490.30
624.40	54332.61
624.60	54179.01
624.80	54183.11
624.99	53900.49
625.19	53796.04
625.38	53562.57
625.58	54084.81
625.77	54006.98
625.97	54140.10
626.17	54027.46
626.36	53875.91
626.56	54095.05
626.75	53646.54
626.95	54109.38
627.14	54293.70
627.34	54375.62
627.54	53785.80
627.73	54127.81
627.93	54117.57
628.12	54129.86
628.32	54207.68
628.51	54293.70
628.71	53957.83
628.90	54252.74
629.10	53763.28
629.30	53847.24
629.49	54039.75
629.69	54336.71
629.88	53904.59
630.08	54076.61
630.27	54379.71
630.47	54392.00
630.66	54097.09
630.86	54160.58
631.05	53654.73
631.25	54617.28
631.44	54281.41
631.64	54408.39
631.84	54138.05
632.03	54457.54
632.23	54338.75
632.42	54465.73
632.62	54592.70
632.81	53994.70
633.01	54412.48
633.20	54404.29
633.40	54318.28
633.59	54359.23
633.79	53949.64
633.98	54420.67
634.18	54705.34
634.37	54371.52
634.57	54404.29
634.76	55080.12
634.96	54459.58
635.15	54822.08
635.35	53839.05
635.54	54068.42
635.74	54924.47
635.93	54738.11
636.13	54985.91
636.32	54932.67
636.52	54277.32
636.71	54256.84
636.91	54627.52
637.10	54990.01
637.30	54998.20
637.49	54586.56
637.69	54064.33
637.88	54740.16
638.08	54797.50
638.27	54711.49
638.46	54469.82
638.66	54523.07
638.85	54502.59
639.05	55317.68
639.24	55454.90
639.44	54916.28
639.63	54820.03
639.83	55018.68
640.02	54734.01
640.22	54809.79
640.41	55231.67
640.61	54535.36
640.80	54887.61
640.99	54977.72
641.19	55147.70
641.38	54826.17
641.58	54789.31
641.77	55063.74
641.97	55008.44
642.16	55176.37
642.36	55149.75
642.55	55280.82
642.74	54871.23
642.94	54998.20
643.13	55155.89
643.33	55399.60
643.52	55450.80
643.72	55237.81
643.91	55397.55
644.10	55559.34
644.30	55903.40
644.49	54850.75
644.69	55352.50
644.88	55346.36
645.08	55473.33
645.27	55628.98
645.46	55415.99
645.66	55864.49
645.85	55004.34
646.05	55321.78
646.24	55491.76
646.43	55530.67
646.63	55684.27
646.82	55504.05
647.02	55764.14
647.21	56110.25
647.40	55825.58
647.60	55852.20
647.79	55702.70
647.99	55833.77
648.18	55657.65
648.37	56253.61
648.57	55817.39
648.76	56032.42
648.96	55452.85
649.15	55866.54
649.34	56147.11
649.54	56095.91
649.73	55821.48
649.92	56263.85
650.12	55858.35
650.31	56102.06
650.51	55946.41
650.70	56116.39
650.89	55790.76
651.09	56607.90
651.28	56251.56
651.47	56143.02
651.67	56247.46
651.86	56800.41
652.06	55671.98
652.25	56399.01
652.44	56151.21
652.64	55827.63
652.83	56081.58
653.02	55796.91
653.22	56216.74
653.41	56149.16
653.60	56407.20
653.80	55997.61
653.99	56579.23
654.18	55973.03
654.38	56065.19
654.57	56562.85
654.76	56196.26
654.96	56231.08
655.15	56097.96
655.34	56114.34
655.54	56614.05
655.73	56177.83
655.92	56827.04
656.12	56073.38
656.31	56509.60
656.50	56163.50
656.70	56278.18
656.89	56302.76
657.08	56251.56
657.28	56603.81
657.47	56188.07
657.66	56439.97
657.86	56470.69
658.05	56501.41
658.24	56489.12
658.43	56155.30
658.63	56767.65
658.82	56568.99
659.01	57021.59
659.21	56712.35
659.40	56618.14
659.59	56339.62
659.79	56843.42
659.98	56923.29
660.17	56521.89
660.36	56194.21
660.56	56568.99
660.75	56743.07
660.94	56788.13
661.14	56259.75
661.33	56685.73
661.52	56034.47
661.71	56861.85
661.91	56548.51
662.10	56544.42
662.29	56751.26
662.49	56407.20
662.68	56472.74
662.87	56620.19
663.06	56773.79
663.26	56341.67
663.45	56482.98
663.64	56386.72
663.83	57162.90
664.03	56743.07
664.22	56648.86
664.41	56794.27
664.60	56370.34
664.80	57072.79
664.99	56448.16
665.18	56855.71
665.37	56601.76
665.57	56675.49
665.76	56077.48
665.95	56665.25
666.14	56573.09
666.34	56743.07
666.53	56472.74
666.72	56407.20
666.91	56304.80
667.11	56210.60
667.30	56431.78
667.49	56501.41
667.68	56745.12
667.87	56216.74
668.07	56435.87
668.26	56433.83
668.45	56042.66
668.64	56345.76
668.84	57185.43
669.03	56808.61
669.22	56435.87
669.41	56560.80
669.60	56530.08
669.80	56446.11
669.99	56464.55
670.18	56384.68
670.37	56433.83
670.57	56542.37
670.76	56177.83
670.95	56741.02
671.14	56439.97
671.33	56145.06
671.53	56994.97
671.72	56437.92
671.91	56202.41
672.10	56034.47
672.29	56372.39
672.48	56233.13
672.68	56433.83
672.87	56345.76
673.06	56251.56
673.25	56048.81
673.44	55936.17
673.64	56036.52
673.83	55829.68
674.02	55909.55
674.21	55438.51
674.40	56253.61
674.59	55831.72
674.79	55891.12
674.98	55884.97
675.17	56294.56
675.36	55774.38
675.55	56118.44
675.74	55932.07
675.94	55733.42
676.13	55772.33
676.32	56308.90
676.51	56413.35
676.70	55985.32
676.89	56126.63
677.08	55917.74
677.28	55565.49
677.47	56169.64
677.66	56067.24
677.85	55995.56
678.04	56374.44
678.23	56192.17
678.42	55917.74
678.62	55942.31
678.81	55903.40
679.00	55547.06
679.19	56448.16
679.38	56034.47
679.57	55651.50
679.76	55751.85
679.96	55637.17
680.15	56161.45
680.34	55559.34
680.53	55573.68
680.72	56038.57
680.91	55997.61
681.10	55698.61
681.29	55790.76
681.48	55385.27
681.68	55555.25
681.87	55336.12
682.06	55641.26
682.25	55069.88
682.44	55688.37
682.63	55717.04
682.82	55418.03
683.01	55567.54
683.20	55252.15
683.39	55254.20
683.59	55205.05
683.78	55342.26
683.97	55203.00
684.16	55043.26
684.35	55348.40
684.54	55057.59
684.73	55491.76
684.92	55254.20
685.11	55063.74
685.30	55096.50
685.49	55432.37
685.69	55583.92
685.88	55030.97
686.07	55223.48
686.26	54842.56
686.45	55284.92
686.64	55280.82
686.83	54875.32
687.02	55129.27
687.21	55499.95
687.40	54867.13
687.59	54981.82
687.78	54977.72
687.97	55317.68
688.16	54949.05
688.35	54916.28
688.54	54516.93
688.74	55227.57
688.93	54449.35
689.12	54942.91
689.31	54887.61
689.50	55028.92
689.69	54482.11
689.88	54088.90
690.07	54914.23
690.26	54441.15
690.45	55024.82
690.64	54494.40
690.83	54514.88
691.02	54334.66
691.21	54623.42
691.40	54580.42
691.59	54353.09
691.78	54328.52
691.97	54195.40
692.16	54613.18
692.35	54781.12
692.54	54412.48
692.73	54779.07
692.92	54373.57
693.11	54535.36
693.30	54383.81
693.49	54338.75
693.68	54086.85
693.87	54164.68
694.06	53920.97
694.25	54009.03
694.44	53814.47
694.63	54310.08
694.82	54164.68
695.01	54052.04
695.20	53908.68
695.39	53851.34
695.58	53877.96
695.77	53867.72
695.96	54004.94
696.15	54172.87
696.34	54035.66
696.53	54105.29
696.72	53847.24
696.91	54033.61
697.10	54326.47
697.29	53458.13
697.48	54060.23
697.67	53796.04
697.86	53550.29
698.05	53699.79
698.24	54002.89
698.43	53433.55
698.62	53695.69
698.81	53533.90
699.00	53875.91
699.19	53556.43
699.38	53875.91
699.57	53122.26
699.76	54318.28
699.95	53480.66
700.14	53509.33
700.32	53468.37
700.51	53212.37
700.70	53644.49
700.89	53581.01
701.08	53687.50
701.27	53195.99
701.46	53648.59
701.65	53212.37
701.84	53368.02
702.03	53099.73
702.22	53126.36
702.41	53060.82
702.60	53443.79
702.79	53038.29
702.98	52712.67
703.17	53335.25
703.35	53036.25
703.54	53157.08
703.73	53163.22
703.92	53204.18
704.11	52970.71
704.30	52700.38
704.49	52716.76
704.68	52706.52
704.87	52921.56
705.06	53120.21
705.25	52935.90
705.43	53157.08
705.62	52772.06
705.81	52704.48
706.00	52866.27
706.19	52376.80
706.38	52651.23
706.57	52581.60
706.76	52540.64
706.95	52368.61
707.14	52436.19
707.32	52298.98
707.51	52325.60
707.70	52507.87
707.89	52798.68
708.08	52423.90
708.27	52442.34
708.46	52827.35
708.65	52585.69
708.84	52743.39
709.02	52630.75
709.21	52503.77
709.40	52577.50
709.59	52401.38
709.78	52110.56
709.97	52616.41
710.16	52417.76
710.34	52169.96
710.53	52614.37
710.72	51840.23
710.91	52395.23
711.10	52403.42
711.29	52319.46
711.48	52423.90
711.66	51627.24
711.85	52016.36
712.04	52085.99
712.23	52090.09
712.42	52010.21
712.61	52055.27
712.80	52069.61
712.98	51934.44
713.17	51936.49
713.36	51873.00
713.55	52268.26
713.74	51803.37
713.93	51537.13
714.11	51801.32
714.30	51387.63
714.49	52088.04
714.68	51461.36
714.87	52092.13
715.06	51916.01
715.24	51574.00
715.43	51741.93
715.62	51840.23
715.81	51432.69
716.00	51373.30
716.18	51272.95
716.37	51209.46
716.56	50900.22
716.75	51518.70
716.94	51477.74
717.12	50806.01
717.31	51477.74
717.50	51150.07
717.69	51201.27
717.88	51070.20
718.06	51062.00
718.25	51610.86
718.44	50924.79
718.63	51264.75
718.82	50763.00
719.00	51162.36
719.19	50699.51
719.38	50851.06
719.57	50504.96
719.76	50453.76
719.94	50001.16
720.13	49779.98
720.32	50191.62
720.51	50519.29
720.69	50132.23
720.88	49749.26
721.07	50396.42
721.26	50291.97
721.44	50148.61
721.63	49947.91
721.82	49501.45
722.01	49368.33
722.20	50539.77
722.38	49552.65
722.57	49782.02
722.76	50001.16
722.95	50005.25
723.13	49736.97
723.32	49345.81
723.51	49026.32
723.70	49239.31
723.88	49409.29
724.07	49007.89
724.26	49538.32
724.44	48973.08
724.63	49315.09
724.82	49536.27
725.01	49407.25
725.19	49259.79
725.38	49186.07
725.57	49036.56
725.76	49331.47
725.94	49022.23
726.13	48928.02
726.32	49067.28
726.51	48526.62
726.69	49071.38
726.88	48991.51
727.07	48616.73
727.25	48508.19
727.44	48473.37
727.63	48903.45
727.82	48411.93
728.00	48835.86
728.19	48768.28
728.38	49085.72
728.56	48342.30
728.75	48831.77
728.94	48602.39
729.12	49292.56
729.31	48803.10
729.50	48850.20
729.69	48846.10
729.87	48313.63
730.06	48334.11
730.25	48725.27
730.43	48809.24
730.62	48344.35
730.81	48526.62
730.99	48571.67
731.18	48217.38
731.37	48491.80
731.55	48512.28
731.74	48665.88
731.93	48641.31
732.11	48473.37
732.30	48637.21
732.49	48395.55
732.67	48436.51
732.86	48653.59
733.05	48586.01
733.23	48006.44
733.42	48690.46
733.61	48338.21
733.79	48524.57
733.98	48543.00
734.17	48188.70
734.35	48031.01
734.54	48434.46
734.73	48606.49
734.91	48280.86
735.10	47822.12
735.29	48178.46
735.47	48235.81
735.66	48110.88
735.84	48231.71
736.03	48373.02
736.22	48461.08
736.40	48096.55
736.59	48332.06
736.78	48018.72
736.96	47858.98
737.15	47748.39
737.33	47588.65
737.52	47494.44
737.71	47453.48
737.89	47732.01
738.08	47615.27
738.27	47736.10
738.45	47869.22
738.64	47721.77
738.82	47592.75
739.01	47826.21
739.20	47365.42
739.38	47316.27
739.57	48145.70
739.75	47570.22
739.94	47523.11
740.13	47494.44
740.31	47177.01
740.50	47322.41
740.68	47242.54
740.87	47531.31
741.06	47412.52
741.24	47367.47
741.43	47097.14
741.61	47361.33
741.80	47136.05
741.99	46918.96
742.17	46693.69
742.36	47068.47
742.54	47129.90
742.73	46769.46
742.91	47002.93
743.10	46495.03
743.29	46791.99
743.47	46959.92
743.66	46658.87
743.84	46933.30
744.03	47113.52
744.21	46542.14
744.40	47131.95
744.59	46484.79
744.77	46269.76
744.96	46626.10
745.14	46517.56
745.33	46900.53
745.51	46665.02
745.70	46462.27
745.88	46603.58
746.07	46574.91
746.26	46304.57
746.44	46376.25
746.63	46261.57
746.81	46325.05
747.00	46269.76
747.18	46153.02
747.37	46404.92
747.55	46320.96
747.74	46472.51
747.92	46089.54
748.11	46187.84
748.29	46099.78
748.48	46382.40
748.66	46050.63
748.85	45856.07
749.03	45729.09
749.22	46015.81
749.41	45397.32
749.59	46175.55
749.78	45665.61
749.96	45290.83
750.15	45782.34
750.33	45706.57
750.52	45301.07
750.70	45579.59
750.89	45241.68
751.07	45256.01
751.26	45346.12
751.44	45122.90
751.63	45307.21
751.81	45090.13
752.00	44901.71
752.18	45266.25
752.37	44930.39
752.55	44717.40
752.74	44840.28
752.92	44883.28
753.10	44774.74
753.29	45006.16
753.47	44858.71
753.66	44631.38
753.84	45151.57
754.03	44836.18
754.21	44782.93
754.40	44819.80
754.58	44643.67
754.77	44457.31
754.95	44471.64
755.14	44477.79
755.32	44262.75
755.51	44090.72
755.69	44062.05
755.88	44205.41
756.06	44166.49
756.24	44307.80
756.43	44084.58
756.61	44221.79
756.80	44279.13
756.98	44141.92
757.17	44086.62
757.35	44037.47
757.54	43810.15
757.72	43869.54
757.90	43814.24
758.09	43705.70
758.27	43674.98
758.46	43648.36
758.64	43617.64
758.83	44121.44
759.01	43640.17
759.19	43713.89
759.38	43578.73
759.56	44088.67
759.75	43275.63
759.93	43894.11
760.12	43203.95
760.30	43480.42
760.48	43236.72
760.67	43369.83
760.85	43605.35
761.04	43564.39
761.22	43185.52
761.40	43152.75
761.59	43095.41
761.77	42628.47
761.96	42755.44
762.14	42890.61
762.32	42669.43
762.51	42513.78
762.69	42866.03
762.88	42974.58
763.06	42753.40
763.24	42747.25
763.43	42677.62
763.61	42829.17
763.80	42610.04
763.98	42319.23
764.16	42689.91
764.35	42628.47
764.53	41934.21
764.72	42388.86
764.90	42249.60
765.08	42130.81
765.27	41969.02
765.45	42032.51
765.63	41721.22
765.82	42540.41
766.00	41414.02
766.18	42390.91
766.37	42405.24
766.55	41956.74
766.74	42581.37
766.92	41827.71
767.10	41706.88
767.29	41870.72
767.47	41571.72
767.65	41817.47
767.84	41170.32
768.02	41409.93
768.20	41137.55
768.39	41608.58
768.57	41735.56
768.75	41414.02
768.94	41448.84
769.12	41213.32
769.30	41076.11
769.49	41055.63
769.67	40930.70
769.85	40920.46
770.04	41149.84
770.22	40568.21
770.40	40752.53
770.59	40596.88
770.77	40908.18
770.95	41006.48
771.14	40162.72
771.32	40549.78
771.50	40308.12
771.69	40275.35
771.87	40830.35
772.05	40551.83
772.24	40318.36
772.42	40236.44
772.60	40754.58
772.78	39802.27
772.97	39865.76
773.15	40469.91
773.33	40103.32
773.52	39933.34
773.70	40359.32
773.88	40408.47
774.07	40310.17
774.25	40164.76
774.43	40445.33
774.61	40162.72
774.80	40177.05
774.98	40445.33
775.16	40398.23
775.34	40054.17
775.53	40007.07
775.71	40580.50
775.89	40701.33
776.08	40195.48
776.26	40750.48
776.44	40189.34
776.62	40654.23
776.81	40273.31
776.99	40461.72
777.17	40584.60
777.35	40414.62
777.54	40891.79
777.72	39755.17
777.90	40457.62
778.08	40777.11
778.27	40240.54
778.45	40617.36
778.63	41127.31
778.81	40381.85
779.00	41026.96
779.18	40738.19
779.36	40947.09
779.54	40517.01
779.73	40830.35
779.91	41074.06
780.09	40344.98
780.27	40994.19
780.46	41010.57
780.64	41307.53
780.82	40930.70
781.00	41127.31
781.19	40879.50
781.37	41190.80
781.55	41084.30
781.73	41629.06
781.91	41313.67
782.10	40998.29
782.28	41258.38
782.46	41334.15
782.64	41379.21
782.82	40789.39
783.01	41371.02
783.19	41366.92
783.37	41420.17
783.55	41375.11
783.74	41358.73
783.92	41241.99
784.10	41807.23
784.28	41389.45
784.46	41033.10
784.64	41285.00
784.83	41182.60
785.01	41588.10
785.19	41135.50
785.37	41514.37
785.55	41448.84
785.74	41217.42
785.92	40811.92
786.10	41317.77
786.28	41039.25
786.46	41184.65
786.64	41145.74
786.83	40682.90
787.01	41563.53
787.19	41528.71
787.37	40758.67
787.55	41104.78
787.74	40586.64
787.92	40904.08
788.10	40990.09
788.28	40510.87
788.46	40850.83
788.64	40525.21
788.82	40996.24
789.01	40654.23
789.19	40957.33
789.37	40500.63
789.55	40703.38
789.73	40588.69
789.91	40230.30
790.09	40654.23
790.28	40351.13
790.46	40154.52
790.64	40619.41
790.82	40324.50
791.00	40168.86
791.18	39962.01
791.36	39849.38
791.55	39617.96
791.73	40152.48
791.91	39503.27
792.09	39880.10
792.27	39656.87
792.45	39648.68
792.63	39480.74
792.81	39275.94
793.00	39468.45
793.18	39208.36
793.36	39169.45
793.54	39079.34
793.72	38983.09
793.90	39126.44
794.08	38978.99
794.26	39349.67
794.44	38487.48
794.62	38665.65
794.81	39069.10
794.99	38397.37
795.17	38460.85
795.35	38497.72
795.53	38243.77
795.71	38790.58
795.89	38438.33
796.07	38010.30
796.25	38249.91
796.43	37928.38
796.61	37569.99
796.80	37320.13
796.98	37973.44
797.16	37477.83
797.34	37418.44
797.52	37807.55
797.70	37660.10
797.88	37672.39
798.06	37502.40
798.24	37268.94
798.42	37436.87
798.60	37479.88
798.78	37410.25
798.96	37318.09
799.14	36660.69
799.32	36978.12
799.51	36601.30
799.69	36902.35
799.87	36742.61
800.05	36318.68
800.23	36910.54
800.41	36451.80
800.59	36515.28
800.77	36318.68
800.95	36066.78
801.13	36384.21
801.31	35948.00
801.49	36021.72
801.67	35585.50
801.85	35878.36
802.03	35476.96
802.21	35800.54
802.39	35544.55
802.57	35317.22
802.75	35565.03
802.93	35323.36
803.11	35534.31
803.29	35091.94
803.47	34926.06
803.65	34838.00
803.83	35044.84
804.01	35081.70
804.19	34866.67
804.37	34385.40
804.55	35184.10
804.73	34872.81
804.91	34616.82
805.09	34475.51
805.27	34412.02
805.45	34762.22
805.63	34612.72
805.81	34561.52
805.99	34498.03
806.17	34264.57
806.35	34430.45
806.53	34219.51
806.71	34119.16
806.89	34070.01
807.07	33986.04
807.25	33918.46
807.43	33723.90
807.61	34063.86
807.79	33580.54
807.97	33453.57
808.15	33021.45
808.33	33644.03
808.51	33512.96
808.69	33076.74
808.87	33291.78
809.05	33003.02
809.23	32806.41
809.41	32618.00
809.59	32775.69
809.77	33193.48
809.95	32773.64
810.13	32976.39
810.31	32566.80
810.49	32663.05
810.67	32581.13
810.84	32787.98
811.02	32654.86
811.20	32275.99
811.38	32521.74
811.56	32114.20
811.74	32456.21
811.92	31983.13
812.10	32206.36
812.28	32505.36
812.46	32235.03
812.64	32204.31
812.82	31796.76
813.00	31890.97
813.18	31866.39
813.36	31708.70
813.53	31741.47
813.71	31530.53
813.89	31673.88
814.07	31872.54
814.25	31628.83
814.43	31426.08
814.61	31591.97
814.79	31462.94
814.97	31051.30
815.15	31290.91
815.33	31120.93
815.50	30848.55
815.68	30926.38
815.86	31292.96
816.04	31161.89
816.22	30678.57
816.40	30883.37
816.58	30959.14
816.76	30737.96
816.94	30909.99
817.11	30508.59
817.29	30457.39
817.47	30621.23
817.65	30352.94
817.83	30418.48
818.01	30297.65
818.19	30369.33
818.37	30619.18
818.54	30170.68
818.72	30121.52
818.90	30068.28
819.08	30033.46
819.26	29957.69
819.44	29732.41
819.62	29814.33
819.80	29877.82
819.97	30015.03
820.15	29627.96
820.33	29394.50
820.51	29505.09
820.69	29554.24
820.87	29496.89
821.05	29658.68
821.22	29490.75
821.40	29257.28
821.58	29296.19
821.76	29093.44
821.94	29171.27
822.12	29247.04
822.29	29310.53
822.47	29242.95
822.65	29453.89
822.83	29328.96
823.01	29193.79
823.19	28737.10
823.36	28900.94
823.54	28704.33
823.72	28845.64
823.90	28765.77
824.08	28636.75
824.25	28806.73
824.43	28571.21
824.61	28507.72
824.79	28718.67
824.97	28532.30
825.15	28704.33
825.32	28429.90
825.50	28065.36
825.68	28264.02
825.86	28329.55
826.04	28325.46
826.21	28415.57
826.39	27948.63
826.57	28350.03
826.75	27901.53
826.93	27600.47
827.10	28063.32
827.28	27926.10
827.46	27852.38
827.64	28098.13
827.81	27592.28
827.99	27684.44
828.17	27424.35
828.35	27524.70
828.53	27405.92
828.70	27582.04
828.88	27414.11
829.06	27659.87
829.24	27694.68
829.41	27450.97
829.59	27590.24
829.77	27315.81
829.95	27659.87
830.12	27000.42
830.30	27551.32
830.48	27035.24
830.66	27348.57
830.84	27313.76
831.01	26959.46
831.19	27453.02
831.37	26994.28
831.55	26822.25
831.72	26934.88
831.90	27104.87
832.08	26936.93
832.25	26930.79
832.43	26791.53
832.61	26474.09
832.79	26455.66
832.96	26633.83
833.14	26592.87
833.32	26904.17
833.50	26613.35
833.67	26697.32
833.85	26500.72
834.03	26365.55
834.20	26535.53
834.38	25980.53
834.56	26144.37
834.74	26373.74
834.91	26324.59
835.09	26183.28
835.27	26082.93
835.44	26127.99
835.62	25800.31
835.80	25644.66
835.98	25769.59
836.15	26277.49
836.33	25677.43
836.51	26058.35
836.68	25603.71
836.86	26117.75
837.04	25970.29
837.21	25798.26
837.39	25728.63
837.57	25853.56
837.75	26072.69
837.92	25611.90
838.10	25415.29
838.28	25118.34
838.45	25228.93
838.63	25325.18
838.81	25374.33
838.98	25267.84
839.16	25243.26
839.34	25419.39
839.51	25327.23
839.69	24911.49
839.87	25151.10
840.04	25038.47
840.22	25325.18
840.40	25020.03
840.57	24831.62
840.75	25108.10
840.93	24333.96
841.10	25060.99
841.28	25241.21
841.46	24706.70
841.63	25028.23
841.81	24833.67
841.98	24729.22
842.16	24669.83
842.34	24923.78
842.51	24532.62
842.69	24698.50
842.87	24628.87
843.04	24505.99
843.22	24344.20
843.40	24452.75
843.57	24493.71
843.75	24653.45
843.92	24600.20
844.10	24481.42
844.28	24546.95
844.45	24276.62
844.63	24469.13
844.81	24229.52
844.98	24415.88
845.16	24180.37
845.33	24325.77
845.51	24094.35
845.69	24147.60
845.86	24178.32
846.04	23932.56
846.21	24118.93
846.39	23768.73
846.57	23711.38
846.74	23860.88
846.92	23912.08
847.09	23725.72
847.27	23469.72
847.45	23703.19
847.62	23686.81
847.80	23695.00
847.97	23772.82
848.15	23615.13
848.32	23375.52
848.50	23742.10
848.68	23256.73
848.85	23494.30
849.03	23113.38
849.20	23215.77
849.38	23205.53
849.56	23441.05
849.73	23013.02
849.91	23250.59
850.08	23398.04
850.26	23021.22
850.43	23152.29
850.61	22990.50
850.78	22640.29
850.96	23000.74
851.14	22644.39
851.31	22945.44
851.49	22746.79
851.66	23094.94
851.84	22851.24
852.01	23049.89
852.19	23004.83
852.36	22732.45
852.54	22722.21
852.71	22949.54
852.89	22689.45
853.07	22970.02
853.24	22597.29
853.42	22595.24
853.59	22474.41
853.77	22722.21
853.94	22695.59
854.12	22800.04
854.29	22267.56
854.47	22384.30
854.64	22179.50
854.82	22253.23
854.99	22261.42
855.17	21954.22
855.34	22126.25
855.52	22265.52
855.69	22386.35
855.87	22283.95
856.04	21800.63
856.22	22439.59
856.39	22038.19
856.57	21812.92
856.74	22066.86
856.92	22075.06
857.09	21806.77
857.27	21710.52
857.44	22099.63
857.62	22124.21
857.79	21911.22
857.97	22056.62
858.14	21755.57
858.32	21671.61
858.49	21767.86
858.67	21692.08
858.84	21534.39
859.02	21640.89
859.19	21511.86
859.37	21407.42
859.54	21370.55
859.72	21366.46
859.89	21585.59
860.06	21800.63
860.24	21309.11
860.41	21536.44
860.59	21229.24
860.76	21380.79
860.94	21053.12
861.11	21354.17
861.29	21180.09
861.46	21202.62
861.64	21268.16
861.81	20885.19
861.98	21053.12
862.16	21028.54
862.33	20688.58
862.51	20756.16
862.68	21278.40
862.86	20752.07
863.03	20905.66
863.21	20811.46
863.38	21069.50
863.55	20541.13
863.73	20715.20
863.90	20668.10
864.08	20727.49
864.25	20733.64
864.43	20547.27
864.60	20680.39
864.77	20483.78
864.95	20311.75
865.12	20227.79
865.30	20690.63
865.47	20692.68
865.64	20532.93
865.82	20371.15
865.99	20301.51
866.17	20459.21
866.34	20604.61
866.51	19998.41
866.69	20238.03
866.86	20321.99
867.04	20379.34
867.21	20053.71
867.38	20111.05
867.56	19846.87
867.73	19904.21
867.91	19967.70
868.08	20004.56
868.25	19975.89
868.43	19838.67
868.60	19887.82
868.78	19781.33
868.95	20076.24
869.12	19508.95
869.30	19750.61
869.47	19818.19
869.64	19400.41
869.82	19750.61
869.99	19717.84
870.16	19613.40
870.34	19672.79
870.51	19594.96
870.69	19424.98
870.86	19597.01
871.03	19580.63
871.21	19347.16
871.38	19615.44
871.55	19107.55
871.73	19332.82
871.90	19156.70
872.07	19173.08
872.25	18980.57
872.42	18802.40
872.59	19173.08
872.77	19072.73
872.94	18849.50
873.11	19175.13
873.29	18900.70
873.46	18849.50
873.63	18777.83
873.81	18933.47
873.98	18761.44
874.15	18667.24
874.33	18018.03
874.50	18257.64
874.67	18329.32
874.85	18489.06
875.02	18355.94
875.19	18161.39
875.37	18353.90
875.54	18321.13
875.71	18466.53
875.88	18224.87
876.06	18396.90
876.23	18069.23
876.40	18120.43
876.58	18077.42
876.75	18271.98
876.92	18179.82
877.10	18290.41
877.27	17942.25
877.44	18044.65
877.61	17895.15
877.79	17772.27
877.96	17944.30
878.13	17743.60
878.31	17698.55
878.48	17712.88
878.65	17649.39
878.82	17696.50
879.00	17778.42
879.17	17522.42
879.34	17673.97
879.51	17309.43
879.69	17553.14
879.86	17387.25
880.03	17528.56
880.21	17262.33
880.38	17420.02
880.55	17405.69
880.72	17424.12
880.90	17389.30
881.07	17393.40
881.24	17573.62
881.41	17391.35
881.59	17317.62
881.76	17110.78
881.93	17100.54
882.10	17116.92
882.28	16957.18
882.45	17188.60
882.62	17223.42
882.79	17018.62
882.96	16584.45
883.14	17055.48
883.31	16942.85
883.48	17155.83
883.65	16875.26
883.83	16930.56
884.00	16875.26
884.17	16783.10
884.34	16764.67
884.51	16568.07
884.69	16703.23
884.86	16873.21
885.03	16621.31
885.20	16764.67
885.38	16662.27
885.55	16641.79
885.72	16639.75
885.89	16357.13
886.06	16637.70
886.24	16525.06
886.41	16412.42
886.58	16680.71
886.75	16721.66
886.92	16602.88
887.10	16815.87
887.27	16512.77
887.44	16377.61
887.61	16572.16
887.78	16609.03
887.95	16588.55
888.13	16256.78
888.30	16330.50
888.47	16256.78
888.64	16389.89
888.81	16174.86
888.99	16228.10
889.16	16203.53
889.33	16156.43
889.50	15959.82
889.67	16129.80
889.84	15922.96
890.01	15957.77
890.19	15900.43
890.36	16000.78
890.53	16142.09
890.70	16092.94
890.87	16123.66
891.04	15738.64
891.22	15935.24
891.39	15765.26
891.56	15791.89
891.73	15798.03
891.90	15605.52
892.07	15568.66
892.24	15570.71
892.42	15654.67
892.59	15644.43
892.76	15519.51
892.93	15480.60
893.10	15609.62
893.27	15517.46
893.44	15339.29
893.61	15396.63
893.79	15576.85
893.96	15464.21
894.13	15605.52
894.30	15517.46
894.47	15634.19
894.64	15609.62
894.81	15550.23
894.98	15658.77
895.15	15499.03
895.33	15453.97
895.50	15437.59
895.67	15402.77
895.84	15214.36
896.01	15531.80
896.18	15476.50
896.35	15621.91
896.52	15292.18
896.69	15544.08
896.86	15359.77
897.04	15183.64
897.21	15349.53
897.38	15499.03
897.55	15351.57
897.72	15341.33
897.89	15404.82
898.06	15480.60
898.23	15208.22
898.40	15449.88
898.57	15202.07
898.74	15441.68
898.91	15388.44
899.08	15410.96
899.26	15308.57
899.43	15472.40
899.60	15374.10
899.77	15114.01
899.94	15408.92
900.11	15230.74
900.28	15329.05
900.45	15138.58
900.62	15236.89
900.79	15470.36
900.96	15333.14
901.13	15197.98
901.30	15148.82
901.47	15001.37
901.64	15124.25
901.81	15503.12
901.98	15138.58
902.15	15462.16
902.32	15202.07
902.49	15224.60
902.66	15183.64
902.83	15327.00
903.01	15384.34
903.18	15197.98
903.35	15259.42
903.52	15316.76
903.69	15353.62
903.86	15200.02
904.03	15288.09
904.20	15392.53
904.37	15419.16
904.54	15214.36
904.71	15410.96
904.88	15177.50
905.05	15130.39
905.22	15193.88
905.39	15402.77
905.56	15134.49
905.73	15095.58
905.90	15136.54
906.07	15357.72
906.24	15343.38
906.41	15017.75
906.58	15234.84
906.75	15359.77
906.92	14905.12
907.09	15124.25
907.26	15120.15
907.43	14808.86
907.60	15253.27
907.77	15277.85
907.93	15396.63
908.10	15255.32
908.27	15021.85
908.44	15197.98
908.61	15056.67
908.78	15099.67
908.95	15193.88
909.12	15218.46
909.29	14950.17
909.46	14853.92
909.63	15103.77
909.80	15329.05
909.97	15023.90
910.14	15101.72
910.31	14886.68
910.48	15048.47
910.65	14827.29
910.82	14825.25
910.99	14923.55
911.16	14923.55
911.33	15177.50
911.50	14937.88
911.66	14872.35
911.83	14976.80
912.00	14997.28
912.17	14792.48
912.34	14653.22
912.51	14888.73
912.68	14714.66
912.85	14753.57
913.02	14526.24
913.19	14706.46
913.36	14366.50
913.53	14530.34
913.70	14528.29
913.86	14665.50
914.03	14429.99
914.20	14501.67
914.37	14647.07
914.54	14669.60
914.71	14632.74
914.88	14378.79
915.05	14501.67
915.22	14305.06
915.39	14442.28
915.55	14239.53
915.72	14327.59
915.89	14026.54
916.06	14208.81
916.23	14292.77
916.40	14331.69
916.57	14016.30
916.74	13965.10
916.91	13952.81
917.07	14151.46
917.24	13975.34
917.41	14237.48
917.58	13950.76
917.75	13956.91
917.92	13864.75
918.09	13922.09
918.26	13864.75
918.42	13635.38
918.59	13719.34
918.76	13487.92
918.93	13569.84
919.10	13426.48
919.27	13528.88
919.44	13545.27
919.60	13559.60
919.77	13389.62
919.94	13420.34
920.11	13174.58
920.28	13481.78
920.45	13408.05
920.61	13184.82
920.78	13174.58
920.95	13018.94
921.12	13256.50
921.29	13117.24
921.46	12787.52
921.62	12732.22
921.79	13102.90
921.96	12898.11
922.13	12945.21
922.30	12877.63
922.47	12805.95
922.63	12554.05
922.80	12820.28
922.97	12726.08
923.14	12359.49
923.31	12506.95
923.47	12668.73
923.64	12547.90
923.81	12341.06
923.98	12363.59
924.15	12388.16
924.32	12527.42
924.48	12349.25
924.65	12433.22
924.82	12406.59
924.99	12425.03
925.15	12058.44
925.32	12087.11
925.49	11824.97
925.66	11960.14
925.83	11818.83
925.99	11849.55
926.16	11706.19
926.33	11861.84
926.50	11706.19
926.67	11706.19
926.83	11667.28
927.00	11609.93
927.17	11626.32
927.34	11325.27
927.50	11622.22
927.67	11620.17
927.84	11509.58
928.01	11732.81
928.17	11112.28
928.34	11212.63
928.51	11110.23
928.68	11013.98
928.84	11140.95
929.01	11048.79
929.18	10815.32
929.35	10907.48
929.51	10934.11
929.68	10770.27
929.85	10833.75
930.02	10903.39
930.18	10678.11
930.35	10772.32
930.52	10669.92
930.69	10626.91
930.85	10585.95
931.02	10499.94
931.19	10520.42
931.36	10360.67
931.52	10530.66
931.69	10440.54
931.86	10532.70
932.02	10334.05
932.19	10286.95
932.36	10051.43
932.53	10119.01
932.69	10082.15
932.86	10051.43
933.03	10014.57
933.19	9781.10
933.36	9834.35
933.53	9752.43
933.70	9811.82
933.86	9709.42
934.03	9602.93
934.20	9516.91
934.36	9695.08
934.53	9375.60
934.70	9211.76
934.86	9219.96
935.03	9346.93
935.20	9240.44
935.36	9068.41
935.53	9154.42
935.70	9049.97
935.86	8994.68
936.03	8904.57
936.20	8740.73
936.36	8877.94
936.53	8724.35
936.70	8695.68
936.86	8654.72
937.03	8509.31
937.20	8322.94
937.36	8578.94
937.53	8216.45
937.70	8159.11
937.86	7888.78
938.03	8021.89
938.20	7933.83
938.36	7788.43
938.53	7735.18
938.70	7522.19
938.86	7538.57
939.03	7665.55
939.20	7454.61
939.36	7262.10
939.53	7368.59
939.70	7389.07
939.86	6940.57
940.03	6948.76
940.19	6909.85
940.36	6891.41
940.53	6887.32
940.69	6741.91
940.86	6746.01
941.03	6578.08
941.19	6424.48
941.36	6553.50
941.52	6522.78
941.69	6348.70
941.86	6176.67
942.02	6295.46
942.19	6041.51
942.35	6234.02
942.52	6295.46
942.69	6195.11
942.85	5998.50
943.02	5859.24
943.18	6074.28
943.35	5894.05
943.52	5836.71
943.68	5756.84
943.85	5728.17
944.01	5791.66
944.18	5705.64
944.35	5730.22
944.51	5715.88
944.68	5609.39
944.84	5490.60
945.01	5564.33
945.17	5615.53
945.34	5427.12
945.51	5455.79
945.67	5427.12
945.84	5545.90
946.00	5410.73
946.17	5435.31
946.33	5337.01
946.50	5410.73
946.67	5515.18
946.83	5427.12
947.00	5377.97
947.16	5367.73
947.33	5443.50
947.49	5406.64
947.66	5398.45
947.82	5312.43
947.99	5406.64
948.16	5410.73
948.32	5369.77
948.49	5287.86
948.65	5480.36
948.82	5400.49
948.98	5337.01
949.15	5427.12
949.31	5308.34
949.48	5455.79
949.64	5179.31
949.81	5236.66
949.97	5367.73
950.14	5373.87
950.30	5240.75
950.47	5455.79
950.63	5326.77
950.80	5345.20
950.96	5369.77
951.13	5283.76
951.30	5402.54
951.46	5490.60
951.63	5433.26
951.79	5386.16
951.96	5396.40
952.12	5396.40
952.29	5400.49
952.45	5355.44
952.62	5349.29
952.78	5328.81
952.94	5431.21
953.11	5271.47
953.27	5414.83
953.44	5609.39
953.60	5435.31
953.77	5359.53
953.93	5488.56
954.10	5304.24
954.26	5480.36
954.43	5445.55
954.59	5433.26
954.76	5642.15
954.92	5406.64
955.09	5566.38
955.25	5429.17
955.42	5427.12
955.58	5525.42
955.75	5439.40
955.91	5488.56
956.07	5498.80
956.24	5482.41
956.40	5472.17
956.57	5431.21
956.73	5498.80
956.90	5492.65
957.06	5357.49
957.23	5423.02
957.39	5316.53
957.56	5519.28
957.72	5427.12
957.88	5480.36
958.05	5617.58
958.21	5670.83
958.38	5463.98
958.54	5468.08
958.71	5670.83
958.87	5449.64
959.03	5537.71
959.20	5605.29
959.36	5418.93
959.53	5373.87
959.69	5418.93
959.85	5480.36
960.02	5474.22
960.18	5539.76
960.35	5332.91
960.51	5513.13
960.68	5504.94
960.84	5539.76
961.00	5400.49
961.17	5316.53
961.33	5521.32
961.50	5537.71
961.66	5498.80
961.82	5384.11
961.99	5414.83
962.15	5404.59
962.31	5287.86
962.48	5361.58
962.64	5400.49
962.81	5513.13
962.97	5431.21
963.13	5562.28
963.30	5355.44
963.46	5474.22
963.62	5457.84
963.79	5384.11
963.95	5361.58
964.12	5320.62
964.28	5304.24
964.44	5298.10
964.61	5322.67
964.77	5404.59
964.93	5521.32
965.10	5310.38
965.26	5353.39
965.42	5232.56
965.59	5279.66
965.75	5486.51
965.92	5402.54
966.08	5365.68
966.24	5156.79
966.41	5271.47
966.57	5287.86
966.73	5310.38
966.90	5398.45
967.06	5169.07
967.22	5283.76
967.39	5197.74
967.55	5109.68
967.71	5289.90
967.88	5205.94
968.04	5275.57
968.20	5078.96
968.37	5111.73
968.53	5083.06
968.69	5191.60
968.85	5232.56
969.02	5234.61
969.18	5152.69
969.34	5076.91
969.51	5152.69
969.67	5148.59
969.83	5136.31
970.00	5115.83
970.16	5189.55
970.32	5072.82
970.48	5287.86
970.65	4997.04
970.81	5042.10
970.97	5148.59
971.14	5007.28
971.30	5083.06
971.46	4925.36
971.63	4915.12
971.79	4986.80
971.95	5074.87
972.11	4972.47
972.28	5044.15
972.44	5087.15
972.60	4806.58
972.76	4986.80
972.93	4849.59
973.09	5023.67
973.25	5011.38
973.42	4935.60
973.58	4933.56
973.74	4861.88
973.90	4845.49
974.07	4784.06
974.23	4812.73
974.39	4857.78
974.55	4765.62
974.72	4816.82
974.88	4743.10
975.04	4863.93
975.20	4679.61
975.37	4870.07
975.53	4863.93
975.69	4798.39
975.85	4822.97
976.01	4800.44
976.18	4790.20
976.34	4710.33
976.50	4800.44
976.66	4779.96
976.83	4718.52
976.99	4693.94
977.15	4548.54
977.31	4579.26
977.47	4679.61
977.64	4700.09
977.80	4591.55
977.96	4564.92
978.12	4640.70
978.29	4558.78
978.45	4487.10
978.61	4552.63
978.77	4517.82
978.93	4456.38
979.10	4581.31
979.26	4558.78
979.42	4444.09
979.58	4411.32
979.74	4392.89
979.91	4505.53
980.07	4392.89
980.23	4458.43
980.39	4333.50
980.55	4358.08
980.71	4411.32
980.88	4360.13
981.04	4403.13
981.20	4288.45
981.36	4235.20
981.52	4378.56
981.68	4206.53
981.85	4315.07
982.01	4190.14
982.17	4347.84
982.33	4349.89
982.49	4321.21
982.65	4351.93
982.82	4216.77
982.98	4366.27
983.14	4202.43
983.30	4177.86
983.46	4186.05
983.62	4116.42
983.79	4159.42
983.95	4261.82
984.11	4194.24
984.27	4188.10
984.43	4132.80
984.59	4167.62
984.75	4259.78
984.91	4065.22
985.08	4149.18
985.24	4073.41
985.40	3997.64
985.56	4083.65
985.72	4274.11
985.88	4220.86
986.04	4063.17
986.20	3905.48
986.37	4054.98
986.53	3952.58
986.69	4079.55
986.85	3999.68
987.01	3950.53
987.17	4149.18
987.33	3968.96
987.49	3930.05
987.65	4007.87
987.82	4034.50
987.98	3944.39
988.14	3932.10
988.30	3852.23
988.46	3850.18
988.62	3909.57
988.78	3854.28
988.94	3829.70
989.10	3704.78
989.26	4005.83
989.42	3848.13
989.59	3729.35
989.75	3792.84
989.91	3882.95
990.07	3753.93
990.23	3747.78
990.39	3698.63
990.55	3807.17
990.71	3704.78
990.87	3841.99
991.03	3762.12
991.19	3596.23
991.35	3768.26
991.51	3798.98
991.67	3764.17
991.83	3614.66
992.00	3688.39
992.16	3715.02
992.32	3676.10
992.48	3641.29
992.64	3555.27
992.80	3731.40
992.96	3598.28
993.12	3618.76
993.28	3678.15
993.44	3655.62
993.60	3694.54
993.76	3575.75
993.92	3536.84
994.08	3567.56
994.24	3577.80
994.40	3596.23
994.56	3641.29
994.72	3622.86
994.88	3459.02
995.04	3590.09
995.20	3485.64
995.36	3456.97
995.52	3598.28
995.68	3590.09
995.84	3385.29
996.00	3629.00
996.16	3393.48
996.32	3434.44
996.48	3434.44
996.64	3504.07
996.80	3407.82
996.96	3416.01
997.12	3434.44
997.28	3428.30
997.44	3350.48
997.60	3356.62
997.76	3405.77
997.92	3235.79
998.08	3317.71
998.24	3266.51
998.40	3395.53
998.56	3305.42
998.72	3319.76
998.88	3289.04
999.04	3170.26
999.20	3356.62
999.36	3174.35
999.52	3278.80
999.68	3280.85
999.84	3356.62
1000.00	3289.04
1000.16	3229.65
1000.32	3274.70
1000.48	3360.72
1000.64	3131.34
1000.80	3223.50
1000.95	3127.25
1001.11	3246.03
1001.27	3114.96
1001.43	3393.48
1001.59	3051.47
1001.75	3018.71
1001.91	3209.17
1002.07	3254.22
1002.23	3082.19
1002.39	3090.38
1002.55	3063.76
1002.71	3076.05
1002.87	3098.58
1003.03	3002.32
1003.19	3049.43
1003.34	3162.06
1003.50	3004.37
1003.66	3106.77
1003.82	3166.16
1003.98	2850.77
1004.14	2940.88
1004.30	3008.47
1004.46	2979.79
1004.62	2959.31
1004.78	2961.36
1004.94	3043.28
1005.09	2990.03
1005.25	2979.79
1005.41	3045.33
1005.57	2957.27
1005.73	2930.64
1005.89	3014.61
1006.05	2957.27
1006.21	3043.28
1006.37	2961.36
1006.52	2942.93
1006.68	2893.78
1006.84	3030.99
1007.00	2883.54
1007.16	2969.55
1007.32	2916.31
1007.48	2836.44
1007.64	2897.88
1007.79	2789.33
1007.95	2797.53
1008.11	3020.75
1008.27	2697.17
1008.43	2842.58
1008.59	2809.81
1008.75	2912.21
1008.91	2826.20
1009.06	2772.95
1009.22	2803.67
1009.38	2848.72
1009.54	2867.16
1009.70	2678.74
1009.86	2801.62
1010.01	2830.29
1010.17	2748.37
1010.33	2797.53
1010.49	2746.33
1010.65	2719.70
1010.81	2748.37
1010.96	2711.51
1011.12	2643.93
1011.28	2650.07
1011.44	2668.50
1011.60	2639.83
1011.76	2682.84
1011.91	2775.00
1012.07	2541.53
1012.23	2580.44
1012.39	2623.45
1012.55	2697.17
1012.71	2602.97
1012.86	2688.98
1013.02	2645.98
1013.18	2729.94
1013.34	2656.22
1013.50	2656.22
1013.65	2660.31
1013.81	2566.10
1013.97	2656.22
1014.13	2549.72
1014.29	2549.72
1014.44	2580.44
1014.60	2551.77
1014.76	2588.63
1014.92	2572.25
1015.07	2539.48
1015.23	2514.91
1015.39	2523.10
1015.55	2572.25
1015.71	2453.47
1015.86	2572.25
1016.02	2549.72
1016.18	2508.76
1016.34	2443.23
1016.49	2461.66
1016.65	2590.68
1016.81	2430.94
1016.97	2496.47
1017.12	2363.36
1017.28	2377.69
1017.44	2377.69
1017.60	2371.55
1017.75	2449.37
1017.91	2437.08
1018.07	2437.08
1018.23	2471.90
1018.38	2443.23
1018.54	2420.70
1018.70	2387.93
1018.86	2379.74
1019.01	2392.03
1019.17	2336.73
1019.33	2459.61
1019.49	2359.26
1019.64	2416.60
1019.80	2385.88
1019.96	2359.26
1020.12	2441.18
1020.27	2273.25
1020.43	2379.74
1020.59	2353.12
1020.74	2392.03
1020.90	2404.32
1021.06	2398.17
1021.22	2322.40
1021.37	2299.87
1021.53	2299.87
1021.69	2406.36
1021.84	2277.34
1022.00	2230.24
1022.16	2293.72
1022.31	2295.77
1022.47	2320.35
1022.63	2346.97
1022.79	2193.37
1022.94	2187.23
1023.10	2439.13
1023.26	2263.01
1023.41	2263.01
1023.57	2260.96
1023.73	2265.05
1023.88	2215.90
1024.04	2220.00
1024.20	2228.19
1024.35	2234.33
1024.51	2240.48
1024.67	2244.57
1024.82	2267.10
1024.98	2129.89
1025.14	2215.90
1025.29	2199.52
1025.45	2269.15
1025.61	2052.06
1025.76	2162.66
1025.92	2240.48
1026.08	2174.94
1026.23	2199.52
1026.39	2170.85
1026.55	2205.66
1026.70	2131.94
1026.86	2090.98
1027.02	2195.42
1027.17	2047.97
1027.33	2183.13
1027.48	2187.23
1027.64	2140.13
1027.80	2074.59
1027.95	2142.18
1028.11	2086.88
1028.27	2150.37
1028.42	2086.88
1028.58	2058.21
1028.73	1998.82
1028.89	2025.44
1029.05	2152.42
1029.20	2072.54
>>>>>End Processed Spectral Data<<<<<
