SpectraSuite Data File
++++++++++++++++++++++++++++++++++++
Date: Fri Jun 02 14:49:24 CEST 2017
User: INFO_000
Dark Spectrum Present: No
Reference Spectrum Present: No
Number of Sampled Component Spectra: 1
Spectrometers: USB4H00879
Integration Time (usec): 80000 (USB4H00879)
Spectra Averaged: 1 (USB4H00879)
Boxcar Smoothing: 0 (USB4H00879)
Correct for Electrical Dark: No (USB4H00879)
Strobe/Lamp Enabled: No (USB4H00879)
Correct for Detector Non-linearity: No (USB4H00879)
Correct for Stray Light: No (USB4H00879)
Number of Pixels in Processed Spectrum: 3648
>>>>>Begin Processed Spectral Data<<<<<
345.13	1232.88
345.34	1232.88
345.56	1232.88
345.78	1273.84
345.99	1183.73
346.21	1662.95
346.42	1744.87
346.64	1558.50
346.86	1722.34
347.07	1712.10
347.29	1748.97
347.50	1576.94
347.72	1708.01
347.94	1765.35
348.15	1513.45
348.37	1650.66
348.59	1671.14
348.80	1585.13
349.02	1787.88
349.23	1832.93
349.45	1798.12
349.67	1869.80
349.88	1796.07
350.10	1945.57
350.31	1794.02
350.53	1783.78
350.75	1937.38
350.96	1691.62
351.18	1794.02
351.39	1785.83
351.61	1775.59
351.82	1912.80
352.04	1832.93
352.26	1796.07
352.47	1877.99
352.69	1845.22
352.90	1773.54
353.12	1787.88
353.34	1720.29
353.55	1812.45
353.77	1849.32
353.98	1841.12
354.20	1791.97
354.41	1910.75
354.63	1892.32
354.85	2033.63
355.06	1877.99
355.28	1724.39
355.49	1830.88
355.71	1908.71
355.92	1806.31
356.14	1898.47
356.35	1849.32
356.57	1826.79
356.79	1974.24
357.00	1855.46
357.22	1955.81
357.43	1785.83
357.65	1865.70
357.86	1744.87
358.08	1900.52
358.29	1843.17
358.51	1937.38
358.72	1968.10
358.94	1855.46
359.16	1791.97
359.37	1859.56
359.59	1972.19
359.80	1955.81
360.02	1951.71
360.23	1951.71
360.45	2002.91
360.66	1892.32
360.88	1794.02
361.09	1861.60
361.31	1904.61
361.52	1918.95
361.74	1937.38
361.95	1904.61
362.17	1863.65
362.38	2070.50
362.60	2025.44
362.81	1959.91
363.03	1923.04
363.24	1896.42
363.46	2043.87
363.67	1925.09
363.89	1853.41
364.10	1945.57
364.32	1941.47
364.53	1994.72
364.75	1845.22
364.96	2009.06
365.18	1947.62
365.39	1988.58
365.61	1886.18
365.82	2082.78
366.04	2011.11
366.25	1945.57
366.47	1943.52
366.68	1966.05
366.90	2000.87
367.11	1988.58
367.33	1998.82
367.54	2138.08
367.76	2007.01
367.97	2084.83
368.19	1998.82
368.40	1964.00
368.62	2021.35
368.83	1935.33
369.05	1998.82
369.26	1947.62
369.48	1912.80
369.69	1949.67
369.91	2039.78
370.12	1996.77
370.33	2033.63
370.55	1904.61
370.76	2027.49
370.98	2109.41
371.19	2045.92
371.41	2021.35
371.62	2019.30
371.84	1943.52
372.05	2136.03
372.27	2043.87
372.48	2068.45
372.69	2027.49
372.91	2160.61
373.12	2133.98
373.34	2052.06
373.55	2101.22
373.77	2154.46
373.98	2099.17
374.20	2183.13
374.41	2215.90
374.62	2082.78
374.84	2168.80
375.05	2224.09
375.27	2156.51
375.48	2082.78
375.70	2103.26
375.91	2179.04
376.12	2209.76
376.34	2142.18
376.55	2136.03
376.77	2205.66
376.98	2088.93
377.19	2154.46
377.41	2172.89
377.62	2256.86
377.84	2275.29
378.05	2385.88
378.27	2176.99
378.48	2273.25
378.69	2306.01
378.91	2224.09
379.12	2201.57
379.34	2281.44
379.55	2318.30
379.76	2336.73
379.98	2197.47
380.19	2293.72
380.41	2205.66
380.62	2250.72
380.83	2324.44
381.05	2283.49
381.26	2342.88
381.47	2250.72
381.69	2246.62
381.90	2400.22
382.12	2269.15
382.33	2240.48
382.54	2256.86
382.76	2318.30
382.97	2283.49
383.19	2314.20
383.40	2338.78
383.61	2279.39
383.83	2283.49
384.04	2340.83
384.25	2312.16
384.47	2379.74
384.68	2320.35
384.89	2265.05
385.11	2371.55
385.32	2324.44
385.54	2363.36
385.75	2387.93
385.96	2478.04
386.18	2349.02
386.39	2447.32
386.60	2383.84
386.82	2338.78
387.03	2408.41
387.24	2488.28
387.46	2475.99
387.67	2457.56
387.88	2519.00
388.10	2486.23
388.31	2478.04
388.52	2525.15
388.74	2578.39
388.95	2504.67
389.16	2527.19
389.38	2478.04
389.59	2566.10
389.80	2613.21
390.02	2650.07
390.23	2596.82
390.44	2519.00
390.66	2514.91
390.87	2453.47
391.08	2564.06
391.30	2676.70
391.51	2625.50
391.72	2666.46
391.94	2605.02
392.15	2662.36
392.36	2625.50
392.58	2621.40
392.79	2619.35
393.00	2682.84
393.22	2660.31
393.43	2715.61
393.64	2717.65
393.85	2775.00
394.07	2621.40
394.28	2783.19
394.49	2758.61
394.71	2805.72
394.92	2801.62
395.13	2686.94
395.35	2738.13
395.56	2756.57
395.77	2824.15
395.98	2889.68
396.20	2912.21
396.41	2766.81
396.62	2840.53
396.84	2762.71
397.05	2781.14
397.26	2844.63
397.47	2815.96
397.69	2861.01
397.90	2949.08
398.11	2856.92
398.32	2842.58
398.54	2863.06
398.75	2953.17
398.96	2858.96
399.18	3004.37
399.39	2883.54
399.60	3071.95
399.81	2977.75
400.03	2975.70
400.24	3186.64
400.45	2895.83
400.66	3098.58
400.88	3018.71
401.09	3262.41
401.30	3039.19
401.51	3078.10
401.73	3055.57
401.94	3131.34
402.15	3123.15
402.36	3055.57
402.58	3170.26
402.79	3164.11
403.00	3258.32
403.21	3192.78
403.43	3250.13
403.64	3256.27
403.85	3033.04
404.06	3336.14
404.27	3131.34
404.49	3151.82
404.70	3203.02
404.91	3254.22
405.12	3176.40
405.34	3221.45
405.55	3416.01
405.76	3149.78
405.97	3200.98
406.19	3348.43
406.40	3276.75
406.61	3252.17
406.82	3305.42
407.03	3239.89
407.25	3211.22
407.46	3401.68
407.67	3422.16
407.88	3444.68
408.09	3205.07
408.31	3284.94
408.52	3405.77
408.73	3239.89
408.94	3348.43
409.15	3454.92
409.37	3475.40
409.58	3534.79
409.79	3549.13
410.00	3491.79
410.21	3383.24
410.43	3424.20
410.64	3428.30
410.85	3592.14
411.06	3442.64
411.27	3575.75
411.48	3487.69
411.70	3467.21
411.91	3549.13
412.12	3751.88
412.33	3469.26
412.54	3542.99
412.76	3639.24
412.97	3651.53
413.18	3520.46
413.39	3704.78
413.60	3700.68
413.81	3618.76
414.03	3629.00
414.24	3534.79
414.45	3706.82
414.66	3362.76
414.87	3569.61
415.08	3706.82
415.30	3702.73
415.51	3815.37
415.72	3663.82
415.93	3794.89
416.14	3762.12
416.35	3641.29
416.56	3768.26
416.78	3786.69
416.99	3790.79
417.20	3778.50
417.41	3878.85
417.62	3821.51
417.83	3905.48
418.04	3901.38
418.26	4030.40
418.47	3807.17
418.68	3839.94
418.89	3991.49
419.10	4059.07
419.31	3897.28
419.52	4091.84
419.73	3895.24
419.95	4102.08
420.16	3944.39
420.37	3989.44
420.58	4007.87
420.79	3903.43
421.00	4028.35
421.21	3938.24
421.42	3991.49
421.63	4120.51
421.85	3962.82
422.06	4108.23
422.27	4071.36
422.48	4091.84
422.69	4165.57
422.90	4222.91
423.11	4231.10
423.32	4257.73
423.53	4419.52
423.75	4282.30
423.96	4464.57
424.17	4341.69
424.38	4589.50
424.59	4448.19
424.80	4507.58
425.01	4339.65
425.22	4308.93
425.43	4360.13
425.64	4685.75
425.85	4650.94
426.06	4597.69
426.28	4493.24
426.49	4388.80
426.70	4458.43
426.91	4474.81
427.12	4695.99
427.33	4638.65
427.54	4595.64
427.75	4618.17
427.96	4753.34
428.17	4538.30
428.38	4728.76
428.59	4812.73
428.80	4736.95
429.01	4816.82
429.23	4861.88
429.44	4951.99
429.65	4962.23
429.86	4890.55
430.07	4775.86
430.28	4958.13
430.49	4917.17
430.70	5062.58
430.91	5072.82
431.12	5017.52
431.33	5171.12
431.54	5101.49
431.75	5072.82
431.96	5087.15
432.17	5099.44
432.38	5269.42
432.59	5349.29
432.80	5154.74
433.01	5351.34
433.22	5285.81
433.43	5349.29
433.64	5269.42
433.85	5189.55
434.06	5334.96
434.27	5175.22
434.49	5488.56
434.70	5478.32
434.91	5384.11
435.12	5406.64
435.33	5392.30
435.54	5470.12
435.75	5300.14
435.96	5425.07
436.17	5377.97
436.38	5576.62
436.59	5558.19
436.80	5558.19
437.01	5697.45
437.22	5877.67
437.43	5582.76
437.64	5353.39
437.85	5742.50
438.06	5707.69
438.27	5431.21
438.48	5707.69
438.69	5861.29
438.90	5642.15
439.11	5767.08
439.32	5789.61
439.53	5621.67
439.74	5853.09
439.95	5957.54
440.16	5670.83
440.37	5672.87
440.57	5736.36
440.78	5963.68
440.99	5998.50
441.20	5904.29
441.41	5849.00
441.62	5896.10
441.83	5883.81
442.04	6010.79
442.25	5945.25
442.46	6053.80
442.67	6084.52
442.88	6371.23
443.09	6070.18
443.30	6201.25
443.51	6143.91
443.72	6293.41
443.93	6035.36
444.14	6383.52
444.35	6094.76
444.56	6379.42
444.77	6356.90
444.98	6256.54
445.19	6307.74
445.40	6217.63
445.61	6406.05
445.81	6360.99
446.02	6332.32
446.23	6395.81
446.44	6287.26
446.65	6406.05
446.86	6395.81
447.07	6360.99
447.28	6647.71
447.49	6676.38
447.70	6485.92
447.91	6512.54
448.12	6633.37
448.33	6674.33
448.54	6797.21
448.74	6545.31
448.95	6682.52
449.16	6623.13
449.37	6866.84
449.58	6776.73
449.79	6911.89
450.00	6588.32
450.21	6850.46
450.42	6989.72
450.63	6909.85
450.84	6870.94
451.05	7006.10
451.25	7016.34
451.46	6829.98
451.67	7038.87
451.88	7088.02
452.09	7131.03
452.30	6981.53
452.51	7225.23
452.72	7120.79
452.93	7430.03
453.13	7096.21
453.34	7057.30
453.55	7116.69
453.76	7141.27
453.97	7325.58
454.18	7446.41
454.39	7450.51
454.60	7536.52
454.81	7403.41
455.01	7630.73
455.22	7323.54
455.43	7466.89
455.64	7610.25
455.85	7802.76
456.06	7946.12
456.27	7618.44
456.48	7774.09
456.68	7997.32
456.89	7870.34
457.10	7958.41
457.31	7952.26
457.52	7929.74
457.73	7997.32
457.94	8173.44
458.14	7942.02
458.35	8365.95
458.56	8114.05
458.77	8118.15
458.98	8318.85
459.19	8302.47
459.39	8298.37
459.60	8580.99
459.81	8300.42
460.02	8451.97
460.23	8454.02
460.44	8613.76
460.65	8580.99
460.85	8634.24
461.06	8624.00
461.27	8456.06
461.48	8652.67
461.69	8869.75
461.89	8681.34
462.10	8816.51
462.31	8722.30
462.52	8806.27
462.73	8877.94
462.94	9121.65
463.14	9164.66
463.35	9103.22
463.56	9473.90
463.77	9414.51
463.98	9103.22
464.18	9299.83
464.39	9361.27
464.60	9670.51
464.81	9332.59
465.02	9371.50
465.23	9740.14
465.43	9557.87
465.64	9734.00
465.85	9693.04
466.06	9586.54
466.27	10131.30
466.47	9924.46
466.68	9895.78
466.89	9914.22
467.10	10053.48
467.30	9867.11
467.51	10231.65
467.72	10344.29
467.93	10178.40
468.14	10147.69
468.34	10420.06
468.55	10473.31
468.76	10313.57
468.97	10366.82
469.17	10669.92
469.38	10596.19
469.59	10669.92
469.80	10606.43
470.01	10866.52
470.21	10897.24
470.42	10911.58
470.63	11124.57
470.84	11020.12
471.04	11190.10
471.25	11259.73
471.46	11327.32
471.67	11358.03
471.87	11339.60
472.08	11417.43
472.29	11775.82
472.50	11265.88
472.70	11296.60
472.91	11407.19
473.12	11630.41
473.33	11712.33
473.53	11988.81
473.74	11923.27
473.95	12097.35
474.16	12330.82
474.36	12136.26
474.57	12199.75
474.78	12535.62
474.99	12523.33
475.19	12375.88
475.40	12740.41
475.61	12760.89
475.81	12848.96
476.02	12840.76
476.23	12848.96
476.44	13127.48
476.64	13268.79
476.85	13221.69
477.06	13162.30
477.27	13401.91
477.47	13670.19
477.68	13575.98
477.89	13797.17
478.09	13674.29
478.30	13831.98
478.51	13705.01
478.71	13948.72
478.92	14085.93
479.13	14243.62
479.34	14198.57
479.54	14401.32
479.75	14444.32
479.96	14436.13
480.16	14745.38
480.37	14524.19
480.58	14653.22
480.78	15038.23
480.99	14980.89
481.20	14964.51
481.41	15249.18
481.61	15150.87
481.82	15245.08
482.03	15161.11
482.23	15456.02
482.44	15517.46
482.65	16060.17
482.85	15626.00
483.06	15777.55
483.27	16142.09
483.47	15910.67
483.68	16039.69
483.89	16307.98
484.09	16437.00
484.30	16400.13
484.51	16762.62
484.71	16815.87
484.92	16672.51
485.13	16654.08
485.33	17094.40
485.54	16871.17
485.75	17221.37
485.95	17313.53
486.16	17196.79
486.37	17391.35
486.57	17338.10
486.78	17493.75
486.98	17657.59
487.19	17800.94
487.40	17979.12
487.60	17901.29
487.81	18149.10
488.02	17831.66
488.22	18104.04
488.43	18194.15
488.64	18302.70
488.84	18413.29
489.05	18466.53
489.25	18517.73
489.46	18818.78
489.67	18685.67
489.87	18917.09
490.08	18980.57
490.29	19013.34
490.49	19431.13
490.70	19513.05
490.90	19496.66
491.11	19578.58
491.32	19445.46
491.52	19801.81
491.73	19678.93
491.94	19900.11
492.14	19791.57
492.35	20149.96
492.55	20205.26
492.76	20487.88
492.97	20500.17
493.17	20371.15
493.38	20440.78
493.58	20661.96
493.79	20790.98
494.00	20618.95
494.20	20887.23
494.41	21061.31
494.61	20715.20
494.82	21141.18
495.02	21204.67
495.23	21384.89
495.44	21229.24
495.64	21546.68
495.85	21671.61
496.05	21653.17
496.26	21348.03
496.47	21929.65
496.67	21749.43
496.88	21933.75
497.08	21692.08
497.29	22034.10
497.49	21956.27
497.70	22122.16
497.91	22202.03
498.11	22695.59
498.32	22515.37
498.52	22533.80
498.73	22765.22
498.93	22705.83
499.14	22793.89
499.34	22804.13
499.55	22824.61
499.76	22650.53
499.96	23084.70
500.17	22965.92
500.37	23256.73
500.58	23228.06
500.78	23228.06
500.99	23281.31
501.19	23576.22
501.40	23324.32
501.60	23314.08
501.81	23660.18
502.02	23938.71
502.22	23418.52
502.43	23621.27
502.63	23922.32
502.84	24006.29
503.04	23979.67
503.25	23867.03
503.45	24123.02
503.66	24276.62
503.86	23959.19
504.07	24458.89
504.27	24340.11
504.48	24512.14
504.68	24436.36
504.89	24954.50
505.09	24376.97
505.30	24512.14
505.50	24622.73
505.71	24954.50
505.91	25101.95
506.12	24831.62
506.32	24817.29
506.53	24856.20
506.73	25097.86
506.94	25284.22
507.14	25015.94
507.35	25220.74
507.55	25269.89
507.76	25609.85
507.96	25304.70
508.17	25540.22
508.37	25386.62
508.58	25591.42
508.78	25519.74
508.99	25802.36
509.19	25509.50
509.40	25771.64
509.60	25585.27
509.81	25665.14
510.01	25575.03
510.22	25800.31
510.42	26189.42
510.63	26021.49
510.83	26125.94
511.04	26054.26
511.24	26087.03
511.44	26236.53
511.65	26580.59
511.85	26226.29
512.06	26668.65
512.26	26377.84
512.47	26539.63
512.67	26441.32
512.88	26383.98
513.08	26056.31
513.29	26510.96
513.49	26822.25
513.69	26693.22
513.90	26738.28
514.10	27004.52
514.31	26789.48
514.51	27250.27
514.72	26938.98
514.92	27158.11
515.13	26981.99
515.33	27418.21
515.53	27094.63
515.74	27287.14
515.94	27199.07
516.15	27207.26
516.35	27020.90
516.56	27354.72
516.76	27307.62
516.96	27602.52
517.17	27508.32
517.37	27770.46
517.58	27795.03
517.78	27698.78
517.99	27717.21
518.19	28253.78
518.39	28208.72
518.60	28446.29
518.80	27973.21
519.01	28061.27
519.21	28005.97
519.41	28446.29
519.62	28380.75
519.82	28382.80
520.03	28589.64
520.23	28560.97
520.43	28747.34
520.64	29072.96
520.84	29386.30
521.05	28909.13
521.25	29271.62
521.45	29320.77
521.66	29492.80
521.86	29187.65
522.07	29277.76
522.27	29593.15
522.47	29625.92
522.68	30238.26
522.88	29498.94
523.08	30144.05
523.29	30070.33
523.49	29630.01
523.70	29972.02
523.90	30146.10
524.10	30064.18
524.31	29718.07
524.51	30041.65
524.71	30621.23
524.92	30727.72
525.12	30637.61
525.33	30418.48
525.53	30465.58
525.73	31307.30
525.94	30987.82
526.14	31055.40
526.34	31125.03
526.55	31084.07
526.75	31172.13
526.95	31510.05
527.16	31186.47
527.36	31223.33
527.56	31479.33
527.77	31684.12
527.97	31725.08
528.17	31897.11
528.38	32509.46
528.58	32286.23
528.78	32249.36
528.99	32278.04
529.19	32499.22
529.39	32318.99
529.60	32605.71
529.80	32689.68
530.00	32505.36
530.21	32880.14
530.41	32740.88
530.61	32527.89
530.82	32730.64
531.02	33291.78
531.22	33037.83
531.43	33230.34
531.63	33607.17
531.83	33756.67
532.04	33713.66
532.24	33474.05
532.44	34219.51
532.64	34055.67
532.85	34168.31
533.05	34102.78
533.25	34412.02
533.46	34002.43
533.66	34397.68
533.86	34436.59
534.07	35040.75
534.27	34393.59
534.47	34954.73
534.67	35044.84
534.88	34571.76
535.08	35108.33
535.28	35427.81
535.49	35048.94
535.69	35302.89
535.89	35032.55
536.09	35911.13
536.30	35708.38
536.50	35935.71
536.70	35874.27
536.91	35665.38
537.11	35771.87
537.31	36120.02
537.51	36177.37
537.72	36505.04
537.92	36543.95
538.12	36765.14
538.32	36767.18
538.53	36842.96
538.73	36285.91
538.93	36779.47
539.13	36953.55
539.34	36869.58
539.54	36857.29
539.74	37037.51
539.94	37043.66
540.15	36732.37
540.35	37002.70
540.55	37121.48
540.75	37516.74
540.96	37166.54
541.16	37391.81
541.36	37313.99
541.56	37572.03
541.77	38006.20
541.97	37524.93
542.17	37875.13
542.37	37756.35
542.58	37862.85
542.78	37807.55
542.98	37748.16
543.18	37858.75
543.38	38153.66
543.59	38294.97
543.79	38045.12
543.99	38045.12
544.19	38499.76
544.40	38571.44
544.60	38399.41
544.80	38167.99
545.00	38573.49
545.20	39050.67
545.41	38270.39
545.61	38747.57
545.81	39097.77
546.01	38839.73
546.21	38809.01
546.42	38950.32
546.62	38962.61
546.82	39048.62
547.02	39130.54
547.22	39433.64
547.43	39130.54
547.63	39218.60
547.83	39400.87
548.03	39054.76
548.23	39646.63
548.44	39187.88
548.64	39337.38
548.84	39507.37
549.04	39490.98
549.24	39525.80
549.45	40179.10
549.65	39558.56
549.85	39826.85
550.05	39783.84
550.25	39685.54
550.45	40162.72
550.66	40279.45
550.86	40064.41
551.06	40398.23
551.26	40334.74
551.46	40431.00
551.66	40539.54
551.87	40154.52
552.07	40301.98
552.27	40351.13
552.47	40326.55
552.67	40502.68
552.87	40365.46
553.07	40578.45
553.28	40474.01
553.48	40691.09
553.68	40789.39
553.88	41076.11
554.08	41024.91
554.28	40693.14
554.48	40691.09
554.69	40902.03
554.89	40762.77
555.09	40854.93
555.29	41223.56
555.49	41166.22
555.69	41110.92
555.89	41178.51
556.10	41069.97
556.30	41256.33
556.50	41139.60
556.70	41096.59
556.90	41270.67
557.10	41485.70
557.30	41121.16
557.50	41362.82
557.70	41317.77
557.91	41661.83
558.11	41553.29
558.31	41612.68
558.51	41864.58
558.71	41966.98
558.91	41885.06
559.11	42022.27
559.31	41997.70
559.51	41514.37
559.72	42001.79
559.92	42272.12
560.12	41588.10
560.32	42157.44
560.52	41807.23
560.72	42153.34
560.92	42100.09
561.12	42009.98
561.32	42360.19
561.52	42157.44
561.72	42640.76
561.93	42296.70
562.13	42362.23
562.33	42345.85
562.53	42777.97
562.73	42603.89
562.93	42161.53
563.13	42601.85
563.33	42083.71
563.53	42607.99
563.73	42268.03
563.93	42790.26
564.13	43226.48
564.33	42560.89
564.53	42857.84
564.74	43171.18
564.94	43099.50
565.14	42968.43
565.34	42732.92
565.54	43097.45
565.74	43199.85
565.94	43763.04
566.14	43394.41
566.34	43367.79
566.54	43767.14
566.74	43064.69
566.94	43652.45
567.14	43646.31
567.34	43322.73
567.54	43531.62
567.74	43355.50
567.94	43439.47
568.14	44133.73
568.34	44143.97
568.54	43902.31
568.74	43818.34
568.94	43816.29
569.14	44361.05
569.34	44148.06
569.54	44023.14
569.75	44209.50
569.95	44569.94
570.15	44830.04
570.35	44418.39
570.55	44100.96
570.75	44365.15
570.95	44748.12
571.15	44741.97
571.35	44545.37
571.55	44686.68
571.75	44868.95
571.95	45067.60
572.15	44848.47
572.35	44643.67
572.55	44393.82
572.75	45094.22
572.95	44836.18
573.15	44875.09
573.35	44715.35
573.55	44995.92
573.75	44965.20
573.95	45270.35
574.15	44803.41
574.35	45331.79
574.55	45346.12
574.75	45317.45
574.95	45620.55
575.15	45673.80
575.34	45819.20
575.54	45823.30
575.74	45999.43
575.94	45688.13
576.14	45493.58
576.34	45970.75
576.54	46417.21
576.74	46017.86
576.94	45763.91
577.14	45888.84
577.34	46519.61
577.54	46099.78
577.74	46085.44
577.94	46449.98
578.14	46169.41
578.34	46734.65
578.54	45835.59
578.74	46087.49
578.94	46847.29
579.14	46630.20
579.34	47023.41
579.54	46652.73
579.74	47127.86
579.94	46835.00
580.13	46951.73
580.33	46748.98
580.53	47209.78
580.73	47496.49
580.93	47142.19
581.13	47375.66
581.33	47850.79
581.53	47250.74
581.73	47508.78
581.93	47609.13
582.13	47416.62
582.33	47707.43
582.53	47721.77
582.73	47519.02
582.92	47912.23
583.12	48045.35
583.32	47387.95
583.52	47424.81
583.72	48250.14
583.92	48225.57
584.12	47734.06
584.32	48459.04
584.52	47969.57
584.72	48342.30
584.92	48170.27
585.11	48348.45
585.31	48192.80
585.51	48350.49
585.71	48250.14
585.91	48655.64
586.11	48518.43
586.31	48225.57
586.51	48530.72
586.71	49050.90
586.91	48682.27
587.10	48778.52
587.30	48938.26
587.50	49073.43
587.70	49061.14
587.90	49118.48
588.10	48973.08
588.30	49030.42
588.50	49450.25
588.69	49073.43
588.89	48936.21
589.09	49175.83
589.29	49016.08
589.49	49374.48
589.69	48762.14
589.89	49241.36
590.08	49372.43
590.28	48790.81
590.48	49157.39
590.68	48895.25
590.88	49493.26
591.08	49298.70
591.28	49046.80
591.47	49763.59
591.67	49310.99
591.87	49300.75
592.07	49321.23
592.27	49827.08
592.47	49913.09
592.67	49865.99
592.86	49222.93
593.06	49648.91
593.26	49610.00
593.46	49624.33
593.66	50111.75
593.86	50126.08
594.05	49706.25
594.25	50160.90
594.45	49906.95
594.65	50023.68
594.85	49896.71
595.05	50070.79
595.24	50089.22
595.44	49847.56
595.64	50484.48
595.84	50068.74
596.04	50300.16
596.23	50547.96
596.43	50320.64
596.63	50253.06
596.83	50076.93
597.03	50558.20
597.22	50754.81
597.42	50773.24
597.62	50875.64
597.82	50988.28
598.02	50261.25
598.21	50674.94
598.41	50308.35
598.61	50490.62
598.81	50527.48
599.01	50492.67
599.20	50951.41
599.40	50576.64
599.60	51309.81
599.80	50846.97
600.00	51156.21
600.19	51539.18
600.39	50971.89
600.59	51289.33
600.79	51389.68
600.98	51010.81
601.18	51227.89
601.38	51393.78
601.58	51555.57
601.78	51434.74
601.97	51377.39
602.17	52006.12
602.37	51660.01
602.57	51291.38
602.76	52065.51
602.96	51252.47
603.16	51860.71
603.36	51737.83
603.55	51979.49
603.75	51766.51
603.95	51905.77
604.15	52280.55
604.34	51975.40
604.54	52280.55
604.74	52118.76
604.94	51786.99
605.13	52620.51
605.33	52241.63
605.53	51789.03
605.73	52389.09
605.92	52538.59
606.12	52511.97
606.32	52448.48
606.52	52352.23
606.71	52565.21
606.91	52851.93
607.11	52776.15
607.30	52853.98
607.50	52796.63
607.70	52876.51
607.90	52505.82
608.09	52464.86
608.29	52663.52
608.49	52819.16
608.68	52602.08
608.88	52960.47
609.08	53159.12
609.28	53187.80
609.47	52800.73
609.67	53152.98
609.87	52612.32
610.06	53183.70
610.26	53105.88
610.46	53431.50
610.66	53105.88
610.85	53273.81
611.05	53019.86
611.25	53286.10
611.44	53007.58
611.64	53494.99
611.84	52565.21
612.03	53001.43
612.23	53544.14
612.43	53503.18
612.62	53333.20
612.82	53429.46
613.02	53478.61
613.21	53595.34
613.41	53363.92
613.61	53673.16
613.80	53130.45
614.00	53679.31
614.20	53451.98
614.39	53877.96
614.59	53722.32
614.79	53591.25
614.98	53497.04
615.18	53740.75
615.38	53699.79
615.57	53818.57
615.77	53761.23
615.97	53859.53
616.16	53898.44
616.36	53722.32
616.56	53828.81
616.75	53656.78
616.95	53570.77
617.15	53900.49
617.34	53931.21
617.54	53701.84
617.74	54015.18
617.93	54025.42
618.13	53615.82
618.32	54400.19
618.52	53818.57
618.72	54461.63
618.91	54041.80
619.11	53742.80
619.31	53738.70
619.50	53853.39
619.70	53652.69
619.90	54637.76
620.09	54142.15
620.29	53679.31
620.48	53822.67
620.68	54551.74
620.88	53327.06
621.07	54209.73
621.27	54363.33
621.46	53894.35
621.66	53761.23
621.86	53970.12
622.05	54015.18
622.25	54144.20
622.44	54131.91
622.64	54189.25
622.84	54592.70
623.03	53939.40
623.23	54015.18
623.42	54105.29
623.62	54359.23
623.82	54838.46
624.01	54254.79
624.21	54215.88
624.40	53937.35
624.60	54459.58
624.80	54240.45
624.99	54131.91
625.19	53970.12
625.38	54373.57
625.58	54404.29
625.77	54486.21
625.97	54586.56
626.17	54254.79
626.36	54121.67
626.56	54271.17
626.75	54170.82
626.95	54566.08
627.14	54510.78
627.34	54699.20
627.54	54607.04
627.73	54482.11
627.93	54369.47
628.12	54449.35
628.32	54744.25
628.51	54549.70
628.71	54449.35
628.90	54363.33
629.10	54500.54
629.30	54789.31
629.49	54709.44
629.69	54385.86
629.88	54611.13
630.08	55458.99
630.27	54897.85
630.47	54678.72
630.66	54858.94
630.86	54932.67
631.05	54508.74
631.25	55334.07
631.44	54527.17
631.64	54947.00
631.84	54686.91
632.03	55469.23
632.23	54955.19
632.42	55133.37
632.62	54678.72
632.81	54688.96
633.01	54846.65
633.20	55315.64
633.40	54813.88
633.59	55284.92
633.79	54643.90
633.98	54944.95
634.18	54807.74
634.37	55334.07
634.57	55006.39
634.76	55272.63
634.96	55002.30
635.15	55612.59
635.35	54955.19
635.54	54899.90
635.74	55350.45
635.93	54564.03
636.13	55534.77
636.32	55747.76
636.52	54869.18
636.71	55051.45
636.91	55256.24
637.10	55637.17
637.30	55571.63
637.49	55370.93
637.69	55203.00
637.88	55590.06
638.08	55129.27
638.27	55776.43
638.46	55006.39
638.66	55039.16
638.85	55174.33
639.05	55555.25
639.24	55637.17
639.44	54987.96
639.63	55739.57
639.83	55477.43
640.02	55440.56
640.22	55413.94
640.41	55502.00
640.61	55276.72
640.80	55227.57
640.99	55448.75
641.19	55852.20
641.38	55590.06
641.58	54985.91
641.77	55174.33
641.97	55719.09
642.16	55399.60
642.36	55813.29
642.55	55442.61
642.74	55395.51
642.94	56286.37
643.13	55661.74
643.33	55671.98
643.52	55764.14
643.72	55911.59
643.91	55624.88
644.10	56034.47
644.30	55940.27
644.49	55264.44
644.69	55979.18
644.88	56063.14
645.08	55645.36
645.27	55274.68
645.46	55516.34
645.66	55841.96
645.85	55612.59
646.05	55985.32
646.24	56032.42
646.43	55665.84
646.63	55958.70
646.82	56276.13
647.02	55901.36
647.21	55747.76
647.40	55506.10
647.60	56190.12
647.79	55762.09
647.99	55975.08
648.18	55770.28
648.37	56513.70
648.57	55891.12
648.76	55815.34
648.96	55702.70
649.15	56243.37
649.34	56077.48
649.54	56251.56
649.73	55942.31
649.92	55942.31
650.12	56259.75
650.31	56339.62
650.51	56325.28
650.70	56286.37
650.89	55639.22
651.09	56480.93
651.28	55790.76
651.47	56112.30
651.67	56411.30
651.86	56347.81
652.06	55981.23
652.25	56102.06
652.44	55927.98
652.64	55987.37
652.83	56073.38
653.02	55788.72
653.22	55813.29
653.41	55825.58
653.60	55669.93
653.80	55786.67
653.99	56229.03
654.18	56181.93
654.38	56120.49
654.57	56153.26
654.76	55655.60
654.96	55735.47
655.15	55870.64
655.34	56224.93
655.54	55667.89
655.73	55970.99
655.92	55981.23
656.12	55598.26
656.31	55780.52
656.50	55936.17
656.70	55596.21
656.89	55985.32
657.08	55846.06
657.28	55934.12
657.47	55919.79
657.66	55854.25
657.86	55647.41
658.05	56075.43
658.24	55768.24
658.43	55729.33
658.63	55913.64
658.82	55751.85
659.01	56226.98
659.21	56433.83
659.40	56181.93
659.59	55594.16
659.79	56269.99
659.98	56011.95
660.17	55946.41
660.36	55805.10
660.56	56136.87
660.75	56059.05
660.94	56153.26
661.14	56026.28
661.33	55876.78
661.52	55547.06
661.71	55864.49
661.91	55303.35
662.10	55671.98
662.29	56259.75
662.49	55487.67
662.68	55489.71
662.87	55948.46
663.06	55764.14
663.26	55631.02
663.45	56194.21
663.64	55858.35
663.83	56126.63
664.03	55557.30
664.22	56079.53
664.41	55737.52
664.60	55899.31
664.80	55829.68
664.99	55950.51
665.18	55483.57
665.37	55858.35
665.57	55700.65
665.76	55815.34
665.95	55366.84
666.14	55940.27
666.34	55628.98
666.53	55289.01
666.72	55415.99
666.91	55370.93
667.11	55346.36
667.30	55309.49
667.49	55473.33
667.68	55696.56
667.87	55655.60
668.07	55852.20
668.26	55424.18
668.45	55633.07
668.64	55452.85
668.84	56245.41
669.03	55983.27
669.22	55424.18
669.41	55686.32
669.60	55487.67
669.80	55690.41
669.99	55764.14
670.18	55360.69
670.37	55690.41
670.57	56253.61
670.76	55448.75
670.95	55641.26
671.14	55790.76
671.33	55352.50
671.53	56200.36
671.72	55538.86
671.91	55588.02
672.10	55274.68
672.29	55422.13
672.48	55438.51
672.68	55983.27
672.87	55606.45
673.06	55538.86
673.25	55522.48
673.44	55479.47
673.64	55348.40
673.83	55723.18
674.02	55567.54
674.21	55329.97
674.40	55284.92
674.59	55633.07
674.79	55227.57
674.98	55203.00
675.17	55651.50
675.36	55018.68
675.55	55631.02
675.74	54901.95
675.94	55203.00
676.13	55379.12
676.32	55628.98
676.51	55893.16
676.70	55954.60
676.89	55289.01
677.08	55960.75
677.28	55332.02
677.47	55604.40
677.66	55833.77
677.85	55721.13
678.04	55426.23
678.23	55723.18
678.42	55608.50
678.62	55393.46
678.81	55192.76
679.00	55325.88
679.19	55897.26
679.38	55481.52
679.57	55278.77
679.76	55422.13
679.96	55493.81
680.15	55170.23
680.34	55514.29
680.53	55714.99
680.72	55809.20
680.91	55911.59
681.10	55119.03
681.29	55239.86
681.48	55311.54
681.68	55344.31
681.87	55026.87
682.06	55364.79
682.25	54844.60
682.44	55123.13
682.63	55415.99
682.82	55065.78
683.01	55194.81
683.20	55078.07
683.39	55469.23
683.59	55127.22
683.78	55352.50
683.97	55180.47
684.16	54580.42
684.35	55131.32
684.54	55325.88
684.73	54990.01
684.92	54817.98
685.11	55301.30
685.30	55458.99
685.49	55297.20
685.69	55284.92
685.88	55248.05
686.07	55121.08
686.26	54842.56
686.45	55305.40
686.64	55305.40
686.83	55194.81
687.02	54789.31
687.21	55450.80
687.40	55534.77
687.59	55379.12
687.78	54727.87
687.97	55450.80
688.16	55348.40
688.35	55219.38
688.54	54992.06
688.74	55176.37
688.93	55299.25
689.12	55243.96
689.31	54779.07
689.50	55260.34
689.69	54867.13
689.88	54891.71
690.07	55166.13
690.26	54963.39
690.45	55383.22
690.64	55344.31
690.83	55112.89
691.02	54867.13
691.21	54621.37
691.40	54969.53
691.59	55016.63
691.78	54910.14
691.97	55026.87
692.16	55256.24
692.35	55076.02
692.54	55039.16
692.73	55035.06
692.92	55188.66
693.11	54811.84
693.30	54996.15
693.49	55327.92
693.68	54820.03
693.87	55018.68
694.06	54803.64
694.25	54465.73
694.44	54627.52
694.63	54572.22
694.82	55096.50
695.01	55264.44
695.20	54912.19
695.39	54240.45
695.58	54590.66
695.77	54676.67
695.96	54461.63
696.15	54774.97
696.34	54717.63
696.53	54627.52
696.72	54686.91
696.91	54645.95
697.10	54863.03
697.29	54516.93
697.48	54846.65
697.67	54641.85
697.86	54455.49
698.05	54316.23
698.24	54678.72
698.43	53949.64
698.62	54582.46
698.81	54508.74
699.00	54648.00
699.19	54174.92
699.38	54430.91
699.57	54469.82
699.76	54715.58
699.95	53916.87
700.14	54303.94
700.32	53810.38
700.51	54029.51
700.70	54318.28
700.89	54637.76
701.08	54316.23
701.27	53814.47
701.46	54557.89
701.65	53679.31
701.84	54559.94
702.03	54029.51
702.22	54195.40
702.41	53941.45
702.60	54189.25
702.79	53855.43
702.98	53935.30
703.17	53822.67
703.35	53925.07
703.54	53736.65
703.73	54099.14
703.92	53984.46
704.11	53750.99
704.30	53630.16
704.49	53648.59
704.68	53392.59
704.87	53826.76
705.06	53589.20
705.25	53601.49
705.43	53587.15
705.62	53822.67
705.81	53435.60
706.00	53560.53
706.19	53445.84
706.38	53376.21
706.57	53339.35
706.76	53220.56
706.95	53548.24
707.14	53017.82
707.32	53218.52
707.51	53136.60
707.70	53140.69
707.89	53021.91
708.08	53359.83
708.27	53226.71
708.46	53710.03
708.65	53503.18
708.84	53597.39
709.02	52849.88
709.21	52909.27
709.40	53144.79
709.59	53146.84
709.78	52731.10
709.97	53118.17
710.16	52583.65
710.34	52950.23
710.53	52966.62
710.72	52458.72
710.91	53157.08
711.10	52493.54
711.29	53097.69
711.48	52468.96
711.66	52686.04
711.85	52671.71
712.04	52937.94
712.23	52700.38
712.42	52747.48
712.61	52458.72
712.80	52471.01
712.98	52163.81
713.17	52577.50
713.36	51995.88
713.55	52501.73
713.74	52223.20
713.93	52487.39
714.11	52079.85
714.30	52124.90
714.49	52327.65
714.68	52434.14
714.87	52298.98
715.06	52237.54
715.24	51805.42
715.43	52026.60
715.62	51844.33
715.81	52034.79
716.00	52303.07
716.18	51543.28
716.37	51369.20
716.56	51283.19
716.75	52045.03
716.94	51559.66
717.12	51469.55
717.31	51834.09
717.50	51299.57
717.69	51479.79
717.88	51504.37
718.06	51238.13
718.25	51401.97
718.44	50773.24
718.63	51154.16
718.82	51109.11
719.00	51019.00
719.19	50996.47
719.38	51057.91
719.57	50652.41
719.76	50509.05
719.94	50285.82
720.13	50175.23
720.32	50785.53
720.51	50734.33
720.69	50414.85
720.88	50271.49
721.07	49935.62
721.26	49919.24
721.44	50081.03
721.63	50287.87
721.82	49548.56
722.01	49882.37
722.20	49882.37
722.38	49886.47
722.57	49444.11
722.76	49765.64
722.95	49923.33
723.13	49313.04
723.32	49972.49
723.51	49231.12
723.70	49108.24
723.88	49274.13
724.07	49386.77
724.26	49354.00
724.44	48426.27
724.63	49114.39
724.82	48821.53
725.01	48950.55
725.19	49026.32
725.38	48821.53
725.57	48579.87
725.76	48868.63
725.94	48391.45
726.13	48487.71
726.32	48839.96
726.51	48782.62
726.69	49173.78
726.88	48753.94
727.07	48370.97
727.25	48379.17
727.44	48610.59
727.63	48561.44
727.82	48430.36
728.00	48545.05
728.19	48297.25
728.38	48434.46
728.56	47703.34
728.75	48358.69
728.94	48260.38
729.12	48420.13
729.31	48223.52
729.50	48037.16
729.69	48317.73
729.87	48227.62
730.06	48229.66
730.25	47852.84
730.43	48665.88
730.62	47693.10
730.81	48223.52
730.99	48182.56
731.18	47772.97
731.37	47981.86
731.55	48000.29
731.74	48334.11
731.93	48108.83
732.11	47738.15
732.30	48055.59
732.49	47848.74
732.67	48098.59
732.86	47803.69
733.05	47879.46
733.23	47609.13
733.42	47512.88
733.61	47813.93
733.79	47967.52
733.98	47725.86
734.17	47572.27
734.35	47349.04
734.54	47349.04
734.73	47807.78
734.91	47570.22
735.10	47338.80
735.29	47609.13
735.47	47293.74
735.66	47621.42
735.84	47588.65
736.03	47224.11
736.22	47707.43
736.40	47129.90
736.59	47322.41
736.78	47125.81
736.96	46927.16
737.15	47144.24
737.33	46886.20
737.52	47174.96
737.71	46822.71
737.89	47320.37
738.08	46863.67
738.27	46642.49
738.45	47197.49
738.64	47158.58
738.82	46880.05
739.01	46556.47
739.20	46599.48
739.38	46775.61
739.57	47107.38
739.75	47308.08
739.94	46585.15
740.13	46654.78
740.31	46683.45
740.50	46363.96
740.68	46292.29
740.87	46404.92
741.06	46320.96
741.24	46634.30
741.43	46089.54
741.61	46771.51
741.80	45792.58
741.99	46419.26
742.17	45866.31
742.36	46384.44
742.54	45858.12
742.73	45960.51
742.91	46013.76
743.10	45860.16
743.29	46400.83
743.47	46320.96
743.66	45602.12
743.84	46312.77
744.03	45792.58
744.21	45911.36
744.40	46009.67
744.59	45792.58
744.77	45516.11
744.96	45475.15
745.14	45774.15
745.33	45606.22
745.51	45423.95
745.70	45856.07
745.88	45223.25
746.07	45706.57
746.26	45481.29
746.44	45825.35
746.63	45264.21
746.81	45716.81
747.00	45608.26
747.18	45681.99
747.37	45827.40
747.55	45507.91
747.74	45712.71
747.92	44987.73
748.11	45419.85
748.29	45073.74
748.48	45481.29
748.66	45061.46
748.85	45208.91
749.03	44815.70
749.22	45247.82
749.41	44899.67
749.59	45403.47
749.78	44799.32
749.96	44528.98
750.15	44811.60
750.33	45043.02
750.52	44784.98
750.70	44737.88
750.89	44324.19
751.07	44543.32
751.26	44408.15
751.44	44621.14
751.63	44531.03
751.81	44438.87
752.00	44649.81
752.18	44854.61
752.37	44303.71
752.55	43867.49
752.74	44500.31
752.92	44438.87
753.10	44248.41
753.29	44098.91
753.47	44313.95
753.66	43957.60
753.84	44381.53
754.03	43943.27
754.21	44246.36
754.40	44217.69
754.58	44297.56
754.77	44397.91
754.95	43865.44
755.14	43801.96
755.32	43781.48
755.51	43496.81
755.69	43767.14
755.88	43498.86
756.06	43425.13
756.24	43910.50
756.43	43947.36
756.61	43797.86
756.80	43406.70
756.98	43146.61
757.17	43980.13
757.35	43584.87
757.54	43697.51
757.72	43691.37
757.90	43720.04
758.09	43447.66
758.27	43396.46
758.46	43210.09
758.64	43251.05
758.83	43464.04
759.01	43257.20
759.19	43586.92
759.38	43378.03
759.56	43445.61
759.75	43349.35
759.93	43201.90
760.12	43023.73
760.30	43732.32
760.48	43287.92
760.67	42882.42
760.85	43036.02
761.04	43087.21
761.22	43267.44
761.40	42681.72
761.59	42734.96
761.77	42341.75
761.96	42749.30
762.14	42855.79
762.32	42630.52
762.51	42722.68
762.69	42749.30
762.88	42591.61
763.06	42587.51
763.24	42728.82
763.43	42988.91
763.61	42333.56
763.80	42452.34
763.98	42284.41
764.16	42272.12
764.35	42567.03
764.53	42028.41
764.72	42259.84
764.90	42597.75
765.08	42431.86
765.27	42351.99
765.45	42313.08
765.63	41774.47
765.82	42294.65
766.00	42063.23
766.18	42507.64
766.37	42646.90
766.55	41835.91
766.74	42214.78
766.92	42165.63
767.10	42085.76
767.29	42388.86
767.47	41870.72
767.65	41809.28
767.84	41368.97
768.02	42194.30
768.20	41536.90
768.39	41964.93
768.57	41631.11
768.75	41655.68
768.94	41751.94
769.12	41860.48
769.30	41209.23
769.49	41489.80
769.67	41389.45
769.85	40842.64
770.04	41573.77
770.22	41362.82
770.40	41031.05
770.59	41133.45
770.77	41328.01
770.95	41065.87
771.14	41043.34
771.32	40932.75
771.50	40703.38
771.69	40891.79
771.87	41133.45
772.05	41139.60
772.24	41158.03
772.42	40934.80
772.60	40904.08
772.78	40594.84
772.97	40369.56
773.15	40797.59
773.33	40385.94
773.52	40592.79
773.70	41043.34
773.88	41092.49
774.07	40340.89
774.25	40897.94
774.43	41100.68
774.61	40834.45
774.80	40447.38
774.98	40889.74
775.16	41055.63
775.34	41139.60
775.53	41004.43
775.71	41010.57
775.89	40709.52
776.08	40596.88
776.26	41153.93
776.44	41192.84
776.62	40836.50
776.81	40768.91
776.99	41196.94
777.17	40910.22
777.35	40859.02
777.54	41227.66
777.72	41112.97
777.90	41108.88
778.08	41260.43
778.27	41235.85
778.45	41639.30
778.63	41719.17
778.81	41088.40
779.00	41776.51
779.18	41379.21
779.36	41784.71
779.54	41328.01
779.73	41305.48
779.91	41860.48
780.09	41285.00
780.27	41276.81
780.46	41485.70
780.64	42091.90
780.82	41596.29
781.00	41680.26
781.19	41796.99
781.37	41909.63
781.55	42014.08
781.73	41893.25
781.91	41768.32
782.10	41782.66
782.28	41811.33
782.46	41911.68
782.64	42198.40
782.82	42292.60
783.01	41682.31
783.19	42173.82
783.37	42143.10
783.55	42001.79
783.74	42222.97
783.92	41856.39
784.10	42954.10
784.28	42272.12
784.46	42001.79
784.64	41647.49
784.83	42108.29
785.01	42302.84
785.19	41903.49
785.37	42030.46
785.55	42407.29
785.74	41940.35
785.92	41739.65
786.10	42249.60
786.28	42130.81
786.46	41815.43
786.64	41727.36
786.83	42210.68
787.01	42018.17
787.19	41852.29
787.37	42358.14
787.55	42110.33
787.74	41725.32
787.92	41657.73
788.10	41770.37
788.28	41270.67
788.46	41530.76
788.64	41188.75
788.82	41725.32
789.01	41643.40
789.19	41866.63
789.37	41223.56
789.55	41340.30
789.73	41446.79
789.91	40887.70
790.09	41106.83
790.28	40947.09
790.46	40707.47
790.64	41135.50
790.82	40893.84
791.00	40629.65
791.18	40445.33
791.36	41174.41
791.55	41186.70
791.73	40416.66
791.91	40367.51
792.09	40207.77
792.27	40936.85
792.45	40555.93
792.63	40275.35
792.81	40060.32
793.00	40068.51
793.18	40166.81
793.36	39609.76
793.54	40175.00
793.72	39921.05
793.90	39513.51
794.08	39753.12
794.26	39923.10
794.44	38786.48
794.62	39523.75
794.81	39245.23
794.99	39544.23
795.17	39335.34
795.35	39398.82
795.53	39290.28
795.71	39597.48
795.89	39030.19
796.07	38696.37
796.25	38536.63
796.43	38747.57
796.61	38467.00
796.80	38237.62
796.98	38827.44
797.16	37928.38
797.34	38241.72
797.52	38116.79
797.70	38352.31
797.88	38071.74
798.06	37602.75
798.24	37709.25
798.42	37864.89
798.60	37514.69
798.78	37479.88
798.96	37703.10
799.14	37189.06
799.32	37332.42
799.51	37332.42
799.69	37295.56
799.87	37365.19
800.05	37227.98
800.23	37131.72
800.41	36920.78
800.59	36623.83
800.77	37004.75
800.95	36214.23
801.13	36795.85
801.31	36615.63
801.49	36683.22
801.67	36294.10
801.85	36478.42
802.03	36058.59
802.21	35870.17
802.39	36183.51
802.57	35945.95
802.75	35843.55
802.93	35829.21
803.11	35419.62
803.29	35722.72
803.47	35610.08
803.65	35571.17
803.83	35468.77
804.01	35239.40
804.19	34745.84
804.37	35067.37
804.55	35270.12
804.73	34895.34
804.91	34940.39
805.09	35096.04
805.27	34700.78
805.45	34866.67
805.63	34934.25
805.81	34704.88
805.99	34635.25
806.17	34405.88
806.35	34442.74
806.53	34211.32
806.71	34350.58
806.89	34135.54
807.07	34412.02
807.25	34149.88
807.43	33883.64
807.61	34317.81
807.79	33709.57
807.97	33875.45
808.15	33742.33
808.33	33496.58
808.51	33158.66
808.69	33535.49
808.87	33037.83
809.05	33166.85
809.23	32863.75
809.41	32839.18
809.59	32685.58
809.77	32853.51
809.95	32906.76
810.13	33050.12
810.31	32661.01
810.49	32871.95
810.67	32548.37
810.84	32470.54
811.02	32761.36
811.20	32130.58
811.38	32384.53
811.56	32071.19
811.74	32241.17
811.92	32165.40
812.10	32280.08
812.28	32325.14
812.46	32206.36
812.64	32253.46
812.82	31997.46
813.00	31764.00
813.18	31792.67
813.36	31716.89
813.53	31258.15
813.71	31399.46
813.89	31616.54
814.07	31278.63
814.25	31444.51
814.43	31479.33
814.61	31030.82
814.79	31260.20
814.97	31055.40
815.15	30877.22
815.33	30676.52
815.50	30729.77
815.68	30633.52
815.86	31039.01
816.04	30674.48
816.22	30430.77
816.40	30694.96
816.58	30680.62
816.76	30203.44
816.94	30516.78
817.11	30400.05
817.29	30144.05
817.47	30305.84
817.65	30152.24
817.83	30479.92
818.01	30099.00
818.19	30121.52
818.37	29951.54
818.54	29619.77
818.72	29836.86
818.90	29912.63
819.08	29883.96
819.26	29767.23
819.44	29386.30
819.62	29478.46
819.80	29478.46
819.97	29662.78
820.15	29484.61
820.33	29177.41
820.51	29527.61
820.69	28771.91
820.87	28929.61
821.05	29281.86
821.22	29148.74
821.40	28829.26
821.58	28814.92
821.76	29087.30
821.94	28796.49
822.12	28991.05
822.29	28900.94
822.47	28898.89
822.65	28995.14
822.83	29003.33
823.01	28833.35
823.19	28538.44
823.36	28333.65
823.54	28481.10
823.72	28374.61
823.90	28425.81
824.08	28130.90
824.25	28540.49
824.43	28110.42
824.61	28178.00
824.79	28100.18
824.97	28282.45
825.15	28208.72
825.32	27862.61
825.50	27788.89
825.68	27606.62
825.86	28171.86
826.04	27932.25
826.21	27745.88
826.39	27985.49
826.57	27518.56
826.75	27391.58
826.93	27510.36
827.10	27461.21
827.28	27756.12
827.46	27778.65
827.64	27076.19
827.81	27192.93
827.99	27266.66
828.17	27104.87
828.35	27016.80
828.53	27367.01
828.70	27102.82
828.88	27098.72
829.06	27180.64
829.24	27160.16
829.41	26801.77
829.59	27242.08
829.77	26924.65
829.95	26842.73
830.12	26936.93
830.30	26668.65
830.48	26852.97
830.66	26355.31
830.84	26957.41
831.01	26584.68
831.19	26744.42
831.37	26424.94
831.55	26324.59
831.72	26547.82
831.90	26508.91
832.08	26435.18
832.25	26123.89
832.43	26095.22
832.61	26089.07
832.79	26211.95
832.96	26123.89
833.14	26279.54
833.32	25900.66
833.50	25958.00
833.67	26285.68
833.85	26031.73
834.03	26031.73
834.20	25865.85
834.38	25992.82
834.56	25871.99
834.74	25603.71
834.91	25474.68
835.09	25781.88
835.27	25343.61
835.44	25441.92
835.62	25292.41
835.80	25128.58
835.98	25425.53
836.15	25425.53
836.33	25536.12
836.51	25589.37
836.68	25052.80
836.86	25360.00
837.04	25435.77
837.21	25519.74
837.39	25362.04
837.57	25132.67
837.75	25202.30
837.92	24966.79
838.10	25202.30
838.28	25034.37
838.45	25030.27
838.63	24815.24
838.81	24911.49
838.98	24829.57
839.16	24944.26
839.34	24549.00
839.51	24737.41
839.69	24286.86
839.87	24376.97
840.04	24716.93
840.22	24747.65
840.40	24655.50
840.57	24196.75
840.75	24489.61
840.93	24489.61
841.10	24467.08
841.28	24583.82
841.46	24282.77
841.63	24510.09
841.81	24037.01
841.98	24336.01
842.16	24327.82
842.34	24264.33
842.51	23946.90
842.69	24086.16
842.87	23944.85
843.04	24108.69
843.22	23705.24
843.40	23991.95
843.57	24016.53
843.75	24020.63
843.92	24020.63
844.10	23793.30
844.28	23887.51
844.45	24092.30
844.63	23828.12
844.81	23869.08
844.98	23637.66
845.16	23819.92
845.33	23645.85
845.51	23635.61
845.69	23539.35
845.86	23461.53
846.04	23295.64
846.21	23537.30
846.39	23363.23
846.57	23490.20
846.74	23414.43
846.92	23293.60
847.09	23729.81
847.27	23115.42
847.45	23318.17
847.62	23269.02
847.80	23439.00
847.97	23260.83
848.15	23277.21
848.32	22978.21
848.50	23160.48
848.68	22720.17
848.85	22746.79
849.03	22660.77
849.20	22869.67
849.38	22730.41
849.56	22818.47
849.73	22494.89
849.91	23062.18
850.08	23006.88
850.26	22613.67
850.43	22732.45
850.61	22797.99
850.78	22259.37
850.96	22644.39
851.14	22384.30
851.31	22699.69
851.49	22797.99
851.66	22648.49
851.84	22267.56
852.01	22562.47
852.19	22558.38
852.36	22558.38
852.54	22261.42
852.71	22531.75
852.89	22357.67
853.07	22517.42
853.24	22683.30
853.42	22335.15
853.59	22283.95
853.77	22521.51
853.94	22359.72
854.12	22412.97
854.29	22058.67
854.47	22165.17
854.64	21935.79
854.82	22238.89
854.99	22331.05
855.17	22030.00
855.34	22027.95
855.52	22142.64
855.69	22324.91
855.87	21982.90
856.04	21470.90
856.22	21849.78
856.39	21690.04
856.57	21792.44
856.74	21472.95
856.92	21851.83
857.09	21546.68
857.27	21749.43
857.44	22050.48
857.62	21925.55
857.79	21731.00
857.97	21771.96
858.14	21411.51
858.32	21569.21
858.49	21448.38
858.67	21475.00
858.84	21579.45
859.02	21391.03
859.19	21208.76
859.37	21200.57
859.54	21200.57
859.72	21431.99
859.89	21157.57
860.06	21513.91
860.24	21223.10
860.41	21374.65
860.59	21067.45
860.76	21278.40
860.94	21055.17
861.11	21202.62
861.29	21378.75
861.46	21237.44
861.64	20752.07
861.81	20944.58
861.98	21042.88
862.16	20848.32
862.33	21030.59
862.51	20668.10
862.68	20879.04
862.86	20725.44
863.03	21018.30
863.21	20836.03
863.38	20682.44
863.55	20633.29
863.73	20760.26
863.90	20670.15
864.08	20752.07
864.25	20883.14
864.43	20518.60
864.60	20555.46
864.77	20389.58
864.95	20307.66
865.12	20448.97
865.30	20657.86
865.47	20205.26
865.64	20459.21
865.82	20375.24
865.99	20403.91
866.17	20432.58
866.34	20328.14
866.51	20160.20
866.69	20254.41
866.86	20262.60
867.04	20111.05
867.21	20213.45
867.38	20082.38
867.56	19961.55
867.73	19795.67
867.91	19797.71
868.08	20025.04
868.25	19953.36
868.43	20006.61
868.60	19764.95
868.78	19955.41
868.95	20012.75
869.12	19867.34
869.30	19582.68
869.47	19873.49
869.64	19455.70
869.82	19642.07
869.99	19574.49
870.16	19629.78
870.34	19707.60
870.51	19848.91
870.69	19736.27
870.86	19523.29
871.03	19777.23
871.21	19527.38
871.38	19576.53
871.55	19336.92
871.73	19566.29
871.90	19091.16
872.07	19087.07
872.25	19107.55
872.42	19029.73
872.59	19207.90
872.77	19240.67
872.94	19199.71
873.11	19345.11
873.29	19242.71
873.46	18892.51
873.63	18964.19
873.81	18976.48
873.98	18972.38
874.15	19068.64
874.33	18630.37
874.50	18534.12
874.67	18892.51
874.85	18736.87
875.02	18669.28
875.19	18697.95
875.37	18718.43
875.54	18564.84
875.71	18650.85
875.88	18675.43
876.06	18425.57
876.23	18382.57
876.40	18284.26
876.58	18294.50
876.75	18337.51
876.92	18398.95
877.10	18638.56
877.27	18290.41
877.44	18159.34
877.61	18437.86
877.79	18087.66
877.96	18054.89
878.13	17987.31
878.31	17993.45
878.48	17968.88
878.65	18214.63
878.82	17821.42
879.00	17989.36
879.17	17907.44
879.34	18122.48
879.51	17972.97
879.69	17762.03
879.86	17786.61
880.03	17886.96
880.21	17956.59
880.38	17809.14
880.55	17794.80
880.72	17501.94
880.90	17676.02
881.07	17409.78
881.24	17487.61
881.41	17690.35
881.59	17659.63
881.76	17258.23
881.93	17479.41
882.10	17448.69
882.28	17125.11
882.45	17379.06
882.62	17387.25
882.79	17532.66
882.96	16969.47
883.14	17274.62
883.31	17393.40
883.48	17090.30
883.65	17174.27
883.83	17280.76
884.00	17227.51
884.17	17217.27
884.34	17180.41
884.51	17282.81
884.69	17272.57
884.86	17030.91
885.03	17024.76
885.20	16924.41
885.38	17121.02
885.55	17047.29
885.72	16867.07
885.89	17133.31
886.06	16781.06
886.24	16940.80
886.41	17028.86
886.58	16871.17
886.75	16871.17
886.92	16924.41
887.10	16934.65
887.27	16885.50
887.44	16914.17
887.61	16983.80
887.78	16838.40
887.95	16922.37
888.13	16514.82
888.30	16551.68
888.47	16434.95
888.64	16713.47
888.81	16756.48
888.99	16617.22
889.16	16371.46
889.33	16310.02
889.50	16269.06
889.67	16396.04
889.84	16291.59
890.01	16531.20
890.19	16551.68
890.36	16299.78
890.53	16410.37
890.70	15937.29
890.87	16221.96
891.04	16172.81
891.22	16525.06
891.39	16389.89
891.56	16353.03
891.73	16350.98
891.90	15863.57
892.07	16142.09
892.24	16287.50
892.42	15968.01
892.59	15900.43
892.76	15922.96
892.93	16078.60
893.10	16123.66
893.27	15978.25
893.44	15871.76
893.61	15599.38
893.79	16006.92
893.96	15752.98
894.13	15957.77
894.30	15910.67
894.47	15720.21
894.64	16082.70
894.81	16019.21
894.98	15957.77
895.15	15810.32
895.33	15865.61
895.50	15908.62
895.67	15861.52
895.84	15748.88
896.01	15595.28
896.18	15675.15
896.35	15826.70
896.52	15806.22
896.69	15662.86
896.86	15660.82
897.04	15646.48
897.21	15736.59
897.38	15572.75
897.55	15482.64
897.72	15843.09
897.89	15714.06
898.06	15859.47
898.23	15632.15
898.40	15335.19
898.57	15761.17
898.74	15802.13
898.91	15636.24
899.08	15570.71
899.26	15472.40
899.43	15597.33
899.60	15615.76
899.77	15570.71
899.94	15527.70
900.11	15634.19
900.28	15669.01
900.45	15501.08
900.62	15376.15
900.79	15707.92
900.96	15642.39
901.13	15593.23
901.30	15662.86
901.47	15546.13
901.64	15335.19
901.81	15677.20
901.98	15339.29
902.15	15873.81
902.32	15413.01
902.49	15615.76
902.66	15492.88
902.83	15406.87
903.01	15384.34
903.18	15570.71
903.35	15505.17
903.52	15400.72
903.69	15507.22
903.86	15757.07
904.03	15642.39
904.20	15709.97
904.37	15628.05
904.54	15474.45
904.71	15324.95
904.88	15447.83
905.05	15406.87
905.22	15546.13
905.39	15486.74
905.56	15441.68
905.73	15496.98
905.90	15621.91
906.07	15451.92
906.24	15515.41
906.41	15441.68
906.58	15552.27
906.75	15380.25
906.92	15525.65
907.09	15206.17
907.26	15228.70
907.43	15267.61
907.60	15257.37
907.77	15478.55
907.93	15406.87
908.10	15505.17
908.27	15341.33
908.44	15382.29
908.61	15386.39
908.78	15550.23
908.95	15435.54
909.12	15281.94
909.29	15482.64
909.46	15302.42
909.63	15402.77
909.80	15232.79
909.97	15355.67
910.14	15228.70
910.31	15404.82
910.48	15298.33
910.65	15120.15
910.82	14968.60
910.99	15142.68
911.16	15122.20
911.33	15154.97
911.50	15212.31
911.66	14941.98
911.83	14927.64
912.00	15103.77
912.17	14946.08
912.34	15077.15
912.51	14958.36
912.68	14841.63
912.85	14880.54
913.02	14651.17
913.19	14782.24
913.36	14782.24
913.53	14950.17
913.70	14741.28
913.86	15032.09
914.03	14671.65
914.20	14741.28
914.37	14767.90
914.54	14659.36
914.71	14704.42
914.88	14739.23
915.05	14489.38
915.22	14530.34
915.39	14470.95
915.55	14716.70
915.72	14649.12
915.89	14348.07
916.06	14206.76
916.23	14225.19
916.40	14130.98
916.57	14442.28
916.74	14094.12
916.91	14067.50
917.07	14120.74
917.24	14186.28
917.41	14016.30
917.58	14163.75
917.75	13899.56
917.92	13809.45
918.09	13862.70
918.26	14032.68
918.42	13721.39
918.59	13600.56
918.76	13653.81
918.93	13668.14
919.10	13598.51
919.27	13674.29
919.44	13891.37
919.60	13629.23
919.77	13487.92
919.94	13553.46
920.11	13604.66
920.28	13465.39
920.45	13430.58
920.61	13293.37
920.78	13256.50
920.95	13205.30
921.12	13193.01
921.29	13086.52
921.46	12961.59
921.62	13023.03
921.79	13078.33
921.96	13025.08
922.13	12914.49
922.30	12840.76
922.47	12570.43
922.63	12758.85
922.80	12758.85
922.97	12580.67
923.14	12599.10
923.31	12724.03
923.47	12422.98
923.64	12693.31
923.81	12758.85
923.98	12412.74
924.15	12480.32
924.32	12410.69
924.48	12326.72
924.65	12476.23
924.82	12322.63
924.99	12095.30
925.15	11861.84
925.32	12087.11
925.49	11908.94
925.66	12009.29
925.83	12001.10
925.99	12111.69
926.16	11749.20
926.33	11874.12
926.50	11886.41
926.67	11644.75
926.83	11665.23
927.00	11632.46
927.17	11470.67
927.34	11296.60
927.50	11407.19
927.67	11611.98
927.84	11308.88
928.01	11366.23
928.17	11269.97
928.34	11235.16
928.51	11038.55
928.68	11192.15
928.84	10989.40
929.01	10862.43
929.18	10930.01
929.35	10862.43
929.51	11042.65
929.68	10680.16
929.85	10663.77
930.02	10612.57
930.18	10741.60
930.35	10506.08
930.52	10594.14
930.69	10585.95
930.85	10514.27
931.02	10377.06
931.19	10432.35
931.36	10225.51
931.52	10602.33
931.69	10291.04
931.86	10033.00
932.02	10225.51
932.19	10260.32
932.36	10372.96
932.53	10159.97
932.69	9852.78
932.86	10073.96
933.03	9953.13
933.19	9834.35
933.36	9809.77
933.53	9879.40
933.70	9752.43
933.86	9584.49
934.03	9654.12
934.20	9488.24
934.36	9645.93
934.53	9293.68
934.70	9092.98
934.86	9262.96
935.03	9285.49
935.20	9201.52
935.36	9066.36
935.53	8814.46
935.70	8900.47
935.86	9009.01
936.03	8716.16
936.20	8591.23
936.36	8662.91
936.53	8593.28
936.70	8578.94
936.86	8744.83
937.03	8480.64
937.20	8142.72
937.36	8210.31
937.53	7974.79
937.70	8161.16
937.86	7970.69
938.03	7878.54
938.20	7882.63
938.36	7628.68
938.53	7679.88
938.70	7712.65
938.86	7514.00
939.03	7462.80
939.20	7301.01
939.36	7307.15
939.53	7241.62
939.70	7276.43
939.86	6858.65
940.03	6854.55
940.19	6717.34
940.36	6928.28
940.53	6684.57
940.69	6666.14
940.86	6524.83
941.03	6473.63
941.19	6334.37
941.36	6342.56
941.52	6274.98
941.69	6410.14
941.86	6207.39
942.02	6084.52
942.19	6252.45
942.35	6107.04
942.52	5916.58
942.69	5975.97
942.85	5978.02
943.02	5990.31
943.18	5894.05
943.35	5822.38
943.52	5693.35
943.68	5736.36
943.85	5709.74
944.01	5709.74
944.18	5603.24
944.35	5658.54
944.51	5607.34
944.68	5527.47
944.84	5314.48
945.01	5396.40
945.17	5382.06
945.34	5554.09
945.51	5476.27
945.67	5359.53
945.84	5357.49
946.00	5310.38
946.17	5408.69
946.33	5273.52
946.50	5402.54
946.67	5324.72
946.83	5222.32
947.00	5414.83
947.16	5353.39
947.33	5250.99
947.49	5246.90
947.66	5177.26
947.82	5332.91
947.99	5167.03
948.16	5312.43
948.32	5236.66
948.49	5216.18
948.65	5220.27
948.82	5218.22
948.98	5214.13
949.15	5152.69
949.31	5281.71
949.48	5201.84
949.64	5365.68
949.81	5285.81
949.97	5171.12
950.14	5390.25
950.30	5128.11
950.47	5349.29
950.63	5214.13
950.80	5283.76
950.96	5248.94
951.13	5207.98
951.30	5169.07
951.46	5320.62
951.63	5377.97
951.79	5269.42
951.96	5363.63
952.12	5111.73
952.29	5345.20
952.45	5205.94
952.62	5337.01
952.78	5337.01
952.94	5371.82
953.11	5339.05
953.27	5173.17
953.44	5400.49
953.60	5412.78
953.77	5365.68
953.93	5339.05
954.10	5283.76
954.26	5320.62
954.43	5322.67
954.59	5423.02
954.76	5459.88
954.92	5277.62
955.09	5310.38
955.25	5339.05
955.42	5322.67
955.58	5414.83
955.75	5330.86
955.91	5214.13
956.07	5406.64
956.24	5351.34
956.40	5320.62
956.57	5502.89
956.73	5369.77
956.90	5529.52
957.06	5345.20
957.23	5410.73
957.39	5390.25
957.56	5441.45
957.72	5222.32
957.88	5384.11
958.05	5466.03
958.21	5550.00
958.38	5347.25
958.54	5410.73
958.71	5525.42
958.87	5384.11
959.03	5433.26
959.20	5451.69
959.36	5420.97
959.53	5302.19
959.69	5351.34
959.85	5453.74
960.02	5341.10
960.18	5255.09
960.35	5369.77
960.51	5455.79
960.68	5300.14
960.84	5294.00
961.00	5328.81
961.17	5300.14
961.33	5380.01
961.50	5386.16
961.66	5377.97
961.82	5306.29
961.99	5222.32
962.15	5375.92
962.31	5275.57
962.48	5367.73
962.64	5566.38
962.81	5250.99
962.97	5207.98
963.13	5279.66
963.30	5404.59
963.46	5269.42
963.62	5103.54
963.79	5294.00
963.95	5351.34
964.12	5236.66
964.28	5279.66
964.44	5216.18
964.61	5240.75
964.77	5339.05
964.93	5355.44
965.10	5339.05
965.26	5203.89
965.42	5269.42
965.59	5179.31
965.75	5244.85
965.92	5347.25
966.08	5167.03
966.24	5371.82
966.41	5242.80
966.57	5185.46
966.73	5185.46
966.90	5230.51
967.06	5046.20
967.22	5271.47
967.39	5124.02
967.55	5054.39
967.71	5027.76
967.88	5015.48
968.04	5134.26
968.20	5033.91
968.37	5117.87
968.53	5052.34
968.69	5038.00
968.85	4913.08
969.02	5072.82
969.18	5179.31
969.34	5136.31
969.51	5109.68
969.67	5197.74
969.83	4941.75
970.00	5003.19
970.16	4964.28
970.32	5044.15
970.48	5228.46
970.65	5013.43
970.81	5013.43
970.97	4882.36
971.14	4847.54
971.30	4964.28
971.46	4927.41
971.63	4900.79
971.79	5040.05
971.95	4845.49
972.11	4739.00
972.28	4753.34
972.44	4935.60
972.60	4777.91
972.76	4755.38
972.93	4865.97
973.09	4872.12
973.25	4798.39
973.42	4853.69
973.58	4933.56
973.74	4878.26
973.90	4831.16
974.07	4841.40
974.23	4870.07
974.39	4806.58
974.55	4657.08
974.72	4638.65
974.88	4589.50
975.04	4691.90
975.20	4665.27
975.37	4835.25
975.53	4579.26
975.69	4718.52
975.85	4718.52
976.01	4679.61
976.18	4681.66
976.34	4630.46
976.50	4661.18
976.66	4722.62
976.83	4626.36
976.99	4552.63
977.15	4745.14
977.31	4337.60
977.47	4571.07
977.64	4575.16
977.80	4556.73
977.96	4644.79
978.12	4491.20
978.29	4519.87
978.45	4503.48
978.61	4521.92
978.77	4550.59
978.93	4403.13
979.10	4566.97
979.26	4499.39
979.42	4509.63
979.58	4392.89
979.74	4489.15
979.91	4485.05
980.07	4390.84
980.23	4442.04
980.39	4360.13
980.55	4364.22
980.71	4364.22
980.88	4372.41
981.04	4224.96
981.20	4331.45
981.36	4415.42
981.52	4362.17
981.68	4290.49
981.85	4335.55
982.01	4294.59
982.17	4145.09
982.33	4161.47
982.49	4353.98
982.65	4108.23
982.82	4282.30
982.98	4253.63
983.14	4145.09
983.30	4384.70
983.46	4214.72
983.62	4267.97
983.79	4165.57
983.95	4173.76
984.11	4149.18
984.27	4220.86
984.43	4059.07
984.59	4097.99
984.75	4227.01
984.91	4097.99
985.08	4204.48
985.24	4106.18
985.40	3989.44
985.56	4165.57
985.72	4147.14
985.88	4165.57
986.04	4089.79
986.20	3981.25
986.37	4046.79
986.53	3993.54
986.69	4067.27
986.85	3977.16
987.01	3958.72
987.17	4100.03
987.33	3897.28
987.49	3962.82
987.65	3936.20
987.82	3958.72
987.98	3772.36
988.14	3946.44
988.30	3844.04
988.46	3893.19
988.62	3893.19
988.78	3821.51
988.94	3823.56
989.10	3751.88
989.26	3629.00
989.42	3770.31
989.59	3643.34
989.75	3753.93
989.91	3788.74
990.07	3710.92
990.23	3768.26
990.39	3682.25
990.55	3833.80
990.71	3731.40
990.87	3686.34
991.03	3870.66
991.19	3696.58
991.35	3524.55
991.51	3723.21
991.67	3729.35
991.83	3657.67
992.00	3684.30
992.16	3629.00
992.32	3641.29
992.48	3712.97
992.64	3555.27
992.80	3729.35
992.96	3616.71
993.12	3641.29
993.28	3702.73
993.44	3583.95
993.60	3585.99
993.76	3579.85
993.92	3715.02
994.08	3624.90
994.24	3579.85
994.40	3508.17
994.56	3631.05
994.72	3551.18
994.88	3555.27
995.04	3461.07
995.20	3483.59
995.36	3493.83
995.52	3600.33
995.68	3436.49
995.84	3348.43
996.00	3637.19
996.16	3442.64
996.32	3327.95
996.48	3483.59
996.64	3583.95
996.80	3438.54
996.96	3336.14
997.12	3381.20
997.28	3407.82
997.44	3305.42
997.60	3293.13
997.76	3332.05
997.92	3375.05
998.08	3420.11
998.24	3346.38
998.40	3334.09
998.56	3274.70
998.72	3293.13
998.88	3342.28
999.04	3356.62
999.20	3399.63
999.36	3252.17
999.52	3366.86
999.68	3268.56
999.84	3327.95
1000.00	3297.23
1000.16	3293.13
1000.32	3241.93
1000.48	3282.89
1000.64	3188.69
1000.80	3170.26
1000.95	3045.33
1001.11	3203.02
1001.27	3065.81
1001.43	3225.55
1001.59	3125.20
1001.75	3049.43
1001.91	3254.22
1002.07	3098.58
1002.23	3133.39
1002.39	3104.72
1002.55	3076.05
1002.71	2924.50
1002.87	3067.86
1003.03	2947.03
1003.19	3010.51
1003.34	3035.09
1003.50	3102.67
1003.66	3106.77
1003.82	3125.20
1003.98	3024.85
1004.14	3059.67
1004.30	3016.66
1004.46	3061.71
1004.62	2994.13
1004.78	2947.03
1004.94	2889.68
1005.09	2947.03
1005.25	3012.56
1005.41	2920.40
1005.57	2928.60
1005.73	2951.12
1005.89	2942.93
1006.05	2928.60
1006.21	2969.55
1006.37	2916.31
1006.52	2875.35
1006.68	2787.29
1006.84	2885.59
1007.00	2908.12
1007.16	2910.16
1007.32	2828.24
1007.48	2813.91
1007.64	2885.59
1007.79	2805.72
1007.95	2809.81
1008.11	2951.12
1008.27	2877.40
1008.43	2836.44
1008.59	2775.00
1008.75	2877.40
1008.91	2891.73
1009.06	2809.81
1009.22	2795.48
1009.38	2877.40
1009.54	2746.33
1009.70	2691.03
1009.86	2754.52
1010.01	2750.42
1010.17	2746.33
1010.33	2820.05
1010.49	2719.70
1010.65	2795.48
1010.81	2611.16
1010.96	2826.20
1011.12	2672.60
1011.28	2607.06
1011.44	2652.12
1011.60	2705.37
1011.76	2621.40
1011.91	2756.57
1012.07	2688.98
1012.23	2664.41
1012.39	2656.22
1012.55	2682.84
1012.71	2637.78
1012.86	2539.48
1013.02	2650.07
1013.18	2584.54
1013.34	2627.54
1013.50	2582.49
1013.65	2574.30
1013.81	2549.72
1013.97	2619.35
1014.13	2590.68
1014.29	2580.44
1014.44	2656.22
1014.60	2508.76
1014.76	2570.20
1014.92	2506.71
1015.07	2654.17
1015.23	2654.17
1015.39	2547.67
1015.55	2539.48
1015.71	2570.20
1015.86	2551.77
1016.02	2461.66
1016.18	2469.85
1016.34	2506.71
1016.49	2553.82
1016.65	2627.54
1016.81	2508.76
1016.97	2578.39
1017.12	2564.06
1017.28	2480.09
1017.44	2416.60
1017.60	2457.56
1017.75	2396.12
1017.91	2480.09
1018.07	2420.70
1018.23	2535.39
1018.38	2320.35
1018.54	2432.99
1018.70	2459.61
1018.86	2357.21
1019.01	2306.01
1019.17	2430.94
1019.33	2512.86
1019.49	2471.90
1019.64	2441.18
1019.80	2363.36
1019.96	2375.64
1020.12	2441.18
1020.27	2334.68
1020.43	2322.40
1020.59	2428.89
1020.74	2369.50
1020.90	2383.84
1021.06	2387.93
1021.22	2269.15
1021.37	2402.27
1021.53	2316.25
1021.69	2273.25
1021.84	2207.71
1022.00	2277.34
1022.16	2332.64
1022.31	2334.68
1022.47	2287.58
1022.63	2396.12
1022.79	2265.05
1022.94	2197.47
1023.10	2379.74
1023.26	2301.92
1023.41	2263.01
1023.57	2265.05
1023.73	2287.58
1023.88	2289.63
1024.04	2125.79
1024.20	2277.34
1024.35	2230.24
1024.51	2246.62
1024.67	2207.71
1024.82	2336.73
1024.98	2183.13
1025.14	2172.89
1025.29	2109.41
1025.45	2260.96
1025.61	2191.33
1025.76	2238.43
1025.92	2183.13
1026.08	2250.72
1026.23	2256.86
1026.39	2205.66
1026.55	2166.75
1026.70	2146.27
1026.86	2209.76
1027.02	2172.89
1027.17	2254.81
1027.33	2195.42
1027.48	2086.88
1027.64	2076.64
1027.80	2070.50
1027.95	2197.47
1028.11	2138.08
1028.27	2174.94
1028.42	2152.42
1028.58	2054.11
1028.73	2037.73
1028.89	2027.49
1029.05	2133.98
1029.20	2086.88
>>>>>End Processed Spectral Data<<<<<
