SpectraSuite Data File
++++++++++++++++++++++++++++++++++++
Date: Fri Jun 02 14:49:31 CEST 2017
User: INFO_000
Dark Spectrum Present: No
Reference Spectrum Present: No
Number of Sampled Component Spectra: 1
Spectrometers: USB4H00879
Integration Time (usec): 80000 (USB4H00879)
Spectra Averaged: 1 (USB4H00879)
Boxcar Smoothing: 0 (USB4H00879)
Correct for Electrical Dark: No (USB4H00879)
Strobe/Lamp Enabled: No (USB4H00879)
Correct for Detector Non-linearity: No (USB4H00879)
Correct for Stray Light: No (USB4H00879)
Number of Pixels in Processed Spectrum: 3648
>>>>>Begin Processed Spectral Data<<<<<
345.13	1189.87
345.34	1189.87
345.56	1189.87
345.78	1294.32
345.99	1329.13
346.21	1710.05
346.42	1724.39
346.64	1601.51
346.86	1816.55
347.07	1613.80
347.29	1703.91
347.50	1581.03
347.72	1665.00
347.94	1732.58
348.15	1654.76
348.37	1667.05
348.59	1732.58
348.80	1617.90
349.02	1822.69
349.23	1857.51
349.45	1845.22
349.67	1826.79
349.88	1732.58
350.10	1968.10
350.31	1880.04
350.53	1771.49
350.75	1961.95
350.96	1802.21
351.18	1867.75
351.39	1886.18
351.61	1740.77
351.82	1816.55
352.04	1869.80
352.26	1802.21
352.47	1832.93
352.69	1892.32
352.90	1812.45
353.12	1830.88
353.34	1877.99
353.55	2002.91
353.77	1964.00
353.98	1816.55
354.20	1837.03
354.41	1941.47
354.63	1964.00
354.85	2007.01
355.06	1855.46
355.28	1791.97
355.49	1955.81
355.71	1828.84
355.92	1830.88
356.14	1966.05
356.35	1902.56
356.57	1812.45
356.79	1886.18
357.00	1929.19
357.22	1945.57
357.43	1863.65
357.65	1947.62
357.86	1871.84
358.08	1888.23
358.29	1947.62
358.51	1943.52
358.72	1961.95
358.94	1920.99
359.16	1927.14
359.37	1884.13
359.59	1935.33
359.80	1925.09
360.02	1923.04
360.23	1966.05
360.45	1949.67
360.66	1970.15
360.88	1845.22
361.09	1855.46
361.31	2037.73
361.52	1918.95
361.74	2033.63
361.95	2154.46
362.17	1941.47
362.38	2037.73
362.60	2013.15
362.81	1992.67
363.03	1908.71
363.24	1953.76
363.46	2058.21
363.67	2041.82
363.89	2027.49
364.10	2084.83
364.32	1953.76
364.53	2007.01
364.75	1880.04
364.96	2045.92
365.18	1918.95
365.39	2029.54
365.61	1998.82
365.82	2166.75
366.04	2021.35
366.25	2015.20
366.47	2088.93
366.68	1996.77
366.90	1912.80
367.11	2004.96
367.33	2052.06
367.54	2060.26
367.76	2045.92
367.97	2101.22
368.19	2027.49
368.40	2039.78
368.62	1957.86
368.83	1941.47
369.05	1994.72
369.26	2027.49
369.48	1966.05
369.69	2023.39
369.91	2041.82
370.12	2033.63
370.33	2131.94
370.55	1925.09
370.76	2039.78
370.98	2107.36
371.19	2095.07
371.41	1986.53
371.62	2129.89
371.84	1972.19
372.05	2189.28
372.27	2047.97
372.48	2064.35
372.69	2099.17
372.91	2156.51
373.12	2174.94
373.34	2101.22
373.55	2195.42
373.77	2154.46
373.98	2035.68
374.20	2109.41
374.41	2297.82
374.62	2076.64
374.84	2043.87
375.05	2164.70
375.27	2179.04
375.48	2183.13
375.70	2232.29
375.91	2172.89
376.12	2312.16
376.34	2113.50
376.55	2197.47
376.77	2242.53
376.98	2140.13
377.19	2193.37
377.41	2166.75
377.62	2127.84
377.84	2166.75
378.05	2240.48
378.27	2254.81
378.48	2269.15
378.69	2408.41
378.91	2344.92
379.12	2279.39
379.34	2277.34
379.55	2334.68
379.76	2297.82
379.98	2224.09
380.19	2195.42
380.41	2242.53
380.62	2281.44
380.83	2240.48
381.05	2189.28
381.26	2447.32
381.47	2207.71
381.69	2299.87
381.90	2392.03
382.12	2301.92
382.33	2318.30
382.54	2283.49
382.76	2256.86
382.97	2289.63
383.19	2191.33
383.40	2402.27
383.61	2283.49
383.83	2203.61
384.04	2322.40
384.25	2387.93
384.47	2402.27
384.68	2351.07
384.89	2357.21
385.11	2369.50
385.32	2344.92
385.54	2363.36
385.75	2346.97
385.96	2353.12
386.18	2326.49
386.39	2484.19
386.60	2412.51
386.82	2416.60
387.03	2400.22
387.24	2422.75
387.46	2451.42
387.67	2498.52
387.88	2588.63
388.10	2539.48
388.31	2457.56
388.52	2566.10
388.74	2580.44
388.95	2527.19
389.16	2586.58
389.38	2514.91
389.59	2707.41
389.80	2576.34
390.02	2506.71
390.23	2637.78
390.44	2453.47
390.66	2519.00
390.87	2523.10
391.08	2590.68
391.30	2723.80
391.51	2645.98
391.72	2764.76
391.94	2629.59
392.15	2648.02
392.36	2582.49
392.58	2629.59
392.79	2654.17
393.00	2676.70
393.22	2781.14
393.43	2783.19
393.64	2734.04
393.85	2738.13
394.07	2684.89
394.28	2738.13
394.49	2713.56
394.71	2799.57
394.92	2852.82
395.13	2713.56
395.35	2740.18
395.56	2715.61
395.77	2742.23
395.98	2805.72
396.20	2877.40
396.41	2813.91
396.62	2877.40
396.84	2791.38
397.05	2789.33
397.26	2953.17
397.47	2987.99
397.69	2785.24
397.90	2953.17
398.11	2973.65
398.32	2863.06
398.54	2942.93
398.75	2934.74
398.96	2957.27
399.18	3049.43
399.39	3104.72
399.60	3076.05
399.81	3006.42
400.03	3006.42
400.24	3360.72
400.45	2904.02
400.66	3010.51
400.88	2967.51
401.09	3223.50
401.30	3114.96
401.51	3090.38
401.73	3123.15
401.94	3145.68
402.15	3117.01
402.36	3098.58
402.58	3164.11
402.79	3088.34
403.00	3151.82
403.21	3155.92
403.43	3270.61
403.64	3233.74
403.85	3203.02
404.06	3225.55
404.27	3131.34
404.49	3260.37
404.70	3147.73
404.91	3334.09
405.12	3211.22
405.34	3330.00
405.55	3344.33
405.76	3160.02
405.97	3219.41
406.19	3252.17
406.40	3348.43
406.61	3280.85
406.82	3284.94
407.03	3346.38
407.25	3153.87
407.46	3409.87
407.67	3354.57
407.88	3434.44
408.09	3364.81
408.31	3284.94
408.52	3373.00
408.73	3393.48
408.94	3368.91
409.15	3528.65
409.37	3397.58
409.58	3528.65
409.79	3375.05
410.00	3600.33
410.21	3409.87
410.43	3387.34
410.64	3444.68
410.85	3471.31
411.06	3497.93
411.27	3528.65
411.48	3598.28
411.70	3549.13
411.91	3608.52
412.12	3733.45
412.33	3489.74
412.54	3596.23
412.76	3665.86
412.97	3694.54
413.18	3563.47
413.39	3518.41
413.60	3657.67
413.81	3633.10
414.03	3651.53
414.24	3604.42
414.45	3899.33
414.66	3616.71
414.87	3715.02
415.08	3694.54
415.30	3567.56
415.51	3624.90
415.72	3639.24
415.93	3569.61
416.14	3839.94
416.35	3819.46
416.56	3782.60
416.78	3850.18
416.99	3809.22
417.20	3792.84
417.41	3825.61
417.62	3813.32
417.83	3829.70
418.04	3829.70
418.26	3874.76
418.47	3811.27
418.68	3966.92
418.89	3985.35
419.10	4198.34
419.31	3837.89
419.52	4200.38
419.73	4007.87
419.95	4095.94
420.16	3854.28
420.37	3911.62
420.58	4014.02
420.79	3895.24
421.00	4059.07
421.21	4134.85
421.42	4036.55
421.63	4202.43
421.85	4206.53
422.06	4136.90
422.27	4245.44
422.48	4237.25
422.69	4155.33
422.90	4184.00
423.11	4278.21
423.32	4267.97
423.53	4370.37
423.75	4372.41
423.96	4323.26
424.17	4433.85
424.38	4513.72
424.59	4417.47
424.80	4487.10
425.01	4433.85
425.22	4435.90
425.43	4386.75
425.64	4612.03
425.85	4618.17
426.06	4681.66
426.28	4519.87
426.49	4603.83
426.70	4583.35
426.91	4657.08
427.12	4562.87
427.33	4652.98
427.54	4624.31
427.75	4630.46
427.96	4616.12
428.17	4671.42
428.38	4779.96
428.59	4882.36
428.80	4683.70
429.01	4788.15
429.23	4833.21
429.44	4976.56
429.65	4898.74
429.86	4908.98
430.07	4769.72
430.28	4841.40
430.49	4931.51
430.70	5203.89
430.91	5128.11
431.12	5005.24
431.33	5144.50
431.54	5181.36
431.75	5275.57
431.96	5054.39
432.17	5001.14
432.38	5167.03
432.59	5330.86
432.80	5314.48
433.01	5242.80
433.22	5283.76
433.43	5281.71
433.64	5257.14
433.85	5328.81
434.06	5394.35
434.27	5128.11
434.49	5306.29
434.70	5377.97
434.91	5537.71
435.12	5476.27
435.33	5441.45
435.54	5513.13
435.75	5318.57
435.96	5396.40
436.17	5492.65
436.38	5502.89
436.59	5609.39
436.80	5480.36
437.01	5824.42
437.22	5652.39
437.43	5595.05
437.64	5396.40
437.85	5803.94
438.06	5709.74
438.27	5556.14
438.48	5660.59
438.69	5885.86
438.90	5703.59
439.11	5724.07
439.32	5812.14
439.53	5818.28
439.74	5814.18
439.95	5752.74
440.16	5803.94
440.37	5963.68
440.57	5840.81
440.78	6070.18
440.99	6094.76
441.20	5900.20
441.41	5945.25
441.62	5932.97
441.83	5789.61
442.04	6049.70
442.25	6090.66
442.46	5902.25
442.67	6148.00
442.88	6365.09
443.09	6094.76
443.30	6104.99
443.51	6145.95
443.72	6285.22
443.93	6197.15
444.14	6377.37
444.35	6090.66
444.56	6418.33
444.77	6385.57
444.98	6213.54
445.19	6436.77
445.40	6436.77
445.61	6332.32
445.81	6473.63
446.02	6457.25
446.23	6356.90
446.44	6168.48
446.65	6490.01
446.86	6616.99
447.07	6533.02
447.28	6666.14
447.49	6584.22
447.70	6424.48
447.91	6621.08
448.12	6621.08
448.33	6703.00
448.54	6719.39
448.74	6670.23
448.95	6836.12
449.16	6690.71
449.37	7069.59
449.58	6741.91
449.79	6944.66
450.00	6623.13
450.21	6772.63
450.42	7040.92
450.63	6932.37
450.84	6920.09
451.05	7047.06
451.25	6971.29
451.46	7038.87
451.67	7096.21
451.88	7278.48
452.09	7128.98
452.30	6934.42
452.51	6844.31
452.72	7245.71
452.93	7589.77
453.13	7096.21
453.34	7061.40
453.55	7167.89
453.76	7223.19
453.97	7503.76
454.18	7251.86
454.39	7571.34
454.60	7450.51
454.81	7389.07
455.01	7579.53
455.22	7395.22
455.43	7696.27
455.64	7839.62
455.85	7737.23
456.06	7798.66
456.27	7747.47
456.48	7778.19
456.68	7729.03
456.89	7810.95
457.10	7712.65
457.31	7942.02
457.52	7821.19
457.73	7993.22
457.94	8079.24
458.14	7978.89
458.35	8181.64
458.56	7997.32
458.77	8144.77
458.98	8243.07
459.19	8181.64
459.39	8327.04
459.60	8560.51
459.81	8378.24
460.02	8519.55
460.23	8503.17
460.44	8621.95
460.65	8654.72
460.85	8617.85
461.06	8640.38
461.27	8413.06
461.48	8775.55
461.69	8861.56
461.89	8564.61
462.10	8793.98
462.31	8734.59
462.52	8898.42
462.73	8953.72
462.94	9160.56
463.14	9154.42
463.35	8992.63
463.56	9480.05
463.77	9310.07
463.98	9310.07
464.18	9222.00
464.39	9414.51
464.60	9559.92
464.81	9496.43
465.02	9475.95
465.23	9875.31
465.43	9635.69
465.64	9793.39
465.85	9840.49
466.06	9635.69
466.27	10002.28
466.47	9850.73
466.68	10127.21
466.89	10098.53
467.10	9903.98
467.30	9883.50
467.51	10131.30
467.72	10389.35
467.93	10096.49
468.14	10444.64
468.34	10491.74
468.55	10514.27
468.76	10256.23
468.97	10356.58
469.17	10639.20
469.38	10784.60
469.59	10821.47
469.80	10678.11
470.01	10919.77
470.21	10870.62
470.42	11097.94
470.63	11155.29
470.84	11085.65
471.04	11198.29
471.25	11396.95
471.46	11243.35
471.67	11538.26
471.87	11611.98
472.08	11468.62
472.29	11708.24
472.50	11460.43
472.70	11702.09
472.91	11749.20
473.12	11978.57
473.33	12054.34
473.53	12001.10
473.74	11982.67
473.95	12177.22
474.16	12277.57
474.36	12373.83
474.57	12379.97
474.78	12627.78
474.99	12525.38
475.19	12564.29
475.40	12861.24
475.61	12998.46
475.81	13133.62
476.02	13170.49
476.23	12922.68
476.44	13336.37
476.64	13367.09
476.85	13428.53
477.06	13506.35
477.27	13737.77
477.47	13764.40
477.68	13922.09
477.89	14098.22
478.09	14016.30
478.30	13801.26
478.51	14126.89
478.71	14217.00
478.92	14440.23
479.13	14280.49
479.34	14690.08
479.54	14542.63
479.75	14499.62
479.96	14452.52
480.16	14767.90
480.37	14823.20
480.58	15210.26
480.78	15240.98
480.99	15204.12
481.20	15388.44
481.41	15642.39
481.61	15511.32
481.82	15509.27
482.03	15738.64
482.23	15384.34
482.44	15660.82
482.65	16011.02
482.85	16062.22
483.06	16004.88
483.27	16219.91
483.47	16076.55
483.68	16273.16
483.89	16615.17
484.09	16367.37
484.30	16674.56
484.51	16873.21
484.71	17020.67
484.92	16842.50
485.13	17147.64
485.33	17069.82
485.54	17098.49
485.75	17440.50
485.95	17354.49
486.16	17522.42
486.37	17665.78
486.57	17452.79
486.78	17512.18
486.98	17770.22
487.19	17663.73
487.40	17944.30
487.60	17852.14
487.81	18425.57
488.02	18052.84
488.22	18231.02
488.43	18329.32
488.64	18667.24
488.84	18589.41
489.05	18800.35
489.25	18568.93
489.46	19203.80
489.67	19011.29
489.87	19058.40
490.08	19252.95
490.29	18953.95
490.49	19386.07
490.70	19508.95
490.90	19629.78
491.11	19398.36
491.32	19517.14
491.52	19660.50
491.73	19666.64
491.94	19680.98
492.14	19998.41
492.35	20096.72
492.55	20043.47
492.76	20211.40
492.97	20231.88
493.17	20311.75
493.38	20580.04
493.58	20760.26
493.79	20580.04
494.00	20702.92
494.20	20876.99
494.41	20741.83
494.61	21128.89
494.82	20836.03
495.02	20899.52
495.23	21196.48
495.44	21409.47
495.64	21515.96
495.85	21280.44
496.05	21636.79
496.26	21692.08
496.47	21653.17
496.67	21853.87
496.88	21999.28
497.08	21452.47
497.29	22066.86
497.49	21853.87
497.70	22163.12
497.91	22177.45
498.11	22183.60
498.32	22412.97
498.52	22429.35
498.73	22668.97
498.93	22421.16
499.14	22619.81
499.34	22781.60
499.55	22922.91
499.76	23078.56
499.96	22875.81
500.17	22679.21
500.37	22806.18
500.58	23056.03
500.78	23269.02
500.99	23299.74
501.19	23682.71
501.40	23561.88
501.60	23596.70
501.81	23443.10
502.02	23588.50
502.22	23338.65
502.43	23529.11
502.63	23746.20
502.84	23740.05
503.04	23930.51
503.25	23717.53
503.45	23666.33
503.66	24061.58
503.86	24143.50
504.07	24323.72
504.27	23965.33
504.48	24626.82
504.68	24606.34
504.89	24696.46
505.09	24555.15
505.30	24827.53
505.50	24528.52
505.71	24639.11
505.91	24909.44
506.12	24917.64
506.32	25093.76
506.53	24921.73
506.73	25044.61
506.94	24999.55
507.14	25333.37
507.35	24950.40
507.55	25456.25
507.76	25265.79
507.96	25190.02
508.17	25409.15
508.37	25587.32
508.58	25800.31
508.78	25478.78
508.99	25640.57
509.19	25833.08
509.40	25722.49
509.60	25927.28
509.81	25740.92
510.01	25820.79
510.22	25687.67
510.42	25935.48
510.63	26338.93
510.83	26138.23
511.04	26189.42
511.24	26353.26
511.44	26371.69
511.65	26553.96
511.85	26283.63
512.06	26461.80
512.26	26545.77
512.47	26857.06
512.67	26545.77
512.88	26660.46
513.08	26394.22
513.29	26865.25
513.49	26875.49
513.69	26895.97
513.90	26832.49
514.10	27125.35
514.31	26928.74
514.51	27397.73
514.72	27160.16
514.92	27489.88
515.13	27078.24
515.33	27559.52
515.53	27446.88
515.74	27448.93
515.94	27502.17
516.15	27835.99
516.35	27766.36
516.56	27930.20
516.76	27561.56
516.96	27852.38
517.17	28010.07
517.37	27704.92
517.58	28149.33
517.78	27897.43
517.99	28022.36
518.19	28126.80
518.39	28106.32
518.60	28532.30
518.80	28483.15
519.01	28456.53
519.21	28636.75
519.41	28790.34
519.62	28216.91
519.82	28968.52
520.03	28989.00
520.23	28923.46
520.43	28849.74
520.64	29441.60
520.84	29210.18
521.05	29142.60
521.25	29392.45
521.45	29296.19
521.66	29333.06
521.86	29574.72
522.07	29924.92
522.27	29707.83
522.47	29519.42
522.68	29992.50
522.88	29951.54
523.08	30244.40
523.29	29996.60
523.49	29980.21
523.70	29910.58
523.90	30424.62
524.10	30090.80
524.31	30565.93
524.51	30070.33
524.71	30588.46
524.92	30807.59
525.12	30768.68
525.33	30953.00
525.53	30946.86
525.73	31421.98
525.94	31125.03
526.14	31440.42
526.34	31483.42
526.55	31024.68
526.75	31596.06
526.95	31761.95
527.16	31477.28
527.36	31911.45
527.56	32073.24
527.77	32312.85
527.97	32136.73
528.17	31854.11
528.38	32232.98
528.58	32511.50
528.78	32486.93
528.99	32364.05
529.19	32728.59
529.39	32259.60
529.60	32736.78
529.80	32581.13
530.00	32890.38
530.21	33351.17
530.41	33201.67
530.61	32984.58
530.82	33076.74
531.02	33336.84
531.22	33779.20
531.43	33566.21
531.63	33691.13
531.83	33754.62
532.04	34211.32
532.24	33510.91
532.44	34147.83
532.64	34012.66
532.85	34170.36
533.05	34196.98
533.25	34278.90
533.46	34584.05
533.66	34805.23
533.86	34778.61
534.07	35100.14
534.27	34432.50
534.47	35309.03
534.67	34983.40
534.88	34885.10
535.08	35059.18
535.28	35155.43
535.49	35354.08
535.69	35814.88
535.89	35868.12
536.09	35790.30
536.30	36234.71
536.50	35913.18
536.70	35984.86
536.91	36025.82
537.11	36087.26
537.31	36349.40
537.51	36169.18
537.72	36523.47
537.92	36482.52
538.12	36974.03
538.32	36625.87
538.53	37031.37
538.73	36562.39
538.93	36623.83
539.13	37037.51
539.34	36953.55
539.54	36877.77
539.74	37348.81
539.94	37141.96
540.15	36730.32
540.35	37211.59
540.55	37232.07
540.75	37416.39
540.96	37457.35
541.16	37860.80
541.36	37846.46
541.56	37574.08
541.77	38383.03
541.97	38073.79
542.17	38067.64
542.37	38227.38
542.58	38319.54
542.78	38352.31
542.98	37961.15
543.18	38600.12
543.38	38591.92
543.59	38688.18
543.79	38596.02
543.99	38589.88
544.19	38598.07
544.40	38596.02
544.60	39380.39
544.80	39130.54
545.00	38823.34
545.20	39355.82
545.41	39116.20
545.61	39175.59
545.81	39237.03
546.01	39769.51
546.21	39663.01
546.42	39196.07
546.62	39497.13
546.82	39341.48
547.02	39652.77
547.22	39550.37
547.43	39970.21
547.63	40029.60
547.83	39863.71
548.03	39425.45
548.23	39949.73
548.44	39851.42
548.64	39751.07
548.84	40267.16
549.04	39945.63
549.24	40322.46
549.45	40592.79
549.65	39970.21
549.85	40443.29
550.05	40582.55
550.25	40560.02
550.45	40756.63
550.66	40459.67
550.86	40461.72
551.06	40404.38
551.26	40899.98
551.46	40547.73
551.66	40844.69
551.87	40541.59
552.07	41211.28
552.27	40781.20
552.47	40873.36
552.67	41143.69
552.87	40885.65
553.07	41153.93
553.28	41180.56
553.48	41201.04
553.68	41186.70
553.88	41477.51
554.08	41080.21
554.28	41385.35
554.48	41268.62
554.69	41549.19
554.89	41557.38
555.09	41397.64
555.29	41223.56
555.49	41624.96
555.69	41541.00
555.89	41733.51
556.10	41643.40
556.30	41639.30
556.50	41909.63
556.70	41530.76
556.90	42120.57
557.10	42139.00
557.30	41633.16
557.50	42395.00
557.70	42478.97
557.91	42098.05
558.11	41934.21
558.31	42319.23
558.51	41758.08
558.71	42204.54
558.91	42595.70
559.11	42243.45
559.31	42423.67
559.51	41934.21
559.72	42413.43
559.92	42227.07
560.12	42354.04
560.32	42386.81
560.52	42153.34
560.72	42421.62
560.92	42710.39
561.12	42544.50
561.32	42814.83
561.52	42638.71
561.72	42792.31
561.93	42734.96
562.13	42685.81
562.33	42403.19
562.53	43351.40
562.73	42542.45
562.93	42816.88
563.13	42972.53
563.33	43001.20
563.53	43357.55
563.73	42896.75
563.93	42884.47
564.13	43539.82
564.33	43046.26
564.53	43050.35
564.74	43378.03
564.94	43054.45
565.14	43328.87
565.34	43392.36
565.54	43316.59
565.74	43320.68
565.94	43435.37
566.14	42997.10
566.34	42784.12
566.54	43730.28
566.74	43162.99
566.94	43840.87
567.14	43636.07
567.34	43408.75
567.54	43615.59
567.74	43494.76
567.94	43689.32
568.14	43887.97
568.34	43683.17
568.54	43572.58
568.74	43955.55
568.94	43611.49
569.14	44348.76
569.34	43928.93
569.54	43722.08
569.75	43474.28
569.95	44287.32
570.15	44588.38
570.35	44442.97
570.55	44033.38
570.75	44123.49
570.95	44252.51
571.15	44356.96
571.35	44227.93
571.55	44590.42
571.75	44291.42
571.95	44490.07
572.15	44336.48
572.35	44985.68
572.55	44873.04
572.75	44715.35
572.95	43955.55
573.15	44795.22
573.35	44586.33
573.55	44666.20
573.75	44729.69
573.95	44860.76
574.15	44637.53
574.35	44746.07
574.55	44709.21
574.75	44592.47
574.95	44897.62
575.15	44922.19
575.34	44971.35
575.54	45409.61
575.74	45247.82
575.94	45598.02
576.14	45446.47
576.34	45491.53
576.54	46021.95
576.74	45522.25
576.94	45090.13
577.14	45657.42
577.34	45563.21
577.54	45475.15
577.74	45649.22
577.94	45915.46
578.14	46048.58
578.34	46282.05
578.54	45514.06
578.74	45679.94
578.94	45946.18
579.14	45774.15
579.34	45610.31
579.54	46490.94
579.74	46665.02
579.94	46337.34
580.13	46341.44
580.33	46568.76
580.53	46370.11
580.73	46671.16
580.93	46382.40
581.13	46466.36
581.33	46890.29
581.53	46675.26
581.73	46806.33
581.93	47582.51
582.13	46843.19
582.33	47205.68
582.53	47080.75
582.73	47129.90
582.92	47043.89
583.12	47633.71
583.32	47449.39
583.52	47047.99
583.72	47498.54
583.92	47033.65
584.12	47473.96
584.32	48180.51
584.52	47648.04
584.72	47705.38
584.92	47578.41
585.11	47957.28
585.31	47785.25
585.51	47637.80
585.71	47885.61
585.91	48293.15
586.11	47674.66
586.31	47963.43
586.51	47856.93
586.71	48157.99
586.91	48801.05
587.10	48682.27
587.30	48440.60
587.50	48678.17
587.70	49093.91
587.90	48407.84
588.10	48608.54
588.30	48698.65
588.50	48856.34
588.69	48657.69
588.89	48622.87
589.09	49341.71
589.29	49354.00
589.49	49263.89
589.69	49360.14
589.89	49204.50
590.08	49116.43
590.28	48993.56
590.48	49083.67
590.68	49517.84
590.88	49308.94
591.08	49169.68
591.28	49005.84
591.47	49638.67
591.67	49407.25
591.87	49274.13
592.07	49444.11
592.27	49730.83
592.47	49511.69
592.67	49560.84
592.86	49661.19
593.06	49988.87
593.26	50076.93
593.46	49911.05
593.66	49984.77
593.86	50179.33
594.05	50124.04
594.25	50693.37
594.45	49927.43
594.65	50468.09
594.85	50066.69
595.05	50343.17
595.24	50877.69
595.44	50447.61
595.64	50457.85
595.84	50775.29
596.04	50808.06
596.23	50664.70
596.43	50863.35
596.63	50748.67
596.83	50935.03
597.03	51225.84
597.22	51256.56
597.42	50982.13
597.62	51397.87
597.82	51227.89
598.02	51236.08
598.21	51516.65
598.41	51557.61
598.61	51414.26
598.81	51451.12
599.01	52227.30
599.20	51221.75
599.40	51698.92
599.60	51848.42
599.80	51741.93
600.00	51967.21
600.19	52057.32
600.39	51727.59
600.59	52755.68
600.79	52118.76
600.98	52090.09
601.18	51965.16
601.38	52583.65
601.58	52491.49
601.78	52294.88
601.97	52540.64
602.17	52731.10
602.37	52845.79
602.57	52493.54
602.76	52937.94
602.96	52471.01
603.16	52905.18
603.36	52557.02
603.55	52786.39
603.75	52491.49
603.95	53335.25
604.15	53085.40
604.34	52860.12
604.54	53339.35
604.74	53417.17
604.94	53470.42
605.13	53468.37
605.33	53501.14
605.53	53347.54
605.73	53517.52
605.92	53519.57
606.12	53390.55
606.32	53800.14
606.52	53458.13
606.71	53722.32
606.91	54342.85
607.11	53634.25
607.30	54301.89
607.50	53621.97
607.70	54174.92
607.90	54009.03
608.09	53695.69
608.29	54414.53
608.49	54150.34
608.68	53847.24
608.88	54473.92
609.08	54404.29
609.28	54142.15
609.47	54219.97
609.67	54521.02
609.87	54512.83
610.06	54334.66
610.26	54801.60
610.46	54596.80
610.66	54297.80
610.85	54729.92
611.05	54269.12
611.25	54547.65
611.44	54437.06
611.64	54451.39
611.84	54187.21
612.03	54514.88
612.23	54711.49
612.43	54668.48
612.62	54367.43
612.82	54983.86
613.02	54811.84
613.21	54983.86
613.41	54695.10
613.61	54795.45
613.80	54383.81
614.00	54992.06
614.20	54568.13
614.39	55055.54
614.59	55153.85
614.79	54414.53
614.98	54496.45
615.18	55178.42
615.38	55278.77
615.57	54817.98
615.77	55100.60
615.97	55051.45
616.16	54582.46
616.36	55110.84
616.56	54881.47
616.75	55088.31
616.95	54709.44
617.15	55100.60
617.34	54893.75
617.54	55073.98
617.74	55452.85
617.93	55178.42
618.13	54883.51
618.32	54985.91
618.52	54715.58
618.72	55082.17
618.91	55305.40
619.11	54877.37
619.31	54783.16
619.50	55168.18
619.70	54854.84
619.90	55090.36
620.09	54787.26
620.29	54883.51
620.48	54594.75
620.68	55348.40
620.88	54721.72
621.07	54854.84
621.27	55248.05
621.46	55127.22
621.66	54820.03
621.86	54811.84
622.05	54860.99
622.25	55141.56
622.44	54983.86
622.64	54555.84
622.84	55227.57
623.03	54875.32
623.23	54869.18
623.42	54719.68
623.62	54590.66
623.82	54883.51
624.01	55127.22
624.21	55172.28
624.40	54768.83
624.60	54875.32
624.80	55254.20
624.99	54523.07
625.19	54256.84
625.38	54844.60
625.58	54783.16
625.77	55010.49
625.97	54809.79
626.17	54701.25
626.36	54641.85
626.56	54756.54
626.75	54629.57
626.95	55213.24
627.14	54660.29
627.34	55948.46
627.54	54623.42
627.73	55033.02
627.93	54553.79
628.12	54359.23
628.32	55098.55
628.51	54817.98
628.71	54727.87
628.90	54877.37
629.10	54590.66
629.30	54578.37
629.49	54551.74
629.69	54637.76
629.88	54914.23
630.08	54744.25
630.27	55018.68
630.47	54588.61
630.66	54387.91
630.86	54949.05
631.05	54674.62
631.25	55129.27
631.44	54523.07
631.64	54566.08
631.84	54965.43
632.03	55366.84
632.23	54973.63
632.42	55135.41
632.62	55092.41
632.81	54305.99
633.01	54555.84
633.20	55063.74
633.40	54682.81
633.59	54652.09
633.79	54590.66
633.98	55008.44
634.18	55155.89
634.37	55043.26
634.57	55092.41
634.76	54973.63
634.96	54869.18
635.15	54736.06
635.35	54580.42
635.54	54639.81
635.74	54908.09
635.93	54576.32
636.13	55043.26
636.32	55354.55
636.52	54768.83
636.71	54791.36
636.91	54731.96
637.10	54957.24
637.30	54844.60
637.49	54973.63
637.69	55286.96
637.88	55035.06
638.08	54723.77
638.27	54895.80
638.46	54834.36
638.66	54418.63
638.85	54721.72
639.05	54719.68
639.24	54512.83
639.44	54830.27
639.63	54774.97
639.83	55293.11
640.02	54983.86
640.22	54838.46
640.41	55450.80
640.61	54666.43
640.80	54672.57
640.99	54940.86
641.19	55385.27
641.38	54729.92
641.58	54920.38
641.77	55028.92
641.97	54439.11
642.16	55123.13
642.36	55444.66
642.55	55497.91
642.74	54594.75
642.94	55637.17
643.13	54676.67
643.33	54973.63
643.52	55248.05
643.72	55506.10
643.91	55067.83
644.10	55190.71
644.30	55116.98
644.49	55110.84
644.69	55385.27
644.88	55035.06
645.08	54856.89
645.27	55399.60
645.46	54781.12
645.66	55663.79
645.85	55186.61
646.05	55276.72
646.24	55039.16
646.43	54854.84
646.63	54801.60
646.82	55669.93
647.02	55006.39
647.21	55571.63
647.40	55399.60
647.60	55348.40
647.79	55448.75
647.99	55512.24
648.18	55491.76
648.37	56067.24
648.57	55563.44
648.76	55579.82
648.96	55166.13
649.15	55440.56
649.34	55411.89
649.54	55579.82
649.73	55057.59
649.92	55155.89
650.12	55166.13
650.31	55014.58
650.51	55389.36
650.70	55649.45
650.89	55274.68
651.09	56065.19
651.28	55473.33
651.47	55696.56
651.67	55434.42
651.86	55661.74
652.06	55116.98
652.25	55125.17
652.44	55676.08
652.64	55225.53
652.83	55047.35
653.02	55342.26
653.22	55258.29
653.41	55424.18
653.60	54998.20
653.80	55506.10
653.99	55727.28
654.18	55153.85
654.38	55579.82
654.57	56075.43
654.76	55317.68
654.96	55463.09
655.15	55497.91
655.34	55483.57
655.54	55659.69
655.73	55076.02
655.92	55598.26
656.12	55684.27
656.31	55448.75
656.50	55542.96
656.70	55671.98
656.89	55854.25
657.08	55852.20
657.28	55387.31
657.47	55751.85
657.66	55801.00
657.86	55583.92
658.05	55782.57
658.24	55649.45
658.43	55966.89
658.63	55770.28
658.82	55889.07
659.01	55899.31
659.21	55674.03
659.40	55655.60
659.59	55762.09
659.79	55981.23
659.98	55669.93
660.17	55735.47
660.36	55792.81
660.56	55850.16
660.75	56239.27
660.94	55676.08
661.14	55631.02
661.33	55686.32
661.52	55246.00
661.71	55958.70
661.91	55145.65
662.10	55295.16
662.29	56093.86
662.49	55696.56
662.68	56224.93
662.87	56192.17
663.06	56331.43
663.26	55571.63
663.45	55801.00
663.64	55981.23
663.83	56335.52
664.03	56261.80
664.22	55674.03
664.41	56202.41
664.60	55792.81
664.80	56235.17
664.99	55579.82
665.18	55905.45
665.37	56276.13
665.57	56112.30
665.76	55635.12
665.95	56439.97
666.14	55874.73
666.34	56040.62
666.53	55506.10
666.72	55590.06
666.91	55680.17
667.11	55317.68
667.30	55995.56
667.49	55432.37
667.68	55854.25
667.87	55694.51
668.07	56016.04
668.26	55622.83
668.45	55846.06
668.64	55678.13
668.84	56718.49
669.03	56364.20
669.22	56020.14
669.41	56122.54
669.60	56415.40
669.80	55909.55
669.99	56038.57
670.18	56143.02
670.37	55768.24
670.57	56403.11
670.76	55915.69
670.95	56190.12
671.14	55731.37
671.33	55915.69
671.53	56401.06
671.72	56280.23
671.91	55813.29
672.10	56007.85
672.29	56005.80
672.48	56075.43
672.68	56161.45
672.87	56362.15
673.06	55887.02
673.25	56013.99
673.44	55565.49
673.64	55891.12
673.83	55891.12
674.02	55964.84
674.21	55760.05
674.40	55968.94
674.59	56038.57
674.79	55571.63
674.98	55727.28
675.17	55571.63
675.36	55624.88
675.55	55878.83
675.74	55645.36
675.94	55919.79
676.13	56128.68
676.32	55653.55
676.51	56480.93
676.70	56198.31
676.89	56038.57
677.08	56181.93
677.28	55749.81
677.47	55686.32
677.66	56220.84
677.85	55479.47
678.04	56269.99
678.23	56243.37
678.42	56079.53
678.62	56224.93
678.81	56599.71
679.00	56161.45
679.19	56509.60
679.38	55882.92
679.57	55784.62
679.76	56038.57
679.96	56319.14
680.15	55778.48
680.34	56175.78
680.53	55936.17
680.72	56128.68
680.91	56523.94
681.10	55575.73
681.29	56167.59
681.48	55968.94
681.68	55878.83
681.87	55563.44
682.06	55932.07
682.25	55850.16
682.44	55336.12
682.63	55819.44
682.82	55481.52
683.01	55596.21
683.20	55063.74
683.39	55891.12
683.59	55815.34
683.78	55831.72
683.97	55538.86
684.16	55608.50
684.35	55395.51
684.54	55678.13
684.73	55252.15
684.92	55659.69
685.11	55377.08
685.30	55532.72
685.49	55921.83
685.69	55887.02
685.88	55573.68
686.07	56005.80
686.26	55184.57
686.45	55706.80
686.64	55887.02
686.83	55690.41
687.02	55899.31
687.21	55489.71
687.40	55684.27
687.59	55665.84
687.78	55952.55
687.97	55835.82
688.16	55399.60
688.35	55436.47
688.54	55145.65
688.74	55450.80
688.93	55571.63
689.12	55882.92
689.31	55948.46
689.50	55862.44
689.69	55325.88
689.88	55157.94
690.07	55512.24
690.26	55542.96
690.45	55645.36
690.64	55690.41
690.83	55284.92
691.02	55295.16
691.21	55256.24
691.40	55409.84
691.59	55256.24
691.78	55041.21
691.97	55276.72
692.16	55170.23
692.35	55391.41
692.54	54998.20
692.73	55561.39
692.92	55030.97
693.11	55647.41
693.30	55293.11
693.49	55243.96
693.68	55272.63
693.87	55170.23
694.06	54748.35
694.25	55264.44
694.44	55049.40
694.63	55559.34
694.82	54947.00
695.01	55035.06
695.20	54877.37
695.39	54795.45
695.58	54985.91
695.77	54510.78
695.96	54961.34
696.15	54895.80
696.34	54793.40
696.53	55239.86
696.72	55573.68
696.91	54920.38
697.10	54736.06
697.29	54836.41
697.48	55194.81
697.67	54566.08
697.86	54445.25
698.05	54576.32
698.24	55162.04
698.43	54580.42
698.62	54885.56
698.81	54396.10
699.00	54574.27
699.19	54211.78
699.38	54625.47
699.57	54471.87
699.76	55436.47
699.95	54428.87
700.14	54750.40
700.32	54488.26
700.51	54516.93
700.70	54940.86
700.89	54627.52
701.08	54179.01
701.27	54019.27
701.46	54613.18
701.65	53671.12
701.84	54383.81
702.03	54764.73
702.22	54166.73
702.41	54457.54
702.60	54789.31
702.79	54375.62
702.98	54166.73
703.17	54469.82
703.35	53755.08
703.54	53638.35
703.73	53822.67
703.92	54604.99
704.11	53779.66
704.30	53476.56
704.49	53849.29
704.68	54154.44
704.87	53980.36
705.06	53871.82
705.25	53826.76
705.43	53425.36
705.62	53755.08
705.81	54127.81
706.00	53990.60
706.19	54009.03
706.38	53775.56
706.57	53519.57
706.76	53322.96
706.95	53503.18
707.14	53251.28
707.32	53320.91
707.51	53191.89
707.70	53298.39
707.89	53619.92
708.08	53198.04
708.27	53259.48
708.46	53777.61
708.65	52995.29
708.84	53968.07
709.02	53421.26
709.21	53408.98
709.40	53527.76
709.59	53214.42
709.78	53093.59
709.97	53337.30
710.16	53048.53
710.34	53249.24
710.53	53286.10
710.72	53089.49
710.91	53095.64
711.10	53271.76
711.29	53089.49
711.48	53007.58
711.66	52860.12
711.85	53040.34
712.04	53060.82
712.23	52966.62
712.42	52485.34
712.61	52929.75
712.80	52823.26
712.98	53177.56
713.17	52593.89
713.36	52657.37
713.55	52708.57
713.74	52761.82
713.93	52225.25
714.11	52696.28
714.30	52444.38
714.49	52374.75
714.68	52571.36
714.87	52870.36
715.06	52714.72
715.24	52544.73
715.43	52432.10
715.62	51700.97
715.81	52309.22
716.00	52141.28
716.18	52319.46
716.37	51873.00
716.56	52131.04
716.75	52649.18
716.94	51887.34
717.12	51401.97
717.31	52704.48
717.50	51633.39
717.69	51905.77
717.88	51735.79
718.06	51897.58
718.25	51852.52
718.44	51260.66
718.63	51885.29
718.82	51168.50
719.00	51434.74
719.19	51336.43
719.38	51475.69
719.57	50902.26
719.76	50779.39
719.94	50691.32
720.13	50384.13
720.32	51029.24
720.51	50701.56
720.69	50920.70
720.88	50830.58
721.07	50371.84
721.26	50320.64
721.44	50607.36
721.63	50193.67
721.82	50738.43
722.01	50308.35
722.20	50617.60
722.38	50095.36
722.57	49767.69
722.76	50484.48
722.95	50343.17
723.13	49634.57
723.32	49980.68
723.51	49909.00
723.70	49603.85
723.88	50171.14
724.07	49792.26
724.26	50117.89
724.44	49327.38
724.63	50351.36
724.82	49937.67
725.01	50042.12
725.19	49509.64
725.38	49478.92
725.57	49771.78
725.76	49437.97
725.94	49222.93
726.13	48862.49
726.32	49495.31
726.51	49184.02
726.69	49532.17
726.88	49478.92
727.07	49067.28
727.25	48608.54
727.44	49093.91
727.63	49052.95
727.82	49165.59
728.00	48725.27
728.19	48946.45
728.38	49306.90
728.56	48592.15
728.75	49415.44
728.94	48964.88
729.12	49055.00
729.31	49055.00
729.50	49026.32
729.69	49014.04
729.87	48780.57
730.06	48491.80
730.25	48327.97
730.43	49079.57
730.62	48784.66
730.81	49026.32
730.99	49001.75
731.18	48880.92
731.37	48755.99
731.55	48858.39
731.74	49104.15
731.93	49241.36
732.11	48698.65
732.30	49005.84
732.49	48694.55
732.67	48710.94
732.86	48692.50
733.05	48526.62
733.23	48510.24
733.42	48743.70
733.61	48788.76
733.79	48792.86
733.98	48831.77
734.17	48528.67
734.35	48592.15
734.54	48413.98
734.73	48657.69
734.91	48526.62
735.10	48405.79
735.29	48475.42
735.47	47783.21
735.66	48573.72
735.84	48332.06
736.03	47897.89
736.22	48289.06
736.40	48149.79
736.59	48166.18
736.78	48041.25
736.96	47908.13
737.15	48057.63
737.33	47666.47
737.52	47525.16
737.71	47856.93
737.89	47680.81
738.08	47490.35
738.27	47781.16
738.45	48129.31
738.64	47897.89
738.82	47459.63
739.01	47775.02
739.20	47701.29
739.38	47719.72
739.57	47977.76
739.75	47895.85
739.94	47830.31
740.13	47678.76
740.31	47420.72
740.50	47379.76
740.68	47322.41
740.87	47686.95
741.06	47723.82
741.24	47697.19
741.43	47308.08
741.61	47639.85
741.80	47084.85
741.99	47027.51
742.17	46998.83
742.36	46697.78
742.54	46863.67
742.73	47033.65
742.91	47336.75
743.10	46718.26
743.29	47224.11
743.47	47140.14
743.66	46912.82
743.84	46849.33
744.03	46910.77
744.21	46568.76
744.40	46732.60
744.59	46671.16
744.77	46357.82
744.96	46755.13
745.14	46638.39
745.33	46914.87
745.51	46472.51
745.70	46761.27
745.88	46343.48
746.07	46476.60
746.26	46380.35
746.44	46429.50
746.63	46142.78
746.81	46560.57
747.00	46355.77
747.18	46828.85
747.37	46193.98
747.55	46331.20
747.74	46273.85
747.92	46101.82
748.11	45987.14
748.29	45860.16
748.48	45913.41
748.66	45780.29
748.85	45798.73
749.03	45921.60
749.22	45948.23
749.41	45620.55
749.59	45980.99
749.78	45344.08
749.96	45210.96
750.15	45536.59
750.33	45577.54
750.52	45358.41
750.70	45296.97
750.89	45450.57
751.07	45206.86
751.26	45325.64
751.44	44782.93
751.63	45114.70
751.81	44795.22
752.00	45243.73
752.18	45317.45
752.37	45247.82
752.55	44561.75
752.74	44926.29
752.92	44840.28
753.10	44934.48
753.29	45122.90
753.47	44655.96
753.66	44371.29
753.84	44852.56
754.03	44770.64
754.21	44479.83
754.40	44363.10
754.58	44862.80
754.77	44571.99
754.95	44244.32
755.14	44367.20
755.32	44342.62
755.51	44313.95
755.69	44203.36
755.88	44320.09
756.06	43951.46
756.24	43847.01
756.43	43877.73
756.61	44324.19
756.80	43890.02
756.98	43724.13
757.17	43865.44
757.35	44127.58
757.54	43568.49
757.72	43885.92
757.90	43707.75
758.09	43713.89
758.27	43758.95
758.46	43660.65
758.64	43636.07
758.83	43935.07
759.01	43679.08
759.19	43750.76
759.38	43476.33
759.56	43814.24
759.75	43619.69
759.93	43554.15
760.12	43449.70
760.30	43296.11
760.48	43144.56
760.67	42982.77
760.85	43378.03
761.04	43226.48
761.22	43361.64
761.40	43304.30
761.59	42902.90
761.77	42933.62
761.96	42947.95
762.14	42896.75
762.32	42673.52
762.51	42708.34
762.69	42491.26
762.88	42435.96
763.06	42997.10
763.24	42495.35
763.43	42931.57
763.61	42593.65
763.80	42763.64
763.98	42397.05
764.16	42454.39
764.35	42128.77
764.53	41657.73
764.72	42100.09
764.90	42493.30
765.08	41966.98
765.27	42413.43
765.45	42087.81
765.63	41731.46
765.82	42149.24
766.00	41659.78
766.18	41997.70
766.37	42186.11
766.55	41835.91
766.74	41680.26
766.92	41604.49
767.10	41977.22
767.29	41840.00
767.47	41403.78
767.65	41428.36
767.84	41149.84
768.02	41489.80
768.20	41430.41
768.39	41373.06
768.57	41543.05
768.75	41268.62
768.94	41551.24
769.12	40998.29
769.30	41186.70
769.49	41086.35
769.67	40744.34
769.85	40887.70
770.04	41057.68
770.22	40832.40
770.40	40865.17
770.59	40310.17
770.77	40682.90
770.95	40689.04
771.14	40613.27
771.32	39998.88
771.50	40041.88
771.69	40218.01
771.87	40498.58
772.05	40420.76
772.24	40252.83
772.42	40600.98
772.60	40285.59
772.78	40205.72
772.97	40082.84
773.15	40408.47
773.33	40091.04
773.52	39929.25
773.70	39509.41
773.88	40060.32
774.07	39806.37
774.25	40048.03
774.43	40197.53
774.61	39978.40
774.80	40390.04
774.98	39921.05
775.16	40099.23
775.34	40228.25
775.53	39597.48
775.71	40230.30
775.89	39941.53
776.08	40048.03
776.26	40519.06
776.44	40361.37
776.62	39689.63
776.81	39933.34
776.99	40367.51
777.17	40000.93
777.35	40674.71
777.54	40672.66
777.72	40236.44
777.90	40199.58
778.08	40371.61
778.27	40224.15
778.45	40908.18
778.63	40977.81
778.81	40357.27
779.00	41213.32
779.18	40584.60
779.36	40676.76
779.54	40213.91
779.73	40557.97
779.91	40469.91
780.09	40562.07
780.27	40834.45
780.46	40699.28
780.64	40498.58
780.82	40480.15
781.00	40717.71
781.19	41006.48
781.37	41237.90
781.55	40879.50
781.73	40932.75
781.91	40746.39
782.10	41043.34
782.28	40717.71
782.46	40914.32
782.64	41172.36
782.82	40576.40
783.01	40863.12
783.19	41164.17
783.37	40953.23
783.55	41258.38
783.74	41039.25
783.92	40797.59
784.10	41497.99
784.28	41049.49
784.46	41051.53
784.64	40603.03
784.83	40957.33
785.01	41379.21
785.19	41008.53
785.37	41024.91
785.55	40869.26
785.74	40533.40
785.92	40730.00
786.10	41301.39
786.28	40797.59
786.46	41026.96
786.64	40383.90
786.83	40605.08
787.01	41137.55
787.19	40680.85
787.37	40437.14
787.55	40600.98
787.74	40551.83
787.92	40596.88
788.10	40347.03
788.28	40379.80
788.46	40465.81
788.64	39919.01
788.82	40832.40
789.01	40330.65
789.19	40494.49
789.37	40256.92
789.55	40146.33
789.73	39953.82
789.91	39959.97
790.09	39873.95
790.28	39933.34
790.46	39671.20
790.64	39804.32
790.82	39865.76
791.00	39669.15
791.18	39552.42
791.36	39232.94
791.55	39333.29
791.73	39480.74
791.91	39155.11
792.09	39437.73
792.27	39220.65
792.45	39329.19
792.63	38778.29
792.81	38962.61
793.00	38985.13
793.18	38620.59
793.36	38950.32
793.54	38497.72
793.72	38593.97
793.90	38665.65
794.08	38667.70
794.26	38624.69
794.44	38217.14
794.62	38184.38
794.81	38321.59
794.99	38167.99
795.17	38061.50
795.35	37819.84
795.53	38364.60
795.71	38380.98
795.89	38018.49
796.07	37692.86
796.25	37230.02
796.43	37717.44
796.61	37465.54
796.80	37328.33
796.98	37148.11
797.16	37467.59
797.34	37393.86
797.52	37023.18
797.70	37201.35
797.88	36947.40
798.06	36918.73
798.24	37025.23
798.42	36894.16
798.60	37000.65
798.78	36603.35
798.96	36810.19
799.14	36330.97
799.32	36513.23
799.51	36292.05
799.69	36333.01
799.87	36328.92
800.05	35945.95
800.23	36238.81
800.41	36031.96
800.59	36240.86
800.77	35806.69
800.95	35485.15
801.13	35993.05
801.31	35411.43
801.49	35591.65
801.67	35419.62
801.85	35597.79
802.03	35380.71
802.21	35362.28
802.39	35042.79
802.57	35200.49
802.75	35161.58
802.93	35306.98
803.11	35124.71
803.29	34649.58
803.47	34444.79
803.65	34653.68
803.83	35137.00
804.01	34694.64
804.19	34319.86
804.37	34405.88
804.55	34244.09
804.73	34387.44
804.91	34379.25
805.09	34153.97
805.27	34141.69
805.45	34401.78
805.63	34184.69
805.81	34104.82
805.99	34029.05
806.17	34088.44
806.35	33781.24
806.53	33662.46
806.71	33664.51
806.89	33861.12
807.07	33482.24
807.25	33777.15
807.43	33420.80
807.61	33535.49
807.79	33340.93
807.97	33101.32
808.15	32949.77
808.33	33041.93
808.51	33101.32
808.69	32937.48
808.87	32931.34
809.05	32947.72
809.23	32632.33
809.41	32534.03
809.59	32757.26
809.77	32853.51
809.95	32450.06
810.13	33091.08
810.31	32136.73
810.49	32732.68
810.67	32554.51
810.84	32484.88
811.02	32429.59
811.20	31923.74
811.38	31913.50
811.56	31807.00
811.74	32118.29
811.92	31866.39
812.10	32310.80
812.28	32118.29
812.46	31899.16
812.64	32038.42
812.82	31530.53
813.00	31462.94
813.18	31727.13
813.36	31600.16
813.53	31413.79
813.71	31061.54
813.89	31583.77
814.07	31444.51
814.25	31329.83
814.43	31059.49
814.61	31338.02
814.79	31088.17
814.97	31028.77
815.15	31206.95
815.33	30688.81
815.50	30393.90
815.68	31010.34
815.86	30725.68
816.04	30574.13
816.22	30398.00
816.40	30578.22
816.58	30324.27
816.76	30344.75
816.94	30467.63
817.11	30578.22
817.29	30324.27
817.47	30262.83
817.65	30187.06
817.83	30350.90
818.01	29898.30
818.19	29963.83
818.37	29984.31
818.54	29820.47
818.72	29957.69
818.90	30238.26
819.08	30121.52
819.26	30019.13
819.44	29861.43
819.62	29773.37
819.80	29472.32
819.97	29867.58
820.15	29523.52
820.33	29873.72
820.51	29529.66
820.69	29187.65
820.87	29656.64
821.05	29630.01
821.22	29589.05
821.40	29380.16
821.58	29433.41
821.76	29310.53
821.94	29292.10
822.12	28896.84
822.29	29212.23
822.47	29091.40
822.65	29333.06
822.83	29257.28
823.01	28927.56
823.19	29075.01
823.36	28585.55
823.54	28780.10
823.72	28577.36
823.90	28657.23
824.08	28378.70
824.25	28905.03
824.43	28395.09
824.61	28599.88
824.79	28776.01
824.97	28587.60
825.15	28735.05
825.32	28685.90
825.50	28249.68
825.68	28323.41
825.86	28548.68
826.04	28425.81
826.21	28132.95
826.39	28438.09
826.57	28112.47
826.75	28022.36
826.93	27981.40
827.10	28073.56
827.28	27870.81
827.46	28173.91
827.64	27471.45
827.81	27651.67
827.99	27881.05
828.17	27690.59
828.35	27721.30
828.53	27518.56
828.70	27584.09
828.88	27520.60
829.06	27866.71
829.24	28094.04
829.41	27823.70
829.59	27704.92
829.77	27782.74
829.95	27524.70
830.12	27649.63
830.30	27532.89
830.48	27543.13
830.66	27567.71
830.84	27352.67
831.01	27291.23
831.19	27168.35
831.37	27188.83
831.55	26934.88
831.72	26969.70
831.90	27354.72
832.08	27106.91
832.25	26986.08
832.43	26824.29
832.61	26941.03
832.79	26844.77
832.96	26824.29
833.14	26926.69
833.32	26762.86
833.50	26855.01
833.67	26941.03
833.85	26584.68
834.03	26531.44
834.20	26900.07
834.38	27147.87
834.56	26932.84
834.74	26588.78
834.91	26513.00
835.09	26529.39
835.27	26345.07
835.44	26293.87
835.62	25788.02
835.80	26130.03
835.98	26310.25
836.15	26136.18
836.33	26115.70
836.51	26179.18
836.68	26105.46
836.86	26201.71
837.04	26400.37
837.21	26467.95
837.39	26095.22
837.57	26680.94
837.75	26334.83
837.92	25884.28
838.10	26005.11
838.28	25652.86
838.45	25792.12
838.63	25640.57
838.81	25966.20
838.98	25581.18
839.16	25785.97
839.34	25628.28
839.51	25544.31
839.69	25720.44
839.87	25269.89
840.04	25036.42
840.22	25456.25
840.40	25355.90
840.57	25048.71
840.75	25425.53
840.93	25202.30
841.10	25366.14
841.28	25615.99
841.46	25136.77
841.63	25568.89
841.81	25343.61
841.98	25192.06
842.16	25144.96
842.34	25110.14
842.51	24927.88
842.69	25360.00
842.87	24850.05
843.04	24936.07
843.22	25056.90
843.40	25140.86
843.57	24704.65
843.75	24946.31
843.92	25167.49
844.10	25151.10
844.28	24850.05
844.45	24948.36
844.63	24786.57
844.81	24745.61
844.98	24874.63
845.16	24858.24
845.33	24688.26
845.51	24643.21
845.69	24735.37
845.86	24540.81
846.04	24641.16
846.21	24530.57
846.39	24622.73
846.57	24256.14
846.74	24424.08
846.92	24333.96
847.09	24387.21
847.27	24411.79
847.45	24659.59
847.62	24452.75
847.80	24297.10
847.97	23916.18
848.15	24331.92
848.32	23907.99
848.50	24034.96
848.68	23709.33
848.85	23778.97
849.03	23781.01
849.20	24010.39
849.38	23516.83
849.56	23936.66
849.73	23551.64
849.91	24061.58
850.08	23914.13
850.26	23467.67
850.43	23766.68
850.61	23639.70
850.78	23660.18
850.96	23541.40
851.14	23539.35
851.31	23701.14
851.49	23590.55
851.66	23568.02
851.84	23541.40
852.01	23748.25
852.19	23400.09
852.36	23371.42
852.54	23264.92
852.71	23164.57
852.89	23549.59
853.07	23207.58
853.24	23258.78
853.42	23236.25
853.59	23357.08
853.77	23297.69
853.94	23350.94
854.12	23316.12
854.29	22996.64
854.47	23324.32
854.64	22931.11
854.82	23365.28
854.99	22967.97
855.17	23121.57
855.34	22996.64
855.52	22910.63
855.69	23293.60
855.87	22820.52
856.04	22873.76
856.22	22988.45
856.39	22458.03
856.57	22793.89
856.74	22716.07
856.92	22871.72
857.09	22322.86
857.27	22533.80
857.44	22527.66
857.62	22734.50
857.79	22546.09
857.97	22750.88
858.14	22591.14
858.32	22480.55
858.49	22283.95
858.67	22353.58
858.84	22341.29
859.02	22138.54
859.19	21954.22
859.37	21898.93
859.54	22075.06
859.72	22290.09
859.89	22136.49
860.06	22120.11
860.24	22064.82
860.41	21741.24
860.59	21905.07
860.76	22242.99
860.94	21837.49
861.11	22367.91
861.29	21978.80
861.46	21806.77
861.64	21745.33
861.81	21649.08
861.98	21714.61
862.16	21739.19
862.33	21604.02
862.51	21511.86
862.68	21972.66
862.86	21456.57
863.03	21511.86
863.21	21540.54
863.38	21542.58
863.55	21687.99
863.73	21702.32
863.90	21509.82
864.08	21321.40
864.25	20950.72
864.43	21292.73
864.60	21345.98
864.77	21030.59
864.95	21227.20
865.12	20815.55
865.30	21446.33
865.47	21110.46
865.64	21110.46
865.82	20903.62
865.99	21315.26
866.17	21257.92
866.34	21165.76
866.51	20694.72
866.69	21010.11
866.86	20944.58
867.04	20842.18
867.21	20489.93
867.38	20690.63
867.56	20602.57
867.73	20317.90
867.91	20403.91
868.08	20557.51
868.25	20395.72
868.43	20383.43
868.60	20504.26
868.78	20188.88
868.95	20672.20
869.12	20186.83
869.30	20375.24
869.47	20326.09
869.64	20055.76
869.82	20403.91
869.99	20070.09
870.16	19932.88
870.34	20172.49
870.51	20127.44
870.69	19941.07
870.86	20207.31
871.03	20147.92
871.21	19949.26
871.38	20410.06
871.55	19988.18
871.73	19934.93
871.90	20207.31
872.07	19689.17
872.25	19498.71
872.42	19515.09
872.59	19617.49
872.77	19625.68
872.94	19281.63
873.11	19504.85
873.29	19427.03
873.46	19529.43
873.63	19523.29
873.81	19400.41
873.98	19164.89
874.15	19316.44
874.33	19136.22
874.50	19298.01
874.67	19295.96
874.85	19154.65
875.02	19017.44
875.19	18974.43
875.37	18890.46
875.54	18595.56
875.71	18925.28
875.88	18915.04
876.06	18937.57
876.23	18890.46
876.40	18626.28
876.58	18755.30
876.75	18335.46
876.92	18564.84
877.10	18716.39
877.27	18722.53
877.44	18714.34
877.61	18378.47
877.79	18382.57
877.96	18501.35
878.13	18294.50
878.31	18337.51
878.48	18421.48
878.65	18224.87
878.82	18175.72
879.00	18007.79
879.17	18114.28
879.34	18116.33
879.51	17829.62
879.69	17768.18
879.86	17981.17
880.03	17762.03
880.21	17919.73
880.38	17997.55
880.55	17960.69
880.72	17944.30
880.90	17755.89
881.07	17671.92
881.24	18040.56
881.41	17741.55
881.59	17608.44
881.76	17409.78
881.93	17467.13
882.10	17510.13
882.28	17647.35
882.45	17698.55
882.62	17370.87
882.79	17817.33
882.96	17055.48
883.14	17503.99
883.31	17532.66
883.48	17284.86
883.65	17264.38
883.83	17512.18
884.00	17202.94
884.17	17170.17
884.34	17084.16
884.51	16961.28
884.69	17059.58
884.86	17088.25
885.03	16924.41
885.20	16789.25
885.38	17125.11
885.55	17131.26
885.72	17374.97
885.89	16910.08
886.06	16969.47
886.24	16715.52
886.41	17078.01
886.58	16944.89
886.75	17225.47
886.92	16776.96
887.10	17024.76
887.27	17026.81
887.44	16539.40
887.61	17100.54
887.78	16789.25
887.95	16967.42
888.13	16600.83
888.30	16469.76
888.47	16660.23
888.64	16545.54
888.81	16791.30
888.99	16604.93
889.16	16514.82
889.33	16457.48
889.50	16097.03
889.67	16271.11
889.84	16328.45
890.01	16373.51
890.19	16267.02
890.36	16281.35
890.53	16273.16
890.70	16234.25
890.87	16213.77
891.04	16277.26
891.22	16170.76
891.39	16146.19
891.56	16037.64
891.73	15857.42
891.90	16088.84
892.07	15804.17
892.24	15724.30
892.42	15947.53
892.59	15849.23
892.76	15687.44
892.93	15597.33
893.10	15634.19
893.27	15685.39
893.44	15675.15
893.61	15738.64
893.79	16148.23
893.96	15965.96
894.13	15918.86
894.30	15791.89
894.47	15949.58
894.64	15798.03
894.81	15560.47
894.98	15853.33
895.15	15789.84
895.33	15572.75
895.50	15705.87
895.67	15828.75
895.84	15679.25
896.01	15529.75
896.18	15621.91
896.35	15703.82
896.52	15566.61
896.69	15353.62
896.86	15490.84
897.04	15492.88
897.21	15626.00
897.38	15488.79
897.55	15482.64
897.72	15427.35
897.89	15601.43
898.06	15363.86
898.23	15429.40
898.40	15392.53
898.57	15398.68
898.74	15445.78
898.91	15294.23
899.08	15517.46
899.26	15349.53
899.43	15148.82
899.60	15183.64
899.77	15296.28
899.94	15482.64
900.11	15134.49
900.28	15392.53
900.45	15249.18
900.62	15068.95
900.79	15322.90
900.96	15279.89
901.13	15056.67
901.30	15351.57
901.47	15083.29
901.64	15247.13
901.81	15351.57
901.98	15118.11
902.15	15286.04
902.32	15087.39
902.49	15144.73
902.66	15464.21
902.83	15288.09
903.01	15046.43
903.18	15171.35
903.35	15208.22
903.52	15126.30
903.69	15206.17
903.86	15548.18
904.03	15152.92
904.20	15257.37
904.37	15310.61
904.54	15224.60
904.71	15292.18
904.88	15243.03
905.05	15087.39
905.22	15269.66
905.39	15140.63
905.56	15146.78
905.73	15138.58
905.90	15187.74
906.07	15263.51
906.24	14894.88
906.41	15214.36
906.58	15290.13
906.75	14989.08
906.92	15079.19
907.09	15136.54
907.26	15093.53
907.43	14898.97
907.60	15212.31
907.77	15136.54
907.93	14921.50
908.10	15105.82
908.27	15040.28
908.44	14921.50
908.61	15050.52
908.78	14958.36
908.95	15034.14
909.12	15052.57
909.29	15163.16
909.46	14778.14
909.63	15161.11
909.80	14929.69
909.97	14954.27
910.14	14716.70
910.31	14968.60
910.48	15040.28
910.65	14974.75
910.82	14712.61
910.99	14866.21
911.16	14763.81
911.33	14946.08
911.50	15013.66
911.66	14769.95
911.83	14776.09
912.00	14548.77
912.17	14503.71
912.34	14671.65
912.51	14552.87
912.68	14429.99
912.85	14466.85
913.02	14839.58
913.19	14411.56
913.36	14493.47
913.53	14546.72
913.70	14329.64
913.86	14520.10
914.03	14106.41
914.20	14178.09
914.37	14335.78
914.54	14227.24
914.71	14403.36
914.88	14257.96
915.05	14204.71
915.22	14110.50
915.39	13989.67
915.55	14106.41
915.72	13958.96
915.89	13969.19
916.06	13918.00
916.23	13981.48
916.40	14090.02
916.57	13729.58
916.74	13840.17
916.91	13807.41
917.07	13733.68
917.24	13666.10
917.41	13721.39
917.58	13711.15
917.75	13616.94
917.92	13360.95
918.09	13672.24
918.26	13471.54
918.42	13756.21
918.59	13653.81
918.76	13424.44
918.93	13317.94
919.10	13254.45
919.27	13162.30
919.44	13285.17
919.60	13186.87
919.77	13223.73
919.94	13186.87
920.11	13076.28
920.28	13250.36
920.45	12894.01
920.61	12934.97
920.78	12957.50
920.95	12748.61
921.12	12883.77
921.29	12693.31
921.46	12719.93
921.62	12775.23
921.79	13010.75
921.96	12668.73
922.13	12578.62
922.30	12576.58
922.47	12576.58
922.63	12339.01
922.80	12429.12
922.97	12490.56
923.14	12220.23
923.31	12373.83
923.47	12109.64
923.64	12230.47
923.81	12066.63
923.98	12189.51
924.15	11829.07
924.32	11915.08
924.48	12189.51
924.65	12078.92
924.82	11984.71
924.99	11753.29
925.15	11722.57
925.32	11857.74
925.49	11591.50
925.66	11534.16
925.83	11730.76
925.99	11568.98
926.16	11734.86
926.33	11663.18
926.50	11269.97
926.67	11450.19
926.83	11550.54
927.00	11417.43
927.17	11358.03
927.34	11231.06
927.50	11347.79
927.67	11308.88
927.84	11112.28
928.01	11151.19
928.17	10864.47
928.34	10995.54
928.51	10878.81
928.68	10768.22
928.84	10784.60
929.01	10680.16
929.18	10590.05
929.35	10567.52
929.51	10692.44
929.68	10606.43
929.85	10571.61
930.02	10436.45
930.18	10334.05
930.35	10463.07
930.52	10389.35
930.69	10272.61
930.85	10301.28
931.02	10403.68
931.19	10168.16
931.36	10071.91
931.52	10309.47
931.69	10145.64
931.86	10137.45
932.02	9824.11
932.19	9879.40
932.36	9889.64
932.53	9981.80
932.69	9832.30
932.86	9914.22
933.03	9803.63
933.19	9660.27
933.36	9533.29
933.53	9434.99
933.70	9480.05
933.86	9631.60
934.03	9518.96
934.20	9320.31
934.36	9334.64
934.53	9195.38
934.70	9140.08
934.86	9152.37
935.03	8968.06
935.20	9029.49
935.36	8869.75
935.53	8744.83
935.70	8945.53
935.86	8726.39
936.03	8675.20
936.20	8626.04
936.36	8449.92
936.53	8357.76
936.70	8462.21
936.86	8382.34
937.03	8124.29
937.20	8003.46
937.36	8214.40
937.53	7964.55
937.70	7976.84
937.86	7735.18
938.03	7669.64
938.20	7800.71
938.36	7387.02
938.53	7612.30
938.70	7393.17
938.86	7554.96
939.03	7241.62
939.20	7247.76
939.36	7085.97
939.53	7231.38
939.70	7401.36
939.86	6731.67
940.03	6975.38
940.19	6768.54
940.36	6897.56
940.53	6686.62
940.69	6483.87
940.86	6483.87
941.03	6348.70
941.19	6297.50
941.36	6309.79
941.52	6246.30
941.69	6068.13
941.86	6131.62
942.02	6061.99
942.19	6174.63
942.35	6033.32
942.52	5984.16
942.69	5855.14
942.85	5840.81
943.02	5769.13
943.18	5803.94
943.35	5873.57
943.52	5621.67
943.68	5580.71
943.85	5615.53
944.01	5513.13
944.18	5506.99
944.35	5554.09
944.51	5484.46
944.68	5377.97
944.84	5597.10
945.01	5322.67
945.17	5431.21
945.34	5353.39
945.51	5382.06
945.67	5302.19
945.84	5298.10
946.00	5136.31
946.17	5437.36
946.33	5216.18
946.50	5330.86
946.67	5289.90
946.83	5466.03
947.00	5371.82
947.16	5246.90
947.33	5388.21
947.49	5332.91
947.66	5081.01
947.82	5394.35
947.99	5207.98
948.16	5294.00
948.32	5244.85
948.49	5257.14
948.65	5148.59
948.82	5259.18
948.98	5263.28
949.15	5171.12
949.31	5226.42
949.48	5296.05
949.64	5175.22
949.81	5099.44
949.97	5248.94
950.14	5214.13
950.30	5013.43
950.47	5238.70
950.63	5246.90
950.80	5302.19
950.96	5228.46
951.13	5164.98
951.30	5312.43
951.46	5365.68
951.63	5250.99
951.79	5326.77
951.96	5457.84
952.12	5201.84
952.29	5302.19
952.45	5238.70
952.62	5162.93
952.78	5255.09
952.94	5302.19
953.11	5304.24
953.27	5232.56
953.44	5459.88
953.60	5207.98
953.77	5355.44
953.93	5339.05
954.10	5226.42
954.26	5431.21
954.43	5312.43
954.59	5394.35
954.76	5470.12
954.92	5246.90
955.09	5496.75
955.25	5261.23
955.42	5373.87
955.58	5480.36
955.75	5418.93
955.91	5410.73
956.07	5377.97
956.24	5371.82
956.40	5418.93
956.57	5361.58
956.73	5355.44
956.90	5439.40
957.06	5402.54
957.23	5300.14
957.39	5377.97
957.56	5429.17
957.72	5373.87
957.88	5453.74
958.05	5410.73
958.21	5527.47
958.38	5330.86
958.54	5382.06
958.71	5521.32
958.87	5238.70
959.03	5294.00
959.20	5404.59
959.36	5343.15
959.53	5330.86
959.69	5320.62
959.85	5498.80
960.02	5388.21
960.18	5373.87
960.35	5437.36
960.51	5423.02
960.68	5380.01
960.84	5367.73
961.00	5435.31
961.17	5269.42
961.33	5466.03
961.50	5386.16
961.66	5349.29
961.82	5197.74
961.99	5390.25
962.15	5375.92
962.31	5308.34
962.48	5349.29
962.64	5418.93
962.81	5388.21
962.97	5322.67
963.13	5355.44
963.30	5300.14
963.46	5410.73
963.62	5259.18
963.79	5320.62
963.95	5431.21
964.12	5337.01
964.28	5164.98
964.44	5236.66
964.61	5451.69
964.77	5304.24
964.93	5402.54
965.10	5197.74
965.26	5238.70
965.42	5242.80
965.59	5291.95
965.75	5273.52
965.92	5259.18
966.08	5279.66
966.24	5339.05
966.41	5261.23
966.57	5191.60
966.73	5171.12
966.90	5300.14
967.06	5279.66
967.22	5074.87
967.39	5212.08
967.55	5031.86
967.71	5152.69
967.88	5146.55
968.04	5011.38
968.20	5113.78
968.37	5099.44
968.53	5042.10
968.69	5154.74
968.85	5197.74
969.02	5087.15
969.18	5160.88
969.34	5093.30
969.51	5066.67
969.67	5171.12
969.83	5060.53
970.00	5218.22
970.16	5111.73
970.32	4863.93
970.48	5228.46
970.65	4972.47
970.81	5015.48
970.97	4980.66
971.14	4843.45
971.30	5054.39
971.46	4890.55
971.63	4870.07
971.79	5023.67
971.95	4951.99
972.11	4851.64
972.28	4861.88
972.44	4841.40
972.60	4949.94
972.76	4794.29
972.93	4966.32
973.09	4847.54
973.25	4925.36
973.42	4855.73
973.58	4847.54
973.74	4843.45
973.90	4843.45
974.07	4769.72
974.23	4814.77
974.39	4958.13
974.55	4882.36
974.72	4763.58
974.88	4722.62
975.04	4665.27
975.20	4800.44
975.37	4747.19
975.53	4712.38
975.69	4794.29
975.85	4747.19
976.01	4556.73
976.18	4695.99
976.34	4605.88
976.50	4687.80
976.66	4755.38
976.83	4550.59
976.99	4571.07
977.15	4544.44
977.31	4446.14
977.47	4650.94
977.64	4718.52
977.80	4626.36
977.96	4657.08
978.12	4421.56
978.29	4648.89
978.45	4493.24
978.61	4470.72
978.77	4644.79
978.93	4478.91
979.10	4460.48
979.26	4485.05
979.42	4526.01
979.58	4419.52
979.74	4536.25
979.91	4362.17
980.07	4466.62
980.23	4415.42
980.39	4466.62
980.55	4362.17
980.71	4425.66
980.88	4257.73
981.04	4337.60
981.20	4454.33
981.36	4474.81
981.52	4384.70
981.68	4290.49
981.85	4376.51
982.01	4257.73
982.17	4267.97
982.33	4304.83
982.49	4341.69
982.65	4222.91
982.82	4378.56
982.98	4325.31
983.14	4136.90
983.30	4364.22
983.46	4253.63
983.62	4239.30
983.79	4132.80
983.95	4222.91
984.11	4067.27
984.27	4218.82
984.43	4278.21
984.59	4184.00
984.75	4237.25
984.91	4179.90
985.08	4243.39
985.24	4018.11
985.40	4030.40
985.56	4124.61
985.72	4247.49
985.88	4104.13
986.04	4093.89
986.20	4063.17
986.37	4120.51
986.53	3948.48
986.69	4054.98
986.85	3899.33
987.01	3993.54
987.17	4034.50
987.33	3923.91
987.49	3936.20
987.65	3973.06
987.82	4052.93
987.98	3911.62
988.14	3934.15
988.30	3895.24
988.46	3885.00
988.62	3870.66
988.78	3852.23
988.94	3882.95
989.10	3813.32
989.26	3790.79
989.42	3821.51
989.59	3690.44
989.75	3766.21
989.91	3856.33
990.07	3708.87
990.23	3706.82
990.39	3770.31
990.55	3862.47
990.71	3741.64
990.87	3778.50
991.03	3868.61
991.19	3721.16
991.35	3626.95
991.51	3719.11
991.67	3891.14
991.83	3813.32
992.00	3676.10
992.16	3829.70
992.32	3669.96
992.48	3743.69
992.64	3637.19
992.80	3725.26
992.96	3622.86
993.12	3547.08
993.28	3626.95
993.44	3690.44
993.60	3743.69
993.76	3657.67
993.92	3780.55
994.08	3684.30
994.24	3604.42
994.40	3590.09
994.56	3721.16
994.72	3461.07
994.88	3499.98
995.04	3608.52
995.20	3502.03
995.36	3436.49
995.52	3518.41
995.68	3516.36
995.84	3426.25
996.00	3624.90
996.16	3327.95
996.32	3467.21
996.48	3426.25
996.64	3465.16
996.80	3434.44
996.96	3418.06
997.12	3518.41
997.28	3348.43
997.44	3422.16
997.60	3311.57
997.76	3336.14
997.92	3395.53
998.08	3491.79
998.24	3432.40
998.40	3215.31
998.56	3424.20
998.72	3231.69
998.88	3317.71
999.04	3311.57
999.20	3323.85
999.36	3284.94
999.52	3327.95
999.68	3237.84
999.84	3231.69
1000.00	3323.85
1000.16	3305.42
1000.32	3264.46
1000.48	3383.24
1000.64	3209.17
1000.80	3229.65
1000.95	3137.49
1001.11	3194.83
1001.27	3211.22
1001.43	3352.52
1001.59	3149.78
1001.75	3123.15
1001.91	3180.50
1002.07	3127.25
1002.23	3147.73
1002.39	3205.07
1002.55	3123.15
1002.71	3217.36
1002.87	3157.97
1003.03	3071.95
1003.19	3112.91
1003.34	3076.05
1003.50	3129.30
1003.66	3106.77
1003.82	3096.53
1003.98	3133.39
1004.14	3030.99
1004.30	3067.86
1004.46	2934.74
1004.62	3006.42
1004.78	2951.12
1004.94	3000.27
1005.09	3059.67
1005.25	3063.76
1005.41	2965.46
1005.57	3063.76
1005.73	2916.31
1005.89	2994.13
1006.05	2891.73
1006.21	3010.51
1006.37	2893.78
1006.52	2840.53
1006.68	2873.30
1006.84	3045.33
1007.00	2861.01
1007.16	2957.27
1007.32	2904.02
1007.48	2863.06
1007.64	2883.54
1007.79	2861.01
1007.95	2891.73
1008.11	2930.64
1008.27	2828.24
1008.43	2881.49
1008.59	2842.58
1008.75	2967.51
1008.91	2832.34
1009.06	2877.40
1009.22	2906.07
1009.38	2846.68
1009.54	2818.00
1009.70	2852.82
1009.86	2795.48
1010.01	2895.83
1010.17	2738.13
1010.33	2775.00
1010.49	2756.57
1010.65	2803.67
1010.81	2723.80
1010.96	2783.19
1011.12	2736.09
1011.28	2760.66
1011.44	2768.85
1011.60	2801.62
1011.76	2570.20
1011.91	2652.12
1012.07	2623.45
1012.23	2519.00
1012.39	2627.54
1012.55	2703.32
1012.71	2652.12
1012.86	2504.67
1013.02	2641.88
1013.18	2541.53
1013.34	2576.34
1013.50	2650.07
1013.65	2582.49
1013.81	2523.10
1013.97	2590.68
1014.13	2621.40
1014.29	2580.44
1014.44	2639.83
1014.60	2584.54
1014.76	2623.45
1014.92	2574.30
1015.07	2672.60
1015.23	2510.81
1015.39	2435.03
1015.55	2580.44
1015.71	2478.04
1015.86	2465.75
1016.02	2562.01
1016.18	2426.84
1016.34	2510.81
1016.49	2506.71
1016.65	2570.20
1016.81	2412.51
1016.97	2469.85
1017.12	2516.95
1017.28	2459.61
1017.44	2480.09
1017.60	2453.47
1017.75	2475.99
1017.91	2451.42
1018.07	2467.80
1018.23	2418.65
1018.38	2385.88
1018.54	2437.08
1018.70	2418.65
1018.86	2394.08
1019.01	2449.37
1019.17	2404.32
1019.33	2486.23
1019.49	2428.89
1019.64	2453.47
1019.80	2400.22
1019.96	2422.75
1020.12	2412.51
1020.27	2332.64
1020.43	2355.16
1020.59	2445.27
1020.74	2373.60
1020.90	2459.61
1021.06	2306.01
1021.22	2402.27
1021.37	2387.93
1021.53	2211.81
1021.69	2303.96
1021.84	2281.44
1022.00	2283.49
1022.16	2338.78
1022.31	2387.93
1022.47	2361.31
1022.63	2379.74
1022.79	2217.95
1022.94	2199.52
1023.10	2338.78
1023.26	2287.58
1023.41	2246.62
1023.57	2271.20
1023.73	2248.67
1023.88	2303.96
1024.04	2217.95
1024.20	2154.46
1024.35	2328.54
1024.51	2279.39
1024.67	2154.46
1024.82	2291.68
1024.98	2150.37
1025.14	2217.95
1025.29	2269.15
1025.45	2213.85
1025.61	2224.09
1025.76	2152.42
1025.92	2230.24
1026.08	2207.71
1026.23	2258.91
1026.39	2224.09
1026.55	2263.01
1026.70	2121.70
1026.86	2191.33
1027.02	2246.62
1027.17	2164.70
1027.33	2238.43
1027.48	2207.71
1027.64	2205.66
1027.80	2117.60
1027.95	2142.18
1028.11	2045.92
1028.27	2119.65
1028.42	2174.94
1028.58	2066.40
1028.73	2113.50
1028.89	2074.59
1029.05	2205.66
1029.20	2093.02
>>>>>End Processed Spectral Data<<<<<
