SpectraSuite Data File
++++++++++++++++++++++++++++++++++++
Date: Fri Jun 02 14:49:26 CEST 2017
User: INFO_000
Dark Spectrum Present: No
Reference Spectrum Present: No
Number of Sampled Component Spectra: 1
Spectrometers: USB4H00879
Integration Time (usec): 80000 (USB4H00879)
Spectra Averaged: 1 (USB4H00879)
Boxcar Smoothing: 0 (USB4H00879)
Correct for Electrical Dark: No (USB4H00879)
Strobe/Lamp Enabled: No (USB4H00879)
Correct for Detector Non-linearity: No (USB4H00879)
Correct for Stray Light: No (USB4H00879)
Number of Pixels in Processed Spectrum: 3648
>>>>>Begin Processed Spectral Data<<<<<
345.13	1273.84
345.34	1273.84
345.56	1273.84
345.78	1234.93
345.99	1279.98
346.21	1658.85
346.42	1748.97
346.64	1638.38
346.86	1730.53
347.07	1662.95
347.29	1728.49
347.50	1630.18
347.72	1634.28
347.94	1736.68
348.15	1619.94
348.37	1578.98
348.59	1781.73
348.80	1585.13
349.02	1796.07
349.23	1877.99
349.45	1767.40
349.67	1937.38
349.88	1734.63
350.10	1947.62
350.31	1826.79
350.53	1740.77
350.75	1904.61
350.96	1732.58
351.18	1839.08
351.39	1826.79
351.61	1820.64
351.82	1843.17
352.04	1865.70
352.26	1865.70
352.47	1863.65
352.69	1851.36
352.90	1703.91
353.12	1880.04
353.34	1794.02
353.55	1945.57
353.77	1865.70
353.98	1763.30
354.20	1773.54
354.41	1923.04
354.63	1951.71
354.85	2050.02
355.06	1869.80
355.28	1767.40
355.49	1970.15
355.71	1837.03
355.92	1837.03
356.14	1906.66
356.35	1841.12
356.57	1914.85
356.79	1949.67
357.00	1812.45
357.22	2002.91
357.43	1939.43
357.65	1978.34
357.86	1908.71
358.08	1886.18
358.29	1912.80
358.51	2002.91
358.72	1984.48
358.94	1908.71
359.16	1904.61
359.37	1961.95
359.59	1929.19
359.80	1976.29
360.02	1847.27
360.23	1933.28
360.45	2054.11
360.66	1894.37
360.88	1855.46
361.09	1943.52
361.31	1984.48
361.52	1945.57
361.74	2019.30
361.95	2035.68
362.17	2002.91
362.38	2041.82
362.60	2093.02
362.81	1929.19
363.03	1986.53
363.24	1923.04
363.46	1976.29
363.67	2000.87
363.89	2000.87
364.10	2052.06
364.32	1964.00
364.53	2013.15
364.75	1896.42
364.96	1990.63
365.18	1968.10
365.39	1953.76
365.61	2002.91
365.82	2138.08
366.04	2025.44
366.25	1953.76
366.47	2066.40
366.68	2047.97
366.90	2015.20
367.11	2107.36
367.33	2090.98
367.54	2146.27
367.76	1996.77
367.97	2023.39
368.19	1939.43
368.40	1992.67
368.62	1984.48
368.83	2021.35
369.05	2052.06
369.26	1953.76
369.48	2007.01
369.69	1947.62
369.91	2066.40
370.12	1964.00
370.33	2142.18
370.55	1994.72
370.76	2043.87
370.98	2093.02
371.19	2078.69
371.41	2052.06
371.62	2004.96
371.84	2074.59
372.05	2203.61
372.27	2084.83
372.48	2123.74
372.69	2109.41
372.91	2119.65
373.12	2209.76
373.34	2109.41
373.55	2215.90
373.77	2088.93
373.98	2113.50
374.20	2150.37
374.41	2201.57
374.62	2150.37
374.84	2158.56
375.05	2131.94
375.27	2193.37
375.48	2191.33
375.70	2166.75
375.91	2090.98
376.12	2332.64
376.34	2072.54
376.55	2121.70
376.77	2183.13
376.98	2082.78
377.19	2117.60
377.41	2105.31
377.62	2189.28
377.84	2246.62
378.05	2412.51
378.27	2232.29
378.48	2207.71
378.69	2263.01
378.91	2269.15
379.12	2215.90
379.34	2205.66
379.55	2281.44
379.76	2252.77
379.98	2154.46
380.19	2322.40
380.41	2314.20
380.62	2330.59
380.83	2340.83
381.05	2252.77
381.26	2314.20
381.47	2232.29
381.69	2209.76
381.90	2392.03
382.12	2392.03
382.33	2213.85
382.54	2308.06
382.76	2285.53
382.97	2332.64
383.19	2236.38
383.40	2432.99
383.61	2316.25
383.83	2312.16
384.04	2369.50
384.25	2506.71
384.47	2346.97
384.68	2387.93
384.89	2287.58
385.11	2277.34
385.32	2367.45
385.54	2277.34
385.75	2371.55
385.96	2461.66
386.18	2400.22
386.39	2416.60
386.60	2346.97
386.82	2406.36
387.03	2398.17
387.24	2527.19
387.46	2465.75
387.67	2465.75
387.88	2519.00
388.10	2420.70
388.31	2531.29
388.52	2478.04
388.74	2570.20
388.95	2457.56
389.16	2490.33
389.38	2465.75
389.59	2582.49
389.80	2553.82
390.02	2598.87
390.23	2654.17
390.44	2535.39
390.66	2555.86
390.87	2559.96
391.08	2547.67
391.30	2680.79
391.51	2623.45
391.72	2598.87
391.94	2688.98
392.15	2652.12
392.36	2652.12
392.58	2555.86
392.79	2713.56
393.00	2703.32
393.22	2734.04
393.43	2797.53
393.64	2746.33
393.85	2674.65
394.07	2643.93
394.28	2766.81
394.49	2676.70
394.71	2752.47
394.92	2908.12
395.13	2629.59
395.35	2756.57
395.56	2758.61
395.77	2748.37
395.98	2818.00
396.20	2770.90
396.41	2842.58
396.62	2840.53
396.84	2820.05
397.05	2885.59
397.26	2766.81
397.47	2891.73
397.69	2834.39
397.90	2987.99
398.11	2883.54
398.32	2996.18
398.54	2838.48
398.75	2926.55
398.96	3004.37
399.18	3006.42
399.39	2973.65
399.60	2875.35
399.81	2922.45
400.03	3006.42
400.24	3231.69
400.45	3055.57
400.66	3098.58
400.88	2926.55
401.09	3157.97
401.30	2957.27
401.51	3110.86
401.73	3135.44
401.94	3108.82
402.15	3131.34
402.36	3098.58
402.58	3121.10
402.79	3254.22
403.00	3121.10
403.21	3182.54
403.43	3192.78
403.64	3270.61
403.85	3143.63
404.06	3282.89
404.27	3016.66
404.49	3127.25
404.70	3127.25
404.91	3295.18
405.12	3280.85
405.34	3196.88
405.55	3307.47
405.76	3145.68
405.97	3151.82
406.19	3319.76
406.40	3162.06
406.61	3315.66
406.82	3256.27
407.03	3184.59
407.25	3250.13
407.46	3370.96
407.67	3299.28
407.88	3456.97
408.09	3377.10
408.31	3354.57
408.52	3428.30
408.73	3323.85
408.94	3332.05
409.15	3383.24
409.37	3442.64
409.58	3475.40
409.79	3452.88
410.00	3436.49
410.21	3444.68
410.43	3448.78
410.64	3366.86
410.85	3497.93
411.06	3510.22
411.27	3573.71
411.48	3575.75
411.70	3577.80
411.91	3502.03
412.12	3657.67
412.33	3723.21
412.54	3520.46
412.76	3649.48
412.97	3733.45
413.18	3524.55
413.39	3526.60
413.60	3782.60
413.81	3665.86
414.03	3651.53
414.24	3712.97
414.45	3778.50
414.66	3579.85
414.87	3794.89
415.08	3641.29
415.30	3680.20
415.51	3725.26
415.72	3846.09
415.93	3663.82
416.14	3821.51
416.35	3817.41
416.56	3823.56
416.78	3835.85
416.99	3776.45
417.20	3870.66
417.41	3885.00
417.62	3911.62
417.83	3940.29
418.04	3944.39
418.26	3839.94
418.47	3835.85
418.68	3948.48
418.89	3907.52
419.10	4104.13
419.31	4009.92
419.52	4198.34
419.73	3952.58
419.95	4044.74
420.16	4009.92
420.37	4034.50
420.58	4059.07
420.79	3880.90
421.00	4038.59
421.21	4128.70
421.42	4061.12
421.63	4243.39
421.85	4097.99
422.06	4124.61
422.27	4202.43
422.48	4134.85
422.69	4296.64
422.90	4192.19
423.11	4261.82
423.32	4349.89
423.53	4429.76
423.75	4257.73
423.96	4423.61
424.17	4337.60
424.38	4417.47
424.59	4380.61
424.80	4571.07
425.01	4464.57
425.22	4368.32
425.43	4331.45
425.64	4540.35
425.85	4521.92
426.06	4579.26
426.28	4577.21
426.49	4394.94
426.70	4458.43
426.91	4607.93
427.12	4544.44
427.33	4480.96
427.54	4632.51
427.75	4599.74
427.96	4749.24
428.17	4728.76
428.38	4743.10
428.59	4712.38
428.80	4714.42
429.01	4763.58
429.23	4712.38
429.44	4933.56
429.65	4947.89
429.86	4868.02
430.07	4798.39
430.28	4876.21
430.49	4933.56
430.70	5031.86
430.91	4956.08
431.12	5025.72
431.33	4956.08
431.54	5033.91
431.75	5062.58
431.96	4982.71
432.17	5027.76
432.38	5005.24
432.59	5261.23
432.80	5101.49
433.01	5261.23
433.22	5261.23
433.43	5294.00
433.64	5220.27
433.85	5294.00
434.06	5306.29
434.27	5138.35
434.49	5318.57
434.70	5300.14
434.91	5435.31
435.12	5468.08
435.33	5396.40
435.54	5287.86
435.75	5164.98
435.96	5238.70
436.17	5269.42
436.38	5521.32
436.59	5631.91
436.80	5324.72
437.01	5617.58
437.22	5588.91
437.43	5588.91
437.64	5361.58
437.85	5650.35
438.06	5664.68
438.27	5506.99
438.48	5533.61
438.69	5685.16
438.90	5769.13
439.11	5556.14
439.32	5722.02
439.53	5734.31
439.74	5875.62
439.95	5681.07
440.16	5810.09
440.37	5816.23
440.57	5736.36
440.78	5967.78
440.99	5988.26
441.20	5889.96
441.41	5930.92
441.62	5830.57
441.83	5775.27
442.04	5967.78
442.25	5859.24
442.46	5885.86
442.67	6119.33
442.88	6442.91
443.09	5998.50
443.30	6203.30
443.51	6039.46
443.72	6309.79
443.93	6113.19
444.14	6385.57
444.35	6139.81
444.56	6240.16
444.77	6227.87
444.98	6188.96
445.19	6293.41
445.40	6383.52
445.61	6180.77
445.81	6399.90
446.02	6332.32
446.23	6535.07
446.44	6381.47
446.65	6479.77
446.86	6424.48
447.07	6539.16
447.28	6651.80
447.49	6647.71
447.70	6479.77
447.91	6612.89
448.12	6680.47
448.33	6799.26
448.54	6727.58
448.74	6657.95
448.95	6713.24
449.16	6821.78
449.37	6989.72
449.58	6766.49
449.79	7026.58
450.00	6864.79
450.21	6899.61
450.42	7047.06
450.63	7106.45
450.84	6948.76
451.05	6946.71
451.25	6987.67
451.46	6973.33
451.67	7092.12
451.88	7186.32
452.09	7188.37
452.30	7210.90
452.51	7040.92
452.72	7198.61
452.93	7544.72
453.13	7167.89
453.34	7372.69
453.55	7399.31
453.76	7225.23
453.97	7602.06
454.18	7425.93
454.39	7563.15
454.60	7403.41
454.81	7526.29
455.01	7765.90
455.22	7319.44
455.43	7567.24
455.64	7862.15
455.85	7767.95
456.06	8028.04
456.27	7784.33
456.48	7882.63
456.68	7876.49
456.89	7880.58
457.10	7976.84
457.31	7913.35
457.52	7999.37
457.73	7907.21
457.94	8269.70
458.14	7909.26
458.35	8380.29
458.56	8050.57
458.77	8142.72
458.98	8255.36
459.19	8400.77
459.39	8331.14
459.60	8589.18
459.81	8236.93
460.02	8359.81
460.23	8499.07
460.44	8769.40
460.65	8626.04
460.85	8650.62
461.06	8570.75
461.27	8683.39
461.48	8955.77
461.69	8863.61
461.89	8775.55
462.10	8869.75
462.31	8724.35
462.52	8826.75
462.73	8949.62
462.94	9176.95
463.14	9088.89
463.35	9015.16
463.56	9434.99
463.77	9535.34
463.98	9097.08
464.18	9025.40
464.39	9267.06
464.60	9455.47
464.81	9768.81
465.02	9473.90
465.23	9680.75
465.43	9486.19
465.64	9668.46
465.85	9516.91
466.06	9535.34
466.27	10123.11
466.47	9981.80
466.68	10051.43
466.89	9826.15
467.10	10168.16
467.30	9783.15
467.51	9973.61
467.72	10332.00
467.93	10004.33
468.14	10057.57
468.34	10424.16
468.55	10403.68
468.76	10436.45
468.97	10252.13
469.17	10626.91
469.38	10641.25
469.59	10919.77
469.80	10553.18
470.01	10639.20
470.21	10794.84
470.42	10839.90
470.63	10856.28
470.84	10866.52
471.04	10770.27
471.25	10876.76
471.46	11046.74
471.67	11319.12
471.87	11278.16
472.08	11429.71
472.29	11704.14
472.50	11251.54
472.70	11388.75
472.91	11501.39
473.12	11398.99
473.33	11769.68
473.53	11745.10
473.74	11700.05
473.95	12011.34
474.16	12042.06
474.36	12259.14
474.57	12291.91
474.78	12361.54
474.99	12308.29
475.19	12093.26
475.40	12529.47
475.61	12658.49
475.81	12713.79
476.02	12785.47
476.23	12744.51
476.44	12865.34
476.64	13082.42
476.85	13217.59
477.06	12986.17
477.27	13432.63
477.47	13483.83
477.68	13354.80
477.89	13741.87
478.09	13590.32
478.30	13668.14
478.51	13766.45
478.71	13829.93
478.92	14161.70
479.13	13995.82
479.34	14313.25
479.54	14268.20
479.75	14509.86
479.96	14518.05
480.16	14358.31
480.37	14305.06
480.58	14708.51
480.78	15148.82
480.99	14815.01
481.20	14987.04
481.41	15185.69
481.61	15410.96
481.82	15255.32
482.03	15230.74
482.23	15124.25
482.44	15607.57
482.65	15841.04
482.85	15767.31
483.06	15904.53
483.27	15814.41
483.47	15865.61
483.68	16047.88
483.89	15879.95
484.09	16219.91
484.30	16398.09
484.51	16789.25
484.71	16701.19
484.92	16445.19
485.13	16977.66
485.33	16697.09
485.54	16725.76
485.75	17344.25
485.95	17364.73
486.16	17198.84
486.37	17182.46
486.57	17082.11
486.78	17452.79
486.98	17604.34
487.19	17850.10
487.40	17616.63
487.60	17682.16
487.81	18063.08
488.02	17786.61
488.22	18202.35
488.43	17891.06
488.64	18276.07
488.84	18581.22
489.05	18538.21
489.25	18587.36
489.46	18925.28
489.67	18536.17
489.87	19093.21
490.08	18880.22
490.29	18808.54
490.49	19556.05
490.70	19349.21
490.90	19455.70
491.11	19457.75
491.32	19447.51
491.52	19529.43
491.73	19834.58
491.94	19871.44
492.14	19900.11
492.35	19889.87
492.55	20162.25
492.76	20584.13
492.97	20573.89
493.17	20254.41
493.38	20590.28
493.58	20885.19
493.79	20780.74
494.00	20762.31
494.20	21008.06
494.41	20952.77
494.61	21038.78
494.82	21094.08
495.02	21110.46
495.23	21325.50
495.44	21685.94
495.64	21581.49
495.85	21651.13
496.05	21759.67
496.26	21870.26
496.47	21939.89
496.67	21907.12
496.88	21956.27
497.08	21628.60
497.29	22341.29
497.49	22353.58
497.70	22271.66
497.91	22449.83
498.11	22642.34
498.32	22718.12
498.52	22640.29
498.73	22959.78
498.93	22906.53
499.14	22912.67
499.34	22941.35
499.55	23025.31
499.76	23121.57
499.96	23105.18
500.17	23387.80
500.37	23226.01
500.58	23537.30
500.78	23205.53
500.99	23398.04
501.19	23817.88
501.40	23506.59
501.60	23674.52
501.81	23758.49
502.02	23912.08
502.22	23791.25
502.43	24069.78
502.63	24159.89
502.84	24098.45
503.04	23918.23
503.25	24106.64
503.45	24159.89
503.66	24577.67
503.86	24288.91
504.07	24538.76
504.27	24460.94
504.48	24999.55
504.68	24624.78
504.89	25036.42
505.09	25226.88
505.30	24727.17
505.50	24798.85
505.71	24974.98
505.91	24948.36
506.12	24987.27
506.32	25245.31
506.53	25071.23
506.73	25351.81
506.94	25452.16
507.14	25386.62
507.35	25425.53
507.55	25540.22
507.76	25470.59
507.96	25159.30
508.17	25593.47
508.37	25740.92
508.58	25929.33
508.78	25933.43
508.99	26056.31
509.19	25892.47
509.40	25902.71
509.60	26015.35
509.81	25964.15
510.01	25976.44
510.22	26267.25
510.42	25884.28
510.63	26367.60
510.83	26289.77
511.04	26238.58
511.24	26422.89
511.44	26429.04
511.65	26629.74
511.85	26328.69
512.06	26379.89
512.26	26461.80
512.47	26691.18
512.67	26687.08
512.88	26553.96
513.08	26306.16
513.29	27076.19
513.49	26654.31
513.69	26869.35
513.90	26916.45
514.10	26994.28
514.31	26912.36
514.51	27151.97
514.72	27172.45
514.92	26981.99
515.13	26971.75
515.33	27379.29
515.53	27280.99
515.74	27102.82
515.94	27553.37
516.15	27731.54
516.35	27246.18
516.56	27659.87
516.76	27154.02
516.96	27383.39
517.17	27676.25
517.37	27500.12
517.58	27444.83
517.78	27780.70
517.99	27860.57
518.19	28102.23
518.39	27854.42
518.60	28026.45
518.80	28048.98
519.01	28067.41
519.21	28051.03
519.41	28345.94
519.62	28096.08
519.82	28436.05
520.03	28395.09
520.23	28255.82
520.43	28333.65
520.64	28837.45
520.84	28735.05
521.05	28827.21
521.25	28683.85
521.45	28780.10
521.66	29185.60
521.86	28972.61
522.07	29154.88
522.27	29052.48
522.47	28890.70
522.68	29414.98
522.88	29197.89
523.08	29625.92
523.29	29144.64
523.49	29292.10
523.70	29533.76
523.90	29662.78
524.10	29849.14
524.31	30103.09
524.51	29619.77
524.71	30086.71
524.92	29824.57
525.12	30443.06
525.33	30285.36
525.53	30086.71
525.73	30486.06
525.94	30285.36
526.14	30402.10
526.34	30404.14
526.55	30463.54
526.75	30332.47
526.95	30828.07
527.16	30932.52
527.36	30756.39
527.56	31065.64
527.77	31338.02
527.97	31120.93
528.17	31137.32
528.38	31282.72
528.58	31610.40
528.78	31880.73
528.99	31618.59
529.19	32050.71
529.39	31518.24
529.60	31852.06
529.80	31925.78
530.00	31653.40
530.21	31925.78
530.41	32382.48
530.61	31899.16
530.82	32079.38
531.02	32599.57
531.22	32658.96
531.43	32937.48
531.63	32994.82
531.83	33228.29
532.04	33558.02
532.24	32925.19
532.44	33216.01
532.64	33330.69
532.85	33656.32
533.05	33707.52
533.25	33850.88
533.46	33553.92
533.66	34303.48
533.86	33904.12
534.07	34184.69
534.27	33793.53
534.47	34461.17
534.67	34260.47
534.88	34254.33
535.08	34352.63
535.28	34983.40
535.49	34643.44
535.69	35261.93
535.89	35005.93
536.09	34924.01
536.30	34942.44
536.50	34940.39
536.70	35421.67
536.91	35182.06
537.11	35335.65
537.31	35558.88
537.51	35558.88
537.72	35749.34
537.92	35935.71
538.12	36427.22
538.32	35812.83
538.53	36079.07
538.73	35802.59
538.93	36445.65
539.13	36210.14
539.34	36230.62
539.54	36554.19
539.74	36914.64
539.94	36546.00
540.15	36771.28
540.35	36746.70
540.55	36885.97
540.75	36734.42
540.96	37510.60
541.16	37092.81
541.36	37365.19
541.56	37445.06
541.77	37670.34
541.97	37438.92
542.17	37766.59
542.37	38020.54
542.58	37801.41
542.78	37991.87
542.98	37856.70
543.18	38303.16
543.38	38872.49
543.59	38348.21
543.79	38043.07
543.99	38399.41
544.19	38960.56
544.40	38245.82
544.60	39101.87
544.80	38581.68
545.00	38747.57
545.20	39075.24
545.41	38854.06
545.61	39069.10
545.81	39105.96
546.01	39269.80
546.21	39118.25
546.42	39265.70
546.62	39431.59
546.82	39437.73
547.02	39620.00
547.22	39511.46
547.43	39609.76
547.63	39835.04
547.83	39779.74
548.03	39896.48
548.23	40095.13
548.44	39886.24
548.64	40234.39
548.84	40408.47
549.04	40193.43
549.24	40566.16
549.45	40756.63
549.65	40310.17
549.85	40740.24
550.05	40674.71
550.25	40691.09
550.45	41207.18
550.66	40375.70
550.86	40850.83
551.06	40967.57
551.26	40904.08
551.46	41141.64
551.66	40977.81
551.87	41002.38
552.07	40936.85
552.27	41311.63
552.47	41000.33
552.67	41436.55
552.87	41473.42
553.07	41065.87
553.28	41584.01
553.48	41637.25
553.68	41631.11
553.88	41981.31
554.08	41614.72
554.28	41641.35
554.48	41590.15
554.69	41530.76
554.89	42177.92
555.09	41639.30
555.29	41864.58
555.49	41788.80
555.69	41893.25
555.89	42333.56
556.10	42564.98
556.30	42089.85
556.50	42356.09
556.70	42044.80
556.90	42622.33
557.10	42292.60
557.30	42395.00
557.50	42403.19
557.70	42540.41
557.91	42804.59
558.11	42339.71
558.31	42706.29
558.51	42837.36
558.71	42794.36
558.91	42892.66
559.11	42407.29
559.31	42212.73
559.51	42696.05
559.72	42833.27
559.92	43093.36
560.12	42603.89
560.32	42866.03
560.52	42732.92
560.72	43085.17
560.92	43085.17
561.12	43158.89
561.32	43464.04
561.52	43267.44
561.72	43332.97
561.93	43085.17
562.13	42947.95
562.33	43214.19
562.53	43531.62
562.73	43113.84
562.93	43212.14
563.13	43189.61
563.33	43494.76
563.53	43232.62
563.73	43160.94
563.93	43455.85
564.13	44066.14
564.33	43441.51
564.53	43265.39
564.74	43752.80
564.94	43558.25
565.14	43955.55
565.34	43552.10
565.54	44076.38
565.74	43394.41
565.94	43937.12
566.14	43679.08
566.34	43287.92
566.54	43904.35
566.74	43281.77
566.94	44014.94
567.14	44051.81
567.34	43961.70
567.54	43720.04
567.74	43623.78
567.94	43664.74
568.14	43988.32
568.34	44070.24
568.54	43939.17
568.74	44137.82
568.94	43887.97
569.14	44191.07
569.34	44184.93
569.54	44258.65
569.75	44178.78
569.95	44174.69
570.15	44832.08
570.35	44031.33
570.55	44164.45
570.75	44475.74
570.95	44492.12
571.15	44184.93
571.35	44608.86
571.55	44762.45
571.75	44891.48
571.95	44442.97
572.15	44246.36
572.35	44719.45
572.55	44385.63
572.75	44451.16
572.95	44594.52
573.15	44584.28
573.35	44553.56
573.55	44598.62
573.75	44227.93
573.95	44789.08
574.15	44660.05
574.35	45120.85
574.55	44881.24
574.75	44807.51
574.95	45159.76
575.15	44750.17
575.34	45008.21
575.54	45262.16
575.74	44914.00
575.94	45227.34
576.14	45094.22
576.34	45163.85
576.54	45673.80
576.74	45202.77
576.94	45405.52
577.14	45509.96
577.34	45618.50
577.54	45462.86
577.74	45569.35
577.94	45524.30
578.14	45761.86
578.34	45915.46
578.54	45026.64
578.74	45217.10
578.94	45854.02
579.14	45339.98
579.34	45469.00
579.54	45692.23
579.74	45858.12
579.94	45884.74
580.13	45872.45
580.33	46298.43
580.53	45696.33
580.73	45907.27
580.93	46210.37
581.13	46159.17
581.33	46859.57
581.53	46275.90
581.73	46316.86
581.93	46474.55
582.13	46167.36
582.33	46458.17
582.53	46155.07
582.73	46302.53
582.92	46761.27
583.12	46986.55
583.32	46980.40
583.52	46568.76
583.72	46777.65
583.92	46892.34
584.12	47172.91
584.32	47424.81
584.52	46603.58
584.72	47338.80
584.92	46912.82
585.11	47043.89
585.31	46773.56
585.51	47303.98
585.71	47062.32
585.91	47127.86
586.11	47293.74
586.31	47281.45
586.51	47168.82
586.71	47492.40
586.91	47519.02
587.10	47566.12
587.30	47488.30
587.50	48108.83
587.70	47732.01
587.90	47678.76
588.10	47621.42
588.30	47637.80
588.50	47983.91
588.69	48207.14
588.89	48080.16
589.09	47600.94
589.29	48098.59
589.49	48518.43
589.69	48194.85
589.89	48026.92
590.08	48174.37
590.28	47836.45
590.48	48307.49
590.68	48203.04
590.88	48330.01
591.08	48133.41
591.28	48135.46
591.47	49081.62
591.67	48776.47
591.87	48583.96
592.07	48485.66
592.27	48823.58
592.47	48399.65
592.67	48684.31
592.86	48313.63
593.06	48672.03
593.26	48833.81
593.46	48612.63
593.66	48985.36
593.86	49194.26
594.05	48915.73
594.25	49378.57
594.45	48891.16
594.65	49067.28
594.85	48985.36
595.05	49769.74
595.24	49741.06
595.44	49001.75
595.64	49386.77
595.84	49612.04
596.04	49323.28
596.23	49683.72
596.43	49861.90
596.63	49968.39
596.83	49444.11
597.03	49952.01
597.22	50119.94
597.42	49906.95
597.62	50644.22
597.82	50396.42
598.02	50459.90
598.21	50324.74
598.41	50156.80
598.61	50654.46
598.81	50021.64
599.01	50697.47
599.20	50601.21
599.40	50588.92
599.60	51123.44
599.80	50953.46
600.00	50965.75
600.19	51016.95
600.39	50904.31
600.59	51258.61
600.79	51094.77
600.98	51307.76
601.18	51455.21
601.38	51330.29
601.58	51385.58
601.78	51942.63
601.97	51221.75
602.17	51899.62
602.37	51725.55
602.57	51455.21
602.76	51844.33
602.96	51776.75
603.16	52063.46
603.36	51844.33
603.55	52507.87
603.75	51922.15
603.95	52143.33
604.15	52083.94
604.34	52542.69
604.54	52106.47
604.74	52380.90
604.94	52702.43
605.13	52405.47
605.33	52647.13
605.53	52604.13
605.73	52978.90
605.92	52993.24
606.12	53058.77
606.32	53179.60
606.52	52813.02
606.71	53028.05
606.91	53347.54
607.11	52896.98
607.30	53310.67
607.50	53454.03
607.70	53128.41
607.90	53081.30
608.09	52956.38
608.29	53480.66
608.49	53490.90
608.68	53531.86
608.88	53376.21
609.08	53736.65
609.28	54074.57
609.47	53949.64
609.67	54230.21
609.87	53796.04
610.06	54131.91
610.26	54129.86
610.46	54242.50
610.66	53875.91
610.85	54009.03
611.05	54211.78
611.25	53974.22
611.44	53621.97
611.64	54373.57
611.84	54146.25
612.03	54236.36
612.23	54490.30
612.43	54684.86
612.62	54099.14
612.82	54660.29
613.02	54344.90
613.21	54590.66
613.41	54613.18
613.61	54629.57
613.80	54211.78
614.00	54564.03
614.20	54727.87
614.39	54480.06
614.59	54551.74
614.79	54572.22
614.98	54834.36
615.18	54891.71
615.38	54310.08
615.57	54674.62
615.77	55071.93
615.97	54967.48
616.16	54955.19
616.36	54731.96
616.56	54748.35
616.75	54916.28
616.95	54863.03
617.15	54942.91
617.34	55010.49
617.54	54588.61
617.74	55137.46
617.93	55325.88
618.13	54645.95
618.32	55319.73
618.52	54695.10
618.72	55137.46
618.91	54803.64
619.11	54703.29
619.31	55116.98
619.50	54721.72
619.70	54656.19
619.90	55366.84
620.09	54539.46
620.29	55088.31
620.48	54879.42
620.68	55555.25
620.88	55080.12
621.07	55192.76
621.27	55143.61
621.46	55024.82
621.66	55313.59
621.86	55319.73
622.05	55221.43
622.25	55180.47
622.44	55213.24
622.64	55123.13
622.84	55332.02
623.03	55119.03
623.23	54713.53
623.42	55133.37
623.62	55067.83
623.82	55540.91
624.01	55088.31
624.21	55200.95
624.40	54932.67
624.60	54801.60
624.80	55258.29
624.99	55309.49
625.19	54836.41
625.38	55430.32
625.58	55231.67
625.77	55135.41
625.97	55178.42
626.17	54588.61
626.36	55002.30
626.56	55248.05
626.75	54766.78
626.95	55489.71
627.14	55041.21
627.34	55366.84
627.54	55100.60
627.73	54908.09
627.93	54697.15
628.12	54756.54
628.32	55000.25
628.51	54854.84
628.71	55010.49
628.90	55088.31
629.10	55295.16
629.30	54746.30
629.49	55372.98
629.69	55129.27
629.88	54938.81
630.08	55311.54
630.27	55106.74
630.47	54826.17
630.66	54850.75
630.86	55014.58
631.05	54875.32
631.25	55639.22
631.44	54961.34
631.64	55022.78
631.84	55137.46
632.03	55444.66
632.23	54928.57
632.42	55153.85
632.62	55559.34
632.81	54834.36
633.01	55008.44
633.20	55233.72
633.40	55338.16
633.59	55264.44
633.79	54797.50
633.98	55194.81
634.18	54723.77
634.37	54899.90
634.57	54981.82
634.76	55489.71
634.96	54897.85
635.15	55289.01
635.35	54940.86
635.54	54940.86
635.74	55870.64
635.93	54957.24
636.13	55106.74
636.32	55415.99
636.52	54580.42
636.71	55278.77
636.91	55125.17
637.10	55176.37
637.30	55198.90
637.49	55243.96
637.69	54912.19
637.88	55311.54
638.08	54691.01
638.27	55178.42
638.46	54899.90
638.66	54682.81
638.85	54817.98
639.05	54947.00
639.24	55219.38
639.44	54918.33
639.63	55309.49
639.83	55112.89
640.02	55237.81
640.22	54768.83
640.41	55286.96
640.61	54670.53
640.80	55215.29
640.99	54846.65
641.19	55559.34
641.38	55211.19
641.58	55090.36
641.77	54928.57
641.97	54531.26
642.16	54971.58
642.36	55157.94
642.55	55243.96
642.74	54588.61
642.94	55518.38
643.13	54656.19
643.33	55571.63
643.52	55090.36
643.72	55610.54
643.91	54645.95
644.10	55415.99
644.30	55436.47
644.49	55194.81
644.69	55272.63
644.88	54975.67
645.08	54953.15
645.27	54877.37
645.46	54914.23
645.66	55159.99
645.85	55395.51
646.05	55192.76
646.24	54891.71
646.43	55422.13
646.63	55356.60
646.82	55272.63
647.02	55637.17
647.21	55729.33
647.40	55008.44
647.60	55215.29
647.79	55579.82
647.99	55563.44
648.18	55039.16
648.37	55772.33
648.57	55018.68
648.76	55420.08
648.96	55178.42
649.15	55307.44
649.34	55350.45
649.54	55528.62
649.73	55293.11
649.92	55317.68
650.12	55092.41
650.31	55127.22
650.51	55555.25
650.70	55633.07
650.89	55076.02
651.09	55825.58
651.28	55448.75
651.47	55493.81
651.67	55723.18
651.86	55604.40
652.06	55026.87
652.25	55368.88
652.44	55155.89
652.64	54969.53
652.83	55067.83
653.02	54932.67
653.22	55352.50
653.41	54977.72
653.60	54869.18
653.80	55295.16
653.99	55766.19
654.18	55348.40
654.38	55217.33
654.57	55248.05
654.76	55127.22
654.96	55454.90
655.15	55108.79
655.34	54957.24
655.54	55022.78
655.73	54942.91
655.92	55108.79
656.12	55033.02
656.31	54885.56
656.50	55223.48
656.70	55346.36
656.89	55579.82
657.08	55409.84
657.28	55510.19
657.47	55397.55
657.66	55248.05
657.86	54811.84
658.05	55303.35
658.24	55350.45
658.43	54990.01
658.63	55428.27
658.82	55147.70
659.01	55526.58
659.21	55493.81
659.40	55372.98
659.59	55159.99
659.79	55309.49
659.98	55528.62
660.17	56057.00
660.36	55241.91
660.56	55248.05
660.75	55424.18
660.94	55450.80
661.14	55123.13
661.33	54645.95
661.52	54983.86
661.71	55467.19
661.91	54959.29
662.10	55174.33
662.29	55225.53
662.49	55561.39
662.68	55358.64
662.87	55278.77
663.06	55307.44
663.26	55141.56
663.45	55309.49
663.64	55342.26
663.83	56057.00
664.03	55698.61
664.22	55424.18
664.41	55545.01
664.60	55538.86
664.80	55540.91
664.99	55127.22
665.18	55489.71
665.37	55332.02
665.57	55323.83
665.76	55334.07
665.95	55346.36
666.14	55145.65
666.34	55456.95
666.53	55119.03
666.72	55116.98
666.91	55033.02
667.11	55022.78
667.30	55493.81
667.49	55413.94
667.68	55116.98
667.87	55338.16
668.07	55628.98
668.26	55461.04
668.45	55606.45
668.64	55309.49
668.84	55866.54
669.03	55508.14
669.22	55540.91
669.41	55194.81
669.60	55610.54
669.80	54959.29
669.99	55784.62
670.18	55530.67
670.37	55379.12
670.57	55553.20
670.76	55104.70
670.95	55635.12
671.14	55315.64
671.33	55581.87
671.53	55735.47
671.72	55704.75
671.91	55223.48
672.10	55246.00
672.29	55626.93
672.48	55502.00
672.68	55438.51
672.87	55334.07
673.06	55321.78
673.25	55317.68
673.44	55428.27
673.64	55284.92
673.83	55096.50
674.02	55137.46
674.21	55112.89
674.40	55344.31
674.59	55061.69
674.79	55155.89
674.98	55215.29
675.17	55112.89
675.36	55323.83
675.55	55469.23
675.74	55256.24
675.94	55256.24
676.13	55596.21
676.32	55614.64
676.51	55645.36
676.70	55764.14
676.89	55227.57
677.08	55456.95
677.28	55420.08
677.47	55334.07
677.66	55809.20
677.85	54985.91
678.04	55514.29
678.23	55485.62
678.42	55516.34
678.62	55868.59
678.81	55841.96
679.00	55475.38
679.19	56179.88
679.38	55581.87
679.57	55239.86
679.76	55448.75
679.96	55768.24
680.15	55344.31
680.34	55348.40
680.53	55129.27
680.72	55473.33
680.91	55719.09
681.10	55499.95
681.29	55772.33
681.48	55620.78
681.68	55114.94
681.87	54908.09
682.06	55076.02
682.25	55252.15
682.44	55268.53
682.63	55540.91
682.82	54947.00
683.01	55166.13
683.20	55129.27
683.39	55231.67
683.59	55071.93
683.78	54998.20
683.97	55143.61
684.16	55241.91
684.35	55172.28
684.54	54887.61
684.73	55499.95
684.92	54916.28
685.11	55014.58
685.30	55055.54
685.49	55393.46
685.69	55313.59
685.88	55307.44
686.07	55137.46
686.26	55028.92
686.45	55418.03
686.64	55502.00
686.83	54928.57
687.02	54893.75
687.21	55153.85
687.40	55182.52
687.59	55264.44
687.78	55336.12
687.97	55481.52
688.16	55317.68
688.35	55065.78
688.54	54965.43
688.74	55129.27
688.93	55219.38
689.12	54926.52
689.31	55164.09
689.50	55268.53
689.69	54817.98
689.88	54719.68
690.07	55180.47
690.26	54822.08
690.45	55186.61
690.64	55076.02
690.83	55035.06
691.02	55200.95
691.21	55063.74
691.40	54865.08
691.59	54514.88
691.78	54635.71
691.97	55063.74
692.16	54961.34
692.35	55033.02
692.54	55282.87
692.73	55254.20
692.92	55135.41
693.11	55145.65
693.30	55428.27
693.49	55147.70
693.68	54830.27
693.87	54938.81
694.06	54871.23
694.25	54820.03
694.44	54693.05
694.63	54891.71
694.82	55125.17
695.01	54662.33
695.20	54740.16
695.39	54213.83
695.58	55129.27
695.77	54140.10
695.96	54174.92
696.15	54736.06
696.34	54430.91
696.53	54514.88
696.72	55010.49
696.91	54457.54
697.10	54752.44
697.29	54719.68
697.48	54699.20
697.67	54572.22
697.86	54531.26
698.05	54295.75
698.24	54908.09
698.43	54232.26
698.62	54623.42
698.81	54248.64
699.00	54658.24
699.19	54211.78
699.38	54693.05
699.57	54232.26
699.76	54979.77
699.95	54621.37
700.14	54338.75
700.32	54557.89
700.51	54402.24
700.70	54310.08
700.89	54387.91
701.08	54418.63
701.27	54410.43
701.46	54924.47
701.65	54039.75
701.84	54138.05
702.03	54074.57
702.22	54015.18
702.41	53656.78
702.60	54437.06
702.79	53859.53
702.98	54006.98
703.17	54224.07
703.35	53763.28
703.54	53697.74
703.73	54074.57
703.92	54072.52
704.11	53638.35
704.30	53611.73
704.49	53832.91
704.68	53591.25
704.87	53843.15
705.06	53687.50
705.25	53886.15
705.43	53777.61
705.62	53677.26
705.81	53540.05
706.00	53578.96
706.19	53335.25
706.38	53712.08
706.57	53558.48
706.76	53406.93
706.95	53511.38
707.14	53408.98
707.32	53282.00
707.51	53286.10
707.70	53548.24
707.89	53794.00
708.08	53195.99
708.27	53171.41
708.46	53933.26
708.65	53525.71
708.84	53476.56
709.02	52991.19
709.21	53191.89
709.40	53044.44
709.59	53083.35
709.78	52878.55
709.97	53425.36
710.16	53122.26
710.34	53226.71
710.53	53009.62
710.72	52708.57
710.91	53277.91
711.10	53490.90
711.29	52749.53
711.48	53253.33
711.66	52778.20
711.85	53089.49
712.04	52651.23
712.23	52944.09
712.42	53202.13
712.61	52776.15
712.80	52780.25
712.98	52765.91
713.17	52718.81
713.36	52696.28
713.55	52714.72
713.74	52770.01
713.93	52696.28
714.11	52509.92
714.30	52401.38
714.49	52301.03
714.68	52634.84
714.87	52612.32
715.06	52419.81
715.24	52147.43
715.43	52262.11
715.62	52290.79
715.81	51854.57
716.00	52640.99
716.18	52110.56
716.37	51633.39
716.56	51571.95
716.75	51983.59
716.94	52110.56
717.12	51356.91
717.31	51664.11
717.50	51750.12
717.69	51856.62
717.88	51889.38
718.06	51795.18
718.25	51879.14
718.44	51664.11
718.63	51297.52
718.82	51242.23
719.00	51518.70
719.19	51426.54
719.38	51354.86
719.57	50638.08
719.76	50652.41
719.94	50281.73
720.13	50681.08
720.32	50738.43
720.51	51090.68
720.69	50754.81
720.88	51010.81
721.07	50879.74
721.26	50296.06
721.44	50631.93
721.63	50240.77
721.82	50275.58
722.01	50504.96
722.20	50541.82
722.38	49886.47
722.57	50052.36
722.76	50429.18
722.95	49939.72
723.13	49739.02
723.32	49814.79
723.51	49542.41
723.70	49474.83
723.88	49851.66
724.07	49833.22
724.26	49706.25
724.44	49134.87
724.63	50068.74
724.82	49405.20
725.01	49394.96
725.19	49444.11
725.38	49155.35
725.57	49313.04
725.76	49349.90
725.94	48913.69
726.13	49077.52
726.32	49169.68
726.51	49005.84
726.69	49067.28
726.88	49270.03
727.07	49118.48
727.25	48987.41
727.44	48858.39
727.63	48690.46
727.82	48839.96
728.00	49057.04
728.19	48885.01
728.38	49382.67
728.56	48162.08
728.75	48848.15
728.94	48420.13
729.12	48907.54
729.31	49147.15
729.50	48825.62
729.69	48831.77
729.87	48764.18
730.06	48244.00
730.25	48891.16
730.43	48766.23
730.62	48553.24
730.81	48864.53
730.99	48911.64
731.18	48583.96
731.37	48596.25
731.55	48993.56
731.74	49089.81
731.93	48487.71
732.11	48669.98
732.30	48778.52
732.49	48448.80
732.67	48383.26
732.86	48536.86
733.05	48041.25
733.23	47977.76
733.42	48168.22
733.61	48037.16
733.79	48315.68
733.98	48661.79
734.17	48268.58
734.35	48272.67
734.54	48254.24
734.73	48608.54
734.91	48071.97
735.10	47750.44
735.29	48336.16
735.47	47375.66
735.66	47871.27
735.84	47820.07
736.03	47861.03
736.22	48096.55
736.40	48012.58
736.59	48174.37
736.78	47615.27
736.96	47611.18
737.15	48033.06
737.33	47795.49
737.52	47406.38
737.71	47858.98
737.89	47150.38
738.08	47361.33
738.27	47297.84
738.45	47543.59
738.64	47486.25
738.82	47281.45
739.01	47375.66
739.20	47269.17
739.38	47422.76
739.57	47762.73
739.75	47258.93
739.94	47246.64
740.13	47191.34
740.31	47232.30
740.50	47074.61
740.68	47078.71
740.87	47037.75
741.06	47084.85
741.24	47060.27
741.43	46630.20
741.61	46640.44
741.80	46613.82
741.99	46703.93
742.17	46875.96
742.36	46632.25
742.54	46331.20
742.73	46683.45
742.91	47017.27
743.10	46650.68
743.29	46851.38
743.47	46257.47
743.66	46398.78
743.84	46306.62
744.03	46331.20
744.21	46228.80
744.40	46896.44
744.59	46134.59
744.77	46187.84
744.96	46146.88
745.14	46333.24
745.33	46032.19
745.51	46036.29
745.70	46337.34
745.88	46267.71
746.07	46058.82
746.26	45677.90
746.44	45806.92
746.63	45964.61
746.81	46056.77
747.00	45722.95
747.18	46280.00
747.37	45757.77
747.55	45876.55
747.74	45974.85
747.92	45237.58
748.11	45415.76
748.29	45561.16
748.48	45434.19
748.66	45585.74
748.85	45264.21
749.03	45626.70
749.22	45307.21
749.41	45249.87
749.59	45243.73
749.78	45012.31
749.96	45045.07
750.15	45260.11
750.33	45088.08
750.52	44916.05
750.70	44934.48
750.89	44823.89
751.07	44436.83
751.26	44971.35
751.44	44559.70
751.63	43984.22
751.81	44660.05
752.00	44762.45
752.18	44582.23
752.37	44660.05
752.55	44248.41
752.74	44340.57
752.92	44449.11
753.10	44242.27
753.29	44963.15
753.47	44049.76
753.66	43933.03
753.84	44326.24
754.03	43963.75
754.21	43603.30
754.40	44445.02
754.58	44449.11
754.77	44053.86
754.95	43799.91
755.14	43892.07
755.32	43873.63
755.51	43621.73
755.69	43738.47
755.88	43597.16
756.06	43664.74
756.24	43980.13
756.43	43648.36
756.61	43685.22
756.80	43427.18
756.98	43177.33
757.17	43330.92
757.35	43312.49
757.54	43115.89
757.72	43541.86
757.90	43230.57
758.09	43255.15
758.27	42974.58
758.46	43111.79
758.64	43222.38
758.83	43195.76
759.01	42767.73
759.19	43124.08
759.38	43246.96
759.56	43097.45
759.75	42892.66
759.93	42515.83
760.12	42769.78
760.30	42911.09
760.48	43007.34
760.67	42820.98
760.85	43046.26
761.04	42997.10
761.22	42857.84
761.40	43162.99
761.59	42438.01
761.77	42345.85
761.96	42235.26
762.14	42503.54
762.32	42220.92
762.51	42098.05
762.69	42286.46
762.88	42395.00
763.06	42306.94
763.24	42470.78
763.43	42177.92
763.61	42007.94
763.80	42483.06
763.98	42186.11
764.16	41907.58
764.35	42108.29
764.53	41303.43
764.72	41948.54
764.90	41461.13
765.08	41989.50
765.27	41936.26
765.45	41571.72
765.63	41565.57
765.82	41547.14
766.00	41358.73
766.18	41506.18
766.37	41541.00
766.55	41244.04
766.74	41770.37
766.92	41297.29
767.10	41328.01
767.29	41119.12
767.47	40904.08
767.65	41031.05
767.84	41047.44
768.02	41299.34
768.20	40877.46
768.39	41115.02
768.57	40955.28
768.75	40703.38
768.94	40873.36
769.12	40625.56
769.30	40570.26
769.49	40607.12
769.67	40457.62
769.85	40088.99
770.04	40562.07
770.22	40177.05
770.40	40306.07
770.59	40293.79
770.77	40496.53
770.95	40291.74
771.14	40170.91
771.32	39859.62
771.50	39908.77
771.69	39996.83
771.87	40338.84
772.05	40029.60
772.24	40185.24
772.42	40121.76
772.60	39757.22
772.78	39716.26
772.97	39888.29
773.15	39673.25
773.33	39656.87
773.52	39679.39
773.70	39855.52
773.88	39910.82
774.07	39538.08
774.25	39828.90
774.43	39894.43
774.61	40031.65
774.80	40168.86
774.98	39794.08
775.16	39761.31
775.34	39986.59
775.53	39398.82
775.71	40086.94
775.89	40074.65
776.08	39654.82
776.26	39656.87
776.44	39949.73
776.62	39785.89
776.81	39521.70
776.99	39753.12
777.17	39978.40
777.35	39998.88
777.54	40437.14
777.72	39845.28
777.90	40039.84
778.08	40338.84
778.27	39929.25
778.45	40240.54
778.63	40461.72
778.81	39923.10
779.00	40746.39
779.18	40111.52
779.36	40506.77
779.54	40017.31
779.73	40224.15
779.91	40826.26
780.09	40183.19
780.27	40590.74
780.46	40787.35
780.64	40414.62
780.82	40646.04
781.00	40625.56
781.19	40689.04
781.37	40916.37
781.55	41037.20
781.73	40877.46
781.91	40445.33
782.10	40695.19
782.28	40824.21
782.46	40584.60
782.64	40885.65
782.82	40873.36
783.01	41104.78
783.19	41250.19
783.37	40586.64
783.55	40850.83
783.74	41123.21
783.92	40605.08
784.10	41270.67
784.28	40863.12
784.46	40871.31
784.64	40828.30
784.83	40740.24
785.01	41029.01
785.19	41008.53
785.37	41014.67
785.55	40844.69
785.74	40641.94
785.92	40437.14
786.10	41160.08
786.28	40908.18
786.46	40623.51
786.64	40301.98
786.83	40848.78
787.01	40961.42
787.19	40770.96
787.37	40490.39
787.55	41022.86
787.74	40695.19
787.92	40826.26
788.10	40383.90
788.28	40304.02
788.46	40142.24
788.64	40183.19
788.82	40811.92
789.01	40275.35
789.19	40738.19
789.37	40088.99
789.55	40439.19
789.73	40387.99
789.91	40121.76
790.09	39894.43
790.28	39925.15
790.46	39527.84
790.64	39916.96
790.82	39521.70
791.00	39675.30
791.18	39630.24
791.36	39968.16
791.55	39820.70
791.73	39407.01
791.91	39460.26
792.09	39763.36
792.27	39626.15
792.45	39689.63
792.63	39087.53
792.81	39615.91
793.00	39169.45
793.18	38913.45
793.36	38868.40
793.54	38858.16
793.72	38600.12
793.90	38559.16
794.08	38761.90
794.26	38614.45
794.44	38389.17
794.62	38108.60
794.81	38100.41
794.99	38507.96
795.17	38380.98
795.35	38290.87
795.53	38677.94
795.71	38499.76
795.89	38057.40
796.07	37864.89
796.25	37701.06
796.43	37656.00
796.61	37211.59
796.80	37543.36
796.98	37944.76
797.16	37672.39
797.34	37703.10
797.52	37129.67
797.70	37420.48
797.88	37438.92
798.06	37139.91
798.24	37414.34
798.42	37088.71
798.60	37051.85
798.78	36781.52
798.96	37232.07
799.14	37086.67
799.32	36996.56
799.51	36210.14
799.69	36722.13
799.87	36609.49
800.05	36384.21
800.23	36156.89
800.41	36267.48
800.59	36216.28
800.77	36382.16
800.95	36042.20
801.13	36079.07
801.31	36240.86
801.49	35935.71
801.67	35730.91
801.85	35679.71
802.03	35372.52
802.21	35659.23
802.39	35337.70
802.57	35648.99
802.75	35141.10
802.93	35286.50
803.11	35145.19
803.29	35405.28
803.47	34919.92
803.65	34870.76
803.83	35128.81
804.01	34938.35
804.19	34557.42
804.37	34620.91
804.55	34526.71
804.73	34498.03
804.91	34321.91
805.09	34600.43
805.27	34629.10
805.45	34244.09
805.63	34383.35
805.81	34444.79
805.99	34358.77
806.17	34373.11
806.35	34248.18
806.53	34203.13
806.71	33990.14
806.89	33920.51
807.07	34158.07
807.25	34084.34
807.43	33752.57
807.61	34100.73
807.79	33732.09
807.97	33256.96
808.15	33285.64
808.33	33304.07
808.51	33787.39
808.69	33304.07
808.87	32980.49
809.05	32898.57
809.23	32988.68
809.41	33129.99
809.59	32566.80
809.77	33183.24
809.95	33046.02
810.13	33017.35
810.31	32470.54
810.49	32742.92
810.67	32685.58
810.84	32724.49
811.02	32581.13
811.20	32267.80
811.38	32488.98
811.56	32120.34
811.74	32282.13
811.92	32486.93
812.10	32079.38
812.28	31983.13
812.46	32308.76
812.64	32323.09
812.82	32038.42
813.00	31813.15
813.18	32286.23
813.36	31626.78
813.53	31913.50
813.71	31727.13
813.89	31393.31
814.07	31802.91
814.25	31686.17
814.43	31614.49
814.61	31514.14
814.79	31632.93
814.97	31360.55
815.15	31127.08
815.33	31143.46
815.50	30909.99
815.68	31348.26
815.86	31215.14
816.04	31159.84
816.22	30797.35
816.40	30715.44
816.58	30555.69
816.76	30768.68
816.94	30422.58
817.11	30979.62
817.29	30991.91
817.47	30287.41
817.65	30488.11
817.83	30457.39
818.01	30555.69
818.19	30551.60
818.37	30398.00
818.54	30414.38
818.72	30281.27
818.90	30314.03
819.08	30340.66
819.26	30201.40
819.44	30058.04
819.62	29900.34
819.80	30002.74
819.97	29820.47
820.15	29851.19
820.33	30006.84
820.51	30148.15
820.69	29480.51
820.87	29642.30
821.05	29931.06
821.22	29328.96
821.40	29406.78
821.58	29728.31
821.76	29539.90
821.94	29789.75
822.12	29490.75
822.29	29613.63
822.47	29351.49
822.65	29255.23
822.83	29304.38
823.01	29197.89
823.19	29322.82
823.36	29089.35
823.54	28937.80
823.72	29474.37
823.90	28915.27
824.08	28941.89
824.25	29115.97
824.43	29005.38
824.61	28597.84
824.79	28872.26
824.97	28921.41
825.15	28851.78
825.32	28679.75
825.50	28429.90
825.68	28288.59
825.86	28821.06
826.04	28616.27
826.21	28329.55
826.39	28583.50
826.57	28513.87
826.75	28112.47
826.93	28300.88
827.10	28024.40
827.28	28304.98
827.46	28382.80
827.64	28407.37
827.81	27952.73
827.99	28122.71
828.17	27930.20
828.35	28040.79
828.53	27926.10
828.70	28016.21
828.88	27608.67
829.06	28077.65
829.24	27924.05
829.41	27768.41
829.59	27909.72
829.77	27647.58
829.95	27719.26
830.12	27709.02
830.30	27321.95
830.48	27960.92
830.66	27459.16
830.84	27469.40
831.01	27342.43
831.19	27500.12
831.37	27489.88
831.55	27280.99
831.72	27262.56
831.90	27428.45
832.08	27397.73
832.25	26803.82
832.43	27254.37
832.61	27082.34
832.79	26914.41
832.96	27016.80
833.14	26904.17
833.32	27076.19
833.50	27293.28
833.67	26799.72
833.85	26764.90
834.03	26762.86
834.20	27051.62
834.38	26945.12
834.56	26717.80
834.74	26693.22
834.91	26685.03
835.09	26685.03
835.27	26525.29
835.44	26426.99
835.62	26193.52
835.80	26281.58
835.98	26261.10
836.15	26291.82
836.33	26426.99
836.51	26545.77
836.68	26445.42
836.86	26371.69
837.04	26191.47
837.21	26459.76
837.39	26297.97
837.57	26273.39
837.75	26271.34
837.92	25771.64
838.10	25869.94
838.28	25898.61
838.45	25646.71
838.63	25708.15
838.81	25595.51
838.98	25937.52
839.16	25519.74
839.34	25384.57
839.51	25630.33
839.69	25382.52
839.87	25513.59
840.04	25210.50
840.22	25595.51
840.40	25454.20
840.57	25319.04
840.75	25331.33
840.93	25065.09
841.10	25417.34
841.28	25560.70
841.46	25310.85
841.63	25425.53
841.81	25269.89
841.98	25099.90
842.16	25312.89
842.34	25175.68
842.51	24655.50
842.69	25286.27
842.87	25159.30
843.04	25020.03
843.22	24618.63
843.40	25067.14
843.57	24813.19
843.75	24759.94
843.92	24841.86
844.10	24866.44
844.28	24895.11
844.45	24807.05
844.63	24798.85
844.81	24751.75
844.98	24809.09
845.16	24718.98
845.33	24737.41
845.51	24182.42
845.69	24532.62
845.86	24538.76
846.04	24462.99
846.21	24489.61
846.39	24413.84
846.57	24419.98
846.74	24512.14
846.92	24190.61
847.09	24098.45
847.27	24041.11
847.45	24243.85
847.62	24327.82
847.80	24262.29
847.97	24092.30
848.15	23998.10
848.32	24088.21
848.50	23897.75
848.68	23555.74
848.85	23899.80
849.03	23516.83
849.20	23641.75
849.38	23932.56
849.56	23783.06
849.73	23428.76
849.91	23656.09
850.08	23817.88
850.26	23332.51
850.43	23699.09
850.61	23664.28
850.78	23320.22
850.96	23537.30
851.14	23301.79
851.31	23348.89
851.49	23041.70
851.66	23078.56
851.84	23266.97
852.01	23289.50
852.19	23115.42
852.36	23312.03
852.54	23215.77
852.71	23371.42
852.89	23099.04
853.07	22902.43
853.24	23289.50
853.42	22843.04
853.59	22908.58
853.77	23039.65
853.94	22943.39
854.12	23109.28
854.29	22646.44
854.47	22841.00
854.64	23092.90
854.82	22873.76
854.99	22574.76
855.17	22484.65
855.34	22501.03
855.52	23062.18
855.69	22976.16
855.87	22423.21
856.04	22105.77
856.22	22623.91
856.39	22341.29
856.57	22513.32
856.74	22120.11
856.92	22404.78
857.09	22173.36
857.27	21925.55
857.44	22335.15
857.62	22339.24
857.79	22179.50
857.97	22292.14
858.14	22111.92
858.32	22023.86
858.49	22023.86
858.67	22068.91
858.84	21960.37
859.02	22042.29
859.19	21726.90
859.37	21958.32
859.54	21726.90
859.72	21796.53
859.89	21993.14
860.06	21796.53
860.24	21601.97
860.41	21653.17
860.59	21778.10
860.76	21655.22
860.94	21755.57
861.11	21595.83
861.29	21597.88
861.46	21589.69
861.64	21223.10
861.81	21599.93
861.98	21413.56
862.16	21169.85
862.33	21329.59
862.51	21419.71
862.68	21511.86
862.86	21241.53
863.03	21118.65
863.21	21153.47
863.38	21274.30
863.55	20958.91
863.73	21298.88
863.90	21173.95
864.08	20932.29
864.25	21028.54
864.43	20971.20
864.60	20932.29
864.77	20526.79
864.95	20946.62
865.12	20723.40
865.30	20623.05
865.47	20518.60
865.64	20760.26
865.82	20580.04
865.99	20733.64
866.17	20827.84
866.34	20477.64
866.51	20444.87
866.69	20543.17
866.86	20438.73
867.04	20131.53
867.21	20590.28
867.38	20166.35
867.56	20002.51
867.73	20299.47
867.91	20078.29
868.08	20113.10
868.25	19826.39
868.43	20086.48
868.60	19865.30
868.78	19760.85
868.95	20098.77
869.12	20053.71
869.30	19959.50
869.47	19900.11
869.64	19603.16
869.82	20031.18
869.99	19568.34
870.16	19957.46
870.34	19726.04
870.51	19943.12
870.69	19564.25
870.86	19773.14
871.03	19568.34
871.21	19545.81
871.38	19582.68
871.55	19255.00
871.73	19322.59
871.90	19377.88
872.07	19175.13
872.25	19336.92
872.42	19365.59
872.59	19044.06
872.77	19070.68
872.94	18912.99
873.11	19156.70
873.29	19113.69
873.46	18999.01
873.63	19023.58
873.81	18972.38
873.98	18732.77
874.15	18837.22
874.33	18599.65
874.50	18497.25
874.67	18740.96
874.85	18792.16
875.02	18673.38
875.19	18460.39
875.37	18659.04
875.54	18282.22
875.71	18366.18
875.88	18511.59
876.06	18552.55
876.23	18421.48
876.40	18337.51
876.58	18093.80
876.75	18351.85
876.92	18280.17
877.10	18046.70
877.27	18063.08
877.44	17981.17
877.61	17778.42
877.79	17891.06
877.96	17893.10
878.13	18065.13
878.31	17723.12
878.48	17659.63
878.65	17805.04
878.82	17743.60
879.00	17434.36
879.17	17438.45
879.34	17596.15
879.51	17489.65
879.69	17544.95
879.86	17526.52
880.03	17520.37
880.21	17485.56
880.38	17489.65
880.55	17422.07
880.72	17342.20
880.90	17401.59
881.07	17125.11
881.24	17139.45
881.41	17268.47
881.59	17047.29
881.76	17157.88
881.93	17084.16
882.10	17149.69
882.28	17028.86
882.45	17170.17
882.62	17014.52
882.79	17174.27
882.96	16877.31
883.14	17071.87
883.31	16875.26
883.48	16932.61
883.65	16641.79
883.83	17137.40
884.00	17067.77
884.17	16713.47
884.34	16869.12
884.51	16873.21
884.69	16912.13
884.86	16602.88
885.03	16848.64
885.20	16635.65
885.38	16623.36
885.55	16611.07
885.72	16750.34
885.89	16471.81
886.06	16600.83
886.24	16520.96
886.41	16451.33
886.58	16723.71
886.75	16527.11
886.92	16334.60
887.10	16584.45
887.27	16291.59
887.44	16486.15
887.61	16332.55
887.78	16381.70
887.95	16443.14
888.13	16240.39
888.30	16258.82
888.47	16137.99
888.64	16221.96
888.81	16109.32
888.99	16234.25
889.16	15974.16
889.33	15798.03
889.50	16025.36
889.67	16103.18
889.84	15886.09
890.01	15892.24
890.19	16025.36
890.36	15937.29
890.53	15961.87
890.70	15763.22
890.87	15910.67
891.04	15777.55
891.22	15761.17
891.39	15609.62
891.56	15763.22
891.73	15638.29
891.90	15648.53
892.07	15539.99
892.24	15550.23
892.42	15374.10
892.59	15447.83
892.76	15341.33
892.93	15421.20
893.10	15298.33
893.27	15310.61
893.44	15179.54
893.61	15320.85
893.79	15312.66
893.96	15281.94
894.13	15683.34
894.30	15195.93
894.47	15417.11
894.64	15517.46
894.81	15230.74
894.98	15359.77
895.15	15329.05
895.33	15214.36
895.50	15308.57
895.67	15361.81
895.84	15259.42
896.01	15216.41
896.18	15179.54
896.35	15271.70
896.52	14995.23
896.69	14890.78
896.86	15087.39
897.04	15107.87
897.21	15150.87
897.38	14911.26
897.55	15093.53
897.72	15240.98
897.89	15036.19
898.06	15132.44
898.23	14978.84
898.40	15138.58
898.57	15101.72
898.74	15068.95
898.91	15044.38
899.08	15118.11
899.26	15298.33
899.43	14956.32
899.60	14931.74
899.77	15105.82
899.94	14866.21
900.11	14726.94
900.28	14862.11
900.45	14839.58
900.62	14866.21
900.79	15345.43
900.96	14700.32
901.13	15060.76
901.30	15066.91
901.47	14946.08
901.64	15173.40
901.81	14952.22
901.98	14999.32
902.15	15075.10
902.32	14802.72
902.49	15025.95
902.66	15060.76
902.83	14946.08
903.01	14851.87
903.18	14921.50
903.35	15017.75
903.52	14944.03
903.69	14759.71
903.86	14911.26
904.03	14968.60
904.20	15054.62
904.37	15114.01
904.54	14970.65
904.71	15009.56
904.88	14987.04
905.05	14561.06
905.22	14933.79
905.39	14757.66
905.56	14716.70
905.73	14745.38
905.90	14710.56
906.07	14782.24
906.24	14692.13
906.41	14726.94
906.58	14872.35
906.75	14806.81
906.92	14835.49
907.09	14620.45
907.26	14845.73
907.43	14718.75
907.60	14577.44
907.77	14950.17
907.93	14739.23
908.10	14720.80
908.27	14800.67
908.44	14728.99
908.61	14575.39
908.78	14536.48
908.95	14688.03
909.12	14790.43
909.29	14700.32
909.46	14599.97
909.63	14917.40
909.80	14649.12
909.97	14804.77
910.14	14669.60
910.31	14520.10
910.48	14677.79
910.65	14780.19
910.82	14786.33
910.99	14595.87
911.16	14432.04
911.33	14673.70
911.50	14462.76
911.66	14464.80
911.83	14475.04
912.00	14401.32
912.17	14364.45
912.34	14423.84
912.51	14421.80
912.68	14331.69
912.85	14163.75
913.02	14307.11
913.19	14192.42
913.36	14167.85
913.53	14098.22
913.70	13938.48
913.86	14145.32
914.03	14075.69
914.20	14200.62
914.37	14157.61
914.54	14155.56
914.71	14069.55
914.88	14092.07
915.05	13674.29
915.22	14188.33
915.39	14075.69
915.55	13909.80
915.72	13909.80
915.89	13782.83
916.06	13821.74
916.23	13608.75
916.40	13696.82
916.57	13680.43
916.74	13573.94
916.91	13430.58
917.07	13455.15
917.24	13387.57
917.41	13422.39
917.58	13545.27
917.75	13352.76
917.92	13225.78
918.09	13279.03
918.26	13438.77
918.42	13287.22
918.59	13268.79
918.76	13430.58
918.93	13082.42
919.10	13203.25
919.27	13008.70
919.44	13150.01
919.60	13084.47
919.77	13125.43
919.94	12969.79
920.11	12898.11
920.28	13045.56
920.45	12932.92
920.61	12648.26
920.78	12803.90
920.95	12695.36
921.12	12674.88
921.29	12738.37
921.46	12576.58
921.62	12742.46
921.79	12609.34
921.96	12500.80
922.13	12441.41
922.30	12283.72
922.47	12334.92
922.63	12474.18
922.80	12369.73
922.97	12373.83
923.14	12222.28
923.31	12353.35
923.47	12265.28
923.64	12308.29
923.81	11972.43
923.98	12064.58
924.15	11769.68
924.32	12056.39
924.48	11945.80
924.65	11939.66
924.82	11929.42
924.99	11857.74
925.15	11605.84
925.32	11636.56
925.49	11489.10
925.66	11534.16
925.83	11405.14
925.99	11491.15
926.16	11554.64
926.33	11235.16
926.50	11321.17
926.67	11577.17
926.83	11337.56
927.00	11081.56
927.17	11181.91
927.34	11220.82
927.50	11052.89
927.67	11247.44
927.84	10983.26
928.01	11202.39
928.17	10923.87
928.34	11065.18
928.51	10843.99
928.68	10800.99
928.84	10796.89
929.01	10846.04
929.18	10710.88
929.35	10592.09
929.51	10559.33
929.68	10504.03
929.85	10508.13
930.02	10577.76
930.18	10526.56
930.35	10245.99
930.52	10372.96
930.69	10385.25
930.85	10307.43
931.02	10309.47
931.19	10526.56
931.36	10096.49
931.52	10252.13
931.69	10151.78
931.86	10030.95
932.02	9887.59
932.19	9879.40
932.36	9897.83
932.53	9842.54
932.69	9777.00
932.86	9803.63
933.03	9721.71
933.19	9570.16
933.36	9623.41
933.53	9736.04
933.70	9607.02
933.86	9473.90
934.03	9502.58
934.20	9330.55
934.36	9338.74
934.53	9144.18
934.70	9144.18
934.86	9205.62
935.03	9109.36
935.20	9068.41
935.36	8843.13
935.53	8931.19
935.70	8744.83
935.86	8796.03
936.03	8497.02
936.20	8501.12
936.36	8507.26
936.53	8402.82
936.70	8275.84
936.86	8578.94
937.03	8402.82
937.20	8177.54
937.36	8286.08
937.53	7894.92
937.70	7808.90
937.86	7669.64
938.03	7982.98
938.20	7890.82
938.36	7540.62
938.53	7536.52
938.70	7227.28
938.86	7499.66
939.03	7362.45
939.20	7237.52
939.36	7303.06
939.53	7071.64
939.70	7262.10
939.86	6883.22
940.03	6852.50
940.19	6811.54
940.36	6741.91
940.53	6645.66
940.69	6518.68
940.86	6444.96
941.03	6371.23
941.19	6174.63
941.36	6324.13
941.52	6264.74
941.69	6072.23
941.86	6066.08
942.02	6000.55
942.19	6188.96
942.35	6076.32
942.52	5969.83
942.69	5937.06
942.85	5820.33
943.02	5717.93
943.18	5869.48
943.35	5631.91
943.52	5748.65
943.68	5707.69
943.85	5773.22
944.01	5554.09
944.18	5582.76
944.35	5691.31
944.51	5554.09
944.68	5320.62
944.84	5558.19
945.01	5226.42
945.17	5459.88
945.34	5388.21
945.51	5513.13
945.67	5480.36
945.84	5351.34
946.00	5312.43
946.17	5347.25
946.33	5316.53
946.50	5359.53
946.67	5316.53
946.83	5218.22
947.00	5554.09
947.16	5427.12
947.33	5218.22
947.49	5259.18
947.66	5369.77
947.82	5181.36
947.99	5304.24
948.16	5388.21
948.32	5250.99
948.49	5300.14
948.65	5431.21
948.82	5312.43
948.98	5269.42
949.15	5263.28
949.31	5230.51
949.48	5326.77
949.64	5306.29
949.81	5203.89
949.97	5328.81
950.14	5357.49
950.30	5214.13
950.47	5271.47
950.63	5353.39
950.80	5216.18
950.96	5316.53
951.13	5312.43
951.30	5300.14
951.46	5359.53
951.63	5435.31
951.79	5298.10
951.96	5455.79
952.12	5322.67
952.29	5214.13
952.45	5304.24
952.62	5373.87
952.78	5361.58
952.94	5349.29
953.11	5410.73
953.27	5277.62
953.44	5506.99
953.60	5580.71
953.77	5574.57
953.93	5459.88
954.10	5296.05
954.26	5408.69
954.43	5375.92
954.59	5525.42
954.76	5754.79
954.92	5355.44
955.09	5488.56
955.25	5337.01
955.42	5504.94
955.58	5533.61
955.75	5480.36
955.91	5511.08
956.07	5441.45
956.24	5406.64
956.40	5543.85
956.57	5558.19
956.73	5476.27
956.90	5463.98
957.06	5486.51
957.23	5431.21
957.39	5478.32
957.56	5459.88
957.72	5423.02
957.88	5398.45
958.05	5607.34
958.21	5545.90
958.38	5468.08
958.54	5386.16
958.71	5543.85
958.87	5566.38
959.03	5492.65
959.20	5486.51
959.36	5375.92
959.53	5545.90
959.69	5429.17
959.85	5572.52
960.02	5388.21
960.18	5517.23
960.35	5392.30
960.51	5509.04
960.68	5445.55
960.84	5425.07
961.00	5527.47
961.17	5302.19
961.33	5345.20
961.50	5566.38
961.66	5545.90
961.82	5541.80
961.99	5494.70
962.15	5441.45
962.31	5451.69
962.48	5406.64
962.64	5439.40
962.81	5468.08
962.97	5349.29
963.13	5386.16
963.30	5517.23
963.46	5322.67
963.62	5402.54
963.79	5433.26
963.95	5388.21
964.12	5392.30
964.28	5490.60
964.44	5423.02
964.61	5482.41
964.77	5406.64
964.93	5513.13
965.10	5463.98
965.26	5398.45
965.42	5316.53
965.59	5265.33
965.75	5382.06
965.92	5437.36
966.08	5271.47
966.24	5351.34
966.41	5306.29
966.57	5341.10
966.73	5300.14
966.90	5459.88
967.06	5334.96
967.22	5281.71
967.39	5304.24
967.55	5347.25
967.71	5253.04
967.88	5271.47
968.04	5255.09
968.20	5279.66
968.37	5222.32
968.53	5382.06
968.69	5222.32
968.85	5296.05
969.02	5255.09
969.18	5306.29
969.34	5132.21
969.51	5224.37
969.67	5281.71
969.83	5056.43
970.00	5232.56
970.16	5148.59
970.32	5066.67
970.48	5234.61
970.65	4966.32
970.81	5144.50
970.97	5105.59
971.14	4974.52
971.30	5146.55
971.46	5085.11
971.63	5011.38
971.79	5038.00
971.95	5019.57
972.11	5005.24
972.28	5011.38
972.44	5033.91
972.60	4929.46
972.76	5046.20
972.93	4915.12
973.09	4982.71
973.25	4937.65
973.42	4937.65
973.58	4964.28
973.74	4990.90
973.90	5033.91
974.07	4818.87
974.23	4831.16
974.39	4894.65
974.55	4874.17
974.72	4814.77
974.88	4806.58
975.04	4960.18
975.20	4888.50
975.37	4913.08
975.53	4753.34
975.69	4759.48
975.85	4808.63
976.01	4810.68
976.18	4792.25
976.34	4802.49
976.50	5005.24
976.66	4845.49
976.83	4835.25
976.99	4734.90
977.15	4706.23
977.31	4564.92
977.47	4794.29
977.64	4634.55
977.80	4720.57
977.96	4620.22
978.12	4569.02
978.29	4642.75
978.45	4589.50
978.61	4579.26
978.77	4620.22
978.93	4474.81
979.10	4542.39
979.26	4491.20
979.42	4616.12
979.58	4519.87
979.74	4569.02
979.91	4566.97
980.07	4421.56
980.23	4538.30
980.39	4468.67
980.55	4356.03
980.71	4532.15
980.88	4431.80
981.04	4343.74
981.20	4485.05
981.36	4425.66
981.52	4386.75
981.68	4253.63
981.85	4474.81
982.01	4376.51
982.17	4392.89
982.33	4421.56
982.49	4382.65
982.65	4374.46
982.82	4380.61
982.98	4419.52
983.14	4259.78
983.30	4349.89
983.46	4386.75
983.62	4265.92
983.79	4220.86
983.95	4165.57
984.11	4091.84
984.27	4313.02
984.43	4270.01
984.59	4341.69
984.75	4231.10
984.91	4124.61
985.08	4272.06
985.24	4263.87
985.40	4016.07
985.56	4212.67
985.72	4304.83
985.88	4231.10
986.04	4161.47
986.20	4063.17
986.37	4122.56
986.53	4145.09
986.69	4218.82
986.85	4188.10
987.01	4136.90
987.17	4116.42
987.33	4026.31
987.49	4071.36
987.65	4040.64
987.82	4016.07
987.98	3829.70
988.14	3895.24
988.30	3958.72
988.46	3954.63
988.62	3940.29
988.78	4028.35
988.94	3893.19
989.10	3966.92
989.26	3979.20
989.42	3895.24
989.59	3749.83
989.75	3915.72
989.91	3936.20
990.07	3737.54
990.23	3860.42
990.39	3891.14
990.55	3860.42
990.71	3727.30
990.87	3956.68
991.03	3872.71
991.19	3858.37
991.35	3819.46
991.51	3764.17
991.67	3739.59
991.83	3784.65
992.00	3751.88
992.16	3764.17
992.32	3680.20
992.48	3809.22
992.64	3663.82
992.80	3729.35
992.96	3645.38
993.12	3688.39
993.28	3735.50
993.44	3727.30
993.60	3760.07
993.76	3747.78
993.92	3657.67
994.08	3723.21
994.24	3657.67
994.40	3719.11
994.56	3696.58
994.72	3547.08
994.88	3585.99
995.04	3602.38
995.20	3549.13
995.36	3653.58
995.52	3641.29
995.68	3581.90
995.84	3598.28
996.00	3631.05
996.16	3510.22
996.32	3649.48
996.48	3446.73
996.64	3471.31
996.80	3428.30
996.96	3499.98
997.12	3479.50
997.28	3434.44
997.44	3467.21
997.60	3444.68
997.76	3497.93
997.92	3381.20
998.08	3436.49
998.24	3364.81
998.40	3528.65
998.56	3405.77
998.72	3356.62
998.88	3321.81
999.04	3248.08
999.20	3373.00
999.36	3243.98
999.52	3416.01
999.68	3291.09
999.84	3403.72
1000.00	3373.00
1000.16	3420.11
1000.32	3166.16
1000.48	3403.72
1000.64	3217.36
1000.80	3235.79
1000.95	3112.91
1001.11	3282.89
1001.27	3112.91
1001.43	3260.37
1001.59	3131.34
1001.75	3209.17
1001.91	3207.12
1002.07	3141.58
1002.23	3053.52
1002.39	3164.11
1002.55	3133.39
1002.71	3043.28
1002.87	3067.86
1003.03	3082.19
1003.19	3104.72
1003.34	3256.27
1003.50	3098.58
1003.66	3198.93
1003.82	3088.34
1003.98	3069.91
1004.14	3133.39
1004.30	2994.13
1004.46	2944.98
1004.62	3057.62
1004.78	3008.47
1004.94	3139.54
1005.09	3004.37
1005.25	3067.86
1005.41	3047.38
1005.57	3098.58
1005.73	2996.18
1005.89	3000.27
1006.05	3051.47
1006.21	3039.19
1006.37	3006.42
1006.52	2957.27
1006.68	2854.87
1006.84	3008.47
1007.00	2918.36
1007.16	2975.70
1007.32	2987.99
1007.48	2930.64
1007.64	2926.55
1007.79	2940.88
1007.95	2787.29
1008.11	2924.50
1008.27	2940.88
1008.43	2832.34
1008.59	2875.35
1008.75	2934.74
1008.91	2871.25
1009.06	2844.63
1009.22	2838.48
1009.38	2906.07
1009.54	2877.40
1009.70	2752.47
1009.86	2813.91
1010.01	2758.61
1010.17	2803.67
1010.33	2865.11
1010.49	2785.24
1010.65	2779.09
1010.81	2805.72
1010.96	2795.48
1011.12	2641.88
1011.28	2648.02
1011.44	2828.24
1011.60	2697.17
1011.76	2629.59
1011.91	2750.42
1012.07	2625.50
1012.23	2625.50
1012.39	2643.93
1012.55	2639.83
1012.71	2688.98
1012.86	2650.07
1013.02	2666.46
1013.18	2619.35
1013.34	2734.04
1013.50	2609.11
1013.65	2686.94
1013.81	2559.96
1013.97	2725.85
1014.13	2650.07
1014.29	2469.85
1014.44	2648.02
1014.60	2578.39
1014.76	2568.15
1014.92	2613.21
1015.07	2553.82
1015.23	2623.45
1015.39	2588.63
1015.55	2627.54
1015.71	2545.63
1015.86	2502.62
1016.02	2465.75
1016.18	2566.10
1016.34	2551.77
1016.49	2514.91
1016.65	2473.95
1016.81	2559.96
1016.97	2467.80
1017.12	2621.40
1017.28	2428.89
1017.44	2359.26
1017.60	2533.34
1017.75	2430.94
1017.91	2455.51
1018.07	2486.23
1018.23	2408.41
1018.38	2402.27
1018.54	2359.26
1018.70	2351.07
1018.86	2330.59
1019.01	2334.68
1019.17	2471.90
1019.33	2519.00
1019.49	2435.03
1019.64	2510.81
1019.80	2432.99
1019.96	2414.56
1020.12	2422.75
1020.27	2283.49
1020.43	2344.92
1020.59	2418.65
1020.74	2445.27
1020.90	2482.14
1021.06	2336.73
1021.22	2353.12
1021.37	2349.02
1021.53	2312.16
1021.69	2369.50
1021.84	2232.29
1022.00	2336.73
1022.16	2271.20
1022.31	2377.69
1022.47	2400.22
1022.63	2375.64
1022.79	2174.94
1022.94	2306.01
1023.10	2365.40
1023.26	2217.95
1023.41	2312.16
1023.57	2240.48
1023.73	2306.01
1023.88	2306.01
1024.04	2228.19
1024.20	2230.24
1024.35	2334.68
1024.51	2254.81
1024.67	2265.05
1024.82	2248.67
1024.98	2191.33
1025.14	2297.82
1025.29	2207.71
1025.45	2248.67
1025.61	2236.38
1025.76	2166.75
1025.92	2150.37
1026.08	2267.10
1026.23	2203.61
1026.39	2199.52
1026.55	2082.78
1026.70	2090.98
1026.86	2252.77
1027.02	2164.70
1027.17	2109.41
1027.33	2211.81
1027.48	2043.87
1027.64	2195.42
1027.80	2123.74
1027.95	2097.12
1028.11	2000.87
1028.27	2168.80
1028.42	2181.09
1028.58	2140.13
1028.73	2154.46
1028.89	2099.17
1029.05	2172.89
1029.20	2211.81
>>>>>End Processed Spectral Data<<<<<
