SpectraSuite Data File
++++++++++++++++++++++++++++++++++++
Date: Fri Jun 02 14:44:35 CEST 2017
User: INFO_000
Dark Spectrum Present: No
Reference Spectrum Present: No
Number of Sampled Component Spectra: 1
Spectrometers: USB4H00879
Integration Time (usec): 80000 (USB4H00879)
Spectra Averaged: 1 (USB4H00879)
Boxcar Smoothing: 0 (USB4H00879)
Correct for Electrical Dark: No (USB4H00879)
Strobe/Lamp Enabled: No (USB4H00879)
Correct for Detector Non-linearity: No (USB4H00879)
Correct for Stray Light: No (USB4H00879)
Number of Pixels in Processed Spectrum: 3648
>>>>>Begin Processed Spectral Data<<<<<
345.13	1304.56
345.34	1304.56
345.56	1304.56
345.78	1239.02
345.99	1294.32
346.21	1757.16
346.42	1693.67
346.64	1558.50
346.86	1781.73
347.07	1648.61
347.29	1701.86
347.50	1648.61
347.72	1728.49
347.94	1677.29
348.15	1576.94
348.37	1609.70
348.59	1742.82
348.80	1665.00
349.02	1783.78
349.23	1859.56
349.45	1875.94
349.67	1927.14
349.88	1832.93
350.10	1894.37
350.31	1763.30
350.53	1875.94
350.75	1918.95
350.96	1755.11
351.18	1957.86
351.39	1841.12
351.61	1822.69
351.82	1908.71
352.04	1900.52
352.26	1832.93
352.47	1873.89
352.69	1931.23
352.90	1757.16
353.12	1832.93
353.34	1834.98
353.55	1892.32
353.77	1837.03
353.98	1814.50
354.20	1839.08
354.41	1832.93
354.63	1931.23
354.85	1974.24
355.06	1951.71
355.28	1789.92
355.49	1806.31
355.71	1976.29
355.92	1863.65
356.14	1933.28
356.35	1925.09
356.57	1904.61
356.79	1972.19
357.00	1896.42
357.22	1900.52
357.43	1855.46
357.65	1998.82
357.86	1869.80
358.08	1931.23
358.29	1906.66
358.51	1931.23
358.72	1931.23
358.94	1904.61
359.16	1886.18
359.37	1935.33
359.59	1943.52
359.80	1992.67
360.02	1927.14
360.23	1906.66
360.45	2072.54
360.66	1937.38
360.88	1859.56
361.09	1949.67
361.31	1929.19
361.52	1972.19
361.74	2043.87
361.95	2029.54
362.17	1980.39
362.38	2054.11
362.60	1978.34
362.81	2017.25
363.03	1976.29
363.24	1982.43
363.46	2041.82
363.67	1945.57
363.89	2041.82
364.10	1976.29
364.32	1959.91
364.53	2099.17
364.75	1931.23
364.96	2068.45
365.18	2017.25
365.39	2023.39
365.61	1957.86
365.82	2133.98
366.04	2064.35
366.25	1986.53
366.47	2078.69
366.68	1986.53
366.90	2056.16
367.11	2033.63
367.33	2136.03
367.54	2080.74
367.76	1982.43
367.97	2045.92
368.19	2029.54
368.40	2074.59
368.62	1949.67
368.83	1957.86
369.05	2088.93
369.26	2011.11
369.48	2117.60
369.69	1886.18
369.91	2066.40
370.12	2025.44
370.33	2080.74
370.55	1966.05
370.76	2080.74
370.98	2125.79
371.19	1986.53
371.41	1988.58
371.62	2080.74
371.84	1961.95
372.05	2193.37
372.27	2050.02
372.48	2095.07
372.69	2131.94
372.91	2144.22
373.12	2162.66
373.34	2088.93
373.55	2148.32
373.77	2154.46
373.98	1992.67
374.20	2097.12
374.41	2207.71
374.62	2115.55
374.84	2140.13
375.05	2148.32
375.27	2203.61
375.48	2187.23
375.70	2158.56
375.91	2265.05
376.12	2207.71
376.34	2185.18
376.55	2205.66
376.77	2209.76
376.98	2140.13
377.19	2156.51
377.41	2213.85
377.62	2215.90
377.84	2246.62
378.05	2279.39
378.27	2162.66
378.48	2260.96
378.69	2392.03
378.91	2283.49
379.12	2224.09
379.34	2234.33
379.55	2312.16
379.76	2193.37
379.98	2191.33
380.19	2256.86
380.41	2244.57
380.62	2220.00
380.83	2287.58
381.05	2215.90
381.26	2383.84
381.47	2267.10
381.69	2308.06
381.90	2367.45
382.12	2312.16
382.33	2230.24
382.54	2279.39
382.76	2320.35
382.97	2299.87
383.19	2238.43
383.40	2424.80
383.61	2220.00
383.83	2271.20
384.04	2379.74
384.25	2306.01
384.47	2443.23
384.68	2340.83
384.89	2269.15
385.11	2314.20
385.32	2361.31
385.54	2379.74
385.75	2334.68
385.96	2369.50
386.18	2385.88
386.39	2402.27
386.60	2355.16
386.82	2410.46
387.03	2412.51
387.24	2449.37
387.46	2414.56
387.67	2451.42
387.88	2469.85
388.10	2387.93
388.31	2451.42
388.52	2482.14
388.74	2506.71
388.95	2562.01
389.16	2490.33
389.38	2480.09
389.59	2559.96
389.80	2627.54
390.02	2639.83
390.23	2568.15
390.44	2580.44
390.66	2537.43
390.87	2623.45
391.08	2617.30
391.30	2658.26
391.51	2666.46
391.72	2711.51
391.94	2658.26
392.15	2541.53
392.36	2666.46
392.58	2650.07
392.79	2736.09
393.00	2656.22
393.22	2756.57
393.43	2721.75
393.64	2734.04
393.85	2791.38
394.07	2715.61
394.28	2715.61
394.49	2803.67
394.71	2803.67
394.92	2754.52
395.13	2801.62
395.35	2760.66
395.56	2699.22
395.77	2811.86
395.98	2797.53
396.20	2838.48
396.41	2848.72
396.62	2942.93
396.84	2756.57
397.05	2797.53
397.26	2820.05
397.47	2912.21
397.69	2797.53
397.90	2992.08
398.11	2928.60
398.32	2869.20
398.54	2934.74
398.75	2830.29
398.96	2766.81
399.18	2990.03
399.39	2975.70
399.60	3022.80
399.81	2840.53
400.03	2852.82
400.24	3297.23
400.45	2992.08
400.66	3123.15
400.88	3014.61
401.09	3131.34
401.30	3063.76
401.51	3135.44
401.73	3133.39
401.94	3104.72
402.15	3157.97
402.36	3186.64
402.58	3250.13
402.79	3170.26
403.00	3215.31
403.21	3192.78
403.43	3219.41
403.64	3209.17
403.85	3125.20
404.06	3305.42
404.27	3076.05
404.49	3297.23
404.70	3141.58
404.91	3399.63
405.12	3248.08
405.34	3254.22
405.55	3416.01
405.76	3147.73
405.97	3266.51
406.19	3368.91
406.40	3196.88
406.61	3266.51
406.82	3327.95
407.03	3256.27
407.25	3336.14
407.46	3399.63
407.67	3461.07
407.88	3426.25
408.09	3348.43
408.31	3452.88
408.52	3368.91
408.73	3450.83
408.94	3403.72
409.15	3436.49
409.37	3459.02
409.58	3379.15
409.79	3467.21
410.00	3454.92
410.21	3444.68
410.43	3512.27
410.64	3436.49
410.85	3657.67
411.06	3485.64
411.27	3573.71
411.48	3647.43
411.70	3477.45
411.91	3618.76
412.12	3688.39
412.33	3545.03
412.54	3631.05
412.76	3725.26
412.97	3755.97
413.18	3526.60
413.39	3712.97
413.60	3647.43
413.81	3674.06
414.03	3819.46
414.24	3762.12
414.45	3839.94
414.66	3567.56
414.87	3755.97
415.08	3715.02
415.30	3645.38
415.51	3827.65
415.72	3690.44
415.93	3764.17
416.14	3762.12
416.35	3866.56
416.56	3928.00
416.78	3934.15
416.99	3950.53
417.20	3827.65
417.41	3876.80
417.62	3946.44
417.83	3786.69
418.04	3874.76
418.26	3997.64
418.47	3905.48
418.68	3975.11
418.89	3940.29
419.10	4126.66
419.31	3960.77
419.52	3987.40
419.73	3977.16
419.95	4124.61
420.16	3971.01
420.37	3962.82
420.58	4190.14
420.79	3952.58
421.00	4122.56
421.21	4128.70
421.42	4009.92
421.63	4083.65
421.85	4036.55
422.06	4245.44
422.27	4224.96
422.48	4167.62
422.69	4337.60
422.90	4216.77
423.11	4128.70
423.32	4437.95
423.53	4378.56
423.75	4237.25
423.96	4501.44
424.17	4292.54
424.38	4419.52
424.59	4493.24
424.80	4513.72
425.01	4399.04
425.22	4530.11
425.43	4419.52
425.64	4650.94
425.85	4556.73
426.06	4605.88
426.28	4622.27
426.49	4468.67
426.70	4583.35
426.91	4562.87
427.12	4769.72
427.33	4622.27
427.54	4534.20
427.75	4734.90
427.96	4853.69
428.17	4734.90
428.38	4876.21
428.59	4906.93
428.80	4687.80
429.01	4931.51
429.23	4820.92
429.44	4945.84
429.65	5019.57
429.86	4960.18
430.07	4849.59
430.28	4788.15
430.49	4972.47
430.70	5087.15
430.91	5173.17
431.12	4911.03
431.33	5126.07
431.54	5089.20
431.75	5048.24
431.96	5279.66
432.17	5193.65
432.38	5361.58
432.59	5343.15
432.80	5273.52
433.01	5308.34
433.22	5371.82
433.43	5386.16
433.64	5384.11
433.85	5382.06
434.06	5453.74
434.27	5373.87
434.49	5502.89
434.70	5568.43
434.91	5453.74
435.12	5730.22
435.33	5650.35
435.54	5631.91
435.75	5414.83
435.96	5568.43
436.17	5506.99
436.38	5740.46
436.59	5816.23
436.80	5636.01
437.01	5889.96
437.22	5826.47
437.43	5795.75
437.64	5648.30
437.85	5795.75
438.06	5902.25
438.27	5646.25
438.48	5822.38
438.69	5808.04
438.90	5912.49
439.11	5685.16
439.32	5951.40
439.53	5896.10
439.74	5932.97
439.95	5906.34
440.16	6012.84
440.37	5818.28
440.57	5994.40
440.78	6053.80
440.99	5947.30
441.20	5975.97
441.41	5945.25
441.62	6055.84
441.83	5928.87
442.04	6098.85
442.25	6219.68
442.46	6051.75
442.67	6047.65
442.88	6610.84
443.09	6207.39
443.30	6236.06
443.51	6299.55
443.72	6494.11
443.93	6293.41
444.14	6696.86
444.35	6209.44
444.56	6412.19
444.77	6303.65
444.98	6459.29
445.19	6418.33
445.40	6393.76
445.61	6438.81
445.81	6434.72
446.02	6549.40
446.23	6487.96
446.44	6393.76
446.65	6522.78
446.86	6477.73
447.07	6588.32
447.28	6754.20
447.49	6832.02
447.70	6641.56
447.91	6819.74
448.12	6717.34
448.33	6883.22
448.54	6760.34
448.74	6733.72
448.95	6784.92
449.16	6694.81
449.37	7036.82
449.58	6752.15
449.79	7145.36
450.00	6803.35
450.21	6784.92
450.42	7194.51
450.63	6801.30
450.84	7014.29
451.05	6956.95
451.25	6868.89
451.46	6909.85
451.67	7163.79
451.88	7202.71
452.09	7128.98
452.30	7104.40
452.51	7171.99
452.72	7202.71
452.93	7544.72
453.13	7151.51
453.34	7075.73
453.55	7241.62
453.76	7352.21
453.97	7602.06
454.18	7335.82
454.39	7688.07
454.60	7559.05
454.81	7380.88
455.01	7729.03
455.22	7171.99
455.43	7563.15
455.64	7720.84
455.85	8005.51
456.06	7989.13
456.27	7864.20
456.48	7726.99
456.68	7905.16
456.89	7769.99
457.10	7921.54
457.31	7890.82
457.52	7858.06
457.73	8048.52
457.94	8253.31
458.14	7933.83
458.35	8351.62
458.56	8368.00
458.77	7995.27
458.98	8408.96
459.19	8339.33
459.39	8357.76
459.60	8619.90
459.81	8417.15
460.02	8421.25
460.23	8464.25
460.44	8656.76
460.65	8601.47
460.85	8669.05
461.06	8859.51
461.27	8630.14
461.48	9002.87
461.69	8998.77
461.89	8673.15
462.10	9084.79
462.31	8742.78
462.52	8867.70
462.73	8836.99
462.94	9017.21
463.14	9111.41
463.35	9095.03
463.56	9465.71
463.77	9576.30
463.98	9398.13
464.18	9412.46
464.39	9695.08
464.60	9709.42
464.81	9828.20
465.02	9713.52
465.23	9783.15
465.43	9846.63
465.64	9959.27
465.85	9856.87
466.06	9844.59
466.27	10059.62
466.47	9936.74
466.68	10243.94
466.89	10309.47
467.10	10467.17
467.30	10059.62
467.51	10372.96
467.72	10596.19
467.93	10444.64
468.14	10405.73
468.34	10856.28
468.55	10633.05
468.76	10796.89
468.97	10614.62
469.17	10999.64
469.38	10952.54
469.59	11175.77
469.80	11093.85
470.01	11026.26
470.21	11253.59
470.42	11067.22
470.63	11331.41
470.84	11276.12
471.04	11528.02
471.25	11413.33
471.46	11401.04
471.67	11974.47
471.87	11747.15
472.08	11773.77
472.29	11853.64
472.50	11452.24
472.70	11755.34
472.91	12025.67
473.12	12105.54
473.33	12373.83
473.53	12279.62
473.74	12179.27
473.95	12341.06
474.16	12541.76
474.36	12656.45
474.57	12691.26
474.78	12820.28
474.99	12930.87
475.19	12767.04
475.40	12904.25
475.61	13143.86
475.81	13274.93
476.02	13459.25
476.23	13250.36
476.44	13420.34
476.64	13428.53
476.85	13918.00
477.06	13719.34
477.27	13823.79
477.47	13831.98
477.68	13961.00
477.89	14098.22
478.09	14110.50
478.30	14231.33
478.51	14409.51
478.71	14364.45
478.92	14475.04
479.13	14436.13
479.34	14645.02
479.54	14835.49
479.75	14769.95
479.96	14688.03
480.16	14731.04
480.37	15036.19
480.58	15019.80
480.78	15435.54
480.99	15345.43
481.20	15437.59
481.41	15390.49
481.61	15632.15
481.82	15830.80
482.03	15648.53
482.23	15808.27
482.44	15806.22
482.65	15914.77
482.85	15925.00
483.06	16213.77
483.27	16273.16
483.47	16099.08
483.68	16178.95
483.89	16326.41
484.09	16234.25
484.30	16641.79
484.51	16916.22
484.71	16809.73
484.92	16633.60
485.13	17143.55
485.33	17182.46
485.54	17123.07
485.75	17104.64
485.95	17315.58
486.16	17417.97
486.37	17540.85
486.57	17329.91
486.78	17667.83
486.98	17407.73
487.19	17972.97
487.40	18079.47
487.60	17817.33
487.81	18231.02
488.02	17809.14
488.22	18028.27
488.43	18288.36
488.64	18351.85
488.84	18372.33
489.05	18464.49
489.25	18319.08
489.46	18714.34
489.67	18570.98
489.87	18949.85
490.08	19130.08
490.29	18937.57
490.49	19338.97
490.70	19275.48
490.90	19664.60
491.11	19384.02
491.32	19832.53
491.52	19644.12
491.73	19601.11
491.94	19779.28
492.14	19853.01
492.35	20029.13
492.55	20006.61
492.76	20309.71
492.97	20537.03
493.17	20217.55
493.38	20342.47
493.58	20702.92
493.79	20721.35
494.00	20657.86
494.20	20590.28
494.41	21094.08
494.61	20881.09
494.82	20975.30
495.02	21343.93
495.23	21194.43
495.44	21354.17
495.64	21681.85
495.85	21243.58
496.05	21733.04
496.26	21595.83
496.47	22275.76
496.67	21604.02
496.88	22183.60
497.08	21843.63
497.29	22179.50
497.49	22374.06
497.70	22539.94
497.91	22492.84
498.11	22236.84
498.32	22646.44
498.52	22711.97
498.73	23025.31
498.93	23156.38
499.14	23072.42
499.34	23369.37
499.55	22980.26
499.76	22951.59
499.96	23180.96
500.17	23203.49
500.37	23729.81
500.58	23557.78
500.78	23584.41
500.99	23770.77
501.19	23842.45
501.40	23740.05
501.60	23963.28
501.81	23746.20
502.02	24252.05
502.22	24135.31
502.43	24399.50
502.63	24661.64
502.84	24630.92
503.04	24536.71
503.25	24385.16
503.45	24450.70
503.66	24950.40
503.86	24864.39
504.07	25142.91
504.27	24952.45
504.48	25347.71
504.68	25124.48
504.89	25589.37
505.09	25364.09
505.30	25550.46
505.50	25550.46
505.71	25450.11
505.91	25609.85
506.12	25599.61
506.32	25636.47
506.53	25982.58
506.73	25474.68
506.94	25994.87
507.14	26263.15
507.35	26123.89
507.55	26236.53
507.76	26476.14
507.96	26087.03
508.17	26170.99
508.37	26136.18
508.58	26406.51
508.78	26660.46
508.99	26809.96
509.19	26551.91
509.40	26816.10
509.60	26709.61
509.81	26650.22
510.01	26746.47
510.22	26820.20
510.42	26826.34
510.63	26713.70
510.83	27063.91
511.04	27037.28
511.24	27283.04
511.44	26953.32
511.65	27524.70
511.85	27291.23
512.06	27760.22
512.26	27348.57
512.47	27467.36
512.67	27457.12
512.88	27874.90
513.08	27147.87
513.29	27967.06
513.49	27582.04
513.69	27784.79
513.90	27932.25
514.10	27876.95
514.31	28091.99
514.51	27965.01
514.72	27788.89
514.92	27805.27
515.13	27932.25
515.33	28081.75
515.53	28182.10
515.74	28294.74
515.94	28206.67
516.15	28526.16
516.35	28280.40
516.56	28315.22
516.76	28141.14
516.96	28253.78
517.17	28415.57
517.37	28829.26
517.58	28499.53
517.78	28636.75
517.99	28802.63
518.19	28864.07
518.39	28671.56
518.60	29032.00
518.80	28825.16
519.01	29036.10
519.21	28804.68
519.41	29013.57
519.62	28896.84
519.82	29099.59
520.03	29230.66
520.23	29394.50
520.43	29101.64
520.64	29664.83
520.84	29777.47
521.05	29462.08
521.25	29664.83
521.45	29697.59
521.66	29783.61
521.86	29556.28
522.07	29517.37
522.27	29916.73
522.47	29558.33
522.68	29761.08
522.88	29822.52
523.08	30223.92
523.29	30219.83
523.49	30049.85
523.70	30262.83
523.90	30637.61
524.10	30496.30
524.31	30574.13
524.51	30195.25
524.71	30625.32
524.92	30664.24
525.12	30699.05
525.33	30697.00
525.53	30989.86
525.73	31176.23
525.94	31165.99
526.14	30879.27
526.34	30998.06
526.55	30987.82
526.75	31364.64
526.95	31479.33
527.16	30850.60
527.36	31448.61
527.56	31372.83
527.77	31690.27
527.97	31931.93
528.17	31456.80
528.38	31839.77
528.58	31837.72
528.78	31946.26
528.99	32187.92
529.19	31958.55
529.39	32226.84
529.60	32378.39
529.80	32114.20
530.00	32548.37
530.21	32583.18
530.41	33052.17
530.61	32861.71
530.82	32951.82
531.02	32818.70
531.22	33056.26
531.43	32818.70
531.63	33148.42
531.83	33512.96
532.04	33861.12
532.24	33265.16
532.44	34080.25
532.64	33744.38
532.85	33920.51
533.05	33734.14
533.25	34010.62
533.46	33902.07
533.66	34532.85
533.86	33822.20
534.07	34534.90
534.27	34442.74
534.47	34833.90
534.67	34692.59
534.88	34569.71
535.08	34702.83
535.28	34979.31
535.49	35190.25
535.69	35495.39
535.89	35108.33
536.09	35558.88
536.30	35366.37
536.50	35775.97
536.70	36027.87
536.91	35497.44
537.11	36060.63
537.31	35976.67
537.51	35937.76
537.72	36269.53
537.92	36756.94
538.12	36380.12
538.32	36853.20
538.53	36722.13
538.73	36077.02
538.93	37291.46
539.13	37000.65
539.34	36963.79
539.54	37084.62
539.74	37518.79
539.94	37240.26
540.15	37117.39
540.35	37555.65
540.55	37352.90
540.75	37203.40
540.96	37569.99
541.16	37688.77
541.36	37567.94
541.56	37920.19
541.77	38262.20
541.97	37998.01
542.17	38403.51
542.37	38282.68
542.58	37828.03
542.78	38639.03
542.98	38673.84
543.18	38866.35
543.38	38929.84
543.59	39609.76
543.79	38632.88
543.99	38626.74
544.19	39224.75
544.40	39413.16
544.60	39665.06
544.80	39447.97
545.00	39288.23
545.20	39828.90
545.41	39724.45
545.61	39789.98
545.81	40013.21
546.01	40121.76
546.21	39910.82
546.42	40035.74
546.62	40621.46
546.82	40021.41
547.02	40009.12
547.22	40474.01
547.43	40455.57
547.63	40445.33
547.83	40539.54
548.03	40121.76
548.23	41039.25
548.44	40787.35
548.64	40924.56
548.84	40893.84
549.04	40897.94
549.24	41528.71
549.45	41479.56
549.65	41229.71
549.85	40867.22
550.05	41104.78
550.25	41196.94
550.45	41837.95
550.66	41608.58
550.86	41454.98
551.06	41999.74
551.26	41973.12
551.46	41657.73
551.66	41842.05
551.87	41708.93
552.07	42167.68
552.27	42171.77
552.47	41739.65
552.67	42046.85
552.87	41878.91
553.07	42444.15
553.28	42120.57
553.48	42108.29
553.68	42507.64
553.88	42671.48
554.08	42546.55
554.28	42415.48
554.48	42419.58
554.69	42562.93
554.89	42710.39
555.09	42610.04
555.29	42374.52
555.49	42810.74
555.69	42923.38
555.89	43056.50
556.10	43052.40
556.30	42704.24
556.50	42739.06
556.70	43029.87
556.90	42972.53
557.10	43015.54
557.30	42974.58
557.50	43396.46
557.70	42964.34
557.91	43550.06
558.11	43339.11
558.31	43218.28
558.51	43171.18
558.71	43443.56
558.91	43560.30
559.11	43566.44
559.31	42923.38
559.51	43449.70
559.72	43300.20
559.92	43875.68
560.12	43234.67
560.32	43656.55
560.52	43238.76
560.72	43836.77
560.92	43840.87
561.12	43664.74
561.32	43830.63
561.52	43187.56
561.72	44103.01
561.93	43869.54
562.13	43959.65
562.33	43455.85
562.53	44367.20
562.73	43601.25
562.93	43603.30
563.13	43623.78
563.33	43541.86
563.53	43988.32
563.73	43804.00
563.93	44070.24
564.13	44461.40
564.33	43808.10
564.53	43914.59
564.74	44131.68
564.94	44119.39
565.14	44303.71
565.34	43951.46
565.54	44146.01
565.74	44297.56
565.94	44350.81
566.14	43869.54
566.34	44221.79
566.54	44741.97
566.74	44338.52
566.94	44594.52
567.14	44252.51
567.34	44307.80
567.54	44168.54
567.74	44164.45
567.94	44146.01
568.14	44039.52
568.34	44737.88
568.54	44225.89
568.74	44496.22
568.94	44332.38
569.14	44555.61
569.34	44365.15
569.54	44365.15
569.75	44246.36
569.95	44692.82
570.15	44871.00
570.35	44643.67
570.55	44528.98
570.75	44713.30
570.95	44610.90
571.15	44617.05
571.35	44586.33
571.55	44817.75
571.75	44799.32
571.95	45157.71
572.15	44805.46
572.35	45063.50
572.55	44586.33
572.75	44881.24
572.95	45155.66
573.15	45223.25
573.35	45276.49
573.55	45184.33
573.75	44993.87
573.95	45462.86
574.15	45094.22
574.35	44922.19
574.55	44989.78
574.75	44871.00
574.95	45135.18
575.15	45057.36
575.34	45024.59
575.54	45237.58
575.74	45600.07
575.94	45804.87
576.14	45540.68
576.34	45442.38
576.54	46126.40
576.74	45552.97
576.94	45401.42
577.14	45806.92
577.34	45954.37
577.54	45516.11
577.74	45921.60
577.94	45921.60
578.14	45980.99
578.34	46253.37
578.54	45516.11
578.74	46234.94
578.94	46224.70
579.14	45602.12
579.34	46116.16
579.54	46560.57
579.74	46558.52
579.94	46437.69
580.13	46945.59
580.33	46376.25
580.53	46394.68
580.73	46736.69
580.93	46579.00
581.13	46675.26
581.33	46869.81
581.53	47256.88
581.73	47011.12
581.93	47285.55
582.13	47293.74
582.33	47488.30
582.53	47052.08
582.73	47248.69
582.92	47146.29
583.12	47197.49
583.32	47256.88
583.52	47316.27
583.72	47641.90
583.92	47365.42
584.12	47527.21
584.32	47727.91
584.52	47744.30
584.72	47951.14
584.92	48016.68
585.11	48258.34
585.31	47830.31
585.51	48031.01
585.71	48074.02
585.91	48342.30
586.11	48084.26
586.31	47826.21
586.51	48452.89
586.71	48735.51
586.91	48633.11
587.10	48698.65
587.30	48545.05
587.50	48790.81
587.70	48899.35
587.90	48399.65
588.10	48819.48
588.30	48768.28
588.50	49239.31
588.69	48801.05
588.89	48960.79
589.09	49218.83
589.29	49114.39
589.49	49790.22
589.69	49181.97
589.89	49870.09
590.08	49554.70
590.28	49691.91
590.48	49865.99
590.68	49665.29
590.88	49569.04
591.08	49831.18
591.28	49634.57
591.47	50009.35
591.67	49988.87
591.87	50277.63
592.07	50486.53
592.27	50402.56
592.47	50064.64
592.67	49952.01
592.86	50160.90
593.06	50334.98
593.26	50765.05
593.46	50713.85
593.66	50672.89
593.86	50978.04
594.05	50750.71
594.25	51019.00
594.45	50695.42
594.65	50973.94
594.85	50507.01
595.05	51062.00
595.24	51248.37
595.44	51031.29
595.64	51442.93
595.84	51053.81
596.04	51510.51
596.23	51942.63
596.43	51821.80
596.63	51254.51
596.83	51985.64
597.03	51631.34
597.22	52129.00
597.42	51789.03
597.62	52172.00
597.82	52053.22
598.02	51735.79
598.21	52589.79
598.41	52135.14
598.61	52483.30
598.81	52288.74
599.01	52774.11
599.20	52206.82
599.40	52161.76
599.60	52573.41
599.80	52665.56
600.00	52839.64
600.19	52800.73
600.39	52514.01
600.59	53081.30
600.79	52925.66
600.98	52675.80
601.18	53372.11
601.38	53404.88
601.58	53216.47
601.78	53550.29
601.97	53400.79
602.17	53707.98
602.37	53621.97
602.57	53646.54
602.76	53695.69
602.96	53451.98
603.16	54140.10
603.36	53920.97
603.55	54187.21
603.75	53726.41
603.95	54140.10
604.15	54152.39
604.34	54246.60
604.54	54357.19
604.74	54480.06
604.94	54361.28
605.13	54695.10
605.33	54549.70
605.53	54308.04
605.73	54588.61
605.92	54752.44
606.12	54611.13
606.32	54768.83
606.52	54617.28
606.71	54869.18
606.91	55133.37
607.11	54672.57
607.30	55186.61
607.50	54664.38
607.70	55243.96
607.90	54811.84
608.09	54740.16
608.29	55133.37
608.49	55006.39
608.68	55078.07
608.88	55215.29
609.08	55559.34
609.28	55426.23
609.47	55211.19
609.67	55712.94
609.87	55360.69
610.06	55749.81
610.26	55440.56
610.46	55585.97
610.66	55442.61
610.85	55375.03
611.05	55334.07
611.25	55678.13
611.44	55647.41
611.64	55637.17
611.84	55620.78
612.03	55116.98
612.23	55583.92
612.43	55268.53
612.62	55686.32
612.82	55870.64
613.02	55471.28
613.21	55446.71
613.41	55469.23
613.61	55714.99
613.80	55325.88
614.00	55575.73
614.20	55608.50
614.39	55346.36
614.59	56226.98
614.79	55764.14
614.98	55401.65
615.18	55807.15
615.38	55315.64
615.57	55884.97
615.77	55891.12
615.97	55688.37
616.16	55612.59
616.36	55721.13
616.56	55649.45
616.75	55805.10
616.95	55499.95
617.15	55616.69
617.34	55309.49
617.54	55381.17
617.74	55479.47
617.93	55674.03
618.13	55176.37
618.32	55196.85
618.52	55395.51
618.72	55444.66
618.91	55655.60
619.11	55119.03
619.31	55700.65
619.50	54947.00
619.70	55164.09
619.90	55454.90
620.09	54559.94
620.29	55073.98
620.48	54983.86
620.68	55727.28
620.88	54678.72
621.07	54723.77
621.27	55422.13
621.46	54748.35
621.66	54990.01
621.86	54924.47
622.05	54910.14
622.25	54891.71
622.44	55022.78
622.64	54797.50
622.84	55207.09
623.03	55078.07
623.23	54752.44
623.42	54621.37
623.62	55016.63
623.82	55303.35
624.01	54916.28
624.21	55010.49
624.40	54584.51
624.60	54623.42
624.80	54566.08
624.99	54826.17
625.19	54426.82
625.38	54664.38
625.58	54977.72
625.77	54590.66
625.97	54877.37
626.17	54369.47
626.36	54232.26
626.56	54568.13
626.75	54203.59
626.95	54402.24
627.14	54564.03
627.34	54795.45
627.54	54535.36
627.73	53968.07
627.93	54693.05
628.12	54314.18
628.32	54465.73
628.51	54244.55
628.71	54361.28
628.90	54668.48
629.10	54473.92
629.30	54396.10
629.49	54084.81
629.69	54088.90
629.88	54707.39
630.08	54602.94
630.27	54758.59
630.47	54432.96
630.66	54518.98
630.86	54662.33
631.05	54179.01
631.25	54848.70
631.44	54277.32
631.64	54348.99
631.84	54213.83
632.03	54934.71
632.23	54572.22
632.42	53953.74
632.62	54301.89
632.81	53910.73
633.01	54250.69
633.20	54252.74
633.40	54152.39
633.59	54156.49
633.79	53957.83
633.98	54394.05
634.18	54336.71
634.37	54037.70
634.57	54107.33
634.76	54222.02
634.96	54564.03
635.15	54351.04
635.35	53759.18
635.54	54150.34
635.74	54383.81
635.93	54156.49
636.13	54254.79
636.32	54414.53
636.52	54449.35
636.71	54000.84
636.91	54439.11
637.10	54441.15
637.30	54387.91
637.49	54213.83
637.69	53978.31
637.88	54498.50
638.08	53933.26
638.27	54965.43
638.46	54416.58
638.66	54326.47
638.85	54381.76
639.05	54432.96
639.24	54465.73
639.44	53945.54
639.63	54383.81
639.83	54566.08
640.02	54547.65
640.22	54650.05
640.41	54860.99
640.61	54424.77
640.80	54523.07
640.99	54506.69
641.19	55323.83
641.38	54447.30
641.58	54715.58
641.77	54531.26
641.97	54701.25
642.16	54645.95
642.36	54893.75
642.55	54648.00
642.74	54738.11
642.94	55035.06
643.13	54330.56
643.33	54994.10
643.52	54752.44
643.72	55129.27
643.91	54465.73
644.10	55092.41
644.30	55305.40
644.49	55219.38
644.69	55411.89
644.88	55217.33
645.08	54727.87
645.27	54674.62
645.46	54930.62
645.66	55293.11
645.85	54805.69
646.05	55172.28
646.24	55293.11
646.43	55278.77
646.63	55643.31
646.82	55526.58
647.02	55491.76
647.21	55481.52
647.40	55461.04
647.60	55499.95
647.79	55555.25
647.99	55866.54
648.18	55366.84
648.37	56116.39
648.57	56038.57
648.76	55538.86
648.96	55909.55
649.15	55907.50
649.34	55739.57
649.54	56325.28
649.73	55448.75
649.92	56276.13
650.12	56171.69
650.31	56100.01
650.51	55882.92
650.70	56241.32
650.89	56161.45
651.09	56607.90
651.28	56276.13
651.47	56548.51
651.67	56456.35
651.86	56603.81
652.06	55891.12
652.25	56396.96
652.44	56542.37
652.64	56431.78
652.83	56505.51
653.02	56300.71
653.22	56444.07
653.41	56550.56
653.60	56390.82
653.80	56419.49
653.99	56749.21
654.18	56251.56
654.38	56317.09
654.57	56714.40
654.76	56521.89
654.96	56669.34
655.15	56507.55
655.34	56693.92
655.54	56339.62
655.73	57037.98
655.92	56988.83
656.12	56753.31
656.31	56749.21
656.50	57238.68
656.70	56835.23
656.89	56986.78
657.08	57283.73
657.28	57300.12
657.47	57181.34
657.66	57384.08
657.86	57001.11
658.05	56876.19
658.24	57207.96
658.43	57054.36
658.63	57511.06
658.82	57195.67
659.01	57332.89
659.21	57869.45
659.40	57207.96
659.59	57384.08
659.79	57771.15
659.98	57326.74
660.17	57638.03
660.36	57246.87
660.56	57572.50
660.75	57590.93
660.94	57851.02
661.14	57738.38
661.33	57410.71
661.52	57412.76
661.71	57875.60
661.91	57531.54
662.10	57746.57
662.29	57619.60
662.49	57998.48
662.68	58217.61
662.87	58287.24
663.06	58033.29
663.26	57750.67
663.45	58057.87
663.64	57754.77
663.83	58371.21
664.03	58127.50
664.22	57824.40
664.41	58170.50
664.60	57592.98
664.80	57642.13
664.99	57656.46
665.18	57881.74
665.37	58299.53
665.57	57787.53
665.76	57627.79
665.95	58262.66
666.14	57789.58
666.34	58311.81
666.53	58414.21
666.72	58047.63
666.91	58061.96
667.11	57939.08
667.30	57902.22
667.49	58029.19
667.68	58209.42
667.87	58111.11
668.07	58158.22
668.26	58127.50
668.45	58166.41
668.64	58098.83
668.84	58496.13
669.03	57791.63
669.22	58094.73
669.41	58205.32
669.60	58264.71
669.80	58260.62
669.99	58451.08
670.18	58121.35
670.37	58266.76
670.57	58518.66
670.76	58152.07
670.95	58711.17
671.14	58193.03
671.33	58213.51
671.53	58518.66
671.72	58145.93
671.91	58508.42
672.10	58043.53
672.29	58049.67
672.48	57963.66
672.68	58379.40
672.87	58109.07
673.06	57894.03
673.25	58256.52
673.44	57734.29
673.64	57767.05
673.83	57951.37
674.02	58111.11
674.21	57812.11
674.40	58227.85
674.59	57660.56
674.79	58086.54
674.98	58076.30
675.17	58066.06
675.36	58260.62
675.55	58240.14
675.74	58074.25
675.94	58051.72
676.13	58561.67
676.32	58178.70
676.51	57971.85
676.70	57848.97
676.89	57824.40
677.08	58416.26
677.28	57928.84
677.47	58293.38
677.66	58272.90
677.85	58045.58
678.04	58352.77
678.23	58446.98
678.42	58176.65
678.62	57867.40
678.81	57914.51
679.00	57750.67
679.19	58397.83
679.38	57746.57
679.57	57922.70
679.76	57775.25
679.96	58033.29
680.15	57674.90
680.34	57611.41
680.53	57097.37
680.72	57975.95
680.91	57635.98
681.10	57578.64
681.29	57674.90
681.48	57341.08
681.68	57578.64
681.87	57463.96
682.06	57511.06
682.25	57095.32
682.44	57154.71
682.63	57281.69
682.82	57136.28
683.01	57183.38
683.20	56943.77
683.39	57451.67
683.59	56857.76
683.78	56988.83
683.97	57193.62
684.16	56681.63
684.35	56771.74
684.54	56872.09
684.73	56796.32
684.92	56882.33
685.11	56706.21
685.30	56669.34
685.49	56853.66
685.69	56644.77
685.88	56896.67
686.07	56933.53
686.26	56104.10
686.45	56710.30
686.64	56882.33
686.83	56587.42
687.02	56429.73
687.21	56435.87
687.40	56630.43
687.59	56630.43
687.78	56497.31
687.97	56941.72
688.16	56255.65
688.35	56276.13
688.54	56009.90
688.74	56272.04
688.93	55563.44
689.12	56417.44
689.31	56202.41
689.50	56192.17
689.69	55784.62
689.88	55448.75
690.07	56206.50
690.26	56116.39
690.45	56525.99
690.64	56106.15
690.83	55309.49
691.02	55458.99
691.21	55788.72
691.40	55563.44
691.59	55520.43
691.78	55344.31
691.97	55690.41
692.16	55303.35
692.35	55940.27
692.54	55282.87
692.73	55653.55
692.92	55221.43
693.11	55377.08
693.30	55147.70
693.49	55035.06
693.68	55106.74
693.87	55084.22
694.06	54686.91
694.25	54838.46
694.44	54660.29
694.63	55286.96
694.82	55006.39
695.01	54965.43
695.20	54869.18
695.39	54744.25
695.58	54643.90
695.77	54432.96
695.96	54416.58
696.15	54834.36
696.34	54367.43
696.53	54547.65
696.72	54379.71
696.91	54275.27
697.10	54355.14
697.29	54228.16
697.48	54574.27
697.67	53908.68
697.86	53912.78
698.05	54107.33
698.24	54330.56
698.43	53755.08
698.62	54475.97
698.81	53707.98
699.00	54426.82
699.19	53347.54
699.38	54023.37
699.57	53746.89
699.76	54047.94
699.95	53736.65
700.14	53257.43
700.32	53361.87
700.51	53492.94
700.70	53490.90
700.89	53640.40
701.08	53990.60
701.27	53249.24
701.46	53996.74
701.65	52770.01
701.84	53486.80
702.03	53554.38
702.22	52905.18
702.41	52892.89
702.60	53230.80
702.79	53206.23
702.98	52567.26
703.17	52937.94
703.35	52798.68
703.54	52477.15
703.73	53318.87
703.92	53136.60
704.11	53157.08
704.30	52937.94
704.49	52417.76
704.68	52354.27
704.87	52810.97
705.06	52595.93
705.25	52686.04
705.43	52540.64
705.62	52821.21
705.81	53036.25
706.00	52630.75
706.19	52102.37
706.38	52065.51
706.57	52298.98
706.76	52098.28
706.95	52409.57
707.14	52370.66
707.32	51907.82
707.51	52192.48
707.70	51983.59
707.89	51639.53
708.08	52049.13
708.27	52206.82
708.46	52313.31
708.65	51748.07
708.84	52182.24
709.02	52032.74
709.21	51811.56
709.40	52010.21
709.59	51942.63
709.78	51653.87
709.97	51873.00
710.16	51440.88
710.34	51655.92
710.53	51903.72
710.72	51686.64
710.91	51793.13
711.10	52223.20
711.29	51678.44
711.48	52227.30
711.66	51643.63
711.85	50771.19
712.04	51176.69
712.23	51537.13
712.42	51238.13
712.61	51789.03
712.80	51082.48
712.98	51631.34
713.17	50902.26
713.36	51422.45
713.55	51094.77
713.74	51174.64
713.93	50898.17
714.11	50986.23
714.30	51225.84
714.49	50937.08
714.68	51035.38
714.87	50953.46
715.06	51455.21
715.24	51197.17
715.43	50769.15
715.62	50707.71
715.81	50769.15
716.00	50926.84
716.18	50425.09
716.37	50492.67
716.56	50402.56
716.75	51225.84
716.94	50562.30
717.12	50377.98
717.31	50828.54
717.50	50758.91
717.69	50480.38
717.88	50369.79
718.06	50248.96
718.25	50926.84
718.44	50240.77
718.63	50482.43
718.82	50177.28
719.00	50230.53
719.19	50371.84
719.38	50193.67
719.57	49874.18
719.76	49763.59
719.94	49308.94
720.13	49984.77
720.32	49605.90
720.51	50038.02
720.69	49890.57
720.88	49765.64
721.07	49683.72
721.26	49542.41
721.44	49382.67
721.63	49493.26
721.82	49603.85
722.01	49112.34
722.20	49509.64
722.38	49136.91
722.57	49100.05
722.76	49186.07
722.95	49446.16
723.13	48530.72
723.32	49098.00
723.51	48739.61
723.70	49179.92
723.88	49040.66
724.07	48866.58
724.26	49026.32
724.44	48239.90
724.63	48966.93
724.82	48805.14
725.01	48770.33
725.19	48708.89
725.38	48573.72
725.57	48272.67
725.76	48905.49
725.94	48258.34
726.13	48782.62
726.32	48385.31
726.51	48491.80
726.69	48850.20
726.88	48862.49
727.07	48444.70
727.25	48461.08
727.44	48536.86
727.63	48475.42
727.82	48762.14
728.00	48497.95
728.19	48739.61
728.38	48704.79
728.56	48276.77
728.75	48981.27
728.94	48604.44
729.12	48719.13
729.31	48489.76
729.50	48520.48
729.69	48620.83
729.87	48971.03
730.06	48463.13
730.25	48368.93
730.43	49057.04
730.62	48590.11
730.81	48514.33
730.99	48379.17
731.18	48571.67
731.37	48735.51
731.55	49034.52
731.74	49026.32
731.93	48616.73
732.11	48575.77
732.30	49061.14
732.49	48575.77
732.67	48440.60
732.86	48717.08
733.05	48837.91
733.23	48151.84
733.42	48526.62
733.61	48635.16
733.79	48616.73
733.98	48647.45
734.17	48436.51
734.35	48928.02
734.54	48799.00
734.73	48774.42
734.91	48651.55
735.10	48602.39
735.29	48790.81
735.47	48248.10
735.66	48594.20
735.84	48672.03
736.03	48131.36
736.22	48928.02
736.40	48223.52
736.59	48821.53
736.78	48596.25
736.96	48571.67
737.15	48362.78
737.33	48344.35
737.52	48205.09
737.71	48442.65
737.89	48549.15
738.08	48059.68
738.27	48442.65
738.45	48678.17
738.64	48432.41
738.82	48209.18
739.01	48198.94
739.20	48076.07
739.38	48469.28
739.57	48481.56
739.75	48411.93
739.94	48026.92
740.13	48518.43
740.31	48174.37
740.50	48164.13
740.68	48258.34
740.87	48387.36
741.06	48467.23
741.24	48325.92
741.43	48018.72
741.61	48258.34
741.80	47793.45
741.99	48147.75
742.17	48014.63
742.36	48626.97
742.54	47664.42
742.73	48102.69
742.91	48182.56
743.10	48024.87
743.29	48209.18
743.47	48403.74
743.66	48000.29
743.84	48176.42
744.03	47969.57
744.21	48272.67
744.40	48241.95
744.59	48078.11
744.77	47492.40
744.96	47863.08
745.14	47633.71
745.33	47985.96
745.51	47672.62
745.70	47482.16
745.88	47469.87
746.07	47547.69
746.26	47514.92
746.44	47809.83
746.63	47504.68
746.81	47324.46
747.00	47467.82
747.18	47314.22
747.37	47131.95
747.55	47580.46
747.74	48129.31
747.92	47013.17
748.11	47002.93
748.29	47240.50
748.48	47734.06
748.66	46996.79
748.85	47109.43
749.03	47394.09
749.22	47457.58
749.41	46810.42
749.59	47643.94
749.78	47121.71
749.96	46552.38
750.15	47271.21
750.33	47156.53
750.52	47455.53
750.70	47445.29
750.89	46939.44
751.07	46970.16
751.26	47111.47
751.44	46607.67
751.63	47037.75
751.81	46761.27
752.00	46626.10
752.18	46660.92
752.37	46443.84
752.55	46200.13
752.74	45995.33
752.92	46744.89
753.10	46284.09
753.29	46599.48
753.47	46599.48
753.66	46320.96
753.84	46904.63
754.03	46499.13
754.21	45950.27
754.40	46517.56
754.58	46486.84
754.77	46785.85
754.95	46337.34
755.14	46175.55
755.32	46155.07
755.51	45948.23
755.69	46228.80
755.88	46110.02
756.06	46273.85
756.24	45897.03
756.43	45907.27
756.61	45718.85
756.80	45718.85
756.98	45577.54
757.17	45708.61
757.35	45876.55
757.54	45595.98
757.72	45622.60
757.90	45632.84
758.09	45301.07
758.27	45397.32
758.46	45456.71
758.64	45307.21
758.83	45548.87
759.01	45538.63
759.19	45030.74
759.38	45124.94
759.56	45487.43
759.75	45149.52
759.93	44787.03
760.12	44817.75
760.30	45552.97
760.48	45499.72
760.67	45280.59
760.85	44799.32
761.04	45493.58
761.22	45186.38
761.40	44602.71
761.59	45067.60
761.77	44567.90
761.96	44627.29
762.14	44455.26
762.32	44789.08
762.51	44465.50
762.69	44465.50
762.88	44402.01
763.06	44727.64
763.24	44508.50
763.43	44905.81
763.61	44670.29
763.80	44397.91
763.98	44528.98
764.16	44342.62
764.35	43795.81
764.53	43779.43
764.72	43937.12
764.90	43861.35
765.08	43877.73
765.27	44250.46
765.45	43799.91
765.63	43300.20
765.82	43990.37
766.00	43132.27
766.18	43619.69
766.37	43918.69
766.55	43273.58
766.74	43081.07
766.92	42851.70
767.10	43332.97
767.29	43095.41
767.47	42677.62
767.65	43101.55
767.84	42749.30
768.02	43234.67
768.20	42968.43
768.39	42782.07
768.57	42911.09
768.75	42687.86
768.94	42956.14
769.12	42816.88
769.30	42663.28
769.49	42794.36
769.67	42317.18
769.85	42433.91
770.04	42188.16
770.22	42157.44
770.40	42382.71
770.59	41956.74
770.77	42546.55
770.95	42470.78
771.14	42089.85
771.32	41768.32
771.50	41780.61
771.69	42337.66
771.87	41833.86
772.05	41796.99
772.24	41518.47
772.42	41870.72
772.60	41541.00
772.78	41538.95
772.97	41123.21
773.15	41706.88
773.33	41405.83
773.52	41293.19
773.70	41313.67
773.88	41426.31
774.07	41502.09
774.25	41123.21
774.43	41483.66
774.61	41530.76
774.80	41426.31
774.98	41414.02
775.16	41541.00
775.34	41659.78
775.53	41033.10
775.71	41581.96
775.89	41149.84
776.08	41538.95
776.26	41291.15
776.44	41059.73
776.62	40965.52
776.81	41289.10
776.99	41397.64
777.17	41223.56
777.35	41686.40
777.54	41934.21
777.72	41287.05
777.90	41039.25
778.08	41514.37
778.27	41045.39
778.45	41608.58
778.63	41737.60
778.81	40959.38
779.00	41870.72
779.18	41764.23
779.36	41762.18
779.54	41608.58
779.73	41395.59
779.91	41725.32
780.09	41811.33
780.27	41432.46
780.46	41745.80
780.64	42079.61
780.82	41608.58
781.00	41686.40
781.19	42136.96
781.37	41878.91
781.55	41844.10
781.73	42046.85
781.91	41680.26
782.10	41459.08
782.28	41825.67
782.46	41774.47
782.64	42282.36
782.82	41739.65
783.01	41688.45
783.19	41424.26
783.37	41753.99
783.55	41809.28
783.74	41774.47
783.92	41571.72
784.10	41956.74
784.28	41715.08
784.46	41610.63
784.64	41627.01
784.83	41813.38
785.01	41790.85
785.19	41176.46
785.37	41756.03
785.55	41387.40
785.74	41047.44
785.92	41244.04
786.10	41627.01
786.28	41794.95
786.46	41065.87
786.64	40836.50
786.83	41285.00
787.01	41371.02
787.19	41573.77
787.37	41043.34
787.55	41080.21
787.74	41366.92
787.92	41235.85
788.10	40742.29
788.28	40799.63
788.46	40785.30
788.64	40631.70
788.82	41047.44
789.01	40828.30
789.19	41131.40
789.37	40727.95
789.55	40570.26
789.73	40299.93
789.91	40107.42
790.09	40256.92
790.28	40254.87
790.46	40136.09
790.64	40015.26
790.82	40187.29
791.00	40082.84
791.18	39667.11
791.36	39615.91
791.55	39687.59
791.73	39624.10
791.91	39691.68
792.09	39413.16
792.27	39978.40
792.45	39527.84
792.63	39298.47
792.81	39540.13
793.00	39409.06
793.18	38927.79
793.36	39183.79
793.54	38581.68
793.72	38571.44
793.90	38811.06
794.08	38294.97
794.26	38735.28
794.44	38075.84
794.62	38174.14
794.81	38538.68
794.99	38225.34
795.17	37832.13
795.35	38032.83
795.53	38151.61
795.71	38323.64
795.89	37674.43
796.07	37582.27
796.25	37449.16
796.43	37799.36
796.61	37180.87
796.80	37332.42
796.98	37387.72
797.16	36867.53
797.34	36969.93
797.52	37389.77
797.70	37352.90
797.88	37215.69
798.06	36799.95
798.24	36785.61
798.42	36482.52
798.60	36865.49
798.78	36525.52
798.96	36140.50
799.14	36115.93
799.32	36640.21
799.51	35997.15
799.69	36435.41
799.87	36281.81
800.05	35948.00
800.23	36107.74
800.41	35812.83
800.59	36306.39
800.77	35573.22
800.95	35612.13
801.13	35042.79
801.31	35306.98
801.49	35417.57
801.67	35169.77
801.85	35292.65
802.03	35120.62
802.21	34928.11
802.39	35071.46
802.57	35007.98
802.75	34493.94
802.93	35128.81
803.11	34670.06
803.29	34676.21
803.47	34319.86
803.65	34221.56
803.83	34121.21
804.01	34088.44
804.19	33977.85
804.37	33529.34
804.55	34168.31
804.73	34115.06
804.91	34262.52
805.09	33840.64
805.27	33572.35
805.45	33889.79
805.63	33807.87
805.81	33646.08
805.99	33758.72
806.17	33457.67
806.35	33594.88
806.53	33334.79
806.71	33213.96
806.89	33621.50
807.07	33494.53
807.25	33297.92
807.43	32847.37
807.61	33072.65
807.79	32550.42
807.97	32546.32
808.15	32828.94
808.33	32929.29
808.51	32554.51
808.69	32370.19
808.87	32390.67
809.05	32511.50
809.23	32552.46
809.41	32204.31
809.59	32380.43
809.77	32220.69
809.95	31913.50
810.13	32224.79
810.31	31829.53
810.49	32034.33
810.67	32036.38
810.84	31856.15
811.02	31645.21
811.20	31516.19
811.38	31706.65
811.56	31487.52
811.74	31505.95
811.92	31639.07
812.10	31548.96
812.28	31671.84
812.46	31147.56
812.64	31235.62
812.82	31378.98
813.00	31211.04
813.18	31364.64
813.36	31415.84
813.53	30875.18
813.71	30750.25
813.89	30697.00
814.07	31036.97
814.25	30815.79
814.43	30375.47
814.61	30731.82
814.79	30311.99
814.97	30225.97
815.15	30957.10
815.33	30338.61
815.50	30074.42
815.68	30332.47
815.86	30631.47
816.04	30432.82
816.22	30244.40
816.40	30488.11
816.58	30332.47
816.76	29654.59
816.94	29963.83
817.11	29994.55
817.29	29873.72
817.47	30039.61
817.65	29947.45
817.83	29943.35
818.01	29572.67
818.19	29668.92
818.37	29752.89
818.54	29230.66
818.72	29595.20
818.90	29515.33
819.08	29666.88
819.26	29468.22
819.44	29597.24
819.62	29161.03
819.80	29568.57
819.97	29544.00
820.15	29331.01
820.33	29193.79
820.51	29316.67
820.69	29064.77
820.87	29070.92
821.05	29662.78
821.22	29015.62
821.40	28829.26
821.58	28829.26
821.76	29052.48
821.94	28882.50
822.12	28986.95
822.29	28675.66
822.47	28716.62
822.65	28862.02
822.83	28876.36
823.01	28849.74
823.19	28528.20
823.36	28360.27
823.54	28497.49
823.72	28526.16
823.90	28575.31
824.08	28190.29
824.25	28311.12
824.43	28401.23
824.61	28100.18
824.79	28515.92
824.97	27924.05
825.15	28188.24
825.32	28210.77
825.50	27948.63
825.68	27807.32
825.86	28333.65
826.04	28223.06
826.21	28233.30
826.39	28106.32
826.57	27752.02
826.75	27862.61
826.93	27666.01
827.10	27491.93
827.28	27934.29
827.46	27952.73
827.64	27543.13
827.81	27629.15
827.99	27766.36
828.17	27467.36
828.35	27319.90
828.53	27553.37
828.70	27635.29
828.88	27422.30
829.06	27229.79
829.24	27688.54
829.41	27610.71
829.59	27567.71
829.77	27297.38
829.95	27055.72
830.12	27340.38
830.30	27319.90
830.48	27186.79
830.66	27240.03
830.84	27321.95
831.01	27227.74
831.19	27270.75
831.37	26848.87
831.55	27031.14
831.72	27012.71
831.90	27201.12
832.08	26932.84
832.25	27244.13
832.43	26914.41
832.61	27098.72
832.79	26654.31
832.96	26943.08
833.14	26582.63
833.32	26967.65
833.50	26758.76
833.67	26740.33
833.85	26789.48
834.03	26375.79
834.20	26777.19
834.38	26799.72
834.56	26531.44
834.74	26596.97
834.91	26529.39
835.09	26326.64
835.27	26214.00
835.44	26216.05
835.62	26027.63
835.80	26359.41
835.98	26504.81
836.15	26326.64
836.33	26199.66
836.51	26424.94
836.68	25716.34
836.86	25947.76
837.04	26488.43
837.21	26015.35
837.39	26140.27
837.57	25820.79
837.75	25794.17
837.92	25855.61
838.10	25972.34
838.28	25773.69
838.45	25828.98
838.63	25738.87
838.81	25988.72
838.98	25790.07
839.16	25392.76
839.34	25806.45
839.51	25648.76
839.69	25615.99
839.87	25579.13
840.04	25839.22
840.22	25779.83
840.40	25704.06
840.57	25136.77
840.75	25476.73
840.93	25192.06
841.10	25390.72
841.28	25552.51
841.46	25220.74
841.63	25257.60
841.81	25265.79
841.98	25427.58
842.16	25153.15
842.34	25034.37
842.51	24813.19
842.69	25224.83
842.87	25233.02
843.04	25587.32
843.22	24964.74
843.40	24827.53
843.57	25204.35
843.75	25233.02
843.92	25128.58
844.10	24972.93
844.28	24899.20
844.45	24835.72
844.63	24968.84
844.81	24741.51
844.98	24692.36
845.16	25011.84
845.33	24989.31
845.51	25134.72
845.69	24757.89
845.86	24536.71
846.04	24753.80
846.21	24731.27
846.39	24522.38
846.57	24417.93
846.74	24659.59
846.92	24727.17
847.09	24626.82
847.27	24516.23
847.45	24465.03
847.62	24485.51
847.80	24139.41
847.97	24168.08
848.15	24245.90
848.32	24090.26
848.50	24198.80
848.68	24143.50
848.85	23885.46
849.03	24012.43
849.20	24401.55
849.38	24473.23
849.56	24497.80
849.73	23991.95
849.91	23924.37
850.08	24045.20
850.26	23576.22
850.43	23905.94
850.61	23905.94
850.78	23525.02
850.96	23826.07
851.14	23555.74
851.31	23936.66
851.49	23529.11
851.66	23817.88
851.84	23938.71
852.01	24151.70
852.19	23680.66
852.36	23721.62
852.54	23436.95
852.71	23346.84
852.89	23707.29
853.07	23625.37
853.24	23543.45
853.42	23377.56
853.59	23142.05
853.77	23219.87
853.94	23482.01
854.12	23525.02
854.29	23017.12
854.47	23152.29
854.64	23258.78
854.82	23326.36
854.99	23361.18
855.17	23105.18
855.34	23213.73
855.52	23164.57
855.69	23119.52
855.87	22820.52
856.04	23107.23
856.22	23111.33
856.39	22820.52
856.57	23086.75
856.74	22711.97
856.92	23008.93
857.09	22771.36
857.27	23125.66
857.44	23045.79
857.62	22924.96
857.79	22546.09
857.97	22742.69
858.14	22920.87
858.32	22511.27
858.49	22795.94
858.67	22763.17
858.84	22601.38
859.02	22900.39
859.19	22390.44
859.37	22361.77
859.54	22208.17
859.72	22611.62
859.89	22345.39
860.06	22329.00
860.24	22199.98
860.41	22177.45
860.59	21827.25
860.76	22449.83
860.94	22130.35
861.11	22212.27
861.29	22146.73
861.46	22224.56
861.64	22073.01
861.81	21929.65
861.98	22148.78
862.16	21896.88
862.33	22009.52
862.51	21698.23
862.68	21909.17
862.86	21714.61
863.03	21640.89
863.21	21780.15
863.38	21735.09
863.55	21669.56
863.73	21589.69
863.90	21599.93
864.08	21683.89
864.25	21677.75
864.43	21628.60
864.60	21436.09
864.77	21431.99
864.95	21577.40
865.12	21204.67
865.30	21460.66
865.47	21284.54
865.64	21165.76
865.82	21356.22
865.99	21554.87
866.17	21108.41
866.34	21364.41
866.51	20790.98
866.69	21290.68
866.86	21284.54
867.04	21110.46
867.21	21034.69
867.38	20973.25
867.56	21024.45
867.73	20942.53
867.91	20709.06
868.08	21036.74
868.25	20893.38
868.43	20713.16
868.60	20842.18
868.78	20711.11
868.95	20754.12
869.12	20641.48
869.30	20424.39
869.47	20770.50
869.64	20551.37
869.82	20432.58
869.99	20297.42
870.16	20608.71
870.34	20485.83
870.51	20541.13
870.69	20084.43
870.86	20297.42
871.03	20342.47
871.21	20033.23
871.38	20401.86
871.55	20090.57
871.73	19889.87
871.90	19969.74
872.07	19748.56
872.25	19707.60
872.42	19801.81
872.59	19850.96
872.77	19934.93
872.94	19932.88
873.11	19992.27
873.29	19986.13
873.46	19603.16
873.63	19347.16
873.81	19918.54
873.98	19359.45
874.15	19578.58
874.33	19392.22
874.50	19183.32
874.67	19508.95
874.85	19433.18
875.02	19394.26
875.19	19054.30
875.37	19076.83
875.54	19029.73
875.71	19113.69
875.88	19027.68
876.06	19080.92
876.23	18837.22
876.40	18927.33
876.58	18519.78
876.75	18978.53
876.92	18867.94
877.10	18863.84
877.27	18743.01
877.44	18425.57
877.61	18706.15
877.79	18261.74
877.96	18349.80
878.13	18583.27
878.31	18329.32
878.48	18147.05
878.65	18247.40
878.82	18294.50
879.00	18454.25
879.17	18161.39
879.34	18228.97
879.51	18278.12
879.69	17805.04
879.86	17929.97
880.03	18044.65
880.21	17915.63
880.38	18140.91
880.55	17952.49
880.72	17944.30
880.90	18022.12
881.07	17899.25
881.24	17977.07
881.41	18181.87
881.59	17929.97
881.76	17788.66
881.93	17749.75
882.10	17649.39
882.28	17307.38
882.45	17749.75
882.62	17690.35
882.79	17698.55
882.96	17264.38
883.14	17680.11
883.31	17440.50
883.48	17692.40
883.65	17579.76
883.83	17520.37
884.00	17323.77
884.17	17567.48
884.34	17630.96
884.51	17235.70
884.69	17456.89
884.86	17430.26
885.03	17250.04
885.20	17110.78
885.38	17479.41
885.55	17229.56
885.72	17495.80
885.89	17159.93
886.06	17053.44
886.24	17325.82
886.41	17020.67
886.58	17329.91
886.75	17151.74
886.92	16893.69
887.10	17016.57
887.27	17188.60
887.44	16764.67
887.61	17092.35
887.78	16793.34
887.95	16856.83
888.13	16824.06
888.30	16660.23
888.47	16643.84
888.64	16537.35
888.81	16647.94
888.99	16463.62
889.16	16525.06
889.33	16332.55
889.50	16371.46
889.67	16271.11
889.84	16348.93
890.01	16520.96
890.19	16240.39
890.36	16398.09
890.53	16336.65
890.70	16232.20
890.87	16406.28
891.04	16191.24
891.22	16267.02
891.39	15804.17
891.56	15941.39
891.73	16054.03
891.90	16000.78
892.07	15884.05
892.24	15898.38
892.42	15920.91
892.59	15787.79
892.76	15916.81
892.93	15849.23
893.10	15785.74
893.27	15836.94
893.44	15628.05
893.61	15568.66
893.79	16006.92
893.96	15841.04
894.13	15847.18
894.30	15816.46
894.47	15619.86
894.64	15787.79
894.81	15503.12
894.98	15666.96
895.15	15646.48
895.33	15501.08
895.50	15365.91
895.67	15634.19
895.84	15623.95
896.01	15460.12
896.18	15345.43
896.35	15496.98
896.52	15490.84
896.69	15564.56
896.86	15357.72
897.04	15421.20
897.21	15462.16
897.38	15480.60
897.55	15486.74
897.72	15546.13
897.89	15525.65
898.06	15582.99
898.23	15460.12
898.40	15378.20
898.57	15419.16
898.74	15382.29
898.91	15413.01
899.08	15482.64
899.26	15372.05
899.43	15314.71
899.60	15392.53
899.77	15488.79
899.94	15621.91
900.11	15333.14
900.28	15210.26
900.45	14966.56
900.62	15441.68
900.79	15529.75
900.96	15345.43
901.13	15253.27
901.30	15251.22
901.47	14917.40
901.64	15195.93
901.81	15181.59
901.98	15222.55
902.15	15306.52
902.32	15058.71
902.49	15128.35
902.66	15152.92
902.83	15103.77
903.01	14941.98
903.18	15392.53
903.35	15363.86
903.52	15183.64
903.69	15154.97
903.86	15220.50
904.03	15202.07
904.20	15210.26
904.37	15120.15
904.54	15179.54
904.71	15259.42
904.88	15073.05
905.05	15091.48
905.22	15144.73
905.39	14937.88
905.56	15068.95
905.73	14892.83
905.90	15142.68
906.07	15097.63
906.24	15099.67
906.41	15027.99
906.58	15044.38
906.75	14929.69
906.92	15023.90
907.09	15116.06
907.26	15165.21
907.43	14825.25
907.60	15068.95
907.77	15142.68
907.93	14939.93
908.10	15093.53
908.27	15265.56
908.44	14817.05
908.61	14894.88
908.78	14782.24
908.95	15118.11
909.12	14974.75
909.29	14876.44
909.46	14962.46
909.63	14921.50
909.80	14800.67
909.97	14808.86
910.14	14731.04
910.31	14853.92
910.48	14630.69
910.65	14804.77
910.82	14585.63
910.99	14741.28
911.16	14798.62
911.33	14708.51
911.50	14757.66
911.66	14423.84
911.83	14767.90
912.00	14526.24
912.17	14339.88
912.34	14538.53
912.51	14217.00
912.68	14352.16
912.85	14522.15
913.02	14444.32
913.19	14343.97
913.36	14427.94
913.53	14315.30
913.70	14284.58
913.86	14477.09
914.03	14264.10
914.20	14235.43
914.37	14370.60
914.54	14178.09
914.71	14276.39
914.88	14356.26
915.05	14059.31
915.22	13985.58
915.39	13930.28
915.55	14040.87
915.72	13786.93
915.89	13836.08
916.06	13899.56
916.23	13897.52
916.40	13758.25
916.57	13725.49
916.74	13778.73
916.91	13774.64
917.07	13662.00
917.24	13479.73
917.41	13584.18
917.58	13770.54
917.75	13283.13
917.92	13352.76
918.09	13358.90
918.26	13373.24
918.42	13352.76
918.59	13350.71
918.76	13172.54
918.93	13184.82
919.10	13231.93
919.27	13074.23
919.44	13227.83
919.60	13111.10
919.77	13319.99
919.94	13211.45
920.11	13047.61
920.28	13053.75
920.45	13039.42
920.61	12990.27
920.78	12986.17
920.95	12789.56
921.12	12824.38
921.29	12777.28
921.46	12687.17
921.62	12601.15
921.79	12902.20
921.96	12617.54
922.13	12586.82
922.30	12504.90
922.47	12476.23
922.63	12175.17
922.80	12547.90
922.97	12101.45
923.14	12166.98
923.31	12193.61
923.47	12322.63
923.64	12336.96
923.81	12201.80
923.98	12070.73
924.15	12132.17
924.32	12205.89
924.48	12128.07
924.65	12042.06
924.82	12068.68
924.99	11970.38
925.15	11650.89
925.32	11896.65
925.49	11599.70
925.66	11519.82
925.83	11636.56
925.99	11456.34
926.16	11648.85
926.33	11472.72
926.50	11153.24
926.67	11286.36
926.83	11366.23
927.00	11495.25
927.17	11272.02
927.34	11218.77
927.50	11372.37
927.67	11374.42
927.84	11208.53
928.01	11231.06
928.17	11036.50
928.34	10870.62
928.51	10989.40
928.68	10813.28
928.84	10897.24
929.01	10579.81
929.18	10686.30
929.35	10702.68
929.51	10864.47
929.68	10538.85
929.85	10489.70
930.02	10491.74
930.18	10499.94
930.35	10409.83
930.52	10467.17
930.69	10499.94
930.85	10479.46
931.02	10145.64
931.19	10245.99
931.36	10241.89
931.52	10194.79
931.69	10159.97
931.86	10090.34
932.02	9817.96
932.19	9949.03
932.36	9875.31
932.53	9998.18
932.69	9721.71
932.86	9858.92
933.03	9752.43
933.19	9600.88
933.36	9709.42
933.53	9652.08
933.70	9537.39
933.86	9457.52
934.03	9326.45
934.20	9312.11
934.36	9408.37
934.53	9234.29
934.70	9109.36
934.86	9174.90
935.03	8931.19
935.20	8955.77
935.36	8998.77
935.53	8826.75
935.70	8968.06
935.86	8789.88
936.03	8675.20
936.20	8431.49
936.36	8556.41
936.53	8503.17
936.70	8554.37
936.86	8509.31
937.03	8372.10
937.20	8077.19
937.36	8329.09
937.53	7933.83
937.70	7925.64
937.86	7802.76
938.03	7837.58
938.20	7665.55
938.36	7493.52
938.53	7559.05
938.70	7413.65
938.86	7466.89
939.03	7268.24
939.20	7278.48
939.36	7202.71
939.53	7167.89
939.70	7309.20
939.86	6883.22
940.03	6901.65
940.19	6690.71
940.36	6756.25
940.53	6793.11
940.69	6561.69
940.86	6680.47
941.03	6436.77
941.19	6332.32
941.36	6508.44
941.52	6383.52
941.69	6238.11
941.86	6139.81
942.02	6143.91
942.19	6082.47
942.35	6170.53
942.52	5939.11
942.69	5812.14
942.85	5869.48
943.02	5719.98
943.18	5849.00
943.35	5760.94
943.52	5748.65
943.68	5627.82
943.85	5775.27
944.01	5558.19
944.18	5611.43
944.35	5668.78
944.51	5429.17
944.68	5408.69
944.84	5361.58
945.01	5457.84
945.17	5459.88
945.34	5355.44
945.51	5435.31
945.67	5218.22
945.84	5334.96
946.00	5265.33
946.17	5326.77
946.33	5271.47
946.50	5345.20
946.67	5365.68
946.83	5361.58
947.00	5224.37
947.16	5302.19
947.33	5246.90
947.49	5322.67
947.66	5214.13
947.82	5412.78
947.99	5144.50
948.16	5308.34
948.32	5250.99
948.49	5287.86
948.65	5373.87
948.82	5480.36
948.98	5242.80
949.15	5179.31
949.31	5414.83
949.48	5287.86
949.64	5296.05
949.81	5244.85
949.97	5191.60
950.14	5255.09
950.30	5259.18
950.47	5418.93
950.63	5240.75
950.80	5373.87
950.96	5349.29
951.13	5285.81
951.30	5330.86
951.46	5332.91
951.63	5488.56
951.79	5388.21
951.96	5285.81
952.12	5339.05
952.29	5451.69
952.45	5275.57
952.62	5402.54
952.78	5420.97
952.94	5441.45
953.11	5382.06
953.27	5181.36
953.44	5529.52
953.60	5459.88
953.77	5435.31
953.93	5363.63
954.10	5400.49
954.26	5326.77
954.43	5453.74
954.59	5461.93
954.76	5476.27
954.92	5400.49
955.09	5547.95
955.25	5371.82
955.42	5466.03
955.58	5480.36
955.75	5416.88
955.91	5361.58
956.07	5416.88
956.24	5506.99
956.40	5547.95
956.57	5459.88
956.73	5474.22
956.90	5398.45
957.06	5451.69
957.23	5488.56
957.39	5472.17
957.56	5554.09
957.72	5445.55
957.88	5511.08
958.05	5492.65
958.21	5588.91
958.38	5377.97
958.54	5414.83
958.71	5670.83
958.87	5302.19
959.03	5445.55
959.20	5386.16
959.36	5496.75
959.53	5328.81
959.69	5318.57
959.85	5517.23
960.02	5574.57
960.18	5396.40
960.35	5431.21
960.51	5572.52
960.68	5423.02
960.84	5509.04
961.00	5384.11
961.17	5492.65
961.33	5466.03
961.50	5562.28
961.66	5474.22
961.82	5363.63
961.99	5494.70
962.15	5521.32
962.31	5343.15
962.48	5416.88
962.64	5568.43
962.81	5382.06
962.97	5506.99
963.13	5492.65
963.30	5466.03
963.46	5423.02
963.62	5386.16
963.79	5529.52
963.95	5459.88
964.12	5382.06
964.28	5582.76
964.44	5289.90
964.61	5343.15
964.77	5439.40
964.93	5506.99
965.10	5246.90
965.26	5181.36
965.42	5353.39
965.59	5263.28
965.75	5279.66
965.92	5332.91
966.08	5400.49
966.24	5273.52
966.41	5332.91
966.57	5298.10
966.73	5265.33
966.90	5390.25
967.06	5294.00
967.22	5230.51
967.39	5353.39
967.55	5289.90
967.71	5277.62
967.88	5232.56
968.04	5189.55
968.20	5181.36
968.37	5134.26
968.53	5242.80
968.69	5169.07
968.85	5312.43
969.02	5375.92
969.18	5220.27
969.34	5152.69
969.51	5316.53
969.67	5205.94
969.83	5146.55
970.00	5238.70
970.16	5230.51
970.32	5222.32
970.48	5234.61
970.65	5048.24
970.81	5005.24
970.97	5009.33
971.14	5040.05
971.30	5144.50
971.46	5033.91
971.63	5105.59
971.79	5175.22
971.95	5023.67
972.11	5126.07
972.28	5015.48
972.44	5091.25
972.60	4847.54
972.76	5035.96
972.93	4818.87
973.09	5009.33
973.25	5029.81
973.42	4835.25
973.58	5158.83
973.74	4925.36
973.90	5027.76
974.07	4964.28
974.23	4904.89
974.39	4849.59
974.55	4964.28
974.72	4829.11
974.88	4720.57
975.04	4861.88
975.20	4831.16
975.37	4960.18
975.53	4917.17
975.69	4884.41
975.85	4847.54
976.01	4808.63
976.18	4861.88
976.34	4865.97
976.50	4874.17
976.66	4937.65
976.83	4810.68
976.99	4650.94
977.15	4792.25
977.31	4632.51
977.47	4849.59
977.64	4825.01
977.80	4777.91
977.96	4753.34
978.12	4587.45
978.29	4640.70
978.45	4681.66
978.61	4661.18
978.77	4673.46
978.93	4583.35
979.10	4554.68
979.26	4634.55
979.42	4638.65
979.58	4419.52
979.74	4513.72
979.91	4583.35
980.07	4411.32
980.23	4579.26
980.39	4583.35
980.55	4591.55
980.71	4589.50
980.88	4476.86
981.04	4536.25
981.20	4497.34
981.36	4454.33
981.52	4366.27
981.68	4413.37
981.85	4396.99
982.01	4384.70
982.17	4415.42
982.33	4462.52
982.49	4440.00
982.65	4253.63
982.82	4343.74
982.98	4603.83
983.14	4204.48
983.30	4497.34
983.46	4425.66
983.62	4415.42
983.79	4204.48
983.95	4421.56
984.11	4239.30
984.27	4218.82
984.43	4263.87
984.59	4267.97
984.75	4278.21
984.91	4188.10
985.08	4300.73
985.24	4284.35
985.40	4147.14
985.56	4100.03
985.72	4202.43
985.88	4270.01
986.04	4186.05
986.20	4110.27
986.37	4120.51
986.53	4089.79
986.69	4149.18
986.85	4085.70
987.01	4083.65
987.17	4118.47
987.33	4140.99
987.49	4108.23
987.65	4161.47
987.82	4093.89
987.98	3901.38
988.14	4159.42
988.30	4022.21
988.46	3936.20
988.62	3968.96
988.78	3971.01
988.94	3979.20
989.10	3989.44
989.26	3971.01
989.42	4032.45
989.59	3882.95
989.75	3866.56
989.91	3956.68
990.07	3885.00
990.23	3839.94
990.39	4046.79
990.55	3940.29
990.71	3737.54
990.87	3876.80
991.03	4014.02
991.19	3725.26
991.35	3805.13
991.51	3772.36
991.67	3899.33
991.83	3848.13
992.00	3868.61
992.16	3794.89
992.32	3790.79
992.48	3780.55
992.64	3712.97
992.80	3874.76
992.96	3706.82
993.12	3878.85
993.28	3815.37
993.44	3798.98
993.60	3768.26
993.76	3696.58
993.92	3606.47
994.08	3669.96
994.24	3694.54
994.40	3592.14
994.56	3717.06
994.72	3502.03
994.88	3600.33
995.04	3672.01
995.20	3555.27
995.36	3618.76
995.52	3604.42
995.68	3659.72
995.84	3495.88
996.00	3749.83
996.16	3672.01
996.32	3504.07
996.48	3481.55
996.64	3667.91
996.80	3510.22
996.96	3561.42
997.12	3524.55
997.28	3545.03
997.44	3549.13
997.60	3497.93
997.76	3463.12
997.92	3454.92
998.08	3516.36
998.24	3385.29
998.40	3497.93
998.56	3563.47
998.72	3327.95
998.88	3350.48
999.04	3323.85
999.20	3342.28
999.36	3233.74
999.52	3479.50
999.68	3344.33
999.84	3522.51
1000.00	3327.95
1000.16	3332.05
1000.32	3237.84
1000.48	3434.44
1000.64	3223.50
1000.80	3166.16
1000.95	3151.82
1001.11	3379.15
1001.27	3160.02
1001.43	3297.23
1001.59	3233.74
1001.75	3203.02
1001.91	3268.56
1002.07	3172.30
1002.23	3200.98
1002.39	3160.02
1002.55	3139.54
1002.71	3198.93
1002.87	3219.41
1003.03	3135.44
1003.19	3129.30
1003.34	3188.69
1003.50	3069.91
1003.66	3172.30
1003.82	3067.86
1003.98	3059.67
1004.14	3084.24
1004.30	3092.43
1004.46	3084.24
1004.62	3076.05
1004.78	3117.01
1004.94	3108.82
1005.09	3164.11
1005.25	3108.82
1005.41	2961.36
1005.57	2955.22
1005.73	3024.85
1005.89	3076.05
1006.05	2916.31
1006.21	3127.25
1006.37	3041.23
1006.52	2912.21
1006.68	2897.88
1006.84	3063.76
1007.00	2910.16
1007.16	2983.89
1007.32	2901.97
1007.48	2865.11
1007.64	2998.23
1007.79	2975.70
1007.95	2961.36
1008.11	2979.79
1008.27	2807.77
1008.43	2895.83
1008.59	2846.68
1008.75	2904.02
1008.91	2944.98
1009.06	2959.31
1009.22	2895.83
1009.38	2965.46
1009.54	2908.12
1009.70	2842.58
1009.86	2826.20
1010.01	2840.53
1010.17	2789.33
1010.33	2781.14
1010.49	2793.43
1010.65	2770.90
1010.81	2799.57
1010.96	2822.10
1011.12	2820.05
1011.28	2731.99
1011.44	2820.05
1011.60	2805.72
1011.76	2723.80
1011.91	2756.57
1012.07	2660.31
1012.23	2648.02
1012.39	2670.55
1012.55	2633.69
1012.71	2662.36
1012.86	2643.93
1013.02	2678.74
1013.18	2535.39
1013.34	2584.54
1013.50	2676.70
1013.65	2734.04
1013.81	2643.93
1013.97	2598.87
1014.13	2672.60
1014.29	2637.78
1014.44	2652.12
1014.60	2543.58
1014.76	2498.52
1014.92	2590.68
1015.07	2729.94
1015.23	2631.64
1015.39	2648.02
1015.55	2535.39
1015.71	2531.29
1015.86	2539.48
1016.02	2580.44
1016.18	2424.80
1016.34	2590.68
1016.49	2641.88
1016.65	2695.13
1016.81	2486.23
1016.97	2531.29
1017.12	2461.66
1017.28	2508.76
1017.44	2377.69
1017.60	2435.03
1017.75	2449.37
1017.91	2461.66
1018.07	2500.57
1018.23	2469.85
1018.38	2451.42
1018.54	2459.61
1018.70	2514.91
1018.86	2424.80
1019.01	2375.64
1019.17	2445.27
1019.33	2502.62
1019.49	2445.27
1019.64	2412.51
1019.80	2482.14
1019.96	2549.72
1020.12	2408.41
1020.27	2371.55
1020.43	2322.40
1020.59	2449.37
1020.74	2396.12
1020.90	2346.97
1021.06	2344.92
1021.22	2400.22
1021.37	2435.03
1021.53	2338.78
1021.69	2490.33
1021.84	2398.17
1022.00	2322.40
1022.16	2275.29
1022.31	2287.58
1022.47	2404.32
1022.63	2314.20
1022.79	2244.57
1022.94	2314.20
1023.10	2379.74
1023.26	2295.77
1023.41	2301.92
1023.57	2228.19
1023.73	2310.11
1023.88	2346.97
1024.04	2310.11
1024.20	2269.15
1024.35	2187.23
1024.51	2281.44
1024.67	2301.92
1024.82	2344.92
1024.98	2238.43
1025.14	2217.95
1025.29	2273.25
1025.45	2244.57
1025.61	2150.37
1025.76	2232.29
1025.92	2244.57
1026.08	2220.00
1026.23	2215.90
1026.39	2166.75
1026.55	2201.57
1026.70	2076.64
1026.86	2170.85
1027.02	2220.00
1027.17	2277.34
1027.33	2240.48
1027.48	2195.42
1027.64	2172.89
1027.80	2127.84
1027.95	2197.47
1028.11	2054.11
1028.27	2222.05
1028.42	2138.08
1028.58	2195.42
1028.73	2133.98
1028.89	2019.30
1029.05	2224.09
1029.20	2099.17
>>>>>End Processed Spectral Data<<<<<
