SpectraSuite Data File
++++++++++++++++++++++++++++++++++++
Date: Fri Jun 02 14:44:33 CEST 2017
User: INFO_000
Dark Spectrum Present: No
Reference Spectrum Present: No
Number of Sampled Component Spectra: 1
Spectrometers: USB4H00879
Integration Time (usec): 80000 (USB4H00879)
Spectra Averaged: 1 (USB4H00879)
Boxcar Smoothing: 0 (USB4H00879)
Correct for Electrical Dark: No (USB4H00879)
Strobe/Lamp Enabled: No (USB4H00879)
Correct for Detector Non-linearity: No (USB4H00879)
Correct for Stray Light: No (USB4H00879)
Number of Pixels in Processed Spectrum: 3648
>>>>>Begin Processed Spectral Data<<<<<
345.13	1361.90
345.34	1361.90
345.56	1361.90
345.78	1363.95
345.99	1253.36
346.21	1638.38
346.42	1710.05
346.64	1648.61
346.86	1812.45
347.07	1736.68
347.29	1759.21
347.50	1632.23
347.72	1699.81
347.94	1732.58
348.15	1591.27
348.37	1619.94
348.59	1683.43
348.80	1640.42
349.02	1822.69
349.23	1931.23
349.45	1814.50
349.67	1841.12
349.88	1773.54
350.10	1937.38
350.31	1800.16
350.53	1828.84
350.75	2007.01
350.96	1904.61
351.18	1804.26
351.39	1869.80
351.61	1839.08
351.82	1890.28
352.04	1927.14
352.26	1820.64
352.47	1884.13
352.69	1943.52
352.90	1720.29
353.12	1824.74
353.34	1779.68
353.55	1882.08
353.77	1884.13
353.98	1822.69
354.20	1849.32
354.41	1953.76
354.63	1933.28
354.85	2052.06
355.06	1968.10
355.28	1837.03
355.49	1970.15
355.71	1853.41
355.92	1949.67
356.14	1966.05
356.35	1861.60
356.57	1845.22
356.79	1884.13
357.00	1873.89
357.22	1898.47
357.43	1863.65
357.65	1951.71
357.86	1855.46
358.08	1918.95
358.29	1931.23
358.51	1959.91
358.72	1976.29
358.94	1929.19
359.16	1998.82
359.37	1910.75
359.59	1953.76
359.80	1968.10
360.02	1939.43
360.23	1972.19
360.45	2078.69
360.66	2023.39
360.88	1843.17
361.09	1976.29
361.31	1996.77
361.52	1933.28
361.74	2027.49
361.95	2047.97
362.17	1892.32
362.38	2045.92
362.60	1992.67
362.81	2017.25
363.03	1937.38
363.24	1974.24
363.46	2043.87
363.67	2017.25
363.89	1957.86
364.10	2054.11
364.32	1978.34
364.53	2041.82
364.75	1929.19
364.96	1994.72
365.18	2086.88
365.39	1990.63
365.61	1994.72
365.82	2148.32
366.04	1949.67
366.25	1939.43
366.47	1990.63
366.68	2068.45
366.90	1955.81
367.11	2052.06
367.33	2056.16
367.54	2035.68
367.76	1970.15
367.97	2082.78
368.19	2045.92
368.40	2076.64
368.62	2013.15
368.83	1941.47
369.05	2058.21
369.26	1892.32
369.48	1937.38
369.69	2037.73
369.91	2111.46
370.12	2019.30
370.33	2103.26
370.55	1918.95
370.76	2023.39
370.98	2019.30
371.19	2013.15
371.41	1953.76
371.62	2082.78
371.84	1972.19
372.05	2162.66
372.27	2050.02
372.48	2007.01
372.69	2070.50
372.91	2133.98
373.12	2158.56
373.34	2076.64
373.55	2183.13
373.77	2174.94
373.98	2099.17
374.20	2209.76
374.41	2277.34
374.62	2168.80
374.84	2205.66
375.05	2238.43
375.27	2168.80
375.48	2138.08
375.70	2220.00
375.91	2281.44
376.12	2283.49
376.34	2265.05
376.55	2281.44
376.77	2230.24
376.98	2045.92
377.19	2176.99
377.41	2131.94
377.62	2220.00
377.84	2222.05
378.05	2306.01
378.27	2242.53
378.48	2306.01
378.69	2375.64
378.91	2170.85
379.12	2248.67
379.34	2256.86
379.55	2324.44
379.76	2263.01
379.98	2256.86
380.19	2248.67
380.41	2269.15
380.62	2316.25
380.83	2252.77
381.05	2187.23
381.26	2310.11
381.47	2191.33
381.69	2176.99
381.90	2379.74
382.12	2250.72
382.33	2346.97
382.54	2209.76
382.76	2383.84
382.97	2306.01
383.19	2297.82
383.40	2365.40
383.61	2389.98
383.83	2332.64
384.04	2346.97
384.25	2371.55
384.47	2273.25
384.68	2449.37
384.89	2287.58
385.11	2404.32
385.32	2389.98
385.54	2295.77
385.75	2297.82
385.96	2379.74
386.18	2424.80
386.39	2371.55
386.60	2437.08
386.82	2529.24
387.03	2412.51
387.24	2424.80
387.46	2371.55
387.67	2473.95
387.88	2496.47
388.10	2443.23
388.31	2619.35
388.52	2541.53
388.74	2482.14
388.95	2506.71
389.16	2351.07
389.38	2473.95
389.59	2533.34
389.80	2570.20
390.02	2498.52
390.23	2553.82
390.44	2592.73
390.66	2557.91
390.87	2447.32
391.08	2580.44
391.30	2688.98
391.51	2627.54
391.72	2672.60
391.94	2600.92
392.15	2611.16
392.36	2592.73
392.58	2455.51
392.79	2699.22
393.00	2686.94
393.22	2727.89
393.43	2768.85
393.64	2756.57
393.85	2861.01
394.07	2672.60
394.28	2711.51
394.49	2777.05
394.71	2758.61
394.92	2938.84
395.13	2672.60
395.35	2770.90
395.56	2719.70
395.77	2768.85
395.98	2850.77
396.20	2789.33
396.41	2836.44
396.62	2850.77
396.84	2881.49
397.05	2940.88
397.26	2842.58
397.47	2971.60
397.69	2779.09
397.90	3020.75
398.11	2926.55
398.32	2895.83
398.54	2916.31
398.75	2893.78
398.96	2910.16
399.18	3057.62
399.39	3008.47
399.60	3084.24
399.81	2922.45
400.03	2959.31
400.24	3211.22
400.45	2799.57
400.66	3119.06
400.88	2973.65
401.09	3170.26
401.30	3008.47
401.51	3137.49
401.73	3084.24
401.94	3233.74
402.15	3121.10
402.36	3071.95
402.58	3151.82
402.79	3125.20
403.00	3131.34
403.21	3338.19
403.43	3200.98
403.64	3305.42
403.85	3117.01
404.06	3413.96
404.27	3053.52
404.49	3182.54
404.70	3127.25
404.91	3235.79
405.12	3291.09
405.34	3225.55
405.55	3399.63
405.76	3227.60
405.97	3215.31
406.19	3403.72
406.40	3239.89
406.61	3342.28
406.82	3321.81
407.03	3260.37
407.25	3348.43
407.46	3512.27
407.67	3360.72
407.88	3428.30
408.09	3243.98
408.31	3444.68
408.52	3491.79
408.73	3366.86
408.94	3239.89
409.15	3491.79
409.37	3534.79
409.58	3502.03
409.79	3485.64
410.00	3590.09
410.21	3467.21
410.43	3475.40
410.64	3350.48
410.85	3518.41
411.06	3665.86
411.27	3522.51
411.48	3602.38
411.70	3504.07
411.91	3575.75
412.12	3612.62
412.33	3555.27
412.54	3680.20
412.76	3743.69
412.97	3676.10
413.18	3520.46
413.39	3735.50
413.60	3700.68
413.81	3551.18
414.03	3710.92
414.24	3565.51
414.45	3825.61
414.66	3678.15
414.87	3803.08
415.08	3735.50
415.30	3737.54
415.51	3758.02
415.72	3839.94
415.93	3768.26
416.14	3813.32
416.35	3825.61
416.56	3801.03
416.78	3919.81
416.99	3864.52
417.20	3688.39
417.41	3852.23
417.62	3862.47
417.83	3880.90
418.04	3882.95
418.26	4007.87
418.47	3860.42
418.68	3872.71
418.89	3991.49
419.10	4106.18
419.31	4091.84
419.52	4081.60
419.73	3940.29
419.95	4054.98
420.16	4040.64
420.37	3919.81
420.58	4024.26
420.79	3921.86
421.00	3993.54
421.21	4227.01
421.42	4106.18
421.63	4095.94
421.85	4153.28
422.06	4249.54
422.27	4255.68
422.48	4274.11
422.69	4214.72
422.90	4329.41
423.11	4290.49
423.32	4313.02
423.53	4483.00
423.75	4353.98
423.96	4460.48
424.17	4399.04
424.38	4521.92
424.59	4335.55
424.80	4526.01
425.01	4462.52
425.22	4288.45
425.43	4435.90
425.64	4718.52
425.85	4528.06
426.06	4566.97
426.28	4579.26
426.49	4511.68
426.70	4609.98
426.91	4644.79
427.12	4763.58
427.33	4759.48
427.54	4687.80
427.75	4718.52
427.96	4972.47
428.17	4782.01
428.38	4822.97
428.59	4896.69
428.80	4851.64
429.01	4825.01
429.23	4829.11
429.44	5009.33
429.65	4816.82
429.86	4937.65
430.07	4865.97
430.28	4911.03
430.49	5023.67
430.70	5054.39
430.91	5140.40
431.12	4929.46
431.33	5185.46
431.54	5179.31
431.75	5156.79
431.96	5191.60
432.17	5021.62
432.38	5093.30
432.59	5369.77
432.80	5164.98
433.01	5291.95
433.22	5197.74
433.43	5326.77
433.64	5316.53
433.85	5316.53
434.06	5359.53
434.27	5359.53
434.49	5316.53
434.70	5572.52
434.91	5623.72
435.12	5599.15
435.33	5537.71
435.54	5533.61
435.75	5275.57
435.96	5662.63
436.17	5461.93
436.38	5535.66
436.59	5750.70
436.80	5527.47
437.01	5810.09
437.22	5902.25
437.43	5744.55
437.64	5545.90
437.85	5801.90
438.06	5943.21
438.27	5746.60
438.48	5785.51
438.69	5826.47
438.90	5873.57
439.11	5752.74
439.32	5910.44
439.53	5932.97
439.74	5955.49
439.95	5803.94
440.16	5928.87
440.37	6002.60
440.57	5879.72
440.78	6090.66
440.99	6180.77
441.20	5926.82
441.41	5912.49
441.62	6039.46
441.83	5959.59
442.04	5986.21
442.25	6041.51
442.46	6221.73
442.67	6191.01
442.88	6621.08
443.09	6033.32
443.30	6148.00
443.51	6238.11
443.72	6483.87
443.93	6246.30
444.14	6449.05
444.35	6117.28
444.56	6420.38
444.77	6487.96
444.98	6367.13
445.19	6490.01
445.40	6541.21
445.61	6459.29
445.81	6586.27
446.02	6557.60
446.23	6418.33
446.44	6309.79
446.65	6561.69
446.86	6664.09
447.07	6750.10
447.28	6715.29
447.49	6678.43
447.70	6584.22
447.91	6735.77
448.12	6680.47
448.33	6782.87
448.54	6600.60
448.74	6733.72
448.95	6817.69
449.16	6692.76
449.37	7051.16
449.58	6756.25
449.79	6821.78
450.00	6866.84
450.21	6948.76
450.42	7174.03
450.63	7053.20
450.84	6926.23
451.05	6928.28
451.25	7040.92
451.46	6913.94
451.67	7186.32
451.88	7157.65
452.09	6999.96
452.30	7163.79
452.51	7253.91
452.72	7399.31
452.93	7458.70
453.13	7094.16
453.34	7391.12
453.55	7397.26
453.76	7358.35
453.97	7665.55
454.18	7393.17
454.39	7597.96
454.60	7530.38
454.81	7460.75
455.01	7583.63
455.22	7397.26
455.43	7677.83
455.64	7782.28
455.85	7929.74
456.06	7909.26
456.27	7753.61
456.48	7743.37
456.68	7868.30
456.89	7982.98
457.10	8017.80
457.31	7976.84
457.52	8015.75
457.73	8066.95
457.94	8171.40
458.14	7991.17
458.35	8380.29
458.56	8159.11
458.77	8013.70
458.98	8271.75
459.19	8427.39
459.39	8408.96
459.60	8560.51
459.81	8281.99
460.02	8693.63
460.23	8480.64
460.44	8824.70
460.65	8732.54
460.85	8726.39
461.06	9013.11
461.27	8703.87
461.48	9031.54
461.69	9043.83
461.89	8796.03
462.10	9002.87
462.31	8865.66
462.52	8957.82
462.73	9125.75
462.94	9211.76
463.14	9207.67
463.35	9148.28
463.56	9432.94
463.77	9367.41
463.98	9078.65
464.18	9443.18
464.39	9674.60
464.60	9774.95
464.81	9652.08
465.02	9609.07
465.23	9967.46
465.43	9695.08
465.64	10127.21
465.85	9971.56
466.06	9883.50
466.27	10241.89
466.47	10145.64
466.68	10209.12
466.89	10047.33
467.10	10332.00
467.30	10112.87
467.51	10514.27
467.72	10571.61
467.93	10170.21
468.14	10489.70
468.34	10483.55
468.55	10870.62
468.76	10760.03
468.97	10579.81
469.17	10954.58
469.38	10932.06
469.59	11208.53
469.80	10870.62
470.01	10903.39
470.21	10856.28
470.42	11200.34
470.63	11390.80
470.84	11194.20
471.04	11525.97
471.25	11448.15
471.46	11595.60
471.67	12017.48
471.87	11454.29
472.08	11751.24
472.29	12003.14
472.50	11534.16
472.70	11767.63
472.91	11972.43
473.12	12248.90
473.33	11941.71
473.53	12291.91
473.74	12162.89
473.95	12537.66
474.16	12652.35
474.36	12404.55
474.57	12822.33
474.78	12685.12
474.99	12447.55
475.19	12603.20
475.40	13000.51
475.61	13115.19
475.81	13199.16
476.02	13281.08
476.23	13311.80
476.44	13590.32
476.64	13537.07
476.85	13647.66
477.06	13373.24
477.27	13766.45
477.47	13786.93
477.68	13854.51
477.89	13911.85
478.09	14032.68
478.30	13983.53
478.51	14104.36
478.71	14147.37
478.92	14137.13
479.13	14337.83
479.34	14466.85
479.54	14559.01
479.75	14636.83
479.96	14536.48
480.16	14788.38
480.37	14683.94
480.58	14862.11
480.78	15222.55
480.99	15251.22
481.20	15042.33
481.41	15501.08
481.61	15458.07
481.82	15685.39
482.03	15382.29
482.23	15664.91
482.44	15757.07
482.65	15847.18
482.85	16051.98
483.06	16037.64
483.27	16043.79
483.47	15925.00
483.68	16365.32
483.89	16320.26
484.09	16244.49
484.30	16744.19
484.51	16656.13
484.71	16768.77
484.92	16817.92
485.13	17051.39
485.33	16879.36
485.54	16824.06
485.75	17180.41
485.95	17458.93
486.16	17360.63
486.37	17530.61
486.57	17612.53
486.78	17725.17
486.98	17942.25
487.19	17938.16
487.40	18200.30
487.60	17747.70
487.81	18384.62
488.02	18226.92
488.22	18200.30
488.43	18333.42
488.64	18237.16
488.84	18790.11
489.05	18636.52
489.25	18634.47
489.46	18915.04
489.67	18994.91
489.87	19134.17
490.08	19433.18
490.29	19220.19
490.49	19642.07
490.70	19556.05
490.90	19631.83
491.11	19898.06
491.32	19830.48
491.52	19730.13
491.73	19896.02
491.94	19877.58
492.14	20250.32
492.35	20117.20
492.55	20172.49
492.76	20356.81
492.97	20690.63
493.17	20555.46
493.38	20905.66
493.58	21204.67
493.79	20852.42
494.00	20983.49
494.20	20985.54
494.41	21313.21
494.61	21321.40
494.82	21511.86
495.02	21583.54
495.23	21708.47
495.44	21628.60
495.64	21696.18
495.85	21780.15
496.05	22132.40
496.26	22378.15
496.47	22003.38
496.67	22298.28
496.88	22304.43
497.08	22216.36
497.29	22587.05
497.49	22597.29
497.70	22912.67
497.91	22683.30
498.11	22828.71
498.32	23056.03
498.52	22953.63
498.73	23295.64
498.93	23123.62
499.14	23101.09
499.34	23230.11
499.55	23502.49
499.76	23441.05
499.96	23643.80
500.17	23426.71
500.37	23625.37
500.58	23873.17
500.78	23606.94
500.99	24057.49
501.19	24225.42
501.40	24028.82
501.60	23834.26
501.81	23975.57
502.02	24317.58
502.22	24163.98
502.43	24368.78
502.63	24673.93
502.84	24594.06
503.04	24749.70
503.25	24788.61
503.45	24618.63
503.66	24823.43
503.86	24823.43
504.07	24944.26
504.27	24630.92
504.48	25413.24
504.68	25071.23
504.89	25384.57
505.09	25200.26
505.30	25058.95
505.50	25486.97
505.71	25585.27
505.91	25710.20
506.12	25349.76
506.32	25403.00
506.53	25499.26
506.73	25659.00
506.94	26035.83
507.14	25755.26
507.35	25687.67
507.55	26183.28
507.76	25949.81
507.96	25912.95
508.17	25747.06
508.37	25857.65
508.58	26123.89
508.78	26322.54
508.99	26248.82
509.19	26310.25
509.40	26252.91
509.60	26009.20
509.81	26236.53
510.01	26472.04
510.22	26558.06
510.42	26261.10
510.63	26769.00
510.83	26435.18
511.04	26750.57
511.24	26900.07
511.44	26668.65
511.65	26883.69
511.85	26799.72
512.06	26936.93
512.26	26760.81
512.47	27174.50
512.67	26928.74
512.88	26996.32
513.08	26533.48
513.29	27252.32
513.49	27367.01
513.69	27162.21
513.90	27313.76
514.10	27690.59
514.31	27485.79
514.51	27526.75
514.72	27346.53
514.92	27395.68
515.13	27338.33
515.33	27477.60
515.53	27420.25
515.74	27698.78
515.94	27582.04
516.15	27922.01
516.35	27672.15
516.56	27766.36
516.76	27768.41
516.96	27842.14
517.17	28198.48
517.37	27840.09
517.58	27811.42
517.78	28044.88
517.99	28397.13
518.19	28227.15
518.39	28245.58
518.60	28393.04
518.80	28581.45
519.01	28708.43
519.21	28390.99
519.41	28726.86
519.62	28339.79
519.82	28948.04
520.03	28972.61
520.23	28927.56
520.43	28962.37
520.64	29201.99
520.84	29474.37
521.05	28964.42
521.25	29388.35
521.45	29697.59
521.66	29480.51
521.86	29566.52
522.07	29601.34
522.27	29560.38
522.47	29799.99
522.68	29855.29
522.88	29957.69
523.08	30279.22
523.29	29982.26
523.49	29949.50
523.70	30438.96
523.90	30178.87
524.10	30385.71
524.31	30654.00
524.51	30344.75
524.71	30852.65
524.92	30864.94
525.12	31120.93
525.33	30852.65
525.53	30723.63
525.73	31274.53
525.94	31436.32
526.14	31634.97
526.34	31708.70
526.55	31362.59
526.75	31630.88
526.95	31790.62
527.16	31411.74
527.36	31723.04
527.56	31929.88
527.77	32220.69
527.97	32290.32
528.17	32167.45
528.38	32415.25
528.58	32689.68
528.78	32701.96
528.99	32742.92
529.19	32753.16
529.39	32448.02
529.60	33545.73
529.80	33060.36
530.00	32996.87
530.21	33404.42
530.41	33748.48
530.61	33535.49
530.82	33613.31
531.02	33560.06
531.22	33674.75
531.43	33547.78
531.63	34268.66
531.83	34231.80
532.04	34618.86
532.24	34215.41
532.44	34690.54
532.64	34371.06
532.85	34911.72
533.05	34682.35
533.25	34889.20
533.46	34799.08
533.66	35147.24
533.86	35454.44
534.07	35261.93
534.27	35349.99
534.47	35663.33
534.67	35806.69
534.88	35479.01
535.08	36054.49
535.28	35847.64
535.49	36177.37
535.69	36609.49
535.89	36451.80
536.09	36437.46
536.30	36771.28
536.50	36572.63
536.70	36675.02
536.91	36783.57
537.11	36908.49
537.31	36992.46
537.51	36959.69
537.72	37586.37
537.92	37109.19
538.12	37846.46
538.32	37211.59
538.53	37545.41
538.73	36994.51
538.93	37400.01
539.13	37457.35
539.34	37492.16
539.54	37604.80
539.74	37918.14
539.94	37811.65
540.15	37737.92
540.35	38487.48
540.55	37914.05
540.75	38133.18
540.96	38327.74
541.16	38596.02
541.36	38358.45
541.56	38890.93
541.77	38745.52
541.97	38292.92
542.17	38751.66
542.37	38766.00
542.58	38518.20
542.78	38917.55
542.98	38628.79
543.18	38942.13
543.38	39269.80
543.59	39093.68
543.79	39343.53
543.99	38901.17
544.19	39419.30
544.40	39466.41
544.60	39785.89
544.80	39402.92
545.00	39282.09
545.20	39697.83
545.41	39755.17
545.61	39472.55
545.81	39593.38
546.01	39738.79
546.21	39439.78
546.42	39601.57
546.62	39988.64
546.82	39753.12
547.02	39835.04
547.22	40164.76
547.43	39876.00
547.63	40213.91
547.83	40484.25
548.03	40117.66
548.23	40533.40
548.44	40144.28
548.64	40230.30
548.84	40541.59
549.04	40496.53
549.24	40570.26
549.45	40705.43
549.65	40433.05
549.85	40285.59
550.05	40461.72
550.25	40492.44
550.45	41041.29
550.66	40723.86
550.86	40342.94
551.06	41039.25
551.26	40762.77
551.46	40867.22
551.66	40807.83
551.87	40936.85
552.07	40973.71
552.27	40648.08
552.47	40994.19
552.67	41377.16
552.87	41266.57
553.07	41031.05
553.28	41129.36
553.48	41713.03
553.68	41510.28
553.88	41575.81
554.08	41098.64
554.28	41563.53
554.48	40687.00
554.69	41581.96
554.89	41350.54
555.09	41260.43
555.29	41514.37
555.49	41119.12
555.69	41475.46
555.89	41514.37
556.10	42083.71
556.30	41491.85
556.50	41868.67
556.70	41356.68
556.90	41991.55
557.10	41833.86
557.30	41627.01
557.50	42016.13
557.70	41770.37
557.91	42483.06
558.11	41950.59
558.31	42188.16
558.51	42100.09
558.71	41944.45
558.91	42290.55
559.11	42265.98
559.31	41909.63
559.51	42243.45
559.72	42397.05
559.92	42835.31
560.12	42282.36
560.32	42694.00
560.52	41872.77
560.72	42634.61
560.92	42417.53
561.12	42904.95
561.32	42669.43
561.52	42276.22
561.72	43019.63
561.93	42202.49
562.13	42571.13
562.33	42571.13
562.53	43238.76
562.73	42624.37
562.93	42853.75
563.13	42917.23
563.33	43111.79
563.53	43330.92
563.73	42632.57
563.93	43099.50
564.13	43689.32
564.33	43275.63
564.53	43275.63
564.74	43619.69
564.94	43079.02
565.14	43500.90
565.34	43576.68
565.54	43535.72
565.74	43740.52
565.94	43990.37
566.14	43847.01
566.34	43537.77
566.54	44170.59
566.74	43730.28
566.94	43941.22
567.14	43973.98
567.34	44156.25
567.54	44502.36
567.74	44225.89
567.94	44277.08
568.14	44301.66
568.34	44942.67
568.54	44111.20
568.74	44516.70
568.94	44195.17
569.14	44631.38
569.34	44156.25
569.54	44635.48
569.75	44322.14
569.95	44739.93
570.15	45454.67
570.35	45079.89
570.55	44848.47
570.75	45100.37
570.95	45192.53
571.15	45167.95
571.35	45170.00
571.55	45548.87
571.75	45323.60
571.95	45315.40
572.15	45651.27
572.35	45544.78
572.55	45630.79
572.75	45667.66
572.95	45659.46
573.15	45933.89
573.35	46421.31
573.55	45595.98
573.75	46038.34
573.95	46357.82
574.15	46165.31
574.35	46953.78
574.55	46230.85
574.75	46044.48
574.95	46609.72
575.15	46294.33
575.34	46548.28
575.54	46763.32
575.74	47060.27
575.94	46839.09
576.14	46734.65
576.34	46941.49
576.54	47422.76
576.74	47119.66
576.94	47179.06
577.14	47457.58
577.34	47676.71
577.54	47095.09
577.74	47373.61
577.94	47549.74
578.14	47682.86
578.34	47668.52
578.54	47101.23
578.74	47514.92
578.94	47752.49
579.14	47326.51
579.34	47748.39
579.54	47977.76
579.74	48041.25
579.94	48305.44
580.13	48153.89
580.33	48110.88
580.53	48340.25
580.73	48413.98
580.93	48317.73
581.13	48641.31
581.33	48059.68
581.53	48428.32
581.73	48747.80
581.93	48739.61
582.13	48506.14
582.33	48809.24
582.53	48510.24
582.73	48715.03
582.92	48934.17
583.12	48794.90
583.32	48942.36
583.52	48911.64
583.72	48936.21
583.92	48973.08
584.12	49378.57
584.32	49493.26
584.52	49329.42
584.72	48899.35
584.92	49237.26
585.11	49521.93
585.31	49255.70
585.51	49566.99
585.71	49601.80
585.91	49865.99
586.11	49544.46
586.31	49462.54
586.51	49718.54
586.71	50033.92
586.91	49724.68
587.10	49831.18
587.30	49876.23
587.50	49992.97
587.70	50164.99
587.90	50044.16
588.10	50076.93
588.30	50205.95
588.50	50050.31
588.69	50341.12
588.89	49784.07
589.09	50205.95
589.29	50150.66
589.49	50539.77
589.69	49831.18
589.89	50085.12
590.08	50093.32
590.28	50310.40
590.48	50152.71
590.68	50220.29
590.88	50273.54
591.08	50326.78
591.28	50173.19
591.47	50838.78
591.67	50074.88
591.87	50220.29
592.07	50263.30
592.27	50615.55
592.47	50451.71
592.67	50349.31
592.86	49810.70
593.06	50330.88
593.26	50738.43
593.46	50550.01
593.66	50816.25
593.86	50775.29
594.05	50566.40
594.25	50640.12
594.45	50357.50
594.65	50656.51
594.85	49829.13
595.05	50732.28
595.24	50611.45
595.44	50431.23
595.64	51311.86
595.84	50754.81
596.04	50615.55
596.23	50932.98
596.43	50793.72
596.63	50937.08
596.83	50672.89
597.03	50849.02
597.22	51094.77
597.42	51172.60
597.62	51264.75
597.82	51311.86
598.02	51129.59
598.21	51594.48
598.41	51016.95
598.61	50973.94
598.81	51680.49
599.01	51283.19
599.20	51141.88
599.40	51426.54
599.60	51479.79
599.80	51502.32
600.00	51684.59
600.19	51651.82
600.39	51033.33
600.59	51522.80
600.79	51666.16
600.98	51578.09
601.18	51500.27
601.38	51944.68
601.58	51729.64
601.78	51727.59
601.97	51686.64
602.17	52114.66
602.37	52147.43
602.57	51475.69
602.76	52057.32
602.96	51633.39
603.16	52227.30
603.36	51983.59
603.55	52542.69
603.75	51705.07
603.95	52225.25
604.15	52233.44
604.34	52204.77
604.54	52401.38
604.74	52049.13
604.94	52688.09
605.13	52270.31
605.33	52839.64
605.53	52212.96
605.73	52409.57
605.92	52442.34
606.12	52823.26
606.32	53040.34
606.52	52675.80
606.71	52921.56
606.91	53081.30
607.11	52780.25
607.30	52960.47
607.50	53013.72
607.70	53636.30
607.90	53175.51
608.09	52886.74
608.29	53195.99
608.49	52880.60
608.68	53204.18
608.88	52843.74
609.08	53271.76
609.28	53341.39
609.47	52923.61
609.67	53585.10
609.87	53228.76
610.06	53730.51
610.26	53441.74
610.46	53945.54
610.66	53742.80
610.85	53570.77
611.05	53568.72
611.25	53830.86
611.44	53404.88
611.64	53892.30
611.84	53927.11
612.03	53345.49
612.23	54021.32
612.43	53712.08
612.62	53494.99
612.82	54252.74
613.02	54154.44
613.21	54013.13
613.41	54236.36
613.61	54082.76
613.80	53757.13
614.00	54297.80
614.20	54377.67
614.39	54254.79
614.59	54332.61
614.79	54787.26
614.98	54156.49
615.18	54303.94
615.38	54682.81
615.57	53939.40
615.77	54310.08
615.97	54791.36
616.16	54523.07
616.36	54895.80
616.56	54817.98
616.75	54951.10
616.95	54916.28
617.15	54662.33
617.34	54680.77
617.54	54613.18
617.74	54957.24
617.93	55381.17
618.13	54760.64
618.32	55121.08
618.52	54717.63
618.72	55065.78
618.91	55059.64
619.11	54811.84
619.31	54787.26
619.50	54936.76
619.70	54721.72
619.90	55041.21
620.09	54721.72
620.29	55076.02
620.48	55049.40
620.68	55397.55
620.88	54760.64
621.07	55104.70
621.27	55286.96
621.46	55008.44
621.66	55045.30
621.86	55227.57
622.05	55186.61
622.25	55817.39
622.44	55356.60
622.64	54879.42
622.84	55092.41
623.03	55248.05
623.23	55655.60
623.42	55694.51
623.62	55833.77
623.82	55256.24
624.01	55266.48
624.21	55581.87
624.40	55520.43
624.60	55336.12
624.80	55377.08
624.99	55588.02
625.19	55377.08
625.38	55719.09
625.58	55489.71
625.77	56013.99
625.97	55694.51
626.17	55833.77
626.36	56063.14
626.56	55921.83
626.75	55319.73
626.95	56233.13
627.14	55786.67
627.34	56009.90
627.54	55555.25
627.73	55821.48
627.93	55782.57
628.12	55489.71
628.32	55923.88
628.51	56259.75
628.71	55674.03
628.90	56022.19
629.10	55633.07
629.30	56108.20
629.49	56149.16
629.69	55669.93
629.88	55899.31
630.08	56118.44
630.27	56079.53
630.47	56317.09
630.66	56278.18
630.86	55960.75
631.05	56106.15
631.25	56628.38
631.44	56231.08
631.64	56239.27
631.84	56100.01
632.03	56849.56
632.23	56431.78
632.42	56781.98
632.62	56274.09
632.81	56296.61
633.01	56173.73
633.20	56507.55
633.40	56407.20
633.59	56472.74
633.79	55878.83
633.98	56302.76
634.18	56562.85
634.37	56431.78
634.57	56140.97
634.76	56693.92
634.96	56310.95
635.15	56999.07
635.35	56450.21
635.54	56114.34
635.74	56767.65
635.93	56095.91
636.13	56544.42
636.32	56423.59
636.52	56353.96
636.71	56341.67
636.91	56497.31
637.10	56587.42
637.30	56695.97
637.49	56362.15
637.69	56257.70
637.88	56603.81
638.08	56419.49
638.27	56501.41
638.46	56556.70
638.66	56607.90
638.85	56417.44
639.05	56865.95
639.24	56657.06
639.44	56335.52
639.63	56687.78
639.83	56407.20
640.02	56413.35
640.22	56091.82
640.41	57087.13
640.61	55915.69
640.80	56534.18
640.99	56112.30
641.19	56870.04
641.38	56476.83
641.58	56212.65
641.77	56235.17
641.97	56581.28
642.16	56386.72
642.36	56657.06
642.55	56816.80
642.74	56286.37
642.94	57087.13
643.13	56394.92
643.33	56313.00
643.52	56542.37
643.72	56341.67
643.91	56157.35
644.10	56257.70
644.30	56851.61
644.49	56573.09
644.69	57031.83
644.88	56218.79
645.08	56210.60
645.27	56059.05
645.46	56214.69
645.66	56612.00
645.85	55956.65
646.05	56276.13
646.24	56480.93
646.43	56071.34
646.63	56685.73
646.82	56247.46
647.02	56599.71
647.21	56188.07
647.40	56456.35
647.60	56489.12
647.79	56698.01
647.99	56575.14
648.18	56601.76
648.37	56646.82
648.57	56196.26
648.76	56151.21
648.96	56386.72
649.15	56269.99
649.34	56460.45
649.54	56513.70
649.73	55704.75
649.92	56071.34
650.12	56390.82
650.31	56552.61
650.51	56124.58
650.70	56450.21
650.89	56470.69
651.09	56808.61
651.28	56233.13
651.47	56941.72
651.67	56188.07
651.86	56597.66
652.06	55768.24
652.25	56292.52
652.44	56212.65
652.64	55694.51
652.83	56239.27
653.02	55860.40
653.22	56071.34
653.41	55954.60
653.60	55846.06
653.80	55966.89
653.99	56183.97
654.18	55755.95
654.38	56024.23
654.57	55821.48
654.76	55854.25
654.96	55934.12
655.15	55852.20
655.34	55907.50
655.54	55444.66
655.73	55862.44
655.92	56011.95
656.12	55680.17
656.31	55690.41
656.50	56161.45
656.70	56239.27
656.89	55747.76
657.08	55805.10
657.28	55620.78
657.47	55735.47
657.66	56288.42
657.86	55710.89
658.05	56104.10
658.24	56638.62
658.43	55970.99
658.63	56163.50
658.82	55643.31
659.01	56317.09
659.21	55934.12
659.40	56210.60
659.59	55338.16
659.79	55973.03
659.98	56038.57
660.17	55997.61
660.36	55549.10
660.56	55506.10
660.75	55690.41
660.94	55973.03
661.14	55858.35
661.33	56009.90
661.52	55637.17
661.71	56394.92
661.91	55547.06
662.10	55616.69
662.29	56130.73
662.49	56036.52
662.68	56165.54
662.87	55989.42
663.06	56462.50
663.26	55809.20
663.45	56040.62
663.64	55966.89
663.83	56196.26
664.03	56046.76
664.22	55927.98
664.41	55551.15
664.60	55801.00
664.80	55751.85
664.99	55825.58
665.18	55907.50
665.37	56136.87
665.57	56104.10
665.76	55952.55
665.95	55981.23
666.14	56030.38
666.34	56095.91
666.53	56364.20
666.72	56067.24
666.91	55784.62
667.11	56186.02
667.30	56001.71
667.49	56472.74
667.68	55864.49
667.87	55618.74
668.07	56376.48
668.26	55966.89
668.45	55841.96
668.64	55743.66
668.84	56726.69
669.03	56749.21
669.22	55788.72
669.41	56218.79
669.60	56364.20
669.80	56075.43
669.99	56210.60
670.18	55817.39
670.37	55989.42
670.57	56679.58
670.76	55801.00
670.95	56923.29
671.14	56501.41
671.33	55635.12
671.53	56618.14
671.72	56214.69
671.91	56360.10
672.10	56089.77
672.29	56267.94
672.48	56013.99
672.68	56319.14
672.87	56513.70
673.06	56425.64
673.25	56241.32
673.44	56126.63
673.64	56001.71
673.83	55874.73
674.02	55905.45
674.21	55837.87
674.40	56491.17
674.59	56124.58
674.79	56442.02
674.98	56358.05
675.17	56446.11
675.36	56200.36
675.55	56485.03
675.74	56452.26
675.94	56423.59
676.13	56302.76
676.32	56296.61
676.51	56947.87
676.70	56548.51
676.89	56745.12
677.08	56636.58
677.28	56452.26
677.47	56689.82
677.66	57259.16
677.85	57107.61
678.04	56673.44
678.23	56939.68
678.42	56788.13
678.62	57013.40
678.81	57095.32
679.00	56677.54
679.19	57029.79
679.38	56358.05
679.57	56908.96
679.76	56915.10
679.96	56933.53
680.15	56763.55
680.34	56747.17
680.53	56845.47
680.72	57156.76
680.91	57441.43
681.10	56378.53
681.29	56988.83
681.48	56734.88
681.68	57193.62
681.87	57160.86
682.06	56941.72
682.25	56822.94
682.44	56718.49
682.63	57285.78
682.82	56435.87
683.01	56503.46
683.20	56644.77
683.39	56824.99
683.59	56536.23
683.78	56614.05
683.97	56550.56
684.16	57025.69
684.35	56556.70
684.54	57005.21
684.73	56687.78
684.92	56777.89
685.11	56503.46
685.30	56906.91
685.49	57111.70
685.69	56593.57
685.88	56685.73
686.07	56644.77
686.26	56736.93
686.45	56726.69
686.64	57285.78
686.83	57095.32
687.02	56743.07
687.21	57222.29
687.40	56822.94
687.59	56790.17
687.78	56886.43
687.97	57423.00
688.16	56698.01
688.35	56579.23
688.54	56861.85
688.74	56898.72
688.93	56812.70
689.12	56360.10
689.31	57240.73
689.50	56843.42
689.69	56775.84
689.88	56341.67
690.07	56929.44
690.26	56685.73
690.45	57619.60
690.64	56726.69
690.83	56669.34
691.02	56827.04
691.21	57060.51
691.40	57179.29
691.59	56779.93
691.78	56321.19
691.97	56581.28
692.16	56525.99
692.35	57070.75
692.54	56609.95
692.73	56794.27
692.92	57033.88
693.11	56784.03
693.30	56491.17
693.49	56652.96
693.68	56558.75
693.87	56564.90
694.06	56272.04
694.25	56587.42
694.44	56442.02
694.63	56673.44
694.82	56493.22
695.01	55829.68
695.20	55882.92
695.39	56048.81
695.58	56054.95
695.77	56016.04
695.96	55776.43
696.15	56372.39
696.34	56407.20
696.53	56153.26
696.72	56399.01
696.91	56294.56
697.10	56143.02
697.29	55395.51
697.48	56431.78
697.67	56001.71
697.86	55737.52
698.05	55538.86
698.24	56325.28
698.43	55532.72
698.62	55852.20
698.81	55289.01
699.00	56235.17
699.19	55024.82
699.38	55671.98
699.57	55096.50
699.76	55911.59
699.95	55035.06
700.14	55583.92
700.32	55291.06
700.51	55315.64
700.70	55989.42
700.89	55534.77
701.08	55698.61
701.27	55059.64
701.46	55422.13
701.65	54973.63
701.84	55268.53
702.03	55606.45
702.22	55131.32
702.41	55010.49
702.60	55014.58
702.79	54787.26
702.98	54936.76
703.17	55157.94
703.35	54592.70
703.54	54543.55
703.73	55297.20
703.92	54566.08
704.11	54854.84
704.30	54629.57
704.49	54549.70
704.68	54367.43
704.87	54895.80
705.06	54375.62
705.25	54238.40
705.43	54471.87
705.62	54447.30
705.81	54529.22
706.00	54267.08
706.19	53763.28
706.38	54133.96
706.57	54654.14
706.76	53884.11
706.95	53888.20
707.14	53884.11
707.32	53722.32
707.51	53605.58
707.70	53941.45
707.89	53542.10
708.08	53040.34
708.27	53685.45
708.46	53630.16
708.65	53359.83
708.84	53679.31
709.02	53609.68
709.21	53785.80
709.40	53746.89
709.59	53761.23
709.78	53257.43
709.97	53413.07
710.16	52800.73
710.34	53179.60
710.53	53318.87
710.72	52964.57
710.91	52589.79
711.10	53484.75
711.29	53109.97
711.48	53312.72
711.66	52827.35
711.85	52321.51
712.04	52956.38
712.23	52845.79
712.42	52757.72
712.61	52475.10
712.80	52452.58
712.98	52860.12
713.17	52223.20
713.36	52473.06
713.55	52356.32
713.74	52331.75
713.93	52085.99
714.11	52575.45
714.30	52006.12
714.49	52114.66
714.68	51889.38
714.87	52108.52
715.06	52249.83
715.24	51619.05
715.43	51926.25
715.62	51221.75
715.81	51459.31
716.00	51780.84
716.18	51027.19
716.37	51315.95
716.56	51107.06
716.75	51709.16
716.94	51449.07
717.12	51168.50
717.31	51307.76
717.50	51019.00
717.69	51047.67
717.88	50705.66
718.06	51055.86
718.25	51483.89
718.44	50754.81
718.63	50877.69
718.82	50406.65
719.00	50685.18
719.19	50281.73
719.38	50345.22
719.57	50535.68
719.76	49853.70
719.94	49945.86
720.13	50148.61
720.32	50222.34
720.51	50060.55
720.69	49904.90
720.88	49796.36
721.07	49861.90
721.26	49544.46
721.44	49833.22
721.63	49399.05
721.82	49446.16
722.01	49173.78
722.20	49538.32
722.38	49220.88
722.57	48952.60
722.76	49472.78
722.95	48735.51
723.13	48743.70
723.32	48690.46
723.51	48727.32
723.70	48489.76
723.88	48864.53
724.07	48405.79
724.26	48837.91
724.44	48209.18
724.63	48733.46
724.82	48426.27
725.01	48502.04
725.19	48491.80
725.38	48219.42
725.57	47686.95
725.76	48385.31
725.94	47981.86
726.13	47981.86
726.32	48076.07
726.51	47899.94
726.69	48278.82
726.88	48319.77
727.07	48237.86
727.25	47914.28
727.44	48284.96
727.63	47908.13
727.82	47887.65
728.00	47928.61
728.19	47844.65
728.38	48334.11
728.56	47283.50
728.75	48178.46
728.94	47691.05
729.12	47961.38
729.31	48092.45
729.50	47580.46
729.69	47846.69
729.87	48074.02
730.06	47869.22
730.25	47596.84
730.43	47949.09
730.62	47195.44
730.81	47660.33
730.99	47914.28
731.18	47318.32
731.37	47732.01
731.55	47799.59
731.74	48145.70
731.93	47740.20
732.11	47523.11
732.30	47904.04
732.49	47596.84
732.67	47480.11
732.86	47232.30
733.05	47500.59
733.23	47453.48
733.42	47097.14
733.61	47617.32
733.79	47764.78
733.98	47621.42
734.17	47727.91
734.35	47277.36
734.54	47594.79
734.73	47463.72
734.91	47535.40
735.10	47086.90
735.29	47297.84
735.47	46955.83
735.66	46937.40
735.84	47291.69
736.03	46886.20
736.22	47349.04
736.40	47037.75
736.59	47486.25
736.78	47035.70
736.96	47103.28
737.15	47080.75
737.33	47129.90
737.52	46693.69
737.71	46763.32
737.89	47062.32
738.08	46808.37
738.27	46642.49
738.45	47217.97
738.64	47297.84
738.82	46875.96
739.01	46890.29
739.20	46839.09
739.38	46636.34
739.57	47256.88
739.75	46861.62
739.94	46568.76
740.13	46992.69
740.31	46781.75
740.50	46961.97
740.68	46847.29
740.87	46828.85
741.06	47004.98
741.24	46632.25
741.43	46286.14
741.61	46533.95
741.80	47027.51
741.99	46910.77
742.17	46855.48
742.36	46486.84
742.54	46554.43
742.73	46972.21
742.91	47015.22
743.10	46509.37
743.29	46896.44
743.47	47013.17
743.66	46869.81
743.84	46966.07
744.03	46761.27
744.21	46030.15
744.40	46634.30
744.59	46589.24
744.77	46052.67
744.96	46726.46
745.14	46652.73
745.33	46796.09
745.51	46130.50
745.70	46425.40
745.88	46275.90
746.07	46462.27
746.26	45995.33
746.44	46134.59
746.63	46112.06
746.81	46409.02
747.00	46091.58
747.18	46425.40
747.37	46335.29
747.55	46095.68
747.74	46583.10
747.92	46138.69
748.11	46042.43
748.29	46064.96
748.48	46054.72
748.66	46007.62
748.85	46146.88
749.03	46271.81
749.22	46118.21
749.41	46437.69
749.59	46476.60
749.78	45872.45
749.96	45389.13
750.15	45913.41
750.33	46208.32
750.52	46261.57
750.70	46302.53
750.89	45800.77
751.07	45546.82
751.26	45784.39
751.44	45610.31
751.63	45882.69
751.81	45757.77
752.00	45911.36
752.18	45856.07
752.37	46001.47
752.55	45761.86
752.74	45720.90
752.92	45548.87
753.10	45765.96
753.29	45905.22
753.47	45774.15
753.66	45196.62
753.84	45700.42
754.03	45757.77
754.21	45286.73
754.40	45669.70
754.58	45585.74
754.77	45681.99
754.95	45567.30
755.14	45176.14
755.32	46040.39
755.51	45389.13
755.69	45401.42
755.88	45677.90
756.06	45249.87
756.24	45454.67
756.43	45409.61
756.61	45677.90
756.80	45213.01
756.98	44948.82
757.17	45016.40
757.35	45012.31
757.54	45327.69
757.72	45456.71
757.90	44987.73
758.09	45137.23
758.27	45077.84
758.46	45047.12
758.64	44737.88
758.83	45391.18
759.01	45210.96
759.19	45268.30
759.38	44934.48
759.56	44735.83
759.75	44946.77
759.93	44848.47
760.12	44483.93
760.30	44905.81
760.48	45112.66
760.67	44598.62
760.85	44373.34
761.04	44641.62
761.22	44883.28
761.40	45086.03
761.59	44997.97
761.77	44430.68
761.96	44832.08
762.14	44744.02
762.32	44414.30
762.51	44342.62
762.69	44678.49
762.88	44569.94
763.06	44842.32
763.24	44852.56
763.43	44522.84
763.61	44127.58
763.80	44352.86
763.98	43832.68
764.16	44229.98
764.35	44139.87
764.53	43947.36
764.72	44158.30
764.90	44174.69
765.08	43836.77
765.27	44383.58
765.45	43898.21
765.63	43472.23
765.82	44221.79
766.00	43775.33
766.18	43498.86
766.37	43769.19
766.55	43472.23
766.74	43670.89
766.92	43591.01
767.10	43193.71
767.29	43234.67
767.47	43640.17
767.65	43537.77
767.84	42974.58
768.02	43595.11
768.20	43017.58
768.39	43353.45
768.57	42915.19
768.75	43072.88
768.94	43314.54
769.12	43070.83
769.30	42734.96
769.49	43013.49
769.67	43179.37
769.85	42997.10
770.04	43128.17
770.22	42943.86
770.40	43263.34
770.59	42489.21
770.77	42810.74
770.95	42855.79
771.14	42245.50
771.32	42603.89
771.50	42378.62
771.69	42601.85
771.87	42534.26
772.05	42661.24
772.24	41850.24
772.42	42483.06
772.60	42399.10
772.78	42296.70
772.97	41989.50
773.15	42718.58
773.33	42188.16
773.52	41817.47
773.70	42001.79
773.88	42474.87
774.07	42083.71
774.25	41747.84
774.43	41969.02
774.61	42024.32
774.80	42034.56
774.98	42485.11
775.16	41899.39
775.34	41944.45
775.53	41401.74
775.71	42317.18
775.89	42319.23
776.08	41926.02
776.26	41842.05
776.44	41999.74
776.62	42141.05
776.81	42012.03
776.99	42055.04
777.17	42169.72
777.35	42304.89
777.54	42653.05
777.72	41854.34
777.90	42081.66
778.08	41901.44
778.27	41788.80
778.45	42495.35
778.63	42579.32
778.81	41960.83
779.00	42929.52
779.18	42321.27
779.36	42694.00
779.54	42710.39
779.73	42284.41
779.91	42761.59
780.09	42300.79
780.27	42866.03
780.46	42745.20
780.64	42614.13
780.82	42278.27
781.00	42513.78
781.19	42741.11
781.37	42585.46
781.55	42575.22
781.73	42636.66
781.91	42638.71
782.10	42759.54
782.28	42935.66
782.46	42743.16
782.64	43011.44
782.82	42483.06
783.01	42640.76
783.19	42827.12
783.37	42786.16
783.55	42640.76
783.74	42894.71
783.92	42505.59
784.10	42890.61
784.28	42624.37
784.46	42493.30
784.64	42497.40
784.83	42528.12
785.01	42964.34
785.19	42708.34
785.37	42866.03
785.55	42640.76
785.74	42356.09
785.92	42114.43
786.10	42354.04
786.28	42620.28
786.46	42163.58
786.64	41860.48
786.83	41874.82
787.01	42079.61
787.19	42257.79
787.37	42550.65
787.55	41909.63
787.74	41817.47
787.92	41989.50
788.10	41518.47
788.28	41653.64
788.46	41371.02
788.64	41145.74
788.82	41880.96
789.01	41803.14
789.19	41565.57
789.37	41454.98
789.55	41119.12
789.73	41090.44
789.91	41194.89
790.09	41289.10
790.28	40951.18
790.46	40963.47
790.64	40906.13
790.82	41166.22
791.00	40711.57
791.18	40433.05
791.36	40781.20
791.55	40598.93
791.73	40588.69
791.91	40295.83
792.09	40039.84
792.27	40240.54
792.45	39828.90
792.63	40195.48
792.81	40082.84
793.00	40371.61
793.18	39914.91
793.36	39640.48
793.54	40101.28
793.72	39548.32
793.90	39441.83
794.08	39163.31
794.26	39470.50
794.44	38940.08
794.62	38643.12
794.81	38741.42
794.99	38749.62
795.17	38960.56
795.35	38972.85
795.53	38669.75
795.71	38821.30
795.89	38368.69
796.07	38137.27
796.25	38352.31
796.43	38446.52
796.61	37774.78
796.80	38041.02
796.98	37725.63
797.16	37705.15
797.34	37524.93
797.52	37164.49
797.70	37893.57
797.88	37557.70
798.06	37217.74
798.24	37408.20
798.42	37238.22
798.60	36976.08
798.78	37541.32
798.96	36967.88
799.14	36742.61
799.32	36904.40
799.51	36812.24
799.69	37064.14
799.87	36703.70
800.05	36429.27
800.23	36705.74
800.41	35810.78
800.59	36212.18
800.77	36093.40
800.95	35614.18
801.13	36046.30
801.31	35634.66
801.49	35831.26
801.67	35513.83
801.85	35657.18
802.03	35591.65
802.21	35311.08
802.39	35034.60
802.57	34960.87
802.75	35087.85
802.93	35038.70
803.11	34473.46
803.29	34813.42
803.47	34991.59
803.65	35032.55
803.83	34584.05
804.01	34770.41
804.19	34149.88
804.37	34416.11
804.55	34280.95
804.73	34401.78
804.91	34385.40
805.09	33822.20
805.27	33830.40
805.45	34049.53
805.63	33816.06
805.81	33871.36
805.99	33799.68
806.17	33779.20
806.35	33496.58
806.53	33297.92
806.71	33469.95
806.89	33500.67
807.07	33371.65
807.25	33246.72
807.43	33078.79
807.61	33547.78
807.79	33052.17
807.97	32796.17
808.15	32835.08
808.33	32734.73
808.51	32366.10
808.69	32515.60
808.87	32349.71
809.05	32212.50
809.23	32273.94
809.41	32257.56
809.59	32284.18
809.77	32267.80
809.95	32275.99
810.13	32302.61
810.31	31712.80
810.49	31874.59
810.67	31972.89
810.84	32273.94
811.02	31514.14
811.20	31370.79
811.38	31540.77
811.56	31319.59
811.74	31643.17
811.92	31477.28
812.10	31555.10
812.28	31544.86
812.46	31252.00
812.64	31069.73
812.82	30909.99
813.00	31135.27
813.18	31391.26
813.36	30709.29
813.53	31180.32
813.71	31061.54
813.89	30664.24
814.07	31045.16
814.25	30914.09
814.43	30527.02
814.61	30424.62
814.79	30324.27
814.97	30451.25
815.15	30426.67
815.33	30379.57
815.50	30029.37
815.68	30119.48
815.86	30211.64
816.04	30367.28
816.22	29953.59
816.40	30066.23
816.58	29775.42
816.76	29920.82
816.94	29765.18
817.11	29886.01
817.29	29546.05
817.47	29879.86
817.65	29613.63
817.83	29627.96
818.01	29679.16
818.19	29218.37
818.37	29347.39
818.54	29173.31
818.72	29036.10
818.90	29359.68
819.08	28999.24
819.26	29304.38
819.44	29052.48
819.62	29167.17
819.80	29210.18
819.97	29277.76
820.15	28919.37
820.33	28806.73
820.51	29066.82
820.69	28665.42
820.87	28993.09
821.05	29146.69
821.22	28757.58
821.40	28632.65
821.58	28702.28
821.76	28730.95
821.94	28542.54
822.12	28431.95
822.29	28857.93
822.47	28309.07
822.65	28268.11
822.83	28425.81
823.01	28327.50
823.19	28145.23
823.36	28128.85
823.54	28196.43
823.72	28122.71
823.90	28024.40
824.08	27864.66
824.25	27835.99
824.43	27571.80
824.61	27795.03
824.79	27905.62
824.97	27674.20
825.15	27938.39
825.32	27672.15
825.50	27651.67
825.68	27340.38
825.86	27887.19
826.04	27821.66
826.21	27760.22
826.39	27637.34
826.57	27645.53
826.75	27319.90
826.93	27352.67
827.10	27377.25
827.28	27340.38
827.46	27606.62
827.64	27272.80
827.81	27285.09
827.99	27342.43
828.17	27274.85
828.35	27041.38
828.53	26832.49
828.70	27088.48
828.88	26990.18
829.06	27008.61
829.24	27469.40
829.41	27096.67
829.59	27211.36
829.77	26943.08
829.95	27012.71
830.12	26926.69
830.30	26676.84
830.48	26805.86
830.66	26797.67
830.84	27004.52
831.01	26814.05
831.19	26617.45
831.37	26334.83
831.55	26609.26
831.72	26402.41
831.90	26345.07
832.08	26760.81
832.25	26572.39
832.43	26521.20
832.61	26502.76
832.79	26082.93
832.96	26269.30
833.14	26535.53
833.32	26570.35
833.50	26463.85
833.67	26271.34
833.85	26142.32
834.03	26324.59
834.20	26220.14
834.38	26064.50
834.56	26414.70
834.74	25818.74
834.91	26054.26
835.09	26273.39
835.27	25609.85
835.44	25896.56
835.62	25364.09
835.80	25763.45
835.98	25859.70
836.15	25888.37
836.33	25763.45
836.51	25894.52
836.68	25802.36
836.86	25929.33
837.04	25871.99
837.21	25575.03
837.39	25482.88
837.57	25747.06
837.75	25450.11
837.92	25284.22
838.10	25237.12
838.28	25386.62
838.45	25388.67
838.63	25529.98
838.81	25749.11
838.98	25515.64
839.16	25214.59
839.34	25173.63
839.51	25224.83
839.69	25220.74
839.87	25089.67
840.04	25304.70
840.22	25413.24
840.40	25267.84
840.57	25114.24
840.75	25149.06
840.93	25050.75
841.10	25312.89
841.28	25179.78
841.46	24862.34
841.63	25290.37
841.81	25093.76
841.98	25044.61
842.16	25024.13
842.34	25159.30
842.51	24884.87
842.69	25276.03
842.87	24866.44
843.04	24686.22
843.22	24628.87
843.40	24993.41
843.57	24579.72
843.75	25052.80
843.92	24876.68
844.10	24888.96
844.28	24970.88
844.45	24770.18
844.63	24946.31
844.81	24389.26
844.98	24974.98
845.16	24491.66
845.33	24505.99
845.51	24319.63
845.69	24788.61
845.86	24387.21
846.04	24495.75
846.21	24225.42
846.39	24538.76
846.57	24055.44
846.74	24516.23
846.92	24434.32
847.09	24125.07
847.27	24030.87
847.45	24258.19
847.62	24348.30
847.80	24172.18
847.97	24090.26
848.15	23891.60
848.32	24161.94
848.50	24110.74
848.68	23774.87
848.85	23844.50
849.03	23944.85
849.20	24006.29
849.38	23854.74
849.56	23907.99
849.73	23670.42
849.91	24010.39
850.08	23789.20
850.26	23531.16
850.43	23586.46
850.61	23588.50
850.78	23629.46
850.96	23844.50
851.14	23744.15
851.31	24362.64
851.49	23496.35
851.66	23498.39
851.84	23658.14
852.01	23828.12
852.19	23686.81
852.36	23572.12
852.54	23656.09
852.71	23459.48
852.89	23275.16
853.07	23432.86
853.24	23246.49
853.42	23383.71
853.59	23277.21
853.77	23051.94
853.94	23479.96
854.12	23359.13
854.29	23017.12
854.47	23357.08
854.64	23162.53
854.82	23135.90
854.99	23107.23
855.17	23127.71
855.34	23127.71
855.52	23023.26
855.69	23158.43
855.87	23058.08
856.04	22691.49
856.22	22949.54
856.39	22967.97
856.57	22902.43
856.74	22752.93
856.92	22855.33
857.09	22714.02
857.27	22759.08
857.44	22671.01
857.62	22644.39
857.79	22888.10
857.97	22517.42
858.14	22781.60
858.32	22683.30
858.49	22816.42
858.67	22838.95
858.84	22167.21
859.02	22517.42
859.19	22308.52
859.37	22322.86
859.54	22206.13
859.72	22558.38
859.89	22415.02
860.06	22539.94
860.24	22251.18
860.41	22378.15
860.59	22302.38
860.76	22288.04
860.94	22077.10
861.11	22398.63
861.29	22189.74
861.46	22038.19
861.64	21909.17
861.81	21960.37
861.98	22156.97
862.16	21722.80
862.33	21792.44
862.51	21989.04
862.68	21968.56
862.86	21735.09
863.03	21651.13
863.21	21757.62
863.38	22077.10
863.55	21620.41
863.73	21733.04
863.90	21771.96
864.08	21554.87
864.25	21792.44
864.43	21468.86
864.60	21409.47
864.77	21253.82
864.95	21685.94
865.12	21434.04
865.30	21452.47
865.47	21425.85
865.64	21415.61
865.82	21237.44
865.99	21610.17
866.17	21171.90
866.34	21477.05
866.51	21147.33
866.69	21395.13
866.86	21448.38
867.04	21237.44
867.21	21327.55
867.38	20899.52
867.56	21157.57
867.73	21053.12
867.91	20704.96
868.08	20766.40
868.25	20641.48
868.43	20639.43
868.60	20549.32
868.78	20678.34
868.95	20704.96
869.12	20604.61
869.30	20844.23
869.47	20774.60
869.64	20539.08
869.82	20559.56
869.99	20362.95
870.16	20801.22
870.34	20319.95
870.51	20621.00
870.69	20278.99
870.86	20545.22
871.03	20369.10
871.21	20072.14
871.38	20291.27
871.55	20127.44
871.73	20018.89
871.90	20158.16
872.07	20027.09
872.25	19726.04
872.42	20035.28
872.59	20102.86
872.77	19928.78
872.94	19961.55
873.11	19840.72
873.29	19992.27
873.46	19498.71
873.63	19902.16
873.81	19863.25
873.98	19498.71
874.15	19388.12
874.33	19529.43
874.50	19533.53
874.67	19365.59
874.85	19472.09
875.02	19541.72
875.19	19207.90
875.37	19185.37
875.54	19146.46
875.71	19334.87
875.88	18874.08
876.06	19162.84
876.23	19175.13
876.40	19150.56
876.58	19115.74
876.75	18999.01
876.92	19003.10
877.10	18982.62
877.27	18669.28
877.44	18648.80
877.61	18706.15
877.79	18499.30
877.96	18474.73
878.13	18489.06
878.31	18407.14
878.48	18425.57
878.65	18366.18
878.82	18425.57
879.00	18751.20
879.17	18423.53
879.34	18618.08
879.51	18575.08
879.69	17913.58
879.86	17944.30
880.03	18138.86
880.21	18040.56
880.38	18142.96
880.55	18132.72
880.72	18216.68
880.90	18018.03
881.07	17938.16
881.24	17802.99
881.41	17925.87
881.59	18030.32
881.76	17796.85
881.93	18106.09
882.10	17452.79
882.28	17655.54
882.45	17968.88
882.62	17817.33
882.79	18042.60
882.96	17426.17
883.14	17463.03
883.31	17919.73
883.48	17727.22
883.65	17532.66
883.83	17686.26
884.00	17399.54
884.17	17671.92
884.34	17557.24
884.51	17415.93
884.69	17434.36
884.86	17258.23
885.03	17454.84
885.20	17020.67
885.38	17508.08
885.55	17186.55
885.72	17393.40
885.89	17198.84
886.06	17194.75
886.24	17137.40
886.41	17143.55
886.58	17309.43
886.75	17434.36
886.92	16592.64
887.10	16963.33
887.27	16946.94
887.44	16998.14
887.61	17053.44
887.78	16975.61
887.95	16887.55
888.13	16639.75
888.30	16748.29
888.47	16887.55
888.64	16549.64
888.81	16856.83
888.99	16772.86
889.16	16408.33
889.33	16389.89
889.50	16387.85
889.67	16398.09
889.84	16488.20
890.01	16412.42
890.19	16279.30
890.36	16473.86
890.53	16557.83
890.70	16207.62
890.87	16224.01
891.04	16303.88
891.22	16375.56
891.39	16131.85
891.56	16084.75
891.73	16240.39
891.90	15994.64
892.07	15982.35
892.24	15904.53
892.42	15992.59
892.59	15750.93
892.76	15888.14
892.93	15892.24
893.10	15937.29
893.27	15834.89
893.44	15648.53
893.61	15660.82
893.79	15984.40
893.96	15822.61
894.13	15822.61
894.30	15812.37
894.47	15787.79
894.64	15861.52
894.81	15662.86
894.98	15787.79
895.15	15755.02
895.33	15623.95
895.50	15650.58
895.67	15890.19
895.84	15566.61
896.01	15591.19
896.18	15675.15
896.35	15724.30
896.52	15675.15
896.69	15433.49
896.86	15376.15
897.04	15634.19
897.21	15359.77
897.38	15417.11
897.55	15621.91
897.72	15513.36
897.89	15675.15
898.06	15433.49
898.23	15372.05
898.40	15513.36
898.57	15552.27
898.74	15521.56
898.91	15327.00
899.08	15466.26
899.26	15456.02
899.43	15488.79
899.60	15417.11
899.77	15351.57
899.94	15310.61
900.11	15048.47
900.28	15345.43
900.45	15302.42
900.62	15126.30
900.79	15269.66
900.96	15234.84
901.13	15372.05
901.30	15361.81
901.47	15296.28
901.64	15404.82
901.81	15167.26
901.98	15208.22
902.15	15308.57
902.32	15193.88
902.49	15488.79
902.66	15238.94
902.83	15193.88
903.01	15038.23
903.18	15056.67
903.35	15224.60
903.52	15011.61
903.69	15218.46
903.86	15058.71
904.03	15161.11
904.20	15476.50
904.37	15370.01
904.54	14944.03
904.71	15050.52
904.88	14995.23
905.05	15177.50
905.22	15290.13
905.39	15027.99
905.56	15073.05
905.73	15003.42
905.90	14862.11
906.07	15060.76
906.24	15064.86
906.41	14831.39
906.58	15013.66
906.75	15134.49
906.92	14853.92
907.09	15257.37
907.26	14941.98
907.43	15021.85
907.60	15097.63
907.77	15017.75
907.93	14929.69
908.10	14864.16
908.27	15249.18
908.44	14626.59
908.61	14931.74
908.78	14640.93
908.95	14913.31
909.12	15003.42
909.29	14823.20
909.46	15021.85
909.63	14974.75
909.80	14946.08
909.97	14790.43
910.14	14927.64
910.31	14765.85
910.48	14888.73
910.65	14870.30
910.82	14618.40
910.99	14864.16
911.16	14479.14
911.33	14624.54
911.50	14577.44
911.66	14810.91
911.83	14741.28
912.00	14544.67
912.17	14356.26
912.34	14251.81
912.51	14466.85
912.68	14614.30
912.85	14429.99
913.02	14624.54
913.19	14333.73
913.36	14464.80
913.53	14470.95
913.70	14268.20
913.86	14466.85
914.03	14124.84
914.20	14362.40
914.37	14255.91
914.54	14184.23
914.71	14128.94
914.88	14208.81
915.05	14122.79
915.22	13907.76
915.39	13987.63
915.55	14085.93
915.72	14051.11
915.89	13956.91
916.06	13680.43
916.23	13979.43
916.40	13647.66
916.57	13700.91
916.74	13866.80
916.91	13680.43
917.07	13535.03
917.24	13610.80
917.41	13639.47
917.58	13676.34
917.75	13449.01
917.92	13471.54
918.09	13600.56
918.26	13483.83
918.42	13565.74
918.59	13575.98
918.76	13244.21
918.93	13375.28
919.10	13000.51
919.27	13201.21
919.44	13133.62
919.60	13293.37
919.77	13133.62
919.94	13254.45
920.11	13063.99
920.28	12820.28
920.45	12869.44
920.61	12730.17
920.78	12676.93
920.95	12678.97
921.12	12648.26
921.29	12894.01
921.46	12705.60
921.62	12685.12
921.79	12713.79
921.96	12508.99
922.13	12549.95
922.30	12230.47
922.47	12392.26
922.63	12228.42
922.80	12353.35
922.97	12306.24
923.14	12123.98
923.31	12216.13
923.47	12197.70
923.64	12394.31
923.81	11878.22
923.98	11931.47
924.15	11843.40
924.32	11929.42
924.48	11814.73
924.65	12027.72
924.82	11558.74
924.99	11906.89
925.15	11671.37
925.32	11992.90
925.49	11538.26
925.66	11601.74
925.83	11431.76
925.99	11558.74
926.16	11667.28
926.33	11691.85
926.50	11462.48
926.67	11485.01
926.83	11360.08
927.00	11411.28
927.17	11157.33
927.34	11132.76
927.50	11018.07
927.67	11153.24
927.84	11104.09
928.01	11034.46
928.17	11034.46
928.34	11183.96
928.51	10776.41
928.68	10717.02
928.84	10473.31
929.01	10624.86
929.18	10710.88
929.35	10571.61
929.51	10602.33
929.68	10655.58
929.85	10493.79
930.02	10649.44
930.18	10434.40
930.35	10415.97
930.52	10456.93
930.69	10293.09
930.85	10268.52
931.02	10055.53
931.19	10096.49
931.36	10067.81
931.52	10123.11
931.69	10180.45
931.86	9856.87
932.02	10071.91
932.19	9992.04
932.36	9895.78
932.53	10100.58
932.69	9588.59
932.86	9924.46
933.03	9754.48
933.19	9527.15
933.36	9582.45
933.53	9609.07
933.70	9559.92
933.86	9428.85
934.03	9373.55
934.20	9285.49
934.36	9240.44
934.53	9056.12
934.70	9152.37
934.86	9269.11
935.03	8996.73
935.20	9117.56
935.36	9088.89
935.53	8830.84
935.70	8664.96
935.86	8834.94
936.03	8664.96
936.20	8425.34
936.36	8576.89
936.53	8599.42
936.70	8279.94
936.86	8589.18
937.03	8402.82
937.20	8105.86
937.36	8251.27
937.53	7866.25
937.70	7944.07
937.86	7964.55
938.03	7759.75
938.20	7710.60
938.36	7620.49
938.53	7579.53
938.70	7389.07
938.86	7348.11
939.03	7337.87
939.20	7212.95
939.36	7159.70
939.53	7049.11
939.70	7348.11
939.86	6864.79
940.03	6838.17
940.19	6743.96
940.36	6705.05
940.53	6762.39
940.69	6504.35
940.86	6502.30
941.03	6664.09
941.19	6297.50
941.36	6303.65
941.52	6281.12
941.69	6135.71
941.86	6102.95
942.02	6164.39
942.19	6213.54
942.35	5990.31
942.52	5975.97
942.69	5984.16
942.85	5918.63
943.02	5930.92
943.18	5857.19
943.35	5713.83
943.52	5853.09
943.68	5681.07
943.85	5607.34
944.01	5574.57
944.18	5574.57
944.35	5613.48
944.51	5543.85
944.68	5521.32
944.84	5218.22
945.01	5476.27
945.17	5437.36
945.34	5433.26
945.51	5392.30
945.67	5466.03
945.84	5531.56
946.00	5203.89
946.17	5353.39
946.33	5328.81
946.50	5369.77
946.67	5382.06
946.83	5345.20
947.00	5341.10
947.16	5271.47
947.33	5275.57
947.49	5238.70
947.66	5312.43
947.82	5318.57
947.99	5224.37
948.16	5259.18
948.32	5246.90
948.49	5281.71
948.65	5244.85
948.82	5222.32
948.98	5287.86
949.15	5275.57
949.31	5476.27
949.48	5205.94
949.64	5343.15
949.81	5326.77
949.97	5236.66
950.14	5371.82
950.30	5224.37
950.47	5466.03
950.63	5353.39
950.80	5296.05
950.96	5302.19
951.13	5265.33
951.30	5365.68
951.46	5332.91
951.63	5353.39
951.79	5296.05
951.96	5435.31
952.12	5339.05
952.29	5320.62
952.45	5330.86
952.62	5396.40
952.78	5480.36
952.94	5459.88
953.11	5414.83
953.27	5418.93
953.44	5476.27
953.60	5492.65
953.77	5375.92
953.93	5408.69
954.10	5504.94
954.26	5386.16
954.43	5425.07
954.59	5472.17
954.76	5541.80
954.92	5533.61
955.09	5351.34
955.25	5443.50
955.42	5466.03
955.58	5607.34
955.75	5525.42
955.91	5480.36
956.07	5535.66
956.24	5521.32
956.40	5580.71
956.57	5615.53
956.73	5517.23
956.90	5488.56
957.06	5373.87
957.23	5506.99
957.39	5496.75
957.56	5427.12
957.72	5574.57
957.88	5445.55
958.05	5769.13
958.21	5642.15
958.38	5457.84
958.54	5607.34
958.71	5705.64
958.87	5595.05
959.03	5533.61
959.20	5476.27
959.36	5343.15
959.53	5466.03
959.69	5439.40
959.85	5636.01
960.02	5509.04
960.18	5541.80
960.35	5558.19
960.51	5629.87
960.68	5412.78
960.84	5496.75
961.00	5533.61
961.17	5375.92
961.33	5562.28
961.50	5484.46
961.66	5603.24
961.82	5453.74
961.99	5431.21
962.15	5535.66
962.31	5554.09
962.48	5494.70
962.64	5574.57
962.81	5578.67
962.97	5611.43
963.13	5638.06
963.30	5547.95
963.46	5515.18
963.62	5402.54
963.79	5439.40
963.95	5341.10
964.12	5533.61
964.28	5517.23
964.44	5355.44
964.61	5490.60
964.77	5453.74
964.93	5724.07
965.10	5355.44
965.26	5418.93
965.42	5392.30
965.59	5433.26
965.75	5408.69
965.92	5550.00
966.08	5289.90
966.24	5234.61
966.41	5267.38
966.57	5377.97
966.73	5455.79
966.90	5470.12
967.06	5324.72
967.22	5300.14
967.39	5320.62
967.55	5212.08
967.71	5365.68
967.88	5371.82
968.04	5230.51
968.20	5158.83
968.37	5326.77
968.53	5187.50
968.69	5230.51
968.85	5267.38
969.02	5304.24
969.18	5236.66
969.34	5220.27
969.51	5380.01
969.67	5148.59
969.83	5119.92
970.00	5337.01
970.16	5267.38
970.32	5244.85
970.48	5326.77
970.65	5148.59
970.81	4947.89
970.97	5269.42
971.14	5001.14
971.30	5367.73
971.46	5093.30
971.63	5095.35
971.79	5197.74
971.95	5132.21
972.11	5017.52
972.28	5154.74
972.44	5175.22
972.60	4870.07
972.76	5236.66
972.93	4997.04
973.09	4927.41
973.25	5095.35
973.42	4988.85
973.58	5093.30
973.74	4958.13
973.90	5011.38
974.07	4837.30
974.23	5103.54
974.39	4970.42
974.55	5013.43
974.72	5033.91
974.88	4841.40
975.04	4863.93
975.20	4831.16
975.37	5023.67
975.53	4925.36
975.69	4935.60
975.85	4839.35
976.01	4730.81
976.18	4804.53
976.34	4671.42
976.50	4763.58
976.66	4829.11
976.83	4958.13
976.99	4839.35
977.15	4816.82
977.31	4691.90
977.47	4761.53
977.64	4724.66
977.80	4624.31
977.96	4724.66
978.12	4712.38
978.29	4663.22
978.45	4689.85
978.61	4638.65
978.77	4734.90
978.93	4573.11
979.10	4642.75
979.26	4728.76
979.42	4691.90
979.58	4523.96
979.74	4476.86
979.91	4739.00
980.07	4476.86
980.23	4575.16
980.39	4538.30
980.55	4566.97
980.71	4638.65
980.88	4550.59
981.04	4583.35
981.20	4534.20
981.36	4511.68
981.52	4564.92
981.68	4485.05
981.85	4521.92
982.01	4431.80
982.17	4325.31
982.33	4468.67
982.49	4489.15
982.65	4386.75
982.82	4409.28
982.98	4343.74
983.14	4294.59
983.30	4466.62
983.46	4495.29
983.62	4388.80
983.79	4368.32
983.95	4343.74
984.11	4169.66
984.27	4360.13
984.43	4270.01
984.59	4360.13
984.75	4278.21
984.91	4206.53
985.08	4278.21
985.24	4280.25
985.40	4134.85
985.56	4212.67
985.72	4171.71
985.88	4239.30
986.04	4214.72
986.20	4065.22
986.37	4202.43
986.53	4071.36
986.69	4134.85
986.85	4089.79
987.01	4050.88
987.17	4206.53
987.33	4069.31
987.49	4065.22
987.65	4235.20
987.82	4046.79
987.98	4001.73
988.14	4100.03
988.30	4038.59
988.46	3938.24
988.62	4032.45
988.78	4024.26
988.94	3934.15
989.10	4014.02
989.26	3919.81
989.42	3989.44
989.59	3841.99
989.75	3819.46
989.91	3903.43
990.07	3821.51
990.23	3819.46
990.39	3889.09
990.55	3887.04
990.71	3788.74
990.87	3856.33
991.03	3925.96
991.19	3743.69
991.35	3925.96
991.51	3944.39
991.67	3950.53
991.83	3780.55
992.00	3801.03
992.16	3901.38
992.32	3936.20
992.48	3809.22
992.64	3741.64
992.80	3751.88
992.96	3811.27
993.12	3702.73
993.28	3829.70
993.44	3614.66
993.60	3796.93
993.76	3753.93
993.92	3846.09
994.08	3678.15
994.24	3770.31
994.40	3592.14
994.56	3737.54
994.72	3612.62
994.88	3690.44
995.04	3600.33
995.20	3506.12
995.36	3606.47
995.52	3618.76
995.68	3608.52
995.84	3577.80
996.00	3592.14
996.16	3526.60
996.32	3618.76
996.48	3526.60
996.64	3676.10
996.80	3510.22
996.96	3499.98
997.12	3499.98
997.28	3497.93
997.44	3506.12
997.60	3440.59
997.76	3465.16
997.92	3469.26
998.08	3514.31
998.24	3334.09
998.40	3493.83
998.56	3461.07
998.72	3327.95
998.88	3473.36
999.04	3354.57
999.20	3499.98
999.36	3381.20
999.52	3465.16
999.68	3418.06
999.84	3469.26
1000.00	3350.48
1000.16	3413.96
1000.32	3211.22
1000.48	3536.84
1000.64	3239.89
1000.80	3227.60
1000.95	3250.13
1001.11	3393.48
1001.27	3215.31
1001.43	3243.98
1001.59	3297.23
1001.75	3123.15
1001.91	3235.79
1002.07	3198.93
1002.23	3198.93
1002.39	3215.31
1002.55	3241.93
1002.71	3069.91
1002.87	3147.73
1003.03	3182.54
1003.19	3137.49
1003.34	3184.59
1003.50	3213.26
1003.66	3168.21
1003.82	3198.93
1003.98	3131.34
1004.14	3088.34
1004.30	3067.86
1004.46	3055.57
1004.62	3037.14
1004.78	3061.71
1004.94	3028.95
1005.09	2994.13
1005.25	2953.17
1005.41	3024.85
1005.57	2975.70
1005.73	3059.67
1005.89	2938.84
1006.05	3000.27
1006.21	3092.43
1006.37	2926.55
1006.52	2955.22
1006.68	2910.16
1006.84	2926.55
1007.00	2803.67
1007.16	3024.85
1007.32	2906.07
1007.48	2918.36
1007.64	2918.36
1007.79	2908.12
1007.95	2840.53
1008.11	2973.65
1008.27	2887.64
1008.43	2842.58
1008.59	2889.68
1008.75	2901.97
1008.91	2920.40
1009.06	2805.72
1009.22	3016.66
1009.38	2885.59
1009.54	2856.92
1009.70	2744.28
1009.86	2842.58
1010.01	2920.40
1010.17	2793.43
1010.33	2871.25
1010.49	2785.24
1010.65	2822.10
1010.81	2795.48
1010.96	2770.90
1011.12	2764.76
1011.28	2717.65
1011.44	2758.61
1011.60	2695.13
1011.76	2734.04
1011.91	2721.75
1012.07	2629.59
1012.23	2607.06
1012.39	2746.33
1012.55	2691.03
1012.71	2564.06
1012.86	2623.45
1013.02	2682.84
1013.18	2602.97
1013.34	2738.13
1013.50	2691.03
1013.65	2707.41
1013.81	2629.59
1013.97	2562.01
1014.13	2580.44
1014.29	2631.64
1014.44	2811.86
1014.60	2607.06
1014.76	2539.48
1014.92	2625.50
1015.07	2559.96
1015.23	2641.88
1015.39	2523.10
1015.55	2578.39
1015.71	2486.23
1015.86	2535.39
1016.02	2600.92
1016.18	2553.82
1016.34	2531.29
1016.49	2508.76
1016.65	2582.49
1016.81	2496.47
1016.97	2508.76
1017.12	2523.10
1017.28	2420.70
1017.44	2512.86
1017.60	2461.66
1017.75	2387.93
1017.91	2424.80
1018.07	2396.12
1018.23	2490.33
1018.38	2363.36
1018.54	2439.13
1018.70	2447.32
1018.86	2326.49
1019.01	2408.41
1019.17	2420.70
1019.33	2514.91
1019.49	2361.31
1019.64	2457.56
1019.80	2469.85
1019.96	2473.95
1020.12	2586.58
1020.27	2351.07
1020.43	2346.97
1020.59	2447.32
1020.74	2312.16
1020.90	2416.60
1021.06	2406.36
1021.22	2355.16
1021.37	2346.97
1021.53	2320.35
1021.69	2346.97
1021.84	2297.82
1022.00	2293.72
1022.16	2346.97
1022.31	2353.12
1022.47	2338.78
1022.63	2312.16
1022.79	2164.70
1022.94	2215.90
1023.10	2373.60
1023.26	2265.05
1023.41	2318.30
1023.57	2162.66
1023.73	2252.77
1023.88	2273.25
1024.04	2205.66
1024.20	2301.92
1024.35	2263.01
1024.51	2246.62
1024.67	2230.24
1024.82	2332.64
1024.98	2193.37
1025.14	2224.09
1025.29	2279.39
1025.45	2295.77
1025.61	2121.70
1025.76	2217.95
1025.92	2303.96
1026.08	2203.61
1026.23	2301.92
1026.39	2250.72
1026.55	2113.50
1026.70	2207.71
1026.86	2162.66
1027.02	2199.52
1027.17	2199.52
1027.33	2252.77
1027.48	2166.75
1027.64	2090.98
1027.80	2183.13
1027.95	2199.52
1028.11	2136.03
1028.27	2146.27
1028.42	2205.66
1028.58	2105.31
1028.73	2174.94
1028.89	2031.58
1029.05	2199.52
1029.20	2191.33
>>>>>End Processed Spectral Data<<<<<
