SpectraSuite Data File
++++++++++++++++++++++++++++++++++++
Date: Fri Jun 02 14:44:34 CEST 2017
User: INFO_000
Dark Spectrum Present: No
Reference Spectrum Present: No
Number of Sampled Component Spectra: 1
Spectrometers: USB4H00879
Integration Time (usec): 80000 (USB4H00879)
Spectra Averaged: 1 (USB4H00879)
Boxcar Smoothing: 0 (USB4H00879)
Correct for Electrical Dark: No (USB4H00879)
Strobe/Lamp Enabled: No (USB4H00879)
Correct for Detector Non-linearity: No (USB4H00879)
Correct for Stray Light: No (USB4H00879)
Number of Pixels in Processed Spectrum: 3648
>>>>>Begin Processed Spectral Data<<<<<
345.13	1312.75
345.34	1312.75
345.56	1312.75
345.78	1241.07
345.99	1302.51
346.21	1736.68
346.42	1607.66
346.64	1681.38
346.86	1726.44
347.07	1609.70
347.29	1705.96
347.50	1687.53
347.72	1646.57
347.94	1738.73
348.15	1542.12
348.37	1578.98
348.59	1738.73
348.80	1656.81
349.02	1855.46
349.23	1826.79
349.45	1812.45
349.67	1875.94
349.88	1812.45
350.10	1923.04
350.31	1880.04
350.53	1861.60
350.75	1918.95
350.96	1869.80
351.18	1863.65
351.39	1832.93
351.61	1830.88
351.82	1920.99
352.04	1937.38
352.26	1773.54
352.47	1888.23
352.69	1935.33
352.90	1703.91
353.12	1853.41
353.34	1822.69
353.55	1906.66
353.77	1771.49
353.98	1929.19
354.20	1785.83
354.41	2047.97
354.63	1949.67
354.85	2000.87
355.06	1925.09
355.28	1814.50
355.49	1888.23
355.71	1910.75
355.92	1859.56
356.14	1923.04
356.35	1886.18
356.57	1839.08
356.79	1867.75
357.00	1839.08
357.22	1863.65
357.43	1837.03
357.65	1976.29
357.86	1859.56
358.08	1888.23
358.29	1945.57
358.51	1990.63
358.72	1980.39
358.94	1935.33
359.16	1925.09
359.37	1935.33
359.59	1912.80
359.80	1961.95
360.02	1964.00
360.23	1984.48
360.45	1996.77
360.66	1964.00
360.88	1845.22
361.09	1892.32
361.31	2050.02
361.52	1875.94
361.74	1972.19
361.95	2082.78
362.17	1929.19
362.38	2095.07
362.60	1957.86
362.81	2019.30
363.03	1929.19
363.24	1902.56
363.46	1990.63
363.67	2017.25
363.89	2025.44
364.10	1966.05
364.32	2027.49
364.53	2080.74
364.75	1873.89
364.96	2066.40
365.18	2002.91
365.39	1992.67
365.61	2015.20
365.82	2119.65
366.04	2002.91
366.25	1908.71
366.47	2043.87
366.68	1978.34
366.90	1951.71
367.11	2101.22
367.33	2074.59
367.54	2078.69
367.76	2000.87
367.97	2052.06
368.19	2056.16
368.40	2119.65
368.62	2045.92
368.83	2004.96
369.05	2045.92
369.26	2017.25
369.48	1949.67
369.69	1998.82
369.91	2111.46
370.12	2060.26
370.33	2203.61
370.55	1947.62
370.76	1992.67
370.98	2027.49
371.19	2064.35
371.41	1964.00
371.62	2000.87
371.84	1996.77
372.05	2195.42
372.27	2148.32
372.48	2105.31
372.69	2056.16
372.91	2107.36
373.12	2181.09
373.34	2170.85
373.55	2115.55
373.77	2176.99
373.98	2117.60
374.20	2217.95
374.41	2271.20
374.62	2115.55
374.84	2156.51
375.05	2236.38
375.27	2185.18
375.48	2166.75
375.70	2183.13
375.91	2195.42
376.12	2275.29
376.34	2066.40
376.55	2215.90
376.77	2236.38
376.98	2154.46
377.19	2199.52
377.41	2138.08
377.62	2248.67
377.84	2283.49
378.05	2371.55
378.27	2164.70
378.48	2258.91
378.69	2318.30
378.91	2301.92
379.12	2303.96
379.34	2220.00
379.55	2351.07
379.76	2199.52
379.98	2197.47
380.19	2295.77
380.41	2322.40
380.62	2306.01
380.83	2240.48
381.05	2256.86
381.26	2430.94
381.47	2291.68
381.69	2246.62
381.90	2449.37
382.12	2385.88
382.33	2281.44
382.54	2232.29
382.76	2226.14
382.97	2207.71
383.19	2254.81
383.40	2361.31
383.61	2396.12
383.83	2213.85
384.04	2301.92
384.25	2389.98
384.47	2416.60
384.68	2363.36
384.89	2299.87
385.11	2258.91
385.32	2299.87
385.54	2330.59
385.75	2381.79
385.96	2383.84
386.18	2336.73
386.39	2453.47
386.60	2445.27
386.82	2441.18
387.03	2469.85
387.24	2383.84
387.46	2404.32
387.67	2508.76
387.88	2521.05
388.10	2467.80
388.31	2432.99
388.52	2557.91
388.74	2498.52
388.95	2424.80
389.16	2553.82
389.38	2555.86
389.59	2609.11
389.80	2625.50
390.02	2549.72
390.23	2613.21
390.44	2521.05
390.66	2586.58
390.87	2519.00
391.08	2590.68
391.30	2662.36
391.51	2680.79
391.72	2672.60
391.94	2643.93
392.15	2596.82
392.36	2635.74
392.58	2584.54
392.79	2803.67
393.00	2699.22
393.22	2680.79
393.43	2664.41
393.64	2775.00
393.85	2764.76
394.07	2670.55
394.28	2731.99
394.49	2781.14
394.71	2709.46
394.92	2820.05
395.13	2766.81
395.35	2875.35
395.56	2758.61
395.77	2815.96
395.98	2873.30
396.20	2838.48
396.41	2893.78
396.62	2920.40
396.84	2883.54
397.05	2826.20
397.26	2912.21
397.47	3000.27
397.69	2877.40
397.90	2969.55
398.11	2861.01
398.32	2899.92
398.54	2783.19
398.75	2783.19
398.96	2944.98
399.18	3133.39
399.39	2801.62
399.60	3078.10
399.81	2922.45
400.03	3010.51
400.24	3256.27
400.45	3024.85
400.66	3069.91
400.88	3039.19
401.09	3172.30
401.30	3082.19
401.51	3162.06
401.73	3143.63
401.94	3147.73
402.15	3096.53
402.36	3123.15
402.58	3153.87
402.79	3196.88
403.00	3176.40
403.21	3180.50
403.43	3274.70
403.64	3278.80
403.85	3086.29
404.06	3278.80
404.27	3119.06
404.49	3262.41
404.70	3078.10
404.91	3192.78
405.12	3276.75
405.34	3231.69
405.55	3313.61
405.76	3041.23
405.97	3215.31
406.19	3422.16
406.40	3211.22
406.61	3321.81
406.82	3303.37
407.03	3233.74
407.25	3205.07
407.46	3450.83
407.67	3442.64
407.88	3442.64
408.09	3362.76
408.31	3379.15
408.52	3364.81
408.73	3381.20
408.94	3293.13
409.15	3362.76
409.37	3489.74
409.58	3508.17
409.79	3551.18
410.00	3565.51
410.21	3495.88
410.43	3452.88
410.64	3477.45
410.85	3514.31
411.06	3485.64
411.27	3471.31
411.48	3561.42
411.70	3549.13
411.91	3545.03
412.12	3631.05
412.33	3581.90
412.54	3583.95
412.76	3682.25
412.97	3643.34
413.18	3606.47
413.39	3583.95
413.60	3731.40
413.81	3745.73
414.03	3583.95
414.24	3672.01
414.45	3850.18
414.66	3499.98
414.87	3784.65
415.08	3702.73
415.30	3776.45
415.51	3868.61
415.72	3749.83
415.93	3878.85
416.14	3907.52
416.35	3778.50
416.56	3833.80
416.78	3893.19
416.99	3911.62
417.20	3858.37
417.41	3952.58
417.62	3928.00
417.83	3962.82
418.04	3848.13
418.26	3880.90
418.47	3868.61
418.68	3991.49
418.89	3948.48
419.10	4147.14
419.31	4003.78
419.52	4081.60
419.73	4009.92
419.95	4136.90
420.16	4028.35
420.37	4091.84
420.58	4108.23
420.79	4050.88
421.00	4083.65
421.21	4218.82
421.42	4161.47
421.63	4214.72
421.85	4136.90
422.06	4216.77
422.27	4120.51
422.48	4235.20
422.69	4296.64
422.90	4327.36
423.11	4368.32
423.32	4284.35
423.53	4433.85
423.75	4480.96
423.96	4507.58
424.17	4452.28
424.38	4626.36
424.59	4618.17
424.80	4624.31
425.01	4548.54
425.22	4454.33
425.43	4450.24
425.64	4585.40
425.85	4650.94
426.06	4630.46
426.28	4609.98
426.49	4657.08
426.70	4542.39
426.91	4663.22
427.12	4683.70
427.33	4712.38
427.54	4564.92
427.75	4685.75
427.96	4919.22
428.17	4675.51
428.38	4767.67
428.59	4931.51
428.80	4771.77
429.01	4820.92
429.23	4683.70
429.44	4843.45
429.65	5023.67
429.86	5013.43
430.07	4800.44
430.28	4892.60
430.49	4997.04
430.70	5089.20
430.91	5015.48
431.12	5050.29
431.33	5142.45
431.54	5291.95
431.75	5074.87
431.96	5021.62
432.17	5078.96
432.38	5052.34
432.59	5273.52
432.80	5390.25
433.01	5203.89
433.22	5212.08
433.43	5269.42
433.64	5164.98
433.85	5197.74
434.06	5394.35
434.27	5246.90
434.49	5466.03
434.70	5482.41
434.91	5498.80
435.12	5449.64
435.33	5443.50
435.54	5588.91
435.75	5244.85
435.96	5478.32
436.17	5343.15
436.38	5603.24
436.59	5599.15
436.80	5562.28
437.01	5697.45
437.22	5738.41
437.43	5574.57
437.64	5439.40
437.85	5654.44
438.06	5849.00
438.27	5638.06
438.48	5681.07
438.69	5877.67
438.90	5816.23
439.11	5715.88
439.32	5826.47
439.53	5953.45
439.74	6031.27
439.95	5955.49
440.16	5801.90
440.37	6123.43
440.57	5748.65
440.78	6088.61
440.99	5967.78
441.20	6125.47
441.41	5918.63
441.62	6131.62
441.83	5846.95
442.04	6180.77
442.25	6215.59
442.46	6160.29
442.67	6274.98
442.88	6621.08
443.09	6258.59
443.30	6307.74
443.51	6246.30
443.72	6637.47
443.93	6164.39
444.14	6502.30
444.35	6336.42
444.56	6555.55
444.77	6424.48
444.98	6449.05
445.19	6434.72
445.40	6692.76
445.61	6363.04
445.81	6510.49
446.02	6524.83
446.23	6440.86
446.44	6514.59
446.65	6653.85
446.86	6598.56
447.07	6680.47
447.28	6739.87
447.49	6715.29
447.70	6616.99
447.91	6780.82
448.12	6766.49
448.33	6832.02
448.54	6842.26
448.74	6858.65
448.95	6924.18
449.16	6815.64
449.37	7049.11
449.58	6885.27
449.79	7344.02
450.00	6946.71
450.21	6938.52
450.42	7163.79
450.63	7057.30
450.84	7083.92
451.05	7128.98
451.25	7088.02
451.46	6920.09
451.67	7298.96
451.88	7532.43
452.09	7196.56
452.30	7030.68
452.51	7196.56
452.72	7372.69
452.93	7544.72
453.13	7227.28
453.34	7249.81
453.55	7282.58
453.76	7346.06
453.97	7669.64
454.18	7458.70
454.39	7575.44
454.60	7485.33
454.81	7460.75
455.01	7714.70
455.22	7444.37
455.43	7706.51
455.64	7726.99
455.85	7786.38
456.06	8066.95
456.27	7782.28
456.48	7686.03
456.68	7839.62
456.89	7899.02
457.10	8069.00
457.31	8200.07
457.52	7829.38
457.73	8187.78
457.94	8361.86
458.14	7749.51
458.35	8347.52
458.56	8105.86
458.77	8085.38
458.98	8296.32
459.19	8275.84
459.39	8441.73
459.60	8621.95
459.81	8363.90
460.02	8488.83
460.23	8269.70
460.44	8902.52
460.65	8675.20
460.85	8742.78
461.06	8544.13
461.27	8531.84
461.48	8933.24
461.69	8783.74
461.89	8664.96
462.10	8812.41
462.31	8613.76
462.52	8859.51
462.73	8986.49
462.94	9088.89
463.14	9097.08
463.35	9142.13
463.56	9498.48
463.77	9396.08
463.98	9078.65
464.18	9242.48
464.39	9680.75
464.60	9572.21
464.81	9504.62
465.02	9426.80
465.23	9678.70
465.43	9564.01
465.64	9850.73
465.85	9820.01
466.06	9584.49
466.27	9963.37
466.47	10108.77
466.68	10004.33
466.89	10000.23
467.10	10252.13
467.30	10012.52
467.51	10217.32
467.72	10385.25
467.93	10243.94
468.14	10286.95
468.34	10583.90
468.55	10544.99
468.76	10694.49
468.97	10426.21
469.17	10940.25
469.38	10848.09
469.59	11110.23
469.80	10721.12
470.01	10995.54
470.21	11011.93
470.42	11347.79
470.63	11239.25
470.84	11159.38
471.04	11394.90
471.25	11364.18
471.46	11464.53
471.67	11822.92
471.87	11507.54
472.08	11767.63
472.29	12027.72
472.50	11587.41
472.70	11859.79
472.91	11900.75
473.12	12019.53
473.33	12109.64
473.53	12261.19
473.74	12103.50
473.95	12631.87
474.16	12648.26
474.36	12570.43
474.57	12744.51
474.78	13047.61
474.99	12699.45
475.19	12859.20
475.40	13068.09
475.61	13186.87
475.81	13315.89
476.02	13340.47
476.23	13233.97
476.44	13686.58
476.64	13911.85
476.85	13918.00
477.06	13610.80
477.27	13819.69
477.47	14040.87
477.68	13940.52
477.89	14124.84
478.09	14153.51
478.30	14077.74
478.51	14223.14
478.71	14384.93
478.92	14401.32
479.13	14567.20
479.34	15060.76
479.54	14837.53
479.75	14896.92
479.96	15005.47
480.16	15097.63
480.37	15216.41
480.58	15386.39
480.78	15396.63
480.99	15363.86
481.20	15626.00
481.41	15734.54
481.61	15843.09
481.82	15748.88
482.03	15785.74
482.23	15845.13
482.44	16305.93
482.65	16131.85
482.85	16316.17
483.06	16353.03
483.27	16066.31
483.47	16322.31
483.68	16297.74
483.89	16416.52
484.09	16647.94
484.30	16787.20
484.51	16824.06
484.71	16994.04
484.92	17045.24
485.13	17270.52
485.33	17231.61
485.54	17071.87
485.75	17405.69
485.95	17665.78
486.16	17645.30
486.37	17692.40
486.57	17446.65
486.78	17716.98
486.98	17821.42
487.19	17954.54
487.40	18147.05
487.60	17987.31
487.81	18286.31
488.02	18317.03
488.22	18382.57
488.43	18552.55
488.64	18470.63
488.84	18765.54
489.05	18687.71
489.25	18736.87
489.46	19003.10
489.67	18794.21
489.87	19074.78
490.08	19381.98
490.29	19078.88
490.49	19576.53
490.70	19287.77
490.90	19291.87
491.11	19627.73
491.32	19832.53
491.52	19689.17
491.73	19590.87
491.94	19701.46
492.14	19789.52
492.35	19953.36
492.55	20227.79
492.76	20246.22
492.97	20551.37
493.17	19986.13
493.38	20207.31
493.58	20516.55
493.79	20764.36
494.00	20504.26
494.20	20543.17
494.41	20702.92
494.61	21016.26
494.82	20854.47
495.02	20876.99
495.23	21075.65
495.44	21438.14
495.64	21485.24
495.85	21505.72
496.05	21640.89
496.26	21558.97
496.47	21739.19
496.67	21636.79
496.88	21995.18
497.08	21954.22
497.29	22060.72
497.49	22263.47
497.70	22193.84
497.91	22304.43
498.11	22460.07
498.32	22576.81
498.52	22599.34
498.73	22744.74
498.93	22679.21
499.14	22980.26
499.34	22867.62
499.55	22992.55
499.76	23031.46
499.96	23176.86
500.17	22847.14
500.37	23373.47
500.58	23250.59
500.78	23455.39
500.99	23432.86
501.19	23758.49
501.40	23774.87
501.60	23387.80
501.81	23840.40
502.02	23877.27
502.22	23412.38
502.43	23910.04
502.63	24241.81
502.84	24155.79
503.04	24475.27
503.25	24510.09
503.45	24581.77
503.66	24446.60
503.86	24499.85
504.07	24919.68
504.27	24694.41
504.48	25032.32
504.68	25001.60
504.89	25466.49
505.09	25216.64
505.30	25165.44
505.50	25169.54
505.71	25312.89
505.91	25513.59
506.12	25466.49
506.32	25398.91
506.53	25790.07
506.73	25745.02
506.94	26091.12
507.14	25990.77
507.35	25699.96
507.55	25704.06
507.76	26007.16
507.96	26193.52
508.17	26236.53
508.37	26158.70
508.58	26302.06
508.78	26183.28
508.99	26599.02
509.19	26359.41
509.40	26533.48
509.60	26508.91
509.81	26662.51
510.01	26644.07
510.22	26646.12
510.42	26734.18
510.63	27190.88
510.83	26979.94
511.04	27197.02
511.24	27225.70
511.44	27240.03
511.65	27346.53
511.85	27328.10
512.06	27547.23
512.26	27299.42
512.47	27680.35
512.67	27604.57
512.88	27649.63
513.08	27356.77
513.29	27807.32
513.49	27897.43
513.69	27633.24
513.90	28261.97
514.10	27653.72
514.31	27913.81
514.51	28139.09
514.72	28087.89
514.92	28036.69
515.13	28167.76
515.33	28489.29
515.53	28098.13
515.74	28251.73
515.94	28601.93
516.15	28753.48
516.35	28194.39
516.56	28491.34
516.76	28505.68
516.96	28413.52
517.17	28800.58
517.37	28503.63
517.58	28493.39
517.78	28886.60
517.99	28696.14
518.19	29126.21
518.39	28952.13
518.60	28878.41
518.80	29378.11
519.01	29224.51
519.21	28849.74
519.41	29271.62
519.62	29253.19
519.82	29249.09
520.03	29478.46
520.23	29515.33
520.43	29468.22
520.64	29826.62
520.84	29621.82
521.05	29591.10
521.25	29857.34
521.45	30006.84
521.66	30123.57
521.86	29589.05
522.07	29900.34
522.27	30023.22
522.47	30021.17
522.68	29920.82
522.88	30150.20
523.08	30400.05
523.29	30416.43
523.49	30297.65
523.70	30434.86
523.90	30866.98
524.10	30328.37
524.31	30670.38
524.51	30492.21
524.71	30774.83
524.92	30690.86
525.12	31372.83
525.33	30920.23
525.53	30920.23
525.73	31194.66
525.94	30955.05
526.14	31352.35
526.34	31061.54
526.55	31424.03
526.75	31362.59
526.95	31827.48
527.16	31628.83
527.36	31497.76
527.56	31835.67
527.77	32323.09
527.97	31819.29
528.17	32052.76
528.38	32177.68
528.58	31931.93
528.78	32239.12
528.99	32097.81
529.19	32642.57
529.39	32409.11
529.60	32388.63
529.80	32787.98
530.00	32728.59
530.21	32687.63
530.41	32749.07
530.61	32701.96
530.82	32923.15
531.02	32753.16
531.22	33082.89
531.43	33121.80
531.63	33222.15
531.83	33441.28
532.04	33838.59
532.24	33383.94
532.44	33936.89
532.64	33922.55
532.85	34242.04
533.05	34110.97
533.25	34403.83
533.46	33740.29
533.66	34565.62
533.86	34186.74
534.07	34657.78
534.27	34563.57
534.47	34625.01
534.67	34799.08
534.88	35032.55
535.08	35061.22
535.28	34618.86
535.49	35200.49
535.69	35378.66
535.89	35569.12
536.09	35413.48
536.30	35761.63
536.50	35605.98
536.70	35597.79
536.91	35808.73
537.11	36197.85
537.31	36160.98
537.51	36226.52
537.72	36316.63
537.92	36582.87
538.12	36820.43
538.32	36406.74
538.53	36636.11
538.73	36675.02
538.93	36836.81
539.13	37010.89
539.34	37135.82
539.54	36804.05
539.74	37320.13
539.94	37182.92
540.15	37191.11
540.35	37180.87
540.55	37907.90
540.75	37674.43
540.96	37721.54
541.16	37549.51
541.36	37696.96
541.56	38155.71
541.77	38288.82
541.97	37893.57
542.17	37987.77
542.37	38041.02
542.58	38190.52
542.78	38415.80
542.98	38819.25
543.18	38364.60
543.38	39144.87
543.59	39003.56
543.79	38563.25
543.99	38835.63
544.19	39169.45
544.40	38819.25
544.60	39804.32
544.80	39706.02
545.00	39499.17
545.20	39687.59
545.41	39273.90
545.61	39613.86
545.81	39540.13
546.01	40031.65
546.21	39843.23
546.42	39890.34
546.62	40197.53
546.82	40248.73
547.02	40091.04
547.22	40576.40
547.43	40414.62
547.63	40238.49
547.83	40787.35
548.03	40246.68
548.23	41006.48
548.44	40750.48
548.64	40908.18
548.84	40904.08
549.04	40949.14
549.24	41282.95
549.45	41379.21
549.65	40859.02
549.85	41139.60
550.05	41360.78
550.25	41149.84
550.45	41682.31
550.66	41391.50
550.86	41319.82
551.06	41559.43
551.26	41545.09
551.46	41964.93
551.66	41897.34
551.87	41547.14
552.07	41831.81
552.27	42069.37
552.47	41678.21
552.67	42104.19
552.87	42093.95
553.07	41866.63
553.28	42153.34
553.48	42048.89
553.68	42079.61
553.88	42737.01
554.08	42194.30
554.28	42712.44
554.48	41819.52
554.69	42300.79
554.89	42311.03
555.09	42675.57
555.29	42474.87
555.49	42597.75
555.69	42618.23
555.89	42911.09
556.10	42814.83
556.30	42550.65
556.50	42788.21
556.70	42812.79
556.90	42995.06
557.10	43023.73
557.30	42771.83
557.50	42583.41
557.70	43158.89
557.91	43425.13
558.11	43345.26
558.31	43191.66
558.51	42732.92
558.71	43453.80
558.91	43365.74
559.11	43300.20
559.31	43064.69
559.51	42982.77
559.72	43230.57
559.92	43396.46
560.12	43265.39
560.32	43328.87
560.52	43197.80
560.72	43709.80
560.92	43771.24
561.12	43785.57
561.32	43791.72
561.52	43543.91
561.72	44072.29
561.93	43709.80
562.13	43443.56
562.33	43195.76
562.53	44080.48
562.73	43382.12
562.93	43666.79
563.13	43799.91
563.33	43822.44
563.53	43615.59
563.73	43879.78
563.93	44242.27
564.13	44414.30
564.33	43840.87
564.53	43767.14
564.74	44019.04
564.94	43631.97
565.14	44088.67
565.34	43554.15
565.54	44156.25
565.74	43951.46
565.94	44195.17
566.14	44012.90
566.34	43965.79
566.54	44260.70
566.74	44170.59
566.94	44111.20
567.14	44569.94
567.34	44186.97
567.54	44025.18
567.74	43787.62
567.94	44060.00
568.14	44569.94
568.34	44582.23
568.54	44266.84
568.74	44825.94
568.94	44260.70
569.14	44776.79
569.34	44348.76
569.54	44520.79
569.75	44518.74
569.95	44877.14
570.15	45071.70
570.35	44705.11
570.55	44744.02
570.75	44881.24
570.95	44766.55
571.15	44658.01
571.35	44662.10
571.55	45180.24
571.75	45069.65
571.95	44930.39
572.15	44801.36
572.35	44959.06
572.55	45071.70
572.75	44893.52
572.95	44928.34
573.15	44776.79
573.35	44854.61
573.55	45143.38
573.75	45153.62
573.95	45401.42
574.15	45012.31
574.35	45337.93
574.55	45450.57
574.75	45018.45
574.95	45405.52
575.15	45108.56
575.34	45770.05
575.54	45655.37
575.74	45661.51
575.94	45626.70
576.14	45333.84
576.34	45696.33
576.54	46015.81
576.74	45882.69
576.94	45921.60
577.14	46181.70
577.34	46306.62
577.54	45602.12
577.74	46187.84
577.94	46535.99
578.14	45780.29
578.34	46406.97
578.54	45829.44
578.74	46470.46
578.94	46511.42
579.14	46144.83
579.34	46329.15
579.54	46335.29
579.74	47000.88
579.94	46497.08
580.13	46708.02
580.33	47011.12
580.53	46925.11
580.73	46927.16
580.93	47172.91
581.13	46990.64
581.33	47011.12
581.53	47510.83
581.73	47287.60
581.93	47555.88
582.13	47701.29
582.33	47332.65
582.53	47592.75
582.73	47181.10
582.92	47428.91
583.12	48233.76
583.32	47533.35
583.52	47637.80
583.72	48063.78
583.92	47645.99
584.12	48180.51
584.32	48504.09
584.52	48239.90
584.72	48051.49
584.92	48178.46
585.11	48747.80
585.31	48248.10
585.51	48422.17
585.71	48549.15
585.91	48952.60
586.11	48606.49
586.31	48256.29
586.51	48858.39
586.71	48665.88
586.91	49136.91
587.10	49614.09
587.30	49026.32
587.50	48880.92
587.70	49259.79
587.90	49349.90
588.10	49407.25
588.30	49603.85
588.50	49650.95
588.69	49247.50
588.89	49579.28
589.09	49644.81
589.29	49773.83
589.49	49986.82
589.69	49700.11
589.89	49464.59
590.08	49779.98
590.28	50185.47
590.48	49990.92
590.68	50042.12
590.88	49913.09
591.08	50015.49
591.28	49478.92
591.47	50545.92
591.67	50283.78
591.87	50373.89
592.07	50398.46
592.27	50701.56
592.47	50273.54
592.67	50570.49
592.86	50562.30
593.06	50730.23
593.26	50898.17
593.46	50971.89
593.66	51139.83
593.86	51322.10
594.05	51178.74
594.25	51399.92
594.45	50992.37
594.65	51068.15
594.85	51133.68
595.05	51447.02
595.24	51825.90
595.44	51109.11
595.64	51533.04
595.84	51266.80
596.04	51522.80
596.23	52016.36
596.43	51784.94
596.63	51569.90
596.83	51889.38
597.03	52157.67
597.22	51954.92
597.42	52280.55
597.62	52421.86
597.82	52120.80
598.02	52006.12
598.21	52485.34
598.41	52172.00
598.61	52575.45
598.81	52231.40
599.01	52620.51
599.20	52421.86
599.40	52118.76
599.60	52198.63
599.80	52987.10
600.00	52880.60
600.19	52872.41
600.39	52616.41
600.59	53015.77
600.79	53001.43
600.98	52964.57
601.18	53112.02
601.38	53644.49
601.58	53398.74
601.78	53327.06
601.97	53875.91
602.17	53753.04
602.37	53353.68
602.57	53716.17
602.76	53339.35
602.96	53284.05
603.16	53843.15
603.36	53841.10
603.55	53847.24
603.75	53937.35
603.95	53642.45
604.15	53703.88
604.34	53783.76
604.54	54211.78
604.74	53859.53
604.94	54285.51
605.13	54103.24
605.33	54138.05
605.53	54084.81
605.73	54363.33
605.92	53816.52
606.12	54490.30
606.32	54703.29
606.52	54187.21
606.71	54457.54
606.91	54863.03
607.11	54445.25
607.30	54432.96
607.50	54359.23
607.70	54742.20
607.90	54060.23
608.09	54820.03
608.29	54811.84
608.49	54770.88
608.68	54670.53
608.88	54414.53
609.08	54711.49
609.28	54973.63
609.47	54668.48
609.67	55178.42
609.87	54437.06
610.06	55235.77
610.26	54695.10
610.46	55516.34
610.66	54324.42
610.85	54809.79
611.05	54766.78
611.25	54826.17
611.44	54553.79
611.64	54840.51
611.84	54514.88
612.03	54744.25
612.23	54959.29
612.43	55159.99
612.62	54820.03
612.82	55159.99
613.02	55028.92
613.21	54801.60
613.41	54594.75
613.61	54580.42
613.80	54490.30
614.00	54951.10
614.20	54621.37
614.39	54887.61
614.59	54801.60
614.79	55094.46
614.98	54772.92
615.18	54779.07
615.38	54887.61
615.57	54805.69
615.77	55428.27
615.97	54793.40
616.16	54584.51
616.36	55104.70
616.56	55055.54
616.75	54543.55
616.95	54332.61
617.15	54912.19
617.34	54936.76
617.54	54531.26
617.74	54770.88
617.93	54846.65
618.13	54516.93
618.32	54846.65
618.52	54584.51
618.72	54932.67
618.91	54883.51
619.11	54617.28
619.31	54369.47
619.50	54709.44
619.70	54217.92
619.90	54396.10
620.09	54727.87
620.29	54535.36
620.48	54394.05
620.68	54631.61
620.88	53832.91
621.07	54301.89
621.27	54789.31
621.46	54471.87
621.66	54164.68
621.86	54770.88
622.05	54111.43
622.25	54475.97
622.44	54731.96
622.64	54412.48
622.84	54392.00
623.03	54207.68
623.23	54447.30
623.42	54459.58
623.62	54793.40
623.82	54566.08
624.01	54289.60
624.21	54430.91
624.40	54559.94
624.60	54316.23
624.80	54088.90
624.99	54416.58
625.19	54066.38
625.38	54721.72
625.58	54936.76
625.77	54191.30
625.97	54686.91
626.17	54756.54
626.36	54252.74
626.56	54777.02
626.75	53796.04
626.95	54412.48
627.14	54105.29
627.34	54766.78
627.54	53857.48
627.73	54670.53
627.93	54375.62
628.12	54199.49
628.32	54021.32
628.51	54312.13
628.71	54029.51
628.90	54533.31
629.10	54099.14
629.30	54219.97
629.49	54072.52
629.69	54004.94
629.88	54183.11
630.08	54490.30
630.27	54793.40
630.47	54623.42
630.66	54408.39
630.86	54707.39
631.05	54152.39
631.25	54596.80
631.44	54621.37
631.64	54404.29
631.84	54478.02
632.03	54934.71
632.23	54701.25
632.42	54564.03
632.62	54867.13
632.81	54418.63
633.01	54527.17
633.20	54770.88
633.40	55090.36
633.59	54691.01
633.79	54113.48
633.98	54398.15
634.18	54846.65
634.37	54912.19
634.57	54777.02
634.76	55094.46
634.96	54860.99
635.15	54820.03
635.35	54719.68
635.54	55170.23
635.74	55383.22
635.93	54580.42
636.13	54813.88
636.32	55391.41
636.52	54711.49
636.71	54637.76
636.91	55008.44
637.10	55084.22
637.30	55155.89
637.49	54762.68
637.69	55235.77
637.88	55276.72
638.08	55073.98
638.27	55360.69
638.46	55166.13
638.66	55080.12
638.85	55317.68
639.05	54971.58
639.24	55420.08
639.44	55123.13
639.63	55583.92
639.83	55481.52
640.02	55528.62
640.22	55366.84
640.41	55682.22
640.61	55125.17
640.80	55659.69
640.99	55379.12
641.19	55923.88
641.38	55413.94
641.58	55882.92
641.77	55379.12
641.97	55418.03
642.16	55571.63
642.36	55829.68
642.55	56202.41
642.74	55231.67
642.94	55829.68
643.13	55540.91
643.33	56034.47
643.52	56048.81
643.72	55538.86
643.91	56007.85
644.10	56245.41
644.30	56321.19
644.49	56306.85
644.69	56229.03
644.88	56450.21
645.08	56216.74
645.27	56595.62
645.46	56057.00
645.66	56345.76
645.85	56292.52
646.05	55997.61
646.24	56153.26
646.43	56179.88
646.63	56390.82
646.82	56667.30
647.02	56538.27
647.21	56519.84
647.40	56140.97
647.60	56865.95
647.79	56753.31
647.99	56822.94
648.18	56695.97
648.37	57250.97
648.57	56927.39
648.76	56657.06
648.96	56525.99
649.15	56702.11
649.34	57255.06
649.54	56777.89
649.73	56732.83
649.92	57005.21
650.12	57025.69
650.31	56904.86
650.51	56769.69
650.70	57128.09
650.89	57015.45
651.09	57971.85
651.28	57072.79
651.47	56992.92
651.67	57029.79
651.86	57449.62
652.06	57175.19
652.25	57455.76
652.44	57332.89
652.64	57189.53
652.83	57183.38
653.02	57091.22
653.22	56790.17
653.41	56939.68
653.60	57085.08
653.80	57080.98
653.99	57345.17
654.18	57527.44
654.38	57320.60
654.57	57257.11
654.76	57343.12
654.96	57341.08
655.15	57564.31
655.34	57343.12
655.54	57140.38
655.73	57619.60
655.92	57695.38
656.12	57484.43
656.31	57891.98
656.50	57359.51
656.70	57552.02
656.89	57623.70
657.08	57791.63
657.28	57943.18
657.47	57205.91
657.66	57681.04
657.86	58143.88
658.05	57791.63
658.24	57898.12
658.43	57529.49
658.63	57592.98
658.82	57492.63
659.01	57906.32
659.21	57529.49
659.40	57877.64
659.59	57449.62
659.79	57635.98
659.98	58115.21
660.17	57830.54
660.36	57996.43
660.56	57998.48
660.75	57916.56
660.94	58111.11
661.14	57859.21
661.33	57554.07
661.52	57726.10
661.71	57842.83
661.91	57420.95
662.10	57771.15
662.29	58131.59
662.49	57816.21
662.68	57521.30
662.87	57857.17
663.06	57965.71
663.26	57599.12
663.45	58143.88
663.64	57857.17
663.83	58021.00
664.03	58317.96
664.22	57857.17
664.41	57916.56
664.60	57842.83
664.80	58049.67
664.99	57664.66
665.18	57996.43
665.37	57822.35
665.57	58379.40
665.76	57506.96
665.95	57957.52
666.14	57580.69
666.34	57730.19
666.53	57668.75
666.72	57769.10
666.91	57435.28
667.11	57904.27
667.30	57742.48
667.49	57746.57
667.68	57812.11
667.87	57601.17
668.07	58098.83
668.26	57355.41
668.45	57771.15
668.64	57289.88
668.84	57793.68
669.03	57500.82
669.22	57572.50
669.41	57799.82
669.60	57382.04
669.80	57423.00
669.99	57613.46
670.18	57523.35
670.37	57613.46
670.57	57670.80
670.76	57513.11
670.95	57566.35
671.14	57193.62
671.33	57312.41
671.53	57779.34
671.72	57085.08
671.91	56960.15
672.10	57414.80
672.29	57216.15
672.48	57072.79
672.68	57685.14
672.87	57390.23
673.06	57355.41
673.25	57048.22
673.44	57189.53
673.64	56904.86
673.83	57123.99
674.02	57439.38
674.21	56874.14
674.40	57144.47
674.59	56874.14
674.79	56415.40
674.98	56595.62
675.17	56761.50
675.36	56161.45
675.55	57050.27
675.74	56849.56
675.94	56489.12
676.13	57093.27
676.32	56583.33
676.51	57316.50
676.70	56667.30
676.89	56843.42
677.08	57302.17
677.28	56693.92
677.47	57160.86
677.66	56573.09
677.85	56310.95
678.04	56814.75
678.23	56798.37
678.42	56655.01
678.62	56693.92
678.81	56499.36
679.00	56417.44
679.19	57111.70
679.38	56442.02
679.57	56542.37
679.76	56616.10
679.96	56767.65
680.15	56698.01
680.34	56771.74
680.53	56376.48
680.72	56718.49
680.91	57023.64
681.10	56548.51
681.29	55942.31
681.48	56368.29
681.68	55997.61
681.87	56030.38
682.06	56171.69
682.25	56179.88
682.44	56028.33
682.63	56171.69
682.82	55952.55
683.01	55973.03
683.20	56042.66
683.39	56038.57
683.59	55745.71
683.78	55440.56
683.97	55536.82
684.16	55997.61
684.35	55409.84
684.54	56128.68
684.73	55649.45
684.92	55704.75
685.11	55592.11
685.30	55721.13
685.49	56095.91
685.69	55174.33
685.88	55999.66
686.07	55348.40
686.26	55358.64
686.45	55645.36
686.64	55461.04
686.83	55657.65
687.02	55588.02
687.21	55647.41
687.40	54981.82
687.59	55198.90
687.78	55186.61
687.97	55440.56
688.16	55522.48
688.35	55024.82
688.54	54670.53
688.74	54951.10
688.93	55223.48
689.12	54742.20
689.31	54971.58
689.50	55037.11
689.69	54639.81
689.88	54518.98
690.07	55237.81
690.26	54598.85
690.45	54920.38
690.64	54809.79
690.83	55008.44
691.02	54504.64
691.21	54688.96
691.40	55188.66
691.59	55284.92
691.78	54947.00
691.97	54654.14
692.16	54514.88
692.35	54875.32
692.54	54654.14
692.73	55084.22
692.92	54756.54
693.11	54312.13
693.30	54711.49
693.49	54596.80
693.68	54494.40
693.87	54482.11
694.06	54430.91
694.25	54285.51
694.44	54785.21
694.63	54482.11
694.82	54537.41
695.01	54693.05
695.20	54334.66
695.39	54406.34
695.58	54604.99
695.77	54162.63
695.96	53931.21
696.15	54195.40
696.34	54428.87
696.53	54441.15
696.72	54260.93
696.91	54293.70
697.10	54226.12
697.29	53802.19
697.48	54162.63
697.67	54138.05
697.86	53576.91
698.05	54101.19
698.24	54179.01
698.43	53916.87
698.62	53636.30
698.81	53908.68
699.00	54457.54
699.19	53847.24
699.38	53927.11
699.57	53499.09
699.76	54555.84
699.95	53955.78
700.14	53673.16
700.32	53732.56
700.51	53480.66
700.70	53722.32
700.89	53933.26
701.08	53953.74
701.27	53660.88
701.46	54136.01
701.65	53234.90
701.84	53812.43
702.03	53765.32
702.22	53517.52
702.41	53392.59
702.60	53247.19
702.79	53863.63
702.98	53003.48
703.17	53478.61
703.35	53200.08
703.54	53658.83
703.73	53431.50
703.92	53363.92
704.11	53402.83
704.30	53175.51
704.49	53343.44
704.68	53210.32
704.87	53232.85
705.06	53849.29
705.25	53224.66
705.43	53038.29
705.62	53202.13
705.81	53474.51
706.00	53200.08
706.19	53023.96
706.38	53118.17
706.57	53257.43
706.76	52585.69
706.95	53028.05
707.14	52839.64
707.32	53171.41
707.51	53009.62
707.70	53212.37
707.89	53171.41
708.08	52686.04
708.27	53052.63
708.46	53449.94
708.65	53015.77
708.84	52864.22
709.02	52860.12
709.21	53195.99
709.40	53017.82
709.59	53128.41
709.78	52667.61
709.97	53195.99
710.16	53101.78
710.34	52892.89
710.53	52778.20
710.72	52747.48
710.91	52886.74
711.10	52792.54
711.29	52559.07
711.48	53077.21
711.66	52608.22
711.85	52466.91
712.04	52518.11
712.23	52817.11
712.42	51995.88
712.61	52667.61
712.80	52626.65
712.98	52518.11
713.17	52368.61
713.36	52301.03
713.55	52335.84
713.74	52741.34
713.93	52714.72
714.11	52004.07
714.30	52157.67
714.49	52376.80
714.68	52458.72
714.87	52186.34
715.06	52425.95
715.24	52325.60
715.43	52061.41
715.62	51680.49
715.81	52083.94
716.00	52450.53
716.18	51860.71
716.37	51707.12
716.56	51793.13
716.75	52153.57
716.94	52260.07
717.12	51676.40
717.31	52059.37
717.50	52028.65
717.69	51533.04
717.88	52032.74
718.06	51502.32
718.25	52040.93
718.44	51479.79
718.63	51838.18
718.82	51268.85
719.00	51440.88
719.19	51713.26
719.38	51662.06
719.57	51062.00
719.76	51156.21
719.94	51191.03
720.13	51170.55
720.32	51375.34
720.51	51215.60
720.69	51313.90
720.88	51082.48
721.07	51076.34
721.26	50855.16
721.44	51057.91
721.63	50640.12
721.82	50791.67
722.01	50779.39
722.20	51111.16
722.38	50771.19
722.57	50287.87
722.76	51000.57
722.95	50717.95
723.13	50345.22
723.32	50259.20
723.51	49915.14
723.70	49931.53
723.88	50222.34
724.07	50033.92
724.26	50568.44
724.44	49847.56
724.63	50808.06
724.82	49925.38
725.01	49915.14
725.19	50097.41
725.38	50038.02
725.57	49937.67
725.76	50476.29
725.94	49366.29
726.13	49882.37
726.32	49691.91
726.51	49108.24
726.69	49882.37
726.88	50142.47
727.07	49827.08
727.25	49900.81
727.44	50244.87
727.63	49911.05
727.82	49552.65
728.00	49763.59
728.19	49421.58
728.38	49952.01
728.56	49038.61
728.75	49763.59
728.94	49452.30
729.12	49562.89
729.31	49497.36
729.50	49444.11
729.69	50148.61
729.87	49186.07
730.06	49458.45
730.25	49665.29
730.43	50294.02
730.62	49491.21
730.81	49196.31
730.99	49210.64
731.18	49280.27
731.37	49736.97
731.55	49499.40
731.74	49812.74
731.93	49704.20
732.11	49503.50
732.30	49640.71
732.49	49308.94
732.67	49300.75
732.86	49538.32
733.05	49239.31
733.23	48538.91
733.42	49210.64
733.61	49505.55
733.79	49497.36
733.98	49446.16
734.17	49231.12
734.35	49237.26
734.54	49052.95
734.73	49286.42
734.91	49542.41
735.10	49104.15
735.29	48993.56
735.47	48821.53
735.66	48764.18
735.84	48844.05
736.03	48641.31
736.22	49419.53
736.40	48706.84
736.59	48917.78
736.78	48872.73
736.96	48971.03
737.15	48887.06
737.33	48743.70
737.52	48502.04
737.71	49102.10
737.89	48272.67
738.08	48534.81
738.27	48184.61
738.45	48915.73
738.64	48723.22
738.82	48538.91
739.01	48735.51
739.20	48741.66
739.38	48342.30
739.57	48323.87
739.75	48532.76
739.94	48047.39
740.13	48407.84
740.31	48078.11
740.50	48608.54
740.68	48256.29
740.87	47815.97
741.06	48184.61
741.24	47934.76
741.43	47527.21
741.61	48295.20
741.80	48108.83
741.99	47699.24
742.17	47641.90
742.36	48094.50
742.54	47983.91
742.73	47691.05
742.91	47914.28
743.10	47482.16
743.29	47715.62
743.47	47828.26
743.66	47770.92
743.84	48084.26
744.03	47732.01
744.21	47131.95
744.40	48071.97
744.59	47527.21
744.77	47310.13
744.96	46744.89
745.14	47242.54
745.33	47342.89
745.51	46804.28
745.70	47463.72
745.88	46806.33
746.07	47287.60
746.26	46347.58
746.44	46847.29
746.63	47265.07
746.81	47224.11
747.00	46665.02
747.18	46896.44
747.37	47258.93
747.55	46914.87
747.74	46986.55
747.92	46474.55
748.11	46533.95
748.29	46478.65
748.48	46497.08
748.66	46208.32
748.85	46392.64
749.03	46419.26
749.22	46787.89
749.41	46191.94
749.59	46748.98
749.78	46183.74
749.96	46220.61
750.15	46015.81
750.33	46300.48
750.52	46495.03
750.70	46302.53
750.89	46091.58
751.07	45751.62
751.26	45897.03
751.44	45385.04
751.63	45741.38
751.81	45651.27
752.00	45604.17
752.18	45753.67
752.37	45047.12
752.55	45534.54
752.74	45501.77
752.92	45444.43
753.10	45294.92
753.29	45761.86
753.47	45555.02
753.66	45327.69
753.84	45503.82
754.03	45028.69
754.21	45153.62
754.40	45385.04
754.58	45073.74
754.77	45215.05
754.95	45063.50
755.14	44842.32
755.32	45180.24
755.51	44680.53
755.69	44705.11
755.88	44995.92
756.06	44485.98
756.24	44670.29
756.43	44586.33
756.61	44909.91
756.80	44586.33
756.98	43992.42
757.17	44526.94
757.35	44696.92
757.54	44316.00
757.72	44184.93
757.90	44277.08
758.09	44164.45
758.27	44107.10
758.46	44193.12
758.64	44019.04
758.83	44205.41
759.01	44170.59
759.19	43920.74
759.38	43717.99
759.56	44303.71
759.75	43875.68
759.93	43474.28
760.12	43754.85
760.30	43609.45
760.48	43939.17
760.67	43406.70
760.85	43763.04
761.04	43851.11
761.22	43699.56
761.40	43734.37
761.59	43365.74
761.77	43206.00
761.96	43357.55
762.14	43533.67
762.32	42966.38
762.51	43226.48
762.69	43054.45
762.88	43365.74
763.06	43201.90
763.24	43144.56
763.43	43537.77
763.61	42876.27
763.80	42898.80
763.98	42909.04
764.16	42782.07
764.35	42382.71
764.53	41868.67
764.72	42597.75
764.90	42702.20
765.08	42481.02
765.27	42597.75
765.45	41885.06
765.63	42050.94
765.82	42026.37
766.00	42091.90
766.18	42016.13
766.37	42472.82
766.55	41854.34
766.74	42306.94
766.92	41780.61
767.10	42358.14
767.29	41903.49
767.47	41586.05
767.65	41770.37
767.84	41483.66
768.02	41813.38
768.20	41721.22
768.39	41846.15
768.57	41864.58
768.75	41700.74
768.94	41594.25
769.12	41776.51
769.30	41528.71
769.49	41229.71
769.67	41342.35
769.85	41551.24
770.04	41153.93
770.22	40932.75
770.40	41246.09
770.59	40736.15
770.77	41526.66
770.95	41069.97
771.14	40895.89
771.32	41188.75
771.50	40656.28
771.69	40490.39
771.87	41072.01
772.05	40742.29
772.24	40574.36
772.42	41137.55
772.60	40682.90
772.78	40572.31
772.97	40185.24
773.15	40869.26
773.33	40783.25
773.52	40541.59
773.70	40648.08
773.88	40775.06
774.07	40226.20
774.25	40564.12
774.43	40396.18
774.61	40179.10
774.80	40652.18
774.98	40281.50
775.16	40631.70
775.34	40400.28
775.53	40199.58
775.71	40689.04
775.89	40844.69
776.08	40603.03
776.26	40662.42
776.44	40600.98
776.62	40467.86
776.81	40584.60
776.99	40768.91
777.17	40523.16
777.35	40578.45
777.54	41063.82
777.72	40723.86
777.90	40406.42
778.08	40760.72
778.27	40803.73
778.45	40803.73
778.63	41096.59
778.81	40611.22
779.00	41182.60
779.18	41211.28
779.36	41024.91
779.54	40678.80
779.73	41049.49
779.91	41147.79
780.09	41221.52
780.27	41608.58
780.46	41358.73
780.64	41311.63
780.82	40881.55
781.00	41616.77
781.19	41434.50
781.37	41694.60
781.55	41749.89
781.73	41631.11
781.91	41522.57
782.10	41444.74
782.28	41424.26
782.46	41778.56
782.64	41756.03
782.82	41350.54
783.01	41674.12
783.19	41653.64
783.37	41457.03
783.55	41188.75
783.74	41483.66
783.92	41477.51
784.10	41975.17
784.28	41561.48
784.46	41407.88
784.64	41182.60
784.83	41411.98
785.01	41862.53
785.19	41459.08
785.37	41768.32
785.55	41487.75
785.74	41504.13
785.92	41489.80
786.10	41950.59
786.28	41547.14
786.46	41485.70
786.64	41264.52
786.83	41115.02
787.01	41702.79
787.19	41248.14
787.37	41485.70
787.55	41596.29
787.74	41155.98
787.92	41170.32
788.10	41184.65
788.28	40947.09
788.46	41012.62
788.64	40813.97
788.82	41303.43
789.01	41063.82
789.19	41031.05
789.37	40709.52
789.55	40881.55
789.73	40846.74
789.91	40555.93
790.09	40553.88
790.28	40646.04
790.46	40371.61
790.64	40648.08
790.82	40736.15
791.00	40244.63
791.18	40328.60
791.36	40418.71
791.55	40338.84
791.73	40267.16
791.91	40154.52
792.09	40394.14
792.27	39826.85
792.45	40256.92
792.63	40203.67
792.81	39916.96
793.00	39783.84
793.18	39919.01
793.36	39515.56
793.54	39677.35
793.72	39581.09
793.90	39785.89
794.08	39720.35
794.26	39433.64
794.44	38800.82
794.62	38985.13
794.81	39394.73
794.99	38671.79
795.17	39073.20
795.35	38931.89
795.53	39357.86
795.71	39067.05
795.89	38610.35
796.07	38366.65
796.25	38315.45
796.43	38534.58
796.61	38395.32
796.80	38520.24
796.98	38303.16
797.16	38331.83
797.34	38231.48
797.52	37752.26
797.70	38258.10
797.88	38018.49
798.06	37633.47
798.24	37813.70
798.42	37780.93
798.60	37932.48
798.78	37244.36
798.96	37492.16
799.14	37205.45
799.32	37316.04
799.51	36918.73
799.69	37565.89
799.87	37342.66
800.05	36969.93
800.23	37010.89
800.41	36578.77
800.59	36832.72
800.77	36517.33
800.95	36574.67
801.13	36302.29
801.31	36349.40
801.49	36738.51
801.67	36253.14
801.85	36625.87
802.03	35978.72
802.21	36056.54
802.39	35726.81
802.57	36001.24
802.75	36013.53
802.93	35694.05
803.11	35804.64
803.29	35589.60
803.47	35550.69
803.65	35601.89
803.83	35513.83
804.01	35554.79
804.19	35005.93
804.37	35186.15
804.55	34956.78
804.73	35188.20
804.91	35288.55
805.09	34909.68
805.27	35237.35
805.45	35091.94
805.63	35288.55
805.81	35016.17
805.99	35022.31
806.17	34913.77
806.35	34711.02
806.53	34498.03
806.71	34502.13
806.89	34692.59
807.07	34420.21
807.25	34557.42
807.43	34227.70
807.61	34448.88
807.79	34092.54
807.97	34014.71
808.15	33959.42
808.33	33940.99
808.51	33711.61
808.69	33801.72
808.87	33582.59
809.05	33515.01
809.23	33693.18
809.41	33537.54
809.59	33484.29
809.77	33504.77
809.95	33273.35
810.13	33316.36
810.31	33285.64
810.49	33687.04
810.67	33003.02
810.84	32955.91
811.02	33054.22
811.20	32812.56
811.38	32763.40
811.56	32886.28
811.74	33097.22
811.92	32581.13
812.10	32816.65
812.28	33029.64
812.46	32857.61
812.64	32593.42
812.82	32392.72
813.00	32585.23
813.18	32472.59
813.36	32577.04
813.53	31876.63
813.71	32278.04
813.89	32298.52
814.07	32142.87
814.25	32028.18
814.43	31716.89
814.61	31544.86
814.79	31882.78
814.97	31618.59
815.15	31761.95
815.33	31299.11
815.50	31520.29
815.68	31731.23
815.86	31755.80
816.04	31659.55
816.22	31460.90
816.40	31241.76
816.58	31378.98
816.76	31036.97
816.94	31227.43
817.11	31245.86
817.29	31260.20
817.47	30799.40
817.65	30703.15
817.83	30854.70
818.01	30903.85
818.19	31002.15
818.37	30684.72
818.54	30254.64
818.72	30254.64
818.90	30762.54
819.08	30547.50
819.26	30377.52
819.44	30740.01
819.62	30152.24
819.80	30457.39
819.97	30570.03
820.15	30273.07
820.33	30043.70
820.51	30279.22
820.69	29994.55
820.87	30291.51
821.05	30285.36
821.22	30062.13
821.40	29824.57
821.58	29955.64
821.76	29492.80
821.94	29539.90
822.12	29799.99
822.29	29779.51
822.47	29275.71
822.65	29402.69
822.83	29324.86
823.01	29445.69
823.19	29498.94
823.36	29146.69
823.54	29376.06
823.72	28952.13
823.90	29492.80
824.08	28894.79
824.25	29042.24
824.43	28778.06
824.61	28786.25
824.79	28954.18
824.97	28927.56
825.15	29046.34
825.32	29068.87
825.50	28644.94
825.68	28864.07
825.86	28796.49
826.04	28921.41
826.21	28776.01
826.39	28575.31
826.57	28638.80
826.75	28337.74
826.93	28075.60
827.10	28329.55
827.28	28300.88
827.46	28302.93
827.64	28374.61
827.81	28153.43
827.99	28380.75
828.17	27975.25
828.35	27891.29
828.53	27833.94
828.70	27842.14
828.88	28171.86
829.06	28075.60
829.24	27999.83
829.41	27903.57
829.59	28147.28
829.77	27569.76
829.95	27620.95
830.12	27661.91
830.30	27633.24
830.48	27815.51
830.66	27874.90
830.84	27772.50
831.01	27330.14
831.19	27668.06
831.37	27575.90
831.55	27463.26
831.72	27305.57
831.90	27192.93
832.08	27293.28
832.25	27274.85
832.43	27061.86
832.61	27104.87
832.79	26803.82
832.96	27276.90
833.14	26975.84
833.32	27211.36
833.50	27205.22
833.67	27041.38
833.85	26941.03
834.03	26576.49
834.20	27074.15
834.38	26877.54
834.56	27061.86
834.74	26373.74
834.91	26750.57
835.09	26609.26
835.27	26467.95
835.44	26334.83
835.62	25998.96
835.80	26596.97
835.98	26347.12
836.15	26386.03
836.33	26263.15
836.51	26558.06
836.68	26039.92
836.86	25898.61
837.04	26263.15
837.21	25986.68
837.39	26101.36
837.57	25929.33
837.75	26140.27
837.92	25734.78
838.10	25947.76
838.28	25634.42
838.45	25568.89
838.63	25624.18
838.81	25501.31
838.98	25386.62
839.16	25476.73
839.34	25357.95
839.51	25489.02
839.69	25284.22
839.87	25446.01
840.04	25276.03
840.22	25394.81
840.40	25235.07
840.57	25140.86
840.75	25302.65
840.93	24850.05
841.10	25022.08
841.28	25290.37
841.46	25060.99
841.63	25058.95
841.81	25202.30
841.98	24823.43
842.16	25130.62
842.34	25210.50
842.51	24745.61
842.69	25224.83
842.87	24669.83
843.04	25161.34
843.22	24815.24
843.40	24917.64
843.57	24622.73
843.75	24815.24
843.92	24901.25
844.10	24565.39
844.28	24827.53
844.45	24637.06
844.63	24624.78
844.81	24340.11
844.98	24682.12
845.16	24368.78
845.33	24344.20
845.51	24403.60
845.69	23977.62
845.86	23899.80
846.04	24163.98
846.21	24256.14
846.39	24268.43
846.57	23946.90
846.74	24063.63
846.92	23922.32
847.09	23905.94
847.27	23772.82
847.45	23787.16
847.62	23721.62
847.80	23887.51
847.97	23651.99
848.15	23864.98
848.32	23221.92
848.50	23641.75
848.68	23541.40
848.85	23514.78
849.03	23551.64
849.20	23557.78
849.38	23740.05
849.56	23449.24
849.73	23295.64
849.91	23864.98
850.08	23752.34
850.26	23191.20
850.43	23559.83
850.61	23346.84
850.78	23051.94
850.96	23291.55
851.14	23301.79
851.31	23293.60
851.49	23111.33
851.66	23502.49
851.84	23199.39
852.01	23047.84
852.19	23178.91
852.36	22931.11
852.54	23297.69
852.71	22886.05
852.89	22812.32
853.07	22709.93
853.24	23053.98
853.42	22523.56
853.59	22636.20
853.77	22623.91
853.94	22724.26
854.12	22775.46
854.29	22468.27
854.47	22527.66
854.64	22486.70
854.82	22580.90
854.99	22806.18
855.17	22363.82
855.34	22406.83
855.52	22179.50
855.69	22421.16
855.87	22259.37
856.04	22019.76
856.22	22333.10
856.39	22236.84
856.57	22122.16
856.74	22017.71
856.92	22062.77
857.09	21907.12
857.27	21925.55
857.44	22193.84
857.62	21786.29
857.79	22052.53
857.97	22011.57
858.14	21884.59
858.32	21792.44
858.49	21900.98
858.67	21679.80
858.84	21763.76
859.02	21472.95
859.19	21661.37
859.37	21761.72
859.54	21577.40
859.72	21673.65
859.89	21376.70
860.06	21561.02
860.24	21677.75
860.41	21509.82
860.59	21376.70
860.76	21544.63
860.94	21315.26
861.11	21628.60
861.29	21288.64
861.46	21378.75
861.64	21061.31
861.81	21186.24
861.98	21096.13
862.16	21294.78
862.33	20623.05
862.51	21022.40
862.68	21012.16
862.86	21069.50
863.03	21032.64
863.21	20885.19
863.38	20903.62
863.55	20577.99
863.73	20903.62
863.90	20881.09
864.08	20727.49
864.25	20637.38
864.43	20682.44
864.60	20629.19
864.77	20678.34
864.95	20621.00
865.12	20436.68
865.30	20860.61
865.47	20416.20
865.64	20346.57
865.82	20555.46
865.99	20700.87
866.17	20422.34
866.34	20725.44
866.51	20344.52
866.69	20569.80
866.86	20459.21
867.04	20262.60
867.21	20233.93
867.38	20063.95
867.56	20016.85
867.73	20063.95
867.91	20246.22
868.08	20082.38
868.25	19838.67
868.43	19996.37
868.60	19994.32
868.78	19947.22
868.95	20059.85
869.12	19896.02
869.30	19494.61
869.47	19982.03
869.64	19656.40
869.82	19859.15
869.99	19734.23
870.16	19910.35
870.34	19564.25
870.51	19799.76
870.69	19302.11
870.86	19447.51
871.03	19560.15
871.21	19445.46
871.38	19451.61
871.55	19560.15
871.73	19125.98
871.90	19396.31
872.07	19166.94
872.25	19080.92
872.42	19134.17
872.59	19271.39
872.77	19230.43
872.94	19113.69
873.11	18953.95
873.29	19246.81
873.46	18800.35
873.63	19001.05
873.81	18812.64
873.98	18818.78
874.15	18884.32
874.33	18556.64
874.50	18630.37
874.67	18831.07
874.85	18489.06
875.02	18806.50
875.19	18585.32
875.37	18548.45
875.54	18493.16
875.71	18394.86
875.88	18351.85
876.06	18509.54
876.23	18302.70
876.40	18212.59
876.58	18220.78
876.75	18527.97
876.92	18087.66
877.10	18011.89
877.27	18280.17
877.44	18214.63
877.61	18161.39
877.79	17909.49
877.96	17880.82
878.13	17948.40
878.31	17786.61
878.48	17934.06
878.65	18009.84
878.82	17688.31
879.00	17925.87
879.17	17716.98
879.34	17669.87
879.51	17487.61
879.69	17540.85
879.86	17485.56
880.03	17571.57
880.21	17487.61
880.38	17723.12
880.55	17774.32
880.72	17469.17
880.90	17428.21
881.07	17348.34
881.24	17448.69
881.41	17688.31
881.59	17374.97
881.76	17356.54
881.93	17112.83
882.10	17041.15
882.28	17180.41
882.45	17506.04
882.62	17059.58
882.79	17129.21
882.96	16811.78
883.14	17100.54
883.31	17178.36
883.48	16998.14
883.65	16983.80
883.83	17055.48
884.00	17153.79
884.17	17082.11
884.34	17008.38
884.51	16824.06
884.69	17141.50
884.86	16850.69
885.03	16955.13
885.20	16885.50
885.38	16865.02
885.55	17047.29
885.72	16828.16
885.89	16803.58
886.06	16690.95
886.24	16873.21
886.41	16836.35
886.58	16963.33
886.75	16901.89
886.92	16439.05
887.10	16807.68
887.27	16447.24
887.44	16647.94
887.61	16695.04
887.78	16723.71
887.95	16711.42
888.13	16502.53
888.30	16373.51
888.47	16504.58
888.64	16692.99
888.81	16373.51
888.99	16295.69
889.16	16117.51
889.33	16316.17
889.50	16168.71
889.67	16281.35
889.84	16152.33
890.01	16254.73
890.19	16154.38
890.36	16176.91
890.53	16267.02
890.70	16011.02
890.87	16017.16
891.04	15730.45
891.22	16000.78
891.39	16058.12
891.56	15810.32
891.73	15892.24
891.90	15845.13
892.07	16092.94
892.24	15716.11
892.42	15822.61
892.59	15867.66
892.76	15769.36
892.93	15617.81
893.10	15929.10
893.27	15591.19
893.44	15748.88
893.61	15617.81
893.79	15714.06
893.96	15718.16
894.13	15591.19
894.30	15496.98
894.47	15585.04
894.64	15609.62
894.81	15486.74
894.98	15761.17
895.15	15761.17
895.33	15492.88
895.50	15664.91
895.67	15415.06
895.84	15419.16
896.01	15585.04
896.18	15265.56
896.35	15681.30
896.52	15562.51
896.69	15494.93
896.86	15494.93
897.04	15562.51
897.21	15533.84
897.38	15212.31
897.55	15597.33
897.72	15617.81
897.89	15556.37
898.06	15820.56
898.23	15462.16
898.40	15337.24
898.57	15646.48
898.74	15392.53
898.91	15527.70
899.08	15566.61
899.26	15365.91
899.43	15439.64
899.60	15537.94
899.77	15605.52
899.94	15318.81
900.11	15144.73
900.28	15392.53
900.45	15200.02
900.62	15234.84
900.79	15400.72
900.96	15394.58
901.13	15398.68
901.30	15587.09
901.47	15300.37
901.64	15480.60
901.81	15568.66
901.98	15351.57
902.15	15523.60
902.32	15345.43
902.49	15423.25
902.66	15259.42
902.83	15224.60
903.01	15347.48
903.18	15402.77
903.35	15318.81
903.52	15275.80
903.69	15453.97
903.86	15556.37
904.03	15294.23
904.20	15609.62
904.37	15406.87
904.54	15492.88
904.71	15470.36
904.88	15281.94
905.05	15230.74
905.22	15492.88
905.39	15427.35
905.56	15361.81
905.73	15003.42
905.90	15236.89
906.07	15152.92
906.24	15404.82
906.41	15669.01
906.58	15365.91
906.75	15628.05
906.92	15216.41
907.09	15283.99
907.26	15318.81
907.43	15181.59
907.60	15109.91
907.77	15374.10
907.93	15374.10
908.10	15394.58
908.27	15273.75
908.44	15386.39
908.61	15298.33
908.78	15114.01
908.95	15605.52
909.12	15222.55
909.29	15118.11
909.46	15189.78
909.63	15179.54
909.80	15451.92
909.97	15394.58
910.14	15288.09
910.31	15118.11
910.48	15060.76
910.65	15165.21
910.82	15048.47
910.99	15206.17
911.16	15120.15
911.33	15075.10
911.50	15345.43
911.66	14876.44
911.83	15177.50
912.00	15134.49
912.17	14819.10
912.34	14774.05
912.51	14860.06
912.68	14802.72
912.85	14845.73
913.02	15118.11
913.19	14937.88
913.36	14692.13
913.53	14886.68
913.70	14618.40
913.86	14937.88
914.03	14761.76
914.20	14589.73
914.37	14808.86
914.54	14681.89
914.71	14683.94
914.88	14651.17
915.05	14489.38
915.22	14337.83
915.39	14563.11
915.55	14493.47
915.72	14440.23
915.89	14489.38
916.06	14343.97
916.23	14468.90
916.40	14167.85
916.57	14274.34
916.74	14245.67
916.91	14104.36
917.07	13973.29
917.24	14331.69
917.41	14280.49
917.58	14219.05
917.75	14077.74
917.92	13862.70
918.09	14012.20
918.26	13893.42
918.42	14094.12
918.59	13995.82
918.76	13889.32
918.93	13649.71
919.10	13682.48
919.27	13614.90
919.44	13889.32
919.60	14014.25
919.77	13846.32
919.94	13510.45
920.11	13543.22
920.28	13684.53
920.45	13594.42
920.61	13371.19
920.78	13360.95
920.95	13428.53
921.12	13305.65
921.29	13135.67
921.46	13326.13
921.62	13057.85
921.79	13094.71
921.96	13016.89
922.13	13113.14
922.30	12959.55
922.47	12820.28
922.63	12746.56
922.80	12830.52
922.97	12828.48
923.14	12443.46
923.31	12773.18
923.47	12533.57
923.64	12693.31
923.81	12619.58
923.98	12373.83
924.15	12312.39
924.32	12660.54
924.48	12564.29
924.65	12617.54
924.82	12209.99
924.99	12347.20
925.15	12128.07
925.32	12316.48
925.49	12076.87
925.66	11994.95
925.83	12027.72
925.99	12070.73
926.16	12095.30
926.33	12166.98
926.50	11616.08
926.67	11945.80
926.83	11779.92
927.00	11978.57
927.17	11743.05
927.34	11640.65
927.50	11646.80
927.67	11734.86
927.84	11626.32
928.01	11470.67
928.17	11411.28
928.34	11458.39
928.51	11444.05
928.68	11280.21
928.84	11304.79
929.01	11073.37
929.18	11067.22
929.35	11325.27
929.51	11220.82
929.68	10878.81
929.85	10696.54
930.02	11032.41
930.18	10985.30
930.35	10782.56
930.52	10727.26
930.69	10989.40
930.85	10766.17
931.02	10340.19
931.19	10628.96
931.36	10491.74
931.52	10624.86
931.69	10481.50
931.86	10297.19
932.02	10452.83
932.19	10245.99
932.36	10348.39
932.53	10168.16
932.69	10014.57
932.86	10143.59
933.03	10278.76
933.19	10145.64
933.36	10020.71
933.53	10092.39
933.70	9924.46
933.86	9987.94
934.03	9801.58
934.20	9734.00
934.36	9865.07
934.53	9482.10
934.70	9564.01
934.86	9394.03
935.03	9406.32
935.20	9359.22
935.36	9168.76
935.53	8996.73
935.70	9133.94
935.86	9285.49
936.03	8980.34
936.20	8892.28
936.36	8777.59
936.53	8742.78
936.70	8595.32
936.86	8904.57
937.03	8368.00
937.20	8460.16
937.36	8742.78
937.53	8128.39
937.70	8112.00
937.86	7917.45
938.03	8091.52
938.20	8130.44
938.36	7946.12
938.53	7833.48
938.70	7649.16
938.86	7663.50
939.03	7761.80
939.20	7573.39
939.36	7354.26
939.53	7305.10
939.70	7430.03
939.86	7169.94
940.03	7083.92
940.19	6868.89
940.36	6981.53
940.53	6827.93
940.69	6733.72
940.86	6573.98
941.03	6514.59
941.19	6666.14
941.36	6369.18
941.52	6307.74
941.69	6404.00
941.86	6301.60
942.02	6426.53
942.19	6229.92
942.35	6293.41
942.52	6242.21
942.69	6166.43
942.85	5988.26
943.02	6143.91
943.18	6025.12
943.35	5904.29
943.52	5826.47
943.68	5892.01
943.85	5791.66
944.01	5580.71
944.18	5781.42
944.35	5826.47
944.51	5625.77
944.68	5617.58
944.84	5515.18
945.01	5423.02
945.17	5545.90
945.34	5672.87
945.51	5562.28
945.67	5439.40
945.84	5695.40
946.00	5595.05
946.17	5455.79
946.33	5361.58
946.50	5490.60
946.67	5369.77
946.83	5349.29
947.00	5488.56
947.16	5418.93
947.33	5304.24
947.49	5451.69
947.66	5322.67
947.82	5447.60
947.99	5486.51
948.16	5484.46
948.32	5339.05
948.49	5416.88
948.65	5490.60
948.82	5459.88
948.98	5371.82
949.15	5250.99
949.31	5283.76
949.48	5369.77
949.64	5330.86
949.81	5420.97
949.97	5504.94
950.14	5478.32
950.30	5459.88
950.47	5445.55
950.63	5271.47
950.80	5416.88
950.96	5326.77
951.13	5466.03
951.30	5324.72
951.46	5486.51
951.63	5457.84
951.79	5496.75
951.96	5621.67
952.12	5447.60
952.29	5367.73
952.45	5386.16
952.62	5396.40
952.78	5498.80
952.94	5363.63
953.11	5474.22
953.27	5367.73
953.44	5539.76
953.60	5519.28
953.77	5394.35
953.93	5486.51
954.10	5494.70
954.26	5369.77
954.43	5392.30
954.59	5660.59
954.76	5369.77
954.92	5523.37
955.09	5515.18
955.25	5472.17
955.42	5607.34
955.58	5668.78
955.75	5588.91
955.91	5550.00
956.07	5590.95
956.24	5656.49
956.40	5515.18
956.57	5638.06
956.73	5533.61
956.90	5582.76
957.06	5550.00
957.23	5529.52
957.39	5525.42
957.56	5564.33
957.72	5466.03
957.88	5357.49
958.05	5640.11
958.21	5552.04
958.38	5523.37
958.54	5513.13
958.71	5636.01
958.87	5533.61
959.03	5427.12
959.20	5537.71
959.36	5611.43
959.53	5380.01
959.69	5472.17
959.85	5654.44
960.02	5490.60
960.18	5531.56
960.35	5593.00
960.51	5636.01
960.68	5369.77
960.84	5558.19
961.00	5396.40
961.17	5572.52
961.33	5515.18
961.50	5375.92
961.66	5562.28
961.82	5394.35
961.99	5463.98
962.15	5492.65
962.31	5451.69
962.48	5504.94
962.64	5623.72
962.81	5494.70
962.97	5394.35
963.13	5433.26
963.30	5441.45
963.46	5492.65
963.62	5425.07
963.79	5429.17
963.95	5416.88
964.12	5482.41
964.28	5511.08
964.44	5418.93
964.61	5433.26
964.77	5443.50
964.93	5498.80
965.10	5328.81
965.26	5205.94
965.42	5476.27
965.59	5279.66
965.75	5472.17
965.92	5322.67
966.08	5502.89
966.24	5312.43
966.41	5345.20
966.57	5214.13
966.73	5380.01
966.90	5267.38
967.06	5304.24
967.22	5267.38
967.39	5287.86
967.55	5263.28
967.71	5205.94
967.88	5273.52
968.04	5191.60
968.20	5242.80
968.37	5152.69
968.53	5167.03
968.69	5263.28
968.85	5130.16
969.02	5105.59
969.18	5355.44
969.34	5130.16
969.51	5214.13
969.67	5220.27
969.83	5044.15
970.00	5248.94
970.16	5222.32
970.32	5142.45
970.48	5273.52
970.65	4978.61
970.81	5027.76
970.97	5091.25
971.14	5052.34
971.30	5062.58
971.46	5027.76
971.63	5115.83
971.79	5081.01
971.95	4956.08
972.11	4884.41
972.28	4945.84
972.44	4886.45
972.60	5021.62
972.76	4982.71
972.93	4845.49
973.09	4929.46
973.25	4954.04
973.42	5023.67
973.58	4937.65
973.74	4964.28
973.90	4925.36
974.07	4835.25
974.23	4894.65
974.39	4900.79
974.55	4857.78
974.72	4859.83
974.88	4736.95
975.04	4763.58
975.20	4980.66
975.37	4896.69
975.53	4855.73
975.69	4857.78
975.85	4716.47
976.01	4583.35
976.18	4884.41
976.34	4739.00
976.50	4747.19
976.66	4612.03
976.83	4767.67
976.99	4663.22
977.15	4794.29
977.31	4663.22
977.47	4802.49
977.64	4605.88
977.80	4581.31
977.96	4571.07
978.12	4659.13
978.29	4601.79
978.45	4636.60
978.61	4493.24
978.77	4652.98
978.93	4585.40
979.10	4614.07
979.26	4446.14
979.42	4411.32
979.58	4458.43
979.74	4376.51
979.91	4534.20
980.07	4431.80
980.23	4550.59
980.39	4364.22
980.55	4509.63
980.71	4523.96
980.88	4456.38
981.04	4444.09
981.20	4343.74
981.36	4452.28
981.52	4462.52
981.68	4366.27
981.85	4470.72
982.01	4304.83
982.17	4374.46
982.33	4411.32
982.49	4399.04
982.65	4190.14
982.82	4216.77
982.98	4270.01
983.14	4288.45
983.30	4272.06
983.46	4315.07
983.62	4403.13
983.79	4247.49
983.95	4224.96
984.11	4130.75
984.27	4202.43
984.43	4288.45
984.59	4136.90
984.75	4257.73
984.91	4126.66
985.08	4227.01
985.24	4104.13
985.40	4083.65
985.56	4050.88
985.72	4206.53
985.88	4243.39
986.04	4036.55
986.20	4038.59
986.37	4177.86
986.53	4032.45
986.69	4038.59
986.85	4054.98
987.01	3993.54
987.17	4075.46
987.33	3960.77
987.49	4087.75
987.65	4083.65
987.82	4040.64
987.98	3979.20
988.14	3964.87
988.30	4020.16
988.46	3903.43
988.62	3938.24
988.78	3807.17
988.94	3917.76
989.10	3958.72
989.26	3790.79
989.42	3821.51
989.59	3758.02
989.75	3813.32
989.91	3817.41
990.07	3698.63
990.23	3690.44
990.39	3792.84
990.55	3782.60
990.71	3762.12
990.87	3786.69
991.03	3807.17
991.19	3653.58
991.35	3819.46
991.51	3788.74
991.67	3768.26
991.83	3698.63
992.00	3731.40
992.16	3723.21
992.32	3725.26
992.48	3690.44
992.64	3639.24
992.80	3704.78
992.96	3690.44
993.12	3844.04
993.28	3702.73
993.44	3608.52
993.60	3751.88
993.76	3651.53
993.92	3608.52
994.08	3682.25
994.24	3565.51
994.40	3585.99
994.56	3696.58
994.72	3471.31
994.88	3506.12
995.04	3526.60
995.20	3450.83
995.36	3518.41
995.52	3526.60
995.68	3444.68
995.84	3432.40
996.00	3551.18
996.16	3547.08
996.32	3360.72
996.48	3450.83
996.64	3540.94
996.80	3362.76
996.96	3461.07
997.12	3411.92
997.28	3364.81
997.44	3352.52
997.60	3422.16
997.76	3418.06
997.92	3399.63
998.08	3512.27
998.24	3356.62
998.40	3340.24
998.56	3499.98
998.72	3203.02
998.88	3233.74
999.04	3217.36
999.20	3452.88
999.36	3352.52
999.52	3428.30
999.68	3297.23
999.84	3305.42
1000.00	3321.81
1000.16	3239.89
1000.32	3209.17
1000.48	3262.41
1000.64	3164.11
1000.80	3153.87
1000.95	3082.19
1001.11	3233.74
1001.27	3166.16
1001.43	3260.37
1001.59	3172.30
1001.75	3162.06
1001.91	3051.47
1002.07	3106.77
1002.23	3090.38
1002.39	3080.14
1002.55	3262.41
1002.71	3100.62
1002.87	3162.06
1003.03	2969.55
1003.19	3018.71
1003.34	3186.64
1003.50	3141.58
1003.66	3102.67
1003.82	3055.57
1003.98	3108.82
1004.14	3102.67
1004.30	2942.93
1004.46	3043.28
1004.62	2990.03
1004.78	2981.84
1004.94	3033.04
1005.09	3086.29
1005.25	3043.28
1005.41	2830.29
1005.57	3000.27
1005.73	2820.05
1005.89	2854.87
1006.05	2981.84
1006.21	3000.27
1006.37	2850.77
1006.52	2926.55
1006.68	2803.67
1006.84	2994.13
1007.00	2965.46
1007.16	2936.79
1007.32	2920.40
1007.48	2932.69
1007.64	2981.84
1007.79	2887.64
1007.95	2756.57
1008.11	2940.88
1008.27	2783.19
1008.43	2957.27
1008.59	2795.48
1008.75	2877.40
1008.91	2842.58
1009.06	2871.25
1009.22	2879.44
1009.38	2746.33
1009.54	2820.05
1009.70	2734.04
1009.86	2783.19
1010.01	2850.77
1010.17	2707.41
1010.33	2750.42
1010.49	2731.99
1010.65	2815.96
1010.81	2684.89
1010.96	2729.94
1011.12	2639.83
1011.28	2779.09
1011.44	2744.28
1011.60	2740.18
1011.76	2723.80
1011.91	2844.63
1012.07	2748.37
1012.23	2615.26
1012.39	2682.84
1012.55	2645.98
1012.71	2594.78
1012.86	2598.87
1013.02	2729.94
1013.18	2545.63
1013.34	2543.58
1013.50	2734.04
1013.65	2645.98
1013.81	2457.56
1013.97	2568.15
1014.13	2574.30
1014.29	2602.97
1014.44	2637.78
1014.60	2568.15
1014.76	2514.91
1014.92	2537.43
1015.07	2521.05
1015.23	2478.04
1015.39	2496.47
1015.55	2519.00
1015.71	2559.96
1015.86	2510.81
1016.02	2471.90
1016.18	2418.65
1016.34	2609.11
1016.49	2437.08
1016.65	2451.42
1016.81	2469.85
1016.97	2475.99
1017.12	2559.96
1017.28	2400.22
1017.44	2324.44
1017.60	2502.62
1017.75	2519.00
1017.91	2523.10
1018.07	2457.56
1018.23	2457.56
1018.38	2445.27
1018.54	2396.12
1018.70	2473.95
1018.86	2398.17
1019.01	2263.01
1019.17	2351.07
1019.33	2443.23
1019.49	2463.71
1019.64	2357.21
1019.80	2418.65
1019.96	2412.51
1020.12	2367.45
1020.27	2293.72
1020.43	2318.30
1020.59	2361.31
1020.74	2396.12
1020.90	2430.94
1021.06	2303.96
1021.22	2355.16
1021.37	2322.40
1021.53	2318.30
1021.69	2336.73
1021.84	2299.87
1022.00	2285.53
1022.16	2316.25
1022.31	2312.16
1022.47	2265.05
1022.63	2277.34
1022.79	2152.42
1022.94	2271.20
1023.10	2332.64
1023.26	2273.25
1023.41	2191.33
1023.57	2183.13
1023.73	2316.25
1023.88	2166.75
1024.04	2160.61
1024.20	2234.33
1024.35	2279.39
1024.51	2303.96
1024.67	2267.10
1024.82	2297.82
1024.98	2123.74
1025.14	2228.19
1025.29	2256.86
1025.45	2174.94
1025.61	2199.52
1025.76	2140.13
1025.92	2203.61
1026.08	2203.61
1026.23	2150.37
1026.39	2158.56
1026.55	2232.29
1026.70	2101.22
1026.86	2125.79
1027.02	2187.23
1027.17	2164.70
1027.33	2205.66
1027.48	2156.51
1027.64	2140.13
1027.80	2099.17
1027.95	2170.85
1028.11	2080.74
1028.27	2129.89
1028.42	2133.98
1028.58	2035.68
1028.73	2164.70
1028.89	2033.63
1029.05	2238.43
1029.20	2095.07
>>>>>End Processed Spectral Data<<<<<
