SpectraSuite Data File
++++++++++++++++++++++++++++++++++++
Date: Fri Jun 02 14:44:38 CEST 2017
User: INFO_000
Dark Spectrum Present: No
Reference Spectrum Present: No
Number of Sampled Component Spectra: 1
Spectrometers: USB4H00879
Integration Time (usec): 80000 (USB4H00879)
Spectra Averaged: 1 (USB4H00879)
Boxcar Smoothing: 0 (USB4H00879)
Correct for Electrical Dark: No (USB4H00879)
Strobe/Lamp Enabled: No (USB4H00879)
Correct for Detector Non-linearity: No (USB4H00879)
Correct for Stray Light: No (USB4H00879)
Number of Pixels in Processed Spectrum: 3648
>>>>>Begin Processed Spectral Data<<<<<
345.13	1292.27
345.34	1292.27
345.56	1292.27
345.78	1261.55
345.99	1249.26
346.21	1697.77
346.42	1697.77
346.64	1607.66
346.86	1798.12
347.07	1658.85
347.29	1720.29
347.50	1589.22
347.72	1699.81
347.94	1697.77
348.15	1533.93
348.37	1615.85
348.59	1689.57
348.80	1691.62
349.02	1691.62
349.23	1861.60
349.45	1773.54
349.67	1929.19
349.88	1853.41
350.10	1882.08
350.31	1908.71
350.53	1853.41
350.75	1986.53
350.96	1734.63
351.18	1875.94
351.39	1861.60
351.61	1900.52
351.82	1816.55
352.04	1902.56
352.26	1779.68
352.47	1871.84
352.69	1957.86
352.90	1699.81
353.12	1843.17
353.34	1830.88
353.55	1937.38
353.77	1851.36
353.98	1830.88
354.20	1816.55
354.41	1888.23
354.63	1931.23
354.85	2052.06
355.06	1910.75
355.28	1804.26
355.49	1861.60
355.71	1884.13
355.92	1943.52
356.14	1920.99
356.35	1955.81
356.57	1853.41
356.79	1935.33
357.00	1957.86
357.22	2011.11
357.43	1888.23
357.65	1994.72
357.86	1910.75
358.08	1906.66
358.29	1894.37
358.51	1941.47
358.72	1976.29
358.94	1847.27
359.16	1869.80
359.37	1949.67
359.59	1988.58
359.80	1980.39
360.02	1863.65
360.23	1910.75
360.45	1910.75
360.66	1943.52
360.88	1894.37
361.09	1914.85
361.31	2045.92
361.52	1976.29
361.74	1992.67
361.95	2097.12
362.17	1896.42
362.38	1998.82
362.60	2076.64
362.81	1941.47
363.03	1964.00
363.24	2002.91
363.46	2109.41
363.67	2127.84
363.89	2017.25
364.10	2041.82
364.32	1961.95
364.53	2123.74
364.75	1869.80
364.96	2127.84
365.18	2013.15
365.39	2041.82
365.61	1953.76
365.82	2088.93
366.04	1976.29
366.25	1931.23
366.47	2015.20
366.68	2097.12
366.90	2035.68
367.11	2002.91
367.33	2072.54
367.54	1998.82
367.76	2017.25
367.97	2068.45
368.19	2002.91
368.40	2017.25
368.62	1986.53
368.83	1990.63
369.05	1984.48
369.26	1957.86
369.48	1994.72
369.69	1970.15
369.91	2045.92
370.12	2031.58
370.33	2138.08
370.55	2000.87
370.76	2058.21
370.98	2064.35
371.19	2035.68
371.41	2045.92
371.62	2095.07
371.84	1939.43
372.05	2174.94
372.27	2080.74
372.48	2174.94
372.69	2088.93
372.91	2129.89
373.12	2168.80
373.34	2103.26
373.55	2201.57
373.77	2146.27
373.98	2138.08
374.20	2133.98
374.41	2260.96
374.62	2070.50
374.84	2144.22
375.05	2176.99
375.27	2152.42
375.48	2213.85
375.70	2183.13
375.91	2164.70
376.12	2281.44
376.34	2076.64
376.55	2138.08
376.77	2213.85
376.98	2121.70
377.19	2150.37
377.41	2133.98
377.62	2142.18
377.84	2299.87
378.05	2373.60
378.27	2222.05
378.48	2322.40
378.69	2432.99
378.91	2277.34
379.12	2297.82
379.34	2275.29
379.55	2312.16
379.76	2260.96
379.98	2211.81
380.19	2342.88
380.41	2256.86
380.62	2330.59
380.83	2281.44
381.05	2146.27
381.26	2394.08
381.47	2281.44
381.69	2275.29
381.90	2414.56
382.12	2336.73
382.33	2336.73
382.54	2324.44
382.76	2293.72
382.97	2293.72
383.19	2318.30
383.40	2387.93
383.61	2211.81
383.83	2303.96
384.04	2357.21
384.25	2363.36
384.47	2412.51
384.68	2349.02
384.89	2314.20
385.11	2371.55
385.32	2355.16
385.54	2416.60
385.75	2328.54
385.96	2351.07
386.18	2504.67
386.39	2408.41
386.60	2363.36
386.82	2414.56
387.03	2447.32
387.24	2408.41
387.46	2441.18
387.67	2467.80
387.88	2545.63
388.10	2500.57
388.31	2482.14
388.52	2588.63
388.74	2506.71
388.95	2447.32
389.16	2551.77
389.38	2549.72
389.59	2594.78
389.80	2625.50
390.02	2559.96
390.23	2619.35
390.44	2613.21
390.66	2547.67
390.87	2488.28
391.08	2641.88
391.30	2723.80
391.51	2699.22
391.72	2715.61
391.94	2656.22
392.15	2615.26
392.36	2594.78
392.58	2533.34
392.79	2656.22
393.00	2631.64
393.22	2787.29
393.43	2803.67
393.64	2785.24
393.85	2727.89
394.07	2801.62
394.28	2637.78
394.49	2748.37
394.71	2822.10
394.92	2797.53
395.13	2805.72
395.35	2670.55
395.56	2734.04
395.77	2858.96
395.98	2871.25
396.20	2789.33
396.41	2797.53
396.62	2934.74
396.84	2822.10
397.05	2889.68
397.26	2891.73
397.47	2992.08
397.69	2858.96
397.90	2994.13
398.11	2828.24
398.32	2906.07
398.54	2811.86
398.75	2938.84
398.96	3014.61
399.18	3008.47
399.39	3002.32
399.60	3057.62
399.81	2879.44
400.03	2930.64
400.24	3358.67
400.45	3088.34
400.66	3059.67
400.88	3000.27
401.09	3246.03
401.30	3041.23
401.51	3200.98
401.73	3125.20
401.94	3176.40
402.15	3110.86
402.36	3074.00
402.58	3203.02
402.79	3160.02
403.00	3112.91
403.21	3098.58
403.43	3248.08
403.64	3289.04
403.85	3153.87
404.06	3137.49
404.27	3143.63
404.49	3248.08
404.70	3137.49
404.91	3338.19
405.12	3260.37
405.34	3313.61
405.55	3379.15
405.76	3190.74
405.97	3317.71
406.19	3379.15
406.40	3268.56
406.61	3354.57
406.82	3360.72
407.03	3426.25
407.25	3313.61
407.46	3409.87
407.67	3375.05
407.88	3506.12
408.09	3278.80
408.31	3370.96
408.52	3270.61
408.73	3389.39
408.94	3409.87
409.15	3428.30
409.37	3524.55
409.58	3465.16
409.79	3456.97
410.00	3612.62
410.21	3377.10
410.43	3456.97
410.64	3493.83
410.85	3467.21
411.06	3538.89
411.27	3549.13
411.48	3612.62
411.70	3610.57
411.91	3614.66
412.12	3667.91
412.33	3610.57
412.54	3518.41
412.76	3782.60
412.97	3649.48
413.18	3559.37
413.39	3641.29
413.60	3649.48
413.81	3678.15
414.03	3602.38
414.24	3682.25
414.45	3827.65
414.66	3565.51
414.87	3790.79
415.08	3753.93
415.30	3684.30
415.51	3768.26
415.72	3735.50
415.93	3768.26
416.14	3960.77
416.35	3803.08
416.56	3839.94
416.78	3841.99
416.99	3833.80
417.20	3762.12
417.41	3848.13
417.62	4057.03
417.83	3934.15
418.04	3835.85
418.26	4020.16
418.47	3739.59
418.68	3907.52
418.89	3901.38
419.10	4110.27
419.31	3985.35
419.52	4050.88
419.73	4095.94
419.95	4079.55
420.16	4091.84
420.37	3956.68
420.58	4032.45
420.79	4005.83
421.00	4190.14
421.21	4093.89
421.42	4032.45
421.63	4181.95
421.85	4048.83
422.06	4159.42
422.27	4241.34
422.48	4251.58
422.69	4243.39
422.90	4218.82
423.11	4351.93
423.32	4349.89
423.53	4526.01
423.75	4349.89
423.96	4499.39
424.17	4417.47
424.38	4470.72
424.59	4507.58
424.80	4536.25
425.01	4456.38
425.22	4388.80
425.43	4411.32
425.64	4679.61
425.85	4589.50
426.06	4605.88
426.28	4581.31
426.49	4433.85
426.70	4626.36
426.91	4681.66
427.12	4800.44
427.33	4581.31
427.54	4657.08
427.75	4753.34
427.96	4966.32
428.17	4808.63
428.38	4845.49
428.59	4861.88
428.80	4695.99
429.01	4874.17
429.23	4800.44
429.44	5054.39
429.65	5119.92
429.86	5097.39
430.07	4997.04
430.28	4933.56
430.49	5081.01
430.70	5224.37
430.91	5152.69
431.12	4939.70
431.33	5117.87
431.54	5134.26
431.75	5056.43
431.96	5181.36
432.17	5097.39
432.38	5167.03
432.59	5394.35
432.80	5222.32
433.01	5265.33
433.22	5291.95
433.43	5224.37
433.64	5353.39
433.85	5310.38
434.06	5502.89
434.27	5222.32
434.49	5400.49
434.70	5486.51
434.91	5425.07
435.12	5470.12
435.33	5445.55
435.54	5382.06
435.75	5373.87
435.96	5605.29
436.17	5398.45
436.38	5715.88
436.59	5660.59
436.80	5588.91
437.01	5834.66
437.22	5785.51
437.43	5654.44
437.64	5476.27
437.85	5849.00
438.06	5726.12
438.27	5679.02
438.48	5916.58
438.69	5728.17
438.90	5818.28
439.11	5701.54
439.32	5889.96
439.53	5767.08
439.74	6004.64
439.95	5885.86
440.16	5967.78
440.37	5867.43
440.57	5951.40
440.78	6047.65
440.99	6043.56
441.20	6025.12
441.41	5914.53
441.62	5965.73
441.83	5908.39
442.04	6303.65
442.25	6107.04
442.46	6252.45
442.67	6332.32
442.88	6487.96
443.09	6002.60
443.30	6086.56
443.51	6207.39
443.72	6438.81
443.93	6107.04
444.14	6481.82
444.35	6227.87
444.56	6444.96
444.77	6457.25
444.98	6385.57
445.19	6451.10
445.40	6344.61
445.61	6442.91
445.81	6645.66
446.02	6490.01
446.23	6473.63
446.44	6299.55
446.65	6655.90
446.86	6659.99
447.07	6733.72
447.28	6719.39
447.49	6633.37
447.70	6608.80
447.91	6705.05
448.12	6852.50
448.33	6842.26
448.54	6797.21
448.74	6827.93
448.95	6786.97
449.16	6797.21
449.37	7053.20
449.58	6872.98
449.79	7194.51
450.00	6942.61
450.21	6997.91
450.42	7145.36
450.63	7143.32
450.84	6999.96
451.05	7229.33
451.25	7325.58
451.46	7016.34
451.67	7309.20
451.88	7262.10
452.09	7174.03
452.30	7067.54
452.51	7151.51
452.72	7163.79
452.93	7507.85
453.13	7274.38
453.34	7378.83
453.55	7395.22
453.76	7331.73
453.97	7788.43
454.18	7624.59
454.39	7747.47
454.60	7501.71
454.81	7528.33
455.01	7851.91
455.22	7405.46
455.43	7741.32
455.64	7810.95
455.85	8116.10
456.06	8028.04
456.27	7774.09
456.48	7870.34
456.68	7856.01
456.89	7909.26
457.10	8114.05
457.31	8206.21
457.52	7954.31
457.73	8089.48
457.94	8302.47
458.14	8062.85
458.35	8417.15
458.56	8236.93
458.77	8269.70
458.98	8212.35
459.19	8347.52
459.39	8484.73
459.60	8523.65
459.81	8470.40
460.02	8523.65
460.23	8435.58
460.44	8673.15
460.65	8710.01
460.85	8785.79
461.06	8816.51
461.27	8632.19
461.48	8974.20
461.69	9021.30
461.89	8789.88
462.10	9043.83
462.31	8814.46
462.52	8826.75
462.73	8933.24
462.94	9226.10
463.14	9121.65
463.35	9107.32
463.56	9590.64
463.77	9449.33
463.98	9340.79
464.18	9230.20
464.39	9430.90
464.60	9664.36
464.81	9574.25
465.02	9426.80
465.23	9885.55
465.43	9693.04
465.64	9920.36
465.85	9662.32
466.06	9723.76
466.27	10112.87
466.47	10184.55
466.68	10008.42
466.89	9928.55
467.10	10108.77
467.30	9850.73
467.51	10301.28
467.72	10510.18
467.93	10053.48
468.14	10225.51
468.34	10608.48
468.55	10510.18
468.76	10522.46
468.97	10575.71
469.17	10813.28
469.38	11042.65
469.59	10985.30
469.80	10729.31
470.01	10970.97
470.21	10878.81
470.42	11011.93
470.63	11099.99
470.84	11153.24
471.04	11226.96
471.25	11269.97
471.46	11050.84
471.67	11517.78
471.87	11378.51
472.08	11497.30
472.29	11786.06
472.50	11339.60
472.70	11544.40
472.91	11677.52
473.12	11777.87
473.33	11884.36
473.53	12238.66
473.74	11976.52
473.95	12343.11
474.16	12484.42
474.36	12496.71
474.57	12429.12
474.78	12666.69
474.99	12545.86
475.19	12689.21
475.40	12799.80
475.61	12896.06
475.81	13004.60
476.02	13401.91
476.23	13156.15
476.44	13293.37
476.64	13428.53
476.85	13420.34
477.06	13629.23
477.27	13745.97
477.47	13842.22
477.68	13811.50
477.89	14133.03
478.09	13934.38
478.30	14235.43
478.51	14245.67
478.71	14135.08
478.92	14253.86
479.13	14343.97
479.34	14651.17
479.54	14835.49
479.75	14800.67
479.96	14685.98
480.16	14917.40
480.37	14858.01
480.58	15101.72
480.78	15361.81
480.99	15118.11
481.20	15595.28
481.41	15503.12
481.61	15716.11
481.82	16051.98
482.03	15877.90
482.23	15748.88
482.44	16291.59
482.65	16348.93
482.85	16170.76
483.06	16088.84
483.27	16645.89
483.47	16422.66
483.68	16586.50
483.89	16779.01
484.09	16631.55
484.30	16881.41
484.51	17110.78
484.71	17245.94
484.92	16875.26
485.13	17237.75
485.33	17170.17
485.54	17448.69
485.75	17422.07
485.95	17297.14
486.16	17753.84
486.37	17927.92
486.57	17805.04
486.78	17805.04
486.98	18077.42
487.19	18056.94
487.40	18499.30
487.60	18097.90
487.81	18685.67
488.02	18319.08
488.22	18456.29
488.43	18749.15
488.64	18974.43
488.84	18902.75
489.05	19238.62
489.25	18841.31
489.46	19171.04
489.67	19021.53
489.87	19427.03
490.08	19447.51
490.29	19357.40
490.49	19689.17
490.70	19762.90
490.90	19637.97
491.11	19498.71
491.32	20010.70
491.52	19791.57
491.73	19943.12
491.94	20225.74
492.14	20090.57
492.35	20426.44
492.55	20438.73
492.76	20504.26
492.97	20506.31
493.17	20561.61
493.38	20836.03
493.58	21159.61
493.79	20879.04
494.00	21022.40
494.20	21087.93
494.41	21089.98
494.61	21225.15
494.82	21382.84
495.02	21472.95
495.23	21446.33
495.44	21581.49
495.64	21677.75
495.85	21677.75
496.05	21700.28
496.26	22107.82
496.47	22140.59
496.67	21790.39
496.88	22288.04
497.08	22007.47
497.29	22273.71
497.49	22470.31
497.70	22349.48
497.91	22759.08
498.11	22548.14
498.32	22683.30
498.52	22830.76
498.73	23369.37
498.93	22761.12
499.14	22941.35
499.34	22963.87
499.55	23092.90
499.76	23004.83
499.96	23164.57
500.17	23103.14
500.37	23242.40
500.58	23211.68
500.78	23422.62
500.99	23430.81
501.19	23750.29
501.40	23568.02
501.60	23459.48
501.81	23600.79
502.02	23553.69
502.22	23848.60
502.43	23760.53
502.63	24336.01
502.84	24067.73
503.04	23795.35
503.25	24233.61
503.45	24266.38
503.66	24211.09
503.86	24366.73
504.07	24774.28
504.27	24430.22
504.48	24731.27
504.68	24510.09
504.89	24776.33
505.09	24970.88
505.30	24690.31
505.50	24802.95
505.71	25128.58
505.91	25237.12
506.12	25179.78
506.32	25265.79
506.53	25265.79
506.73	25167.49
506.94	25620.09
507.14	25319.04
507.35	25499.26
507.55	25693.82
507.76	25552.51
507.96	25495.16
508.17	25611.90
508.37	25869.94
508.58	25613.95
508.78	26005.11
508.99	26044.02
509.19	25736.82
509.40	26093.17
509.60	26334.83
509.81	25990.77
510.01	25988.72
510.22	26615.40
510.42	26435.18
510.63	26422.89
510.83	26240.62
511.04	26707.56
511.24	26580.59
511.44	26308.21
511.65	26918.50
511.85	26449.52
512.06	26814.05
512.26	26740.33
512.47	26938.98
512.67	27319.90
512.88	27039.33
513.08	26773.10
513.29	27182.69
513.49	27319.90
513.69	27154.02
513.90	27029.09
514.10	27367.01
514.31	27620.95
514.51	27518.56
514.72	27227.74
514.92	27694.68
515.13	27473.50
515.33	27582.04
515.53	28010.07
515.74	27913.81
515.94	27960.92
516.15	28042.84
516.35	27655.77
516.56	28143.19
516.76	27901.53
516.96	28290.64
517.17	28419.66
517.37	28425.81
517.58	28270.16
517.78	28513.87
517.99	28681.80
518.19	28898.89
518.39	28626.51
518.60	29132.36
518.80	28829.26
519.01	28919.37
519.21	29013.57
519.41	29056.58
519.62	29216.32
519.82	29206.08
520.03	29189.70
520.23	29384.26
520.43	29306.43
520.64	29843.00
520.84	29777.47
521.05	29576.76
521.25	29845.05
521.45	29918.78
521.66	30256.69
521.86	29941.30
522.07	30105.14
522.27	30051.89
522.47	30326.32
522.68	30430.77
522.88	30692.91
523.08	30625.32
523.29	30752.30
523.49	30832.17
523.70	30719.53
523.90	31127.08
524.10	30975.53
524.31	31145.51
524.51	30756.39
524.71	31499.81
524.92	31196.71
525.12	31495.71
525.33	31370.79
525.53	31626.78
525.73	31987.22
525.94	31551.01
526.14	31411.74
526.34	32136.73
526.55	31872.54
526.75	31753.76
526.95	32427.54
527.16	32222.74
527.36	32308.76
527.56	32280.08
527.77	32640.53
527.97	32675.34
528.17	32650.77
528.38	32691.73
528.58	32400.91
528.78	33144.33
528.99	33046.02
529.19	33154.57
529.39	32757.26
529.60	33404.42
529.80	33048.07
530.00	33191.43
530.21	34280.95
530.41	33744.38
530.61	33631.74
530.82	33641.98
531.02	33811.96
531.22	34125.30
531.43	33840.64
531.63	34299.38
531.83	34119.16
532.04	34747.89
532.24	34549.23
532.44	34727.41
532.64	34397.68
532.85	34561.52
533.05	34592.24
533.25	34698.73
533.46	34858.48
533.66	35378.66
533.86	34741.74
534.07	35665.38
534.27	35300.84
534.47	35440.10
534.67	35948.00
534.88	35403.24
535.08	35775.97
535.28	35329.51
535.49	36232.66
535.69	35970.52
535.89	35644.90
536.09	36240.86
536.30	36095.45
536.50	36423.12
536.70	36220.38
536.91	36431.32
537.11	36267.48
537.31	36931.02
537.51	36283.86
537.72	36976.08
537.92	36906.44
538.12	37227.98
538.32	37086.67
538.53	37553.60
538.73	37139.91
538.93	37082.57
539.13	37332.42
539.34	37176.78
539.54	37002.70
539.74	37772.74
539.94	37580.23
540.15	37578.18
540.35	37684.67
540.55	37533.12
540.75	37879.23
540.96	37969.34
541.16	38335.93
541.36	37895.61
541.56	38032.83
541.77	38557.11
541.97	38288.82
542.17	38319.54
542.37	38423.99
542.58	38315.45
542.78	38585.78
542.98	38194.62
543.18	38841.78
543.38	38636.98
543.59	38725.04
543.79	38686.13
543.99	38526.39
544.19	38948.27
544.40	38933.93
544.60	38831.54
544.80	39087.53
545.00	38958.51
545.20	39093.68
545.41	39263.66
545.61	39126.44
545.81	39425.45
546.01	39574.95
546.21	38872.49
546.42	39030.19
546.62	39867.81
546.82	39099.82
547.02	39746.98
547.22	39636.39
547.43	39447.97
547.63	39837.09
547.83	40064.41
548.03	39390.63
548.23	39929.25
548.44	39853.47
548.64	39957.92
548.84	40015.26
549.04	40039.84
549.24	40359.32
549.45	40396.18
549.65	40091.04
549.85	39994.78
550.05	40416.66
550.25	40187.29
550.45	40818.07
550.66	40547.73
550.86	40207.77
551.06	40707.47
551.26	40730.00
551.46	40373.66
551.66	40273.31
551.87	40707.47
552.07	41078.16
552.27	40899.98
552.47	41112.97
552.67	41100.68
552.87	41045.39
553.07	41041.29
553.28	40899.98
553.48	41551.24
553.68	40981.90
553.88	41483.66
554.08	41325.96
554.28	41213.32
554.48	41227.66
554.69	41606.53
554.89	41371.02
555.09	41885.06
555.29	41395.59
555.49	41622.92
555.69	41678.21
555.89	41475.46
556.10	41713.03
556.30	41803.14
556.50	41928.06
556.70	41667.97
556.90	41940.35
557.10	42292.60
557.30	42284.41
557.50	42106.24
557.70	42354.04
557.91	42558.84
558.11	42182.01
558.31	42093.95
558.51	42120.57
558.71	42464.63
558.91	42098.05
559.11	42239.36
559.31	42427.77
559.51	42278.27
559.72	42472.82
559.92	43076.97
560.12	42364.28
560.32	42440.06
560.52	42358.14
560.72	42878.32
560.92	43017.58
561.12	42966.38
561.32	43369.83
561.52	43068.78
561.72	43363.69
561.93	42605.94
562.13	43154.80
562.33	43144.56
562.53	43253.10
562.73	43521.38
562.93	42866.03
563.13	43511.14
563.33	43154.80
563.53	43451.75
563.73	42806.64
563.93	43257.20
564.13	44004.70
564.33	44051.81
564.53	43744.61
564.74	44209.50
564.94	43849.06
565.14	43875.68
565.34	43859.30
565.54	44033.38
565.74	43963.75
565.94	44680.53
566.14	44162.40
566.34	44119.39
566.54	44424.54
566.74	44100.96
566.94	44356.96
567.14	44827.99
567.34	44430.68
567.54	44332.38
567.74	44500.31
567.94	44303.71
568.14	44791.12
568.34	44815.70
568.54	44612.95
568.74	45088.08
568.94	44860.76
569.14	45368.65
569.34	44580.18
569.54	45299.02
569.75	44840.28
569.95	44666.20
570.15	45348.17
570.35	45477.19
570.55	45210.96
570.75	45274.45
570.95	45532.49
571.15	45509.96
571.35	45403.47
571.55	45858.12
571.75	45460.81
571.95	45614.41
572.15	45526.35
572.35	45725.00
572.55	46218.56
572.75	46175.55
572.95	45845.83
573.15	46046.53
573.35	45974.85
573.55	45700.42
573.75	45999.43
573.95	46114.11
574.15	46198.08
574.35	46376.25
574.55	46294.33
574.75	46376.25
574.95	46456.12
575.15	46439.74
575.34	46363.96
575.54	46806.33
575.74	46622.01
575.94	46654.78
576.14	46597.43
576.34	47220.02
576.54	46890.29
576.74	46916.92
576.94	46835.00
577.14	47013.17
577.34	47564.07
577.54	46640.44
577.74	46953.78
577.94	47129.90
578.14	47453.48
578.34	47273.26
578.54	47406.38
578.74	47314.22
578.94	47428.91
579.14	47396.14
579.34	47201.58
579.54	47785.25
579.74	48071.97
579.94	47979.81
580.13	48121.12
580.33	47846.69
580.53	48117.03
580.73	48157.99
580.93	48123.17
581.13	48037.16
581.33	48102.69
581.53	48428.32
581.73	48395.55
581.93	48194.85
582.13	48489.76
582.33	48829.72
582.53	48047.39
582.73	48942.36
582.92	48350.49
583.12	48979.22
583.32	48629.02
583.52	48631.07
583.72	48645.40
583.92	48588.06
584.12	48727.32
584.32	49259.79
584.52	49399.05
584.72	49030.42
584.92	48903.45
585.11	49538.32
585.31	49313.04
585.51	49034.52
585.71	48960.79
585.91	49661.19
586.11	49337.62
586.31	49224.98
586.51	48958.74
586.71	49143.06
586.91	49579.28
587.10	49638.67
587.30	49892.61
587.50	49523.98
587.70	49814.79
587.90	49788.17
588.10	50035.97
588.30	49642.76
588.50	50001.16
588.69	50144.51
588.89	50070.79
589.09	50175.23
589.29	49986.82
589.49	50289.92
589.69	49710.35
589.89	50636.03
590.08	50484.48
590.28	49935.62
590.48	50717.95
590.68	49988.87
590.88	50285.82
591.08	50427.13
591.28	49677.58
591.47	50992.37
591.67	50087.17
591.87	50261.25
592.07	50420.99
592.27	50556.16
592.47	50492.67
592.67	50650.36
592.86	50095.36
593.06	50449.66
593.26	50586.88
593.46	51019.00
593.66	50500.86
593.86	51113.20
594.05	50394.37
594.25	51078.39
594.45	50885.88
594.65	50713.85
594.85	50507.01
595.05	51311.86
595.24	50920.70
595.44	50887.93
595.64	50924.79
595.84	50898.17
596.04	51332.34
596.23	51301.62
596.43	51172.60
596.63	51174.64
596.83	50556.16
597.03	51344.62
597.22	51809.51
597.42	51133.68
597.62	51234.03
597.82	51428.59
598.02	51553.52
598.21	51344.62
598.41	51410.16
598.61	51393.78
598.81	51555.57
599.01	51664.11
599.20	51649.77
599.40	51660.01
599.60	51555.57
599.80	51856.62
600.00	51471.60
600.19	51950.82
600.39	51784.94
600.59	52085.99
600.79	52042.98
600.98	51936.49
601.18	52405.47
601.38	51995.88
601.58	52108.52
601.78	52149.48
601.97	52135.14
602.17	52450.53
602.37	52276.45
602.57	52434.14
602.76	52565.21
602.96	52303.07
603.16	52559.07
603.36	52671.71
603.55	53200.08
603.75	52913.37
603.95	52933.85
604.15	52860.12
604.34	52851.93
604.54	52839.64
604.74	52700.38
604.94	52985.05
605.13	52919.51
605.33	53097.69
605.53	52667.61
605.73	52847.83
605.92	53155.03
606.12	53433.55
606.32	53638.35
606.52	52960.47
606.71	52823.26
606.91	53519.57
607.11	52925.66
607.30	53220.56
607.50	53701.84
607.70	54080.71
607.90	53435.60
608.09	53146.84
608.29	53419.22
608.49	53779.66
608.68	53329.11
608.88	53763.28
609.08	53261.52
609.28	53650.64
609.47	53355.73
609.67	53984.46
609.87	53583.05
610.06	53951.69
610.26	53912.78
610.46	53906.63
610.66	53785.80
610.85	53785.80
611.05	53525.71
611.25	53873.87
611.44	53056.73
611.64	53738.70
611.84	53671.12
612.03	53548.24
612.23	54090.95
612.43	54310.08
612.62	53509.33
612.82	54643.90
613.02	54498.50
613.21	54115.53
613.41	53679.31
613.61	54217.92
613.80	53773.52
614.00	54435.01
614.20	54359.23
614.39	53957.83
614.59	54441.15
614.79	54334.66
614.98	54604.99
615.18	54222.02
615.38	54441.15
615.57	54054.09
615.77	54645.95
615.97	54557.89
616.16	54308.04
616.36	54207.68
616.56	54805.69
616.75	54578.37
616.95	54588.61
617.15	54209.73
617.34	54461.63
617.54	54119.62
617.74	54652.09
617.93	54541.50
618.13	53714.12
618.32	54781.12
618.52	54244.55
618.72	54650.05
618.91	54662.33
619.11	54299.84
619.31	54801.60
619.50	54727.87
619.70	54365.38
619.90	54475.97
620.09	54631.61
620.29	54389.95
620.48	54568.13
620.68	54842.56
620.88	53900.49
621.07	54191.30
621.27	54527.17
621.46	54224.07
621.66	54371.52
621.86	54676.67
622.05	54398.15
622.25	54418.63
622.44	54588.61
622.64	54748.35
622.84	54645.95
623.03	54523.07
623.23	54807.74
623.42	54699.20
623.62	54656.19
623.82	55082.17
624.01	54252.74
624.21	54817.98
624.40	54912.19
624.60	55110.84
624.80	54777.02
624.99	54768.83
625.19	54879.42
625.38	55577.78
625.58	55012.54
625.77	54834.36
625.97	55334.07
626.17	54451.39
626.36	54889.66
626.56	55082.17
626.75	54320.32
626.95	55164.09
627.14	54809.79
627.34	55375.03
627.54	54875.32
627.73	55551.15
627.93	55350.45
628.12	55030.97
628.32	55168.18
628.51	55049.40
628.71	54719.68
628.90	55215.29
629.10	55139.51
629.30	55231.67
629.49	55522.48
629.69	55209.14
629.88	55207.09
630.08	55772.33
630.27	55295.16
630.47	55254.20
630.66	55502.00
630.86	55358.64
631.05	55147.70
631.25	55551.15
631.44	55516.34
631.64	55561.39
631.84	55837.87
632.03	55934.12
632.23	55485.62
632.42	55870.64
632.62	55383.22
632.81	55723.18
633.01	55751.85
633.20	56247.46
633.40	56050.86
633.59	55688.37
633.79	55207.09
633.98	56300.71
634.18	56065.19
634.37	55825.58
634.57	55884.97
634.76	55930.03
634.96	55710.89
635.15	56026.28
635.35	55665.84
635.54	56079.53
635.74	56171.69
635.93	55852.20
636.13	56442.02
636.32	55901.36
636.52	55809.20
636.71	56013.99
636.91	56087.72
637.10	56308.90
637.30	56231.08
637.49	55975.08
637.69	56038.57
637.88	56468.64
638.08	55598.26
638.27	56542.37
638.46	56169.64
638.66	56349.86
638.85	56538.27
639.05	56474.79
639.24	56700.06
639.44	56120.49
639.63	56048.81
639.83	56665.25
640.02	56870.04
640.22	56302.76
640.41	56493.22
640.61	56253.61
640.80	56675.49
640.99	56554.66
641.19	57119.90
641.38	56386.72
641.58	56288.42
641.77	56253.61
641.97	56698.01
642.16	56505.51
642.36	56376.48
642.55	56931.48
642.74	56337.57
642.94	57357.46
643.13	56536.23
643.33	56743.07
643.52	57044.12
643.72	56945.82
643.91	56706.21
644.10	57111.70
644.30	56886.43
644.49	56956.06
644.69	57035.93
644.88	56958.11
645.08	56976.54
645.27	57115.80
645.46	56509.60
645.66	57111.70
645.85	56796.32
646.05	56997.02
646.24	56904.86
646.43	56855.71
646.63	56671.39
646.82	57599.12
647.02	57064.60
647.21	56800.41
647.40	56921.24
647.60	57296.02
647.79	57588.88
647.99	57345.17
648.18	57054.36
648.37	57488.53
648.57	57394.32
648.76	57447.57
648.96	56898.72
649.15	57513.11
649.34	57298.07
649.54	57064.60
649.73	57037.98
649.92	57590.93
650.12	57488.53
650.31	57357.46
650.51	57681.04
650.70	57564.31
650.89	57201.82
651.09	57717.90
651.28	57547.92
651.47	57275.54
651.67	57244.82
651.86	57394.32
652.06	56994.97
652.25	57791.63
652.44	57506.96
652.64	57087.13
652.83	57332.89
653.02	56886.43
653.22	57775.25
653.41	57058.46
653.60	56874.14
653.80	57293.97
653.99	57289.88
654.18	56761.50
654.38	57212.06
654.57	57515.15
654.76	57408.66
654.96	57588.88
655.15	57142.42
655.34	57480.34
655.54	56661.15
655.73	57283.73
655.92	57386.13
656.12	57433.24
656.31	57304.21
656.50	57635.98
656.70	57816.21
656.89	56896.67
657.08	57322.65
657.28	57349.27
657.47	57336.98
657.66	57377.94
657.86	56974.49
658.05	57339.03
658.24	57283.73
658.43	56962.20
658.63	57447.57
658.82	57095.32
659.01	57558.16
659.21	57152.66
659.40	57185.43
659.59	56960.15
659.79	57089.18
659.98	57089.18
660.17	57183.38
660.36	57083.03
660.56	57531.54
660.75	56882.33
660.94	57253.01
661.14	57484.43
661.33	57115.80
661.52	56919.20
661.71	57398.42
661.91	56689.82
662.10	56972.44
662.29	57355.41
662.49	57037.98
662.68	56986.78
662.87	57244.82
663.06	56745.12
663.26	56923.29
663.45	57175.19
663.64	57343.12
663.83	57756.81
664.03	57713.81
664.22	57083.03
664.41	57013.40
664.60	56501.41
664.80	56761.50
664.99	56986.78
665.18	56794.27
665.37	56747.17
665.57	57187.48
665.76	57109.66
665.95	56874.14
666.14	56790.17
666.34	56861.85
666.53	56427.68
666.72	56525.99
666.91	56468.64
667.11	56849.56
667.30	56501.41
667.49	56345.76
667.68	56530.08
667.87	56640.67
668.07	57128.09
668.26	56560.80
668.45	56251.56
668.64	56151.21
668.84	57113.75
669.03	56902.81
669.22	56558.75
669.41	56485.03
669.60	56730.78
669.80	56235.17
669.99	56589.47
670.18	56472.74
670.37	56765.60
670.57	56542.37
670.76	56509.60
670.95	56695.97
671.14	56495.27
671.33	56485.03
671.53	56317.09
671.72	56376.48
671.91	56480.93
672.10	56439.97
672.29	56542.37
672.48	56329.38
672.68	56726.69
672.87	56159.40
673.06	55768.24
673.25	56247.46
673.44	55780.52
673.64	56505.51
673.83	56136.87
674.02	56034.47
674.21	55661.74
674.40	56427.68
674.59	55745.71
674.79	56218.79
674.98	55714.99
675.17	56210.60
675.36	55751.85
675.55	56382.63
675.74	56020.14
675.94	55837.87
676.13	55993.51
676.32	56018.09
676.51	56155.30
676.70	56278.18
676.89	56065.19
677.08	56044.71
677.28	55514.29
677.47	56405.16
677.66	56644.77
677.85	56196.26
678.04	56374.44
678.23	56069.29
678.42	56317.09
678.62	56091.82
678.81	56224.93
679.00	55862.44
679.19	56255.65
679.38	55786.67
679.57	56005.80
679.76	55657.65
679.96	55805.10
680.15	55983.27
680.34	56005.80
680.53	55692.46
680.72	56054.95
680.91	56431.78
681.10	55176.37
681.29	55745.71
681.48	56286.37
681.68	55999.66
681.87	55520.43
682.06	55876.78
682.25	55514.29
682.44	55690.41
682.63	55422.13
682.82	55448.75
683.01	55440.56
683.20	55256.24
683.39	55704.75
683.59	55297.20
683.78	55143.61
683.97	55506.10
684.16	55233.72
684.35	55297.20
684.54	55313.59
684.73	55473.33
684.92	55039.16
685.11	55528.62
685.30	54748.35
685.49	55678.13
685.69	54891.71
685.88	55506.10
686.07	55549.10
686.26	55254.20
686.45	55473.33
686.64	55129.27
686.83	55145.65
687.02	55329.97
687.21	55055.54
687.40	55221.43
687.59	55319.73
687.78	55116.98
687.97	55284.92
688.16	55188.66
688.35	54697.15
688.54	54774.97
688.74	55289.01
688.93	55248.05
689.12	55178.42
689.31	54924.47
689.50	55217.33
689.69	54840.51
689.88	54815.93
690.07	54891.71
690.26	54983.86
690.45	55530.67
690.64	54969.53
690.83	54959.29
691.02	54830.27
691.21	54723.77
691.40	54652.09
691.59	55164.09
691.78	54801.60
691.97	54965.43
692.16	55262.39
692.35	54779.07
692.54	54860.99
692.73	55137.46
692.92	54736.06
693.11	54631.61
693.30	55164.09
693.49	54795.45
693.68	54686.91
693.87	54754.49
694.06	54809.79
694.25	54414.53
694.44	54559.94
694.63	54877.37
694.82	55121.08
695.01	54355.14
695.20	54523.07
695.39	54768.83
695.58	54869.18
695.77	54084.81
695.96	54709.44
696.15	54951.10
696.34	54648.00
696.53	54742.20
696.72	54875.32
696.91	54736.06
697.10	54574.27
697.29	54179.01
697.48	54736.06
697.67	54447.30
697.86	54645.95
698.05	54119.62
698.24	54596.80
698.43	54291.65
698.62	54525.12
698.81	54482.11
699.00	54525.12
699.19	54088.90
699.38	54617.28
699.57	54160.58
699.76	54807.74
699.95	54127.81
700.14	53853.39
700.32	54414.53
700.51	53886.15
700.70	54826.17
700.89	54316.23
701.08	54203.59
701.27	54168.77
701.46	54588.61
701.65	53660.88
701.84	53945.54
702.03	54338.75
702.22	54090.95
702.41	53869.77
702.60	54093.00
702.79	54285.51
702.98	53892.30
703.17	54328.52
703.35	54027.46
703.54	53679.31
703.73	54179.01
703.92	54537.41
704.11	54492.35
704.30	53918.92
704.49	54027.46
704.68	53667.02
704.87	54209.73
705.06	54183.11
705.25	53886.15
705.43	53935.30
705.62	54150.34
705.81	54301.89
706.00	54009.03
706.19	53525.71
706.38	53521.62
706.57	53992.65
706.76	53886.15
706.95	53843.15
707.14	53644.49
707.32	53882.06
707.51	53554.38
707.70	53640.40
707.89	53875.91
708.08	53632.21
708.27	53857.48
708.46	53712.08
708.65	53429.46
708.84	53869.77
709.02	53720.27
709.21	53550.29
709.40	53398.74
709.59	53576.91
709.78	53079.25
709.97	53732.56
710.16	53683.40
710.34	53486.80
710.53	53454.03
710.72	53232.85
710.91	53419.22
711.10	53769.42
711.29	53269.72
711.48	53648.59
711.66	53167.32
711.85	53009.62
712.04	53331.15
712.23	53282.00
712.42	53099.73
712.61	53148.88
712.80	53247.19
712.98	52557.02
713.17	53077.21
713.36	53171.41
713.55	53245.14
713.74	53060.82
713.93	52942.04
714.11	53058.77
714.30	52876.51
714.49	52905.18
714.68	52876.51
714.87	53075.16
715.06	53294.29
715.24	52958.42
715.43	53007.58
715.62	52296.93
715.81	52784.35
716.00	52923.61
716.18	52798.68
716.37	52645.08
716.56	52206.82
716.75	53050.58
716.94	52364.51
717.12	52704.48
717.31	52913.37
717.50	52534.49
717.69	52475.10
717.88	52743.39
718.06	52495.58
718.25	52434.14
718.44	52212.96
718.63	52016.36
718.82	51950.82
719.00	51944.68
719.19	51928.30
719.38	52143.33
719.57	51240.18
719.76	51416.30
719.94	51838.18
720.13	51682.54
720.32	51854.57
720.51	51344.62
720.69	51322.10
720.88	51133.68
721.07	51434.74
721.26	50922.74
721.44	51211.51
721.63	51086.58
721.82	50894.07
722.01	50855.16
722.20	51373.30
722.38	50920.70
722.57	50234.63
722.76	50951.41
722.95	50795.77
723.13	50488.57
723.32	50410.75
723.51	50576.64
723.70	50181.38
723.88	50670.84
724.07	49992.97
724.26	50459.90
724.44	49945.86
724.63	50615.55
724.82	50625.79
725.01	50117.89
725.19	50218.24
725.38	50433.28
725.57	50402.56
725.76	50337.02
725.94	49902.85
726.13	49997.06
726.32	50074.88
726.51	49855.75
726.69	50427.13
726.88	50173.19
727.07	50359.55
727.25	50382.08
727.44	50158.85
727.63	50017.54
727.82	49911.05
728.00	50085.12
728.19	49773.83
728.38	50150.66
728.56	49513.74
728.75	50255.11
728.94	49669.39
729.12	50148.61
729.31	49775.88
729.50	49634.57
729.69	49804.55
729.87	49663.24
730.06	49773.83
730.25	49747.21
730.43	50531.58
730.62	49247.50
730.81	49597.71
730.99	49716.49
731.18	49380.62
731.37	49542.41
731.55	49956.10
731.74	49589.52
731.93	49876.23
732.11	49345.81
732.30	49476.88
732.49	49511.69
732.67	49536.27
732.86	49503.50
733.05	49032.47
733.23	49177.87
733.42	49016.08
733.61	49509.64
733.79	49341.71
733.98	49554.70
734.17	49280.27
734.35	48977.17
734.54	49091.86
734.73	49184.02
734.91	48649.50
735.10	48737.56
735.29	49212.69
735.47	48872.73
735.66	48645.40
735.84	49005.84
736.03	48921.88
736.22	48952.60
736.40	48811.29
736.59	48788.76
736.78	49052.95
736.96	48696.60
737.15	48731.42
737.33	48293.15
737.52	48641.31
737.71	48352.54
737.89	48512.28
738.08	47971.62
738.27	48436.51
738.45	48852.25
738.64	48637.21
738.82	48280.86
739.01	48280.86
739.20	48344.35
739.38	48350.49
739.57	48483.61
739.75	48649.50
739.94	48221.47
740.13	48141.60
740.31	47820.07
740.50	47674.66
740.68	48125.22
740.87	47912.23
741.06	47904.04
741.24	47744.30
741.43	47820.07
741.61	48012.58
741.80	47217.97
741.99	47867.17
742.17	47740.20
742.36	47500.59
742.54	47455.53
742.73	47445.29
742.91	47824.17
743.10	47828.26
743.29	47451.44
743.47	47934.76
743.66	47310.13
743.84	47895.85
744.03	47719.72
744.21	47553.83
744.40	47492.40
744.59	47166.77
744.77	46759.22
744.96	47095.09
745.14	46791.99
745.33	47109.43
745.51	46390.59
745.70	46951.73
745.88	46998.83
746.07	47281.45
746.26	46177.60
746.44	46441.79
746.63	46478.65
746.81	46239.04
747.00	46161.22
747.18	46755.13
747.37	46456.12
747.55	46173.50
747.74	46849.33
747.92	45843.78
748.11	46056.77
748.29	46216.51
748.48	46165.31
748.66	46249.28
748.85	46335.29
749.03	46325.05
749.22	46677.30
749.41	46232.89
749.59	45899.08
749.78	45903.17
749.96	45864.26
750.15	46130.50
750.33	46306.62
750.52	45929.80
750.70	45727.05
750.89	45583.69
751.07	45415.76
751.26	45503.82
751.44	45352.27
751.63	45636.94
751.81	45370.70
752.00	45264.21
752.18	45425.99
752.37	45464.91
752.55	45061.46
752.74	44989.78
752.92	44979.54
753.10	45178.19
753.29	45432.14
753.47	44883.28
753.66	44871.00
753.84	45002.07
754.03	44893.52
754.21	44600.66
754.40	45196.62
754.58	45329.74
754.77	44825.94
754.95	44623.19
755.14	44666.20
755.32	44596.57
755.51	44340.57
755.69	44189.02
755.88	44359.00
756.06	44658.01
756.24	44422.49
756.43	44725.59
756.61	44545.37
756.80	44318.04
756.98	44162.40
757.17	44201.31
757.35	44150.11
757.54	44096.86
757.72	44350.81
757.90	44252.51
758.09	43996.51
758.27	43603.30
758.46	43515.24
758.64	43836.77
758.83	43898.21
759.01	44074.34
759.19	43820.39
759.38	43519.34
759.56	43441.51
759.75	43648.36
759.93	43427.18
760.12	43275.63
760.30	43558.25
760.48	43314.54
760.67	43574.63
760.85	43480.42
761.04	43795.81
761.22	43365.74
761.40	43097.45
761.59	43111.79
761.77	43220.33
761.96	42976.62
762.14	43271.53
762.32	42681.72
762.51	42706.29
762.69	43220.33
762.88	42513.78
763.06	43195.76
763.24	43021.68
763.43	42814.83
763.61	42863.99
763.80	42644.85
763.98	42474.87
764.16	42491.26
764.35	42075.52
764.53	42194.30
764.72	42198.40
764.90	42268.03
765.08	41997.70
765.27	42118.53
765.45	42286.46
765.63	41637.25
765.82	42186.11
766.00	41940.35
766.18	41977.22
766.37	42536.31
766.55	41653.64
766.74	41803.14
766.92	41584.01
767.10	41895.30
767.29	41979.26
767.47	41004.43
767.65	41643.40
767.84	41063.82
768.02	41649.54
768.20	41317.77
768.39	41346.44
768.57	41231.75
768.75	41424.26
768.94	41676.16
769.12	41184.65
769.30	40947.09
769.49	41229.71
769.67	40988.05
769.85	40666.52
770.04	40906.13
770.22	40922.51
770.40	40535.45
770.59	40828.30
770.77	41233.80
770.95	41162.12
771.14	40670.61
771.32	40605.08
771.50	40252.83
771.69	40656.28
771.87	40920.46
772.05	40725.91
772.24	40242.59
772.42	40271.26
772.60	40361.37
772.78	40451.48
772.97	40125.85
773.15	40910.22
773.33	40142.24
773.52	40271.26
773.70	40103.32
773.88	40226.20
774.07	40457.62
774.25	40263.07
774.43	40357.27
774.61	40144.28
774.80	40635.80
774.98	40490.39
775.16	40756.63
775.34	40551.83
775.53	40146.33
775.71	40197.53
775.89	40258.97
776.08	40320.41
776.26	40474.01
776.44	40334.74
776.62	39763.36
776.81	40052.12
776.99	40555.93
777.17	40353.18
777.35	40754.58
777.54	40695.19
777.72	40220.06
777.90	40537.49
778.08	40654.23
778.27	40545.69
778.45	40881.55
778.63	40971.66
778.81	40183.19
779.00	41029.01
779.18	41188.75
779.36	41100.68
779.54	40664.47
779.73	40951.18
779.91	40947.09
780.09	40775.06
780.27	40975.76
780.46	41051.53
780.64	41129.36
780.82	41215.37
781.00	40996.24
781.19	41229.71
781.37	41547.14
781.55	41145.74
781.73	41663.88
781.91	41368.97
782.10	41504.13
782.28	41379.21
782.46	41221.52
782.64	41276.81
782.82	41399.69
783.01	41547.14
783.19	41545.09
783.37	41391.50
783.55	41209.23
783.74	41487.75
783.92	41074.06
784.10	42091.90
784.28	41768.32
784.46	41229.71
784.64	40820.11
784.83	41727.36
785.01	41969.02
785.19	41534.85
785.37	41063.82
785.55	41387.40
785.74	41137.55
785.92	41098.64
786.10	41694.60
786.28	41399.69
786.46	41399.69
786.64	41188.75
786.83	40631.70
787.01	41325.96
787.19	41168.27
787.37	41436.55
787.55	41223.56
787.74	40865.17
787.92	41190.80
788.10	40951.18
788.28	41074.06
788.46	40906.13
788.64	40969.61
788.82	41018.77
789.01	41018.77
789.19	41029.01
789.37	40215.96
789.55	40416.66
789.73	40480.15
789.91	40166.81
790.09	40586.64
790.28	40555.93
790.46	40048.03
790.64	40246.68
790.82	40562.07
791.00	40281.50
791.18	40056.22
791.36	40279.45
791.55	40269.21
791.73	40338.84
791.91	39724.45
792.09	40162.72
792.27	40228.25
792.45	40205.72
792.63	40060.32
792.81	39681.44
793.00	40015.26
793.18	39818.66
793.36	39638.44
793.54	39128.49
793.72	39282.09
793.90	39364.01
794.08	39392.68
794.26	39294.38
794.44	39210.41
794.62	39015.85
794.81	39017.90
794.99	39208.36
795.17	38667.70
795.35	38761.90
795.53	38688.18
795.71	38729.14
795.89	38258.10
796.07	38587.83
796.25	38438.33
796.43	38426.04
796.61	38237.62
796.80	38161.85
796.98	38337.98
797.16	37985.72
797.34	37897.66
797.52	37719.49
797.70	37987.77
797.88	37604.80
798.06	37807.55
798.24	37612.99
798.42	37895.61
798.60	37426.63
798.78	37641.67
798.96	37807.55
799.14	37367.24
799.32	37383.62
799.51	37410.25
799.69	37375.43
799.87	37283.27
800.05	36828.62
800.23	36959.69
800.41	36646.35
800.59	36691.41
800.77	36576.72
800.95	36451.80
801.13	36658.64
801.31	36220.38
801.49	36466.13
801.67	36357.59
801.85	36603.35
802.03	36050.39
802.21	35837.41
802.39	36365.78
802.57	35806.69
802.75	36007.39
802.93	35823.07
803.11	35587.55
803.29	35517.92
803.47	35411.43
803.65	35632.61
803.83	35558.88
804.01	35601.89
804.19	35257.83
804.37	35452.39
804.55	35143.14
804.73	35182.06
804.91	35171.82
805.09	35376.61
805.27	35091.94
805.45	35235.30
805.63	34739.69
805.81	35012.07
805.99	34833.90
806.17	34829.80
806.35	34567.66
806.53	34524.66
806.71	34762.22
806.89	34913.77
807.07	34854.38
807.25	34670.06
807.43	34190.84
807.61	34602.48
807.79	34248.18
807.97	33805.82
808.15	34424.31
808.33	33908.22
808.51	33998.33
808.69	34043.38
808.87	33607.17
809.05	33592.83
809.23	33592.83
809.41	33654.27
809.59	33498.62
809.77	33768.96
809.95	33166.85
810.13	33392.13
810.31	33173.00
810.49	33125.89
810.67	33238.53
810.84	33166.85
811.02	33162.76
811.20	32636.43
811.38	33037.83
811.56	32661.01
811.74	32822.80
811.92	32810.51
812.10	32857.61
812.28	32902.67
812.46	32525.84
812.64	32802.32
812.82	32458.26
813.00	32675.34
813.18	32773.64
813.36	32388.63
813.53	32185.88
813.71	32163.35
813.89	31921.69
814.07	31972.89
814.25	32566.80
814.43	32245.27
814.61	31723.04
814.79	31637.02
814.97	31649.31
815.15	31899.16
815.33	31632.93
815.50	31628.83
815.68	31376.93
815.86	32003.61
816.04	31417.89
816.22	31421.98
816.40	31229.48
816.58	31354.40
816.76	31264.29
816.94	31309.35
817.11	31090.21
817.29	31247.91
817.47	31219.24
817.65	30909.99
817.83	31024.68
818.01	30559.79
818.19	31092.26
818.37	30758.44
818.54	30678.57
818.72	30309.94
818.90	30379.57
819.08	30737.96
819.26	30768.68
819.44	30400.05
819.62	30553.65
819.80	30690.86
819.97	30471.73
820.15	30031.41
820.33	30385.71
820.51	30090.80
820.69	30144.05
820.87	30189.11
821.05	30479.92
821.22	30357.04
821.40	30244.40
821.58	29955.64
821.76	29896.25
821.94	29791.80
822.12	29701.69
822.29	29875.77
822.47	29849.14
822.65	29904.44
822.83	29562.43
823.01	29406.78
823.19	29546.05
823.36	29634.11
823.54	29460.03
823.72	29382.21
823.90	29179.46
824.08	29156.93
824.25	29210.18
824.43	28937.80
824.61	28972.61
824.79	28722.76
824.97	29044.29
825.15	29169.22
825.32	28649.03
825.50	28814.92
825.68	29044.29
825.86	29365.82
826.04	29087.30
826.21	28931.65
826.39	28599.88
826.57	28794.44
826.75	28339.79
826.93	28274.26
827.10	28513.87
827.28	28880.46
827.46	28810.82
827.64	28663.37
827.81	28362.32
827.99	28718.67
828.17	28186.19
828.35	28178.00
828.53	27922.01
828.70	28352.08
828.88	28272.21
829.06	28155.47
829.24	28419.66
829.41	28057.17
829.59	28446.29
829.77	28104.28
829.95	27784.79
830.12	28040.79
830.30	27868.76
830.48	27973.21
830.66	27870.81
830.84	27711.07
831.01	27946.58
831.19	27661.91
831.37	27481.69
831.55	27547.23
831.72	27440.73
831.90	27670.11
832.08	27471.45
832.25	27498.08
832.43	27287.14
832.61	27375.20
832.79	27215.46
832.96	27397.73
833.14	27096.67
833.32	27623.00
833.50	27514.46
833.67	27260.51
833.85	27160.16
834.03	27256.42
834.20	27115.11
834.38	27219.55
834.56	26963.56
834.74	26646.12
834.91	26783.34
835.09	26986.08
835.27	26566.25
835.44	26310.25
835.62	26318.45
835.80	26361.45
835.98	26711.66
836.15	26257.01
836.33	26273.39
836.51	26746.47
836.68	26316.40
836.86	26660.46
837.04	26230.38
837.21	26244.72
837.39	26433.13
837.57	26314.35
837.75	26414.70
837.92	26070.64
838.10	25960.05
838.28	25900.66
838.45	26027.63
838.63	25898.61
838.81	25933.43
838.98	25919.09
839.16	25800.31
839.34	25826.93
839.51	25849.46
839.69	25448.06
839.87	25568.89
840.04	25716.34
840.22	25542.27
840.40	25529.98
840.57	25419.39
840.75	25685.62
840.93	25251.45
841.10	25507.45
841.28	25529.98
841.46	25396.86
841.63	25599.61
841.81	25390.72
841.98	25384.57
842.16	25312.89
842.34	25421.44
842.51	25050.75
842.69	25159.30
842.87	25235.07
843.04	25239.17
843.22	25120.38
843.40	24886.92
843.57	25095.81
843.75	25104.00
843.92	24868.48
844.10	24757.89
844.28	24927.88
844.45	25005.70
844.63	25046.66
844.81	24641.16
844.98	24712.84
845.16	24682.12
845.33	24632.97
845.51	24626.82
845.69	24616.58
845.86	24616.58
846.04	24270.48
846.21	24323.72
846.39	24145.55
846.57	24159.89
846.74	24194.70
846.92	24596.10
847.09	24120.98
847.27	24139.41
847.45	24112.78
847.62	24483.47
847.80	24157.84
847.97	24250.00
848.15	23991.95
848.32	23824.02
848.50	24131.22
848.68	23613.08
848.85	23932.56
849.03	23871.12
849.20	23948.95
849.38	23805.59
849.56	23807.64
849.73	23477.91
849.91	23848.60
850.08	23635.61
850.26	23459.48
850.43	23420.57
850.61	23619.22
850.78	23377.56
850.96	23742.10
851.14	23275.16
851.31	23295.64
851.49	23279.26
851.66	23314.08
851.84	23238.30
852.01	23412.38
852.19	23424.67
852.36	23252.64
852.54	23295.64
852.71	23125.66
852.89	23070.37
853.07	22912.67
853.24	22955.68
853.42	22929.06
853.59	23142.05
853.77	22976.16
853.94	23033.50
854.12	23045.79
854.29	22726.31
854.47	22468.27
854.64	22490.79
854.82	22595.24
854.99	22879.91
855.17	22156.97
855.34	22619.81
855.52	22779.56
855.69	22754.98
855.87	22472.36
856.04	22400.68
856.22	22484.65
856.39	22156.97
856.57	22302.38
856.74	22097.58
856.92	22382.25
857.09	22263.47
857.27	22169.26
857.44	22488.74
857.62	22378.15
857.79	22242.99
857.97	22269.61
858.14	22163.12
858.32	21999.28
858.49	22130.35
858.67	21765.81
858.84	21860.02
859.02	21997.23
859.19	21722.80
859.37	21731.00
859.54	21692.08
859.72	22070.96
859.89	21585.59
860.06	21960.37
860.24	21395.13
860.41	21855.92
860.59	21427.90
860.76	21554.87
860.94	21380.79
861.11	21622.45
861.29	21636.79
861.46	21259.96
861.64	21331.64
861.81	21126.85
861.98	21626.55
862.16	20995.78
862.33	20985.54
862.51	21073.60
862.68	21163.71
862.86	21192.38
863.03	20950.72
863.21	21313.21
863.38	20866.75
863.55	20813.51
863.73	21106.37
863.90	20979.39
864.08	20799.17
864.25	20833.99
864.43	20985.54
864.60	20786.88
864.77	20422.34
864.95	20833.99
865.12	20672.20
865.30	20729.54
865.47	20661.96
865.64	20588.23
865.82	20784.83
865.99	21006.02
866.17	20483.78
866.34	20489.93
866.51	20526.79
866.69	20647.62
866.86	20500.17
867.04	20399.82
867.21	20246.22
867.38	20332.23
867.56	20348.62
867.73	20250.32
867.91	19959.50
868.08	19955.41
868.25	20014.80
868.43	20025.04
868.60	19943.12
868.78	19996.37
868.95	20401.86
869.12	20094.67
869.30	20008.65
869.47	20035.28
869.64	19637.97
869.82	19654.36
869.99	19719.89
870.16	19934.93
870.34	19547.86
870.51	19875.54
870.69	19463.90
870.86	19490.52
871.03	19666.64
871.21	19250.91
871.38	19463.90
871.55	19343.06
871.73	19250.91
871.90	19183.32
872.07	19291.87
872.25	19011.29
872.42	18970.33
872.59	18845.41
872.77	19136.22
872.94	18872.03
873.11	19113.69
873.29	18800.35
873.46	18788.07
873.63	19033.82
873.81	18781.92
873.98	18601.70
874.15	18884.32
874.33	18618.08
874.50	18859.74
874.67	18894.56
874.85	18753.25
875.02	18366.18
875.19	18468.58
875.37	18548.45
875.54	18489.06
875.71	18478.82
875.88	18222.83
876.06	18183.91
876.23	18362.09
876.40	18296.55
876.58	18349.80
876.75	18128.62
876.92	18167.53
877.10	18390.76
877.27	18050.80
877.44	17872.62
877.61	17770.22
877.79	17741.55
877.96	17850.10
878.13	18052.84
878.31	17749.75
878.48	17434.36
878.65	17532.66
878.82	17663.73
879.00	17735.41
879.17	17659.63
879.34	17626.87
879.51	17473.27
879.69	17565.43
879.86	17039.10
880.03	17557.24
880.21	17399.54
880.38	17716.98
880.55	17561.33
880.72	17250.04
880.90	17118.97
881.07	17307.38
881.24	17362.68
881.41	17329.91
881.59	16996.09
881.76	17170.17
881.93	17180.41
882.10	17231.61
882.28	16762.62
882.45	17161.98
882.62	17071.87
882.79	17266.42
882.96	16736.00
883.14	16963.33
883.31	17088.25
883.48	16721.66
883.65	16953.09
883.83	17114.87
884.00	16994.04
884.17	17059.58
884.34	16834.30
884.51	16832.26
884.69	16869.12
884.86	16887.55
885.03	16754.43
885.20	16463.62
885.38	16699.14
885.55	16477.96
885.72	16785.15
885.89	16617.22
886.06	16961.28
886.24	16731.90
886.41	16373.51
886.58	16979.71
886.75	16582.40
886.92	16445.19
887.10	16410.37
887.27	16467.72
887.44	16455.43
887.61	16629.51
887.78	16293.64
887.95	16512.77
888.13	16506.63
888.30	16246.54
888.47	16199.43
888.64	16166.67
888.81	16314.12
888.99	15990.54
889.16	16043.79
889.33	16234.25
889.50	15748.88
889.67	15968.01
889.84	15955.72
890.01	16211.72
890.19	16011.02
890.36	15912.72
890.53	16068.36
890.70	15662.86
890.87	15918.86
891.04	15603.47
891.22	15705.87
891.39	15787.79
891.56	15419.16
891.73	15775.50
891.90	15638.29
892.07	15470.36
892.24	15699.73
892.42	15558.42
892.59	15548.18
892.76	15468.31
892.93	15453.97
893.10	15662.86
893.27	15648.53
893.44	15511.32
893.61	15519.51
893.79	15513.36
893.96	15343.38
894.13	15386.39
894.30	15433.49
894.47	15347.48
894.64	15587.09
894.81	15271.70
894.98	15503.12
895.15	15253.27
895.33	15296.28
895.50	15095.58
895.67	15456.02
895.84	15341.33
896.01	15154.97
896.18	15167.26
896.35	15281.94
896.52	15173.40
896.69	15277.85
896.86	15355.67
897.04	15124.25
897.21	15228.70
897.38	15146.78
897.55	15361.81
897.72	15316.76
897.89	15245.08
898.06	15410.96
898.23	15189.78
898.40	15306.52
898.57	15306.52
898.74	15150.87
898.91	15066.91
899.08	15038.23
899.26	15296.28
899.43	15335.19
899.60	15224.60
899.77	15130.39
899.94	15322.90
900.11	14927.64
900.28	15122.20
900.45	15044.38
900.62	14817.05
900.79	15314.71
900.96	15296.28
901.13	14989.08
901.30	15189.78
901.47	15101.72
901.64	15087.39
901.81	14944.03
901.98	14987.04
902.15	15308.57
902.32	14876.44
902.49	15238.94
902.66	15077.15
902.83	15107.87
903.01	15056.67
903.18	15150.87
903.35	15193.88
903.52	15077.15
903.69	15245.08
903.86	15292.18
904.03	15277.85
904.20	15359.77
904.37	15431.44
904.54	15257.37
904.71	14909.21
904.88	15283.99
905.05	15105.82
905.22	15128.35
905.39	15095.58
905.56	15136.54
905.73	15097.63
905.90	14921.50
906.07	15216.41
906.24	15085.34
906.41	15066.91
906.58	15114.01
906.75	14901.02
906.92	14911.26
907.09	14892.83
907.26	14980.89
907.43	15044.38
907.60	14849.82
907.77	15331.09
907.93	14956.32
908.10	15019.80
908.27	14954.27
908.44	14728.99
908.61	14839.58
908.78	15009.56
908.95	15191.83
909.12	14984.99
909.29	14753.57
909.46	14829.34
909.63	15093.53
909.80	14806.81
909.97	14978.84
910.14	14810.91
910.31	14829.34
910.48	14798.62
910.65	14823.20
910.82	14923.55
910.99	14694.18
911.16	14745.38
911.33	14792.48
911.50	14720.80
911.66	14671.65
911.83	14835.49
912.00	14681.89
912.17	14698.27
912.34	14470.95
912.51	14647.07
912.68	14421.80
912.85	14741.28
913.02	14808.86
913.19	14886.68
913.36	14446.37
913.53	14681.89
913.70	14612.26
913.86	14714.66
914.03	14612.26
914.20	14446.37
914.37	14364.45
914.54	14389.03
914.71	14411.56
914.88	14405.41
915.05	14346.02
915.22	14122.79
915.39	14235.43
915.55	14159.66
915.72	14120.74
915.89	14319.40
916.06	14098.22
916.23	14167.85
916.40	13993.77
916.57	13907.76
916.74	13999.91
916.91	13946.67
917.07	13815.60
917.24	13756.21
917.41	13893.42
917.58	13874.99
917.75	13786.93
917.92	13608.75
918.09	13819.69
918.26	13651.76
918.42	13721.39
918.59	13672.24
918.76	13561.65
918.93	13668.14
919.10	13457.20
919.27	13516.59
919.44	13645.62
919.60	13641.52
919.77	13616.94
919.94	13356.85
920.11	13342.52
920.28	13322.04
920.45	13352.76
920.61	13227.83
920.78	13098.81
920.95	13211.45
921.12	13133.62
921.29	12887.87
921.46	12865.34
921.62	12795.71
921.79	12977.98
921.96	12844.86
922.13	12844.86
922.30	12900.16
922.47	12748.61
922.63	12568.38
922.80	12734.27
922.97	12470.08
923.14	12404.55
923.31	12486.47
923.47	12592.96
923.64	12601.15
923.81	12488.51
923.98	12549.95
924.15	12347.20
924.32	12365.64
924.48	12531.52
924.65	12191.56
924.82	12218.18
924.99	12160.84
925.15	12119.88
925.32	12119.88
925.49	12011.34
925.66	11904.84
925.83	11818.83
925.99	11859.79
926.16	11962.19
926.33	11888.46
926.50	11644.75
926.67	11716.43
926.83	11872.07
927.00	11671.37
927.17	11530.06
927.34	11478.86
927.50	11503.44
927.67	11519.82
927.84	11452.24
928.01	11433.81
928.17	11247.44
928.34	11292.50
928.51	11145.05
928.68	11114.33
928.84	11175.77
929.01	10938.20
929.18	10915.67
929.35	11020.12
929.51	10880.86
929.68	10788.70
929.85	10985.30
930.02	10932.06
930.18	10745.69
930.35	10651.49
930.52	10778.46
930.69	10682.20
930.85	10637.15
931.02	10526.56
931.19	10590.05
931.36	10407.78
931.52	10375.01
931.69	10516.32
931.86	10231.65
932.02	10452.83
932.19	10289.00
932.36	10227.56
932.53	10073.96
932.69	10096.49
932.86	10264.42
933.03	10141.54
933.19	9930.60
933.36	9850.73
933.53	10026.86
933.70	9725.80
933.86	9789.29
934.03	9693.04
934.20	9672.56
934.36	9598.83
934.53	9490.29
934.70	9199.48
934.86	9424.75
935.03	9373.55
935.20	9176.95
935.36	9398.13
935.53	9111.41
935.70	9033.59
935.86	9088.89
936.03	8966.01
936.20	8736.63
936.36	8707.96
936.53	8718.20
936.70	8650.62
936.86	8679.29
937.03	8595.32
937.20	8566.65
937.36	8347.52
937.53	8339.33
937.70	8058.76
937.86	8105.86
938.03	7915.40
938.20	8107.91
938.36	7767.95
938.53	7966.60
938.70	7591.82
938.86	7759.75
939.03	7616.40
939.20	7524.24
939.36	7384.98
939.53	7352.21
939.70	7362.45
939.86	7141.27
940.03	7065.49
940.19	6977.43
940.36	7010.20
940.53	6836.12
940.69	6750.10
940.86	6813.59
941.03	6772.63
941.19	6393.76
941.36	6594.46
941.52	6502.30
941.69	6356.90
941.86	6281.12
942.02	6270.88
942.19	6203.30
942.35	6199.20
942.52	6221.73
942.69	6141.86
942.85	5994.40
943.02	5857.19
943.18	6023.08
943.35	5844.90
943.52	5754.79
943.68	5930.92
943.85	5832.62
944.01	5760.94
944.18	5762.98
944.35	5838.76
944.51	5494.70
944.68	5572.52
944.84	5640.11
945.01	5523.37
945.17	5531.56
945.34	5539.76
945.51	5633.96
945.67	5568.43
945.84	5449.64
946.00	5347.25
946.17	5423.02
946.33	5463.98
946.50	5560.24
946.67	5304.24
946.83	5384.11
947.00	5597.10
947.16	5328.81
947.33	5398.45
947.49	5326.77
947.66	5320.62
947.82	5484.46
947.99	5332.91
948.16	5541.80
948.32	5289.90
948.49	5406.64
948.65	5552.04
948.82	5509.04
948.98	5441.45
949.15	5390.25
949.31	5515.18
949.48	5470.12
949.64	5414.83
949.81	5420.97
949.97	5279.66
950.14	5529.52
950.30	5246.90
950.47	5484.46
950.63	5345.20
950.80	5371.82
950.96	5384.11
951.13	5543.85
951.30	5494.70
951.46	5441.45
951.63	5437.36
951.79	5545.90
951.96	5539.76
952.12	5515.18
952.29	5584.81
952.45	5396.40
952.62	5603.24
952.78	5662.63
952.94	5445.55
953.11	5445.55
953.27	5375.92
953.44	5533.61
953.60	5515.18
953.77	5523.37
953.93	5480.36
954.10	5519.28
954.26	5545.90
954.43	5517.23
954.59	5650.35
954.76	5638.06
954.92	5636.01
955.09	5679.02
955.25	5463.98
955.42	5554.09
955.58	5711.78
955.75	5580.71
955.91	5517.23
956.07	5599.15
956.24	5590.95
956.40	5513.13
956.57	5502.89
956.73	5621.67
956.90	5603.24
957.06	5367.73
957.23	5486.51
957.39	5547.95
957.56	5570.48
957.72	5642.15
957.88	5494.70
958.05	5664.68
958.21	5787.56
958.38	5656.49
958.54	5599.15
958.71	5652.39
958.87	5713.83
959.03	5787.56
959.20	5593.00
959.36	5658.54
959.53	5615.53
959.69	5601.19
959.85	5668.78
960.02	5490.60
960.18	5545.90
960.35	5609.39
960.51	5631.91
960.68	5556.14
960.84	5627.82
961.00	5672.87
961.17	5564.33
961.33	5463.98
961.50	5568.43
961.66	5668.78
961.82	5492.65
961.99	5539.76
962.15	5554.09
962.31	5545.90
962.48	5502.89
962.64	5681.07
962.81	5715.88
962.97	5590.95
963.13	5566.38
963.30	5525.42
963.46	5408.69
963.62	5525.42
963.79	5463.98
963.95	5435.31
964.12	5533.61
964.28	5382.06
964.44	5480.36
964.61	5564.33
964.77	5562.28
964.93	5617.58
965.10	5590.95
965.26	5408.69
965.42	5439.40
965.59	5357.49
965.75	5408.69
965.92	5453.74
966.08	5394.35
966.24	5466.03
966.41	5382.06
966.57	5521.32
966.73	5506.99
966.90	5484.46
967.06	5363.63
967.22	5250.99
967.39	5423.02
967.55	5384.11
967.71	5244.85
967.88	5423.02
968.04	5351.34
968.20	5406.64
968.37	5349.29
968.53	5220.27
968.69	5269.42
968.85	5261.23
969.02	5279.66
969.18	5220.27
969.34	5171.12
969.51	5377.97
969.67	5302.19
969.83	5148.59
970.00	5277.62
970.16	5271.47
970.32	5085.11
970.48	5382.06
970.65	5111.73
970.81	5191.60
970.97	5277.62
971.14	5027.76
971.30	5334.96
971.46	5181.36
971.63	5195.70
971.79	5148.59
971.95	5259.18
972.11	4966.32
972.28	5119.92
972.44	5218.22
972.60	4951.99
972.76	4945.84
972.93	4958.13
973.09	5154.74
973.25	5107.63
973.42	4976.56
973.58	5007.28
973.74	5042.10
973.90	4964.28
974.07	4886.45
974.23	5066.67
974.39	4925.36
974.55	4906.93
974.72	4892.60
974.88	4835.25
975.04	4964.28
975.20	4982.71
975.37	4880.31
975.53	4839.35
975.69	4958.13
975.85	4782.01
976.01	4792.25
976.18	4784.06
976.34	4896.69
976.50	4792.25
976.66	4874.17
976.83	4755.38
976.99	4804.53
977.15	4843.45
977.31	4712.38
977.47	4837.30
977.64	4755.38
977.80	4800.44
977.96	4810.68
978.12	4749.24
978.29	4700.09
978.45	4550.59
978.61	4609.98
978.77	4679.61
978.93	4552.63
979.10	4638.65
979.26	4669.37
979.42	4671.42
979.58	4456.38
979.74	4468.67
979.91	4702.14
980.07	4548.54
980.23	4689.85
980.39	4521.92
980.55	4560.83
980.71	4564.92
980.88	4487.10
981.04	4523.96
981.20	4581.31
981.36	4470.72
981.52	4440.00
981.68	4366.27
981.85	4425.66
982.01	4478.91
982.17	4366.27
982.33	4370.37
982.49	4546.49
982.65	4321.21
982.82	4472.76
982.98	4392.89
983.14	4241.34
983.30	4337.60
983.46	4444.09
983.62	4345.79
983.79	4239.30
983.95	4278.21
984.11	4210.62
984.27	4329.41
984.43	4347.84
984.59	4233.15
984.75	4241.34
984.91	4218.82
985.08	4370.37
985.24	4063.17
985.40	4104.13
985.56	4130.75
985.72	4333.50
985.88	4186.05
986.04	4177.86
986.20	4149.18
986.37	4091.84
986.53	4140.99
986.69	4132.80
986.85	4073.41
987.01	4118.47
987.17	4106.18
987.33	4034.50
987.49	4079.55
987.65	4089.79
987.82	4069.31
987.98	4007.87
988.14	4202.43
988.30	4118.47
988.46	3989.44
988.62	4009.92
988.78	4001.73
988.94	3925.96
989.10	3878.85
989.26	3852.23
989.42	3882.95
989.59	3993.54
989.75	3852.23
989.91	4034.50
990.07	3841.99
990.23	3805.13
990.39	3706.82
990.55	3839.94
990.71	3717.06
990.87	3837.89
991.03	3813.32
991.19	3764.17
991.35	3772.36
991.51	3807.17
991.67	3928.00
991.83	3860.42
992.00	3786.69
992.16	3909.57
992.32	3903.43
992.48	3813.32
992.64	3692.49
992.80	3782.60
992.96	3741.64
993.12	3667.91
993.28	3727.30
993.44	3620.81
993.60	3590.09
993.76	3764.17
993.92	3661.77
994.08	3721.16
994.24	3710.92
994.40	3610.57
994.56	3737.54
994.72	3567.56
994.88	3657.67
995.04	3575.75
995.20	3551.18
995.36	3557.32
995.52	3545.03
995.68	3577.80
995.84	3514.31
996.00	3588.04
996.16	3518.41
996.32	3432.40
996.48	3469.26
996.64	3555.27
996.80	3495.88
996.96	3469.26
997.12	3616.71
997.28	3405.77
997.44	3508.17
997.60	3336.14
997.76	3416.01
997.92	3418.06
998.08	3571.66
998.24	3364.81
998.40	3403.72
998.56	3459.02
998.72	3338.19
998.88	3278.80
999.04	3221.45
999.20	3397.58
999.36	3200.98
999.52	3327.95
999.68	3356.62
999.84	3348.43
1000.00	3364.81
1000.16	3366.86
1000.32	3264.46
1000.48	3387.34
1000.64	3266.51
1000.80	3209.17
1000.95	3096.53
1001.11	3178.45
1001.27	3246.03
1001.43	3256.27
1001.59	3069.91
1001.75	3094.48
1001.91	3227.60
1002.07	3125.20
1002.23	3231.69
1002.39	3123.15
1002.55	3196.88
1002.71	3114.96
1002.87	3221.45
1003.03	3092.43
1003.19	3080.14
1003.34	3237.84
1003.50	3121.10
1003.66	3190.74
1003.82	3104.72
1003.98	3026.90
1004.14	3104.72
1004.30	2971.60
1004.46	3117.01
1004.62	3059.67
1004.78	3041.23
1004.94	3071.95
1005.09	3170.26
1005.25	3090.38
1005.41	2944.98
1005.57	2928.60
1005.73	2992.08
1005.89	2983.89
1006.05	2967.51
1006.21	2975.70
1006.37	2987.99
1006.52	2912.21
1006.68	2895.83
1006.84	3065.81
1007.00	2901.97
1007.16	2932.69
1007.32	2852.82
1007.48	2762.71
1007.64	2889.68
1007.79	2938.84
1007.95	2748.37
1008.11	2949.08
1008.27	2852.82
1008.43	3016.66
1008.59	2873.30
1008.75	2908.12
1008.91	2848.72
1009.06	2785.24
1009.22	2840.53
1009.38	2883.54
1009.54	2830.29
1009.70	2879.44
1009.86	2791.38
1010.01	2854.87
1010.17	2752.47
1010.33	2834.39
1010.49	2813.91
1010.65	2793.43
1010.81	2744.28
1010.96	2844.63
1011.12	2680.79
1011.28	2695.13
1011.44	2811.86
1011.60	2658.26
1011.76	2609.11
1011.91	2723.80
1012.07	2600.92
1012.23	2625.50
1012.39	2588.63
1012.55	2635.74
1012.71	2717.65
1012.86	2590.68
1013.02	2617.30
1013.18	2639.83
1013.34	2650.07
1013.50	2734.04
1013.65	2662.36
1013.81	2631.64
1013.97	2543.58
1014.13	2566.10
1014.29	2578.39
1014.44	2715.61
1014.60	2588.63
1014.76	2537.43
1014.92	2602.97
1015.07	2535.39
1015.23	2639.83
1015.39	2400.22
1015.55	2576.34
1015.71	2535.39
1015.86	2541.53
1016.02	2461.66
1016.18	2353.12
1016.34	2557.91
1016.49	2545.63
1016.65	2596.82
1016.81	2428.89
1016.97	2500.57
1017.12	2506.71
1017.28	2414.56
1017.44	2404.32
1017.60	2449.37
1017.75	2467.80
1017.91	2404.32
1018.07	2492.38
1018.23	2430.94
1018.38	2353.12
1018.54	2441.18
1018.70	2416.60
1018.86	2428.89
1019.01	2398.17
1019.17	2385.88
1019.33	2404.32
1019.49	2355.16
1019.64	2404.32
1019.80	2351.07
1019.96	2500.57
1020.12	2432.99
1020.27	2328.54
1020.43	2402.27
1020.59	2398.17
1020.74	2408.41
1020.90	2377.69
1021.06	2332.64
1021.22	2349.02
1021.37	2340.83
1021.53	2250.72
1021.69	2365.40
1021.84	2207.71
1022.00	2416.60
1022.16	2269.15
1022.31	2346.97
1022.47	2269.15
1022.63	2361.31
1022.79	2181.09
1022.94	2215.90
1023.10	2330.59
1023.26	2238.43
1023.41	2222.05
1023.57	2246.62
1023.73	2263.01
1023.88	2254.81
1024.04	2244.57
1024.20	2191.33
1024.35	2252.77
1024.51	2254.81
1024.67	2256.86
1024.82	2330.59
1024.98	2099.17
1025.14	2207.71
1025.29	2185.18
1025.45	2265.05
1025.61	2183.13
1025.76	2172.89
1025.92	2095.07
1026.08	2238.43
1026.23	2133.98
1026.39	2250.72
1026.55	2287.58
1026.70	2068.45
1026.86	2207.71
1027.02	2242.53
1027.17	2201.57
1027.33	2224.09
1027.48	2199.52
1027.64	2105.31
1027.80	2019.30
1027.95	2283.49
1028.11	2017.25
1028.27	2185.18
1028.42	2148.32
1028.58	2047.97
1028.73	2181.09
1028.89	2025.44
1029.05	2195.42
1029.20	2088.93
>>>>>End Processed Spectral Data<<<<<
