SpectraSuite Data File
++++++++++++++++++++++++++++++++++++
Date: Fri Jun 02 14:44:38 CEST 2017
User: INFO_000
Dark Spectrum Present: No
Reference Spectrum Present: No
Number of Sampled Component Spectra: 1
Spectrometers: USB4H00879
Integration Time (usec): 80000 (USB4H00879)
Spectra Averaged: 1 (USB4H00879)
Boxcar Smoothing: 0 (USB4H00879)
Correct for Electrical Dark: No (USB4H00879)
Strobe/Lamp Enabled: No (USB4H00879)
Correct for Detector Non-linearity: No (USB4H00879)
Correct for Stray Light: No (USB4H00879)
Number of Pixels in Processed Spectrum: 3648
>>>>>Begin Processed Spectral Data<<<<<
345.13	1271.79
345.34	1271.79
345.56	1271.79
345.78	1265.64
345.99	1241.07
346.21	1712.10
346.42	1753.06
346.64	1648.61
346.86	1802.21
347.07	1669.09
347.29	1736.68
347.50	1603.56
347.72	1611.75
347.94	1781.73
348.15	1605.61
348.37	1648.61
348.59	1738.73
348.80	1699.81
349.02	1761.25
349.23	1806.31
349.45	1832.93
349.67	1888.23
349.88	1806.31
350.10	1867.75
350.31	1824.74
350.53	1800.16
350.75	1943.52
350.96	1847.27
351.18	1884.13
351.39	1896.42
351.61	1830.88
351.82	1912.80
352.04	1875.94
352.26	1763.30
352.47	1933.28
352.69	1841.12
352.90	1804.26
353.12	1853.41
353.34	1857.51
353.55	1957.86
353.77	1918.95
353.98	1855.46
354.20	1834.98
354.41	1941.47
354.63	1957.86
354.85	2068.45
355.06	2029.54
355.28	1804.26
355.49	1810.40
355.71	1853.41
355.92	1902.56
356.14	1945.57
356.35	1875.94
356.57	1834.98
356.79	1875.94
357.00	1910.75
357.22	1935.33
357.43	1787.88
357.65	1972.19
357.86	1845.22
358.08	1834.98
358.29	1931.23
358.51	1961.95
358.72	1964.00
358.94	1966.05
359.16	1898.47
359.37	1964.00
359.59	1920.99
359.80	2019.30
360.02	1920.99
360.23	1949.67
360.45	2025.44
360.66	1880.04
360.88	1875.94
361.09	1900.52
361.31	2031.58
361.52	1974.24
361.74	2060.26
361.95	2056.16
362.17	1916.90
362.38	2068.45
362.60	2009.06
362.81	1877.99
363.03	2013.15
363.24	1996.77
363.46	2076.64
363.67	2000.87
363.89	2041.82
364.10	1978.34
364.32	1941.47
364.53	2070.50
364.75	1929.19
364.96	2029.54
365.18	2017.25
365.39	1996.77
365.61	1875.94
365.82	2127.84
366.04	2021.35
366.25	1873.89
366.47	1994.72
366.68	1984.48
366.90	1959.91
367.11	2066.40
367.33	2043.87
367.54	1998.82
367.76	1976.29
367.97	2168.80
368.19	2021.35
368.40	2164.70
368.62	1927.14
368.83	1992.67
369.05	2093.02
369.26	1988.58
369.48	1970.15
369.69	2025.44
369.91	2033.63
370.12	1888.23
370.33	2068.45
370.55	2066.40
370.76	2002.91
370.98	2199.52
371.19	2103.26
371.41	2066.40
371.62	1990.63
371.84	2037.73
372.05	2170.85
372.27	2080.74
372.48	2080.74
372.69	2123.74
372.91	2164.70
373.12	2160.61
373.34	2156.51
373.55	2154.46
373.77	2234.33
373.98	2088.93
374.20	2099.17
374.41	2320.35
374.62	2037.73
374.84	2183.13
375.05	2244.57
375.27	2097.12
375.48	2152.42
375.70	2203.61
375.91	2211.81
376.12	2252.77
376.34	2185.18
376.55	2146.27
376.77	2181.09
376.98	2080.74
377.19	2187.23
377.41	1994.72
377.62	2138.08
377.84	2185.18
378.05	2330.59
378.27	2158.56
378.48	2263.01
378.69	2363.36
378.91	2271.20
379.12	2211.81
379.34	2211.81
379.55	2303.96
379.76	2250.72
379.98	2215.90
380.19	2320.35
380.41	2224.09
380.62	2277.34
380.83	2318.30
381.05	2148.32
381.26	2406.36
381.47	2281.44
381.69	2154.46
381.90	2455.51
382.12	2277.34
382.33	2381.79
382.54	2316.25
382.76	2230.24
382.97	2330.59
383.19	2248.67
383.40	2408.41
383.61	2340.83
383.83	2222.05
384.04	2357.21
384.25	2285.53
384.47	2383.84
384.68	2365.40
384.89	2340.83
385.11	2291.68
385.32	2406.36
385.54	2328.54
385.75	2453.47
385.96	2357.21
386.18	2398.17
386.39	2428.89
386.60	2367.45
386.82	2291.68
387.03	2437.08
387.24	2531.29
387.46	2502.62
387.67	2498.52
387.88	2574.30
388.10	2394.08
388.31	2551.77
388.52	2502.62
388.74	2510.81
388.95	2459.61
389.16	2572.25
389.38	2478.04
389.59	2576.34
389.80	2648.02
390.02	2547.67
390.23	2629.59
390.44	2537.43
390.66	2508.76
390.87	2449.37
391.08	2623.45
391.30	2658.26
391.51	2727.89
391.72	2707.41
391.94	2625.50
392.15	2625.50
392.36	2613.21
392.58	2572.25
392.79	2611.16
393.00	2666.46
393.22	2758.61
393.43	2678.74
393.64	2768.85
393.85	2840.53
394.07	2691.03
394.28	2715.61
394.49	2904.02
394.71	2762.71
394.92	2844.63
395.13	2727.89
395.35	2762.71
395.56	2709.46
395.77	2891.73
395.98	2930.64
396.20	2869.20
396.41	2842.58
396.62	2932.69
396.84	2815.96
397.05	2895.83
397.26	2912.21
397.47	2973.65
397.69	2793.43
397.90	3024.85
398.11	2932.69
398.32	2865.11
398.54	2879.44
398.75	2889.68
398.96	2983.89
399.18	3061.71
399.39	3008.47
399.60	3096.53
399.81	2906.07
400.03	2990.03
400.24	3170.26
400.45	2932.69
400.66	3057.62
400.88	3004.37
401.09	3141.58
401.30	3045.33
401.51	3074.00
401.73	3006.42
401.94	3131.34
402.15	3180.50
402.36	3112.91
402.58	3086.29
402.79	3178.45
403.00	3176.40
403.21	3180.50
403.43	3293.13
403.64	3393.48
403.85	3063.76
404.06	3182.54
404.27	3074.00
404.49	3184.59
404.70	3125.20
404.91	3221.45
405.12	3123.15
405.34	3166.16
405.55	3342.28
405.76	3131.34
405.97	3219.41
406.19	3297.23
406.40	3352.52
406.61	3282.89
406.82	3348.43
407.03	3364.81
407.25	3274.70
407.46	3362.76
407.67	3413.96
407.88	3497.93
408.09	3319.76
408.31	3307.47
408.52	3352.52
408.73	3477.45
408.94	3354.57
409.15	3411.92
409.37	3471.31
409.58	3633.10
409.79	3534.79
410.00	3631.05
410.21	3467.21
410.43	3594.19
410.64	3418.06
410.85	3528.65
411.06	3530.70
411.27	3604.42
411.48	3553.23
411.70	3645.38
411.91	3612.62
412.12	3692.49
412.33	3647.43
412.54	3592.14
412.76	3758.02
412.97	3764.17
413.18	3600.33
413.39	3635.14
413.60	3860.42
413.81	3778.50
414.03	3809.22
414.24	3698.63
414.45	3778.50
414.66	3555.27
414.87	3807.17
415.08	3747.78
415.30	3729.35
415.51	3753.93
415.72	3882.95
415.93	3665.86
416.14	3856.33
416.35	3755.97
416.56	3993.54
416.78	3917.76
416.99	3876.80
417.20	3813.32
417.41	3985.35
417.62	3862.47
417.83	3930.05
418.04	3956.68
418.26	4052.93
418.47	3979.20
418.68	4028.35
418.89	3975.11
419.10	4165.57
419.31	4065.22
419.52	4085.70
419.73	4065.22
419.95	4138.94
420.16	4083.65
420.37	4095.94
420.58	4065.22
420.79	3917.76
421.00	4095.94
421.21	4214.72
421.42	4110.27
421.63	4265.92
421.85	4081.60
422.06	4218.82
422.27	4288.45
422.48	4216.77
422.69	4194.24
422.90	4272.06
423.11	4278.21
423.32	4378.56
423.53	4399.04
423.75	4335.55
423.96	4313.02
424.17	4480.96
424.38	4544.44
424.59	4466.62
424.80	4591.55
425.01	4433.85
425.22	4321.21
425.43	4483.00
425.64	4556.73
425.85	4667.32
426.06	4468.67
426.28	4448.19
426.49	4433.85
426.70	4597.69
426.91	4609.98
427.12	4718.52
427.33	4622.27
427.54	4523.96
427.75	4775.86
427.96	4855.73
428.17	4655.03
428.38	4779.96
428.59	4919.22
428.80	4722.62
429.01	4718.52
429.23	4802.49
429.44	4972.47
429.65	4933.56
429.86	4788.15
430.07	4872.12
430.28	4968.37
430.49	4939.70
430.70	5146.55
430.91	5099.44
431.12	4992.95
431.33	5261.23
431.54	5128.11
431.75	5146.55
431.96	5205.94
432.17	4923.32
432.38	5130.16
432.59	5285.81
432.80	5220.27
433.01	5310.38
433.22	5279.66
433.43	5197.74
433.64	5312.43
433.85	5343.15
434.06	5357.49
434.27	5316.53
434.49	5181.36
434.70	5451.69
434.91	5541.80
435.12	5558.19
435.33	5353.39
435.54	5611.43
435.75	5269.42
435.96	5638.06
436.17	5410.73
436.38	5638.06
436.59	5654.44
436.80	5539.76
437.01	5801.90
437.22	5748.65
437.43	5740.46
437.64	5504.94
437.85	5756.84
438.06	5881.77
438.27	5693.35
438.48	5652.39
438.69	5822.38
438.90	5855.14
439.11	5826.47
439.32	5943.21
439.53	5742.50
439.74	5814.18
439.95	5875.62
440.16	6004.64
440.37	6088.61
440.57	5820.33
440.78	6174.63
440.99	5982.12
441.20	6012.84
441.41	5994.40
441.62	6131.62
441.83	5965.73
442.04	6219.68
442.25	6203.30
442.46	6080.42
442.67	6203.30
442.88	6651.80
443.09	6184.87
443.30	6231.97
443.51	6328.22
443.72	6584.22
443.93	6143.91
444.14	6479.77
444.35	6186.91
444.56	6252.45
444.77	6404.00
444.98	6363.04
445.19	6518.68
445.40	6420.38
445.61	6481.82
445.81	6438.81
446.02	6621.08
446.23	6594.46
446.44	6406.05
446.65	6674.33
446.86	6541.21
447.07	6653.85
447.28	6928.28
447.49	6633.37
447.70	6631.32
447.91	6770.58
448.12	6676.38
448.33	6870.94
448.54	6786.97
448.74	6760.34
448.95	6913.94
449.16	6784.92
449.37	7083.92
449.58	6936.47
449.79	7081.88
450.00	6842.26
450.21	7024.53
450.42	7210.90
450.63	7094.16
450.84	7196.56
451.05	7079.83
451.25	7059.35
451.46	7047.06
451.67	7106.45
451.88	7286.67
452.09	7253.91
452.30	7184.27
452.51	7251.86
452.72	7262.10
452.93	7563.15
453.13	7135.12
453.34	7075.73
453.55	7505.81
453.76	7391.12
453.97	7843.72
454.18	7403.41
454.39	7720.84
454.60	7479.18
454.81	7542.67
455.01	7735.18
455.22	7309.20
455.43	7638.92
455.64	7858.06
455.85	7749.51
456.06	7802.76
456.27	7853.96
456.48	7864.20
456.68	7878.54
456.89	7671.69
457.10	8064.90
457.31	7999.37
457.52	7923.59
457.73	8173.44
457.94	8179.59
458.14	7982.98
458.35	8269.70
458.56	8159.11
458.77	8261.51
458.98	8357.76
459.19	8329.09
459.39	8351.62
459.60	8484.73
459.81	8179.59
460.02	8558.46
460.23	8599.42
460.44	8679.29
460.65	8632.19
460.85	8863.61
461.06	8710.01
461.27	8593.28
461.48	9054.07
461.69	9052.02
461.89	8689.53
462.10	8744.83
462.31	8699.77
462.52	8802.17
462.73	9043.83
462.94	9088.89
463.14	9125.75
463.35	8994.68
463.56	9492.34
463.77	9391.98
463.98	9101.17
464.18	9213.81
464.39	9494.38
464.60	9398.13
464.81	9693.04
465.02	9504.62
465.23	9711.47
465.43	9545.58
465.64	9654.12
465.85	9805.67
466.06	9561.97
466.27	10131.30
466.47	10084.20
466.68	9899.88
466.89	9873.26
467.10	10274.66
467.30	10028.90
467.51	10157.92
467.72	10542.94
467.93	10157.92
468.14	10338.15
468.34	10571.61
468.55	10508.13
468.76	10600.29
468.97	10641.25
469.17	10848.09
469.38	10911.58
469.59	11030.36
469.80	10819.42
470.01	11003.74
470.21	11114.33
470.42	10995.54
470.63	11413.33
470.84	11095.89
471.04	11439.95
471.25	11224.92
471.46	11421.52
471.67	11593.55
471.87	11509.58
472.08	11601.74
472.29	11757.39
472.50	11442.00
472.70	11743.05
472.91	11994.95
473.12	12009.29
473.33	12212.04
473.53	12414.79
473.74	12289.86
473.95	12277.57
474.16	12439.36
474.36	12447.55
474.57	12654.40
474.78	12814.14
474.99	12705.60
475.19	12703.55
475.40	13072.18
475.61	12838.72
475.81	13283.13
476.02	13276.98
476.23	13076.28
476.44	13520.69
476.64	13582.13
476.85	13678.38
477.06	13389.62
477.27	13856.56
477.47	14100.26
477.68	14010.15
477.89	14188.33
478.09	14294.82
478.30	14188.33
478.51	14161.70
478.71	14376.74
478.92	14665.50
479.13	14806.81
479.34	14782.24
479.54	14835.49
479.75	15023.90
479.96	15050.52
480.16	15169.30
480.37	15116.06
480.58	15281.94
480.78	15611.67
480.99	15578.90
481.20	15666.96
481.41	15560.47
481.61	15734.54
481.82	15957.77
482.03	15832.85
482.23	15996.68
482.44	16031.50
482.65	16144.14
482.85	16277.26
483.06	16367.37
483.27	16539.40
483.47	16594.69
483.68	16455.43
483.89	16596.74
484.09	16813.82
484.30	16920.32
484.51	17129.21
484.71	17057.53
484.92	17067.77
485.13	17417.97
485.33	17059.58
485.54	17372.92
485.75	17352.44
485.95	17639.15
486.16	17510.13
486.37	17856.24
486.57	17669.87
486.78	18018.03
486.98	17800.94
487.19	18009.84
487.40	18085.61
487.60	18179.82
487.81	18589.41
488.02	18407.14
488.22	18411.24
488.43	18659.04
488.64	18743.01
488.84	18960.09
489.05	19062.49
489.25	18673.38
489.46	19304.15
489.67	19007.20
489.87	19529.43
490.08	19443.42
490.29	19478.23
490.49	19707.60
490.70	19400.41
490.90	19640.02
491.11	19654.36
491.32	19859.15
491.52	19693.27
491.73	19855.06
491.94	19805.91
492.14	19789.52
492.35	20133.58
492.55	20235.98
492.76	20637.38
492.97	20412.10
493.17	20412.10
493.38	20600.52
493.58	20815.55
493.79	20659.91
494.00	20682.44
494.20	20926.14
494.41	21079.74
494.61	20836.03
494.82	21130.94
495.02	21049.02
495.23	21057.21
495.44	21610.17
495.64	21532.34
495.85	21391.03
496.05	21774.00
496.26	21823.16
496.47	22120.11
496.67	21483.19
496.88	22064.82
497.08	21782.20
497.29	22175.41
497.49	22068.91
497.70	22202.03
497.91	22277.80
498.11	22529.70
498.32	22703.78
498.52	22392.49
498.73	22918.82
498.93	22292.14
499.14	22802.08
499.34	22785.70
499.55	22779.56
499.76	22959.78
499.96	23010.98
500.17	22908.58
500.37	22974.11
500.58	23371.42
500.78	23219.87
500.99	23522.97
501.19	23455.39
501.40	23357.08
501.60	23336.60
501.81	23529.11
502.02	23772.82
502.22	23475.87
502.43	23518.87
502.63	24116.88
502.84	24057.49
503.04	24311.44
503.25	24080.02
503.45	23979.67
503.66	24290.96
503.86	24458.89
504.07	24686.22
504.27	24176.27
504.48	24612.49
504.68	24606.34
504.89	25003.65
505.09	24800.90
505.30	24596.10
505.50	24936.07
505.71	25020.03
505.91	24977.03
506.12	25310.85
506.32	24964.74
506.53	25282.17
506.73	25425.53
506.94	25538.17
507.14	25532.03
507.35	25425.53
507.55	25669.24
507.76	25917.04
507.96	25460.35
508.17	25882.23
508.37	25876.09
508.58	25882.23
508.78	26340.97
508.99	26179.18
509.19	26244.72
509.40	26560.11
509.60	26375.79
509.81	26523.24
510.01	26420.84
510.22	26345.07
510.42	26383.98
510.63	26783.34
510.83	26715.75
511.04	26336.88
511.24	27051.62
511.44	26855.01
511.65	26779.24
511.85	27137.63
512.06	27051.62
512.26	27162.21
512.47	27450.97
512.67	27254.37
512.88	27364.96
513.08	27178.59
513.29	27430.49
513.49	27727.45
513.69	27354.72
513.90	27752.02
514.10	27631.19
514.31	27854.42
514.51	27924.05
514.72	27950.68
514.92	27754.07
515.13	27840.09
515.33	28229.20
515.53	28339.79
515.74	28151.38
515.94	28587.60
516.15	28595.79
516.35	28120.66
516.56	28393.04
516.76	28569.16
516.96	28548.68
517.17	28747.34
517.37	28741.19
517.58	28778.06
517.78	28882.50
517.99	28706.38
518.19	28972.61
518.39	29271.62
518.60	29265.47
518.80	29431.36
519.01	29517.37
519.21	29507.13
519.41	29341.25
519.62	29216.32
519.82	29541.95
520.03	29496.89
520.23	29664.83
520.43	29548.09
520.64	29951.54
520.84	30025.27
521.05	29908.54
521.25	29992.50
521.45	30350.90
521.66	30320.18
521.86	29767.23
522.07	30592.56
522.27	30398.00
522.47	30164.53
522.68	30879.27
522.88	30273.07
523.08	30598.70
523.29	31008.29
523.49	30705.20
523.70	30647.85
523.90	31163.94
524.10	31331.87
524.31	31626.78
524.51	30680.62
524.71	31419.94
524.92	31102.50
525.12	31839.77
525.33	31180.32
525.53	31860.25
525.73	31837.72
525.94	32124.44
526.14	31813.15
526.34	32110.10
526.55	31696.41
526.75	31737.37
526.95	32292.37
527.16	32173.59
527.36	32110.10
527.56	32331.28
527.77	32593.42
527.97	32691.73
528.17	32491.02
528.38	32732.68
528.58	32755.21
528.78	32841.23
528.99	32574.99
529.19	33283.59
529.39	32867.85
529.60	32974.34
529.80	33043.98
530.00	33043.98
530.21	33758.72
530.41	33861.12
530.61	33379.84
530.82	33566.21
531.02	33453.57
531.22	33560.06
531.43	33588.74
531.63	34063.86
531.83	34008.57
532.04	34121.21
532.24	34186.74
532.44	34229.75
532.64	34604.53
532.85	34250.23
533.05	34088.44
533.25	34512.37
533.46	34518.51
533.66	34846.19
533.86	34620.91
534.07	34840.04
534.27	34598.38
534.47	34891.24
534.67	35272.17
534.88	34723.31
535.08	35188.20
535.28	35050.99
535.49	35476.96
535.69	35347.94
535.89	35700.19
536.09	35352.04
536.30	35909.08
536.50	35538.40
536.70	35907.04
536.91	36077.02
537.11	35718.62
537.31	36165.08
537.51	36156.89
537.72	36261.33
537.92	36570.58
538.12	36425.17
538.32	36457.94
538.53	36662.74
538.73	36300.25
538.93	36226.52
539.13	36838.86
539.34	36732.37
539.54	36513.23
539.74	37203.40
539.94	36810.19
540.15	37039.56
540.35	37311.94
540.55	36955.60
540.75	37098.95
540.96	37250.50
541.16	36982.22
541.36	37500.36
541.56	37494.21
541.77	37653.95
541.97	37885.37
542.17	37600.71
542.37	37643.71
542.58	37696.96
542.78	37924.29
542.98	37707.20
543.18	38153.66
543.38	38684.08
543.59	38307.26
543.79	38292.92
543.99	38049.21
544.19	38561.20
544.40	38344.12
544.60	38557.11
544.80	38485.43
545.00	38342.07
545.20	38952.37
545.41	38598.07
545.61	38536.63
545.81	39103.92
546.01	38847.92
546.21	39151.02
546.42	38890.93
546.62	39056.81
546.82	39097.77
547.02	39251.37
547.22	39327.14
547.43	39509.41
547.63	39544.23
547.83	39812.51
548.03	39355.82
548.23	39884.19
548.44	39955.87
548.64	39450.02
548.84	39626.15
549.04	39908.77
549.24	40134.04
549.45	40416.66
549.65	40015.26
549.85	40230.30
550.05	40392.09
550.25	40181.15
550.45	40541.59
550.66	40101.28
550.86	40580.50
551.06	40822.16
551.26	40687.00
551.46	40705.43
551.66	40899.98
551.87	40781.20
552.07	41354.63
552.27	41170.32
552.47	41074.06
552.67	40770.96
552.87	40945.04
553.07	41567.62
553.28	41254.28
553.48	41383.30
553.68	41072.01
553.88	41643.40
554.08	41409.93
554.28	41508.23
554.48	41411.98
554.69	41330.06
554.89	41489.80
555.09	41588.10
555.29	41919.87
555.49	41938.30
555.69	41858.43
555.89	41952.64
556.10	42220.92
556.30	42003.84
556.50	42462.58
556.70	42048.89
556.90	42372.47
557.10	42399.10
557.30	42120.57
557.50	42628.47
557.70	42765.68
557.91	43042.16
558.11	42694.00
558.31	42888.56
558.51	42857.84
558.71	42474.87
558.91	42927.47
559.11	42861.94
559.31	43115.89
559.51	42962.29
559.72	43349.35
559.92	43461.99
560.12	42950.00
560.32	43048.30
560.52	43396.46
560.72	43769.19
560.92	43664.74
561.12	43736.42
561.32	44014.94
561.52	43634.02
561.72	43779.43
561.93	43449.70
562.13	43861.35
562.33	43799.91
562.53	43971.94
562.73	43849.06
562.93	43605.35
563.13	44322.14
563.33	43892.07
563.53	43990.37
563.73	44004.70
563.93	44211.55
564.13	44766.55
564.33	44238.17
564.53	44567.90
564.74	44703.06
564.94	44545.37
565.14	44539.22
565.34	44248.41
565.54	44080.48
565.74	44594.52
565.94	44838.23
566.14	44567.90
566.34	44684.63
566.54	45079.89
566.74	44813.65
566.94	45276.49
567.14	44938.58
567.34	45124.94
567.54	45528.39
567.74	44981.59
567.94	45073.74
568.14	45356.36
568.34	45348.17
568.54	45151.57
568.74	45483.34
568.94	44873.04
569.14	45786.44
569.34	45999.43
569.54	45626.70
569.75	45483.34
569.95	45880.64
570.15	45815.11
570.35	45669.70
570.55	45589.83
570.75	46130.50
570.95	45905.22
571.15	45974.85
571.35	46222.65
571.55	46042.43
571.75	45874.50
571.95	46212.41
572.15	46144.83
572.35	46644.54
572.55	45909.32
572.75	46087.49
572.95	46300.48
573.15	46996.79
573.35	46183.74
573.55	46126.40
573.75	46765.37
573.95	46519.61
574.15	46511.42
574.35	46384.44
574.55	46466.36
574.75	46841.14
574.95	46626.10
575.15	46679.35
575.34	46462.27
575.54	46896.44
575.74	47047.99
575.94	47033.65
576.14	46748.98
576.34	46966.07
576.54	47066.42
576.74	46849.33
576.94	46816.57
577.14	46949.68
577.34	47289.65
577.54	46468.41
577.74	47248.69
577.94	47344.94
578.14	47093.04
578.34	47447.34
578.54	46916.92
578.74	47037.75
578.94	47308.08
579.14	47074.61
579.34	47699.24
579.54	47637.80
579.74	47858.98
579.94	47766.82
580.13	47848.74
580.33	47842.60
580.53	47643.94
580.73	47340.85
580.93	47394.09
581.13	47779.11
581.33	48215.33
581.53	48092.45
581.73	48446.75
581.93	48305.44
582.13	48098.59
582.33	48473.37
582.53	47836.45
582.73	48252.19
582.92	48223.52
583.12	48432.41
583.32	47994.15
583.52	47895.85
583.72	48149.79
583.92	48133.41
584.12	48506.14
584.32	48870.68
584.52	48420.13
584.72	48604.44
584.92	48637.21
585.11	48860.44
585.31	48502.04
585.51	48717.08
585.71	48581.91
585.91	49163.54
586.11	48383.26
586.31	48919.83
586.51	48432.41
586.71	48997.65
586.91	49044.76
587.10	49401.10
587.30	49065.24
587.50	49003.80
587.70	48891.16
587.90	49200.40
588.10	49104.15
588.30	49038.61
588.50	48991.51
588.69	49382.67
588.89	48762.14
589.09	49282.32
589.29	49493.26
589.49	49569.04
589.69	49237.26
589.89	49390.86
590.08	49427.73
590.28	49374.48
590.48	49171.73
590.68	49323.28
590.88	49431.82
591.08	49483.02
591.28	49171.73
591.47	49962.25
591.67	49337.62
591.87	49788.17
592.07	49272.08
592.27	49566.99
592.47	49974.53
592.67	49806.60
592.86	49788.17
593.06	49839.37
593.26	49917.19
593.46	49822.98
593.66	49575.18
593.86	50240.77
594.05	50377.98
594.25	50406.65
594.45	49708.30
594.65	50099.46
594.85	49640.71
595.05	50142.47
595.24	50322.69
595.44	49995.01
595.64	49956.10
595.84	50214.15
596.04	50263.30
596.23	50631.93
596.43	50689.27
596.63	50267.39
596.83	50562.30
597.03	50638.08
597.22	50914.55
597.42	50468.09
597.62	50840.82
597.82	50820.34
598.02	51131.64
598.21	51057.91
598.41	50513.15
598.61	51252.47
598.81	50957.56
599.01	50935.03
599.20	50433.28
599.40	51246.32
599.60	50926.84
599.80	51117.30
600.00	51084.53
600.19	51526.89
600.39	50910.46
600.59	51776.75
600.79	51455.21
600.98	51606.76
601.18	51614.96
601.38	51801.32
601.58	51797.23
601.78	51756.27
601.97	51723.50
602.17	52200.68
602.37	51987.69
602.57	51819.75
602.76	52126.95
602.96	51754.22
603.16	52499.68
603.36	52075.75
603.55	52387.04
603.75	52303.07
603.95	52266.21
604.15	52587.74
604.34	52428.00
604.54	52524.25
604.74	52448.48
604.94	52999.38
605.13	52886.74
605.33	52729.05
605.53	52995.29
605.73	53247.19
605.92	52690.14
606.12	52868.31
606.32	53091.54
606.52	52872.41
606.71	52761.82
606.91	53380.31
607.11	53134.55
607.30	53794.00
607.50	53572.81
607.70	53748.94
607.90	53581.01
608.09	53300.43
608.29	53318.87
608.49	53941.45
608.68	53591.25
608.88	53671.12
609.08	53847.24
609.28	54031.56
609.47	53060.82
609.67	54033.61
609.87	53994.70
610.06	53851.34
610.26	53968.07
610.46	54111.43
610.66	54115.53
610.85	53834.95
611.05	54244.55
611.25	54219.97
611.44	54439.11
611.64	54269.12
611.84	53857.48
612.03	54113.48
612.23	54418.63
612.43	54564.03
612.62	54045.90
612.82	54983.86
613.02	54576.32
613.21	54990.01
613.41	54693.05
613.61	54508.74
613.80	54572.22
614.00	54926.52
614.20	54711.49
614.39	54621.37
614.59	55153.85
614.79	54858.94
614.98	54693.05
615.18	54834.36
615.38	54785.21
615.57	54721.72
615.77	55293.11
615.97	55069.88
616.16	55145.65
616.36	55215.29
616.56	55162.04
616.75	55250.10
616.95	54654.14
617.15	55461.04
617.34	55250.10
617.54	55377.08
617.74	55606.45
617.93	55276.72
618.13	55207.09
618.32	55391.41
618.52	55092.41
618.72	55280.82
618.91	55686.32
619.11	55239.86
619.31	55762.09
619.50	55485.62
619.70	55268.53
619.90	55133.37
620.09	55671.98
620.29	55219.38
620.48	55389.36
620.68	55893.16
620.88	54891.71
621.07	55653.55
621.27	55528.62
621.46	55276.72
621.66	55164.09
621.86	55714.99
622.05	55594.16
622.25	56257.70
622.44	55090.36
622.64	55465.14
622.84	55940.27
623.03	55289.01
623.23	55671.98
623.42	55665.84
623.62	55901.36
623.82	56186.02
624.01	55766.19
624.21	55717.04
624.40	55762.09
624.60	55405.75
624.80	55506.10
624.99	55583.92
625.19	55149.75
625.38	55946.41
625.58	55792.81
625.77	55960.75
625.97	56046.76
626.17	55762.09
626.36	55762.09
626.56	55633.07
626.75	55540.91
626.95	56120.49
627.14	55753.90
627.34	56138.92
627.54	55686.32
627.73	55858.35
627.93	56269.99
628.12	55637.17
628.32	55723.18
628.51	56106.15
628.71	55719.09
628.90	56063.14
629.10	56208.55
629.30	56108.20
629.49	56106.15
629.69	55823.53
629.88	56071.34
630.08	56341.67
630.27	56100.01
630.47	55809.20
630.66	55827.63
630.86	56118.44
631.05	55702.70
631.25	56374.44
631.44	56087.72
631.64	56116.39
631.84	56083.62
632.03	56427.68
632.23	55979.18
632.42	56317.09
632.62	55999.66
632.81	56118.44
633.01	56317.09
633.20	56163.50
633.40	56777.89
633.59	56026.28
633.79	55850.16
633.98	56163.50
634.18	56284.33
634.37	56321.19
634.57	56145.06
634.76	56220.84
634.96	56235.17
635.15	56169.64
635.35	56710.30
635.54	56005.80
635.74	56489.12
635.93	56327.33
636.13	56423.59
636.32	56454.31
636.52	56075.43
636.71	56345.76
636.91	56274.09
637.10	56558.75
637.30	56462.50
637.49	56202.41
637.69	56132.78
637.88	56722.59
638.08	56032.42
638.27	57136.28
638.46	56372.39
638.66	56456.35
638.85	56757.41
639.05	56388.77
639.24	56763.55
639.44	56329.38
639.63	56833.18
639.83	56267.94
640.02	56358.05
640.22	56171.69
640.41	56566.94
640.61	56013.99
640.80	56333.48
640.99	56431.78
641.19	56677.54
641.38	56278.18
641.58	56042.66
641.77	56001.71
641.97	56013.99
642.16	56534.18
642.36	56231.08
642.55	56630.43
642.74	56120.49
642.94	56552.61
643.13	56519.84
643.33	56587.42
643.52	56485.03
643.72	56628.38
643.91	56411.30
644.10	56624.29
644.30	56710.30
644.49	56259.75
644.69	56667.30
644.88	56767.65
645.08	56386.72
645.27	56575.14
645.46	56247.46
645.66	56915.10
645.85	56415.40
646.05	56321.19
646.24	56577.18
646.43	56267.94
646.63	56439.97
646.82	56966.30
647.02	56833.18
647.21	56644.77
647.40	56110.25
647.60	56206.50
647.79	56779.93
647.99	56620.19
648.18	56456.35
648.37	56671.39
648.57	56460.45
648.76	56425.64
648.96	56249.51
649.15	56956.06
649.34	57013.40
649.54	56687.78
649.73	56612.00
649.92	56595.62
650.12	56665.25
650.31	56994.97
650.51	56820.89
650.70	56300.71
650.89	56290.47
651.09	56538.27
651.28	56691.87
651.47	56347.81
651.67	56710.30
651.86	56882.33
652.06	56026.28
652.25	56685.73
652.44	56429.73
652.64	56269.99
652.83	56149.16
653.02	56165.54
653.22	56124.58
653.41	56038.57
653.60	56048.81
653.80	56345.76
653.99	56214.69
654.18	56147.11
654.38	56272.04
654.57	56458.40
654.76	56497.31
654.96	56110.25
655.15	56087.72
655.34	56026.28
655.54	55768.24
655.73	56143.02
655.92	56753.31
656.12	56349.86
656.31	56259.75
656.50	56439.97
656.70	56591.52
656.89	56200.36
657.08	56452.26
657.28	56335.52
657.47	56521.89
657.66	56161.45
657.86	56247.46
658.05	56235.17
658.24	56566.94
658.43	55768.24
658.63	56175.78
658.82	56325.28
659.01	56405.16
659.21	56005.80
659.40	55882.92
659.59	55909.55
659.79	55958.70
659.98	56575.14
660.17	56214.69
660.36	56050.86
660.56	55968.94
660.75	56124.58
660.94	56499.36
661.14	55860.40
661.33	56298.66
661.52	55647.41
661.71	56738.97
661.91	55655.60
662.10	56069.29
662.29	56218.79
662.49	55811.24
662.68	55946.41
662.87	56362.15
663.06	56323.24
663.26	55923.88
663.45	56480.93
663.64	55829.68
663.83	56616.10
664.03	56356.00
664.22	56532.13
664.41	56079.53
664.60	55925.93
664.80	55930.03
664.99	56013.99
665.18	55899.31
665.37	56382.63
665.57	56102.06
665.76	55741.61
665.95	56030.38
666.14	56255.65
666.34	55948.46
666.53	55882.92
666.72	55774.38
666.91	56175.78
667.11	56022.19
667.30	55944.36
667.49	55745.71
667.68	56296.61
667.87	55866.54
668.07	56034.47
668.26	55755.95
668.45	55956.65
668.64	55708.85
668.84	56620.19
669.03	56446.11
669.22	56343.72
669.41	55977.13
669.60	56161.45
669.80	55970.99
669.99	56095.91
670.18	55952.55
670.37	55653.55
670.57	56351.91
670.76	55801.00
670.95	55899.31
671.14	55983.27
671.33	55710.89
671.53	56554.66
671.72	55719.09
671.91	55989.42
672.10	56079.53
672.29	56202.41
672.48	56046.76
672.68	56366.24
672.87	56126.63
673.06	55868.59
673.25	55731.37
673.44	55612.59
673.64	55628.98
673.83	55997.61
674.02	56050.86
674.21	55817.39
674.40	56480.93
674.59	55868.59
674.79	55837.87
674.98	55641.26
675.17	56226.98
675.36	55833.77
675.55	56345.76
675.74	55905.45
675.94	55698.61
676.13	55655.60
676.32	56431.78
676.51	56276.13
676.70	56153.26
676.89	56028.33
677.08	56212.65
677.28	55633.07
677.47	56884.38
677.66	56345.76
677.85	56167.59
678.04	56079.53
678.23	56386.72
678.42	56427.68
678.62	56267.94
678.81	56788.13
679.00	55891.12
679.19	56767.65
679.38	56263.85
679.57	56157.35
679.76	56057.00
679.96	56069.29
680.15	55796.91
680.34	56292.52
680.53	56194.21
680.72	56401.06
680.91	56444.07
681.10	55958.70
681.29	56257.70
681.48	55907.50
681.68	56044.71
681.87	56112.30
682.06	56136.87
682.25	55753.90
682.44	55858.35
682.63	56226.98
682.82	55854.25
683.01	56300.71
683.20	55686.32
683.39	56204.45
683.59	55604.40
683.78	55985.32
683.97	55942.31
684.16	55876.78
684.35	55907.50
684.54	55940.27
684.73	55985.32
684.92	56040.62
685.11	56112.30
685.30	55878.83
685.49	55776.43
685.69	55796.91
685.88	55887.02
686.07	56288.42
686.26	55983.27
686.45	56300.71
686.64	55858.35
686.83	56282.28
687.02	56161.45
687.21	56466.59
687.40	55995.56
687.59	55977.13
687.78	56210.60
687.97	55999.66
688.16	56057.00
688.35	55950.51
688.54	56071.34
688.74	55907.50
688.93	56077.48
689.12	56196.26
689.31	55905.45
689.50	56337.57
689.69	55960.75
689.88	55528.62
690.07	55864.49
690.26	55874.73
690.45	56364.20
690.64	55813.29
690.83	55387.31
691.02	56155.30
691.21	55702.70
691.40	55792.81
691.59	55987.37
691.78	55821.48
691.97	56231.08
692.16	56128.68
692.35	56431.78
692.54	56153.26
692.73	55856.30
692.92	56333.48
693.11	55628.98
693.30	55479.47
693.49	56071.34
693.68	55882.92
693.87	55841.96
694.06	55796.91
694.25	55833.77
694.44	55909.55
694.63	55731.37
694.82	55960.75
695.01	55811.24
695.20	55837.87
695.39	55229.62
695.58	55575.73
695.77	55153.85
695.96	55198.90
696.15	55686.32
696.34	55714.99
696.53	55301.30
696.72	56052.90
696.91	55524.53
697.10	55884.97
697.29	55534.77
697.48	56143.02
697.67	55694.51
697.86	55561.39
698.05	55248.05
698.24	55700.65
698.43	54908.09
698.62	55684.27
698.81	55125.17
699.00	55733.42
699.19	55262.39
699.38	55469.23
699.57	55168.18
699.76	55624.88
699.95	55213.24
700.14	54858.94
700.32	55452.85
700.51	55200.95
700.70	55547.06
700.89	55260.34
701.08	55366.84
701.27	55461.04
701.46	55293.11
701.65	54582.46
701.84	55387.31
702.03	55243.96
702.22	54820.03
702.41	55155.89
702.60	55139.51
702.79	55063.74
702.98	54893.75
703.17	55024.82
703.35	54619.33
703.54	54793.40
703.73	54910.14
703.92	54715.58
704.11	54500.54
704.30	54729.92
704.49	54951.10
704.68	54615.23
704.87	54807.74
705.06	54820.03
705.25	54729.92
705.43	54498.50
705.62	54662.33
705.81	54750.40
706.00	54443.20
706.19	54160.58
706.38	54699.20
706.57	54443.20
706.76	54742.20
706.95	54756.54
707.14	54242.50
707.32	53918.92
707.51	54236.36
707.70	54451.39
707.89	54328.52
708.08	54228.16
708.27	54133.96
708.46	54549.70
708.65	54052.04
708.84	54365.38
709.02	53830.86
709.21	54555.84
709.40	54273.22
709.59	54344.90
709.78	53423.31
709.97	54148.29
710.16	53955.78
710.34	53966.02
710.53	53904.59
710.72	53984.46
710.91	53740.75
711.10	53925.07
711.29	54039.75
711.48	53689.55
711.66	53812.43
711.85	53501.14
712.04	53462.22
712.23	53716.17
712.42	53716.17
712.61	53607.63
712.80	53699.79
712.98	53671.12
713.17	53034.20
713.36	53556.43
713.55	53552.33
713.74	53376.21
713.93	53157.08
714.11	53380.31
714.30	53343.44
714.49	53484.75
714.68	53081.30
714.87	53470.42
715.06	53085.40
715.24	52782.30
715.43	52886.74
715.62	52868.31
715.81	52794.59
716.00	52864.22
716.18	52329.70
716.37	52528.35
716.56	52217.06
716.75	52819.16
716.94	52661.47
717.12	52593.89
717.31	52937.94
717.50	52673.76
717.69	52049.13
717.88	52229.35
718.06	52421.86
718.25	52786.39
718.44	52129.00
718.63	52172.00
718.82	51866.86
719.00	51811.56
719.19	51893.48
719.38	52270.31
719.57	51369.20
719.76	51274.99
719.94	51225.84
720.13	51627.24
720.32	51705.07
720.51	51610.86
720.69	51225.84
720.88	51381.49
721.07	50836.73
721.26	50717.95
721.44	51197.17
721.63	50883.83
721.82	50744.57
722.01	50801.91
722.20	50918.65
722.38	50914.55
722.57	50232.58
722.76	50922.74
722.95	50765.05
723.13	50441.47
723.32	50173.19
723.51	50089.22
723.70	50076.93
723.88	50187.52
724.07	49577.23
724.26	50201.86
724.44	49536.27
724.63	50363.65
724.82	49947.91
725.01	50076.93
725.19	49913.09
725.38	49810.70
725.57	49591.56
725.76	49734.92
725.94	49280.27
726.13	49642.76
726.32	49620.23
726.51	49493.26
726.69	49675.53
726.88	49747.21
727.07	49730.83
727.25	49517.84
727.44	49526.03
727.63	49134.87
727.82	49306.90
728.00	49544.46
728.19	48909.59
728.38	49442.06
728.56	48635.16
728.75	49519.88
728.94	49186.07
729.12	49247.50
729.31	48985.36
729.50	49026.32
729.69	49128.72
729.87	49179.92
730.06	48645.40
730.25	48891.16
730.43	49038.61
730.62	48567.58
730.81	48913.69
730.99	48586.01
731.18	48233.76
731.37	48712.98
731.55	48807.19
731.74	49278.22
731.93	48583.96
732.11	48844.05
732.30	48508.19
732.49	48915.73
732.67	48895.25
732.86	48907.54
733.05	48557.34
733.23	48321.82
733.42	48540.96
733.61	48366.88
733.79	48080.16
733.98	48727.32
734.17	48536.86
734.35	48233.76
734.54	48434.46
734.73	48553.24
734.91	47973.67
735.10	48018.72
735.29	48321.82
735.47	47686.95
735.66	48178.46
735.84	48092.45
736.03	47760.68
736.22	48452.89
736.40	47871.27
736.59	47822.12
736.78	47707.43
736.96	47897.89
737.15	47650.09
737.33	47666.47
737.52	47750.44
737.71	47512.88
737.89	47506.73
738.08	47158.58
738.27	47342.89
738.45	47723.82
738.64	47553.83
738.82	47428.91
739.01	47766.82
739.20	47383.85
739.38	47336.75
739.57	47392.04
739.75	47125.81
739.94	47035.70
740.13	47279.41
740.31	47099.19
740.50	46918.96
740.68	46873.91
740.87	47377.71
741.06	47017.27
741.24	46929.20
741.43	46839.09
741.61	47076.66
741.80	46562.62
741.99	46417.21
742.17	46345.53
742.36	47201.58
742.54	46290.24
742.73	46630.20
742.91	46847.29
743.10	46720.31
743.29	47082.80
743.47	46607.67
743.66	46628.15
743.84	46601.53
744.03	46298.43
744.21	46128.45
744.40	46447.93
744.59	46206.27
744.77	46546.23
744.96	46042.43
745.14	46089.54
745.33	46329.15
745.51	46247.23
745.70	46445.88
745.88	45706.57
746.07	45804.87
746.26	46214.46
746.44	45913.41
746.63	45907.27
746.81	45798.73
747.00	45718.85
747.18	45933.89
747.37	46171.46
747.55	45655.37
747.74	45987.14
747.92	45655.37
748.11	45651.27
748.29	45714.76
748.48	45401.42
748.66	45645.13
748.85	45571.40
749.03	45645.13
749.22	45518.15
749.41	45188.43
749.59	44836.18
749.78	45153.62
749.96	44946.77
750.15	44950.87
750.33	45485.39
750.52	45423.95
750.70	45159.76
750.89	44864.85
751.07	44795.22
751.26	44897.62
751.44	44973.39
751.63	44719.45
751.81	44713.30
752.00	44680.53
752.18	45020.50
752.37	45094.22
752.55	44576.09
752.74	44301.66
752.92	44535.13
753.10	44526.94
753.29	44799.32
753.47	44326.24
753.66	43953.51
753.84	44524.89
754.03	44150.11
754.21	44209.50
754.40	44404.06
754.58	44467.55
754.77	44451.16
754.95	44266.84
755.14	44098.91
755.32	44371.29
755.51	43935.07
755.69	44139.87
755.88	43965.79
756.06	44182.88
756.24	44217.69
756.43	44041.57
756.61	44070.24
756.80	43664.74
756.98	43824.48
757.17	43885.92
757.35	43943.27
757.54	43267.44
757.72	43619.69
757.90	43693.41
758.09	43341.16
758.27	43689.32
758.46	43283.82
758.64	43306.35
758.83	43533.67
759.01	43537.77
759.19	43304.30
759.38	43144.56
759.56	43636.07
759.75	43087.21
759.93	43070.83
760.12	42943.86
760.30	43345.26
760.48	43154.80
760.67	42941.81
760.85	43357.55
761.04	43085.17
761.22	43355.50
761.40	43218.28
761.59	43296.11
761.77	42694.00
761.96	42835.31
762.14	42808.69
762.32	42661.24
762.51	42988.91
762.69	42726.77
762.88	42925.42
763.06	43193.71
763.24	42898.80
763.43	42651.00
763.61	42753.40
763.80	42691.96
763.98	42759.54
764.16	42648.95
764.35	42276.22
764.53	41952.64
764.72	42257.79
764.90	42513.78
765.08	42489.21
765.27	42155.39
765.45	42026.37
765.63	41790.85
765.82	42349.95
766.00	42071.42
766.18	41926.02
766.37	42198.40
766.55	41936.26
766.74	42241.40
766.92	42124.67
767.10	42351.99
767.29	41657.73
767.47	41454.98
767.65	41872.77
767.84	41645.44
768.02	41975.17
768.20	41612.68
768.39	41874.82
768.57	41694.60
768.75	41287.05
768.94	41463.18
769.12	41477.51
769.30	41301.39
769.49	41407.88
769.67	41131.40
769.85	41010.57
770.04	41104.78
770.22	41125.26
770.40	41420.17
770.59	40787.35
770.77	41162.12
770.95	41213.32
771.14	40490.39
771.32	40660.37
771.50	40899.98
771.69	40887.70
771.87	41080.21
772.05	40887.70
772.24	40662.42
772.42	41029.01
772.60	40668.56
772.78	40603.03
772.97	40811.92
773.15	40895.89
773.33	40918.42
773.52	40465.81
773.70	40543.64
773.88	40756.63
774.07	40408.47
774.25	40537.49
774.43	41000.33
774.61	40445.33
774.80	40981.90
774.98	40826.26
775.16	40711.57
775.34	40564.12
775.53	40615.32
775.71	41147.79
775.89	40727.95
776.08	40725.91
776.26	40748.43
776.44	41235.85
776.62	40646.04
776.81	40590.74
776.99	41094.54
777.17	40969.61
777.35	40883.60
777.54	41602.44
777.72	40865.17
777.90	41170.32
778.08	41536.90
778.27	41055.63
778.45	41547.14
778.63	41645.44
778.81	41125.26
779.00	42104.19
779.18	41538.95
779.36	41670.02
779.54	41514.37
779.73	41690.50
779.91	41682.31
780.09	41694.60
780.27	41829.76
780.46	41606.53
780.64	41915.78
780.82	41680.26
781.00	41553.29
781.19	42112.38
781.37	41743.75
781.55	42001.79
781.73	41934.21
781.91	41876.86
782.10	42175.87
782.28	41981.31
782.46	42014.08
782.64	42360.19
782.82	41710.98
783.01	42351.99
783.19	42292.60
783.37	42489.21
783.55	42102.14
783.74	42323.32
783.92	41827.71
784.10	42409.34
784.28	41915.78
784.46	42130.81
784.64	41600.39
784.83	42128.77
785.01	42272.12
785.19	42265.98
785.37	42286.46
785.55	42233.21
785.74	41739.65
785.92	42364.28
786.10	42521.98
786.28	42198.40
786.46	41690.50
786.64	42057.09
786.83	41821.57
787.01	41995.65
787.19	42061.18
787.37	42065.28
787.55	41987.46
787.74	41715.08
787.92	41960.83
788.10	41854.34
788.28	41864.58
788.46	41837.95
788.64	41270.67
788.82	41485.70
789.01	41598.34
789.19	41479.56
789.37	41180.56
789.55	41332.11
789.73	41635.20
789.91	41416.07
790.09	41184.65
790.28	41571.72
790.46	41360.78
790.64	41256.33
790.82	40969.61
791.00	41047.44
791.18	40879.50
791.36	40904.08
791.55	40975.76
791.73	41104.78
791.91	40539.54
792.09	40764.82
792.27	40914.32
792.45	40981.90
792.63	40912.27
792.81	40285.59
793.00	40383.90
793.18	40746.39
793.36	40213.91
793.54	40301.98
793.72	40586.64
793.90	40011.17
794.08	40062.36
794.26	40357.27
794.44	39912.86
794.62	39830.94
794.81	40015.26
794.99	39675.30
795.17	39450.02
795.35	39757.22
795.53	39648.68
795.71	39605.67
795.89	39464.36
796.07	39290.28
796.25	39036.33
796.43	39001.52
796.61	38733.23
796.80	38798.77
796.98	39501.22
797.16	38866.35
797.34	38665.65
797.52	38720.95
797.70	38940.08
797.88	38747.57
798.06	38401.46
798.24	38370.74
798.42	38489.52
798.60	38335.93
798.78	37969.34
798.96	38233.53
799.14	37909.95
799.32	38200.76
799.51	37895.61
799.69	37887.42
799.87	38024.64
800.05	37885.37
800.23	37676.48
800.41	37311.94
800.59	37782.98
800.77	37129.67
800.95	36904.40
801.13	37139.91
801.31	36883.92
801.49	36935.12
801.67	36793.81
801.85	36607.44
802.03	36578.77
802.21	36591.06
802.39	36273.62
802.57	36482.52
802.75	36380.12
802.93	36629.97
803.11	36388.31
803.29	36343.25
803.47	36040.15
803.65	36103.64
803.83	36201.94
804.01	36023.77
804.19	35493.35
804.37	35675.62
804.55	35855.84
804.73	35497.44
804.91	35536.35
805.09	35366.37
805.27	35601.89
805.45	35431.91
805.63	35778.01
805.81	35270.12
805.99	35263.97
806.17	35255.78
806.35	35317.22
806.53	34844.14
806.71	35079.66
806.89	35089.90
807.07	35139.05
807.25	34706.93
807.43	34196.98
807.61	35272.17
807.79	34901.48
807.97	34557.42
808.15	34471.41
808.33	34635.25
808.51	34465.27
808.69	34579.95
808.87	34078.20
809.05	34123.26
809.23	33914.36
809.41	33766.91
809.59	33582.59
809.77	33975.80
809.95	33289.73
810.13	33762.81
810.31	33719.81
810.49	33721.85
810.67	33324.55
810.84	33760.76
811.02	33293.83
811.20	33326.60
811.38	33500.67
811.56	32867.85
811.74	32792.08
811.92	32855.56
812.10	33107.46
812.28	33043.98
812.46	32761.36
812.64	32564.75
812.82	32478.74
813.00	32876.04
813.18	32914.95
813.36	32650.77
813.53	32392.72
813.71	32230.93
813.89	32445.97
814.07	32415.25
814.25	32531.98
814.43	32015.90
814.61	32224.79
814.79	31804.95
814.97	32101.91
815.15	31993.37
815.33	31428.13
815.50	31323.68
815.68	31757.85
815.86	31899.16
816.04	31548.96
816.22	31919.64
816.40	31456.80
816.58	30977.58
816.76	31045.16
816.94	31237.67
817.11	31458.85
817.29	31338.02
817.47	31245.86
817.65	31176.23
817.83	30989.86
818.01	30770.73
818.19	30770.73
818.37	30746.15
818.54	30672.43
818.72	30479.92
818.90	30670.38
819.08	30481.97
819.26	30438.96
819.44	30639.66
819.62	30510.64
819.80	30944.81
819.97	30572.08
820.15	30602.80
820.33	30457.39
820.51	30418.48
820.69	29851.19
820.87	30320.18
821.05	30275.12
821.22	30074.42
821.40	30219.83
821.58	29982.26
821.76	29867.58
821.94	29548.09
822.12	29916.73
822.29	29972.02
822.47	29730.36
822.65	29584.96
822.83	29466.17
823.01	29881.91
823.19	29326.91
823.36	29060.68
823.54	29511.23
823.72	29371.97
823.90	29130.31
824.08	28685.90
824.25	28847.69
824.43	28894.79
824.61	28976.71
824.79	29228.61
824.97	28948.04
825.15	29171.27
825.32	29023.81
825.50	28714.57
825.68	28569.16
825.86	28679.75
826.04	28905.03
826.21	28741.19
826.39	28808.78
826.57	28395.09
826.75	28470.86
826.93	28124.75
827.10	28218.96
827.28	28448.33
827.46	28231.25
827.64	28337.74
827.81	28210.77
827.99	28405.33
828.17	27911.77
828.35	27805.27
828.53	28067.41
828.70	27788.89
828.88	28008.02
829.06	27909.72
829.24	28175.95
829.41	27760.22
829.59	27973.21
829.77	27635.29
829.95	27416.16
830.12	27883.09
830.30	27719.26
830.48	27780.70
830.66	27620.95
830.84	27573.85
831.01	27278.94
831.19	27381.34
831.37	27295.33
831.55	27197.02
831.72	27131.49
831.90	27248.22
832.08	27248.22
832.25	27178.59
832.43	27340.38
832.61	27018.85
832.79	26670.70
832.96	26883.69
833.14	27121.25
833.32	27098.72
833.50	26930.79
833.67	26814.05
833.85	26672.74
834.03	26510.96
834.20	26822.25
834.38	26721.90
834.56	26709.61
834.74	26568.30
834.91	26916.45
835.09	26547.82
835.27	26244.72
835.44	26375.79
835.62	25714.30
835.80	26314.35
835.98	26431.08
836.15	26164.85
836.33	26052.21
836.51	26101.36
836.68	26279.54
836.86	26023.54
837.04	26080.88
837.21	25745.02
837.39	26011.25
837.57	25902.71
837.75	26076.79
837.92	25618.04
838.10	25521.79
838.28	25507.45
838.45	25671.29
838.63	25374.33
838.81	25650.81
838.98	25302.65
839.16	25196.16
839.34	25474.68
839.51	25360.00
839.69	25142.91
839.87	25364.09
840.04	25368.19
840.22	25542.27
840.40	25435.77
840.57	24839.81
840.75	25167.49
840.93	24841.86
841.10	25147.01
841.28	25216.64
841.46	24751.75
841.63	25175.68
841.81	24905.35
841.98	24944.26
842.16	24491.66
842.34	24704.65
842.51	24776.33
842.69	24786.57
842.87	24780.42
843.04	24794.76
843.22	24782.47
843.40	24755.85
843.57	24673.93
843.75	24813.19
843.92	24561.29
844.10	24606.34
844.28	24454.79
844.45	24336.01
844.63	24426.12
844.81	24104.59
844.98	24350.35
845.16	24282.77
845.33	24028.82
845.51	24014.48
845.69	24100.50
845.86	23883.41
846.04	23850.64
846.21	24028.82
846.39	23893.65
846.57	23910.04
846.74	24022.67
846.92	23676.57
847.09	23750.29
847.27	23711.38
847.45	23662.23
847.62	23545.50
847.80	23318.17
847.97	23676.57
848.15	23561.88
848.32	23402.14
848.50	23631.51
848.68	23053.98
848.85	23492.25
849.03	23168.67
849.20	23215.77
849.38	23150.24
849.56	23154.33
849.73	23166.62
849.91	23262.88
850.08	23457.43
850.26	23045.79
850.43	23006.88
850.61	23230.11
850.78	22757.03
850.96	23242.40
851.14	23064.22
851.31	23117.47
851.49	22984.35
851.66	23152.29
851.84	22826.66
852.01	22830.76
852.19	22884.00
852.36	22654.63
852.54	22904.48
852.71	22683.30
852.89	22595.24
853.07	22806.18
853.24	22474.41
853.42	22384.30
853.59	22326.96
853.77	22427.31
853.94	22566.57
854.12	22402.73
854.29	22476.46
854.47	22455.98
854.64	22183.60
854.82	22283.95
854.99	22216.36
855.17	22044.34
855.34	22498.98
855.52	22197.93
855.69	22263.47
855.87	22124.21
856.04	21692.08
856.22	22150.83
856.39	21812.92
856.57	22042.29
856.74	22062.77
856.92	21993.14
857.09	21735.09
857.27	21900.98
857.44	22120.11
857.62	21726.90
857.79	21624.50
857.97	21579.45
858.14	21827.25
858.32	21554.87
858.49	21753.52
858.67	21427.90
858.84	21499.58
859.02	21573.30
859.19	21407.42
859.37	21575.35
859.54	21665.46
859.72	21323.45
859.89	21442.23
860.06	21251.77
860.24	21323.45
860.41	21147.33
860.59	20901.57
860.76	21241.53
860.94	21036.74
861.11	21438.14
861.29	21212.86
861.46	20991.68
861.64	20948.67
861.81	21069.50
861.98	21075.65
862.16	20612.81
862.33	20596.42
862.51	21202.62
862.68	21137.09
862.86	20754.12
863.03	20876.99
863.21	20909.76
863.38	20473.54
863.55	20668.10
863.73	20717.25
863.90	20600.52
864.08	20659.91
864.25	20782.79
864.43	20455.11
864.60	20502.22
864.77	20379.34
864.95	20457.16
865.12	20371.15
865.30	20315.85
865.47	20463.30
865.64	20500.17
865.82	20301.51
865.99	20567.75
866.17	20133.58
866.34	20516.55
866.51	20027.09
866.69	20430.54
866.86	20121.29
867.04	20113.10
867.21	19908.30
867.38	19863.25
867.56	19961.55
867.73	19834.58
867.91	19922.64
868.08	19965.65
868.25	19945.17
868.43	19654.36
868.60	19775.19
868.78	19764.95
868.95	19883.73
869.12	19730.13
869.30	19715.80
869.47	19844.82
869.64	19492.57
869.82	19611.35
869.99	19310.30
870.16	19691.22
870.34	19416.79
870.51	19543.77
870.69	19467.99
870.86	19390.17
871.03	19246.81
871.21	19334.87
871.38	19093.21
871.55	19078.88
871.73	18888.42
871.90	19191.52
872.07	19054.30
872.25	18996.96
872.42	18978.53
872.59	18837.22
872.77	18915.04
872.94	18904.80
873.11	18826.98
873.29	18962.14
873.46	18904.80
873.63	18749.15
873.81	18697.95
873.98	18581.22
874.15	18491.11
874.33	18652.90
874.50	18575.08
874.67	18732.77
874.85	18491.11
875.02	18450.15
875.19	18306.79
875.37	18646.76
875.54	18368.23
875.71	18345.70
875.88	18337.51
876.06	18175.72
876.23	18018.03
876.40	18239.21
876.58	18433.77
876.75	18050.80
876.92	18083.56
877.10	18001.65
877.27	17841.90
877.44	17979.12
877.61	17813.23
877.79	18003.69
877.96	17813.23
878.13	17653.49
878.31	17555.19
878.48	17770.22
878.65	17852.14
878.82	17835.76
879.00	17766.13
879.17	17626.87
879.34	17530.61
879.51	17493.75
879.69	17487.61
879.86	17538.80
880.03	17366.78
880.21	17327.86
880.38	17547.00
880.55	17565.43
880.72	17262.33
880.90	17315.58
881.07	17352.44
881.24	17108.73
881.41	17274.62
881.59	17389.30
881.76	17264.38
881.93	17391.35
882.10	16916.22
882.28	17075.96
882.45	17149.69
882.62	16936.70
882.79	17047.29
882.96	16885.50
883.14	17057.53
883.31	17186.55
883.48	16721.66
883.65	16981.76
883.83	17180.41
884.00	16774.91
884.17	16922.37
884.34	17024.76
884.51	16813.82
884.69	16746.24
884.86	16746.24
885.03	16641.79
885.20	16553.73
885.38	16824.06
885.55	16783.10
885.72	16961.28
885.89	16713.47
886.06	16785.15
886.24	16910.08
886.41	16545.54
886.58	16717.57
886.75	16504.58
886.92	16658.18
887.10	16740.10
887.27	16396.04
887.44	16637.70
887.61	16846.59
887.78	16695.04
887.95	16471.81
888.13	16379.65
888.30	16291.59
888.47	16279.30
888.64	16310.02
888.81	16152.33
888.99	16217.86
889.16	16176.91
889.33	16181.00
889.50	15992.59
889.67	15988.49
889.84	15970.06
890.01	16174.86
890.19	16011.02
890.36	16166.67
890.53	16051.98
890.70	15947.53
890.87	16029.45
891.04	15691.54
891.22	15941.39
891.39	15800.08
891.56	15759.12
891.73	16039.69
891.90	15628.05
892.07	15892.24
892.24	15978.25
892.42	15914.77
892.59	15806.22
892.76	15767.31
892.93	15673.10
893.10	15611.67
893.27	15841.04
893.44	15511.32
893.61	15496.98
893.79	15804.17
893.96	15574.80
894.13	15664.91
894.30	15707.92
894.47	15558.42
894.64	15683.34
894.81	15513.36
894.98	15574.80
895.15	15525.65
895.33	15527.70
895.50	15478.55
895.67	15417.11
895.84	15646.48
896.01	15552.27
896.18	15335.19
896.35	15572.75
896.52	15580.95
896.69	15490.84
896.86	15578.90
897.04	15216.41
897.21	15623.95
897.38	15322.90
897.55	15370.01
897.72	15525.65
897.89	15312.66
898.06	15626.00
898.23	15306.52
898.40	15361.81
898.57	15722.26
898.74	15525.65
898.91	15417.11
899.08	15560.47
899.26	15445.78
899.43	15456.02
899.60	15460.12
899.77	15357.72
899.94	15501.08
900.11	15271.70
900.28	15376.15
900.45	15296.28
900.62	15394.58
900.79	15359.77
900.96	15406.87
901.13	15120.15
901.30	15243.03
901.47	15406.87
901.64	15312.66
901.81	15359.77
901.98	15109.91
902.15	15525.65
902.32	15275.80
902.49	15302.42
902.66	15472.40
902.83	14999.32
903.01	15238.94
903.18	15496.98
903.35	15288.09
903.52	15531.80
903.69	15472.40
903.86	15453.97
904.03	15181.59
904.20	15466.26
904.37	15421.20
904.54	15400.72
904.71	15361.81
904.88	15253.27
905.05	15501.08
905.22	15519.51
905.39	15386.39
905.56	15169.30
905.73	15230.74
905.90	15257.37
906.07	15419.16
906.24	15361.81
906.41	15138.58
906.58	15372.05
906.75	15347.48
906.92	15150.87
907.09	15191.83
907.26	15376.15
907.43	15034.14
907.60	15380.25
907.77	15486.74
907.93	15234.84
908.10	15138.58
908.27	15626.00
908.44	15257.37
908.61	15310.61
908.78	15163.16
908.95	15429.40
909.12	15238.94
909.29	15077.15
909.46	15314.71
909.63	15212.31
909.80	15165.21
909.97	15124.25
910.14	15193.88
910.31	15247.13
910.48	15093.53
910.65	15226.65
910.82	15056.67
910.99	15171.35
911.16	15032.09
911.33	15146.78
911.50	14911.26
911.66	15093.53
911.83	14919.45
912.00	15052.57
912.17	14649.12
912.34	15019.80
912.51	14939.93
912.68	14915.36
912.85	14905.12
913.02	15150.87
913.19	14810.91
913.36	15001.37
913.53	14960.41
913.70	14716.70
913.86	15079.19
914.03	14655.26
914.20	14640.93
914.37	14663.46
914.54	14655.26
914.71	14733.09
914.88	14593.83
915.05	14597.92
915.22	14479.14
915.39	14518.05
915.55	14468.90
915.72	14438.18
915.89	14432.04
916.06	14436.13
916.23	14280.49
916.40	14569.25
916.57	14393.12
916.74	14321.45
916.91	14251.81
917.07	14169.90
917.24	14192.42
917.41	14122.79
917.58	14202.66
917.75	14176.04
917.92	13877.04
918.09	13985.58
918.26	14075.69
918.42	13840.17
918.59	14149.42
918.76	13856.56
918.93	13637.42
919.10	13731.63
919.27	13637.42
919.44	13799.21
919.60	13887.28
919.77	13545.27
919.94	13535.03
920.11	13313.84
920.28	13768.49
920.45	13578.03
920.61	13369.14
920.78	13174.58
920.95	13408.05
921.12	13289.27
921.29	12998.46
921.46	13256.50
921.62	13291.32
921.79	12961.59
921.96	12990.27
922.13	13135.67
922.30	12967.74
922.47	12871.48
922.63	12865.34
922.80	12820.28
922.97	12830.52
923.14	12707.65
923.31	12726.08
923.47	12654.40
923.64	13018.94
923.81	12517.18
923.98	12621.63
924.15	12422.98
924.32	12453.70
924.48	12472.13
924.65	12377.92
924.82	12212.04
924.99	12130.12
925.15	12298.05
925.32	12207.94
925.49	12160.84
925.66	12054.34
925.83	12156.74
925.99	12269.38
926.16	12074.82
926.33	11870.03
926.50	11831.12
926.67	12076.87
926.83	11972.43
927.00	11827.02
927.17	11806.54
927.34	11730.76
927.50	11726.67
927.67	11872.07
927.84	11525.97
928.01	11513.68
928.17	11411.28
928.34	11501.39
928.51	11339.60
928.68	11286.36
928.84	11169.62
929.01	11050.84
929.18	11200.34
929.35	11138.90
929.51	11177.81
929.68	11122.52
929.85	11052.89
930.02	10993.50
930.18	10827.61
930.35	10979.16
930.52	10930.01
930.69	10686.30
930.85	10731.36
931.02	10559.33
931.19	10719.07
931.36	10635.10
931.52	10567.52
931.69	10536.80
931.86	10211.17
932.02	10422.11
932.19	10403.68
932.36	10479.46
932.53	10211.17
932.69	10225.51
932.86	10340.19
933.03	10024.81
933.19	9996.14
933.36	10082.15
933.53	10215.27
933.70	10004.33
933.86	9903.98
934.03	9946.98
934.20	9836.39
934.36	9815.91
934.53	9643.88
934.70	9430.90
934.86	9617.26
935.03	9590.64
935.20	9385.84
935.36	9412.46
935.53	9138.04
935.70	9367.41
935.86	9154.42
936.03	9107.32
936.20	8777.59
936.36	8873.85
936.53	8955.77
936.70	8841.08
936.86	8861.56
937.03	8601.47
937.20	8494.97
937.36	8390.53
937.53	8210.31
937.70	8150.92
937.86	8150.92
938.03	8249.22
938.20	8032.13
938.36	7823.24
938.53	7810.95
938.70	7724.94
938.86	7798.66
939.03	7534.48
939.20	7557.00
939.36	7477.13
939.53	7511.95
939.70	7573.39
939.86	7180.18
940.03	7241.62
940.19	6971.29
940.36	7047.06
940.53	6887.32
940.69	6795.16
940.86	6954.90
941.03	6725.53
941.19	6733.72
941.36	6643.61
941.52	6561.69
941.69	6518.68
941.86	6487.96
942.02	6309.79
942.19	6340.51
942.35	6289.31
942.52	6148.00
942.69	6182.82
942.85	6090.66
943.02	6047.65
943.18	6311.84
943.35	5928.87
943.52	5959.59
943.68	5744.55
943.85	5992.36
944.01	5789.61
944.18	5830.57
944.35	5795.75
944.51	5816.23
944.68	5472.17
944.84	5642.15
945.01	5545.90
945.17	5664.68
945.34	5484.46
945.51	5717.93
945.67	5580.71
945.84	5588.91
946.00	5517.23
946.17	5416.88
946.33	5568.43
946.50	5480.36
946.67	5525.42
946.83	5476.27
947.00	5564.33
947.16	5445.55
947.33	5439.40
947.49	5410.73
947.66	5306.29
947.82	5406.64
947.99	5324.72
948.16	5371.82
948.32	5468.08
948.49	5474.22
948.65	5392.30
948.82	5349.29
948.98	5607.34
949.15	5267.38
949.31	5488.56
949.48	5443.50
949.64	5435.31
949.81	5326.77
949.97	5457.84
950.14	5531.56
950.30	5363.63
950.47	5466.03
950.63	5550.00
950.80	5492.65
950.96	5386.16
951.13	5310.38
951.30	5490.60
951.46	5558.19
951.63	5537.71
951.79	5578.67
951.96	5449.64
952.12	5476.27
952.29	5574.57
952.45	5394.35
952.62	5584.81
952.78	5492.65
952.94	5439.40
953.11	5431.21
953.27	5406.64
953.44	5621.67
953.60	5476.27
953.77	5629.87
953.93	5523.37
954.10	5506.99
954.26	5701.54
954.43	5570.48
954.59	5654.44
954.76	5627.82
954.92	5506.99
955.09	5558.19
955.25	5582.76
955.42	5595.05
955.58	5736.36
955.75	5670.83
955.91	5658.54
956.07	5636.01
956.24	5562.28
956.40	5638.06
956.57	5662.63
956.73	5461.93
956.90	5664.68
957.06	5621.67
957.23	5500.84
957.39	5402.54
957.56	5697.45
957.72	5705.64
957.88	5484.46
958.05	5597.10
958.21	5607.34
958.38	5582.76
958.54	5580.71
958.71	5738.41
958.87	5646.25
959.03	5687.21
959.20	5595.05
959.36	5605.29
959.53	5633.96
959.69	5511.08
959.85	5664.68
960.02	5445.55
960.18	5660.59
960.35	5554.09
960.51	5631.91
960.68	5482.41
960.84	5683.11
961.00	5543.85
961.17	5476.27
961.33	5660.59
961.50	5453.74
961.66	5586.86
961.82	5570.48
961.99	5576.62
962.15	5603.24
962.31	5496.75
962.48	5441.45
962.64	5658.54
962.81	5564.33
962.97	5658.54
963.13	5478.32
963.30	5332.91
963.46	5517.23
963.62	5418.93
963.79	5488.56
963.95	5463.98
964.12	5455.79
964.28	5609.39
964.44	5322.67
964.61	5513.13
964.77	5578.67
964.93	5459.88
965.10	5566.38
965.26	5519.28
965.42	5394.35
965.59	5355.44
965.75	5509.04
965.92	5517.23
966.08	5539.76
966.24	5353.39
966.41	5326.77
966.57	5584.81
966.73	5404.59
966.90	5406.64
967.06	5277.62
967.22	5302.19
967.39	5277.62
967.55	5300.14
967.71	5365.68
967.88	5265.33
968.04	5261.23
968.20	5261.23
968.37	5330.86
968.53	5197.74
968.69	5257.14
968.85	5287.86
969.02	5339.05
969.18	5330.86
969.34	5357.49
969.51	5238.70
969.67	5236.66
969.83	5119.92
970.00	5162.93
970.16	5189.55
970.32	5128.11
970.48	5160.88
970.65	5054.39
970.81	5119.92
970.97	4964.28
971.14	5091.25
971.30	5302.19
971.46	5060.53
971.63	5134.26
971.79	5175.22
971.95	5121.97
972.11	5025.72
972.28	4966.32
972.44	5035.96
972.60	4822.97
972.76	5023.67
972.93	4921.27
973.09	4919.22
973.25	5101.49
973.42	5027.76
973.58	5031.86
973.74	4984.76
973.90	5130.16
974.07	4968.37
974.23	4888.50
974.39	4990.90
974.55	4913.08
974.72	4865.97
974.88	4796.34
975.04	4882.36
975.20	4931.51
975.37	4894.65
975.53	4753.34
975.69	4853.69
975.85	4720.57
976.01	4816.82
976.18	4837.30
976.34	4794.29
976.50	4788.15
976.66	4806.58
976.83	4739.00
976.99	4663.22
977.15	4663.22
977.31	4603.83
977.47	4724.66
977.64	4736.95
977.80	4579.26
977.96	4718.52
978.12	4786.10
978.29	4616.12
978.45	4624.31
978.61	4544.44
978.77	4726.71
978.93	4505.53
979.10	4446.14
979.26	4538.30
979.42	4710.33
979.58	4554.68
979.74	4587.45
979.91	4607.93
980.07	4458.43
980.23	4507.58
980.39	4474.81
980.55	4554.68
980.71	4575.16
980.88	4435.90
981.04	4558.78
981.20	4476.86
981.36	4450.24
981.52	4423.61
981.68	4382.65
981.85	4472.76
982.01	4444.09
982.17	4319.17
982.33	4349.89
982.49	4376.51
982.65	4237.25
982.82	4360.13
982.98	4403.13
983.14	4140.99
983.30	4382.65
983.46	4300.73
983.62	4214.72
983.79	4313.02
983.95	4202.43
984.11	4151.23
984.27	4247.49
984.43	4247.49
984.59	4132.80
984.75	4265.92
984.91	4190.14
985.08	4181.95
985.24	4093.89
985.40	4222.91
985.56	4202.43
985.72	4200.38
985.88	4165.57
986.04	4140.99
986.20	4038.59
986.37	4081.60
986.53	3993.54
986.69	4227.01
986.85	3997.64
987.01	4175.81
987.17	4132.80
987.33	3872.71
987.49	4057.03
987.65	4134.85
987.82	4083.65
987.98	3897.28
988.14	4042.69
988.30	3993.54
988.46	3979.20
988.62	3889.09
988.78	3958.72
988.94	3962.82
989.10	3848.13
989.26	3862.47
989.42	3846.09
989.59	3817.41
989.75	3809.22
989.91	3850.18
990.07	3803.08
990.23	3833.80
990.39	3639.24
990.55	3887.04
990.71	3780.55
990.87	3780.55
991.03	3878.85
991.19	3719.11
991.35	3784.65
991.51	3764.17
991.67	3809.22
991.83	3741.64
992.00	3637.19
992.16	3690.44
992.32	3669.96
992.48	3899.33
992.64	3626.95
992.80	3753.93
992.96	3676.10
993.12	3692.49
993.28	3655.62
993.44	3592.14
993.60	3592.14
993.76	3694.54
993.92	3698.63
994.08	3629.00
994.24	3682.25
994.40	3633.10
994.56	3676.10
994.72	3594.19
994.88	3524.55
995.04	3575.75
995.20	3555.27
995.36	3532.75
995.52	3465.16
995.68	3416.01
995.84	3407.82
996.00	3592.14
996.16	3502.03
996.32	3452.88
996.48	3506.12
996.64	3497.93
996.80	3375.05
996.96	3432.40
997.12	3354.57
997.28	3340.24
997.44	3436.49
997.60	3444.68
997.76	3348.43
997.92	3350.48
998.08	3317.71
998.24	3401.68
998.40	3481.55
998.56	3450.83
998.72	3284.94
998.88	3203.02
999.04	3305.42
999.20	3360.72
999.36	3393.48
999.52	3373.00
999.68	3203.02
999.84	3289.04
1000.00	3323.85
1000.16	3309.52
1000.32	3260.37
1000.48	3297.23
1000.64	3112.91
1000.80	3078.10
1000.95	3178.45
1001.11	3252.17
1001.27	3127.25
1001.43	3174.35
1001.59	3100.62
1001.75	2924.50
1001.91	3209.17
1002.07	3141.58
1002.23	3190.74
1002.39	3114.96
1002.55	3143.63
1002.71	3065.81
1002.87	3162.06
1003.03	2981.84
1003.19	3071.95
1003.34	3071.95
1003.50	3114.96
1003.66	3080.14
1003.82	3069.91
1003.98	3063.76
1004.14	3094.48
1004.30	2953.17
1004.46	2983.89
1004.62	3076.05
1004.78	2944.98
1004.94	3074.00
1005.09	3090.38
1005.25	2994.13
1005.41	2996.18
1005.57	2936.79
1005.73	2912.21
1005.89	2901.97
1006.05	3049.43
1006.21	3063.76
1006.37	2947.03
1006.52	2887.64
1006.68	2899.92
1006.84	2969.55
1007.00	2926.55
1007.16	2957.27
1007.32	2901.97
1007.48	2787.29
1007.64	2897.88
1007.79	2813.91
1007.95	2840.53
1008.11	2901.97
1008.27	2721.75
1008.43	2820.05
1008.59	2869.20
1008.75	2920.40
1008.91	2865.11
1009.06	2787.29
1009.22	2826.20
1009.38	2797.53
1009.54	2783.19
1009.70	2820.05
1009.86	2783.19
1010.01	2789.33
1010.17	2762.71
1010.33	2772.95
1010.49	2631.64
1010.65	2856.92
1010.81	2664.41
1010.96	2738.13
1011.12	2727.89
1011.28	2572.25
1011.44	2666.46
1011.60	2727.89
1011.76	2568.15
1011.91	2760.66
1012.07	2623.45
1012.23	2607.06
1012.39	2617.30
1012.55	2625.50
1012.71	2684.89
1012.86	2557.91
1013.02	2578.39
1013.18	2688.98
1013.34	2576.34
1013.50	2598.87
1013.65	2658.26
1013.81	2482.14
1013.97	2562.01
1014.13	2590.68
1014.29	2525.15
1014.44	2650.07
1014.60	2559.96
1014.76	2551.77
1014.92	2535.39
1015.07	2645.98
1015.23	2639.83
1015.39	2492.38
1015.55	2547.67
1015.71	2527.19
1015.86	2467.80
1016.02	2424.80
1016.18	2459.61
1016.34	2525.15
1016.49	2426.84
1016.65	2508.76
1016.81	2414.56
1016.97	2432.99
1017.12	2387.93
1017.28	2478.04
1017.44	2422.75
1017.60	2486.23
1017.75	2334.68
1017.91	2435.03
1018.07	2473.95
1018.23	2461.66
1018.38	2326.49
1018.54	2482.14
1018.70	2420.70
1018.86	2373.60
1019.01	2420.70
1019.17	2322.40
1019.33	2486.23
1019.49	2353.12
1019.64	2371.55
1019.80	2373.60
1019.96	2330.59
1020.12	2394.08
1020.27	2236.38
1020.43	2357.21
1020.59	2389.98
1020.74	2361.31
1020.90	2402.27
1021.06	2238.43
1021.22	2389.98
1021.37	2295.77
1021.53	2287.58
1021.69	2361.31
1021.84	2263.01
1022.00	2293.72
1022.16	2220.00
1022.31	2291.68
1022.47	2273.25
1022.63	2371.55
1022.79	2179.04
1022.94	2258.91
1023.10	2314.20
1023.26	2244.57
1023.41	2277.34
1023.57	2269.15
1023.73	2213.85
1023.88	2230.24
1024.04	2265.05
1024.20	2256.86
1024.35	2222.05
1024.51	2174.94
1024.67	2277.34
1024.82	2267.10
1024.98	2197.47
1025.14	2232.29
1025.29	2170.85
1025.45	2217.95
1025.61	2168.80
1025.76	2181.09
1025.92	2146.27
1026.08	2205.66
1026.23	2250.72
1026.39	2181.09
1026.55	2117.60
1026.70	2217.95
1026.86	2183.13
1027.02	2226.14
1027.17	2123.74
1027.33	2181.09
1027.48	2142.18
1027.64	2179.04
1027.80	2099.17
1027.95	2240.48
1028.11	2039.78
1028.27	2158.56
1028.42	2170.85
1028.58	2119.65
1028.73	2029.54
1028.89	1970.15
1029.05	2189.28
1029.20	2113.50
>>>>>End Processed Spectral Data<<<<<
