SpectraSuite Data File
++++++++++++++++++++++++++++++++++++
Date: Fri Jun 02 14:44:33 CEST 2017
User: INFO_000
Dark Spectrum Present: No
Reference Spectrum Present: No
Number of Sampled Component Spectra: 1
Spectrometers: USB4H00879
Integration Time (usec): 80000 (USB4H00879)
Spectra Averaged: 1 (USB4H00879)
Boxcar Smoothing: 0 (USB4H00879)
Correct for Electrical Dark: No (USB4H00879)
Strobe/Lamp Enabled: No (USB4H00879)
Correct for Detector Non-linearity: No (USB4H00879)
Correct for Stray Light: No (USB4H00879)
Number of Pixels in Processed Spectrum: 3648
>>>>>Begin Processed Spectral Data<<<<<
345.13	1290.22
345.34	1290.22
345.56	1290.22
345.78	1236.97
345.99	1275.88
346.21	1667.05
346.42	1710.05
346.64	1650.66
346.86	1781.73
347.07	1589.22
347.29	1628.14
347.50	1605.61
347.72	1677.29
347.94	1642.47
348.15	1636.33
348.37	1556.46
348.59	1669.09
348.80	1576.94
349.02	1837.03
349.23	1886.18
349.45	1783.78
349.67	1920.99
349.88	1787.88
350.10	1941.47
350.31	1804.26
350.53	1748.97
350.75	1990.63
350.96	1765.35
351.18	1882.08
351.39	1808.36
351.61	1726.44
351.82	1937.38
352.04	1947.62
352.26	1716.20
352.47	1906.66
352.69	1830.88
352.90	1732.58
353.12	1931.23
353.34	1894.37
353.55	1861.60
353.77	1900.52
353.98	1894.37
354.20	1849.32
354.41	1912.80
354.63	1970.15
354.85	2000.87
355.06	1834.98
355.28	1814.50
355.49	1828.84
355.71	1869.80
355.92	1871.84
356.14	1920.99
356.35	1877.99
356.57	1871.84
356.79	1953.76
357.00	1744.87
357.22	1888.23
357.43	1806.31
357.65	1966.05
357.86	1896.42
358.08	1886.18
358.29	1918.95
358.51	1988.58
358.72	1964.00
358.94	1900.52
359.16	1974.24
359.37	1873.89
359.59	1982.43
359.80	2043.87
360.02	1988.58
360.23	1968.10
360.45	1992.67
360.66	1982.43
360.88	1857.51
361.09	2033.63
361.31	1961.95
361.52	1966.05
361.74	1912.80
361.95	2041.82
362.17	1972.19
362.38	2101.22
362.60	1970.15
362.81	1943.52
363.03	1888.23
363.24	1959.91
363.46	2023.39
363.67	2039.78
363.89	1998.82
364.10	1888.23
364.32	1968.10
364.53	2082.78
364.75	1929.19
364.96	2070.50
365.18	1978.34
365.39	2027.49
365.61	2027.49
365.82	2101.22
366.04	2002.91
366.25	1914.85
366.47	2058.21
366.68	2052.06
366.90	1970.15
367.11	2037.73
367.33	2056.16
367.54	2070.50
367.76	2019.30
367.97	2056.16
368.19	2117.60
368.40	2131.94
368.62	2029.54
368.83	2023.39
369.05	2090.98
369.26	1964.00
369.48	1992.67
369.69	1933.28
369.91	2052.06
370.12	2050.02
370.33	2090.98
370.55	1955.81
370.76	1994.72
370.98	2168.80
371.19	2039.78
371.41	2029.54
371.62	2082.78
371.84	1986.53
372.05	2224.09
372.27	2101.22
372.48	1986.53
372.69	2113.50
372.91	2156.51
373.12	2191.33
373.34	2121.70
373.55	2131.94
373.77	2150.37
373.98	2088.93
374.20	2136.03
374.41	2144.22
374.62	2160.61
374.84	2197.47
375.05	2226.14
375.27	2138.08
375.48	2187.23
375.70	2297.82
375.91	2191.33
376.12	2254.81
376.34	2209.76
376.55	2168.80
376.77	2211.81
376.98	2144.22
377.19	2230.24
377.41	2176.99
377.62	2166.75
377.84	2256.86
378.05	2252.77
378.27	2265.05
378.48	2232.29
378.69	2351.07
378.91	2308.06
379.12	2265.05
379.34	2258.91
379.55	2308.06
379.76	2199.52
379.98	2281.44
380.19	2281.44
380.41	2250.72
380.62	2291.68
380.83	2256.86
381.05	2154.46
381.26	2351.07
381.47	2265.05
381.69	2301.92
381.90	2244.57
382.12	2328.54
382.33	2213.85
382.54	2281.44
382.76	2353.12
382.97	2320.35
383.19	2267.10
383.40	2392.03
383.61	2326.49
383.83	2238.43
384.04	2318.30
384.25	2353.12
384.47	2410.46
384.68	2482.14
384.89	2207.71
385.11	2318.30
385.32	2353.12
385.54	2346.97
385.75	2342.88
385.96	2469.85
386.18	2342.88
386.39	2430.94
386.60	2418.65
386.82	2416.60
387.03	2396.12
387.24	2418.65
387.46	2420.70
387.67	2408.41
387.88	2551.77
388.10	2478.04
388.31	2461.66
388.52	2602.97
388.74	2562.01
388.95	2459.61
389.16	2443.23
389.38	2459.61
389.59	2570.20
389.80	2596.82
390.02	2633.69
390.23	2654.17
390.44	2557.91
390.66	2510.81
390.87	2549.72
391.08	2576.34
391.30	2684.89
391.51	2611.16
391.72	2631.64
391.94	2635.74
392.15	2664.41
392.36	2592.73
392.58	2643.93
392.79	2717.65
393.00	2811.86
393.22	2777.05
393.43	2805.72
393.64	2795.48
393.85	2764.76
394.07	2621.40
394.28	2727.89
394.49	2631.64
394.71	2764.76
394.92	2832.34
395.13	2695.13
395.35	2828.24
395.56	2674.65
395.77	2772.95
395.98	2820.05
396.20	2961.36
396.41	2879.44
396.62	2822.10
396.84	2785.24
397.05	2793.43
397.26	2813.91
397.47	2994.13
397.69	2899.92
397.90	3035.09
398.11	2895.83
398.32	2910.16
398.54	2840.53
398.75	2809.81
398.96	2926.55
399.18	3123.15
399.39	2994.13
399.60	3092.43
399.81	2965.46
400.03	3037.14
400.24	3319.76
400.45	3035.09
400.66	3092.43
400.88	3094.48
401.09	3237.84
401.30	3033.04
401.51	3241.93
401.73	3022.80
401.94	3129.30
402.15	3157.97
402.36	3162.06
402.58	3108.82
402.79	3170.26
403.00	3104.72
403.21	3157.97
403.43	3176.40
403.64	3217.36
403.85	3008.47
404.06	3121.10
404.27	2994.13
404.49	3196.88
404.70	3157.97
404.91	3278.80
405.12	3178.45
405.34	3155.92
405.55	3407.82
405.76	3184.59
405.97	3252.17
406.19	3319.76
406.40	3319.76
406.61	3358.67
406.82	3330.00
407.03	3276.75
407.25	3389.39
407.46	3456.97
407.67	3461.07
407.88	3534.79
408.09	3368.91
408.31	3426.25
408.52	3397.58
408.73	3393.48
408.94	3395.53
409.15	3391.44
409.37	3424.20
409.58	3547.08
409.79	3547.08
410.00	3633.10
410.21	3450.83
410.43	3409.87
410.64	3461.07
410.85	3442.64
411.06	3526.60
411.27	3653.58
411.48	3620.81
411.70	3569.61
411.91	3573.71
412.12	3608.52
412.33	3604.42
412.54	3600.33
412.76	3725.26
412.97	3719.11
413.18	3600.33
413.39	3669.96
413.60	3772.36
413.81	3737.54
414.03	3676.10
414.24	3641.29
414.45	3723.21
414.66	3606.47
414.87	3837.89
415.08	3778.50
415.30	3682.25
415.51	3790.79
415.72	3741.64
415.93	3764.17
416.14	3755.97
416.35	3753.93
416.56	3764.17
416.78	3831.75
416.99	3833.80
417.20	3958.72
417.41	3977.16
417.62	3911.62
417.83	3903.43
418.04	3913.67
418.26	3854.28
418.47	3928.00
418.68	3895.24
418.89	4089.79
419.10	4100.03
419.31	3934.15
419.52	3983.30
419.73	4067.27
419.95	4079.55
420.16	3958.72
420.37	3991.49
420.58	3983.30
420.79	3940.29
421.00	3983.30
421.21	4161.47
421.42	3944.39
421.63	4042.69
421.85	4042.69
422.06	4104.13
422.27	4184.00
422.48	4184.00
422.69	4157.38
422.90	4155.33
423.11	4251.58
423.32	4220.86
423.53	4362.17
423.75	4409.28
423.96	4396.99
424.17	4386.75
424.38	4542.39
424.59	4331.45
424.80	4554.68
425.01	4411.32
425.22	4458.43
425.43	4462.52
425.64	4657.08
425.85	4521.92
426.06	4536.25
426.28	4526.01
426.49	4679.61
426.70	4523.96
426.91	4589.50
427.12	4700.09
427.33	4634.55
427.54	4659.13
427.75	4808.63
427.96	4902.84
428.17	4585.40
428.38	4837.30
428.59	4802.49
428.80	4845.49
429.01	4884.41
429.23	4825.01
429.44	5089.20
429.65	4984.76
429.86	4986.80
430.07	4937.65
430.28	4894.65
430.49	4972.47
430.70	5078.96
430.91	5121.97
431.12	4997.04
431.33	5269.42
431.54	5066.67
431.75	5111.73
431.96	5087.15
432.17	5169.07
432.38	5095.35
432.59	5531.56
432.80	5416.88
433.01	5306.29
433.22	5306.29
433.43	5283.76
433.64	5345.20
433.85	5226.42
434.06	5431.21
434.27	5365.68
434.49	5380.01
434.70	5541.80
434.91	5541.80
435.12	5681.07
435.33	5517.23
435.54	5418.93
435.75	5425.07
435.96	5531.56
436.17	5556.14
436.38	5623.72
436.59	5607.34
436.80	5672.87
437.01	5889.96
437.22	5693.35
437.43	5654.44
437.64	5482.41
437.85	5791.66
438.06	5900.20
438.27	5711.78
438.48	5816.23
438.69	5957.54
438.90	5859.24
439.11	5867.43
439.32	5935.01
439.53	5916.58
439.74	5924.77
439.95	6041.51
440.16	5910.44
440.37	5980.07
440.57	5869.48
440.78	6160.29
440.99	5873.57
441.20	5973.92
441.41	5855.14
441.62	6084.52
441.83	5947.30
442.04	6002.60
442.25	5988.26
442.46	6197.15
442.67	6254.50
442.88	6582.17
443.09	6033.32
443.30	6033.32
443.51	6227.87
443.72	6477.73
443.93	6133.67
444.14	6379.42
444.35	6131.62
444.56	6266.78
444.77	6244.26
444.98	6483.87
445.19	6494.11
445.40	6401.95
445.61	6377.37
445.81	6571.93
446.02	6432.67
446.23	6244.26
446.44	6299.55
446.65	6543.26
446.86	6602.65
447.07	6666.14
447.28	6733.72
447.49	6541.21
447.70	6449.05
447.91	6657.95
448.12	6600.60
448.33	6858.65
448.54	6727.58
448.74	6541.21
448.95	6698.91
449.16	6659.99
449.37	7151.51
449.58	6827.93
449.79	6891.41
450.00	6651.80
450.21	6889.37
450.42	7063.44
450.63	7008.15
450.84	6995.86
451.05	7102.36
451.25	6985.62
451.46	6926.23
451.67	7214.99
451.88	7204.75
452.09	7229.33
452.30	7059.35
452.51	7049.11
452.72	7294.86
452.93	7577.48
453.13	7266.19
453.34	7229.33
453.55	7413.65
453.76	7305.10
453.97	7554.96
454.18	7393.17
454.39	7610.25
454.60	7475.09
454.81	7468.94
455.01	7663.50
455.22	7495.57
455.43	7649.16
455.64	7860.10
455.85	7954.31
456.06	7888.78
456.27	7817.10
456.48	7790.47
456.68	7980.93
456.89	7948.17
457.10	7950.21
457.31	7942.02
457.52	7995.27
457.73	8236.93
457.94	8353.66
458.14	8089.48
458.35	8435.58
458.56	8146.82
458.77	8300.42
458.98	8597.37
459.19	8408.96
459.39	8550.27
459.60	8675.20
459.81	8576.89
460.02	8527.74
460.23	8646.52
460.44	8703.87
460.65	8906.62
460.85	8707.96
461.06	9023.35
461.27	8669.05
461.48	8961.91
461.69	9162.61
461.89	8798.07
462.10	9138.04
462.31	8939.38
462.52	8832.89
462.73	9197.43
462.94	9367.41
463.14	9197.43
463.35	9305.97
463.56	9553.77
463.77	9432.94
463.98	9211.76
464.18	9459.57
464.39	9484.14
464.60	9596.78
464.81	9772.91
465.02	9488.24
465.23	10014.57
465.43	9817.96
465.64	10102.63
465.85	10086.25
466.06	9793.39
466.27	10211.17
466.47	10076.01
466.68	10121.06
466.89	10123.11
467.10	10002.28
467.30	9989.99
467.51	10362.72
467.72	10663.77
467.93	10166.12
468.14	10559.33
468.34	10692.44
468.55	10770.27
468.76	10848.09
468.97	10538.85
469.17	10682.20
469.38	10858.33
469.59	11124.57
469.80	10858.33
470.01	10852.19
470.21	10946.39
470.42	11165.53
470.63	11208.53
470.84	11063.13
471.04	11591.50
471.25	11431.76
471.46	11329.36
471.67	11734.86
471.87	11505.49
472.08	11646.80
472.29	11855.69
472.50	11368.27
472.70	11595.60
472.91	11689.81
473.12	12011.34
473.33	11964.23
473.53	12134.21
473.74	11945.80
473.95	12322.63
474.16	12468.03
474.36	12318.53
474.57	12474.18
474.78	12676.93
474.99	12820.28
475.19	12457.79
475.40	12724.03
475.61	12752.70
475.81	12889.92
476.02	13299.51
476.23	13133.62
476.44	13111.10
476.64	13408.05
476.85	13483.83
477.06	13528.88
477.27	13913.90
477.47	13709.10
477.68	13721.39
477.89	14016.30
478.09	13729.58
478.30	13813.55
478.51	13838.12
478.71	14251.81
478.92	14280.49
479.13	14516.00
479.34	14401.32
479.54	14266.15
479.75	14434.08
479.96	14581.54
480.16	14772.00
480.37	15048.47
480.58	14690.08
480.78	15294.23
480.99	15296.28
481.20	15095.58
481.41	15443.73
481.61	15615.76
481.82	15849.23
482.03	15503.12
482.23	15628.05
482.44	15810.32
482.65	16105.23
482.85	16004.88
483.06	16164.62
483.27	16131.85
483.47	16230.15
483.68	16307.98
483.89	16484.10
484.09	16484.10
484.30	16746.24
484.51	16822.02
484.71	16932.61
484.92	16934.65
485.13	17327.86
485.33	16973.56
485.54	17291.00
485.75	17374.97
485.95	17530.61
486.16	17499.89
486.37	17790.70
486.57	17604.34
486.78	17848.05
486.98	17831.66
487.19	18030.32
487.40	18403.05
487.60	18331.37
487.81	18474.73
488.02	18063.08
488.22	18374.38
488.43	18847.46
488.64	18816.74
488.84	18771.68
489.05	19105.50
489.25	19052.25
489.46	19078.88
489.67	19275.48
489.87	19478.23
490.08	19488.47
490.29	19416.79
490.49	19834.58
490.70	19932.88
490.90	19902.16
491.11	20008.65
491.32	20012.75
491.52	19883.73
491.73	20125.39
491.94	19941.07
492.14	20057.81
492.35	20258.51
492.55	20635.33
492.76	20565.70
492.97	20702.92
493.17	20616.90
493.38	21098.17
493.58	21110.46
493.79	21192.38
494.00	21286.59
494.20	21214.91
494.41	21255.87
494.61	21751.48
494.82	21520.06
495.02	21518.01
495.23	21556.92
495.44	21737.14
495.64	21876.40
495.85	22040.24
496.05	22023.86
496.26	22163.12
496.47	22277.80
496.67	22148.78
496.88	22314.67
497.08	22482.60
497.29	22607.53
497.49	22267.56
497.70	22759.08
497.91	22732.45
498.11	22877.86
498.32	22691.49
498.52	22881.95
498.73	23193.25
498.93	23084.70
499.14	23381.66
499.34	23004.83
499.55	23418.52
499.76	23246.49
499.96	23344.80
500.17	23303.84
500.37	23692.95
500.58	23502.49
500.78	23920.28
500.99	23772.82
501.19	23834.26
501.40	23842.45
501.60	23977.62
501.81	23914.13
502.02	23813.78
502.22	24102.54
502.43	24182.42
502.63	24417.93
502.84	24200.85
503.04	24241.81
503.25	24518.28
503.45	24356.49
503.66	24557.19
503.86	24753.80
504.07	24868.48
504.27	24471.18
504.48	24970.88
504.68	25015.94
504.89	25013.89
505.09	24897.16
505.30	25243.26
505.50	25104.00
505.71	25294.46
505.91	25345.66
506.12	25220.74
506.32	24999.55
506.53	25468.54
506.73	25257.60
506.94	25425.53
507.14	25519.74
507.35	25540.22
507.55	25493.12
507.76	25501.31
507.96	25482.88
508.17	25714.30
508.37	25615.99
508.58	25849.46
508.78	25757.30
508.99	26160.75
509.19	25882.23
509.40	25777.78
509.60	26293.87
509.81	25984.63
510.01	26041.97
510.22	26244.72
510.42	26017.40
510.63	26631.79
510.83	26033.78
511.04	26287.73
511.24	26586.73
511.44	26633.83
511.65	26568.30
511.85	26746.47
512.06	26644.07
512.26	26777.19
512.47	26973.80
512.67	26611.31
512.88	26695.27
513.08	26943.08
513.29	27188.83
513.49	26914.41
513.69	27455.07
513.90	27297.38
514.10	27305.57
514.31	27147.87
514.51	27530.84
514.72	26965.60
514.92	27666.01
515.13	27922.01
515.33	27348.57
515.53	27475.55
515.74	27846.23
515.94	27612.76
516.15	27813.46
516.35	27479.64
516.56	27944.53
516.76	27827.80
516.96	28120.66
517.17	28005.97
517.37	28153.43
517.58	28132.95
517.78	28317.26
517.99	28270.16
518.19	28601.93
518.39	28921.41
518.60	28821.06
518.80	28507.72
519.01	28859.98
519.21	29005.38
519.41	28925.51
519.62	28862.02
519.82	29054.53
520.03	29165.12
520.23	29134.40
520.43	28847.69
520.64	29259.33
520.84	29451.84
521.05	29660.73
521.25	29556.28
521.45	29810.23
521.66	30055.99
521.86	29984.31
522.07	29894.20
522.27	29974.07
522.47	30088.76
522.68	30398.00
522.88	30322.23
523.08	30336.56
523.29	30766.63
523.49	30742.06
523.70	30776.87
523.90	31024.68
524.10	30682.67
524.31	31063.59
524.51	30758.44
524.71	31196.71
524.92	31305.25
525.12	31301.15
525.33	31239.72
525.53	31534.62
525.73	31729.18
525.94	31378.98
526.14	31614.49
526.34	31784.48
526.55	31741.47
526.75	32120.34
526.95	31884.83
527.16	31979.03
527.36	32325.14
527.56	32308.76
527.77	32540.18
527.97	32628.24
528.17	32824.84
528.38	32654.86
528.58	33078.79
528.78	32769.55
528.99	32921.10
529.19	33367.55
529.39	33170.95
529.60	33353.22
529.80	33277.44
530.00	33283.59
530.21	33750.52
530.41	33574.40
530.61	33287.68
530.82	33494.53
531.02	33674.75
531.22	33680.89
531.43	33836.54
531.63	34098.68
531.83	34446.83
532.04	34622.96
532.24	34168.31
532.44	34692.59
532.64	34485.75
532.85	34651.63
533.05	35223.01
533.25	34733.55
533.46	34631.15
533.66	35073.51
533.86	35169.77
534.07	35698.14
534.27	34981.35
534.47	35628.51
534.67	35292.65
534.88	35562.98
535.08	35902.94
535.28	35542.50
535.49	35841.50
535.69	36074.97
535.89	36175.32
536.09	36029.91
536.30	36210.14
536.50	36283.86
536.70	36394.45
536.91	35972.57
537.11	36554.19
537.31	36531.67
537.51	36212.18
537.72	37025.23
537.92	37051.85
538.12	37002.70
538.32	36916.68
538.53	37254.60
538.73	36896.20
538.93	37074.38
539.13	37035.47
539.34	37270.98
539.54	37238.22
539.74	37731.78
539.94	37512.64
540.15	37531.08
540.35	37858.75
540.55	37803.46
540.75	37664.19
540.96	37690.82
541.16	37522.88
541.36	37676.48
541.56	37879.23
541.77	38335.93
541.97	38184.38
542.17	38254.01
542.37	38073.79
542.58	37965.24
542.78	38544.82
542.98	38133.18
543.18	38127.03
543.38	38800.82
543.59	38661.55
543.79	38483.38
543.99	38536.63
544.19	38852.02
544.40	38307.26
544.60	38966.70
544.80	38966.70
545.00	39148.97
545.20	38796.72
545.41	38901.17
545.61	38776.24
545.81	39392.68
546.01	39177.64
546.21	38970.80
546.42	39155.11
546.62	39507.37
546.82	39140.78
547.02	39413.16
547.22	39239.08
547.43	39837.09
547.63	39568.80
547.83	39577.00
548.03	39441.83
548.23	39646.63
548.44	39859.62
548.64	39738.79
548.84	39810.46
549.04	40031.65
549.24	40166.81
549.45	40484.25
549.65	39560.61
549.85	39982.49
550.05	40082.84
550.25	40082.84
550.45	40371.61
550.66	40519.06
550.86	40402.33
551.06	40652.18
551.26	40725.91
551.46	40793.49
551.66	40560.02
551.87	40848.78
552.07	40674.71
552.27	40908.18
552.47	40910.22
552.67	40926.61
552.87	40496.53
553.07	40885.65
553.28	41485.70
553.48	41127.31
553.68	40961.42
553.88	41715.08
554.08	41452.94
554.28	41252.23
554.48	41436.55
554.69	41440.65
554.89	41350.54
555.09	41876.86
555.29	41231.75
555.49	41708.93
555.69	41444.74
555.89	41549.19
556.10	42194.30
556.30	41782.66
556.50	41715.08
556.70	41784.71
556.90	41966.98
557.10	41944.45
557.30	42001.79
557.50	42403.19
557.70	42296.70
557.91	42431.86
558.11	42311.03
558.31	42546.55
558.51	42415.48
558.71	42503.54
558.91	42583.41
559.11	42208.64
559.31	42972.53
559.51	42427.77
559.72	42507.64
559.92	42859.89
560.12	42399.10
560.32	42956.14
560.52	42818.93
560.72	43199.85
560.92	43140.46
561.12	43322.73
561.32	43558.25
561.52	42904.95
561.72	43242.86
561.93	42628.47
562.13	43435.37
562.33	43326.83
562.53	43810.15
562.73	43357.55
562.93	43507.05
563.13	43705.70
563.33	43535.72
563.53	43951.46
563.73	43529.58
563.93	43971.94
564.13	43998.56
564.33	43742.56
564.53	43951.46
564.74	44338.52
564.94	44303.71
565.14	43806.05
565.34	44096.86
565.54	44426.59
565.74	44252.51
565.94	44512.60
566.14	44227.93
566.34	44258.65
566.54	44799.32
566.74	44381.53
566.94	44356.96
567.14	44848.47
567.34	44551.51
567.54	45028.69
567.74	44746.07
567.94	44731.73
568.14	45106.51
568.34	45397.32
568.54	44737.88
568.74	45245.77
568.94	44967.25
569.14	45221.20
569.34	45290.83
569.54	45679.94
569.75	44803.41
569.95	45444.43
570.15	45356.36
570.35	45512.01
570.55	45518.15
570.75	45688.13
570.95	45839.68
571.15	45653.32
571.35	45589.83
571.55	45870.40
571.75	45690.18
571.95	45933.89
572.15	46114.11
572.35	46026.05
572.55	46255.42
572.75	46081.34
572.95	46298.43
573.15	46325.05
573.35	46208.32
573.55	46134.59
573.75	45921.60
573.95	46353.72
574.15	46390.59
574.35	46372.16
574.55	46423.36
574.75	46249.28
574.95	46568.76
575.15	46406.97
575.34	46654.78
575.54	47013.17
575.74	46615.86
575.94	46462.27
576.14	46329.15
576.34	46927.16
576.54	47177.01
576.74	47121.71
576.94	46658.87
577.14	47183.15
577.34	47281.45
577.54	46714.17
577.74	47205.68
577.94	47242.54
578.14	47183.15
578.34	47684.90
578.54	46757.17
578.74	47019.31
578.94	47732.01
579.14	47148.34
579.34	47179.06
579.54	47193.39
579.74	47785.25
579.94	47342.89
580.13	47736.10
580.33	47486.25
580.53	47588.65
580.73	48166.18
580.93	48069.92
581.13	47840.55
581.33	47932.71
581.53	48043.30
581.73	48213.28
581.93	48117.03
582.13	48413.98
582.33	48047.39
582.53	47734.06
582.73	48125.22
582.92	48145.70
583.12	48538.91
583.32	48373.02
583.52	47486.25
583.72	47830.31
583.92	48211.23
584.12	48581.91
584.32	49112.34
584.52	48606.49
584.72	48471.32
584.92	48291.10
585.11	48885.01
585.31	48586.01
585.51	48985.36
585.71	48649.50
585.91	48749.85
586.11	48889.11
586.31	48282.91
586.51	48694.55
586.71	48604.44
586.91	48934.17
587.10	49188.11
587.30	49024.28
587.50	49052.95
587.70	49143.06
587.90	48958.74
588.10	49169.68
588.30	48665.88
588.50	49241.36
588.69	49403.15
588.89	49227.02
589.09	49495.31
589.29	49177.87
589.49	49476.88
589.69	49298.70
589.89	49724.68
590.08	49659.15
590.28	49306.90
590.48	49042.71
590.68	49612.04
590.88	49521.93
591.08	49857.80
591.28	49044.76
591.47	49708.30
591.67	49380.62
591.87	49732.87
592.07	49800.46
592.27	49853.70
592.47	49601.80
592.67	49583.37
592.86	49470.73
593.06	49270.03
593.26	50076.93
593.46	49741.06
593.66	49517.84
593.86	49769.74
594.05	49900.81
594.25	50304.26
594.45	49708.30
594.65	50115.84
594.85	49814.79
595.05	50248.96
595.24	50384.13
595.44	49968.39
595.64	49765.64
595.84	50111.75
596.04	50380.03
596.23	50789.62
596.43	51041.53
596.63	50296.06
596.83	50617.60
597.03	50529.53
597.22	51119.35
597.42	50980.09
597.62	50828.54
597.82	50648.32
598.02	50955.51
598.21	50996.47
598.41	51248.37
598.61	51053.81
598.81	50787.58
599.01	50797.82
599.20	51164.40
599.40	50951.41
599.60	51416.30
599.80	51418.35
600.00	51342.58
600.19	51686.64
600.39	51567.85
600.59	51496.17
600.79	51590.38
600.98	51791.08
601.18	51926.25
601.38	52239.59
601.58	51916.01
601.78	51852.52
601.97	51858.66
602.17	51926.25
602.37	52202.72
602.57	51944.68
602.76	52397.28
602.96	52344.03
603.16	52806.87
603.36	52282.59
603.55	53042.39
603.75	52323.55
603.95	52911.32
604.15	52536.54
604.34	52501.73
604.54	53050.58
604.74	52589.79
604.94	52815.07
605.13	53212.37
605.33	52944.09
605.53	53073.11
605.73	53212.37
605.92	53097.69
606.12	53093.59
606.32	53462.22
606.52	53056.73
606.71	53509.33
606.91	53621.97
607.11	53282.00
607.30	53705.93
607.50	53853.39
607.70	53861.58
607.90	53802.19
608.09	53511.38
608.29	53802.19
608.49	54148.29
608.68	54074.57
608.88	54265.03
609.08	54613.18
609.28	54138.05
609.47	54037.70
609.67	54566.08
609.87	54234.31
610.06	54449.35
610.26	54803.64
610.46	54645.95
610.66	54443.20
610.85	54420.67
611.05	54373.57
611.25	54543.55
611.44	54469.82
611.64	54801.60
611.84	54353.09
612.03	54598.85
612.23	54875.32
612.43	54860.99
612.62	54768.83
612.82	55145.65
613.02	54961.34
613.21	55014.58
613.41	54836.41
613.61	54942.91
613.80	54674.62
614.00	55241.91
614.20	55192.76
614.39	55227.57
614.59	55045.30
614.79	55262.39
614.98	54912.19
615.18	55024.82
615.38	55329.97
615.57	54965.43
615.77	55291.06
615.97	55420.08
616.16	55479.47
616.36	55465.14
616.56	55788.72
616.75	55401.65
616.95	55157.94
617.15	55305.40
617.34	55508.14
617.54	55467.19
617.74	55502.00
617.93	55532.72
618.13	55448.75
618.32	55274.68
618.52	55098.55
618.72	55684.27
618.91	55880.88
619.11	55567.54
619.31	55438.51
619.50	55690.41
619.70	55594.16
619.90	55258.29
620.09	55768.24
620.29	54981.82
620.48	55766.19
620.68	55952.55
620.88	55469.23
621.07	55626.93
621.27	55927.98
621.46	55532.72
621.66	55700.65
621.86	55727.28
622.05	55338.16
622.25	55737.52
622.44	55671.98
622.64	55708.85
622.84	55837.87
623.03	55196.85
623.23	55760.05
623.42	55950.51
623.62	55649.45
623.82	55934.12
624.01	56073.38
624.21	55901.36
624.40	55743.66
624.60	55262.39
624.80	55874.73
624.99	55418.03
625.19	55444.66
625.38	55938.22
625.58	55936.17
625.77	55774.38
625.97	55958.70
626.17	55444.66
626.36	55626.93
626.56	55862.44
626.75	55033.02
626.95	55690.41
627.14	55307.44
627.34	55858.35
627.54	55522.48
627.73	55999.66
627.93	56054.95
628.12	55530.67
628.32	55815.34
628.51	55661.74
628.71	55622.83
628.90	55958.70
629.10	55735.47
629.30	56042.66
629.49	55887.02
629.69	55631.02
629.88	56005.80
630.08	55844.01
630.27	55737.52
630.47	55686.32
630.66	55686.32
630.86	55622.83
631.05	55491.76
631.25	56054.95
631.44	55968.94
631.64	55334.07
631.84	55817.39
632.03	55968.94
632.23	55977.13
632.42	55882.92
632.62	55016.63
632.81	55360.69
633.01	55528.62
633.20	55649.45
633.40	55979.18
633.59	56124.58
633.79	54785.21
633.98	55342.26
634.18	55641.26
634.37	55682.22
634.57	55563.44
634.76	55768.24
634.96	55473.33
635.15	56087.72
635.35	55407.79
635.54	55219.38
635.74	55735.47
635.93	55512.24
636.13	55530.67
636.32	55620.78
636.52	55444.66
636.71	55678.13
636.91	55553.20
637.10	55321.78
637.30	55415.99
637.49	55465.14
637.69	55520.43
637.88	55313.59
638.08	55485.62
638.27	55758.00
638.46	55272.63
638.66	55360.69
638.85	55549.10
639.05	55332.02
639.24	55977.13
639.44	55530.67
639.63	55616.69
639.83	55651.50
640.02	55403.70
640.22	55246.00
640.41	55471.28
640.61	54899.90
640.80	55426.23
640.99	55444.66
641.19	55758.00
641.38	55334.07
641.58	55317.68
641.77	54979.77
641.97	55082.17
642.16	55319.73
642.36	55260.34
642.55	55755.95
642.74	54867.13
642.94	55907.50
643.13	55155.89
643.33	55684.27
643.52	55725.23
643.72	55325.88
643.91	55420.08
644.10	55944.36
644.30	55458.99
644.49	55604.40
644.69	55340.21
644.88	55667.89
645.08	55196.85
645.27	55598.26
645.46	55252.15
645.66	55342.26
645.85	55082.17
646.05	55559.34
646.24	54871.23
646.43	55844.01
646.63	55481.52
646.82	55497.91
647.02	55583.92
647.21	55669.93
647.40	55313.59
647.60	55796.91
647.79	55891.12
647.99	55702.70
648.18	55516.34
648.37	55948.46
648.57	55530.67
648.76	55575.73
648.96	55567.54
649.15	55680.17
649.34	55952.55
649.54	55678.13
649.73	55434.42
649.92	55811.24
650.12	55649.45
650.31	55637.17
650.51	55530.67
650.70	55614.64
650.89	55553.20
651.09	56130.73
651.28	55448.75
651.47	55686.32
651.67	55631.02
651.86	56284.33
652.06	55350.45
652.25	56046.76
652.44	55604.40
652.64	55637.17
652.83	55530.67
653.02	55592.11
653.22	56022.19
653.41	55669.93
653.60	55424.18
653.80	55864.49
653.99	55866.54
654.18	55340.21
654.38	55671.98
654.57	55811.24
654.76	56173.73
654.96	55590.06
655.15	55352.50
655.34	55887.02
655.54	55743.66
655.73	55712.94
655.92	56323.24
656.12	55866.54
656.31	55682.22
656.50	56104.10
656.70	56231.08
656.89	55981.23
657.08	56071.34
657.28	55805.10
657.47	56167.59
657.66	56165.54
657.86	56401.06
658.05	55915.69
658.24	55997.61
658.43	55827.63
658.63	56399.01
658.82	55932.07
659.01	56091.82
659.21	56310.95
659.40	56046.76
659.59	56288.42
659.79	56317.09
659.98	56261.80
660.17	56874.14
660.36	56413.35
660.56	56335.52
660.75	56554.66
660.94	56237.22
661.14	56456.35
661.33	56003.75
661.52	56235.17
661.71	57093.27
661.91	55704.75
662.10	56759.45
662.29	56712.35
662.49	56482.98
662.68	56839.32
662.87	56337.57
663.06	56515.75
663.26	56587.42
663.45	56652.96
663.64	56335.52
663.83	57326.74
664.03	56749.21
664.22	56767.65
664.41	56968.35
664.60	56657.06
664.80	56753.31
664.99	56591.52
665.18	56708.25
665.37	56661.15
665.57	56689.82
665.76	56693.92
665.95	56726.69
666.14	57033.88
666.34	56736.93
666.53	57005.21
666.72	57103.51
666.91	57099.42
667.11	56792.22
667.30	57199.77
667.49	57080.98
667.68	56677.54
667.87	56370.34
668.07	56962.20
668.26	57326.74
668.45	57300.12
668.64	56425.64
668.84	57873.55
669.03	57193.62
669.22	57070.75
669.41	57169.05
669.60	56884.38
669.80	57349.27
669.99	57261.21
670.18	57271.45
670.37	56978.59
670.57	57267.35
670.76	57099.42
670.95	57488.53
671.14	57449.62
671.33	57029.79
671.53	57693.33
671.72	57218.20
671.91	56949.92
672.10	57160.86
672.29	57279.64
672.48	57406.61
672.68	57484.43
672.87	57091.22
673.06	57306.26
673.25	57029.79
673.44	57099.42
673.64	57156.76
673.83	57160.86
674.02	57537.68
674.21	57167.00
674.40	57224.34
674.59	57285.78
674.79	57365.65
674.98	57099.42
675.17	57693.33
675.36	57177.24
675.55	57670.80
675.74	57859.21
675.94	57537.68
676.13	57779.34
676.32	57545.87
676.51	57783.44
676.70	57220.25
676.89	57597.07
677.08	57875.60
677.28	57242.77
677.47	57826.45
677.66	58260.62
677.85	57472.15
678.04	57482.39
678.23	57906.32
678.42	57480.34
678.62	57459.86
678.81	57695.38
679.00	57588.88
679.19	58244.23
679.38	57590.93
679.57	57728.14
679.76	57836.69
679.96	57820.30
680.15	58166.41
680.34	57660.56
680.53	57517.20
680.72	57754.77
680.91	57490.58
681.10	57304.21
681.29	57592.98
681.48	57390.23
681.68	57488.53
681.87	57228.44
682.06	57367.70
682.25	57138.33
682.44	57449.62
682.63	57431.19
682.82	56976.54
683.01	57367.70
683.20	56865.95
683.39	57646.22
683.59	57119.90
683.78	57115.80
683.97	56898.72
684.16	57134.23
684.35	57007.26
684.54	57095.32
684.73	56935.58
684.92	57132.18
685.11	56509.60
685.30	56726.69
685.49	56939.68
685.69	57013.40
685.88	56890.52
686.07	56743.07
686.26	56620.19
686.45	56620.19
686.64	56804.51
686.83	56720.54
687.02	57023.64
687.21	57173.14
687.40	56773.79
687.59	56607.90
687.78	56863.90
687.97	56923.29
688.16	56630.43
688.35	57167.00
688.54	56485.03
688.74	56298.66
688.93	56259.75
689.12	56810.65
689.31	56546.47
689.50	56573.09
689.69	56413.35
689.88	56325.28
690.07	56431.78
690.26	56554.66
690.45	56775.84
690.64	56554.66
690.83	56153.26
691.02	56265.89
691.21	56646.82
691.40	56280.23
691.59	56456.35
691.78	56327.33
691.97	56319.14
692.16	56439.97
692.35	56575.14
692.54	56417.44
692.73	56235.17
692.92	56188.07
693.11	56331.43
693.30	56136.87
693.49	55768.24
693.68	56116.39
693.87	56020.14
694.06	55760.05
694.25	55641.26
694.44	55721.13
694.63	55868.59
694.82	55403.70
695.01	55796.91
695.20	55432.37
695.39	55422.13
695.58	55100.60
695.77	55332.02
695.96	55051.45
696.15	55538.86
696.34	55545.01
696.53	55229.62
696.72	55137.46
696.91	55532.72
697.10	55368.88
697.29	55375.03
697.48	55512.24
697.67	54650.05
697.86	54875.32
698.05	54582.46
698.24	55690.41
698.43	54658.24
698.62	54940.86
698.81	54742.20
699.00	55219.38
699.19	54486.21
699.38	54670.53
699.57	54269.12
699.76	55026.87
699.95	54068.42
700.14	54136.01
700.32	54375.62
700.51	54301.89
700.70	54963.39
700.89	54432.96
701.08	54394.05
701.27	53945.54
701.46	54060.23
701.65	53572.81
701.84	54516.93
702.03	54203.59
702.22	54115.53
702.41	54131.91
702.60	54207.68
702.79	53908.68
702.98	53761.23
703.17	53728.46
703.35	53253.33
703.54	53427.41
703.73	54019.27
703.92	53726.41
704.11	53294.29
704.30	53601.49
704.49	53556.43
704.68	53099.73
704.87	53503.18
705.06	53249.24
705.25	53423.31
705.43	52899.03
705.62	53626.06
705.81	53165.27
706.00	53271.76
706.19	52892.89
706.38	52917.46
706.57	53023.96
706.76	52874.46
706.95	53363.92
707.14	52702.43
707.32	52387.04
707.51	52534.49
707.70	52774.11
707.89	52393.18
708.08	52710.62
708.27	53083.35
708.46	52739.29
708.65	52204.77
708.84	52860.12
709.02	52890.84
709.21	52587.74
709.40	52577.50
709.59	52663.52
709.78	52364.51
709.97	52571.36
710.16	52122.85
710.34	52174.05
710.53	52227.30
710.72	51971.30
710.91	52153.57
711.10	51897.58
711.29	51885.29
711.48	52124.90
711.66	51975.40
711.85	51873.00
712.04	52002.02
712.23	52004.07
712.42	51578.09
712.61	51780.84
712.80	51406.06
712.98	52174.05
713.17	51238.13
713.36	51234.03
713.55	51610.86
713.74	51373.30
713.93	51469.55
714.11	51057.91
714.30	51240.18
714.49	51434.74
714.68	51336.43
714.87	51358.96
715.06	51600.62
715.24	50885.88
715.43	51125.49
715.62	50681.08
715.81	50910.46
716.00	51234.03
716.18	50808.06
716.37	50455.81
716.56	50717.95
716.75	51178.74
716.94	50982.13
717.12	50887.93
717.31	50947.32
717.50	50685.18
717.69	50527.48
717.88	50709.75
718.06	50435.33
718.25	50855.16
718.44	50099.46
718.63	50584.83
718.82	50316.54
719.00	49976.58
719.19	49966.34
719.38	50337.02
719.57	50162.95
719.76	49730.83
719.94	50056.45
720.13	49534.22
720.32	50246.91
720.51	49943.81
720.69	49638.67
720.88	49485.07
721.07	49933.57
721.26	48958.74
721.44	49620.23
721.63	49003.80
721.82	49513.74
722.01	48923.93
722.20	49710.35
722.38	49235.22
722.57	49194.26
722.76	49388.81
722.95	49302.80
723.13	49063.19
723.32	48796.95
723.51	48827.67
723.70	48669.98
723.88	48790.81
724.07	48626.97
724.26	48712.98
724.44	48821.53
724.63	48907.54
724.82	48518.43
725.01	48968.98
725.19	48747.80
725.38	48395.55
725.57	48424.22
725.76	48411.93
725.94	47656.23
726.13	48407.84
726.32	48000.29
726.51	47899.94
726.69	48854.29
726.88	48524.57
727.07	48506.14
727.25	48526.62
727.44	48340.25
727.63	48436.51
727.82	48418.08
728.00	48401.69
728.19	48473.37
728.38	48403.74
728.56	47633.71
728.75	48366.88
728.94	48192.80
729.12	48207.14
729.31	48112.93
729.50	47904.04
729.69	48528.67
729.87	48248.10
730.06	48127.27
730.25	47807.78
730.43	48659.74
730.62	48084.26
730.81	48540.96
730.99	48010.53
731.18	48198.94
731.37	48166.18
731.55	48725.27
731.74	48604.44
731.93	48497.95
732.11	48667.93
732.30	48483.61
732.49	48272.67
732.67	48366.88
732.86	47885.61
733.05	48543.00
733.23	47998.24
733.42	48311.58
733.61	48389.41
733.79	47840.55
733.98	48411.93
734.17	48313.63
734.35	48389.41
734.54	48137.51
734.73	48485.66
734.91	48366.88
735.10	47852.84
735.29	48088.35
735.47	47555.88
735.66	48127.27
735.84	48332.06
736.03	47846.69
736.22	48323.87
736.40	47830.31
736.59	48143.65
736.78	48262.43
736.96	48207.14
737.15	47992.10
737.33	47830.31
737.52	47951.14
737.71	47992.10
737.89	47854.89
738.08	47674.66
738.27	47732.01
738.45	48069.92
738.64	48121.12
738.82	47928.61
739.01	47805.73
739.20	47781.16
739.38	47813.93
739.57	48366.88
739.75	48069.92
739.94	47846.69
740.13	47826.21
740.31	47656.23
740.50	47830.31
740.68	47596.84
740.87	48133.41
741.06	47852.84
741.24	47969.57
741.43	47609.13
741.61	47758.63
741.80	47783.21
741.99	47500.59
742.17	47764.78
742.36	47805.73
742.54	47834.41
742.73	47756.58
742.91	47539.50
743.10	47226.16
743.29	47936.80
743.47	47625.51
743.66	47535.40
743.84	47719.72
744.03	47334.70
744.21	47469.87
744.40	47781.16
744.59	47502.64
744.77	46959.92
744.96	47762.73
745.14	47349.04
745.33	47445.29
745.51	47109.43
745.70	47586.60
745.88	47471.92
746.07	47308.08
746.26	47207.73
746.44	46939.44
746.63	47154.48
746.81	47428.91
747.00	46990.64
747.18	47387.95
747.37	47045.94
747.55	47211.82
747.74	47576.36
747.92	47050.03
748.11	46867.76
748.29	47031.60
748.48	46857.52
748.66	46636.34
748.85	46746.93
749.03	46794.04
749.22	47230.26
749.41	46957.88
749.59	47078.71
749.78	46546.23
749.96	46308.67
750.15	47035.70
750.33	46775.61
750.52	46972.21
750.70	46845.24
750.89	46593.34
751.07	46280.00
751.26	46486.84
751.44	46417.21
751.63	46253.37
751.81	46478.65
752.00	46376.25
752.18	46589.24
752.37	46464.32
752.55	46243.13
752.74	46112.06
752.92	46255.42
753.10	46333.24
753.29	46200.13
753.47	46081.34
753.66	45794.63
753.84	46349.63
754.03	46464.32
754.21	45952.32
754.40	46204.22
754.58	46048.58
754.77	46032.19
754.95	46034.24
755.14	45815.11
755.32	45819.20
755.51	45825.35
755.69	45792.58
755.88	45452.62
756.06	46085.44
756.24	45747.53
756.43	45905.22
756.61	45722.95
756.80	45604.17
756.98	45876.55
757.17	45532.49
757.35	45931.84
757.54	45528.39
757.72	45946.18
757.90	45364.56
758.09	45186.38
758.27	45133.14
758.46	44965.20
758.64	45372.75
758.83	45544.78
759.01	45360.46
759.19	45022.54
759.38	45151.57
759.56	45260.11
759.75	45092.18
759.93	44914.00
760.12	44533.08
760.30	44647.77
760.48	45088.08
760.67	44823.89
760.85	44823.89
761.04	45102.42
761.22	44299.61
761.40	44746.07
761.59	44610.90
761.77	45036.88
761.96	44672.34
762.14	44950.87
762.32	44150.11
762.51	43957.60
762.69	44483.93
762.88	44621.14
763.06	44701.01
763.24	44496.22
763.43	44289.37
763.61	44359.00
763.80	44643.67
763.98	44402.01
764.16	44203.36
764.35	43791.72
764.53	43535.72
764.72	43820.39
764.90	43660.65
765.08	43765.09
765.27	43826.53
765.45	43668.84
765.63	43373.93
765.82	43717.99
766.00	43160.94
766.18	43386.22
766.37	43822.44
766.55	43625.83
766.74	43238.76
766.92	43572.58
767.10	43519.34
767.29	43617.64
767.47	42737.01
767.65	43165.04
767.84	42679.67
768.02	43378.03
768.20	42761.59
768.39	43375.98
768.57	42550.65
768.75	42909.04
768.94	42931.57
769.12	42720.63
769.30	42218.88
769.49	42616.18
769.67	42614.13
769.85	41907.58
770.04	42399.10
770.22	42079.61
770.40	42046.85
770.59	42112.38
770.77	42278.27
770.95	42327.42
771.14	41823.62
771.32	42114.43
771.50	41680.26
771.69	41471.37
771.87	42112.38
772.05	41940.35
772.24	41485.70
772.42	41502.09
772.60	41258.38
772.78	41366.92
772.97	41719.17
773.15	41788.80
773.33	41573.77
773.52	41293.19
773.70	41268.62
773.88	41405.83
774.07	40910.22
774.25	41223.56
774.43	41921.92
774.61	41084.30
774.80	41665.92
774.98	41131.40
775.16	41471.37
775.34	41047.44
775.53	41319.82
775.71	41377.16
775.89	41514.37
776.08	41502.09
776.26	41346.44
776.44	41217.42
776.62	41045.39
776.81	41094.54
776.99	41545.09
777.17	41432.46
777.35	41151.88
777.54	41344.39
777.72	41158.03
777.90	41026.96
778.08	41670.02
778.27	41344.39
778.45	41573.77
778.63	41739.65
778.81	41364.87
779.00	41819.52
779.18	41592.20
779.36	41530.76
779.54	41278.86
779.73	41563.53
779.91	41631.11
780.09	41520.52
780.27	41928.06
780.46	41594.25
780.64	42087.81
780.82	41182.60
781.00	41459.08
781.19	41825.67
781.37	42276.22
781.55	41883.01
781.73	42126.72
781.91	41815.43
782.10	41579.91
782.28	41747.84
782.46	42147.20
782.64	41809.28
782.82	41653.64
783.01	41698.69
783.19	42028.41
783.37	42038.65
783.55	41319.82
783.74	42311.03
783.92	41610.63
784.10	42456.44
784.28	41971.07
784.46	41317.77
784.64	41149.84
784.83	41776.51
785.01	41930.11
785.19	41821.57
785.37	41938.30
785.55	41794.95
785.74	41524.61
785.92	41336.20
786.10	41450.89
786.28	41778.56
786.46	41178.51
786.64	40981.90
786.83	41502.09
787.01	41348.49
787.19	41188.75
787.37	41471.37
787.55	41231.75
787.74	41094.54
787.92	40926.61
788.10	41112.97
788.28	40775.06
788.46	41268.62
788.64	40742.29
788.82	41188.75
789.01	40924.56
789.19	40502.68
789.37	40179.10
789.55	40281.50
789.73	40420.76
789.91	40021.41
790.09	40177.05
790.28	40158.62
790.46	39923.10
790.64	40039.84
790.82	40371.61
791.00	39714.21
791.18	39808.42
791.36	40050.08
791.55	39855.52
791.73	39876.00
791.91	39314.86
792.09	39581.09
792.27	39325.10
792.45	39663.01
792.63	39663.01
792.81	39466.41
793.00	39718.31
793.18	39200.17
793.36	39065.00
793.54	38901.17
793.72	39038.38
793.90	39108.01
794.08	38806.96
794.26	38577.59
794.44	38247.86
794.62	38256.06
794.81	38471.09
794.99	38376.89
795.17	38075.84
795.35	38041.02
795.53	38614.45
795.71	38589.88
795.89	37760.45
796.07	37604.80
796.25	37606.85
796.43	37572.03
796.61	37574.08
796.80	37080.52
796.98	37557.70
797.16	37154.25
797.34	37234.12
797.52	37021.13
797.70	37404.10
797.88	37121.48
798.06	36971.98
798.24	37365.19
798.42	36662.74
798.60	36615.63
798.78	36580.82
798.96	36732.37
799.14	36392.40
799.32	37070.28
799.51	36326.87
799.69	36267.48
799.87	36398.55
800.05	36107.74
800.23	35861.98
800.41	35726.81
800.59	36232.66
800.77	35692.00
800.95	35476.96
801.13	35368.42
801.31	35096.04
801.49	35198.44
801.67	35175.91
801.85	35214.82
802.03	34954.73
802.21	34641.39
802.39	34737.65
802.57	34864.62
802.75	35089.90
802.93	34829.80
803.11	34934.25
803.29	34647.54
803.47	34354.68
803.65	34590.19
803.83	34670.06
804.01	34520.56
804.19	34205.17
804.37	34268.66
804.55	33598.98
804.73	34362.87
804.91	33801.72
805.09	34330.10
805.27	33562.11
805.45	33922.55
805.63	33971.71
805.81	33598.98
805.99	33854.97
806.17	33809.92
806.35	33674.75
806.53	33508.86
806.71	33629.69
806.89	33447.43
807.07	33547.78
807.25	33340.93
807.43	33029.64
807.61	33400.32
807.79	32933.39
807.97	32722.44
808.15	32894.47
808.33	32794.12
808.51	32714.25
808.69	32939.53
808.87	32482.83
809.05	32849.42
809.23	32294.42
809.41	32140.82
809.59	32611.85
809.77	32558.61
809.95	32478.74
810.13	32044.57
810.31	32431.63
810.49	32005.66
810.67	32077.33
810.84	31782.43
811.02	32071.19
811.20	31764.00
811.38	31954.46
811.56	31854.11
811.74	31645.21
811.92	31448.61
812.10	31655.45
812.28	31712.80
812.46	31510.05
812.64	31516.19
812.82	31147.56
813.00	31563.29
813.18	31813.15
813.36	31290.91
813.53	31004.20
813.71	30926.38
813.89	31157.80
814.07	31020.58
814.25	31290.91
814.43	30725.68
814.61	30701.10
814.79	30760.49
814.97	30823.98
815.15	30981.67
815.33	30557.74
815.50	30608.94
815.68	30778.92
815.86	30680.62
816.04	30723.63
816.22	30598.70
816.40	30588.46
816.58	30211.64
816.76	30412.34
816.94	30412.34
817.11	30434.86
817.29	30328.37
817.47	30049.85
817.65	30006.84
817.83	30164.53
818.01	29814.33
818.19	29945.40
818.37	29849.14
818.54	29922.87
818.72	29447.74
818.90	29740.60
819.08	29718.07
819.26	29550.14
819.44	29574.72
819.62	29709.88
819.80	29740.60
819.97	29668.92
820.15	29406.78
820.33	29433.41
820.51	29572.67
820.69	29101.64
820.87	29584.96
821.05	29576.76
821.22	29310.53
821.40	29496.89
821.58	28964.42
821.76	28968.52
821.94	29181.51
822.12	29251.14
822.29	29304.38
822.47	28761.67
822.65	28888.65
822.83	29052.48
823.01	28870.22
823.19	28810.82
823.36	28737.10
823.54	28808.78
823.72	28868.17
823.90	28466.77
824.08	28315.22
824.25	28358.22
824.43	28221.01
824.61	28579.40
824.79	28241.49
824.97	28143.19
825.15	28393.04
825.32	28292.69
825.50	28069.46
825.68	28497.49
825.86	28470.86
826.04	28425.81
826.21	28028.50
826.39	28298.83
826.57	28046.93
826.75	28114.52
826.93	27835.99
827.10	27506.27
827.28	27815.51
827.46	28225.11
827.64	28038.74
827.81	28012.12
827.99	28038.74
828.17	27469.40
828.35	27567.71
828.53	27649.63
828.70	27450.97
828.88	27706.97
829.06	28057.17
829.24	27692.63
829.41	28001.88
829.59	27733.59
829.77	27612.76
829.95	27668.06
830.12	27416.16
830.30	27440.73
830.48	27293.28
830.66	27420.25
830.84	27416.16
831.01	27475.55
831.19	27088.48
831.37	27375.20
831.55	27229.79
831.72	27229.79
831.90	27264.61
832.08	27489.88
832.25	27201.12
832.43	27203.17
832.61	26863.21
832.79	26578.54
832.96	27133.54
833.14	26994.28
833.32	27254.37
833.50	26981.99
833.67	26758.76
833.85	26742.38
834.03	26611.31
834.20	26869.35
834.38	26988.13
834.56	26764.90
834.74	26476.14
834.91	26805.86
835.09	26953.32
835.27	26455.66
835.44	26361.45
835.62	26048.11
835.80	26226.29
835.98	26547.82
836.15	26766.95
836.33	26373.74
836.51	26408.56
836.68	26201.71
836.86	26336.88
837.04	26371.69
837.21	26162.80
837.39	26431.08
837.57	26070.64
837.75	26203.76
837.92	26068.59
838.10	26052.21
838.28	25691.77
838.45	25712.25
838.63	25915.00
838.81	25765.49
838.98	25839.22
839.16	25771.64
839.34	25722.49
839.51	25927.28
839.69	25765.49
839.87	25628.28
840.04	25605.75
840.22	25996.92
840.40	25988.72
840.57	25484.92
840.75	25783.93
840.93	25478.78
841.10	25364.09
841.28	25554.55
841.46	25615.99
841.63	25484.92
841.81	25476.73
841.98	25376.38
842.16	25462.40
842.34	25575.03
842.51	25120.38
842.69	25435.77
842.87	25173.63
843.04	25386.62
843.22	25247.36
843.40	25069.19
843.57	25028.23
843.75	25210.50
843.92	25163.39
844.10	25218.69
844.28	25060.99
844.45	25026.18
844.63	24991.36
844.81	25013.89
844.98	24964.74
845.16	24723.08
845.33	24944.26
845.51	24938.12
845.69	24751.75
845.86	24794.76
846.04	24553.10
846.21	24614.54
846.39	24772.23
846.57	24841.86
846.74	24635.02
846.92	24313.48
847.09	24688.26
847.27	24401.55
847.45	24622.73
847.62	24604.30
847.80	24624.78
847.97	24604.30
848.15	24241.81
848.32	24467.08
848.50	24338.06
848.68	24069.78
848.85	24026.77
849.03	23809.68
849.20	24034.96
849.38	24336.01
849.56	23867.03
849.73	23766.68
849.91	24049.30
850.08	24147.60
850.26	23885.46
850.43	24069.78
850.61	24039.06
850.78	23596.70
850.96	23729.81
851.14	23760.53
851.31	23789.20
851.49	24039.06
851.66	23674.52
851.84	23756.44
852.01	23600.79
852.19	23793.30
852.36	23578.26
852.54	23754.39
852.71	23443.10
852.89	23537.30
853.07	23408.28
853.24	23342.75
853.42	23246.49
853.59	23453.34
853.77	23064.22
853.94	23258.78
854.12	23549.59
854.29	22953.63
854.47	22910.63
854.64	23303.84
854.82	22970.02
854.99	23113.38
855.17	23223.97
855.34	23180.96
855.52	22804.13
855.69	23113.38
855.87	22703.78
856.04	22697.64
856.22	22773.41
856.39	22757.03
856.57	23008.93
856.74	22666.92
856.92	22884.00
857.09	22574.76
857.27	22892.19
857.44	22816.42
857.62	22877.86
857.79	22748.84
857.97	22525.61
858.14	22660.77
858.32	22408.87
858.49	22795.94
858.67	22587.05
858.84	22290.09
859.02	22486.70
859.19	22197.93
859.37	22558.38
859.54	22253.23
859.72	22306.48
859.89	22261.42
860.06	22175.41
860.24	22111.92
860.41	22148.78
860.59	21982.90
860.76	22148.78
860.94	22066.86
861.11	22118.06
861.29	22148.78
861.46	21745.33
861.64	21853.87
861.81	21796.53
861.98	21878.45
862.16	21814.96
862.33	21767.86
862.51	21851.83
862.68	22064.82
862.86	21575.35
863.03	21593.78
863.21	21716.66
863.38	21683.89
863.55	21380.79
863.73	21608.12
863.90	21378.75
864.08	21335.74
864.25	21511.86
864.43	21442.23
864.60	21368.51
864.77	21251.77
864.95	21288.64
865.12	21153.47
865.30	21118.65
865.47	21323.45
865.64	21194.43
865.82	21313.21
865.99	21495.48
866.17	21049.02
866.34	20891.33
866.51	20825.79
866.69	20821.70
866.86	21026.50
867.04	21085.89
867.21	21008.06
867.38	20819.65
867.56	20889.28
867.73	20629.19
867.91	20641.48
868.08	20567.75
868.25	20725.44
868.43	20690.63
868.60	20522.69
868.78	20412.10
868.95	20836.03
869.12	20543.17
869.30	20455.11
869.47	20485.83
869.64	20147.92
869.82	20528.84
869.99	20250.32
870.16	20285.13
870.34	20311.75
870.51	20186.83
870.69	20047.57
870.86	19984.08
871.03	20047.57
871.21	19777.23
871.38	19795.67
871.55	19738.32
871.73	19793.62
871.90	19887.82
872.07	19752.66
872.25	19615.44
872.42	19650.26
872.59	19353.30
872.77	19279.58
872.94	19631.83
873.11	19525.33
873.29	19334.87
873.46	19488.47
873.63	19330.78
873.81	19455.70
873.98	19427.03
874.15	19265.24
874.33	19080.92
874.50	19185.37
874.67	19277.53
874.85	19179.23
875.02	19054.30
875.19	19035.87
875.37	18992.86
875.54	18845.41
875.71	19140.32
875.88	18857.70
876.06	18990.81
876.23	18863.84
876.40	18384.62
876.58	18540.26
876.75	18808.54
876.92	18566.88
877.10	18523.88
877.27	18355.94
877.44	18208.49
877.61	18507.49
877.79	18605.80
877.96	18253.55
878.13	18296.55
878.31	18517.73
878.48	18167.53
878.65	18083.56
878.82	18149.10
879.00	18118.38
879.17	17790.70
879.34	17981.17
879.51	17843.95
879.69	17702.64
879.86	18124.52
880.03	17913.58
880.21	17628.92
880.38	17780.46
880.55	17999.60
880.72	17698.55
880.90	17692.40
881.07	17571.57
881.24	17676.02
881.41	17696.50
881.59	17366.78
881.76	17329.91
881.93	17372.92
882.10	17133.31
882.28	17141.50
882.45	17460.98
882.62	17305.34
882.79	17313.53
882.96	16971.52
883.14	17420.02
883.31	17329.91
883.48	17383.16
883.65	17125.11
883.83	17385.21
884.00	17225.47
884.17	17102.59
884.34	17282.81
884.51	16895.74
884.69	17133.31
884.86	17006.33
885.03	17114.87
885.20	16772.86
885.38	17069.82
885.55	16826.11
885.72	16928.51
885.89	16754.43
886.06	16690.95
886.24	17053.44
886.41	16774.91
886.58	16985.85
886.75	16690.95
886.92	16639.75
887.10	16813.82
887.27	16430.85
887.44	16672.51
887.61	16508.68
887.78	16809.73
887.95	16715.52
888.13	16404.23
888.30	16412.42
888.47	16449.28
888.64	16340.74
888.81	16346.89
888.99	16279.30
889.16	16072.46
889.33	16181.00
889.50	16015.12
889.67	16187.14
889.84	16238.34
890.01	16137.99
890.19	16281.35
890.36	16191.24
890.53	16092.94
890.70	15855.37
890.87	15830.80
891.04	15910.67
891.22	15851.28
891.39	15687.44
891.56	15847.18
891.73	15873.81
891.90	15791.89
892.07	15595.28
892.24	15671.06
892.42	15687.44
892.59	15732.50
892.76	15492.88
892.93	15580.95
893.10	15589.14
893.27	15585.04
893.44	15693.58
893.61	15554.32
893.79	15687.44
893.96	15460.12
894.13	15458.07
894.30	15322.90
894.47	15343.38
894.64	15396.63
894.81	15415.06
894.98	15556.37
895.15	15327.00
895.33	15453.97
895.50	15230.74
895.67	15290.13
895.84	15357.72
896.01	15347.48
896.18	15034.14
896.35	15410.96
896.52	15120.15
896.69	15316.76
896.86	15425.30
897.04	15267.61
897.21	15187.74
897.38	15415.06
897.55	15304.47
897.72	15456.02
897.89	15197.98
898.06	15263.51
898.23	15267.61
898.40	15214.36
898.57	15310.61
898.74	15277.85
898.91	15208.22
899.08	15271.70
899.26	14952.22
899.43	15345.43
899.60	15159.06
899.77	15343.38
899.94	15159.06
900.11	15107.87
900.28	15101.72
900.45	15134.49
900.62	15032.09
900.79	15081.24
900.96	15130.39
901.13	15208.22
901.30	15167.26
901.47	15044.38
901.64	14835.49
901.81	15132.44
901.98	14903.07
902.15	15152.92
902.32	14890.78
902.49	15265.56
902.66	15118.11
902.83	15296.28
903.01	14933.79
903.18	14982.94
903.35	14944.03
903.52	14751.52
903.69	15224.60
903.86	14995.23
904.03	15109.91
904.20	15056.67
904.37	15017.75
904.54	14911.26
904.71	15052.57
904.88	15118.11
905.05	14876.44
905.22	14958.36
905.39	14829.34
905.56	14886.68
905.73	14804.77
905.90	14860.06
906.07	15114.01
906.24	14919.45
906.41	15079.19
906.58	14929.69
906.75	15023.90
906.92	14948.12
907.09	14927.64
907.26	14903.07
907.43	14933.79
907.60	14991.13
907.77	15050.52
907.93	14860.06
908.10	14896.92
908.27	15257.37
908.44	14866.21
908.61	14810.91
908.78	14978.84
908.95	15036.19
909.12	14755.61
909.29	14702.37
909.46	14868.25
909.63	14776.09
909.80	14559.01
909.97	14739.23
910.14	14649.12
910.31	14831.39
910.48	14751.52
910.65	14749.47
910.82	15003.42
910.99	14724.90
911.16	14671.65
911.33	14710.56
911.50	14606.11
911.66	14612.26
911.83	14743.33
912.00	14360.36
912.17	14524.19
912.34	14511.91
912.51	14509.86
912.68	14243.62
912.85	14458.66
913.02	14704.42
913.19	14610.21
913.36	14212.90
913.53	14542.63
913.70	14411.56
913.86	14429.99
914.03	14485.28
914.20	14090.02
914.37	14311.21
914.54	14161.70
914.71	14022.44
914.88	13868.84
915.05	13991.72
915.22	14004.01
915.39	13924.14
915.55	14161.70
915.72	14047.02
915.89	13856.56
916.06	13946.67
916.23	14044.97
916.40	13760.30
916.57	13743.92
916.74	13956.91
916.91	13516.59
917.07	13633.33
917.24	13631.28
917.41	13727.53
917.58	13965.10
917.75	13784.88
917.92	13430.58
918.09	13477.68
918.26	13569.84
918.42	13426.48
918.59	13412.15
918.76	13297.46
918.93	13319.99
919.10	13266.74
919.27	13283.13
919.44	13295.41
919.60	13348.66
919.77	13074.23
919.94	13182.77
920.11	13113.14
920.28	13117.24
920.45	13076.28
920.61	12945.21
920.78	12904.25
920.95	12965.69
921.12	12728.13
921.29	12822.33
921.46	12724.03
921.62	12726.08
921.79	12814.14
921.96	12486.47
922.13	12676.93
922.30	12408.64
922.47	12490.56
922.63	12318.53
922.80	12644.16
922.97	12412.74
923.14	12093.26
923.31	12535.62
923.47	12367.68
923.64	12463.94
923.81	12123.98
923.98	12189.51
924.15	11999.05
924.32	12031.82
924.48	12040.01
924.65	11902.79
924.82	11994.95
924.99	11937.61
925.15	11757.39
925.32	12025.67
925.49	11718.48
925.66	11867.98
925.83	11585.36
925.99	11618.13
926.16	11802.44
926.33	11568.98
926.50	11540.30
926.67	11749.20
926.83	11691.85
927.00	11550.54
927.17	11442.00
927.34	11351.89
927.50	11212.63
927.67	11419.47
927.84	11220.82
928.01	11280.21
928.17	11140.95
928.34	11259.73
928.51	11145.05
928.68	10815.32
928.84	10903.39
929.01	10770.27
929.18	10678.11
929.35	10655.58
929.51	10764.12
929.68	10680.16
929.85	10760.03
930.02	10616.67
930.18	10583.90
930.35	10506.08
930.52	10518.37
930.69	10372.96
930.85	10495.84
931.02	10633.05
931.19	10280.80
931.36	10340.19
931.52	10200.93
931.69	10364.77
931.86	10245.99
932.02	10004.33
932.19	10061.67
932.36	10108.77
932.53	10100.58
932.69	9811.82
932.86	10028.90
933.03	9842.54
933.19	9746.28
933.36	9721.71
933.53	9885.55
933.70	9506.67
933.86	9633.64
934.03	9566.06
934.20	9375.60
934.36	9590.64
934.53	9242.48
934.70	9140.08
934.86	9211.76
935.03	9234.29
935.20	9086.84
935.36	9199.48
935.53	8871.80
935.70	8996.73
935.86	8990.58
936.03	8765.31
936.20	8683.39
936.36	8613.76
936.53	8607.61
936.70	8587.13
936.86	8517.50
937.03	8298.37
937.20	8269.70
937.36	8316.80
937.53	8134.53
937.70	8077.19
937.86	7882.63
938.03	8021.89
938.20	8077.19
938.36	7722.89
938.53	7741.32
938.70	7552.91
938.86	7554.96
939.03	7448.46
939.20	7321.49
939.36	7421.84
939.53	7303.06
939.70	7415.69
939.86	6885.27
940.03	6881.18
940.19	6805.40
940.36	6881.18
940.53	6756.25
940.69	6680.47
940.86	6680.47
941.03	6733.72
941.19	6440.86
941.36	6354.85
941.52	6588.32
941.69	6287.26
941.86	6295.46
942.02	6262.69
942.19	6117.28
942.35	6203.30
942.52	6152.10
942.69	6084.52
942.85	5867.43
943.02	5992.36
943.18	6021.03
943.35	5859.24
943.52	5742.50
943.68	5746.60
943.85	5783.46
944.01	5695.40
944.18	5705.64
944.35	5771.18
944.51	5633.96
944.68	5492.65
944.84	5384.11
945.01	5550.00
945.17	5531.56
945.34	5611.43
945.51	5539.76
945.67	5382.06
945.84	5484.46
946.00	5408.69
946.17	5361.58
946.33	5351.34
946.50	5412.78
946.67	5103.54
946.83	5388.21
947.00	5427.12
947.16	5365.68
947.33	5324.72
947.49	5386.16
947.66	5410.73
947.82	5341.10
947.99	5455.79
948.16	5339.05
948.32	5359.53
948.49	5291.95
948.65	5480.36
948.82	5279.66
948.98	5400.49
949.15	5181.36
949.31	5472.17
949.48	5287.86
949.64	5320.62
949.81	5408.69
949.97	5400.49
950.14	5445.55
950.30	5281.71
950.47	5500.84
950.63	5394.35
950.80	5388.21
950.96	5369.77
951.13	5404.59
951.30	5318.57
951.46	5578.67
951.63	5564.33
951.79	5410.73
951.96	5529.52
952.12	5416.88
952.29	5593.00
952.45	5414.83
952.62	5601.19
952.78	5414.83
952.94	5404.59
953.11	5539.76
953.27	5435.31
953.44	5711.78
953.60	5681.07
953.77	5506.99
953.93	5562.28
954.10	5453.74
954.26	5392.30
954.43	5550.00
954.59	5689.26
954.76	5670.83
954.92	5629.87
955.09	5588.91
955.25	5482.41
955.42	5638.06
955.58	5625.77
955.75	5574.57
955.91	5463.98
956.07	5521.32
956.24	5597.10
956.40	5656.49
956.57	5595.05
956.73	5627.82
956.90	5601.19
957.06	5580.71
957.23	5597.10
957.39	5513.13
957.56	5730.22
957.72	5441.45
957.88	5531.56
958.05	5506.99
958.21	5584.81
958.38	5623.72
958.54	5695.40
958.71	5691.31
958.87	5697.45
959.03	5457.84
959.20	5441.45
959.36	5666.73
959.53	5642.15
959.69	5582.76
959.85	5656.49
960.02	5584.81
960.18	5535.66
960.35	5611.43
960.51	5666.73
960.68	5605.29
960.84	5578.67
961.00	5484.46
961.17	5574.57
961.33	5523.37
961.50	5703.59
961.66	5496.75
961.82	5623.72
961.99	5611.43
962.15	5615.53
962.31	5658.54
962.48	5593.00
962.64	5652.39
962.81	5595.05
962.97	5547.95
963.13	5556.14
963.30	5660.59
963.46	5490.60
963.62	5541.80
963.79	5451.69
963.95	5582.76
964.12	5543.85
964.28	5607.34
964.44	5312.43
964.61	5629.87
964.77	5416.88
964.93	5701.54
965.10	5404.59
965.26	5351.34
965.42	5349.29
965.59	5384.11
965.75	5357.49
965.92	5537.71
966.08	5328.81
966.24	5605.29
966.41	5289.90
966.57	5412.78
966.73	5529.52
966.90	5490.60
967.06	5365.68
967.22	5412.78
967.39	5259.18
967.55	5386.16
967.71	5353.39
967.88	5279.66
968.04	5277.62
968.20	5312.43
968.37	5330.86
968.53	5136.31
968.69	5250.99
968.85	5396.40
969.02	5455.79
969.18	5345.20
969.34	5308.34
969.51	5337.01
969.67	5386.16
969.83	5277.62
970.00	5386.16
970.16	5197.74
970.32	5140.40
970.48	5187.50
970.65	5091.25
970.81	5167.03
970.97	5003.19
971.14	5054.39
971.30	5210.03
971.46	5001.14
971.63	4986.80
971.79	5099.44
971.95	5013.43
972.11	5042.10
972.28	5124.02
972.44	5119.92
972.60	4943.80
972.76	5062.58
972.93	5033.91
973.09	5066.67
973.25	5158.83
973.42	5052.34
973.58	5107.63
973.74	4947.89
973.90	5099.44
974.07	5029.81
974.23	4911.03
974.39	4990.90
974.55	5015.48
974.72	4908.98
974.88	4757.43
975.04	4896.69
975.20	4915.12
975.37	4818.87
975.53	4908.98
975.69	4818.87
975.85	4927.41
976.01	4931.51
976.18	4990.90
976.34	4855.73
976.50	4943.80
976.66	4788.15
976.83	4941.75
976.99	4779.96
977.15	4726.71
977.31	4628.41
977.47	4714.42
977.64	4743.10
977.80	4763.58
977.96	4739.00
978.12	4630.46
978.29	4745.14
978.45	4642.75
978.61	4587.45
978.77	4693.94
978.93	4577.21
979.10	4605.88
979.26	4558.78
979.42	4626.36
979.58	4642.75
979.74	4618.17
979.91	4661.18
980.07	4579.26
980.23	4558.78
980.39	4538.30
980.55	4593.59
980.71	4507.58
980.88	4605.88
981.04	4458.43
981.20	4612.03
981.36	4554.68
981.52	4560.83
981.68	4280.25
981.85	4517.82
982.01	4403.13
982.17	4448.19
982.33	4442.04
982.49	4573.11
982.65	4323.26
982.82	4392.89
982.98	4452.28
983.14	4235.20
983.30	4366.27
983.46	4317.12
983.62	4347.84
983.79	4380.61
983.95	4396.99
984.11	4165.57
984.27	4267.97
984.43	4214.72
984.59	4245.44
984.75	4218.82
984.91	4308.93
985.08	4237.25
985.24	4118.47
985.40	4235.20
985.56	4198.34
985.72	4173.76
985.88	4263.87
986.04	4179.90
986.20	4145.09
986.37	4112.32
986.53	3997.64
986.69	3989.44
986.85	4108.23
987.01	4091.84
987.17	4298.69
987.33	4038.59
987.49	4067.27
987.65	4140.99
987.82	4069.31
987.98	4024.26
988.14	4026.31
988.30	4054.98
988.46	3944.39
988.62	3952.58
988.78	4003.78
988.94	4081.60
989.10	3932.10
989.26	3919.81
989.42	4030.40
989.59	3889.09
989.75	3780.55
989.91	3909.57
990.07	3885.00
990.23	3760.07
990.39	3717.06
990.55	3995.59
990.71	3727.30
990.87	3979.20
991.03	3794.89
991.19	3786.69
991.35	3798.98
991.51	3858.37
991.67	3895.24
991.83	3807.17
992.00	3696.58
992.16	3880.90
992.32	3936.20
992.48	3639.24
992.64	3653.58
992.80	3753.93
992.96	3780.55
993.12	3798.98
993.28	3622.86
993.44	3700.68
993.60	3741.64
993.76	3680.20
993.92	3792.84
994.08	3712.97
994.24	3700.68
994.40	3606.47
994.56	3725.26
994.72	3598.28
994.88	3643.34
995.04	3686.34
995.20	3522.51
995.36	3641.29
995.52	3565.51
995.68	3571.66
995.84	3571.66
996.00	3629.00
996.16	3565.51
996.32	3489.74
996.48	3596.23
996.64	3514.31
996.80	3493.83
996.96	3497.93
997.12	3545.03
997.28	3477.45
997.44	3440.59
997.60	3454.92
997.76	3491.79
997.92	3602.38
998.08	3434.44
998.24	3403.72
998.40	3354.57
998.56	3477.45
998.72	3336.14
998.88	3256.27
999.04	3370.96
999.20	3461.07
999.36	3352.52
999.52	3352.52
999.68	3428.30
999.84	3405.77
1000.00	3381.20
1000.16	3456.97
1000.32	3311.57
1000.48	3317.71
1000.64	3192.78
1000.80	3172.30
1000.95	3303.37
1001.11	3256.27
1001.27	3356.62
1001.43	3192.78
1001.59	3123.15
1001.75	3180.50
1001.91	3141.58
1002.07	3166.16
1002.23	3168.21
1002.39	3196.88
1002.55	3186.64
1002.71	3117.01
1002.87	3164.11
1003.03	2996.18
1003.19	3192.78
1003.34	3258.32
1003.50	3123.15
1003.66	3157.97
1003.82	3190.74
1003.98	3102.67
1004.14	3080.14
1004.30	2926.55
1004.46	3006.42
1004.62	2979.79
1004.78	3061.71
1004.94	3008.47
1005.09	3043.28
1005.25	3069.91
1005.41	2979.79
1005.57	3006.42
1005.73	3037.14
1005.89	2959.31
1006.05	2992.08
1006.21	2885.59
1006.37	3008.47
1006.52	3014.61
1006.68	2863.06
1006.84	3026.90
1007.00	2904.02
1007.16	3043.28
1007.32	2846.68
1007.48	2842.58
1007.64	2942.93
1007.79	2969.55
1007.95	2797.53
1008.11	2912.21
1008.27	2881.49
1008.43	2842.58
1008.59	2852.82
1008.75	2832.34
1008.91	2828.24
1009.06	2887.64
1009.22	2959.31
1009.38	2881.49
1009.54	2801.62
1009.70	2752.47
1009.86	2783.19
1010.01	2877.40
1010.17	2756.57
1010.33	2789.33
1010.49	2807.77
1010.65	2756.57
1010.81	2738.13
1010.96	2815.96
1011.12	2662.36
1011.28	2742.23
1011.44	2795.48
1011.60	2766.81
1011.76	2602.97
1011.91	2805.72
1012.07	2744.28
1012.23	2645.98
1012.39	2570.20
1012.55	2697.17
1012.71	2662.36
1012.86	2752.47
1013.02	2605.02
1013.18	2625.50
1013.34	2539.48
1013.50	2684.89
1013.65	2670.55
1013.81	2629.59
1013.97	2574.30
1014.13	2680.79
1014.29	2541.53
1014.44	2635.74
1014.60	2521.05
1014.76	2613.21
1014.92	2578.39
1015.07	2641.88
1015.23	2684.89
1015.39	2576.34
1015.55	2549.72
1015.71	2457.56
1015.86	2478.04
1016.02	2463.71
1016.18	2420.70
1016.34	2461.66
1016.49	2525.15
1016.65	2650.07
1016.81	2539.48
1016.97	2584.54
1017.12	2480.09
1017.28	2457.56
1017.44	2420.70
1017.60	2465.75
1017.75	2508.76
1017.91	2437.08
1018.07	2469.85
1018.23	2480.09
1018.38	2351.07
1018.54	2387.93
1018.70	2385.88
1018.86	2334.68
1019.01	2398.17
1019.17	2410.46
1019.33	2494.43
1019.49	2508.76
1019.64	2363.36
1019.80	2424.80
1019.96	2463.71
1020.12	2404.32
1020.27	2346.97
1020.43	2394.08
1020.59	2453.47
1020.74	2377.69
1020.90	2369.50
1021.06	2363.36
1021.22	2244.57
1021.37	2408.41
1021.53	2328.54
1021.69	2355.16
1021.84	2271.20
1022.00	2281.44
1022.16	2248.67
1022.31	2279.39
1022.47	2344.92
1022.63	2349.02
1022.79	2211.81
1022.94	2164.70
1023.10	2412.51
1023.26	2291.68
1023.41	2260.96
1023.57	2213.85
1023.73	2340.83
1023.88	2209.76
1024.04	2238.43
1024.20	2170.85
1024.35	2273.25
1024.51	2283.49
1024.67	2197.47
1024.82	2252.77
1024.98	2181.09
1025.14	2291.68
1025.29	2181.09
1025.45	2187.23
1025.61	2183.13
1025.76	2187.23
1025.92	2136.03
1026.08	2222.05
1026.23	2205.66
1026.39	2179.04
1026.55	2185.18
1026.70	2199.52
1026.86	2158.56
1027.02	2189.28
1027.17	2160.61
1027.33	2209.76
1027.48	2168.80
1027.64	2154.46
1027.80	2090.98
1027.95	2138.08
1028.11	2129.89
1028.27	2119.65
1028.42	2146.27
1028.58	2107.36
1028.73	2064.35
1028.89	2060.26
1029.05	2215.90
1029.20	2119.65
>>>>>End Processed Spectral Data<<<<<
