SpectraSuite Data File
++++++++++++++++++++++++++++++++++++
Date: Fri Jun 02 14:44:33 CEST 2017
User: INFO_000
Dark Spectrum Present: No
Reference Spectrum Present: No
Number of Sampled Component Spectra: 1
Spectrometers: USB4H00879
Integration Time (usec): 80000 (USB4H00879)
Spectra Averaged: 1 (USB4H00879)
Boxcar Smoothing: 0 (USB4H00879)
Correct for Electrical Dark: No (USB4H00879)
Strobe/Lamp Enabled: No (USB4H00879)
Correct for Detector Non-linearity: No (USB4H00879)
Correct for Stray Light: No (USB4H00879)
Number of Pixels in Processed Spectrum: 3648
>>>>>Begin Processed Spectral Data<<<<<
345.13	1304.56
345.34	1304.56
345.56	1304.56
345.78	1271.79
345.99	1314.80
346.21	1757.16
346.42	1695.72
346.64	1673.19
346.86	1783.78
347.07	1591.27
347.29	1716.20
347.50	1636.33
347.72	1615.85
347.94	1718.25
348.15	1593.32
348.37	1665.00
348.59	1656.81
348.80	1648.61
349.02	1679.33
349.23	1892.32
349.45	1779.68
349.67	1863.65
349.88	1847.27
350.10	1968.10
350.31	1808.36
350.53	1740.77
350.75	1961.95
350.96	1699.81
351.18	1877.99
351.39	1918.95
351.61	1738.73
351.82	1853.41
352.04	1877.99
352.26	1837.03
352.47	1933.28
352.69	1931.23
352.90	1677.29
353.12	1841.12
353.34	1851.36
353.55	1937.38
353.77	1968.10
353.98	1824.74
354.20	1775.59
354.41	1992.67
354.63	1890.28
354.85	2025.44
355.06	1900.52
355.28	1775.59
355.49	1953.76
355.71	1867.75
355.92	1765.35
356.14	1875.94
356.35	1851.36
356.57	1859.56
356.79	1900.52
357.00	1832.93
357.22	2007.01
357.43	1888.23
357.65	1980.39
357.86	1880.04
358.08	1861.60
358.29	1937.38
358.51	2027.49
358.72	2025.44
358.94	1980.39
359.16	1902.56
359.37	1970.15
359.59	1994.72
359.80	1871.84
360.02	1882.08
360.23	1918.95
360.45	2066.40
360.66	1937.38
360.88	1873.89
361.09	1920.99
361.31	1984.48
361.52	1972.19
361.74	1970.15
361.95	1996.77
362.17	1978.34
362.38	2060.26
362.60	1986.53
362.81	1984.48
363.03	1908.71
363.24	1984.48
363.46	2043.87
363.67	2035.68
363.89	2011.11
364.10	2027.49
364.32	1972.19
364.53	2068.45
364.75	1925.09
364.96	1970.15
365.18	2009.06
365.39	2031.58
365.61	1896.42
365.82	2068.45
366.04	2080.74
366.25	1982.43
366.47	2023.39
366.68	2025.44
366.90	1994.72
367.11	2056.16
367.33	2056.16
367.54	2117.60
367.76	2027.49
367.97	2101.22
368.19	2009.06
368.40	2101.22
368.62	1957.86
368.83	1920.99
369.05	2047.97
369.26	1933.28
369.48	2009.06
369.69	2013.15
369.91	2031.58
370.12	2019.30
370.33	2064.35
370.55	1935.33
370.76	2045.92
370.98	2138.08
371.19	2095.07
371.41	2035.68
371.62	2138.08
371.84	1982.43
372.05	2189.28
372.27	2119.65
372.48	2027.49
372.69	2158.56
372.91	2068.45
373.12	2197.47
373.34	2107.36
373.55	2152.42
373.77	2097.12
373.98	2125.79
374.20	2119.65
374.41	2211.81
374.62	2099.17
374.84	2148.32
375.05	2209.76
375.27	2088.93
375.48	2117.60
375.70	2119.65
375.91	2213.85
376.12	2285.53
376.34	2138.08
376.55	2213.85
376.77	2226.14
376.98	2158.56
377.19	2148.32
377.41	2150.37
377.62	2164.70
377.84	2246.62
378.05	2258.91
378.27	2273.25
378.48	2285.53
378.69	2377.69
378.91	2299.87
379.12	2197.47
379.34	2117.60
379.55	2328.54
379.76	2195.42
379.98	2220.00
380.19	2254.81
380.41	2166.75
380.62	2306.01
380.83	2256.86
381.05	2199.52
381.26	2406.36
381.47	2230.24
381.69	2203.61
381.90	2443.23
382.12	2189.28
382.33	2258.91
382.54	2244.57
382.76	2287.58
382.97	2340.83
383.19	2156.51
383.40	2342.88
383.61	2275.29
383.83	2246.62
384.04	2377.69
384.25	2383.84
384.47	2387.93
384.68	2316.25
384.89	2338.78
385.11	2334.68
385.32	2392.03
385.54	2224.09
385.75	2324.44
385.96	2465.75
386.18	2492.38
386.39	2400.22
386.60	2416.60
386.82	2389.98
387.03	2396.12
387.24	2533.34
387.46	2385.88
387.67	2486.23
387.88	2508.76
388.10	2473.95
388.31	2461.66
388.52	2605.02
388.74	2484.19
388.95	2594.78
389.16	2541.53
389.38	2590.68
389.59	2656.22
389.80	2629.59
390.02	2615.26
390.23	2645.98
390.44	2568.15
390.66	2578.39
390.87	2545.63
391.08	2678.74
391.30	2682.84
391.51	2684.89
391.72	2635.74
391.94	2693.08
392.15	2559.96
392.36	2672.60
392.58	2557.91
392.79	2596.82
393.00	2680.79
393.22	2787.29
393.43	2674.65
393.64	2777.05
393.85	2795.48
394.07	2748.37
394.28	2715.61
394.49	2734.04
394.71	2822.10
394.92	2869.20
395.13	2693.08
395.35	2797.53
395.56	2758.61
395.77	2848.72
395.98	2731.99
396.20	2873.30
396.41	2844.63
396.62	2961.36
396.84	2799.57
397.05	2797.53
397.26	2820.05
397.47	2930.64
397.69	2842.58
397.90	3061.71
398.11	2914.26
398.32	2936.79
398.54	2912.21
398.75	2936.79
398.96	2877.40
399.18	3014.61
399.39	2940.88
399.60	2990.03
399.81	2906.07
400.03	2932.69
400.24	3205.07
400.45	2959.31
400.66	3106.77
400.88	2987.99
401.09	3207.12
401.30	3016.66
401.51	3203.02
401.73	3213.26
401.94	3069.91
402.15	3137.49
402.36	3033.04
402.58	3084.24
402.79	3190.74
403.00	3104.72
403.21	3174.35
403.43	3270.61
403.64	3262.41
403.85	3053.52
404.06	3160.02
404.27	3151.82
404.49	3215.31
404.70	3117.01
404.91	3280.85
405.12	3289.04
405.34	3176.40
405.55	3418.06
405.76	3182.54
405.97	3237.84
406.19	3422.16
406.40	3313.61
406.61	3381.20
406.82	3373.00
407.03	3370.96
407.25	3258.32
407.46	3485.64
407.67	3420.11
407.88	3379.15
408.09	3360.72
408.31	3387.34
408.52	3461.07
408.73	3387.34
408.94	3289.04
409.15	3387.34
409.37	3551.18
409.58	3565.51
409.79	3547.08
410.00	3641.29
410.21	3536.84
410.43	3669.96
410.64	3475.40
410.85	3588.04
411.06	3618.76
411.27	3569.61
411.48	3557.32
411.70	3633.10
411.91	3508.17
412.12	3561.42
412.33	3641.29
412.54	3751.88
412.76	3727.30
412.97	3667.91
413.18	3694.54
413.39	3672.01
413.60	3717.06
413.81	3669.96
414.03	3772.36
414.24	3637.19
414.45	3870.66
414.66	3565.51
414.87	3774.41
415.08	3731.40
415.30	3698.63
415.51	3774.41
415.72	3764.17
415.93	3792.84
416.14	3887.04
416.35	3860.42
416.56	3751.88
416.78	3833.80
416.99	3854.28
417.20	3940.29
417.41	3868.61
417.62	3919.81
417.83	3917.76
418.04	3932.10
418.26	4016.07
418.47	3893.19
418.68	4077.51
418.89	4026.31
419.10	4040.64
419.31	3899.33
419.52	3905.48
419.73	4022.21
419.95	4177.86
420.16	3858.37
420.37	3932.10
420.58	4061.12
420.79	3839.94
421.00	4253.63
421.21	4106.18
421.42	3995.59
421.63	4063.17
421.85	4184.00
422.06	4186.05
422.27	4313.02
422.48	4241.34
422.69	4241.34
422.90	4169.66
423.11	4229.06
423.32	4380.61
423.53	4405.18
423.75	4247.49
423.96	4493.24
424.17	4442.04
424.38	4564.92
424.59	4353.98
424.80	4407.23
425.01	4450.24
425.22	4480.96
425.43	4419.52
425.64	4601.79
425.85	4562.87
426.06	4499.39
426.28	4558.78
426.49	4384.70
426.70	4476.86
426.91	4546.49
427.12	4601.79
427.33	4577.21
427.54	4607.93
427.75	4652.98
427.96	4818.87
428.17	4689.85
428.38	4849.59
428.59	4769.72
428.80	4868.02
429.01	4837.30
429.23	4859.83
429.44	4927.41
429.65	4962.23
429.86	4988.85
430.07	4882.36
430.28	4788.15
430.49	5001.14
430.70	5167.03
430.91	5130.16
431.12	5009.33
431.33	5212.08
431.54	5197.74
431.75	5062.58
431.96	5146.55
432.17	5281.71
432.38	5226.42
432.59	5318.57
432.80	5294.00
433.01	5406.64
433.22	5339.05
433.43	5474.22
433.64	5263.28
433.85	5418.93
434.06	5472.17
434.27	5271.47
434.49	5429.17
434.70	5453.74
434.91	5447.60
435.12	5611.43
435.33	5457.84
435.54	5513.13
435.75	5377.97
435.96	5488.56
436.17	5474.22
436.38	5746.60
436.59	5752.74
436.80	5656.49
437.01	5797.80
437.22	5846.95
437.43	5799.85
437.64	5509.04
437.85	5926.82
438.06	5840.81
438.27	5687.21
438.48	5773.22
438.69	5918.63
438.90	6027.17
439.11	5793.70
439.32	5969.83
439.53	5918.63
439.74	5963.68
439.95	5941.16
440.16	5947.30
440.37	5982.12
440.57	5935.01
440.78	5965.73
440.99	5863.33
441.20	6039.46
441.41	5971.88
441.62	6195.11
441.83	6064.04
442.04	6098.85
442.25	6141.86
442.46	6217.63
442.67	6248.35
442.88	6672.28
443.09	5943.21
443.30	6176.67
443.51	6088.61
443.72	6442.91
443.93	6111.14
444.14	6514.59
444.35	6213.54
444.56	6412.19
444.77	6227.87
444.98	6262.69
445.19	6498.20
445.40	6541.21
445.61	6293.41
445.81	6580.12
446.02	6490.01
446.23	6459.29
446.44	6291.36
446.65	6662.04
446.86	6711.19
447.07	6666.14
447.28	6594.46
447.49	6655.90
447.70	6580.12
447.91	6651.80
448.12	6735.77
448.33	6709.15
448.54	6735.77
448.74	6604.70
448.95	6743.96
449.16	6739.87
449.37	6915.99
449.58	6561.69
449.79	6872.98
450.00	6715.29
450.21	6932.37
450.42	7153.55
450.63	7034.77
450.84	6928.28
451.05	6989.72
451.25	6975.38
451.46	6973.33
451.67	7055.25
451.88	7128.98
452.09	7053.20
452.30	7114.64
452.51	7063.44
452.72	7190.42
452.93	7544.72
453.13	6987.67
453.34	7053.20
453.55	7235.47
453.76	7235.47
453.97	7722.89
454.18	7468.94
454.39	7608.20
454.60	7450.51
454.81	7503.76
455.01	7708.55
455.22	7329.68
455.43	7384.98
455.64	7741.32
455.85	7780.23
456.06	7845.77
456.27	7952.26
456.48	7817.10
456.68	7950.21
456.89	7978.89
457.10	8071.04
457.31	8062.85
457.52	8038.28
457.73	8030.09
457.94	8212.35
458.14	8077.19
458.35	8466.30
458.56	8220.55
458.77	8208.26
458.98	8279.94
459.19	8388.48
459.39	8312.71
459.60	8648.57
459.81	8402.82
460.02	8693.63
460.23	8542.08
460.44	8884.09
460.65	8871.80
460.85	8900.47
461.06	8976.25
461.27	8589.18
461.48	8898.42
461.69	9197.43
461.89	8755.07
462.10	9148.28
462.31	8812.41
462.52	8857.46
462.73	9060.21
462.94	9351.03
463.14	9176.95
463.35	9314.16
463.56	9559.92
463.77	9615.21
463.98	9490.29
464.18	9199.48
464.39	9506.67
464.60	9660.27
464.81	9822.06
465.02	9850.73
465.23	9983.85
465.43	9908.07
465.64	10035.05
465.85	10119.01
466.06	9914.22
466.27	10188.64
466.47	10164.07
466.68	10293.09
466.89	10225.51
467.10	10438.50
467.30	10127.21
467.51	10649.44
467.72	10661.73
467.93	10272.61
468.14	10450.78
468.34	10686.30
468.55	10766.17
468.76	10733.40
468.97	10784.60
469.17	11011.93
469.38	10878.81
469.59	11009.88
469.80	10999.64
470.01	11108.18
470.21	11120.47
470.42	11190.10
470.63	11409.23
470.84	10979.16
471.04	11525.97
471.25	11509.58
471.46	11454.29
471.67	11609.93
471.87	11671.37
472.08	11732.81
472.29	11798.35
472.50	11464.53
472.70	11786.06
472.91	12027.72
473.12	11978.57
473.33	12046.15
473.53	12185.41
473.74	12105.54
473.95	12195.65
474.16	12558.14
474.36	12236.61
474.57	12660.54
474.78	12521.28
474.99	12279.62
475.19	12525.38
475.40	12777.28
475.61	13045.56
475.81	13051.70
476.02	13201.21
476.23	13156.15
476.44	13098.81
476.64	13358.90
476.85	13473.59
477.06	13543.22
477.27	13608.75
477.47	13688.62
477.68	13666.10
477.89	13850.41
478.09	13711.15
478.30	13952.81
478.51	13860.65
478.71	14184.23
478.92	14098.22
479.13	14300.97
479.34	14384.93
479.54	14511.91
479.75	14567.20
479.96	14815.01
480.16	14634.78
480.37	14671.65
480.58	14970.65
480.78	15085.34
480.99	14991.13
481.20	15083.29
481.41	15122.20
481.61	15423.25
481.82	15720.21
482.03	15558.42
482.23	15355.67
482.44	15771.41
482.65	15818.51
482.85	15968.01
483.06	15972.11
483.27	15994.64
483.47	16107.27
483.68	16201.48
483.89	16224.01
484.09	16297.74
484.30	16674.56
484.51	16559.88
484.71	16672.51
484.92	16551.68
485.13	16957.18
485.33	16992.00
485.54	17170.17
485.75	17282.81
485.95	17282.81
486.16	17448.69
486.37	17454.84
486.57	17692.40
486.78	17536.76
486.98	17647.35
487.19	17727.22
487.40	18013.93
487.60	17968.88
487.81	18437.86
488.02	18249.45
488.22	18179.82
488.43	18613.99
488.64	18542.31
488.84	18808.54
489.05	18781.92
489.25	18779.87
489.46	19082.97
489.67	18861.79
489.87	19152.60
490.08	19234.52
490.29	19486.42
490.49	19689.17
490.70	19820.24
490.90	19785.43
491.11	19857.10
491.32	19826.39
491.52	20152.01
491.73	20047.57
491.94	20213.45
492.14	20344.52
492.35	20463.30
492.55	20651.72
492.76	20575.94
492.97	20876.99
493.17	20848.32
493.38	21141.18
493.58	21141.18
493.79	21143.23
494.00	21192.38
494.20	21319.35
494.41	21393.08
494.61	21622.45
494.82	21587.64
495.02	21655.22
495.23	21950.13
495.44	22052.53
495.64	22433.45
495.85	22128.30
496.05	22142.64
496.26	22085.30
496.47	22140.59
496.67	22398.63
496.88	22699.69
497.08	22468.27
497.29	22550.18
497.49	22765.22
497.70	22886.05
497.91	22728.36
498.11	22992.55
498.32	22814.37
498.52	23092.90
498.73	23092.90
498.93	23375.52
499.14	23570.07
499.34	23682.71
499.55	23824.02
499.76	23746.20
499.96	23555.74
500.17	23778.97
500.37	23776.92
500.58	23568.02
500.78	23828.12
500.99	24211.09
501.19	24120.98
501.40	24159.89
501.60	23733.91
501.81	23768.73
502.02	24250.00
502.22	23981.71
502.43	24395.40
502.63	24524.43
502.84	24669.83
503.04	24575.62
503.25	24637.06
503.45	24800.90
503.66	24505.99
503.86	24751.75
504.07	25241.21
504.27	24827.53
504.48	25165.44
504.68	25052.80
504.89	25120.38
505.09	24946.31
505.30	25073.28
505.50	25046.66
505.71	25273.98
505.91	25468.54
506.12	25411.20
506.32	25374.33
506.53	25237.12
506.73	25376.38
506.94	25831.03
507.14	25493.12
507.35	25556.60
507.55	25683.58
507.76	25759.35
507.96	25665.14
508.17	25861.75
508.37	25886.32
508.58	25663.10
508.78	25804.41
508.99	26199.66
509.19	26265.20
509.40	26058.35
509.60	26134.13
509.81	26099.31
510.01	25947.76
510.22	26072.69
510.42	26541.68
510.63	26392.17
510.83	26404.46
511.04	25958.00
511.24	26478.19
511.44	26379.89
511.65	26480.24
511.85	26732.14
512.06	26457.71
512.26	26633.83
512.47	26822.25
512.67	26599.02
512.88	26668.65
513.08	26472.04
513.29	27203.17
513.49	26715.75
513.69	27057.76
513.90	26988.13
514.10	27092.58
514.31	27446.88
514.51	27438.69
514.72	27180.64
514.92	27027.04
515.13	27340.38
515.33	27573.85
515.53	27369.05
515.74	27479.64
515.94	27565.66
516.15	27639.39
516.35	27635.29
516.56	27752.02
516.76	27752.02
516.96	27706.97
517.17	27862.61
517.37	27846.23
517.58	27995.73
517.78	28229.20
517.99	27819.61
518.19	28468.81
518.39	28204.63
518.60	28427.85
518.80	28526.16
519.01	28962.37
519.21	28403.28
519.41	28839.50
519.62	28708.43
519.82	28862.02
520.03	28802.63
520.23	28954.18
520.43	28646.99
520.64	28972.61
520.84	29433.41
521.05	29148.74
521.25	29589.05
521.45	29609.53
521.66	29873.72
521.86	29644.35
522.07	29746.75
522.27	29988.41
522.47	29699.64
522.68	29838.90
522.88	30096.95
523.08	30092.85
523.29	29992.50
523.49	30293.55
523.70	30352.94
523.90	30709.29
524.10	30586.41
524.31	30928.42
524.51	30242.35
524.71	31145.51
524.92	30713.39
525.12	31553.05
525.33	31430.18
525.53	31389.22
525.73	31653.40
525.94	31514.14
526.14	31577.63
526.34	31684.12
526.55	31938.07
526.75	32417.30
526.95	32136.73
527.16	32204.31
527.36	32089.62
527.56	32523.79
527.77	32353.81
527.97	32597.52
528.17	32501.26
528.38	32708.11
528.58	32710.16
528.78	32767.50
528.99	33009.16
529.19	33183.24
529.39	32917.00
529.60	33668.61
529.80	33187.33
530.00	33332.74
530.21	33674.75
530.41	33631.74
530.61	33631.74
530.82	33885.69
531.02	33687.04
531.22	33822.20
531.43	34153.97
531.63	34334.20
531.83	34766.32
532.04	34588.14
532.24	34100.73
532.44	34924.01
532.64	34866.67
532.85	34741.74
533.05	34833.90
533.25	35288.55
533.46	35128.81
533.66	35464.67
533.86	35200.49
534.07	35763.68
534.27	35517.92
534.47	35653.09
534.67	35900.89
534.88	35751.39
535.08	35861.98
535.28	36584.91
535.49	36265.43
535.69	36580.82
535.89	36261.33
536.09	36406.74
536.30	36470.23
536.50	36576.72
536.70	36789.71
536.91	36738.51
537.11	36824.53
537.31	36947.40
537.51	36779.47
537.72	37090.76
537.92	37336.52
538.12	37576.13
538.32	37385.67
538.53	37447.11
538.73	37254.60
538.93	37494.21
539.13	37459.40
539.34	37379.53
539.54	37533.12
539.74	38442.42
539.94	37670.34
540.15	37772.74
540.35	38239.67
540.55	38108.60
540.75	38249.91
540.96	37848.51
541.16	38049.21
541.36	38297.02
541.56	38477.24
541.77	38706.61
541.97	38163.90
542.17	38364.60
542.37	38700.47
542.58	38591.92
542.78	38342.07
542.98	38282.68
543.18	38870.45
543.38	39257.51
543.59	38983.09
543.79	38577.59
543.99	39030.19
544.19	38784.43
544.40	38882.73
544.60	39779.74
544.80	38895.02
545.00	39015.85
545.20	39368.10
545.41	38995.37
545.61	38841.78
545.81	39757.22
546.01	39802.27
546.21	39253.42
546.42	39450.02
546.62	39490.98
546.82	38993.32
547.02	39646.63
547.22	39628.20
547.43	39353.77
547.63	40146.33
547.83	40017.31
548.03	39501.22
548.23	39898.53
548.44	39667.11
548.64	40009.12
548.84	40054.17
549.04	39945.63
549.24	39861.66
549.45	40580.50
549.65	40029.60
549.85	40023.45
550.05	40234.39
550.25	40019.36
550.45	40431.00
550.66	40160.67
550.86	40064.41
551.06	40517.01
551.26	40476.05
551.46	40510.87
551.66	40232.35
551.87	40351.13
552.07	40666.52
552.27	40308.12
552.47	40879.50
552.67	40947.09
552.87	40924.56
553.07	40840.59
553.28	40670.61
553.48	40902.03
553.68	40527.25
553.88	41567.62
554.08	40662.42
554.28	41108.88
554.48	40877.46
554.69	41207.18
554.89	41403.78
555.09	41516.42
555.29	41049.49
555.49	41493.89
555.69	41739.65
555.89	41405.83
556.10	41448.84
556.30	41506.18
556.50	41981.31
556.70	41614.72
556.90	41624.96
557.10	41811.33
557.30	41522.57
557.50	41729.41
557.70	41997.70
557.91	42261.88
558.11	41997.70
558.31	41999.74
558.51	41854.34
558.71	42071.42
558.91	42323.32
559.11	42263.93
559.31	42042.75
559.51	42096.00
559.72	42399.10
559.92	42591.61
560.12	42366.33
560.32	42392.95
560.52	42059.13
560.72	42751.35
560.92	42554.74
561.12	43224.43
561.32	43259.24
561.52	42651.00
561.72	43541.86
561.93	43099.50
562.13	42868.08
562.33	43136.37
562.53	43367.79
562.73	42800.50
562.93	43097.45
563.13	43335.02
563.33	43160.94
563.53	43672.93
563.73	43267.44
563.93	43365.74
564.13	43867.49
564.33	43748.71
564.53	43601.25
564.74	43965.79
564.94	43865.44
565.14	43967.84
565.34	43646.31
565.54	44025.18
565.74	44264.80
565.94	44524.89
566.14	44209.50
566.34	44215.65
566.54	44760.40
566.74	44303.71
566.94	44217.69
567.14	44516.70
567.34	44432.73
567.54	44868.95
567.74	44297.56
567.94	44938.58
568.14	44979.54
568.34	45266.25
568.54	44907.86
568.74	45026.64
568.94	45292.88
569.14	45376.84
569.34	45063.50
569.54	45380.94
569.75	45049.17
569.95	45256.01
570.15	45929.80
570.35	45747.53
570.55	45692.23
570.75	45616.46
570.95	45581.64
571.15	45831.49
571.35	45372.75
571.55	46204.22
571.75	46312.77
571.95	46339.39
572.15	45872.45
572.35	46269.76
572.55	46099.78
572.75	46091.58
572.95	46032.19
573.15	46472.51
573.35	46515.51
573.55	46273.85
573.75	46216.51
573.95	46363.96
574.15	46456.12
574.35	46501.18
574.55	46515.51
574.75	46558.52
574.95	47015.22
575.15	46658.87
575.34	46794.04
575.54	47213.87
575.74	46865.72
575.94	46994.74
576.14	47332.65
576.34	47709.48
576.54	47420.72
576.74	47539.50
576.94	47181.10
577.14	47576.36
577.34	47893.80
577.54	47359.28
577.74	47658.28
577.94	47648.04
578.14	47930.66
578.34	48229.66
578.54	47385.90
578.74	47547.69
578.94	48069.92
579.14	47846.69
579.34	47609.13
579.54	47873.32
579.74	48049.44
579.94	48219.42
580.13	48186.66
580.33	48356.64
580.53	47904.04
580.73	48178.46
580.93	48231.71
581.13	48139.55
581.33	48532.76
581.53	48647.45
581.73	48178.46
581.93	48764.18
582.13	48479.52
582.33	48481.56
582.53	48205.09
582.73	48536.86
582.92	48354.59
583.12	48751.90
583.32	48327.97
583.52	48813.34
583.72	49222.93
583.92	48764.18
584.12	48874.77
584.32	49102.10
584.52	49167.63
584.72	49046.80
584.92	49003.80
585.11	49456.40
585.31	49171.73
585.51	49163.54
585.71	49087.76
585.91	49765.64
586.11	49175.83
586.31	48862.49
586.51	49108.24
586.71	49358.09
586.91	49407.25
587.10	49206.55
587.30	49571.08
587.50	49315.09
587.70	49282.32
587.90	49538.32
588.10	49331.47
588.30	49294.61
588.50	49763.59
588.69	49900.81
588.89	49362.19
589.09	50013.44
589.29	49460.49
589.49	49960.20
589.69	49337.62
589.89	49949.96
590.08	49745.16
590.28	49642.76
590.48	49329.42
590.68	49622.28
590.88	49612.04
591.08	49872.14
591.28	49501.45
591.47	49886.47
591.67	49714.44
591.87	49825.03
592.07	49933.57
592.27	49851.66
592.47	50087.17
592.67	49837.32
592.86	49917.19
593.06	49874.18
593.26	50212.10
593.46	50142.47
593.66	49952.01
593.86	50007.30
594.05	50033.92
594.25	50271.49
594.45	49913.09
594.65	49999.11
594.85	49777.93
595.05	50578.68
595.24	50273.54
595.44	49982.73
595.64	50416.89
595.84	49880.33
596.04	50304.26
596.23	50580.73
596.43	50808.06
596.63	50455.81
596.83	50488.57
597.03	51160.31
597.22	51010.81
597.42	50719.99
597.62	50859.26
597.82	50719.99
598.02	50660.60
598.21	50840.82
598.41	50533.63
598.61	50887.93
598.81	50873.59
599.01	50922.74
599.20	50849.02
599.40	50910.46
599.60	50973.94
599.80	51019.00
600.00	51076.34
600.19	51377.39
600.39	50957.56
600.59	51449.07
600.79	51395.82
600.98	51416.30
601.18	51399.92
601.38	51459.31
601.58	51494.13
601.78	51811.56
601.97	51385.58
602.17	51735.79
602.37	51651.82
602.57	51530.99
602.76	51793.13
602.96	52081.89
603.16	52284.64
603.36	52096.23
603.55	52139.24
603.75	52188.39
603.95	52473.06
604.15	52221.16
604.34	52208.87
604.54	52405.47
604.74	52327.65
604.94	52485.34
605.13	52483.30
605.33	52757.72
605.53	52376.80
605.73	52849.88
605.92	52534.49
606.12	52577.50
606.32	52659.42
606.52	52843.74
606.71	52862.17
606.91	53112.02
607.11	53069.01
607.30	53204.18
607.50	53263.57
607.70	53224.66
607.90	53126.36
608.09	53220.56
608.29	53204.18
608.49	53609.68
608.68	53615.82
608.88	53710.03
609.08	53523.66
609.28	53916.87
609.47	53474.51
609.67	54238.40
609.87	53939.40
610.06	53966.02
610.26	53937.35
610.46	54080.71
610.66	53978.31
610.85	54228.16
611.05	53818.57
611.25	54271.17
611.44	53914.83
611.64	54164.68
611.84	54277.32
612.03	54131.91
612.23	54199.49
612.43	54179.01
612.62	54133.96
612.82	54500.54
613.02	54660.29
613.21	54754.49
613.41	54213.83
613.61	54967.48
613.80	54400.19
614.00	54426.82
614.20	54324.42
614.39	54740.16
614.59	54932.67
614.79	54531.26
614.98	54731.96
615.18	55022.78
615.38	54912.19
615.57	54924.47
615.77	55440.56
615.97	55420.08
616.16	55301.30
616.36	55499.95
616.56	55063.74
616.75	55037.11
616.95	55276.72
617.15	55399.60
617.34	55456.95
617.54	55657.65
617.74	55606.45
617.93	55549.10
618.13	55024.82
618.32	55610.54
618.52	55641.26
618.72	55325.88
618.91	55923.88
619.11	54883.51
619.31	55502.00
619.50	55524.53
619.70	55733.42
619.90	55694.51
620.09	55641.26
620.29	55407.79
620.48	55637.17
620.68	56022.19
620.88	55305.40
621.07	55616.69
621.27	55786.67
621.46	55424.18
621.66	56077.48
621.86	55882.92
622.05	55192.76
622.25	56349.86
622.44	55862.44
622.64	55569.58
622.84	55948.46
623.03	55514.29
623.23	56196.26
623.42	55450.80
623.62	55938.22
623.82	56513.70
624.01	56046.76
624.21	56016.04
624.40	56235.17
624.60	56341.67
624.80	55653.55
624.99	56054.95
625.19	55686.32
625.38	55921.83
625.58	56059.05
625.77	56200.36
625.97	56069.29
626.17	55899.31
626.36	56177.83
626.56	55923.88
626.75	55456.95
626.95	55954.60
627.14	56050.86
627.34	56542.37
627.54	56102.06
627.73	55938.22
627.93	56392.87
628.12	56030.38
628.32	55936.17
628.51	56378.53
628.71	56257.70
628.90	56370.34
629.10	56298.66
629.30	56366.24
629.49	55954.60
629.69	56226.98
629.88	56118.44
630.08	56243.37
630.27	56210.60
630.47	56573.09
630.66	56057.00
630.86	56372.39
631.05	55424.18
631.25	56726.69
631.44	56081.58
631.64	55940.27
631.84	56036.52
632.03	56652.96
632.23	56038.57
632.42	56716.45
632.62	56548.51
632.81	55958.70
633.01	56306.85
633.20	56530.08
633.40	56218.79
633.59	56245.41
633.79	55434.42
633.98	56065.19
634.18	56063.14
634.37	55907.50
634.57	56145.06
634.76	56255.65
634.96	56294.56
635.15	56532.13
635.35	55833.77
635.54	55704.75
635.74	55796.91
635.93	55551.15
636.13	56472.74
636.32	56259.75
636.52	55465.14
636.71	55962.79
636.91	55788.72
637.10	56183.97
637.30	55471.28
637.49	55575.73
637.69	55901.36
637.88	56235.17
638.08	55604.40
638.27	56388.77
638.46	56169.64
638.66	55891.12
638.85	56009.90
639.05	56200.36
639.24	56132.78
639.44	56059.05
639.63	55747.76
639.83	55700.65
640.02	55889.07
640.22	55882.92
640.41	55893.16
640.61	55170.23
640.80	56018.09
640.99	55325.88
641.19	56272.04
641.38	55760.05
641.58	55921.83
641.77	55841.96
641.97	55856.30
642.16	55899.31
642.36	55932.07
642.55	56335.52
642.74	55407.79
642.94	56306.85
643.13	55405.75
643.33	55948.46
643.52	55596.21
643.72	55956.65
643.91	55577.78
644.10	55776.43
644.30	55932.07
644.49	55739.57
644.69	56175.78
644.88	55377.08
645.08	55211.19
645.27	55520.43
645.46	54922.43
645.66	55448.75
645.85	55387.31
646.05	55518.38
646.24	55932.07
646.43	55882.92
646.63	55778.48
646.82	55723.18
647.02	55827.63
647.21	55616.69
647.40	55669.93
647.60	56292.52
647.79	55671.98
647.99	55817.39
648.18	55340.21
648.37	55923.88
648.57	56331.43
648.76	55829.68
648.96	55344.31
649.15	55844.01
649.34	56073.38
649.54	55889.07
649.73	55620.78
649.92	55592.11
650.12	55674.03
650.31	55923.88
650.51	55981.23
650.70	55542.96
650.89	55424.18
651.09	56087.72
651.28	55401.65
651.47	56028.33
651.67	55884.97
651.86	55727.28
652.06	54928.57
652.25	55786.67
652.44	56044.71
652.64	55719.09
652.83	55704.75
653.02	55338.16
653.22	55676.08
653.41	55368.88
653.60	55264.44
653.80	55665.84
653.99	55215.29
654.18	55508.14
654.38	55174.33
654.57	55784.62
654.76	55667.89
654.96	55424.18
655.15	55612.59
655.34	55653.55
655.54	55182.52
655.73	55596.21
655.92	55426.23
656.12	55579.82
656.31	55776.43
656.50	56073.38
656.70	55581.87
656.89	55653.55
657.08	55782.57
657.28	55964.84
657.47	55551.15
657.66	55889.07
657.86	55420.08
658.05	55440.56
658.24	55776.43
658.43	55622.83
658.63	55669.93
658.82	55809.20
659.01	56022.19
659.21	55684.27
659.40	55852.20
659.59	55694.51
659.79	55514.29
659.98	56147.11
660.17	55919.79
660.36	56110.25
660.56	56022.19
660.75	55827.63
660.94	55977.13
661.14	55921.83
661.33	55334.07
661.52	55473.33
661.71	56874.14
661.91	55999.66
662.10	55874.73
662.29	56220.84
662.49	55927.98
662.68	55983.27
662.87	56155.30
663.06	56255.65
663.26	56018.09
663.45	56071.34
663.64	55874.73
663.83	56624.29
664.03	56417.44
664.22	56229.03
664.41	56190.12
664.60	55952.55
664.80	56226.98
664.99	55866.54
665.18	56321.19
665.37	56073.38
665.57	56249.51
665.76	55841.96
665.95	56208.55
666.14	56173.73
666.34	56202.41
666.53	56517.79
666.72	56196.26
666.91	56597.66
667.11	56261.80
667.30	56480.93
667.49	56544.42
667.68	56407.20
667.87	56505.51
668.07	56505.51
668.26	56376.48
668.45	56712.35
668.64	56480.93
668.84	57275.54
669.03	56495.27
669.22	56433.83
669.41	56612.00
669.60	57068.70
669.80	56448.16
669.99	56786.08
670.18	56378.53
670.37	56700.06
670.57	57351.32
670.76	56362.15
670.95	56726.69
671.14	56931.48
671.33	56718.49
671.53	57244.82
671.72	56724.64
671.91	56788.13
672.10	56943.77
672.29	56753.31
672.48	56865.95
672.68	57390.23
672.87	56925.34
673.06	56980.63
673.25	56974.49
673.44	56468.64
673.64	56945.82
673.83	57042.07
674.02	56747.17
674.21	56765.60
674.40	57103.51
674.59	56669.34
674.79	56884.38
674.98	56808.61
675.17	57050.27
675.36	56888.48
675.55	57406.61
675.74	57095.32
675.94	56988.83
676.13	57267.35
676.32	57353.36
676.51	57300.12
676.70	57392.28
676.89	57138.33
677.08	57625.74
677.28	57144.47
677.47	57601.17
677.66	57580.69
677.85	56720.54
678.04	57500.82
678.23	57957.52
678.42	57795.73
678.62	57087.13
678.81	57812.11
679.00	57472.15
679.19	57980.04
679.38	58029.19
679.57	57324.69
679.76	57867.40
679.96	57717.90
680.15	57554.07
680.34	57631.89
680.53	57658.51
680.72	58014.86
680.91	57744.53
681.10	57269.40
681.29	57734.29
681.48	57851.02
681.68	57767.05
681.87	57496.72
682.06	57529.49
682.25	57210.01
682.44	57420.95
682.63	57390.23
682.82	57111.70
683.01	57713.81
683.20	57164.95
683.39	57730.19
683.59	57037.98
683.78	57095.32
683.97	57013.40
684.16	57197.72
684.35	57554.07
684.54	57623.70
684.73	57216.15
684.92	57332.89
685.11	57099.42
685.30	57549.97
685.49	57691.28
685.69	57562.26
685.88	57158.81
686.07	57062.55
686.26	57259.16
686.45	57197.72
686.64	57169.05
686.83	57085.08
687.02	56874.14
687.21	57658.51
687.40	57275.54
687.59	57101.46
687.78	57459.86
687.97	57697.42
688.16	57377.94
688.35	57306.26
688.54	57123.99
688.74	56771.74
688.93	57320.60
689.12	56818.84
689.31	57341.08
689.50	57345.17
689.69	57064.60
689.88	56781.98
690.07	57435.28
690.26	56976.54
690.45	57365.65
690.64	57066.65
690.83	56913.05
691.02	56593.57
691.21	56784.03
691.40	56595.62
691.59	56857.76
691.78	56710.30
691.97	56732.83
692.16	56136.87
692.35	56726.69
692.54	56865.95
692.73	56829.08
692.92	56562.85
693.11	56689.82
693.30	56241.32
693.49	56288.42
693.68	56698.01
693.87	56319.14
694.06	56306.85
694.25	56085.67
694.44	56341.67
694.63	56214.69
694.82	56554.66
695.01	56409.25
695.20	56167.59
695.39	56249.51
695.58	56063.14
695.77	55893.16
695.96	55592.11
696.15	55866.54
696.34	55925.93
696.53	55948.46
696.72	56237.22
696.91	55874.73
697.10	55854.25
697.29	55588.02
697.48	55913.64
697.67	55471.28
697.86	55270.58
698.05	55274.68
698.24	56063.14
698.43	54830.27
698.62	55450.80
698.81	55510.19
699.00	55669.93
699.19	55127.22
699.38	55047.35
699.57	54760.64
699.76	55647.41
699.95	55076.02
700.14	55280.82
700.32	55018.68
700.51	54752.44
700.70	55182.52
700.89	54965.43
701.08	54881.47
701.27	54830.27
701.46	55084.22
701.65	54312.13
701.84	55063.74
702.03	54774.97
702.22	54211.78
702.41	54443.20
702.60	54721.72
702.79	54324.42
702.98	54269.12
703.17	54543.55
703.35	54230.21
703.54	54324.42
703.73	54564.03
703.92	54408.39
704.11	53959.88
704.30	54056.14
704.49	54095.05
704.68	53279.96
704.87	53597.39
705.06	53548.24
705.25	53581.01
705.43	53486.80
705.62	53828.81
705.81	54027.46
706.00	53648.59
706.19	53093.59
706.38	53339.35
706.57	53353.68
706.76	53523.66
706.95	53490.90
707.14	53343.44
707.32	53163.22
707.51	52772.06
707.70	53120.21
707.89	53003.48
708.08	52800.73
708.27	52798.68
708.46	53249.24
708.65	52946.14
708.84	53341.39
709.02	52866.27
709.21	52593.89
709.40	53009.62
709.59	52638.94
709.78	52362.46
709.97	52968.66
710.16	52536.54
710.34	52446.43
710.53	52317.41
710.72	52258.02
710.91	52403.42
711.10	52540.64
711.29	52368.61
711.48	52344.03
711.66	52149.48
711.85	52161.76
712.04	52428.00
712.23	51909.86
712.42	52116.71
712.61	51823.85
712.80	51832.04
712.98	51631.34
713.17	51746.03
713.36	51893.48
713.55	51762.41
713.74	51371.25
713.93	51332.34
714.11	51352.82
714.30	51174.64
714.49	51221.75
714.68	51469.55
714.87	51545.33
715.06	51817.71
715.24	50879.74
715.43	51131.64
715.62	50820.34
715.81	50797.82
716.00	50910.46
716.18	50554.11
716.37	50719.99
716.56	50722.04
716.75	50896.12
716.94	50959.61
717.12	50402.56
717.31	50623.74
717.50	50779.39
717.69	50504.96
717.88	50763.00
718.06	50687.23
718.25	50656.51
718.44	50226.43
718.63	50582.78
718.82	49929.48
719.00	50543.87
719.19	50414.85
719.38	50148.61
719.57	49964.29
719.76	49882.37
719.94	49431.82
720.13	49655.05
720.32	49493.26
720.51	49313.04
720.69	49607.95
720.88	49665.29
721.07	49855.75
721.26	49259.79
721.44	49124.63
721.63	48715.03
721.82	48723.22
722.01	49022.23
722.20	49184.02
722.38	48829.72
722.57	48356.64
722.76	48946.45
722.95	48702.74
723.13	48755.99
723.32	48968.98
723.51	48198.94
723.70	48184.61
723.88	48661.79
724.07	48149.79
724.26	48661.79
724.44	47746.34
724.63	48874.77
724.82	48188.70
725.01	48256.29
725.19	48381.21
725.38	48012.58
725.57	48092.45
725.76	48182.56
725.94	47441.20
726.13	47471.92
726.32	47756.58
726.51	48141.60
726.69	48125.22
726.88	48076.07
727.07	48088.35
727.25	47824.17
727.44	48166.18
727.63	47924.52
727.82	47623.47
728.00	48127.27
728.19	48071.97
728.38	48223.52
728.56	47480.11
728.75	48157.99
728.94	48137.51
729.12	48076.07
729.31	48016.68
729.50	47564.07
729.69	47547.69
729.87	47928.61
730.06	48088.35
730.25	48022.82
730.43	47793.45
730.62	47895.85
730.81	47791.40
730.99	47977.76
731.18	47713.58
731.37	47625.51
731.55	48043.30
731.74	48082.21
731.93	48082.21
732.11	48076.07
732.30	48160.03
732.49	47928.61
732.67	47697.19
732.86	47854.89
733.05	47965.48
733.23	47521.07
733.42	47752.49
733.61	47887.65
733.79	47725.86
733.98	47953.19
734.17	47654.18
734.35	47545.64
734.54	47435.05
734.73	47926.56
734.91	47822.12
735.10	47478.06
735.29	48223.52
735.47	47580.46
735.66	47564.07
735.84	47912.23
736.03	47144.24
736.22	48080.16
736.40	47346.99
736.59	47445.29
736.78	47543.59
736.96	47850.79
737.15	47678.76
737.33	47465.77
737.52	47674.66
737.71	47584.55
737.89	47684.90
738.08	47303.98
738.27	47076.66
738.45	47586.60
738.64	47521.07
738.82	47418.67
739.01	46978.36
739.20	47275.31
739.38	47357.23
739.57	47764.78
739.75	47562.03
739.94	47359.28
740.13	47363.37
740.31	47222.06
740.50	47232.30
740.68	47629.61
740.87	47670.57
741.06	47637.80
741.24	47170.86
741.43	47013.17
741.61	47500.59
741.80	47357.23
741.99	47308.08
742.17	47402.28
742.36	47277.36
742.54	47633.71
742.73	47191.34
742.91	47273.26
743.10	47363.37
743.29	47717.67
743.47	47433.00
743.66	47166.77
743.84	47346.99
744.03	47295.79
744.21	47535.40
744.40	47736.10
744.59	47076.66
744.77	47164.72
744.96	47297.84
745.14	47201.58
745.33	47070.51
745.51	47189.30
745.70	47060.27
745.88	47045.94
746.07	47033.65
746.26	46658.87
746.44	46691.64
746.63	47080.75
746.81	47076.66
747.00	46839.09
747.18	46826.81
747.37	47332.65
747.55	46775.61
747.74	47023.41
747.92	46626.10
748.11	46622.01
748.29	46878.00
748.48	47045.94
748.66	46421.31
748.85	46853.43
749.03	46959.92
749.22	46759.22
749.41	46527.80
749.59	46638.39
749.78	46648.63
749.96	46538.04
750.15	46781.75
750.33	47070.51
750.52	46556.47
750.70	46814.52
750.89	46437.69
751.07	46515.51
751.26	46314.81
751.44	46073.15
751.63	46398.78
751.81	45997.38
752.00	46091.58
752.18	46118.21
752.37	46339.39
752.55	46136.64
752.74	46105.92
752.92	46226.75
753.10	45798.73
753.29	46589.24
753.47	46116.16
753.66	45956.42
753.84	46562.62
754.03	46380.35
754.21	45944.13
754.40	46355.77
754.58	46650.68
754.77	46226.75
754.95	45874.50
755.14	45931.84
755.32	45745.48
755.51	45768.01
755.69	45964.61
755.88	45905.22
756.06	45880.64
756.24	45917.51
756.43	45806.92
756.61	45952.32
756.80	45270.35
756.98	45262.16
757.17	45966.66
757.35	45618.50
757.54	46042.43
757.72	45817.16
757.90	45405.52
758.09	45811.01
758.27	45423.95
758.46	45165.90
758.64	44995.92
758.83	45700.42
759.01	45733.19
759.19	45315.40
759.38	45094.22
759.56	45675.85
759.75	45473.10
759.93	44817.75
760.12	44936.53
760.30	44897.62
760.48	45083.98
760.67	45180.24
760.85	45595.98
761.04	45399.37
761.22	45460.81
761.40	45159.76
761.59	44909.91
761.77	44895.57
761.96	44944.72
762.14	44825.94
762.32	44598.62
762.51	44660.05
762.69	44727.64
762.88	44969.30
763.06	44807.51
763.24	45096.27
763.43	45090.13
763.61	44287.32
763.80	44526.94
763.98	44594.52
764.16	44578.14
764.35	44203.36
764.53	43816.29
764.72	44268.89
764.90	44488.03
765.08	44336.48
765.27	43881.83
765.45	43861.35
765.63	43679.08
765.82	44074.34
766.00	43554.15
766.18	43947.36
766.37	44064.10
766.55	43912.55
766.74	43877.73
766.92	43443.56
767.10	43656.55
767.29	43566.44
767.47	43406.70
767.65	43500.90
767.84	42882.42
768.02	43457.90
768.20	43195.76
768.39	43142.51
768.57	43404.65
768.75	43160.94
768.94	43146.61
769.12	43068.78
769.30	43083.12
769.49	42958.19
769.67	42960.24
769.85	42691.96
770.04	42958.19
770.22	42351.99
770.40	42401.14
770.59	42284.41
770.77	42829.17
770.95	42734.96
771.14	42376.57
771.32	42382.71
771.50	42261.88
771.69	42059.13
771.87	42558.84
772.05	42788.21
772.24	41880.96
772.42	42071.42
772.60	41893.25
772.78	42196.35
772.97	42026.37
773.15	42114.43
773.33	41815.43
773.52	41917.82
773.70	41813.38
773.88	41702.79
774.07	41645.44
774.25	41934.21
774.43	42218.88
774.61	41889.15
774.80	42007.94
774.98	41819.52
775.16	41909.63
775.34	42102.14
775.53	41297.29
775.71	41835.91
775.89	41653.64
776.08	41627.01
776.26	41555.33
776.44	41880.96
776.62	41465.22
776.81	41377.16
776.99	41403.78
777.17	42216.83
777.35	41983.36
777.54	41708.93
777.72	41667.97
777.90	41850.24
778.08	42161.53
778.27	41424.26
778.45	41665.92
778.63	42263.93
778.81	41334.15
779.00	42245.50
779.18	42063.23
779.36	42421.62
779.54	41940.35
779.73	41917.82
779.91	42249.60
780.09	42231.16
780.27	42360.19
780.46	42079.61
780.64	42276.22
780.82	42157.44
781.00	41952.64
781.19	42423.67
781.37	42413.43
781.55	42452.34
781.73	42562.93
781.91	42050.94
782.10	42472.82
782.28	42280.31
782.46	42259.84
782.64	42245.50
782.82	41866.63
783.01	42460.54
783.19	42102.14
783.37	42337.66
783.55	42130.81
783.74	42698.10
783.92	42311.03
784.10	42687.86
784.28	42331.51
784.46	42192.25
784.64	41973.12
784.83	42278.27
785.01	42419.58
785.19	41715.08
785.37	41856.39
785.55	41799.04
785.74	41917.82
785.92	41950.59
786.10	42124.67
786.28	41776.51
786.46	41510.28
786.64	41500.04
786.83	41735.56
787.01	41502.09
787.19	41368.97
787.37	41641.35
787.55	41538.95
787.74	41469.32
787.92	41735.56
788.10	41287.05
788.28	41076.11
788.46	41051.53
788.64	40856.98
788.82	41139.60
789.01	40967.57
789.19	41014.67
789.37	41018.77
789.55	40754.58
789.73	40424.86
789.91	40639.89
790.09	40490.39
790.28	40113.56
790.46	39996.83
790.64	40211.87
790.82	40408.47
791.00	39964.06
791.18	39941.53
791.36	40125.85
791.55	40293.79
791.73	39880.10
791.91	39558.56
792.09	39945.63
792.27	39476.65
792.45	39826.85
792.63	40041.88
792.81	39472.55
793.00	39554.47
793.18	39673.25
793.36	39564.71
793.54	39462.31
793.72	38938.03
793.90	39030.19
794.08	38671.79
794.26	38892.97
794.44	38430.13
794.62	38116.79
794.81	38421.94
794.99	38524.34
795.17	38200.76
795.35	38043.07
795.53	38139.32
795.71	38348.21
795.89	37565.89
796.07	37819.84
796.25	37729.73
796.43	37606.85
796.61	37156.30
796.80	37354.95
796.98	37535.17
797.16	37041.61
797.34	37361.09
797.52	37096.91
797.70	37348.81
797.88	37160.39
798.06	36799.95
798.24	36967.88
798.42	36861.39
798.60	36476.37
798.78	36212.18
798.96	36605.39
799.14	36191.70
799.32	36472.28
799.51	36021.72
799.69	36101.59
799.87	36410.84
800.05	36046.30
800.23	36034.01
800.41	36007.39
800.59	35784.16
800.77	35837.41
800.95	35499.49
801.13	35560.93
801.31	35397.09
801.49	35460.58
801.67	35261.93
801.85	35063.27
802.03	34993.64
802.21	35112.42
802.39	34891.24
802.57	34878.96
802.75	34641.39
802.93	34571.76
803.11	34530.80
803.29	34440.69
803.47	34416.11
803.65	34477.55
803.83	34543.09
804.01	34321.91
804.19	33760.76
804.37	34072.06
804.55	33973.75
804.73	33926.65
804.91	34022.90
805.09	34272.76
805.27	33551.87
805.45	33940.99
805.63	33777.15
805.81	33408.51
805.99	33801.72
806.17	33422.85
806.35	33256.96
806.53	33412.61
806.71	33531.39
806.89	33431.04
807.07	33328.64
807.25	33236.48
807.43	32742.92
807.61	33117.70
807.79	32673.29
807.97	32644.62
808.15	32699.92
808.33	33000.97
808.51	32677.39
808.69	32630.29
808.87	32296.47
809.05	32388.63
809.23	32488.98
809.41	32019.99
809.59	32386.58
809.77	32366.10
809.95	31999.51
810.13	31890.97
810.31	32038.42
810.49	32063.00
810.67	32202.26
810.84	31890.97
811.02	31798.81
811.20	31229.48
811.38	31602.21
811.56	31485.47
811.74	31430.18
811.92	31385.12
812.10	31516.19
812.28	31548.96
812.46	31378.98
812.64	31467.04
812.82	31022.63
813.00	31125.03
813.18	31016.49
813.36	30940.71
813.53	31043.11
813.71	30582.32
813.89	30905.90
814.07	30961.19
814.25	30801.45
814.43	30494.25
814.61	30547.50
814.79	30291.51
814.97	30713.39
815.15	30451.25
815.33	30352.94
815.50	30174.77
815.68	30629.42
815.86	30354.99
816.04	30326.32
816.22	30410.29
816.40	30291.51
816.58	30162.48
816.76	29746.75
816.94	30232.11
817.11	29969.97
817.29	29998.65
817.47	29799.99
817.65	29937.21
817.83	29705.79
818.01	29941.30
818.19	29320.77
818.37	29562.43
818.54	29322.82
818.72	29455.93
818.90	29476.41
819.08	29326.91
819.26	29587.00
819.44	29326.91
819.62	29308.48
819.80	29271.62
819.97	29314.62
820.15	29367.87
820.33	29011.53
820.51	29179.46
820.69	28972.61
820.87	29322.82
821.05	29154.88
821.22	29152.84
821.40	29132.36
821.58	28673.61
821.76	28726.86
821.94	28606.03
822.12	28806.73
822.29	28667.47
822.47	28651.08
822.65	28616.27
822.83	28804.68
823.01	28202.58
823.19	28550.73
823.36	28397.13
823.54	28530.25
823.72	28630.60
823.90	28196.43
824.08	28071.51
824.25	28341.84
824.43	28118.61
824.61	28356.18
824.79	28214.87
824.97	27965.01
825.15	28257.87
825.32	27895.38
825.50	27909.72
825.68	27719.26
825.86	28096.08
826.04	27954.77
826.21	28042.84
826.39	27823.70
826.57	27479.64
826.75	27874.90
826.93	27575.90
827.10	27627.10
827.28	27942.49
827.46	27727.45
827.64	27827.80
827.81	27702.87
827.99	27778.65
828.17	27264.61
828.35	27334.24
828.53	27428.45
828.70	27301.47
828.88	27391.58
829.06	27498.08
829.24	27741.78
829.41	27653.72
829.59	27639.39
829.77	27403.87
829.95	27192.93
830.12	27424.35
830.30	27094.63
830.48	27407.97
830.66	27035.24
830.84	27074.15
831.01	26836.58
831.19	27156.07
831.37	27006.56
831.55	26973.80
831.72	26869.35
831.90	26988.13
832.08	26633.83
832.25	27049.57
832.43	26625.64
832.61	26687.08
832.79	26685.03
832.96	26805.86
833.14	26609.26
833.32	27053.67
833.50	26902.12
833.67	26521.20
833.85	26844.77
834.03	26279.54
834.20	26308.21
834.38	26674.79
834.56	26783.34
834.74	26334.83
834.91	26703.46
835.09	26547.82
835.27	26230.38
835.44	26152.56
835.62	26254.96
835.80	26244.72
835.98	26420.84
836.15	26226.29
836.33	25947.76
836.51	25990.77
836.68	26048.11
836.86	26152.56
837.04	26195.57
837.21	26242.67
837.39	26152.56
837.57	26144.37
837.75	26066.55
837.92	25921.14
838.10	25757.30
838.28	25912.95
838.45	25849.46
838.63	25630.33
838.81	25837.17
838.98	25724.54
839.16	25863.80
839.34	25808.50
839.51	25980.53
839.69	25370.24
839.87	25628.28
840.04	25523.83
840.22	25972.34
840.40	25624.18
840.57	25296.51
840.75	25464.44
840.93	25355.90
841.10	25310.85
841.28	25523.83
841.46	25220.74
841.63	25235.07
841.81	25360.00
841.98	25552.51
842.16	25382.52
842.34	25548.41
842.51	25200.26
842.69	25519.74
842.87	25335.42
843.04	25321.09
843.22	25038.47
843.40	25204.35
843.57	25116.29
843.75	25355.90
843.92	24954.50
844.10	25048.71
844.28	25022.08
844.45	24940.16
844.63	24966.79
844.81	24561.29
844.98	24958.60
845.16	24700.55
845.33	24931.97
845.51	25036.42
845.69	24585.86
845.86	24792.71
846.04	24721.03
846.21	24649.35
846.39	24712.84
846.57	24544.91
846.74	24505.99
846.92	24299.15
847.09	24667.78
847.27	24329.87
847.45	24403.60
847.62	24546.95
847.80	24305.29
847.97	24360.59
848.15	24176.27
848.32	24286.86
848.50	24213.13
848.68	23994.00
848.85	24434.32
849.03	24245.90
849.20	24432.27
849.38	24188.56
849.56	24053.39
849.73	24143.50
849.91	24008.34
850.08	24100.50
850.26	23785.11
850.43	23774.87
850.61	24071.82
850.78	23684.76
850.96	23971.47
851.14	23889.56
851.31	24204.94
851.49	23883.41
851.66	24045.20
851.84	23832.21
852.01	23686.81
852.19	23592.60
852.36	23490.20
852.54	23611.03
852.71	23738.01
852.89	23803.54
853.07	23529.11
853.24	23410.33
853.42	23443.10
853.59	23307.93
853.77	23408.28
853.94	23479.96
854.12	23588.50
854.29	23422.62
854.47	23352.99
854.64	23373.47
854.82	23391.90
854.99	23271.07
855.17	23197.34
855.34	23144.09
855.52	23221.92
855.69	23142.05
855.87	22951.59
856.04	22392.49
856.22	22941.35
856.39	22924.96
856.57	23228.06
856.74	22865.57
856.92	23244.45
857.09	22775.46
857.27	23111.33
857.44	23021.22
857.62	23103.14
857.79	23002.78
857.97	22906.53
858.14	22722.21
858.32	22568.62
858.49	22812.32
858.67	22623.91
858.84	22695.59
859.02	22662.82
859.19	22527.66
859.37	22415.02
859.54	22441.64
859.72	22443.69
859.89	22535.85
860.06	22326.96
860.24	22544.04
860.41	22251.18
860.59	22165.17
860.76	22267.56
860.94	22003.38
861.11	22142.64
861.29	21933.75
861.46	22261.42
861.64	21984.94
861.81	22120.11
861.98	21829.30
862.16	22044.34
862.33	21909.17
862.51	21884.59
862.68	22025.90
862.86	21835.44
863.03	21962.42
863.21	21735.09
863.38	21647.03
863.55	21872.31
863.73	21589.69
863.90	21640.89
864.08	21681.85
864.25	21839.54
864.43	21823.16
864.60	21819.06
864.77	21638.84
864.95	21434.04
865.12	21335.74
865.30	21534.39
865.47	21593.78
865.64	21290.68
865.82	21378.75
865.99	21352.12
866.17	21204.67
866.34	21227.20
866.51	20555.46
866.69	21292.73
866.86	21192.38
867.04	21229.24
867.21	21202.62
867.38	21061.31
867.56	20938.43
867.73	20991.68
867.91	20637.38
868.08	21030.59
868.25	20694.72
868.43	20532.93
868.60	20872.90
868.78	20426.44
868.95	20856.51
869.12	20735.68
869.30	20602.57
869.47	20479.69
869.64	20465.35
869.82	20801.22
869.99	20424.39
870.16	20582.09
870.34	20356.81
870.51	20502.22
870.69	20014.80
870.86	20369.10
871.03	19988.18
871.21	20016.85
871.38	19977.94
871.55	20004.56
871.73	20033.23
871.90	19707.60
872.07	19801.81
872.25	19658.45
872.42	19891.92
872.59	19799.76
872.77	19656.40
872.94	19437.27
873.11	19668.69
873.29	19787.47
873.46	19750.61
873.63	19406.55
873.81	19517.14
873.98	19408.60
874.15	19308.25
874.33	19381.98
874.50	19255.00
874.67	19283.67
874.85	19052.25
875.02	18962.14
875.19	19013.34
875.37	19029.73
875.54	18976.48
875.71	19191.52
875.88	18869.98
876.06	18872.03
876.23	18974.43
876.40	18896.61
876.58	18712.29
876.75	18996.96
876.92	18820.83
877.10	18759.39
877.27	18505.45
877.44	18370.28
877.61	18464.49
877.79	18538.21
877.96	18403.05
878.13	18497.25
878.31	18298.60
878.48	18335.46
878.65	18233.07
878.82	18130.67
879.00	18409.19
879.17	18171.63
879.34	18112.24
879.51	18063.08
879.69	18110.19
879.86	17889.01
880.03	18040.56
880.21	17622.77
880.38	18073.32
880.55	18024.17
880.72	17686.26
880.90	18091.76
881.07	17678.07
881.24	17878.77
881.41	17805.04
881.59	17587.96
881.76	17901.29
881.93	17510.13
882.10	17614.58
882.28	17608.44
882.45	17796.85
882.62	17426.17
882.79	17284.86
882.96	17147.64
883.14	17612.53
883.31	17325.82
883.48	17338.10
883.65	17364.73
883.83	17512.18
884.00	17264.38
884.17	17161.98
884.34	17389.30
884.51	17415.93
884.69	17096.44
884.86	17256.18
885.03	17264.38
885.20	17047.29
885.38	17174.27
885.55	16951.04
885.72	16889.60
885.89	17075.96
886.06	17094.40
886.24	16979.71
886.41	16844.54
886.58	16981.76
886.75	17047.29
886.92	16699.14
887.10	16727.81
887.27	16860.93
887.44	16852.73
887.61	16846.59
887.78	16797.44
887.95	16484.10
888.13	16484.10
888.30	16629.51
888.47	16467.72
888.64	16375.56
888.81	16736.00
888.99	16520.96
889.16	16037.64
889.33	16224.01
889.50	16398.09
889.67	16510.72
889.84	16015.12
890.01	16283.40
890.19	16348.93
890.36	16264.97
890.53	16025.36
890.70	15791.89
890.87	15945.48
891.04	15863.57
891.22	16084.75
891.39	16146.19
891.56	15892.24
891.73	15982.35
891.90	15773.46
892.07	15582.99
892.24	15781.65
892.42	15800.08
892.59	15902.48
892.76	15611.67
892.93	15544.08
893.10	15755.02
893.27	15648.53
893.44	15548.18
893.61	15666.96
893.79	15691.54
893.96	15795.98
894.13	15427.35
894.30	15691.54
894.47	15333.14
894.64	15619.86
894.81	15492.88
894.98	15390.49
895.15	15566.61
895.33	15447.83
895.50	15523.60
895.67	15447.83
895.84	15384.34
896.01	15273.75
896.18	15245.08
896.35	15613.71
896.52	15261.46
896.69	15408.92
896.86	15331.09
897.04	15331.09
897.21	15431.44
897.38	15353.62
897.55	15105.82
897.72	15408.92
897.89	15202.07
898.06	15263.51
898.23	15259.42
898.40	15310.61
898.57	15114.01
898.74	15148.82
898.91	15189.78
899.08	15390.49
899.26	15390.49
899.43	15372.05
899.60	15099.67
899.77	15335.19
899.94	14987.04
900.11	15015.71
900.28	15206.17
900.45	15056.67
900.62	14692.13
900.79	14980.89
900.96	15001.37
901.13	15042.33
901.30	14946.08
901.47	14968.60
901.64	15238.94
901.81	15126.30
901.98	14896.92
902.15	15134.49
902.32	15181.59
902.49	15050.52
902.66	15142.68
902.83	14929.69
903.01	15142.68
903.18	15025.95
903.35	15396.63
903.52	14839.58
903.69	14819.10
903.86	15034.14
904.03	15050.52
904.20	15111.96
904.37	15167.26
904.54	15007.52
904.71	14884.64
904.88	15157.02
905.05	14898.97
905.22	15071.00
905.39	14948.12
905.56	14896.92
905.73	14894.88
905.90	14847.77
906.07	14884.64
906.24	15050.52
906.41	14915.36
906.58	14841.63
906.75	14673.70
906.92	14946.08
907.09	14913.31
907.26	14796.57
907.43	14616.35
907.60	14714.66
907.77	15077.15
907.93	14829.34
908.10	15107.87
908.27	14890.78
908.44	14677.79
908.61	14817.05
908.78	14825.25
908.95	14853.92
909.12	14911.26
909.29	14880.54
909.46	14788.38
909.63	14792.48
909.80	14669.60
909.97	14630.69
910.14	14810.91
910.31	14761.76
910.48	14524.19
910.65	14796.57
910.82	14581.54
910.99	14561.06
911.16	14688.03
911.33	14460.71
911.50	14649.12
911.66	14550.82
911.83	14604.07
912.00	14632.74
912.17	14311.21
912.34	14556.96
912.51	14296.87
912.68	14366.50
912.85	14450.47
913.02	14612.26
913.19	14313.25
913.36	14391.08
913.53	14278.44
913.70	14243.62
913.86	14407.46
914.03	14235.43
914.20	14178.09
914.37	14198.57
914.54	14106.41
914.71	14128.94
914.88	14159.66
915.05	14008.11
915.22	13893.42
915.39	13852.46
915.55	13858.60
915.72	14032.68
915.89	13791.02
916.06	13750.06
916.23	13952.81
916.40	13862.70
916.57	13760.30
916.74	13629.23
916.91	13492.02
917.07	13641.52
917.24	13698.86
917.41	13633.33
917.58	13578.03
917.75	13688.62
917.92	13455.15
918.09	13162.30
918.26	13414.20
918.42	13492.02
918.59	13422.39
918.76	13393.72
918.93	13041.46
919.10	13190.97
919.27	13225.78
919.44	13342.52
919.60	13066.04
919.77	13363.00
919.94	13133.62
920.11	12910.40
920.28	13051.70
920.45	13027.13
920.61	12965.69
920.78	12951.35
920.95	12934.97
921.12	12689.21
921.29	12656.45
921.46	12781.37
921.62	12607.30
921.79	12625.73
921.96	12685.12
922.13	12580.67
922.30	12433.22
922.47	12519.23
922.63	12418.88
922.80	12322.63
922.97	12240.71
923.14	12144.45
923.31	12220.23
923.47	12117.83
923.64	12400.45
923.81	12040.01
923.98	12230.47
924.15	11915.08
924.32	12119.88
924.48	11857.74
924.65	12185.41
924.82	11845.45
924.99	11870.03
925.15	11761.48
925.32	11687.76
925.49	11640.65
925.66	11642.70
925.83	11579.22
925.99	11487.06
926.16	11482.96
926.33	11429.71
926.50	11474.77
926.67	11599.70
926.83	11448.15
927.00	11437.91
927.17	11116.37
927.34	11347.79
927.50	11304.79
927.67	11312.98
927.84	11167.57
928.01	11153.24
928.17	11011.93
928.34	11120.47
928.51	10891.10
928.68	10997.59
928.84	10930.01
929.01	10819.42
929.18	10575.71
929.35	10604.38
929.51	10692.44
929.68	10538.85
929.85	10504.03
930.02	10637.15
930.18	10674.01
930.35	10575.71
930.52	10633.05
930.69	10508.13
930.85	10280.80
931.02	10235.75
931.19	10319.71
931.36	9975.66
931.52	10174.31
931.69	10428.26
931.86	10020.71
932.02	10059.62
932.19	10123.11
932.36	9910.12
932.53	10002.28
932.69	9934.70
932.86	9879.40
933.03	9867.11
933.19	9604.97
933.36	9721.71
933.53	9850.73
933.70	9654.12
933.86	9518.96
934.03	9537.39
934.20	9289.59
934.36	9637.74
934.53	9092.98
934.70	9166.71
934.86	9170.80
935.03	9021.30
935.20	9217.91
935.36	8976.25
935.53	8812.41
935.70	8920.95
935.86	8920.95
936.03	8763.26
936.20	8662.91
936.36	8683.39
936.53	8554.37
936.70	8413.06
936.86	8593.28
937.03	8339.33
937.20	8179.59
937.36	8200.07
937.53	7847.82
937.70	7999.37
937.86	7929.74
938.03	7833.48
938.20	7976.84
938.36	7718.79
938.53	7546.76
938.70	7348.11
938.86	7481.23
939.03	7323.54
939.20	7255.95
939.36	7128.98
939.53	7114.64
939.70	7235.47
939.86	7030.68
940.03	6858.65
940.19	6985.62
940.36	6901.65
940.53	6807.45
940.69	6610.84
940.86	6743.96
941.03	6578.08
941.19	6311.84
941.36	6416.29
941.52	6449.05
941.69	6166.43
941.86	6129.57
942.02	6262.69
942.19	6184.87
942.35	6115.23
942.52	5889.96
942.69	5916.58
942.85	5939.11
943.02	5943.21
943.18	5975.97
943.35	5943.21
943.52	5748.65
943.68	5771.18
943.85	5590.95
944.01	5607.34
944.18	5619.63
944.35	5697.45
944.51	5656.49
944.68	5431.21
944.84	5625.77
945.01	5500.84
945.17	5480.36
945.34	5576.62
945.51	5619.63
945.67	5523.37
945.84	5400.49
946.00	5287.86
946.17	5343.15
946.33	5384.11
946.50	5371.82
946.67	5214.13
946.83	5365.68
947.00	5396.40
947.16	5257.14
947.33	5246.90
947.49	5300.14
947.66	5302.19
947.82	5470.12
947.99	5222.32
948.16	5355.44
948.32	5347.25
948.49	5390.25
948.65	5334.96
948.82	5441.45
948.98	5377.97
949.15	5158.83
949.31	5435.31
949.48	5408.69
949.64	5240.75
949.81	5412.78
949.97	5162.93
950.14	5353.39
950.30	5312.43
950.47	5384.11
950.63	5367.73
950.80	5400.49
950.96	5470.12
951.13	5308.34
951.30	5443.50
951.46	5435.31
951.63	5451.69
951.79	5494.70
951.96	5425.07
952.12	5496.75
952.29	5509.04
952.45	5564.33
952.62	5410.73
952.78	5390.25
952.94	5382.06
953.11	5457.84
953.27	5408.69
953.44	5515.18
953.60	5574.57
953.77	5527.47
953.93	5461.93
954.10	5607.34
954.26	5431.21
954.43	5504.94
954.59	5562.28
954.76	5572.52
954.92	5543.85
955.09	5451.69
955.25	5451.69
955.42	5476.27
955.58	5611.43
955.75	5515.18
955.91	5484.46
956.07	5715.88
956.24	5437.36
956.40	5527.47
956.57	5724.07
956.73	5480.36
956.90	5613.48
957.06	5689.26
957.23	5509.04
957.39	5576.62
957.56	5613.48
957.72	5447.60
957.88	5488.56
958.05	5633.96
958.21	5734.31
958.38	5705.64
958.54	5547.95
958.71	5711.78
958.87	5517.23
959.03	5545.90
959.20	5691.31
959.36	5638.06
959.53	5515.18
959.69	5545.90
959.85	5593.00
960.02	5545.90
960.18	5500.84
960.35	5453.74
960.51	5625.77
960.68	5541.80
960.84	5613.48
961.00	5629.87
961.17	5543.85
961.33	5486.51
961.50	5654.44
961.66	5734.31
961.82	5642.15
961.99	5504.94
962.15	5597.10
962.31	5599.15
962.48	5556.14
962.64	5609.39
962.81	5574.57
962.97	5468.08
963.13	5490.60
963.30	5570.48
963.46	5359.53
963.62	5517.23
963.79	5457.84
963.95	5509.04
964.12	5369.77
964.28	5443.50
964.44	5433.26
964.61	5373.87
964.77	5574.57
964.93	5453.74
965.10	5562.28
965.26	5304.24
965.42	5414.83
965.59	5515.18
965.75	5447.60
965.92	5468.08
966.08	5482.41
966.24	5414.83
966.41	5263.28
966.57	5377.97
966.73	5398.45
966.90	5504.94
967.06	5361.58
967.22	5314.48
967.39	5257.14
967.55	5328.81
967.71	5234.61
967.88	5287.86
968.04	5361.58
968.20	5318.57
968.37	5369.77
968.53	5222.32
968.69	5267.38
968.85	5410.73
969.02	5326.77
969.18	5332.91
969.34	5375.92
969.51	5234.61
969.67	5255.09
969.83	5152.69
970.00	5238.70
970.16	5212.08
970.32	5410.73
970.48	5322.67
970.65	5142.45
970.81	5117.87
970.97	5148.59
971.14	5066.67
971.30	5328.81
971.46	5136.31
971.63	5103.54
971.79	5140.40
971.95	5173.17
972.11	5093.30
972.28	5162.93
972.44	4976.56
972.60	4954.04
972.76	5191.60
972.93	4992.95
973.09	5021.62
973.25	5089.20
973.42	5081.01
973.58	5097.39
973.74	5105.59
973.90	5263.28
974.07	4988.85
974.23	4992.95
974.39	4962.23
974.55	4954.04
974.72	4784.06
974.88	4843.45
975.04	5064.63
975.20	5040.05
975.37	5054.39
975.53	4876.21
975.69	4962.23
975.85	4833.21
976.01	4812.73
976.18	4796.34
976.34	4894.65
976.50	4896.69
976.66	5070.77
976.83	4929.46
976.99	4820.92
977.15	4888.50
977.31	4739.00
977.47	4888.50
977.64	4958.13
977.80	4732.86
977.96	4880.31
978.12	4792.25
978.29	4790.20
978.45	4605.88
978.61	4681.66
978.77	4779.96
978.93	4763.58
979.10	4585.40
979.26	4685.75
979.42	4573.11
979.58	4526.01
979.74	4538.30
979.91	4603.83
980.07	4716.47
980.23	4605.88
980.39	4515.77
980.55	4614.07
980.71	4523.96
980.88	4634.55
981.04	4589.50
981.20	4511.68
981.36	4544.44
981.52	4505.53
981.68	4483.00
981.85	4407.23
982.01	4462.52
982.17	4476.86
982.33	4345.79
982.49	4620.22
982.65	4458.43
982.82	4253.63
982.98	4476.86
983.14	4353.98
983.30	4380.61
983.46	4448.19
983.62	4483.00
983.79	4315.07
983.95	4284.35
984.11	4241.34
984.27	4351.93
984.43	4263.87
984.59	4337.60
984.75	4317.12
984.91	4321.21
985.08	4286.40
985.24	4165.57
985.40	4220.86
985.56	4241.34
985.72	4323.26
985.88	4276.16
986.04	4165.57
986.20	4224.96
986.37	4171.71
986.53	4163.52
986.69	4173.76
986.85	3968.96
987.01	4057.03
987.17	4190.14
987.33	4151.23
987.49	4106.18
987.65	4118.47
987.82	4034.50
987.98	4077.51
988.14	4083.65
988.30	4065.22
988.46	3919.81
988.62	4018.11
988.78	4005.83
988.94	3915.72
989.10	3903.43
989.26	3893.19
989.42	3946.44
989.59	3874.76
989.75	3891.14
989.91	3882.95
990.07	3934.15
990.23	3803.08
990.39	3821.51
990.55	3940.29
990.71	3893.19
990.87	3950.53
991.03	3841.99
991.19	3782.60
991.35	3897.28
991.51	3905.48
991.67	3866.56
991.83	3844.04
992.00	3772.36
992.16	3921.86
992.32	3739.59
992.48	3809.22
992.64	3698.63
992.80	3633.10
992.96	3694.54
993.12	3813.32
993.28	3733.45
993.44	3721.16
993.60	3792.84
993.76	3741.64
993.92	3778.50
994.08	3788.74
994.24	3659.72
994.40	3698.63
994.56	3684.30
994.72	3667.91
994.88	3592.14
995.04	3698.63
995.20	3604.42
995.36	3526.60
995.52	3596.23
995.68	3467.21
995.84	3432.40
996.00	3674.06
996.16	3538.89
996.32	3506.12
996.48	3469.26
996.64	3620.81
996.80	3614.66
996.96	3575.75
997.12	3542.99
997.28	3471.31
997.44	3497.93
997.60	3426.25
997.76	3493.83
997.92	3405.77
998.08	3473.36
998.24	3389.39
998.40	3471.31
998.56	3436.49
998.72	3344.33
998.88	3252.17
999.04	3305.42
999.20	3473.36
999.36	3260.37
999.52	3643.34
999.68	3381.20
999.84	3432.40
1000.00	3379.15
1000.16	3395.53
1000.32	3313.61
1000.48	3334.09
1000.64	3301.33
1000.80	3231.69
1000.95	3223.50
1001.11	3301.33
1001.27	3149.78
1001.43	3235.79
1001.59	3194.83
1001.75	3172.30
1001.91	3227.60
1002.07	3170.26
1002.23	3221.45
1002.39	3141.58
1002.55	3188.69
1002.71	3186.64
1002.87	3127.25
1003.03	3166.16
1003.19	3108.82
1003.34	3196.88
1003.50	3207.12
1003.66	3149.78
1003.82	3080.14
1003.98	3233.74
1004.14	3160.02
1004.30	3026.90
1004.46	3080.14
1004.62	3043.28
1004.78	2983.89
1004.94	3110.86
1005.09	3061.71
1005.25	3106.77
1005.41	3049.43
1005.57	3026.90
1005.73	2928.60
1005.89	2926.55
1006.05	3063.76
1006.21	3059.67
1006.37	2879.44
1006.52	2944.98
1006.68	2973.65
1006.84	3014.61
1007.00	2906.07
1007.16	3022.80
1007.32	2852.82
1007.48	2992.08
1007.64	2938.84
1007.79	2891.73
1007.95	2861.01
1008.11	2965.46
1008.27	2842.58
1008.43	2904.02
1008.59	2854.87
1008.75	2934.74
1008.91	2871.25
1009.06	2838.48
1009.22	2926.55
1009.38	2858.96
1009.54	2836.44
1009.70	2840.53
1009.86	2895.83
1010.01	2748.37
1010.17	2711.51
1010.33	2809.81
1010.49	2834.39
1010.65	2918.36
1010.81	2779.09
1010.96	2863.06
1011.12	2787.29
1011.28	2641.88
1011.44	2818.00
1011.60	2607.06
1011.76	2648.02
1011.91	2731.99
1012.07	2631.64
1012.23	2578.39
1012.39	2594.78
1012.55	2631.64
1012.71	2678.74
1012.86	2674.65
1013.02	2658.26
1013.18	2584.54
1013.34	2670.55
1013.50	2742.23
1013.65	2588.63
1013.81	2605.02
1013.97	2559.96
1014.13	2656.22
1014.29	2557.91
1014.44	2678.74
1014.60	2551.77
1014.76	2658.26
1014.92	2619.35
1015.07	2559.96
1015.23	2559.96
1015.39	2516.95
1015.55	2445.27
1015.71	2514.91
1015.86	2539.48
1016.02	2467.80
1016.18	2484.19
1016.34	2537.43
1016.49	2488.28
1016.65	2576.34
1016.81	2619.35
1016.97	2500.57
1017.12	2537.43
1017.28	2426.84
1017.44	2435.03
1017.60	2564.06
1017.75	2435.03
1017.91	2457.56
1018.07	2506.71
1018.23	2492.38
1018.38	2432.99
1018.54	2453.47
1018.70	2408.41
1018.86	2406.36
1019.01	2465.75
1019.17	2369.50
1019.33	2406.36
1019.49	2379.74
1019.64	2326.49
1019.80	2469.85
1019.96	2467.80
1020.12	2357.21
1020.27	2336.73
1020.43	2383.84
1020.59	2471.90
1020.74	2402.27
1020.90	2519.00
1021.06	2351.07
1021.22	2324.44
1021.37	2385.88
1021.53	2344.92
1021.69	2359.26
1021.84	2287.58
1022.00	2387.93
1022.16	2295.77
1022.31	2246.62
1022.47	2398.17
1022.63	2301.92
1022.79	2170.85
1022.94	2256.86
1023.10	2359.26
1023.26	2224.09
1023.41	2260.96
1023.57	2248.67
1023.73	2291.68
1023.88	2285.53
1024.04	2228.19
1024.20	2230.24
1024.35	2207.71
1024.51	2324.44
1024.67	2168.80
1024.82	2303.96
1024.98	2156.51
1025.14	2133.98
1025.29	2113.50
1025.45	2291.68
1025.61	2160.61
1025.76	2158.56
1025.92	2193.37
1026.08	2248.67
1026.23	2201.57
1026.39	2254.81
1026.55	2187.23
1026.70	2199.52
1026.86	2162.66
1027.02	2263.01
1027.17	2232.29
1027.33	2189.28
1027.48	2164.70
1027.64	2144.22
1027.80	2146.27
1027.95	2160.61
1028.11	1996.77
1028.27	2220.00
1028.42	2154.46
1028.58	2060.26
1028.73	2060.26
1028.89	2056.16
1029.05	2203.61
1029.20	2117.60
>>>>>End Processed Spectral Data<<<<<
