SpectraSuite Data File
++++++++++++++++++++++++++++++++++++
Date: Fri Jun 02 14:44:35 CEST 2017
User: INFO_000
Dark Spectrum Present: No
Reference Spectrum Present: No
Number of Sampled Component Spectra: 1
Spectrometers: USB4H00879
Integration Time (usec): 80000 (USB4H00879)
Spectra Averaged: 1 (USB4H00879)
Boxcar Smoothing: 0 (USB4H00879)
Correct for Electrical Dark: No (USB4H00879)
Strobe/Lamp Enabled: No (USB4H00879)
Correct for Detector Non-linearity: No (USB4H00879)
Correct for Stray Light: No (USB4H00879)
Number of Pixels in Processed Spectrum: 3648
>>>>>Begin Processed Spectral Data<<<<<
345.13	1314.80
345.34	1314.80
345.56	1314.80
345.78	1226.73
345.99	1312.75
346.21	1716.20
346.42	1720.29
346.64	1665.00
346.86	1839.08
347.07	1708.01
347.29	1669.09
347.50	1552.36
347.72	1619.94
347.94	1724.39
348.15	1626.09
348.37	1554.41
348.59	1591.27
348.80	1683.43
349.02	1736.68
349.23	1849.32
349.45	1820.64
349.67	1871.84
349.88	1808.36
350.10	2013.15
350.31	1843.17
350.53	1791.97
350.75	1943.52
350.96	1751.01
351.18	1822.69
351.39	1830.88
351.61	1785.83
351.82	1918.95
352.04	1906.66
352.26	1871.84
352.47	1888.23
352.69	1953.76
352.90	1808.36
353.12	1910.75
353.34	1830.88
353.55	1898.47
353.77	1863.65
353.98	1880.04
354.20	1906.66
354.41	1884.13
354.63	1937.38
354.85	2072.54
355.06	1951.71
355.28	1787.88
355.49	1986.53
355.71	1880.04
355.92	1863.65
356.14	1896.42
356.35	1832.93
356.57	1857.51
356.79	1918.95
357.00	1904.61
357.22	1996.77
357.43	1890.28
357.65	1990.63
357.86	1888.23
358.08	1861.60
358.29	1904.61
358.51	2052.06
358.72	2023.39
358.94	1912.80
359.16	1920.99
359.37	1916.90
359.59	1974.24
359.80	1920.99
360.02	1888.23
360.23	1947.62
360.45	2041.82
360.66	1916.90
360.88	1863.65
361.09	1941.47
361.31	1939.43
361.52	2025.44
361.74	2060.26
361.95	2060.26
362.17	1916.90
362.38	2070.50
362.60	2043.87
362.81	1976.29
363.03	1859.56
363.24	1986.53
363.46	2054.11
363.67	2052.06
363.89	1976.29
364.10	1996.77
364.32	2023.39
364.53	1978.34
364.75	1994.72
364.96	2056.16
365.18	2041.82
365.39	1929.19
365.61	1929.19
365.82	2121.70
366.04	2031.58
366.25	1978.34
366.47	1951.71
366.68	2023.39
366.90	2056.16
367.11	2052.06
367.33	2129.89
367.54	2062.30
367.76	2045.92
367.97	2084.83
368.19	1986.53
368.40	2060.26
368.62	1941.47
368.83	1968.10
369.05	2056.16
369.26	1937.38
369.48	1961.95
369.69	1961.95
369.91	2109.41
370.12	2058.21
370.33	2076.64
370.55	1968.10
370.76	2027.49
370.98	2176.99
371.19	2050.02
371.41	2117.60
371.62	2095.07
371.84	2109.41
372.05	2191.33
372.27	2168.80
372.48	2060.26
372.69	2152.42
372.91	2166.75
373.12	2113.50
373.34	2078.69
373.55	2111.46
373.77	2109.41
373.98	2136.03
374.20	2144.22
374.41	2281.44
374.62	2170.85
374.84	2133.98
375.05	2166.75
375.27	2121.70
375.48	2101.22
375.70	2181.09
375.91	2127.84
376.12	2248.67
376.34	2168.80
376.55	2164.70
376.77	2191.33
376.98	2111.46
377.19	2154.46
377.41	2211.81
377.62	2164.70
377.84	2146.27
378.05	2353.12
378.27	2174.94
378.48	2404.32
378.69	2314.20
378.91	2326.49
379.12	2250.72
379.34	2224.09
379.55	2289.63
379.76	2346.97
379.98	2224.09
380.19	2256.86
380.41	2220.00
380.62	2289.63
380.83	2150.37
381.05	2248.67
381.26	2512.86
381.47	2240.48
381.69	2279.39
381.90	2435.03
382.12	2273.25
382.33	2320.35
382.54	2312.16
382.76	2318.30
382.97	2416.60
383.19	2256.86
383.40	2432.99
383.61	2361.31
383.83	2285.53
384.04	2342.88
384.25	2426.84
384.47	2353.12
384.68	2396.12
384.89	2320.35
385.11	2320.35
385.32	2289.63
385.54	2363.36
385.75	2402.27
385.96	2445.27
386.18	2392.03
386.39	2426.84
386.60	2361.31
386.82	2478.04
387.03	2404.32
387.24	2525.15
387.46	2467.80
387.67	2494.43
387.88	2469.85
388.10	2467.80
388.31	2471.90
388.52	2463.71
388.74	2543.58
388.95	2478.04
389.16	2531.29
389.38	2459.61
389.59	2621.40
389.80	2742.23
390.02	2600.92
390.23	2564.06
390.44	2568.15
390.66	2549.72
390.87	2519.00
391.08	2615.26
391.30	2738.13
391.51	2635.74
391.72	2705.37
391.94	2684.89
392.15	2672.60
392.36	2596.82
392.58	2580.44
392.79	2658.26
393.00	2625.50
393.22	2729.94
393.43	2736.09
393.64	2754.52
393.85	2809.81
394.07	2682.84
394.28	2805.72
394.49	2822.10
394.71	2809.81
394.92	2912.21
395.13	2648.02
395.35	2783.19
395.56	2756.57
395.77	2740.18
395.98	2779.09
396.20	2891.73
396.41	2822.10
396.62	2910.16
396.84	2795.48
397.05	2777.05
397.26	2904.02
397.47	2947.03
397.69	2947.03
397.90	3063.76
398.11	2961.36
398.32	2832.34
398.54	2850.77
398.75	2920.40
398.96	2885.59
399.18	3084.24
399.39	3016.66
399.60	3016.66
399.81	3043.28
400.03	3002.32
400.24	3237.84
400.45	2926.55
400.66	3010.51
400.88	2961.36
401.09	3164.11
401.30	3086.29
401.51	3157.97
401.73	3043.28
401.94	3131.34
402.15	3108.82
402.36	3149.78
402.58	3125.20
402.79	3170.26
403.00	3299.28
403.21	3215.31
403.43	3289.04
403.64	3262.41
403.85	3139.54
404.06	3192.78
404.27	3047.38
404.49	3209.17
404.70	3219.41
404.91	3221.45
405.12	3153.87
405.34	3219.41
405.55	3456.97
405.76	3147.73
405.97	3223.50
406.19	3332.05
406.40	3254.22
406.61	3311.57
406.82	3334.09
407.03	3364.81
407.25	3241.93
407.46	3342.28
407.67	3454.92
407.88	3475.40
408.09	3354.57
408.31	3385.29
408.52	3381.20
408.73	3375.05
408.94	3393.48
409.15	3401.68
409.37	3538.89
409.58	3520.46
409.79	3401.68
410.00	3575.75
410.21	3456.97
410.43	3465.16
410.64	3389.39
410.85	3563.47
411.06	3547.08
411.27	3551.18
411.48	3573.71
411.70	3483.59
411.91	3663.82
412.12	3743.69
412.33	3774.41
412.54	3672.01
412.76	3809.22
412.97	3688.39
413.18	3637.19
413.39	3682.25
413.60	3780.55
413.81	3676.10
414.03	3696.58
414.24	3663.82
414.45	3911.62
414.66	3680.20
414.87	3717.06
415.08	3792.84
415.30	3809.22
415.51	3841.99
415.72	3751.88
415.93	3829.70
416.14	3903.43
416.35	3811.27
416.56	3940.29
416.78	4009.92
416.99	3792.84
417.20	3796.93
417.41	3895.24
417.62	3995.59
417.83	3973.06
418.04	3915.72
418.26	4040.64
418.47	3882.95
418.68	3991.49
418.89	3995.59
419.10	4224.96
419.31	4011.97
419.52	4059.07
419.73	4091.84
419.95	4190.14
420.16	4030.40
420.37	4104.13
420.58	4179.90
420.79	3934.15
421.00	4145.09
421.21	4143.04
421.42	4143.04
421.63	4272.06
421.85	4198.34
422.06	4229.06
422.27	4175.81
422.48	4227.01
422.69	4341.69
422.90	4329.41
423.11	4317.12
423.32	4370.37
423.53	4394.94
423.75	4286.40
423.96	4433.85
424.17	4401.08
424.38	4485.05
424.59	4345.79
424.80	4466.62
425.01	4431.80
425.22	4476.86
425.43	4315.07
425.64	4659.13
425.85	4663.22
426.06	4581.31
426.28	4597.69
426.49	4442.04
426.70	4569.02
426.91	4585.40
427.12	4816.82
427.33	4671.42
427.54	4702.14
427.75	4749.24
427.96	4790.20
428.17	4704.18
428.38	4851.64
428.59	4861.88
428.80	4765.62
429.01	4906.93
429.23	4833.21
429.44	5001.14
429.65	4859.83
429.86	5029.81
430.07	4779.96
430.28	4810.68
430.49	4962.23
430.70	5091.25
430.91	5179.31
431.12	5136.31
431.33	5167.03
431.54	5271.47
431.75	5320.62
431.96	5138.35
432.17	5111.73
432.38	5128.11
432.59	5386.16
432.80	5212.08
433.01	5267.38
433.22	5279.66
433.43	5255.09
433.64	5232.56
433.85	5273.52
434.06	5425.07
434.27	5195.70
434.49	5408.69
434.70	5500.84
434.91	5439.40
435.12	5414.83
435.33	5445.55
435.54	5441.45
435.75	5279.66
435.96	5349.29
436.17	5480.36
436.38	5646.25
436.59	5611.43
436.80	5504.94
437.01	5861.29
437.22	5803.94
437.43	5615.53
437.64	5429.17
437.85	5832.62
438.06	5904.29
438.27	5832.62
438.48	5799.85
438.69	5879.72
438.90	5840.81
439.11	5748.65
439.32	5910.44
439.53	5855.14
439.74	6008.74
439.95	5859.24
440.16	6045.60
440.37	6027.17
440.57	5867.43
440.78	6066.08
440.99	6084.52
441.20	6086.56
441.41	5928.87
441.62	6047.65
441.83	6018.98
442.04	6311.84
442.25	6207.39
442.46	6223.78
442.67	6176.67
442.88	6576.03
443.09	6135.71
443.30	6131.62
443.51	6264.74
443.72	6457.25
443.93	6061.99
444.14	6576.03
444.35	6293.41
444.56	6492.06
444.77	6373.28
444.98	6336.42
445.19	6535.07
445.40	6543.26
445.61	6383.52
445.81	6674.33
446.02	6680.47
446.23	6610.84
446.44	6387.61
446.65	6711.19
446.86	6655.90
447.07	6717.34
447.28	6838.17
447.49	6954.90
447.70	6684.57
447.91	6864.79
448.12	6690.71
448.33	6860.70
448.54	6907.80
448.74	6801.30
448.95	6809.50
449.16	6932.37
449.37	6961.05
449.58	6784.92
449.79	7217.04
450.00	6954.90
450.21	7036.82
450.42	7075.73
450.63	7188.37
450.84	7042.96
451.05	7061.40
451.25	7088.02
451.46	7055.25
451.67	7309.20
451.88	7305.10
452.09	7204.75
452.30	7200.66
452.51	7229.33
452.72	7384.98
452.93	7573.39
453.13	7333.78
453.34	7206.80
453.55	7184.27
453.76	7389.07
453.97	7671.69
454.18	7384.98
454.39	7681.93
454.60	7542.67
454.81	7636.88
455.01	7810.95
455.22	7450.51
455.43	7659.40
455.64	7712.65
455.85	7868.30
456.06	7896.97
456.27	7894.92
456.48	7763.85
456.68	7792.52
456.89	7892.87
457.10	7935.88
457.31	7905.16
457.52	8052.61
457.73	8130.44
457.94	8427.39
458.14	7892.87
458.35	8662.91
458.56	8052.61
458.77	7999.37
458.98	8347.52
459.19	8259.46
459.39	8429.44
459.60	8388.48
459.81	8124.29
460.02	8691.58
460.23	8470.40
460.44	8597.37
460.65	8658.81
460.85	8777.59
461.06	8933.24
461.27	8441.73
461.48	8742.78
461.69	9021.30
461.89	8697.72
462.10	8744.83
462.31	8648.57
462.52	8851.32
462.73	8877.94
462.94	9037.69
463.14	9115.51
463.35	8996.73
463.56	9494.38
463.77	9478.00
463.98	9248.63
464.18	9199.48
464.39	9588.59
464.60	9688.94
464.81	9690.99
465.02	9521.01
465.23	9873.26
465.43	9434.99
465.64	9809.77
465.85	9887.59
466.06	9727.85
466.27	10198.88
466.47	10182.50
466.68	9891.69
466.89	10186.60
467.10	10358.63
467.30	10080.10
467.51	10317.67
467.72	10504.03
467.93	10157.92
468.14	10309.47
468.34	10649.44
468.55	10618.72
468.76	10743.64
468.97	10442.59
469.17	10925.91
469.38	10893.15
469.59	10999.64
469.80	11007.83
470.01	11022.17
470.21	11136.85
470.42	11218.77
470.63	11511.63
470.84	11136.85
471.04	11431.76
471.25	11446.10
471.46	11501.39
471.67	11816.78
471.87	11765.58
472.08	11763.53
472.29	11800.40
472.50	11712.33
472.70	12062.54
472.91	11898.70
473.12	12013.38
473.33	12296.00
473.53	12300.10
473.74	12316.48
473.95	12470.08
474.16	12664.64
474.36	12459.84
474.57	12711.74
474.78	12773.18
474.99	12754.75
475.19	12812.09
475.40	12990.27
475.61	13184.82
475.81	13119.29
476.02	13637.42
476.23	13451.06
476.44	13606.70
476.64	13684.53
476.85	13883.18
477.06	13477.68
477.27	13918.00
477.47	14077.74
477.68	14219.05
477.89	14163.75
478.09	14133.03
478.30	14337.83
478.51	14305.06
478.71	14632.74
478.92	14565.15
479.13	14821.15
479.34	14884.64
479.54	14919.45
479.75	14929.69
479.96	14888.73
480.16	14907.16
480.37	15111.96
480.58	15232.79
480.78	15566.61
480.99	15413.01
481.20	15449.88
481.41	15556.37
481.61	15734.54
481.82	15976.20
482.03	16017.16
482.23	15918.86
482.44	16203.53
482.65	16273.16
482.85	16340.74
483.06	16338.69
483.27	16432.90
483.47	16367.37
483.68	16518.92
483.89	17000.19
484.09	16598.79
484.30	16869.12
484.51	17014.52
484.71	16905.98
484.92	16879.36
485.13	17225.47
485.33	17233.66
485.54	17082.11
485.75	17622.77
485.95	17762.03
486.16	17352.44
486.37	17512.18
486.57	17692.40
486.78	17628.92
486.98	17633.01
487.19	18050.80
487.40	18175.72
487.60	17923.82
487.81	18421.48
488.02	18157.29
488.22	18280.17
488.43	18421.48
488.64	18585.32
488.84	18353.90
489.05	18716.39
489.25	18724.58
489.46	19103.45
489.67	18841.31
489.87	18953.95
490.08	19109.60
490.29	19156.70
490.49	19338.97
490.70	19504.85
490.90	19590.87
491.11	19422.94
491.32	19476.18
491.52	20012.75
491.73	19855.06
491.94	19760.85
492.14	19773.14
492.35	20029.13
492.55	19975.89
492.76	20307.66
492.97	20346.57
493.17	20037.33
493.38	20606.66
493.58	20786.88
493.79	20772.55
494.00	20737.73
494.20	21153.47
494.41	21141.18
494.61	21202.62
494.82	21063.36
495.02	21225.15
495.23	21374.65
495.44	21247.68
495.64	21534.39
495.85	21343.93
496.05	21690.04
496.26	21264.06
496.47	21817.01
496.67	21241.53
496.88	21894.83
497.08	21728.95
497.29	22263.47
497.49	21880.50
497.70	22292.14
497.91	22267.56
498.11	22505.13
498.32	22271.66
498.52	22679.21
498.73	22879.91
498.93	22701.73
499.14	22945.44
499.34	22873.76
499.55	23285.40
499.76	23002.78
499.96	22996.64
500.17	23060.13
500.37	23105.18
500.58	23600.79
500.78	23531.16
500.99	23479.96
501.19	23637.66
501.40	23754.39
501.60	23707.29
501.81	23824.02
502.02	23981.71
502.22	23871.12
502.43	23883.41
502.63	24229.52
502.84	24129.17
503.04	24229.52
503.25	24243.85
503.45	24366.73
503.66	24555.15
503.86	24620.68
504.07	25060.99
504.27	24530.57
504.48	25323.13
504.68	25194.11
504.89	25319.04
505.09	25179.78
505.30	25157.25
505.50	25130.62
505.71	25372.28
505.91	25527.93
506.12	25527.93
506.32	25577.08
506.53	25816.69
506.73	25577.08
506.94	26093.17
507.14	26033.78
507.35	25788.02
507.55	26138.23
507.76	26207.86
507.96	26170.99
508.17	26001.01
508.37	26285.68
508.58	26117.75
508.78	26586.73
508.99	26709.61
509.19	26605.16
509.40	26744.42
509.60	26609.26
509.81	26551.91
510.01	26842.73
510.22	26646.12
510.42	26961.51
510.63	26998.37
510.83	26758.76
511.04	27070.05
511.24	27141.73
511.44	27168.35
511.65	27160.16
511.85	27453.02
512.06	27213.41
512.26	27424.35
512.47	27864.66
512.67	27606.62
512.88	27424.35
513.08	27321.95
513.29	27627.10
513.49	27934.29
513.69	27668.06
513.90	28034.64
514.10	27715.16
514.31	28030.55
514.51	28513.87
514.72	28104.28
514.92	28352.08
515.13	28051.03
515.33	28282.45
515.53	28380.75
515.74	27948.63
515.94	28509.77
516.15	28823.11
516.35	28511.82
516.56	28546.64
516.76	28268.11
516.96	28909.13
517.17	28733.00
517.37	28919.37
517.58	28825.16
517.78	28892.74
517.99	29181.51
518.19	29120.07
518.39	29363.78
518.60	29314.62
518.80	29214.27
519.01	29421.12
519.21	29101.64
519.41	29546.05
519.62	29331.01
519.82	29806.14
520.03	29701.69
520.23	29679.16
520.43	29384.26
520.64	29937.21
520.84	29761.08
521.05	29652.54
521.25	29574.72
521.45	30584.37
521.66	30336.56
521.86	29924.92
522.07	30170.68
522.27	30334.51
522.47	30375.47
522.68	30635.56
522.88	30346.80
523.08	30598.70
523.29	30535.21
523.49	30539.31
523.70	30604.84
523.90	30965.29
524.10	30668.33
524.31	31104.55
524.51	30701.10
524.71	31002.15
524.92	30803.50
525.12	31233.57
525.33	31227.43
525.53	31444.51
525.73	31634.97
525.94	31391.26
526.14	31639.07
526.34	31581.73
526.55	31710.75
526.75	31647.26
526.95	31704.60
527.16	31786.52
527.36	31600.16
527.56	31956.50
527.77	32067.09
527.97	31946.26
528.17	32140.82
528.38	32308.76
528.58	32187.92
528.78	32128.53
528.99	32429.59
529.19	32871.95
529.39	32249.36
529.60	32630.29
529.80	32710.16
530.00	32366.10
530.21	33146.37
530.41	33142.28
530.61	32945.67
530.82	33146.37
531.02	33117.70
531.22	33148.42
531.43	33154.57
531.63	33445.38
531.83	33828.35
532.04	33859.07
532.24	33254.92
532.44	33834.49
532.64	33986.04
532.85	34125.30
533.05	33990.14
533.25	34164.21
533.46	33797.63
533.66	34283.00
533.86	34008.57
534.07	34698.73
534.27	34029.05
534.47	34612.72
534.67	34704.88
534.88	35030.51
535.08	34868.72
535.28	34989.55
535.49	35120.62
535.69	35458.53
535.89	34940.39
536.09	34960.87
536.30	35485.15
536.50	35530.21
536.70	35497.44
536.91	35376.61
537.11	35952.09
537.31	35669.47
537.51	36187.61
537.72	35911.13
537.92	35995.10
538.12	36330.97
538.32	36089.31
538.53	36599.25
538.73	35925.47
538.93	36244.95
539.13	36754.90
539.34	36369.88
539.54	36441.56
539.74	36971.98
539.94	37041.61
540.15	37166.54
540.35	37213.64
540.55	37567.94
540.75	37262.79
540.96	37602.75
541.16	37191.11
541.36	37422.53
541.56	37684.67
541.77	37541.32
541.97	37404.10
542.17	37950.91
542.37	37803.46
542.58	38192.57
542.78	37881.28
542.98	38098.36
543.18	38346.17
543.38	38696.37
543.59	38716.85
543.79	38270.39
543.99	38477.24
544.19	38806.96
544.40	38901.17
544.60	38856.11
544.80	39007.66
545.00	39214.51
545.20	39220.65
545.41	39376.30
545.61	39108.01
545.81	39628.20
546.01	39615.91
546.21	39232.94
546.42	39146.92
546.62	39990.69
546.82	39427.49
547.02	40125.85
547.22	40050.08
547.43	40334.74
547.63	40437.14
547.83	40244.63
548.03	39816.61
548.23	40435.10
548.44	40220.06
548.64	40584.60
548.84	40617.36
549.04	40803.73
549.24	40781.20
549.45	41184.65
549.65	40889.74
549.85	40869.26
550.05	41160.08
550.25	41094.54
550.45	41598.34
550.66	41387.40
550.86	41065.87
551.06	41596.29
551.26	41532.81
551.46	41698.69
551.66	41620.87
551.87	41309.58
552.07	41907.58
552.27	41645.44
552.47	41852.29
552.67	41964.93
552.87	42276.22
553.07	42083.71
553.28	42456.44
553.48	42464.63
553.68	41973.12
553.88	42497.40
554.08	42323.32
554.28	42902.90
554.48	42491.26
554.69	42587.51
554.89	42689.91
555.09	42653.05
555.29	43019.63
555.49	42849.65
555.69	42474.87
555.89	42929.52
556.10	43146.61
556.30	42841.46
556.50	43304.30
556.70	42657.14
556.90	42941.81
557.10	43292.01
557.30	42954.10
557.50	43578.73
557.70	43232.62
557.91	43904.35
558.11	43267.44
558.31	43494.76
558.51	43402.60
558.71	43349.35
558.91	43689.32
559.11	43832.68
559.31	43543.91
559.51	43648.36
559.72	43767.14
559.92	43898.21
560.12	43758.95
560.32	43953.51
560.52	43529.58
560.72	44039.52
560.92	43828.58
561.12	43994.46
561.32	44649.81
561.52	43769.19
561.72	44600.66
561.93	43988.32
562.13	44739.93
562.33	44039.52
562.53	44246.36
562.73	44012.90
562.93	44703.06
563.13	44696.92
563.33	44338.52
563.53	44686.68
563.73	43998.56
563.93	44524.89
564.13	45086.03
564.33	44391.77
564.53	44864.85
564.74	45047.12
564.94	44336.48
565.14	44965.20
565.34	44555.61
565.54	44328.28
565.74	45069.65
565.94	45108.56
566.14	44793.17
566.34	44784.98
566.54	45188.43
566.74	44641.62
566.94	44807.51
567.14	45106.51
567.34	45000.02
567.54	44979.54
567.74	44868.95
567.94	44758.36
568.14	45204.81
568.34	45266.25
568.54	44776.79
568.74	45362.51
568.94	44684.63
569.14	45643.08
569.34	45094.22
569.54	45213.01
569.75	44754.26
569.95	45120.85
570.15	45538.63
570.35	45321.55
570.55	45364.56
570.75	45327.69
570.95	45405.52
571.15	44830.04
571.35	45243.73
571.55	46028.10
571.75	45061.46
571.95	45301.07
572.15	45239.63
572.35	45460.81
572.55	45743.43
572.75	45385.04
572.95	45839.68
573.15	45518.15
573.35	45622.60
573.55	45337.93
573.75	45548.87
573.95	45595.98
574.15	45821.25
574.35	45663.56
574.55	45675.85
574.75	45612.36
574.95	45972.80
575.15	45772.10
575.34	45364.56
575.54	45815.11
575.74	46071.10
575.94	45985.09
576.14	45913.41
576.34	45987.14
576.54	45978.95
576.74	46228.80
576.94	45739.33
577.14	46259.52
577.34	46030.15
577.54	45811.01
577.74	46331.20
577.94	46404.92
578.14	46400.83
578.34	46708.02
578.54	45940.04
578.74	46341.44
578.94	46464.32
579.14	46146.88
579.34	46282.05
579.54	46562.62
579.74	47103.28
579.94	46556.47
580.13	47140.14
580.33	46982.45
580.53	46828.85
580.73	46972.21
580.93	46257.47
581.13	46763.32
581.33	46847.29
581.53	46732.60
581.73	46933.30
581.93	47078.71
582.13	47185.20
582.33	47093.04
582.53	46744.89
582.73	47097.14
582.92	47476.01
583.12	47478.06
583.32	46849.33
583.52	47267.12
583.72	47641.90
583.92	47416.62
584.12	47717.67
584.32	48006.44
584.52	47529.26
584.72	47590.70
584.92	47766.82
585.11	48456.99
585.31	48166.18
585.51	47838.50
585.71	47953.19
585.91	48131.36
586.11	47963.43
586.31	47662.38
586.51	47973.67
586.71	47885.61
586.91	48456.99
587.10	48278.82
587.30	48696.60
587.50	48297.25
587.70	48616.73
587.90	48626.97
588.10	48411.93
588.30	48583.96
588.50	49192.21
588.69	48573.72
588.89	48878.87
589.09	49167.63
589.29	48686.36
589.49	49032.47
589.69	48504.09
589.89	49091.86
590.08	48694.55
590.28	49124.63
590.48	49130.77
590.68	48991.51
590.88	49628.43
591.08	49417.49
591.28	48993.56
591.47	49763.59
591.67	49669.39
591.87	49837.32
592.07	49523.98
592.27	49610.00
592.47	49556.75
592.67	49880.33
592.86	49569.04
593.06	49902.85
593.26	50058.50
593.46	49693.96
593.66	49925.38
593.86	50308.35
594.05	50105.60
594.25	50453.76
594.45	50132.23
594.65	50128.13
594.85	49491.21
595.05	50607.36
595.24	50902.26
595.44	50875.64
595.64	50611.45
595.84	50943.22
596.04	50978.04
596.23	51006.71
596.43	51010.81
596.63	50789.62
596.83	50576.64
597.03	51631.34
597.22	51684.59
597.42	51696.88
597.62	51641.58
597.82	51139.83
598.02	51213.55
598.21	52110.56
598.41	51557.61
598.61	51309.81
598.81	51838.18
599.01	52178.15
599.20	51989.73
599.40	51975.40
599.60	51930.34
599.80	52239.59
600.00	52378.85
600.19	52468.96
600.39	52155.62
600.59	53126.36
600.79	52477.15
600.98	52520.16
601.18	52679.90
601.38	52954.33
601.58	53155.03
601.78	53073.11
601.97	52731.10
602.17	53255.38
602.37	53142.74
602.57	53212.37
602.76	53406.93
602.96	52763.87
603.16	53617.87
603.36	53597.39
603.55	54090.95
603.75	53261.52
603.95	53679.31
604.15	53746.89
604.34	53650.64
604.54	53910.73
604.74	54066.38
604.94	54348.99
605.13	54760.64
605.33	54615.23
605.53	54295.75
605.73	54269.12
605.92	54627.52
606.12	54297.80
606.32	54484.16
606.52	54590.66
606.71	54369.47
606.91	55014.58
607.11	54736.06
607.30	55018.68
607.50	55377.08
607.70	54883.51
607.90	54774.97
608.09	54903.99
608.29	54910.14
608.49	55188.66
608.68	54830.27
608.88	55594.16
609.08	55225.53
609.28	55514.29
609.47	54926.52
609.67	56104.10
609.87	55035.06
610.06	55583.92
610.26	55782.57
610.46	55637.17
610.66	55403.70
610.85	55592.11
611.05	55164.09
611.25	55645.36
611.44	55561.39
611.64	55788.72
611.84	55585.97
612.03	55588.02
612.23	55612.59
612.43	55989.42
612.62	55647.41
612.82	55575.73
613.02	55803.05
613.21	56020.14
613.41	56212.65
613.61	56153.26
613.80	55489.71
614.00	56196.26
614.20	56136.87
614.39	55909.55
614.59	56124.58
614.79	55794.86
614.98	55692.46
615.18	56112.30
615.38	56089.77
615.57	55897.26
615.77	56306.85
615.97	56353.96
616.16	56515.75
616.36	55604.40
616.56	56294.56
616.75	56212.65
616.95	56214.69
617.15	56327.33
617.34	56063.14
617.54	56458.40
617.74	56323.24
617.93	56079.53
618.13	55915.69
618.32	56059.05
618.52	55665.84
618.72	56104.10
618.91	56179.88
619.11	55811.24
619.31	56442.02
619.50	55932.07
619.70	55590.06
619.90	56126.63
620.09	55510.19
620.29	56128.68
620.48	55641.26
620.68	56110.25
620.88	55727.28
621.07	55905.45
621.27	55676.08
621.46	55682.22
621.66	55774.38
621.86	55909.55
622.05	55594.16
622.25	55940.27
622.44	55483.57
622.64	55383.22
622.84	55776.43
623.03	55626.93
623.23	55448.75
623.42	55758.00
623.62	55813.29
623.82	55409.84
624.01	55473.33
624.21	56198.31
624.40	55444.66
624.60	55579.82
624.80	54994.10
624.99	55170.23
625.19	54961.34
625.38	55811.24
625.58	55440.56
625.77	55401.65
625.97	55841.96
626.17	55104.70
626.36	55829.68
626.56	55323.83
626.75	55033.02
626.95	55577.78
627.14	55198.90
627.34	55766.19
627.54	55157.94
627.73	54848.70
627.93	54987.96
628.12	55319.73
628.32	55413.94
628.51	54875.32
628.71	55069.88
628.90	55665.84
629.10	55377.08
629.30	55145.65
629.49	55145.65
629.69	55004.34
629.88	54940.86
630.08	55192.76
630.27	55026.87
630.47	54596.80
630.66	54850.75
630.86	55325.88
631.05	54297.80
631.25	55159.99
631.44	55377.08
631.64	55119.03
631.84	55012.54
632.03	55788.72
632.23	55229.62
632.42	55289.01
632.62	55168.18
632.81	54908.09
633.01	54887.61
633.20	55241.91
633.40	55012.54
633.59	54680.77
633.79	54371.52
633.98	54844.60
634.18	54383.81
634.37	55086.26
634.57	54445.25
634.76	55276.72
634.96	54801.60
635.15	55096.50
635.35	54682.81
635.54	54738.11
635.74	55227.57
635.93	54557.89
636.13	55284.92
636.32	54572.22
636.52	54500.54
636.71	54639.81
636.91	54582.46
637.10	54852.80
637.30	54398.15
637.49	54682.81
637.69	54715.58
637.88	55071.93
638.08	54555.84
638.27	54760.64
638.46	54588.61
638.66	54637.76
638.85	54559.94
639.05	54973.63
639.24	54990.01
639.44	54543.55
639.63	54375.62
639.83	54758.59
640.02	54402.24
640.22	54545.60
640.41	54932.67
640.61	54658.24
640.80	54807.74
640.99	54301.89
641.19	55207.09
641.38	54594.75
641.58	54367.43
641.77	55092.41
641.97	54475.97
642.16	54803.64
642.36	54770.88
642.55	55289.01
642.74	54715.58
642.94	55164.09
643.13	54674.62
643.33	55217.33
643.52	54940.86
643.72	55139.51
643.91	54604.99
644.10	54949.05
644.30	54860.99
644.49	55264.44
644.69	55356.60
644.88	55086.26
645.08	54588.61
645.27	54949.05
645.46	54478.02
645.66	55170.23
645.85	54987.96
646.05	54969.53
646.24	55014.58
646.43	54930.62
646.63	55231.67
646.82	55067.83
647.02	55203.00
647.21	54899.90
647.40	54895.80
647.60	55280.82
647.79	55555.25
647.99	55334.07
648.18	54772.92
648.37	55454.90
648.57	55706.80
648.76	55422.13
648.96	55030.97
649.15	55162.04
649.34	55616.69
649.54	55430.32
649.73	55180.47
649.92	55557.30
650.12	55381.17
650.31	55213.24
650.51	55553.20
650.70	56059.05
650.89	55518.38
651.09	55977.13
651.28	55446.71
651.47	55567.54
651.67	55674.03
651.86	56034.47
652.06	55452.85
652.25	55887.02
652.44	55817.39
652.64	55801.00
652.83	55440.56
653.02	55784.62
653.22	55905.45
653.41	55538.86
653.60	55399.60
653.80	55686.32
653.99	55975.08
654.18	55772.33
654.38	55884.97
654.57	56489.12
654.76	56179.88
654.96	56044.71
655.15	55864.49
655.34	55827.63
655.54	55975.08
655.73	56358.05
655.92	56351.91
656.12	56118.44
656.31	56315.04
656.50	56343.72
656.70	56472.74
656.89	56652.96
657.08	56530.08
657.28	56374.44
657.47	56349.86
657.66	56663.20
657.86	56401.06
658.05	56390.82
658.24	56722.59
658.43	55960.75
658.63	56577.18
658.82	56820.89
659.01	56556.70
659.21	56646.82
659.40	56982.68
659.59	56579.23
659.79	57134.23
659.98	56898.72
660.17	57070.75
660.36	56784.03
660.56	56829.08
660.75	56786.08
660.94	56982.68
661.14	56849.56
661.33	56972.44
661.52	56777.89
661.71	57205.91
661.91	56753.31
662.10	56720.54
662.29	57586.83
662.49	57250.97
662.68	57406.61
662.87	57754.77
663.06	57392.28
663.26	57167.00
663.45	57623.70
663.64	57255.06
663.83	57867.40
664.03	57603.22
664.22	57379.99
664.41	57451.67
664.60	56900.76
664.80	57154.71
664.99	57293.97
665.18	57631.89
665.37	57382.04
665.57	57717.90
665.76	57189.53
665.95	57910.41
666.14	57207.96
666.34	57353.36
666.53	57709.71
666.72	57406.61
666.91	57824.40
667.11	57775.25
667.30	57848.97
667.49	57736.34
667.68	57537.68
667.87	57318.55
668.07	58111.11
668.26	57713.81
668.45	58129.54
668.64	57711.76
668.84	58094.73
669.03	57967.76
669.22	57875.60
669.41	57998.48
669.60	58172.55
669.80	57846.93
669.99	58129.54
670.18	57891.98
670.37	58006.67
670.57	58203.27
670.76	57939.08
670.95	58438.79
671.14	58143.88
671.33	57978.00
671.53	58367.11
671.72	58274.95
671.91	57912.46
672.10	57533.59
672.29	58195.08
672.48	58090.63
672.68	58283.14
672.87	57900.17
673.06	58236.04
673.25	57668.75
673.44	57947.28
673.64	58025.10
673.83	57955.47
674.02	57842.83
674.21	58160.26
674.40	58561.67
674.59	57875.60
674.79	58266.76
674.98	58279.05
675.17	58545.28
675.36	57752.72
675.55	58469.51
675.74	57775.25
675.94	58250.38
676.13	57881.74
676.32	58219.66
676.51	58487.94
676.70	58315.91
676.89	58225.80
677.08	58274.95
677.28	57783.44
677.47	58403.97
677.66	58449.03
677.85	57924.75
678.04	57824.40
678.23	58741.89
678.42	58186.89
678.62	58133.64
678.81	58457.22
679.00	57961.61
679.19	58303.62
679.38	57918.60
679.57	58109.07
679.76	58365.06
679.96	57824.40
680.15	58002.57
680.34	57738.38
680.53	57681.04
680.72	58274.95
680.91	58225.80
681.10	58045.58
681.29	58545.28
681.48	57808.01
681.68	58035.34
681.87	58012.81
682.06	57775.25
682.25	57738.38
682.44	57560.21
682.63	57891.98
682.82	57367.70
683.01	57220.25
683.20	57455.76
683.39	58055.82
683.59	57394.32
683.78	57709.71
683.97	57179.29
684.16	57060.51
684.35	57287.83
684.54	57648.27
684.73	57199.77
684.92	57562.26
685.11	57308.31
685.30	57236.63
685.49	57572.50
685.69	57191.58
685.88	57255.06
686.07	57248.92
686.26	57224.34
686.45	57304.21
686.64	57480.34
686.83	57123.99
687.02	57410.71
687.21	57431.19
687.40	57345.17
687.59	57181.34
687.78	57093.27
687.97	57515.15
688.16	57025.69
688.35	56820.89
688.54	56702.11
688.74	57021.59
688.93	56218.79
689.12	57207.96
689.31	56865.95
689.50	57062.55
689.69	56403.11
689.88	56190.12
690.07	57009.31
690.26	56786.08
690.45	57195.67
690.64	56497.31
690.83	56394.92
691.02	56294.56
691.21	57027.74
691.40	56433.83
691.59	56571.04
691.78	56317.09
691.97	56327.33
692.16	56427.68
692.35	56319.14
692.54	56274.09
692.73	56081.58
692.92	56112.30
693.11	56138.92
693.30	56341.67
693.49	55991.47
693.68	56292.52
693.87	55958.70
694.06	55682.22
694.25	56091.82
694.44	55641.26
694.63	55405.75
694.82	56134.82
695.01	55889.07
695.20	55616.69
695.39	55370.93
695.58	55434.42
695.77	55102.65
695.96	55037.11
696.15	55856.30
696.34	55047.35
696.53	55379.12
696.72	56128.68
696.91	54867.13
697.10	55059.64
697.29	55014.58
697.48	55266.48
697.67	54783.16
697.86	54049.99
698.05	54840.51
698.24	54711.49
698.43	54760.64
698.62	54535.36
698.81	54140.10
699.00	54994.10
699.19	54525.12
699.38	54826.17
699.57	54133.96
699.76	54883.51
699.95	54256.84
700.14	53910.73
700.32	53953.74
700.51	54447.30
700.70	54600.89
700.89	54273.22
701.08	54041.80
701.27	54193.35
701.46	54576.32
701.65	53247.19
701.84	53884.11
702.03	54052.04
702.22	53810.38
702.41	53742.80
702.60	54097.09
702.79	53994.70
702.98	53769.42
703.17	53581.01
703.35	53085.40
703.54	53304.53
703.73	53527.76
703.92	53396.69
704.11	53523.66
704.30	53161.17
704.49	53404.88
704.68	53208.28
704.87	53122.26
705.06	53261.52
705.25	52899.03
705.43	53210.32
705.62	52978.90
705.81	53142.74
706.00	53292.24
706.19	52696.28
706.38	52925.66
706.57	53050.58
706.76	52303.07
706.95	53118.17
707.14	52622.56
707.32	52643.04
707.51	52536.54
707.70	52270.31
707.89	52794.59
708.08	52468.96
708.27	52471.01
708.46	52626.65
708.65	52266.21
708.84	52817.11
709.02	52536.54
709.21	52430.05
709.40	51918.06
709.59	52290.79
709.78	51889.38
709.97	52270.31
710.16	51823.85
710.34	51770.60
710.53	51811.56
710.72	51625.20
710.91	51819.75
711.10	51795.18
711.29	51803.37
711.48	51852.52
711.66	51375.34
711.85	51492.08
712.04	51389.68
712.23	52145.38
712.42	51703.02
712.61	51340.53
712.80	51504.37
712.98	51555.57
713.17	51064.05
713.36	51309.81
713.55	51254.51
713.74	51477.74
713.93	50795.77
714.11	51252.47
714.30	51023.09
714.49	51033.33
714.68	51422.45
714.87	50650.36
715.06	51737.83
715.24	50744.57
715.43	50873.59
715.62	50906.36
715.81	50773.24
716.00	51191.03
716.18	50840.82
716.37	50308.35
716.56	50281.73
716.75	50697.47
716.94	50828.54
717.12	49990.92
717.31	50558.20
717.50	50255.11
717.69	50486.53
717.88	50255.11
718.06	50357.50
718.25	50425.09
718.44	50105.60
718.63	50107.65
718.82	49919.24
719.00	49831.18
719.19	50025.73
719.38	49765.64
719.57	49587.47
719.76	49857.80
719.94	49949.96
720.13	49448.21
720.32	49706.25
720.51	49376.53
720.69	49276.18
720.88	49511.69
721.07	49831.18
721.26	49397.01
721.44	49167.63
721.63	49640.71
721.82	49044.76
722.01	48944.41
722.20	49345.81
722.38	48999.70
722.57	48602.39
722.76	48567.58
722.95	48917.78
723.13	48645.40
723.32	48755.99
723.51	48311.58
723.70	48538.91
723.88	48624.92
724.07	48465.18
724.26	48506.14
724.44	47711.53
724.63	48696.60
724.82	48653.59
725.01	48119.07
725.19	48622.87
725.38	48444.70
725.57	48125.22
725.76	48168.22
725.94	48235.81
726.13	48076.07
726.32	48174.37
726.51	48530.72
726.69	48809.24
726.88	48635.16
727.07	48448.80
727.25	47961.38
727.44	48059.68
727.63	47715.62
727.82	47699.24
728.00	48065.83
728.19	48358.69
728.38	48346.40
728.56	48061.73
728.75	48325.92
728.94	47766.82
729.12	48076.07
729.31	47453.48
729.50	47715.62
729.69	48133.41
729.87	48039.20
730.06	48035.11
730.25	48215.33
730.43	48551.20
730.62	47953.19
730.81	48174.37
730.99	47979.81
731.18	47871.27
731.37	48010.53
731.55	48254.24
731.74	48125.22
731.93	48373.02
732.11	48045.35
732.30	48555.29
732.49	48413.98
732.67	48069.92
732.86	47809.83
733.05	47779.11
733.23	47891.75
733.42	48100.64
733.61	47758.63
733.79	48090.40
733.98	48325.92
734.17	47973.67
734.35	47932.71
734.54	47846.69
734.73	48362.78
734.91	48479.52
735.10	47691.05
735.29	48391.45
735.47	47629.61
735.66	48088.35
735.84	47815.97
736.03	47562.03
736.22	48168.22
736.40	48043.30
736.59	48379.17
736.78	48057.63
736.96	48252.19
737.15	48131.36
737.33	47686.95
737.52	48010.53
737.71	47830.31
737.89	47719.72
738.08	47777.06
738.27	47525.16
738.45	48026.92
738.64	47945.00
738.82	47820.07
739.01	47981.86
739.20	47732.01
739.38	47858.98
739.57	47985.96
739.75	47758.63
739.94	47842.60
740.13	48006.44
740.31	47484.20
740.50	48149.79
740.68	47953.19
740.87	47801.64
741.06	47713.58
741.24	47676.71
741.43	47904.04
741.61	47711.53
741.80	47289.65
741.99	47166.77
742.17	47564.07
742.36	47748.39
742.54	47758.63
742.73	47551.79
742.91	47983.91
743.10	47756.58
743.29	48037.16
743.47	47848.74
743.66	47768.87
743.84	47842.60
744.03	47691.05
744.21	47205.68
744.40	47537.45
744.59	47387.95
744.77	47322.41
744.96	47197.49
745.14	47148.34
745.33	47064.37
745.51	47596.84
745.70	47326.51
745.88	47336.75
746.07	47056.18
746.26	46691.64
746.44	47068.47
746.63	46951.73
746.81	46990.64
747.00	46894.39
747.18	47056.18
747.37	46806.33
747.55	47369.52
747.74	47332.65
747.92	46980.40
748.11	46736.69
748.29	47359.28
748.48	46937.40
748.66	46787.89
748.85	47531.31
749.03	47324.46
749.22	47269.17
749.41	47265.07
749.59	47203.63
749.78	46939.44
749.96	46568.76
750.15	47211.82
750.33	47496.49
750.52	47203.63
750.70	46996.79
750.89	46921.01
751.07	46648.63
751.26	46970.16
751.44	46622.01
751.63	46724.41
751.81	46495.03
752.00	46396.73
752.18	46738.74
752.37	46691.64
752.55	46058.82
752.74	46302.53
752.92	46220.61
753.10	46366.01
753.29	46669.11
753.47	46325.05
753.66	46130.50
753.84	46843.19
754.03	46585.15
754.21	46167.36
754.40	46480.70
754.58	46742.84
754.77	46069.06
754.95	45794.63
755.14	46134.59
755.32	45929.80
755.51	45665.61
755.69	46024.00
755.88	46376.25
756.06	45763.91
756.24	45999.43
756.43	45823.30
756.61	45901.12
756.80	45819.20
756.98	45737.29
757.17	45968.71
757.35	45913.41
757.54	45440.33
757.72	45708.61
757.90	45845.83
758.09	45415.76
758.27	45530.44
758.46	45284.68
758.64	45575.50
758.83	45536.59
759.01	45692.23
759.19	45348.17
759.38	45565.26
759.56	45522.25
759.75	45409.61
759.93	45245.77
760.12	45215.05
760.30	44985.68
760.48	45518.15
760.67	45141.33
760.85	45241.68
761.04	45243.73
761.22	45430.09
761.40	45235.53
761.59	45430.09
761.77	45067.60
761.96	45294.92
762.14	44871.00
762.32	44825.94
762.51	45071.70
762.69	44729.69
762.88	45204.81
763.06	44883.28
763.24	44809.56
763.43	44799.32
763.61	44729.69
763.80	44651.86
763.98	44496.22
764.16	44363.10
764.35	44178.78
764.53	44057.95
764.72	44402.01
764.90	44250.46
765.08	44608.86
765.27	44385.63
765.45	43922.79
765.63	43554.15
765.82	44141.92
766.00	43707.75
766.18	44086.62
766.37	44344.67
766.55	43412.84
766.74	43849.06
766.92	43783.52
767.10	43779.43
767.29	43210.09
767.47	43459.94
767.65	43973.98
767.84	43111.79
768.02	43226.48
768.20	43296.11
768.39	43300.20
768.57	43271.53
768.75	43113.84
768.94	43126.13
769.12	43410.79
769.30	42863.99
769.49	43066.73
769.67	43142.51
769.85	42974.58
770.04	42888.56
770.22	42390.91
770.40	42773.88
770.59	42366.33
770.77	42722.68
770.95	42554.74
771.14	42229.12
771.32	42251.64
771.50	42677.62
771.69	42462.58
771.87	42829.17
772.05	42063.23
772.24	42141.05
772.42	42327.42
772.60	42042.75
772.78	42042.75
772.97	41936.26
773.15	42225.02
773.33	41977.22
773.52	41723.27
773.70	42038.65
773.88	42249.60
774.07	41624.96
774.25	42255.74
774.43	42417.53
774.61	41848.19
774.80	42055.04
774.98	41928.06
775.16	41768.32
775.34	41966.98
775.53	41723.27
775.71	42038.65
775.89	42108.29
776.08	41612.68
776.26	41801.09
776.44	42114.43
776.62	41817.47
776.81	41817.47
776.99	42005.89
777.17	41842.05
777.35	42247.55
777.54	42145.15
777.72	42052.99
777.90	42141.05
778.08	42173.82
778.27	41778.56
778.45	42288.51
778.63	42239.36
778.81	41680.26
779.00	42804.59
779.18	42163.58
779.36	42474.87
779.54	41612.68
779.73	41919.87
779.91	42208.64
780.09	42202.49
780.27	42505.59
780.46	42073.47
780.64	42157.44
780.82	42075.52
781.00	41993.60
781.19	42591.61
781.37	42603.89
781.55	42265.98
781.73	42378.62
781.91	41979.26
782.10	42327.42
782.28	42147.20
782.46	42036.61
782.64	42560.89
782.82	42448.25
783.01	42341.75
783.19	42362.23
783.37	42177.92
783.55	42114.43
783.74	42319.23
783.92	42464.63
784.10	42882.42
784.28	42337.66
784.46	41989.50
784.64	42071.42
784.83	42370.43
785.01	42104.19
785.19	42278.27
785.37	42063.23
785.55	42386.81
785.74	41915.78
785.92	41665.92
786.10	42421.62
786.28	42016.13
786.46	42014.08
786.64	41459.08
786.83	41893.25
787.01	41842.05
787.19	41602.44
787.37	41899.39
787.55	41586.05
787.74	41229.71
787.92	41766.27
788.10	41387.40
788.28	40998.29
788.46	41442.70
788.64	41309.58
788.82	41784.71
789.01	41299.34
789.19	41098.64
789.37	40865.17
789.55	40920.46
789.73	40277.40
789.91	40750.48
790.09	40777.11
790.28	40453.53
790.46	40668.56
790.64	40609.17
790.82	40557.97
791.00	40465.81
791.18	40439.19
791.36	40195.48
791.55	40596.88
791.73	40295.83
791.91	39990.69
792.09	40129.95
792.27	39806.37
792.45	39787.94
792.63	40064.41
792.81	39986.59
793.00	39597.48
793.18	39544.23
793.36	39679.39
793.54	39540.13
793.72	39060.91
793.90	39269.80
794.08	39081.39
794.26	39284.14
794.44	38800.82
794.62	38530.48
794.81	38938.03
794.99	38714.80
795.17	38534.58
795.35	38397.37
795.53	38690.23
795.71	38751.66
795.89	38288.82
796.07	37662.15
796.25	38086.07
796.43	37983.68
796.61	37975.48
796.80	37942.72
796.98	38147.51
797.16	37739.97
797.34	37629.38
797.52	37295.56
797.70	37410.25
797.88	37563.84
798.06	37053.90
798.24	36967.88
798.42	37014.99
798.60	36961.74
798.78	36793.81
798.96	36933.07
799.14	37031.37
799.32	36724.18
799.51	36339.16
799.69	36685.26
799.87	36486.61
800.05	36210.14
800.23	36031.96
800.41	36203.99
800.59	35993.05
800.77	35929.56
800.95	35536.35
801.13	35476.96
801.31	35491.30
801.49	35499.49
801.67	35153.38
801.85	35468.77
802.03	35225.06
802.21	35333.60
802.39	35053.03
802.57	35171.82
802.75	34747.89
802.93	34743.79
803.11	34620.91
803.29	34567.66
803.47	34881.00
803.65	34608.62
803.83	34510.32
804.01	34627.06
804.19	33938.94
804.37	34174.45
804.55	34168.31
804.73	33885.69
804.91	34285.04
805.09	33910.27
805.27	33834.49
805.45	34274.80
805.63	33887.74
805.81	33498.62
805.99	33699.33
806.17	33529.34
806.35	33625.60
806.53	33463.81
806.71	33281.54
806.89	33242.63
807.07	33078.79
807.25	33377.79
807.43	32837.13
807.61	33146.37
807.79	32949.77
807.97	32990.73
808.15	32790.03
808.33	32949.77
808.51	32663.05
808.69	32474.64
808.87	32312.85
809.05	32568.85
809.23	32232.98
809.41	32142.87
809.59	32167.45
809.77	32546.32
809.95	31954.46
810.13	32228.88
810.31	31958.55
810.49	32230.93
810.67	31610.40
810.84	32019.99
811.02	31749.66
811.20	31405.60
811.38	31833.63
811.56	31759.90
811.74	31612.45
811.92	31448.61
812.10	31286.82
812.28	31794.71
812.46	31338.02
812.64	31120.93
812.82	31100.45
813.00	31364.64
813.18	31116.84
813.36	31151.65
813.53	30899.75
813.71	30936.62
813.89	30789.16
814.07	30881.32
814.25	30797.35
814.43	30742.06
814.61	30574.13
814.79	30400.05
814.97	30377.52
815.15	30570.03
815.33	30268.98
815.50	30187.06
815.68	30490.16
815.86	30262.83
816.04	30131.76
816.22	30242.35
816.40	30129.72
816.58	30045.75
816.76	29806.14
816.94	29859.38
817.11	29906.49
817.29	29984.31
817.47	29498.94
817.65	29603.39
817.83	29902.39
818.01	29191.75
818.19	29517.37
818.37	29515.33
818.54	29361.73
818.72	29290.05
818.90	29238.85
819.08	29638.20
819.26	29480.51
819.44	28984.90
819.62	29167.17
819.80	29335.10
819.97	29077.06
820.15	29345.34
820.33	28972.61
820.51	29167.17
820.69	28862.02
820.87	29380.16
821.05	29171.27
821.22	28941.89
821.40	28816.97
821.58	28925.51
821.76	28653.13
821.94	28657.23
822.12	28479.05
822.29	28716.62
822.47	28458.57
822.65	28812.87
822.83	28618.32
823.01	28376.66
823.19	28296.78
823.36	28524.11
823.54	28501.58
823.72	28311.12
823.90	28069.46
824.08	28075.60
824.25	27930.20
824.43	27688.54
824.61	28098.13
824.79	28118.61
824.97	28071.51
825.15	28161.62
825.32	27739.74
825.50	27446.88
825.68	27844.18
825.86	28028.50
826.04	28053.08
826.21	27940.44
826.39	27907.67
826.57	27592.28
826.75	27573.85
826.93	27248.22
827.10	27428.45
827.28	27459.16
827.46	27835.99
827.64	27252.32
827.81	27154.02
827.99	27108.96
828.17	26920.55
828.35	27162.21
828.53	27158.11
828.70	27356.77
828.88	27090.53
829.06	27194.98
829.24	27258.46
829.41	26871.40
829.59	27287.14
829.77	26994.28
829.95	27047.52
830.12	27029.09
830.30	26881.64
830.48	27211.36
830.66	26687.08
830.84	27020.90
831.01	26646.12
831.19	26904.17
831.37	26543.72
831.55	26621.55
831.72	26392.17
831.90	26869.35
832.08	26836.58
832.25	26723.94
832.43	26682.98
832.61	26664.55
832.79	26222.19
832.96	26439.28
833.14	26498.67
833.32	26617.45
833.50	26369.65
833.67	26443.37
833.85	26349.17
834.03	25986.68
834.20	26406.51
834.38	26605.16
834.56	26697.32
834.74	26013.30
834.91	26189.42
835.09	26484.33
835.27	26158.70
835.44	26009.20
835.62	25980.53
835.80	25669.24
835.98	25912.95
836.15	26027.63
836.33	25800.31
836.51	26426.99
836.68	25941.62
836.86	25915.00
837.04	25593.47
837.21	25831.03
837.39	25722.49
837.57	25958.00
837.75	25955.96
837.92	25501.31
838.10	25226.88
838.28	25110.14
838.45	25603.71
838.63	25486.97
838.81	25618.04
838.98	25130.62
839.16	25517.69
839.34	25183.87
839.51	25325.18
839.69	24995.46
839.87	25280.13
840.04	25353.85
840.22	25306.75
840.40	24895.11
840.57	24977.03
840.75	25153.15
840.93	24770.18
841.10	25151.10
841.28	25601.66
841.46	25167.49
841.63	25249.41
841.81	25063.04
841.98	24942.21
842.16	25130.62
842.34	25196.16
842.51	24729.22
842.69	25208.45
842.87	24991.36
843.04	25009.79
843.22	24878.72
843.40	24823.43
843.57	24837.76
843.75	25118.34
843.92	24628.87
844.10	24639.11
844.28	24737.41
844.45	24731.27
844.63	24618.63
844.81	24520.33
844.98	24788.61
845.16	24768.13
845.33	24563.34
845.51	24311.44
845.69	24563.34
845.86	24325.77
846.04	24528.52
846.21	24639.11
846.39	24471.18
846.57	24278.67
846.74	24120.98
846.92	24391.31
847.09	24163.98
847.27	24120.98
847.45	24315.53
847.62	24704.65
847.80	24233.61
847.97	23950.99
848.15	23836.31
848.32	23805.59
848.50	24061.58
848.68	23912.08
848.85	24147.60
849.03	23629.46
849.20	24127.12
849.38	24061.58
849.56	24004.24
849.73	23895.70
849.91	23807.64
850.08	23785.11
850.26	23463.58
850.43	23725.72
850.61	23998.10
850.78	23439.00
850.96	23676.57
851.14	23441.05
851.31	23369.37
851.49	23539.35
851.66	23668.37
851.84	23479.96
852.01	23680.66
852.19	23600.79
852.36	23834.26
852.54	23553.69
852.71	23504.54
852.89	23514.78
853.07	23119.52
853.24	23359.13
853.42	23107.23
853.59	23060.13
853.77	23455.39
853.94	23166.62
854.12	23246.49
854.29	22994.59
854.47	23293.60
854.64	23258.78
854.82	22937.25
854.99	23330.46
855.17	22982.31
855.34	23142.05
855.52	23174.81
855.69	23258.78
855.87	22937.25
856.04	22814.37
856.22	22675.11
856.39	22793.89
856.57	23023.26
856.74	22802.08
856.92	22974.11
857.09	22681.25
857.27	22763.17
857.44	22757.03
857.62	22726.31
857.79	22656.68
857.97	23006.88
858.14	22644.39
858.32	22691.49
858.49	22574.76
858.67	22726.31
858.84	22261.42
859.02	22345.39
859.19	22351.53
859.37	22365.87
859.54	22394.54
859.72	22601.38
859.89	22292.14
860.06	22365.87
860.24	22015.66
860.41	22376.11
860.59	22101.68
860.76	22425.26
860.94	21972.66
861.11	22390.44
861.29	21966.51
861.46	22169.26
861.64	21868.21
861.81	21886.64
861.98	22042.29
862.16	21915.31
862.33	21970.61
862.51	21745.33
862.68	21970.61
862.86	21761.72
863.03	21864.11
863.21	21786.29
863.38	21524.15
863.55	21593.78
863.73	21868.21
863.90	21712.56
864.08	21501.62
864.25	21845.68
864.43	21700.28
864.60	21538.49
864.77	21368.51
864.95	21319.35
865.12	21266.11
865.30	21573.30
865.47	21249.72
865.64	21589.69
865.82	21477.05
865.99	21401.27
866.17	21321.40
866.34	21423.80
866.51	21085.89
866.69	21448.38
866.86	21444.28
867.04	21257.92
867.21	21198.52
867.38	21085.89
867.56	21102.27
867.73	20655.81
867.91	21028.54
868.08	20995.78
868.25	20897.47
868.43	20797.12
868.60	20907.71
868.78	20842.18
868.95	20844.23
869.12	20623.05
869.30	20571.85
869.47	20915.90
869.64	20354.76
869.82	20750.02
869.99	20475.59
870.16	20629.19
870.34	20545.22
870.51	20453.06
870.69	20242.12
870.86	20387.53
871.03	20360.91
871.21	20156.11
871.38	20426.44
871.55	20031.18
871.73	20096.72
871.90	20231.88
872.07	19984.08
872.25	19648.21
872.42	19803.86
872.59	20113.10
872.77	19816.15
872.94	19982.03
873.11	19836.63
873.29	19996.37
873.46	19594.96
873.63	19640.02
873.81	19810.00
873.98	19926.74
874.15	19683.03
874.33	19478.23
874.50	19396.31
874.67	19431.13
874.85	19672.79
875.02	19467.99
875.19	19594.96
875.37	19144.41
875.54	19283.67
875.71	19314.39
875.88	19257.05
876.06	19076.83
876.23	19277.53
876.40	19097.31
876.58	19173.08
876.75	18984.67
876.92	19140.32
877.10	19009.25
877.27	19044.06
877.44	18892.51
877.61	18646.76
877.79	18861.79
877.96	18675.43
878.13	18722.53
878.31	18601.70
878.48	18501.35
878.65	18769.63
878.82	18357.99
879.00	18788.07
879.17	18484.97
879.34	18548.45
879.51	18351.85
879.69	18415.34
879.86	18120.43
880.03	18241.26
880.21	17960.69
880.38	18294.50
880.55	18343.66
880.72	18056.94
880.90	18224.87
881.07	18040.56
881.24	18001.65
881.41	18093.80
881.59	18030.32
881.76	17886.96
881.93	17630.96
882.10	17762.03
882.28	17831.66
882.45	17950.45
882.62	17942.25
882.79	17999.60
882.96	17528.56
883.14	17702.64
883.31	17600.24
883.48	17854.19
883.65	17485.56
883.83	17751.79
884.00	17694.45
884.17	17567.48
884.34	17762.03
884.51	17659.63
884.69	17600.24
884.86	17434.36
885.03	17575.67
885.20	17428.21
885.38	17239.80
885.55	17286.90
885.72	17235.70
885.89	17336.06
886.06	17450.74
886.24	17334.01
886.41	17149.69
886.58	17198.84
886.75	17434.36
886.92	17153.79
887.10	17094.40
887.27	17131.26
887.44	16955.13
887.61	17198.84
887.78	17069.82
887.95	17045.24
888.13	16983.80
888.30	16795.39
888.47	16750.34
888.64	16795.39
888.81	16834.30
888.99	16721.66
889.16	16619.27
889.33	16606.98
889.50	16756.48
889.67	16451.33
889.84	16658.18
890.01	16723.71
890.19	16457.48
890.36	16531.20
890.53	16523.01
890.70	16473.86
890.87	16434.95
891.04	16150.28
891.22	16357.13
891.39	16275.21
891.56	15988.49
891.73	16250.63
891.90	16316.17
892.07	16072.46
892.24	16168.71
892.42	16097.03
892.59	16111.37
892.76	15910.67
892.93	16152.33
893.10	16090.89
893.27	16025.36
893.44	15933.20
893.61	16070.41
893.79	15841.04
893.96	16015.12
894.13	16000.78
894.30	15847.18
894.47	15628.05
894.64	16008.97
894.81	15716.11
894.98	15646.48
895.15	15777.55
895.33	15785.74
895.50	15646.48
895.67	15894.29
895.84	15705.87
896.01	15748.88
896.18	15693.58
896.35	15855.37
896.52	15806.22
896.69	15478.55
896.86	15511.32
897.04	15783.70
897.21	15404.82
897.38	15533.84
897.55	15585.04
897.72	15775.50
897.89	15732.50
898.06	15847.18
898.23	15548.18
898.40	15695.63
898.57	15656.72
898.74	15480.60
898.91	15480.60
899.08	15742.74
899.26	15578.90
899.43	15673.10
899.60	15507.22
899.77	15509.27
899.94	15666.96
900.11	15490.84
900.28	15544.08
900.45	15283.99
900.62	15271.70
900.79	15748.88
900.96	15474.45
901.13	15415.06
901.30	15212.31
901.47	15226.65
901.64	15365.91
901.81	15347.48
901.98	15357.72
902.15	15605.52
902.32	15216.41
902.49	15550.23
902.66	15363.86
902.83	15259.42
903.01	15353.62
903.18	15316.76
903.35	15384.34
903.52	15159.06
903.69	15488.79
903.86	15437.59
904.03	15431.44
904.20	15595.28
904.37	15490.84
904.54	15324.95
904.71	15269.66
904.88	15642.39
905.05	15193.88
905.22	15249.18
905.39	15171.35
905.56	15267.61
905.73	15183.64
905.90	15038.23
906.07	15144.73
906.24	15292.18
906.41	15146.78
906.58	15374.10
906.75	15132.44
906.92	15171.35
907.09	15271.70
907.26	15245.08
907.43	15044.38
907.60	14890.78
907.77	15206.17
907.93	14966.56
908.10	15101.72
908.27	15138.58
908.44	14993.18
908.61	14964.51
908.78	15142.68
908.95	15191.83
909.12	15062.81
909.29	14941.98
909.46	14925.60
909.63	15011.61
909.80	14989.08
909.97	14966.56
910.14	15025.95
910.31	14815.01
910.48	14868.25
910.65	15019.80
910.82	14880.54
910.99	14888.73
911.16	14679.84
911.33	14870.30
911.50	14704.42
911.66	14669.60
911.83	15167.26
912.00	14776.09
912.17	14501.67
912.34	14647.07
912.51	14649.12
912.68	14413.60
912.85	14634.78
913.02	14569.25
913.19	14487.33
913.36	14659.36
913.53	14638.88
913.70	14323.49
913.86	14685.98
914.03	14405.41
914.20	14286.63
914.37	14403.36
914.54	14208.81
914.71	14186.28
914.88	14165.80
915.05	14075.69
915.22	13928.24
915.39	14049.07
915.55	14098.22
915.72	13971.24
915.89	14063.40
916.06	13891.37
916.23	13952.81
916.40	13948.72
916.57	13815.60
916.74	13944.62
916.91	13688.62
917.07	13909.80
917.24	13616.94
917.41	13600.56
917.58	13621.04
917.75	13690.67
917.92	13561.65
918.09	13700.91
918.26	13676.34
918.42	13377.33
918.59	13676.34
918.76	13444.91
918.93	13324.08
919.10	13326.13
919.27	13432.63
919.44	13547.31
919.60	13145.91
919.77	13344.56
919.94	13182.77
920.11	13109.05
920.28	13123.38
920.45	13121.34
920.61	12961.59
920.78	12937.02
920.95	12955.45
921.12	12642.11
921.29	12717.89
921.46	12611.39
921.62	12586.82
921.79	12701.50
921.96	12508.99
922.13	12781.37
922.30	12433.22
922.47	12539.71
922.63	12396.35
922.80	12353.35
922.97	12312.39
923.14	12345.16
923.31	12255.04
923.47	12056.39
923.64	12166.98
923.81	12107.59
923.98	12003.14
924.15	11980.62
924.32	12080.97
924.48	11943.75
924.65	12019.53
924.82	11720.53
924.99	11714.38
925.15	11792.20
925.32	11878.22
925.49	11698.00
925.66	11611.98
925.83	11614.03
925.99	11579.22
926.16	11464.53
926.33	11706.19
926.50	11435.86
926.67	11532.11
926.83	11618.13
927.00	11360.08
927.17	11339.60
927.34	11218.77
927.50	11226.96
927.67	11259.73
927.84	11210.58
928.01	11136.85
928.17	11028.31
928.34	10958.68
928.51	10887.00
928.68	10667.87
928.84	10729.31
929.01	10641.25
929.18	10573.66
929.35	10624.86
929.51	10618.72
929.68	10547.04
929.85	10643.29
930.02	10385.25
930.18	10393.44
930.35	10205.03
930.52	10262.37
930.69	10422.11
930.85	10280.80
931.02	10155.88
931.19	10225.51
931.36	10237.80
931.52	10168.16
931.69	10094.44
931.86	10022.76
932.02	9932.65
932.19	9811.82
932.36	9899.88
932.53	9783.15
932.69	9750.38
932.86	9920.36
933.03	9893.74
933.19	9521.01
933.36	9670.51
933.53	9623.41
933.70	9389.94
933.86	9613.17
934.03	9299.83
934.20	9340.79
934.36	9418.61
934.53	9185.14
934.70	8970.10
934.86	9144.18
935.03	9146.23
935.20	9023.35
935.36	8871.80
935.53	8935.29
935.70	8843.13
935.86	8736.63
936.03	8556.41
936.20	8433.54
936.36	8501.12
936.53	8429.44
936.70	8132.48
936.86	8374.14
937.03	8263.55
937.20	8130.44
937.36	8040.33
937.53	7862.15
937.70	7841.67
937.86	7796.62
938.03	7737.23
938.20	7839.62
938.36	7505.81
938.53	7661.45
938.70	7231.38
938.86	7448.46
939.03	7454.61
939.20	7196.56
939.36	7266.19
939.53	7096.21
939.70	7298.96
939.86	6940.57
940.03	6864.79
940.19	6647.71
940.36	6569.88
940.53	6664.09
940.69	6530.97
940.86	6676.38
941.03	6555.55
941.19	6320.03
941.36	6242.21
941.52	6514.59
941.69	6279.07
941.86	6139.81
942.02	6025.12
942.19	6041.51
942.35	6031.27
942.52	5844.90
942.69	5971.88
942.85	5765.03
943.02	5709.74
943.18	5773.22
943.35	5779.37
943.52	5691.31
943.68	5599.15
943.85	5644.20
944.01	5597.10
944.18	5541.80
944.35	5642.15
944.51	5595.05
944.68	5386.16
944.84	5363.63
945.01	5382.06
945.17	5427.12
945.34	5320.62
945.51	5236.66
945.67	5308.34
945.84	5277.62
946.00	5214.13
946.17	5296.05
946.33	5185.46
946.50	5412.78
946.67	5087.15
946.83	5205.94
947.00	5339.05
947.16	5308.34
947.33	5306.29
947.49	5193.65
947.66	5181.36
947.82	5146.55
947.99	5007.28
948.16	5261.23
948.32	5263.28
948.49	5250.99
948.65	5236.66
948.82	5320.62
948.98	5195.70
949.15	5111.73
949.31	5181.36
949.48	5212.08
949.64	5220.27
949.81	5154.74
949.97	5160.88
950.14	5269.42
950.30	5300.14
950.47	5427.12
950.63	5154.74
950.80	5304.24
950.96	5240.75
951.13	5160.88
951.30	5310.38
951.46	5238.70
951.63	5416.88
951.79	5271.47
951.96	5312.43
952.12	5207.98
952.29	5185.46
952.45	5271.47
952.62	5375.92
952.78	5332.91
952.94	5314.48
953.11	5320.62
953.27	5326.77
953.44	5595.05
953.60	5242.80
953.77	5500.84
953.93	5347.25
954.10	5287.86
954.26	5308.34
954.43	5451.69
954.59	5547.95
954.76	5435.31
954.92	5181.36
955.09	5494.70
955.25	5459.88
955.42	5396.40
955.58	5474.22
955.75	5398.45
955.91	5294.00
956.07	5443.50
956.24	5380.01
956.40	5498.80
956.57	5554.09
956.73	5406.64
956.90	5586.86
957.06	5535.66
957.23	5326.77
957.39	5339.05
957.56	5476.27
957.72	5244.85
957.88	5533.61
958.05	5656.49
958.21	5496.75
958.38	5441.45
958.54	5447.60
958.71	5588.91
958.87	5492.65
959.03	5416.88
959.20	5492.65
959.36	5470.12
959.53	5431.21
959.69	5396.40
959.85	5408.69
960.02	5332.91
960.18	5459.88
960.35	5377.97
960.51	5459.88
960.68	5298.10
960.84	5459.88
961.00	5302.19
961.17	5506.99
961.33	5337.01
961.50	5371.82
961.66	5394.35
961.82	5494.70
961.99	5482.41
962.15	5490.60
962.31	5457.84
962.48	5398.45
962.64	5478.32
962.81	5431.21
962.97	5400.49
963.13	5525.42
963.30	5492.65
963.46	5230.51
963.62	5324.72
963.79	5339.05
963.95	5412.78
964.12	5382.06
964.28	5236.66
964.44	5326.77
964.61	5482.41
964.77	5304.24
964.93	5377.97
965.10	5236.66
965.26	5261.23
965.42	5197.74
965.59	5126.07
965.75	5339.05
965.92	5250.99
966.08	5324.72
966.24	5289.90
966.41	5238.70
966.57	5398.45
966.73	5281.71
966.90	5322.67
967.06	5269.42
967.22	5285.81
967.39	5236.66
967.55	5199.79
967.71	5144.50
967.88	5250.99
968.04	5162.93
968.20	5160.88
968.37	5183.41
968.53	5238.70
968.69	5216.18
968.85	5222.32
969.02	5179.31
969.18	5203.89
969.34	5181.36
969.51	5089.20
969.67	5199.79
969.83	5111.73
970.00	5068.72
970.16	5162.93
970.32	5197.74
970.48	5230.51
970.65	4968.37
970.81	4960.18
970.97	5142.45
971.14	4958.13
971.30	5085.11
971.46	5042.10
971.63	5083.06
971.79	5130.16
971.95	4945.84
972.11	4888.50
972.28	4984.76
972.44	5076.91
972.60	4827.06
972.76	4964.28
972.93	4847.54
973.09	5048.24
973.25	4874.17
973.42	5005.24
973.58	5009.33
973.74	4861.88
973.90	5074.87
974.07	4812.73
974.23	4906.93
974.39	4908.98
974.55	4831.16
974.72	4902.84
974.88	4640.70
975.04	4968.37
975.20	4810.68
975.37	4888.50
975.53	4818.87
975.69	4792.25
975.85	4777.91
976.01	4763.58
976.18	4771.77
976.34	4657.08
976.50	4919.22
976.66	4820.92
976.83	4800.44
976.99	4788.15
977.15	4685.75
977.31	4685.75
977.47	4646.84
977.64	4689.85
977.80	4624.31
977.96	4655.03
978.12	4493.24
978.29	4716.47
978.45	4607.93
978.61	4581.31
978.77	4597.69
978.93	4601.79
979.10	4587.45
979.26	4595.64
979.42	4739.00
979.58	4581.31
979.74	4628.41
979.91	4579.26
980.07	4384.70
980.23	4435.90
980.39	4456.38
980.55	4521.92
980.71	4394.94
980.88	4386.75
981.04	4450.24
981.20	4480.96
981.36	4454.33
981.52	4487.10
981.68	4319.17
981.85	4419.52
982.01	4446.14
982.17	4435.90
982.33	4472.76
982.49	4483.00
982.65	4333.50
982.82	4290.49
982.98	4300.73
983.14	4265.92
983.30	4313.02
983.46	4337.60
983.62	4210.62
983.79	4245.44
983.95	4310.97
984.11	4165.57
984.27	4253.63
984.43	4239.30
984.59	4292.54
984.75	4272.06
984.91	4243.39
985.08	4108.23
985.24	4138.94
985.40	4171.71
985.56	4181.95
985.72	4272.06
985.88	4222.91
986.04	4130.75
986.20	4071.36
986.37	4097.99
986.53	4100.03
986.69	4028.35
986.85	3999.68
987.01	4034.50
987.17	4128.70
987.33	4018.11
987.49	4003.78
987.65	4196.29
987.82	4102.08
987.98	3985.35
988.14	4079.55
988.30	4089.79
988.46	3985.35
988.62	3899.33
988.78	4003.78
988.94	4059.07
989.10	3858.37
989.26	3958.72
989.42	3854.28
989.59	3862.47
989.75	3788.74
989.91	3923.91
990.07	3786.69
990.23	3786.69
990.39	3817.41
990.55	3860.42
990.71	3850.18
990.87	3778.50
991.03	3919.81
991.19	3768.26
991.35	3801.03
991.51	3868.61
991.67	3839.94
991.83	3784.65
992.00	3825.61
992.16	3960.77
992.32	3784.65
992.48	3743.69
992.64	3778.50
992.80	3702.73
992.96	3715.02
993.12	3751.88
993.28	3741.64
993.44	3743.69
993.60	3805.13
993.76	3600.33
993.92	3680.20
994.08	3735.50
994.24	3768.26
994.40	3706.82
994.56	3692.49
994.72	3698.63
994.88	3579.85
995.04	3553.23
995.20	3686.34
995.36	3657.67
995.52	3710.92
995.68	3639.24
995.84	3510.22
996.00	3616.71
996.16	3553.23
996.32	3512.27
996.48	3557.32
996.64	3622.86
996.80	3608.52
996.96	3547.08
997.12	3520.46
997.28	3463.12
997.44	3481.55
997.60	3575.75
997.76	3477.45
997.92	3598.28
998.08	3499.98
998.24	3387.34
998.40	3385.29
998.56	3379.15
998.72	3291.09
998.88	3325.90
999.04	3430.35
999.20	3413.96
999.36	3436.49
999.52	3383.24
999.68	3368.91
999.84	3428.30
1000.00	3346.38
1000.16	3481.55
1000.32	3358.67
1000.48	3424.20
1000.64	3194.83
1000.80	3344.33
1000.95	3291.09
1001.11	3272.65
1001.27	3180.50
1001.43	3219.41
1001.59	3235.79
1001.75	3241.93
1001.91	3221.45
1002.07	3135.44
1002.23	3207.12
1002.39	3262.41
1002.55	3252.17
1002.71	3127.25
1002.87	3174.35
1003.03	3086.29
1003.19	3131.34
1003.34	3186.64
1003.50	3188.69
1003.66	3225.55
1003.82	3174.35
1003.98	3147.73
1004.14	3233.74
1004.30	3102.67
1004.46	3057.62
1004.62	3051.47
1004.78	3053.52
1004.94	3104.72
1005.09	3114.96
1005.25	3112.91
1005.41	2928.60
1005.57	3139.54
1005.73	3010.51
1005.89	3008.47
1006.05	3037.14
1006.21	3069.91
1006.37	2940.88
1006.52	2873.30
1006.68	2961.36
1006.84	2965.46
1007.00	3014.61
1007.16	2969.55
1007.32	2942.93
1007.48	3041.23
1007.64	2914.26
1007.79	2944.98
1007.95	2873.30
1008.11	2971.60
1008.27	2949.08
1008.43	2861.01
1008.59	2867.16
1008.75	3006.42
1008.91	2916.31
1009.06	2891.73
1009.22	2910.16
1009.38	2885.59
1009.54	2899.92
1009.70	2717.65
1009.86	2781.14
1010.01	2887.64
1010.17	2766.81
1010.33	2793.43
1010.49	2752.47
1010.65	2877.40
1010.81	2721.75
1010.96	2852.82
1011.12	2725.85
1011.28	2680.79
1011.44	2873.30
1011.60	2680.79
1011.76	2711.51
1011.91	2908.12
1012.07	2693.08
1012.23	2633.69
1012.39	2688.98
1012.55	2713.56
1012.71	2750.42
1012.86	2623.45
1013.02	2666.46
1013.18	2666.46
1013.34	2478.04
1013.50	2758.61
1013.65	2693.08
1013.81	2580.44
1013.97	2596.82
1014.13	2666.46
1014.29	2674.65
1014.44	2697.17
1014.60	2519.00
1014.76	2656.22
1014.92	2598.87
1015.07	2615.26
1015.23	2619.35
1015.39	2545.63
1015.55	2650.07
1015.71	2586.58
1015.86	2516.95
1016.02	2557.91
1016.18	2457.56
1016.34	2639.83
1016.49	2535.39
1016.65	2617.30
1016.81	2525.15
1016.97	2508.76
1017.12	2535.39
1017.28	2510.81
1017.44	2445.27
1017.60	2414.56
1017.75	2508.76
1017.91	2490.33
1018.07	2488.28
1018.23	2443.23
1018.38	2424.80
1018.54	2420.70
1018.70	2443.23
1018.86	2396.12
1019.01	2480.09
1019.17	2488.28
1019.33	2473.95
1019.49	2453.47
1019.64	2441.18
1019.80	2402.27
1019.96	2508.76
1020.12	2361.31
1020.27	2316.25
1020.43	2344.92
1020.59	2332.64
1020.74	2336.73
1020.90	2453.47
1021.06	2359.26
1021.22	2383.84
1021.37	2340.83
1021.53	2355.16
1021.69	2406.36
1021.84	2265.05
1022.00	2342.88
1022.16	2328.54
1022.31	2269.15
1022.47	2328.54
1022.63	2451.42
1022.79	2244.57
1022.94	2308.06
1023.10	2389.98
1023.26	2203.61
1023.41	2244.57
1023.57	2273.25
1023.73	2334.68
1023.88	2349.02
1024.04	2265.05
1024.20	2322.40
1024.35	2387.93
1024.51	2316.25
1024.67	2209.76
1024.82	2355.16
1024.98	2230.24
1025.14	2301.92
1025.29	2220.00
1025.45	2271.20
1025.61	2189.28
1025.76	2285.53
1025.92	2242.53
1026.08	2224.09
1026.23	2203.61
1026.39	2283.49
1026.55	2199.52
1026.70	2201.57
1026.86	2125.79
1027.02	2303.96
1027.17	2154.46
1027.33	2123.74
1027.48	2148.32
1027.64	2172.89
1027.80	2179.04
1027.95	2232.29
1028.11	2002.91
1028.27	2217.95
1028.42	2154.46
1028.58	2111.46
1028.73	2144.22
1028.89	2060.26
1029.05	2172.89
1029.20	2045.92
>>>>>End Processed Spectral Data<<<<<
